title:2zero, start timestamp:1732159128.491457, stop timestamp:1732159179.994700, headset type:EPOCX, headset serial:E5020C3A, headset firmware:730, channels:67, sampling rate:eeg_128;mot_32, samples:6597      , version:2.2, 
Timestamp,OriginalTimestamp,EEG.Counter,EEG.Interpolated,EEG.AF3,EEG.F7,EEG.F3,EEG.FC5,EEG.T7,EEG.P7,EEG.O1,EEG.O2,EEG.P8,EEG.T8,EEG.FC6,EEG.F4,EEG.F8,EEG.AF4,EEG.RawCq,EEG.Battery,EEG.BatteryPercent,MarkerIndex,MarkerType,MarkerValueInt,EEG.MarkerHardware,CQ.AF3,CQ.F7,CQ.F3,CQ.FC5,CQ.T7,CQ.P7,CQ.O1,CQ.O2,CQ.P8,CQ.T8,CQ.FC6,CQ.F4,CQ.F8,CQ.AF4,CQ.Overall,EQ.SampleRateQuality,EQ.OVERALL,EQ.AF3,EQ.F7,EQ.F3,EQ.FC5,EQ.T7,EQ.P7,EQ.O1,EQ.O2,EQ.P8,EQ.T8,EQ.FC6,EQ.F4,EQ.F8,EQ.AF4,MOT.CounterMems,MOT.InterpolatedMems,MOT.Q0,MOT.Q1,MOT.Q2,MOT.Q3,MOT.AccX,MOT.AccY,MOT.AccZ,MOT.MagX,MOT.MagY,MOT.MagZ
1732159128.491457,1732159128.494791,49.000000,0.000000,4267.948730,4229.102539,4313.205078,4276.282227,4314.743652,4277.692383,4336.025879,4402.051270,4291.666504,4387.563965,4489.743652,4515.641113,4354.743652,4412.179688,0.000000,1.000000,18.000000,,,,0.000000,2.000000,2.000000,0.000000,4.000000,2.000000,2.000000,0.000000,0.000000,4.000000,4.000000,4.000000,4.000000,4.000000,4.000000,0.000000,,,,,,,,,,,,,,,,,,,,,,,,,,,,
1732159128.499265,1732159128.502399,50.000000,0.000000,4274.358887,4230.897461,4311.794922,4278.974121,4325.769043,4279.230957,4336.025879,4400.769043,4286.922852,4385.128418,4488.461426,4512.563965,4356.922852,4413.589844,0.000000,1.000000,18.000000,,,,0.000000,2.000000,2.000000,0.000000,4.000000,2.000000,2.000000,0.000000,0.000000,4.000000,4.000000,4.000000,4.000000,4.000000,4.000000,0.000000,,,,,,,,,,,,,,,,,,,,,,,,,,,,
1732159128.507073,1732159128.510207,51.000000,0.000000,4268.333496,4229.487305,4312.051270,4277.307617,4339.487305,4276.410156,4336.025879,4400.128418,4280.641113,4382.179688,4486.794922,4511.025879,4353.846191,4413.333496,0.000000,1.000000,18.000000,,,,0.000000,2.000000,2.000000,0.000000,4.000000,2.000000,2.000000,0.000000,0.000000,4.000000,4.000000,4.000000,4.000000,4.000000,4.000000,0.000000,,,,,,,,,,,,,,,,,,,,,,,,,,,,
1732159128.514881,1732159128.518115,52.000000,0.000000,4266.922852,4231.153809,4313.333496,4279.743652,4323.846191,4275.128418,4336.025879,4400.897461,4280.769043,4381.922852,4487.948730,4509.487305,4352.948730,4411.922852,0.000000,1.000000,18.000000,,,,0.000000,2.000000,2.000000,0.000000,4.000000,2.000000,2.000000,0.000000,0.000000,4.000000,4.000000,4.000000,4.000000,4.000000,4.000000,0.000000,,,,,,,,,,,,,,,,,13.000000,0.000000,0.530349,0.504395,-0.519836,0.440552,0.960078,0.083995,-0.056159,-34.696720,45.992188,31.587545
1732159128.522690,1732159128.525924,53.000000,0.000000,4276.153809,4231.538574,4313.077148,4284.487305,4302.692383,4278.717773,4336.025879,4400.384766,4281.282227,4382.051270,4488.589844,4512.436035,4356.410156,4413.461426,0.000000,1.000000,18.000000,,,,0.000000,2.000000,2.000000,0.000000,4.000000,2.000000,2.000000,0.000000,0.000000,4.000000,4.000000,4.000000,4.000000,4.000000,4.000000,0.000000,,,,,,,,,,,,,,,,,,,,,,,,,,,,
1732159128.530498,1732159128.533932,54.000000,0.000000,4280.641113,4229.615234,4312.051270,4285.769043,4311.153809,4280.128418,4336.025879,4399.487305,4279.487305,4376.282227,4487.820313,4520.897461,4354.615234,4415.384766,0.000000,1.000000,18.000000,,,,0.000000,2.000000,2.000000,0.000000,4.000000,2.000000,2.000000,0.000000,0.000000,4.000000,4.000000,4.000000,4.000000,4.000000,4.000000,0.000000,,,,,,,,,,,,,,,,,,,,,,,,,,,,
1732159128.538306,1732159128.541740,55.000000,0.000000,4278.717773,4231.922852,4310.512695,4283.205078,4322.563965,4276.282227,4336.025879,4400.641113,4278.974121,4368.333496,4487.692383,4525.000000,4349.615234,4416.794922,0.000000,1.000000,18.000000,,,,0.000000,2.000000,2.000000,0.000000,4.000000,2.000000,2.000000,0.000000,0.000000,4.000000,4.000000,4.000000,4.000000,4.000000,4.000000,0.000000,,,,,,,,,,,,,,,,,,,,,,,,,,,,
1732159128.546115,1732159128.549648,56.000000,0.000000,4272.436035,4229.743652,4311.410156,4279.358887,4313.717773,4276.410156,4336.025879,4402.179688,4282.563965,4367.948730,4487.692383,4521.025879,4350.256348,4415.000000,0.000000,1.000000,18.000000,,,,0.000000,2.000000,2.000000,0.000000,4.000000,2.000000,2.000000,0.000000,0.000000,4.000000,4.000000,4.000000,4.000000,4.000000,4.000000,0.000000,,,,,,,,,,,,,,,,,14.000000,0.000000,0.530510,0.504517,-0.520020,0.440002,0.971310,0.087901,-0.050787,-34.617680,46.013672,31.465912
1732159128.553923,1732159128.557456,57.000000,0.000000,4265.897461,4219.358887,4312.820313,4272.692383,4320.000000,4281.538574,4336.025879,4400.256348,4289.358887,4369.487305,4485.512695,4516.666504,4351.410156,4407.179688,0.000000,1.000000,18.000000,,,,0.000000,2.000000,2.000000,0.000000,4.000000,2.000000,2.000000,0.000000,0.000000,4.000000,4.000000,4.000000,4.000000,4.000000,4.000000,0.000000,,,,,,,,,,,,,,,,,,,,,,,,,,,,
1732159128.561731,1732159128.565064,58.000000,0.000000,4264.487305,4216.538574,4311.666504,4268.205078,4331.282227,4282.692383,4336.025879,4399.487305,4295.000000,4369.102539,4485.256348,4516.922852,4348.333496,4403.205078,0.000000,1.000000,18.000000,,,,0.000000,2.000000,2.000000,0.000000,4.000000,2.000000,2.000000,0.000000,0.000000,4.000000,4.000000,4.000000,4.000000,4.000000,4.000000,0.000000,,,,,,,,,,,,,,,,,,,,,,,,,,,,
1732159128.569539,1732159128.572873,59.000000,0.000000,4268.333496,4226.410156,4310.000000,4273.974121,4310.384766,4281.282227,4336.025879,4401.025879,4295.256348,4365.512695,4488.717773,4513.205078,4349.358887,4409.615234,0.000000,1.000000,18.000000,,,,0.000000,2.000000,2.000000,0.000000,4.000000,2.000000,2.000000,0.000000,0.000000,4.000000,4.000000,4.000000,4.000000,4.000000,4.000000,0.000000,,,,,,,,,,,,,,,,,,,,,,,,,,,,
1732159128.577348,1732159128.580581,60.000000,0.000000,4274.615234,4233.717773,4311.025879,4281.153809,4290.256348,4283.205078,4336.025879,4401.025879,4294.871582,4360.000000,4491.538574,4511.282227,4350.897461,4415.384766,0.000000,1.000000,18.000000,,,,0.000000,2.000000,2.000000,0.000000,4.000000,2.000000,2.000000,0.000000,0.000000,4.000000,4.000000,4.000000,4.000000,4.000000,4.000000,0.000000,,,,,,,,,,,,,,,,,15.000000,0.000000,0.530510,0.504517,-0.520020,0.440002,0.961543,0.087413,-0.052252,-34.568653,45.971073,31.457388
1732159128.585156,1732159128.588389,61.000000,0.000000,4280.128418,4234.487305,4311.794922,4281.282227,4298.205078,4283.717773,4336.025879,4400.256348,4292.179688,4354.615234,4491.410156,4517.820313,4353.077148,4415.512695,0.000000,1.000000,18.000000,,,,0.000000,2.000000,2.000000,0.000000,4.000000,2.000000,2.000000,0.000000,0.000000,4.000000,4.000000,4.000000,4.000000,4.000000,4.000000,0.000000,,,,,,,,,,,,,,,,,,,,,,,,,,,,
1732159128.592964,1732159128.595998,62.000000,0.000000,4281.153809,4235.512695,4313.205078,4281.794922,4302.436035,4280.512695,4336.025879,4399.743652,4293.717773,4354.487305,4491.794922,4522.307617,4357.307617,4416.538574,0.000000,1.000000,18.000000,,,,0.000000,2.000000,2.000000,0.000000,4.000000,2.000000,2.000000,0.000000,0.000000,4.000000,4.000000,4.000000,4.000000,4.000000,4.000000,0.000000,,,,,,,,,,,,,,,,,,,,,,,,,,,,
1732159128.600773,1732159128.603806,63.000000,0.000000,4279.358887,4233.461426,4315.769043,4280.769043,4295.512695,4280.512695,4336.025879,4399.487305,4297.051270,4350.641113,4491.666504,4522.436035,4353.846191,4414.871582,0.000000,1.000000,18.000000,,,,0.000000,2.000000,2.000000,0.000000,4.000000,2.000000,2.000000,0.000000,0.000000,4.000000,4.000000,4.000000,4.000000,4.000000,4.000000,0.000000,,,,,,,,,,,,,,,,,,,,,,,,,,,,
1732159128.608581,1732159128.611714,64.000000,0.000000,4280.384766,4235.000000,4314.358887,4279.871582,4301.025879,4281.794922,4336.025879,4400.641113,4288.333496,4335.000000,4488.846191,4522.436035,4348.077148,4414.358887,0.000000,1.000000,18.000000,,,,0.000000,2.000000,2.000000,0.000000,4.000000,2.000000,2.000000,0.000000,0.000000,4.000000,4.000000,4.000000,4.000000,4.000000,4.000000,0.000000,,,,,,,,,,,,,,,,,16.000000,0.000000,0.531213,0.505737,-0.519043,0.438904,0.970822,0.127457,-0.061531,-34.482277,45.898235,31.175484
1732159128.616389,1732159128.619522,65.000000,0.000000,4281.922852,4244.230957,4313.461426,4286.538574,4298.974121,4282.948730,4336.153809,4401.538574,4287.179688,4327.051270,4490.897461,4525.000000,4355.128418,4425.128418,1613.000000,1.000000,18.000000,,,,0.000000,2.000000,2.000000,0.000000,4.000000,2.000000,2.000000,0.000000,0.000000,4.000000,4.000000,4.000000,4.000000,4.000000,4.000000,0.000000,,,,,,,,,,,,,,,,,,,,,,,,,,,,
1732159128.624197,1732159128.627530,66.000000,0.000000,4280.384766,4244.615234,4317.692383,4286.410156,4293.077148,4282.051270,4336.153809,4400.641113,4296.025879,4327.948730,4494.230957,4523.589844,4360.512695,4428.974121,1359.000000,1.000000,18.000000,,,,0.000000,2.000000,2.000000,0.000000,4.000000,2.000000,2.000000,0.000000,0.000000,4.000000,4.000000,4.000000,4.000000,4.000000,4.000000,0.000000,,,,,,,,,,,,,,,,,,,,,,,,,,,,
1732159128.632005,1732159128.635338,67.000000,0.000000,4278.205078,4240.128418,4318.333496,4278.589844,4302.692383,4279.743652,4335.769043,4400.769043,4287.307617,4318.846191,4491.025879,4520.256348,4351.666504,4420.512695,1429.000000,1.000000,18.000000,,,,0.000000,2.000000,2.000000,0.000000,4.000000,2.000000,2.000000,0.000000,0.000000,4.000000,4.000000,4.000000,4.000000,4.000000,4.000000,0.000000,,,,,,,,,,,,,,,,,,,,,,,,,,,,
1732159128.639814,1732159128.643246,68.000000,0.000000,4279.487305,4245.512695,4313.077148,4284.487305,4292.051270,4279.230957,4336.410156,4402.051270,4285.128418,4307.948730,4488.974121,4524.102539,4351.282227,4420.769043,1426.000000,1.000000,18.000000,,,,0.000000,2.000000,2.000000,0.000000,4.000000,2.000000,2.000000,0.000000,0.000000,4.000000,4.000000,4.000000,4.000000,4.000000,4.000000,0.000000,,,,,,,,,,,,,,,,,17.000000,0.000000,0.530964,0.508240,-0.517883,0.437683,0.960078,0.114272,-0.074228,-34.382309,45.920906,30.957142
1732159128.647622,1732159128.651055,69.000000,0.000000,4280.512695,4251.025879,4309.871582,4294.102539,4263.333496,4280.769043,4336.153809,4401.922852,4301.410156,4312.179688,4493.205078,4530.128418,4360.256348,4427.179688,1197.000000,1.000000,18.000000,,,,0.000000,2.000000,2.000000,0.000000,4.000000,2.000000,2.000000,0.000000,0.000000,4.000000,4.000000,4.000000,4.000000,4.000000,4.000000,0.000000,,,,,,,,,,,,,,,,,,,,,,,,,,,,
1732159128.655430,1732159128.659063,70.000000,0.000000,4280.641113,4247.692383,4310.897461,4286.538574,4254.230957,4281.282227,4334.487305,4401.153809,4302.563965,4313.205078,4493.205078,4531.153809,4359.487305,4428.077148,0.000000,1.000000,18.000000,,,,0.000000,2.000000,2.000000,0.000000,4.000000,2.000000,2.000000,0.000000,0.000000,4.000000,4.000000,4.000000,4.000000,4.000000,4.000000,0.000000,,,,,,,,,,,,,,,,,,,,,,,,,,,,
1732159128.663238,1732159128.666871,71.000000,0.000000,4283.077148,4247.051270,4310.641113,4282.051270,4255.641113,4282.179688,4334.230957,4401.153809,4294.487305,4301.922852,4492.948730,4532.051270,4356.153809,4427.051270,0.000000,1.000000,18.000000,,,,0.000000,2.000000,2.000000,0.000000,4.000000,2.000000,2.000000,0.000000,0.000000,4.000000,4.000000,4.000000,4.000000,4.000000,4.000000,0.000000,,,,,,,,,,,,,,,,,,,,,,,,,,,,
1732159128.671047,1732159128.674779,72.000000,0.000000,4283.717773,4249.102539,4307.820313,4289.102539,4246.538574,4284.871582,4335.512695,4401.025879,4298.205078,4294.230957,4495.897461,4537.436035,4357.051270,4424.358887,1561.000000,1.000000,18.000000,,,,0.000000,2.000000,2.000000,0.000000,4.000000,2.000000,2.000000,0.000000,0.000000,4.000000,4.000000,4.000000,4.000000,4.000000,4.000000,0.000000,,,,,,,,,,,,,,,,,18.000000,0.000000,0.530483,0.509033,-0.517700,0.437561,0.960078,0.114272,-0.074228,-34.404671,46.030933,30.996952
1732159128.678855,1732159128.682587,73.000000,0.000000,4282.563965,4248.589844,4305.769043,4288.589844,4243.846191,4284.358887,4336.025879,4401.538574,4302.820313,4295.128418,4494.487305,4536.794922,4357.948730,4421.410156,1723.000000,1.000000,18.000000,,,,0.000000,2.000000,2.000000,0.000000,4.000000,2.000000,2.000000,0.000000,0.000000,4.000000,4.000000,4.000000,4.000000,4.000000,4.000000,0.000000,,,,,,,,,,,,,,,,,,,,,,,,,,,,
1732159128.686663,1732159128.690595,74.000000,0.000000,4282.307617,4249.358887,4308.589844,4281.922852,4247.820313,4281.922852,4335.897461,4400.641113,4303.333496,4296.282227,4496.666504,4532.948730,4361.282227,4426.282227,1579.000000,1.000000,18.000000,,,,0.000000,2.000000,2.000000,0.000000,4.000000,2.000000,2.000000,0.000000,0.000000,4.000000,4.000000,4.000000,4.000000,4.000000,4.000000,0.000000,,,,,,,,,,,,,,,,,,,,,,,,,,,,
1732159128.694471,1732159128.698403,75.000000,0.000000,4281.922852,4248.461426,4310.512695,4283.461426,4241.922852,4282.179688,4335.000000,4400.000000,4300.512695,4286.794922,4501.282227,4530.384766,4361.922852,4427.563965,1559.000000,1.000000,18.000000,,,,0.000000,2.000000,2.000000,0.000000,4.000000,2.000000,2.000000,0.000000,0.000000,4.000000,4.000000,4.000000,4.000000,4.000000,4.000000,0.000000,,,,,,,,,,,,,,,,,,,,,,,,,,,,
1732159128.702280,1732159128.706312,76.000000,0.000000,4281.410156,4251.025879,4306.666504,4287.820313,4235.641113,4282.436035,4334.743652,4401.025879,4294.743652,4276.794922,4502.179688,4529.358887,4356.666504,4421.538574,1715.000000,1.000000,18.000000,,,,0.000000,2.000000,2.000000,0.000000,4.000000,2.000000,2.000000,0.000000,0.000000,4.000000,4.000000,4.000000,4.000000,4.000000,4.000000,0.000000,,,,,,,,,,,,,,,,,19.000000,0.000000,0.529955,0.509583,-0.517700,0.437561,0.951288,0.094738,-0.069833,-34.279449,46.255054,31.172531
1732159128.710088,1732159128.714120,77.000000,0.000000,4281.922852,4255.256348,4306.794922,4285.641113,4235.641113,4280.897461,4335.641113,4399.871582,4297.563965,4279.615234,4500.512695,4531.538574,4357.179688,4422.436035,1538.000000,1.000000,18.000000,,,,0.000000,2.000000,2.000000,0.000000,4.000000,2.000000,2.000000,0.000000,0.000000,4.000000,4.000000,4.000000,4.000000,4.000000,4.000000,0.000000,,,,,,,,,,,,,,,,,,,,,,,,,,,,
1732159128.717896,1732159128.722128,78.000000,0.000000,4281.666504,4251.282227,4309.871582,4284.615234,4237.179688,4280.256348,4335.256348,4397.307617,4299.743652,4281.538574,4499.102539,4529.615234,4359.487305,4423.589844,1579.000000,1.000000,18.000000,,,,0.000000,2.000000,2.000000,0.000000,4.000000,2.000000,2.000000,0.000000,0.000000,4.000000,4.000000,4.000000,4.000000,4.000000,4.000000,0.000000,1.000000,0.000000,2.000000,2.000000,0.000000,4.000000,2.000000,2.000000,0.000000,0.000000,4.000000,4.000000,4.000000,4.000000,4.000000,4.000000,,,,,,,,,,,,
1732159128.725705,1732159128.729936,79.000000,0.000000,4281.538574,4249.230957,4310.384766,4287.307617,4237.436035,4280.897461,4334.743652,4398.077148,4293.461426,4276.538574,4501.025879,4528.077148,4355.641113,4421.153809,1559.000000,1.000000,18.000000,,,,0.000000,2.000000,2.000000,0.000000,4.000000,2.000000,2.000000,0.000000,0.000000,4.000000,4.000000,4.000000,4.000000,4.000000,4.000000,0.000000,,,,,,,,,,,,,,,,,,,,,,,,,,,,
1732159128.733513,1732159128.737744,80.000000,0.000000,4281.666504,4255.512695,4310.000000,4288.205078,4239.615234,4281.025879,4335.256348,4400.384766,4297.948730,4276.666504,4505.000000,4527.692383,4354.871582,4424.358887,1715.000000,1.000000,18.000000,,,,0.000000,2.000000,2.000000,0.000000,4.000000,2.000000,2.000000,0.000000,0.000000,4.000000,4.000000,4.000000,4.000000,4.000000,4.000000,0.000000,,,,,,,,,,,,,,,,,20.000000,0.000000,0.528097,0.509521,-0.518677,0.438721,0.945428,0.078135,-0.061531,-34.394688,46.353260,31.281418
1732159128.741321,1732159128.745552,81.000000,0.000000,4282.179688,4255.128418,4311.922852,4287.820313,4241.922852,4280.641113,4334.871582,4398.205078,4305.000000,4279.615234,4502.179688,4526.153809,4358.717773,4427.820313,1538.000000,1.000000,18.000000,,,,0.000000,2.000000,2.000000,0.000000,4.000000,2.000000,2.000000,0.000000,0.000000,4.000000,4.000000,4.000000,4.000000,4.000000,4.000000,0.000000,,,,,,,,,,,,,,,,,,,,,,,,,,,,
1732159128.749129,1732159128.753161,82.000000,0.000000,4281.922852,4251.282227,4312.948730,4290.256348,4242.820313,4280.000000,4333.846191,4396.922852,4300.641113,4276.153809,4498.461426,4531.410156,4358.717773,4424.615234,1579.000000,1.000000,18.000000,,,,0.000000,2.000000,2.000000,0.000000,4.000000,2.000000,2.000000,0.000000,0.000000,4.000000,4.000000,4.000000,4.000000,4.000000,4.000000,0.000000,,,,,,,,,,,,,,,,,,,,,,,,,,,,
1732159128.756937,1732159128.760969,83.000000,0.000000,4280.512695,4257.179688,4312.051270,4292.948730,4244.743652,4280.256348,4335.512695,4399.615234,4294.743652,4270.384766,4500.641113,4538.205078,4356.922852,4422.563965,1559.000000,1.000000,18.000000,,,,0.000000,2.000000,2.000000,0.000000,4.000000,2.000000,2.000000,0.000000,0.000000,4.000000,4.000000,4.000000,4.000000,4.000000,4.000000,0.000000,,,,,,,,,,,,,,,,,,,,,,,,,,,,
1732159128.764746,1732159128.768677,84.000000,0.000000,4282.179688,4262.948730,4311.153809,4292.051270,4245.512695,4280.512695,4335.512695,4400.384766,4293.846191,4266.538574,4499.615234,4540.128418,4360.769043,4425.897461,1715.000000,1.000000,18.000000,,,,0.000000,2.000000,2.000000,0.000000,4.000000,2.000000,2.000000,0.000000,0.000000,4.000000,4.000000,4.000000,4.000000,4.000000,4.000000,0.000000,,,,,,,,,,,,,,,,,21.000000,0.000000,0.527742,0.509033,-0.519104,0.439209,0.945428,0.078135,-0.061531,-34.451363,46.472809,31.387947
1732159128.772554,1732159128.776485,85.000000,0.000000,4283.974121,4261.410156,4310.641113,4293.077148,4248.205078,4278.974121,4332.820313,4398.717773,4293.077148,4263.589844,4499.358887,4538.846191,4363.205078,4426.538574,1538.000000,1.000000,18.000000,,,,0.000000,2.000000,2.000000,0.000000,4.000000,2.000000,2.000000,0.000000,0.000000,4.000000,4.000000,4.000000,4.000000,4.000000,4.000000,0.000000,,,,,,,,,,,,,,,,,,,,,,,,,,,,
1732159128.780362,1732159128.784094,86.000000,0.000000,4284.487305,4264.871582,4309.487305,4296.666504,4246.282227,4278.589844,4333.205078,4399.487305,4295.128418,4263.717773,4507.563965,4535.384766,4361.666504,4426.025879,1579.000000,1.000000,18.000000,,,,0.000000,2.000000,2.000000,0.000000,4.000000,2.000000,2.000000,0.000000,0.000000,4.000000,4.000000,4.000000,4.000000,4.000000,4.000000,0.000000,,,,,,,,,,,,,,,,,,,,,,,,,,,,
1732159128.788170,1732159128.791902,87.000000,0.000000,4285.256348,4264.487305,4311.025879,4297.820313,4246.666504,4280.641113,4335.512695,4401.410156,4295.256348,4261.794922,4504.615234,4528.717773,4361.666504,4425.897461,1559.000000,1.000000,18.000000,,,,0.000000,2.000000,2.000000,0.000000,4.000000,2.000000,2.000000,0.000000,0.000000,4.000000,4.000000,4.000000,4.000000,4.000000,4.000000,0.000000,,,,,,,,,,,,,,,,,,,,,,,,,,,,
1732159128.795979,1732159128.799610,88.000000,0.000000,4287.307617,4255.000000,4315.512695,4295.000000,4260.897461,4279.743652,4335.897461,4401.025879,4286.282227,4253.077148,4492.820313,4528.717773,4360.897461,4424.487305,1715.000000,1.000000,18.000000,,,,0.000000,2.000000,2.000000,0.000000,4.000000,2.000000,2.000000,0.000000,0.000000,4.000000,4.000000,4.000000,4.000000,4.000000,4.000000,0.000000,,,,,,,,,,,,,,,,,22.000000,0.000000,0.526781,0.506897,-0.520874,0.440735,0.972287,0.071298,-0.062019,-34.365604,46.319641,31.440905
1732159128.803787,1732159128.807419,89.000000,0.000000,4289.743652,4252.948730,4317.307617,4297.563965,4262.820313,4277.179688,4335.256348,4401.025879,4284.230957,4248.205078,4496.153809,4533.077148,4360.769043,4425.512695,1538.000000,1.000000,18.000000,,,,0.000000,2.000000,2.000000,0.000000,4.000000,2.000000,2.000000,0.000000,0.000000,4.000000,4.000000,4.000000,4.000000,4.000000,4.000000,0.000000,,,,,,,,,,,,,,,,,,,,,,,,,,,,
1732159128.811595,1732159128.815027,90.000000,0.000000,4295.897461,4257.179688,4316.410156,4305.512695,4238.077148,4279.615234,4334.743652,4399.358887,4291.666504,4251.025879,4506.025879,4536.153809,4364.615234,4431.922852,1579.000000,1.000000,18.000000,,,,0.000000,2.000000,2.000000,0.000000,4.000000,2.000000,2.000000,0.000000,0.000000,4.000000,4.000000,4.000000,4.000000,4.000000,4.000000,0.000000,,,,,,,,,,,,,,,,,,,,,,,,,,,,
1732159128.819404,1732159128.822835,91.000000,0.000000,4300.897461,4257.307617,4315.641113,4308.077148,4226.410156,4281.153809,4336.282227,4400.512695,4292.436035,4250.769043,4505.128418,4539.615234,4364.871582,4433.589844,1559.000000,1.000000,18.000000,,,,0.000000,2.000000,2.000000,0.000000,4.000000,2.000000,2.000000,0.000000,0.000000,4.000000,4.000000,4.000000,4.000000,4.000000,4.000000,0.000000,,,,,,,,,,,,,,,,,,,,,,,,,,,,
1732159128.827212,1732159128.830544,92.000000,0.000000,4299.230957,4255.512695,4315.897461,4305.000000,4237.692383,4278.589844,4336.666504,4406.794922,4289.871582,4247.692383,4501.794922,4539.487305,4364.102539,4432.948730,1715.000000,1.000000,18.000000,,,,0.000000,2.000000,2.000000,0.000000,4.000000,2.000000,2.000000,0.000000,0.000000,4.000000,4.000000,4.000000,4.000000,4.000000,4.000000,0.000000,,,,,,,,,,,,,,,,,23.000000,0.000000,0.525557,0.503967,-0.523499,0.442444,0.970333,0.071298,-0.057136,-34.327805,46.433910,31.432133
1732159128.835020,1732159128.838352,93.000000,0.000000,4299.230957,4255.512695,4314.743652,4304.230957,4240.256348,4278.333496,4331.922852,4407.948730,4292.436035,4252.051270,4505.000000,4538.205078,4369.487305,4438.333496,1538.000000,1.000000,18.000000,,,,0.000000,2.000000,2.000000,0.000000,4.000000,2.000000,2.000000,0.000000,0.000000,4.000000,4.000000,4.000000,4.000000,4.000000,4.000000,0.000000,,,,,,,,,,,,,,,,,,,,,,,,,,,,
1732159128.842828,1732159128.845960,94.000000,0.000000,4302.563965,4254.230957,4315.641113,4302.692383,4235.256348,4277.179688,4329.871582,4401.922852,4296.153809,4256.025879,4507.820313,4538.717773,4371.025879,4443.205078,1579.000000,1.000000,18.000000,,,,0.000000,2.000000,2.000000,0.000000,4.000000,2.000000,2.000000,0.000000,0.000000,4.000000,4.000000,4.000000,4.000000,4.000000,4.000000,0.000000,,,,,,,,,,,,,,,,,,,,,,,,,,,,
1732159128.850637,1732159128.853768,95.000000,0.000000,4306.666504,4250.256348,4316.282227,4300.128418,4235.512695,4271.666504,4335.384766,4399.358887,4294.102539,4252.948730,4508.077148,4539.743652,4369.487305,4442.436035,1559.000000,1.000000,18.000000,,,,0.000000,2.000000,2.000000,0.000000,4.000000,2.000000,2.000000,0.000000,0.000000,4.000000,4.000000,4.000000,4.000000,4.000000,4.000000,0.000000,,,,,,,,,,,,,,,,,,,,,,,,,,,,
1732159128.858445,1732159128.861477,96.000000,0.000000,4309.102539,4249.102539,4315.512695,4300.000000,4235.256348,4268.589844,4337.436035,4405.256348,4287.436035,4249.615234,4508.461426,4544.487305,4373.846191,4447.179688,1715.000000,1.000000,18.000000,,,,0.000000,2.000000,2.000000,0.000000,4.000000,2.000000,2.000000,0.000000,0.000000,4.000000,4.000000,4.000000,4.000000,4.000000,4.000000,0.000000,,,,,,,,,,,,,,,,,24.000000,0.000000,0.524915,0.502197,-0.524963,0.443481,0.982542,0.058113,-0.060066,-34.363857,46.406467,31.283361
1732159128.866253,1732159128.869285,97.000000,0.000000,4310.384766,4254.743652,4315.512695,4301.282227,4235.512695,4272.179688,4334.358887,4405.641113,4289.102539,4247.563965,4507.179688,4547.563965,4374.102539,4456.666504,1538.000000,1.000000,18.000000,,,,0.000000,2.000000,2.000000,0.000000,4.000000,2.000000,2.000000,0.000000,0.000000,4.000000,4.000000,4.000000,4.000000,4.000000,4.000000,0.000000,,,,,,,,,,,,,,,,,,,,,,,,,,,,
1732159128.874061,1732159128.876893,98.000000,0.000000,4313.974121,4262.563965,4316.666504,4301.025879,4235.256348,4271.282227,4333.846191,4404.102539,4297.563965,4246.538574,4507.692383,4547.179688,4369.487305,4458.717773,1579.000000,1.000000,18.000000,,,,0.000000,2.000000,2.000000,0.000000,4.000000,2.000000,2.000000,0.000000,0.000000,4.000000,4.000000,4.000000,4.000000,4.000000,4.000000,0.000000,,,,,,,,,,,,,,,,,,,,,,,,,,,,
1732159128.881869,1732159128.884702,99.000000,0.000000,4318.717773,4262.051270,4316.794922,4300.641113,4233.077148,4265.512695,4335.128418,4406.666504,4291.410156,4248.974121,4510.256348,4546.666504,4373.461426,4458.461426,1559.000000,1.000000,18.000000,,,,0.000000,2.000000,2.000000,0.000000,4.000000,2.000000,2.000000,0.000000,0.000000,4.000000,4.000000,4.000000,4.000000,4.000000,4.000000,0.000000,,,,,,,,,,,,,,,,,,,,,,,,,,,,
1732159128.889678,1732159128.892610,100.000000,0.000000,4324.230957,4261.794922,4317.692383,4300.128418,4231.794922,4263.717773,4335.641113,4405.897461,4280.256348,4243.974121,4510.769043,4549.102539,4381.794922,4461.794922,1715.000000,1.000000,18.000000,,,,0.000000,2.000000,2.000000,0.000000,4.000000,2.000000,2.000000,0.000000,0.000000,4.000000,4.000000,4.000000,4.000000,4.000000,4.000000,0.000000,,,,,,,,,,,,,,,,,25.000000,0.000000,0.524650,0.501404,-0.525574,0.443970,0.978147,0.073251,-0.049811,-34.643059,46.582573,31.419521
1732159128.897486,1732159128.900418,101.000000,0.000000,4326.794922,4264.487305,4320.769043,4301.922852,4231.153809,4264.230957,4336.410156,4402.820313,4278.461426,4232.436035,4508.717773,4553.205078,4379.615234,4461.794922,1538.000000,1.000000,18.000000,,,,0.000000,2.000000,2.000000,0.000000,4.000000,2.000000,2.000000,0.000000,0.000000,4.000000,4.000000,4.000000,4.000000,4.000000,4.000000,0.000000,,,,,,,,,,,,,,,,,,,,,,,,,,,,
1732159128.905294,1732159128.908026,102.000000,0.000000,4327.051270,4263.846191,4320.512695,4303.205078,4231.922852,4264.615234,4335.897461,4404.102539,4282.307617,4236.282227,4511.666504,4553.461426,4377.820313,4462.307617,1579.000000,1.000000,18.000000,,,,0.000000,2.000000,2.000000,0.000000,4.000000,2.000000,2.000000,0.000000,0.000000,4.000000,4.000000,4.000000,4.000000,4.000000,4.000000,0.000000,,,,,,,,,,,,,,,,,,,,,,,,,,,,
1732159128.913103,1732159128.915834,103.000000,0.000000,4328.077148,4262.948730,4319.102539,4300.769043,4231.666504,4264.230957,4336.025879,4406.153809,4292.820313,4250.512695,4521.025879,4551.282227,4388.717773,4470.641113,1559.000000,1.000000,18.000000,,,,0.000000,2.000000,2.000000,0.000000,4.000000,2.000000,2.000000,0.000000,0.000000,4.000000,4.000000,4.000000,4.000000,4.000000,4.000000,0.000000,,,,,,,,,,,,,,,,,,,,,,,,,,,,
1732159128.920911,1732159128.923543,104.000000,0.000000,4333.205078,4272.051270,4319.615234,4303.717773,4229.743652,4261.794922,4336.538574,4402.307617,4296.538574,4248.717773,4523.846191,4552.948730,4394.487305,4477.820313,1715.000000,1.000000,18.000000,,,,0.000000,2.000000,2.000000,0.000000,4.000000,2.000000,2.000000,0.000000,0.000000,4.000000,4.000000,4.000000,4.000000,4.000000,4.000000,0.000000,,,,,,,,,,,,,,,,,26.000000,0.000000,0.524203,0.499756,-0.526917,0.444763,0.971310,0.067879,-0.048834,-34.805878,46.693550,31.181480
1732159128.928719,1732159128.931351,105.000000,0.000000,4341.282227,4280.128418,4319.615234,4307.692383,4229.230957,4262.307617,4335.897461,4401.025879,4284.102539,4235.256348,4515.384766,4552.179688,4388.846191,4477.179688,1538.000000,1.000000,18.000000,,,,0.000000,2.000000,2.000000,0.000000,4.000000,2.000000,2.000000,0.000000,0.000000,4.000000,4.000000,4.000000,4.000000,4.000000,4.000000,0.000000,,,,,,,,,,,,,,,,,,,,,,,,,,,,
1732159128.936527,1732159128.939359,106.000000,0.000000,4342.820313,4278.974121,4318.461426,4308.589844,4230.512695,4263.077148,4335.897461,4403.077148,4277.179688,4229.871582,4512.179688,4542.436035,4386.666504,4476.794922,1579.000000,1.000000,18.000000,,,,0.000000,2.000000,2.000000,0.000000,4.000000,2.000000,2.000000,0.000000,0.000000,4.000000,4.000000,4.000000,4.000000,4.000000,4.000000,0.000000,,,,,,,,,,,,,,,,,,,,,,,,,,,,
1732159128.944336,1732159128.947167,107.000000,0.000000,4342.692383,4278.717773,4318.589844,4310.897461,4231.153809,4258.205078,4336.922852,4402.692383,4281.025879,4230.641113,4518.589844,4537.692383,4387.692383,4481.153809,1559.000000,1.000000,18.000000,,,,0.000000,2.000000,2.000000,0.000000,4.000000,2.000000,2.000000,0.000000,0.000000,4.000000,4.000000,4.000000,4.000000,4.000000,4.000000,0.000000,,,,,,,,,,,,,,,,,,,,,,,,,,,,
1732159128.952144,1732159128.954876,108.000000,0.000000,4348.077148,4282.948730,4318.461426,4312.179688,4229.871582,4254.102539,4334.871582,4403.589844,4278.974121,4231.025879,4521.794922,4541.794922,4392.179688,4483.333496,1715.000000,1.000000,18.000000,,,,0.000000,2.000000,2.000000,0.000000,4.000000,2.000000,2.000000,0.000000,0.000000,4.000000,4.000000,4.000000,4.000000,4.000000,4.000000,0.000000,,,,,,,,,,,,,,,,,27.000000,0.000000,0.522778,0.497986,-0.528870,0.446106,0.974240,0.086925,-0.065438,-34.977760,46.368443,31.203665
1732159128.959952,1732159128.962684,109.000000,0.000000,4350.512695,4282.692383,4319.230957,4309.871582,4225.512695,4253.846191,4332.436035,4407.307617,4277.436035,4232.436035,4520.128418,4547.436035,4396.282227,4483.333496,1538.000000,1.000000,18.000000,,,,0.000000,2.000000,2.000000,0.000000,4.000000,2.000000,2.000000,0.000000,0.000000,4.000000,4.000000,4.000000,4.000000,4.000000,4.000000,0.000000,,,,,,,,,,,,,,,,,,,,,,,,,,,,
1732159128.967760,1732159128.970692,110.000000,0.000000,4342.563965,4278.846191,4318.333496,4305.128418,4223.461426,4255.512695,4333.846191,4406.922852,4276.538574,4232.179688,4520.000000,4548.846191,4392.436035,4486.282227,1579.000000,1.000000,18.000000,,,,0.000000,2.000000,2.000000,0.000000,4.000000,2.000000,2.000000,0.000000,0.000000,4.000000,4.000000,4.000000,4.000000,4.000000,4.000000,0.000000,,,,,,,,,,,,,,,,,,,,,,,,,,,,
1732159128.975569,1732159128.978500,111.000000,0.000000,4338.589844,4279.487305,4317.563965,4301.282227,4227.436035,4259.871582,4334.871582,4402.563965,4272.820313,4230.641113,4521.282227,4549.487305,4388.717773,4490.641113,1559.000000,1.000000,18.000000,,,,0.000000,2.000000,2.000000,0.000000,4.000000,2.000000,2.000000,0.000000,0.000000,4.000000,4.000000,4.000000,4.000000,4.000000,4.000000,0.000000,,,,,,,,,,,,,,,,,,,,,,,,,,,,
1732159128.983377,1732159128.986408,112.000000,0.000000,4343.717773,4280.000000,4319.615234,4303.974121,4232.820313,4264.230957,4333.589844,4401.666504,4276.666504,4230.641113,4519.615234,4551.025879,4387.051270,4490.256348,1715.000000,1.000000,18.000000,,,,0.000000,2.000000,2.000000,0.000000,4.000000,2.000000,2.000000,0.000000,0.000000,4.000000,4.000000,4.000000,4.000000,4.000000,4.000000,0.000000,,,,,,,,,,,,,,,,,28.000000,0.000000,0.522263,0.497559,-0.529419,0.446533,0.979612,0.063484,-0.063973,-34.970318,46.363438,31.246635
1732159128.991185,1732159128.994216,113.000000,0.000000,4344.615234,4280.000000,4322.307617,4309.230957,4232.820313,4263.846191,4334.487305,4404.102539,4281.538574,4230.769043,4518.974121,4550.256348,4384.487305,4488.205078,1538.000000,1.000000,18.000000,,,,0.000000,2.000000,2.000000,0.000000,4.000000,2.000000,2.000000,0.000000,0.000000,4.000000,4.000000,4.000000,4.000000,4.000000,4.000000,0.000000,,,,,,,,,,,,,,,,,,,,,,,,,,,,
1732159128.998993,1732159129.002224,114.000000,0.000000,4344.102539,4285.000000,4320.384766,4308.974121,4230.641113,4263.461426,4335.256348,4402.820313,4280.128418,4231.153809,4520.641113,4550.128418,4390.641113,4490.769043,1579.000000,1.000000,18.000000,,,,0.000000,2.000000,2.000000,0.000000,4.000000,2.000000,2.000000,0.000000,0.000000,4.000000,4.000000,4.000000,4.000000,4.000000,4.000000,0.000000,,,,,,,,,,,,,,,,,,,,,,,,,,,,
1732159129.006802,1732159129.010032,115.000000,0.000000,4349.871582,4292.307617,4318.974121,4310.384766,4233.205078,4263.461426,4333.846191,4400.512695,4282.692383,4236.666504,4526.025879,4554.743652,4402.692383,4493.333496,1559.000000,1.000000,18.000000,,,,0.000000,2.000000,2.000000,0.000000,4.000000,2.000000,2.000000,0.000000,0.000000,4.000000,4.000000,4.000000,4.000000,4.000000,4.000000,0.000000,,,,,,,,,,,,,,,,,,,,,,,,,,,,
1732159129.014610,1732159129.017941,116.000000,0.000000,4352.436035,4296.922852,4321.410156,4314.230957,4235.384766,4263.717773,4334.358887,4401.666504,4283.846191,4239.358887,4528.717773,4553.846191,4401.410156,4492.563965,1715.000000,1.000000,18.000000,,,,0.000000,2.000000,2.000000,0.000000,4.000000,2.000000,2.000000,0.000000,0.000000,4.000000,4.000000,4.000000,4.000000,4.000000,4.000000,0.000000,,,,,,,,,,,,,,,,,29.000000,0.000000,0.520837,0.496460,-0.530823,0.447754,0.969845,0.035161,-0.064461,-34.817623,46.104385,31.421442
1732159129.022418,1732159129.025749,117.000000,0.000000,4347.307617,4297.179688,4322.307617,4312.436035,4234.487305,4262.307617,4335.641113,4402.436035,4273.205078,4230.000000,4516.922852,4544.230957,4386.282227,4489.102539,1538.000000,1.000000,18.000000,,,,0.000000,2.000000,2.000000,0.000000,4.000000,2.000000,2.000000,0.000000,0.000000,4.000000,4.000000,4.000000,4.000000,4.000000,4.000000,0.000000,,,,,,,,,,,,,,,,,,,,,,,,,,,,
1732159129.030226,1732159129.033757,118.000000,0.000000,4341.666504,4295.000000,4320.256348,4308.717773,4232.051270,4256.410156,4333.589844,4401.410156,4272.051270,4224.743652,4508.589844,4539.743652,4381.538574,4486.025879,1579.000000,1.000000,18.000000,,,,0.000000,2.000000,2.000000,0.000000,4.000000,2.000000,2.000000,0.000000,0.000000,4.000000,4.000000,4.000000,4.000000,4.000000,4.000000,0.000000,,,,,,,,,,,,,,,,,,,,,,,,,,,,
1732159129.038035,1732159129.041565,119.000000,0.000000,4341.538574,4294.358887,4321.153809,4305.769043,4230.769043,4256.025879,4332.436035,4400.641113,4278.205078,4231.410156,4518.333496,4543.461426,4392.179688,4487.692383,1559.000000,1.000000,18.000000,,,,0.000000,2.000000,2.000000,0.000000,4.000000,2.000000,2.000000,0.000000,0.000000,4.000000,4.000000,4.000000,4.000000,4.000000,4.000000,0.000000,,,,,,,,,,,,,,,,,,,,,,,,,,,,
1732159129.045843,1732159129.049473,120.000000,0.000000,4345.897461,4295.256348,4323.846191,4304.230957,4231.025879,4255.897461,4334.871582,4403.461426,4271.153809,4233.846191,4524.615234,4549.871582,4396.282227,4490.897461,1715.000000,1.000000,18.000000,,,,0.000000,2.000000,2.000000,0.000000,4.000000,2.000000,2.000000,0.000000,0.000000,4.000000,4.000000,4.000000,4.000000,4.000000,4.000000,0.000000,,,,,,,,,,,,,,,,,30.000000,0.000000,0.518664,0.493347,-0.533264,0.450806,0.949823,0.023929,-0.058113,-34.723942,46.057884,31.506367
1732159129.053651,1732159129.057281,121.000000,0.000000,4349.230957,4295.897461,4321.538574,4307.307617,4231.666504,4247.051270,4336.153809,4404.358887,4264.487305,4229.615234,4518.461426,4553.077148,4387.179688,4492.307617,1538.000000,1.000000,18.000000,,,,0.000000,2.000000,2.000000,0.000000,4.000000,2.000000,2.000000,0.000000,0.000000,4.000000,4.000000,4.000000,4.000000,4.000000,4.000000,0.000000,,,,,,,,,,,,,,,,,,,,,,,,,,,,
1732159129.061459,1732159129.065289,122.000000,0.000000,4347.563965,4295.897461,4318.974121,4306.794922,4231.666504,4247.436035,4334.487305,4401.666504,4272.436035,4232.948730,4518.461426,4552.948730,4383.974121,4492.820313,1579.000000,1.000000,18.000000,,,,0.000000,2.000000,2.000000,0.000000,4.000000,2.000000,2.000000,0.000000,0.000000,4.000000,4.000000,4.000000,4.000000,4.000000,4.000000,0.000000,,,,,,,,,,,,,,,,,,,,,,,,,,,,
1732159129.069268,1732159129.073098,123.000000,0.000000,4343.077148,4296.410156,4320.384766,4304.871582,4230.897461,4256.922852,4333.205078,4401.025879,4278.974121,4240.769043,4522.820313,4554.871582,4385.256348,4492.051270,1559.000000,1.000000,18.000000,,,,0.000000,2.000000,2.000000,0.000000,4.000000,2.000000,2.000000,0.000000,0.000000,4.000000,4.000000,4.000000,4.000000,4.000000,4.000000,0.000000,,,,,,,,,,,,,,,,,,,,,,,,,,,,
1732159129.077076,1732159129.081006,124.000000,0.000000,4341.922852,4296.794922,4320.384766,4308.846191,4233.077148,4257.563965,4333.589844,4403.589844,4278.461426,4245.384766,4522.179688,4558.333496,4383.077148,4490.256348,1715.000000,1.000000,18.000000,,,,0.000000,2.000000,2.000000,0.000000,4.000000,2.000000,2.000000,0.000000,0.000000,4.000000,4.000000,4.000000,4.000000,4.000000,4.000000,0.000000,,,,,,,,,,,,,,,,,31.000000,0.000000,0.517089,0.490784,-0.535034,0.453308,0.976682,0.030765,-0.056648,-34.801395,46.026886,31.610157
1732159129.084884,1732159129.088814,125.000000,0.000000,4347.051270,4297.820313,4317.179688,4311.922852,4235.000000,4255.641113,4334.743652,4404.615234,4282.179688,4247.692383,4523.589844,4560.512695,4386.282227,4491.025879,1538.000000,1.000000,18.000000,,,,0.000000,2.000000,2.000000,0.000000,4.000000,2.000000,2.000000,0.000000,0.000000,4.000000,4.000000,4.000000,4.000000,4.000000,4.000000,0.000000,,,,,,,,,,,,,,,,,,,,,,,,,,,,
1732159129.092693,1732159129.096822,126.000000,0.000000,4349.358887,4297.051270,4318.846191,4309.102539,4234.358887,4255.512695,4334.871582,4402.563965,4280.641113,4240.128418,4522.948730,4556.410156,4387.179688,4490.769043,1579.000000,1.000000,18.000000,,,,0.000000,2.000000,2.000000,0.000000,4.000000,2.000000,2.000000,0.000000,0.000000,4.000000,4.000000,4.000000,4.000000,4.000000,4.000000,0.000000,,,,,,,,,,,,,,,,,,,,,,,,,,,,
1732159129.100501,1732159129.104630,127.000000,0.000000,4345.000000,4295.641113,4321.794922,4308.077148,4234.358887,4255.128418,4333.333496,4400.512695,4278.077148,4234.871582,4518.717773,4547.820313,4381.410156,4488.205078,18.000000,1.000000,18.000000,,,,0.000000,2.000000,2.000000,0.000000,4.000000,2.000000,2.000000,0.000000,0.000000,4.000000,4.000000,4.000000,4.000000,4.000000,4.000000,0.000000,,,,,,,,,,,,,,,,,,,,,,,,,,,,
1732159129.108309,1732159129.112538,0.000000,0.000000,4342.307617,4295.256348,4320.641113,4310.897461,4234.487305,4259.358887,4333.461426,4401.153809,4280.000000,4239.871582,4519.743652,4546.153809,4377.307617,4488.333496,0.000000,1.000000,18.000000,,,,0.000000,2.000000,2.000000,0.000000,4.000000,2.000000,2.000000,0.000000,0.000000,4.000000,4.000000,4.000000,4.000000,4.000000,4.000000,0.000000,,,,,,,,,,,,,,,,,0.000000,0.000000,0.516616,0.489502,-0.535889,0.454224,0.978147,0.000000,-0.041021,-34.934128,45.926777,31.652561
1732159129.116117,1732159129.120346,1.000000,0.000000,4344.102539,4297.820313,4319.487305,4311.410156,4236.025879,4263.205078,4334.487305,4402.307617,4272.820313,4239.230957,4518.717773,4547.307617,4376.538574,4485.256348,1614.000000,1.000000,18.000000,,,,0.000000,2.000000,2.000000,0.000000,4.000000,2.000000,2.000000,0.000000,0.000000,4.000000,4.000000,4.000000,4.000000,4.000000,4.000000,0.000000,,,,,,,,,,,,,,,,,,,,,,,,,,,,
1732159129.123925,1732159129.128354,2.000000,0.000000,4342.051270,4301.153809,4320.641113,4310.256348,4239.743652,4259.743652,4335.128418,4401.410156,4263.717773,4230.897461,4511.153809,4543.974121,4374.358887,4476.153809,1356.000000,1.000000,18.000000,,,,0.000000,2.000000,2.000000,0.000000,4.000000,2.000000,2.000000,0.000000,0.000000,4.000000,4.000000,4.000000,4.000000,4.000000,4.000000,0.000000,,,,,,,,,,,,,,,,,,,,,,,,,,,,
1732159129.131734,1732159129.136163,3.000000,0.000000,4337.307617,4299.615234,4319.871582,4310.769043,4244.230957,4258.205078,4332.563965,4399.358887,4267.179688,4232.820313,4507.179688,4540.769043,4369.102539,4471.922852,1431.000000,1.000000,18.000000,,,,0.000000,2.000000,2.000000,0.000000,4.000000,2.000000,2.000000,0.000000,0.000000,4.000000,4.000000,4.000000,4.000000,4.000000,4.000000,0.000000,,,,,,,,,,,,,,,,,,,,,,,,,,,,
1732159129.139542,1732159129.144071,4.000000,0.000000,4335.641113,4295.256348,4320.769043,4310.384766,4247.179688,4263.589844,4331.410156,4399.230957,4275.897461,4241.922852,4507.948730,4541.794922,4365.769043,4472.692383,1441.000000,1.000000,18.000000,,,,0.000000,2.000000,2.000000,0.000000,4.000000,2.000000,2.000000,0.000000,0.000000,4.000000,4.000000,4.000000,4.000000,4.000000,4.000000,0.000000,,,,,,,,,,,,,,,,,1.000000,0.000000,0.515360,0.486938,-0.537720,0.456238,0.985960,0.004883,-0.048346,-35.013309,45.627357,31.630241
1732159129.147350,1732159129.151879,5.000000,0.000000,4334.102539,4294.487305,4325.512695,4306.153809,4248.461426,4263.717773,4332.179688,4400.512695,4276.538574,4242.563965,4505.641113,4543.589844,4363.589844,4470.512695,1197.000000,1.000000,18.000000,,,,0.000000,2.000000,2.000000,0.000000,4.000000,2.000000,2.000000,0.000000,0.000000,4.000000,4.000000,4.000000,4.000000,4.000000,4.000000,0.000000,,,,,,,,,,,,,,,,,,,,,,,,,,,,
1732159129.155158,1732159129.159487,6.000000,0.000000,4334.615234,4294.871582,4324.102539,4305.641113,4245.769043,4260.769043,4331.794922,4400.128418,4277.307617,4245.000000,4505.256348,4548.333496,4363.333496,4472.179688,0.000000,1.000000,18.000000,,,,0.000000,2.000000,2.000000,0.000000,4.000000,2.000000,2.000000,0.000000,0.000000,4.000000,4.000000,4.000000,4.000000,4.000000,4.000000,0.000000,,,,,,,,,,,,,,,,,,,,,,,,,,,,
1732159129.162967,1732159129.167296,7.000000,0.000000,4335.897461,4293.846191,4320.256348,4308.846191,4249.871582,4262.051270,4331.153809,4400.000000,4280.384766,4250.512695,4508.846191,4554.487305,4366.153809,4477.436035,0.000000,1.000000,18.000000,,,,0.000000,2.000000,2.000000,0.000000,4.000000,2.000000,2.000000,0.000000,0.000000,4.000000,4.000000,4.000000,4.000000,4.000000,4.000000,0.000000,,,,,,,,,,,,,,,,,,,,,,,,,,,,
1732159129.170775,1732159129.175204,8.000000,0.000000,4334.358887,4296.025879,4321.538574,4309.871582,4257.820313,4267.948730,4334.871582,4400.769043,4279.615234,4250.256348,4507.820313,4554.230957,4368.077148,4476.282227,1541.000000,1.000000,18.000000,,,,0.000000,2.000000,2.000000,0.000000,4.000000,2.000000,2.000000,0.000000,0.000000,4.000000,4.000000,4.000000,4.000000,4.000000,4.000000,0.000000,,,,,,,,,,,,,,,,,2.000000,0.000000,0.511998,0.482422,-0.541504,0.460327,0.974728,-0.021487,-0.045416,-35.177448,45.468159,31.662163
1732159129.178583,1732159129.183012,9.000000,0.000000,4333.461426,4298.717773,4321.794922,4310.256348,4257.820313,4267.563965,4336.666504,4400.897461,4278.461426,4252.307617,4505.256348,4548.717773,4365.256348,4471.538574,1703.000000,1.000000,18.000000,,,,0.000000,2.000000,2.000000,0.000000,4.000000,2.000000,2.000000,0.000000,0.000000,4.000000,4.000000,4.000000,4.000000,4.000000,4.000000,0.000000,,,,,,,,,,,,,,,,,,,,,,,,,,,,
1732159129.186391,1732159129.190620,10.000000,0.000000,4334.743652,4296.153809,4318.333496,4310.256348,4253.846191,4263.974121,4330.384766,4400.897461,4280.128418,4261.922852,4508.205078,4542.948730,4365.641113,4471.794922,1568.000000,1.000000,18.000000,,,,0.000000,2.000000,2.000000,0.000000,4.000000,2.000000,2.000000,0.000000,0.000000,4.000000,4.000000,4.000000,4.000000,4.000000,4.000000,0.000000,,,,,,,,,,,,,,,,,,,,,,,,,,,,
1732159129.194200,1732159129.198428,11.000000,0.000000,4335.512695,4295.641113,4319.102539,4309.871582,4251.538574,4265.641113,4328.205078,4401.025879,4281.794922,4266.410156,4510.384766,4541.282227,4368.205078,4475.512695,1551.000000,1.000000,18.000000,,,,0.000000,2.000000,2.000000,0.000000,4.000000,2.000000,2.000000,0.000000,0.000000,4.000000,4.000000,4.000000,4.000000,4.000000,4.000000,0.000000,,,,,,,,,,,,,,,,,,,,,,,,,,,,
1732159129.202008,1732159129.206137,12.000000,0.000000,4338.333496,4301.153809,4319.871582,4313.333496,4263.077148,4266.025879,4334.358887,4400.512695,4278.205078,4260.256348,4507.436035,4540.128418,4364.102539,4476.025879,1706.000000,1.000000,18.000000,,,,0.000000,2.000000,2.000000,0.000000,4.000000,2.000000,2.000000,0.000000,0.000000,4.000000,4.000000,4.000000,4.000000,4.000000,4.000000,0.000000,,,,,,,,,,,,,,,,,3.000000,0.000000,0.511190,0.481384,-0.542358,0.461304,0.971310,-0.025394,-0.050299,-35.102066,45.404209,31.658018
1732159129.209816,1732159129.213945,13.000000,0.000000,4342.179688,4303.077148,4319.743652,4316.153809,4274.230957,4263.846191,4336.794922,4400.512695,4276.410156,4262.051270,4507.563965,4544.487305,4363.717773,4474.487305,1531.000000,1.000000,18.000000,,,,0.000000,2.000000,2.000000,0.000000,4.000000,2.000000,2.000000,0.000000,0.000000,4.000000,4.000000,4.000000,4.000000,4.000000,4.000000,0.000000,,,,,,,,,,,,,,,,,,,,,,,,,,,,
1732159129.217625,1732159129.221953,14.000000,0.000000,4340.769043,4297.051270,4320.897461,4312.307617,4260.128418,4264.487305,4331.666504,4400.128418,4280.641113,4269.871582,4510.641113,4553.461426,4368.461426,4476.922852,1568.000000,1.000000,18.000000,,,,0.000000,2.000000,2.000000,0.000000,4.000000,2.000000,2.000000,0.000000,0.000000,4.000000,4.000000,4.000000,4.000000,4.000000,4.000000,0.000000,1.000000,0.000000,2.000000,2.000000,0.000000,4.000000,2.000000,2.000000,0.000000,0.000000,4.000000,1.000000,4.000000,4.000000,4.000000,4.000000,,,,,,,,,,,,
1732159129.225433,1732159129.229761,15.000000,0.000000,4335.769043,4294.615234,4320.384766,4310.256348,4241.153809,4264.615234,4329.358887,4397.948730,4283.205078,4268.461426,4509.230957,4553.333496,4367.179688,4478.077148,1551.000000,1.000000,18.000000,,,,0.000000,2.000000,2.000000,0.000000,4.000000,2.000000,2.000000,0.000000,0.000000,4.000000,4.000000,4.000000,4.000000,4.000000,4.000000,0.000000,,,,,,,,,,,,,,,,,,,,,,,,,,,,
1732159129.233241,1732159129.237669,16.000000,0.000000,4333.717773,4297.820313,4316.794922,4312.563965,4247.692383,4263.589844,4334.487305,4397.820313,4281.282227,4266.666504,4506.922852,4546.025879,4363.589844,4470.128418,0.000000,1.000000,18.000000,,,,0.000000,2.000000,2.000000,0.000000,4.000000,2.000000,2.000000,0.000000,0.000000,4.000000,4.000000,4.000000,4.000000,4.000000,4.000000,0.000000,,,,,,,,,,,,,,,,,4.000000,0.000000,0.509923,0.479431,-0.543823,0.463013,0.979123,-0.017580,-0.049811,-35.024342,45.169075,31.774662
1732159129.241049,1732159129.245477,17.000000,0.000000,4333.974121,4296.410156,4318.461426,4311.666504,4262.307617,4266.025879,4335.641113,4401.153809,4281.666504,4270.128418,4507.563965,4541.153809,4362.820313,4465.769043,0.000000,1.000000,18.000000,,,,0.000000,2.000000,2.000000,0.000000,4.000000,2.000000,2.000000,0.000000,0.000000,4.000000,4.000000,4.000000,4.000000,4.000000,4.000000,0.000000,,,,,,,,,,,,,,,,,,,,,,,,,,,,
1732159129.248857,1732159129.253086,18.000000,0.000000,4333.974121,4295.256348,4321.922852,4311.794922,4261.538574,4266.922852,4331.410156,4402.179688,4283.205078,4270.256348,4507.820313,4538.974121,4363.461426,4467.179688,0.000000,1.000000,18.000000,,,,0.000000,2.000000,2.000000,0.000000,4.000000,2.000000,2.000000,0.000000,0.000000,4.000000,4.000000,4.000000,4.000000,4.000000,4.000000,0.000000,,,,,,,,,,,,,,,,,,,,,,,,,,,,
1732159129.256666,1732159129.260894,19.000000,0.000000,4333.461426,4301.922852,4321.538574,4317.563965,4262.436035,4264.358887,4330.897461,4399.615234,4279.871582,4265.769043,4505.769043,4537.307617,4362.436035,4468.846191,0.000000,1.000000,18.000000,,,,0.000000,2.000000,2.000000,0.000000,4.000000,2.000000,2.000000,0.000000,0.000000,4.000000,4.000000,4.000000,4.000000,4.000000,4.000000,0.000000,,,,,,,,,,,,,,,,,,,,,,,,,,,,
1732159129.264474,1732159129.268602,20.000000,0.000000,4334.615234,4306.410156,4321.922852,4322.307617,4264.615234,4264.487305,4334.102539,4399.487305,4278.589844,4265.384766,4505.256348,4538.077148,4360.256348,4467.692383,0.000000,1.000000,18.000000,,,,0.000000,2.000000,2.000000,0.000000,4.000000,2.000000,2.000000,0.000000,0.000000,4.000000,4.000000,4.000000,4.000000,4.000000,4.000000,0.000000,,,,,,,,,,,,,,,,,5.000000,0.000000,0.507519,0.475769,-0.546570,0.466187,0.984007,-0.032719,-0.049811,-35.088051,45.071953,31.779142
1732159129.272282,1732159129.276411,21.000000,0.000000,4334.102539,4302.051270,4324.487305,4319.743652,4265.897461,4266.282227,4334.871582,4400.769043,4279.871582,4266.025879,4506.538574,4535.769043,4358.589844,4465.128418,0.000000,1.000000,18.000000,,,,0.000000,2.000000,2.000000,0.000000,4.000000,2.000000,2.000000,0.000000,0.000000,4.000000,4.000000,4.000000,4.000000,4.000000,4.000000,0.000000,,,,,,,,,,,,,,,,,,,,,,,,,,,,
1732159129.280090,1732159129.284019,22.000000,0.000000,4328.461426,4295.641113,4324.358887,4315.512695,4266.410156,4265.641113,4331.922852,4399.358887,4280.769043,4266.538574,4507.436035,4534.743652,4359.487305,4464.102539,0.000000,1.000000,18.000000,,,,0.000000,2.000000,2.000000,0.000000,4.000000,2.000000,2.000000,0.000000,0.000000,4.000000,4.000000,4.000000,4.000000,4.000000,4.000000,0.000000,,,,,,,,,,,,,,,,,,,,,,,,,,,,
1732159129.287899,1732159129.291827,23.000000,0.000000,4325.384766,4293.461426,4322.307617,4314.358887,4265.128418,4265.641113,4329.743652,4399.358887,4283.077148,4267.692383,4507.436035,4539.102539,4357.563965,4461.666504,0.000000,1.000000,18.000000,,,,0.000000,2.000000,2.000000,0.000000,4.000000,2.000000,2.000000,0.000000,0.000000,4.000000,4.000000,4.000000,4.000000,4.000000,4.000000,0.000000,,,,,,,,,,,,,,,,,,,,,,,,,,,,
1732159129.295707,1732159129.299536,24.000000,0.000000,4327.051270,4295.384766,4320.641113,4315.512695,4265.641113,4268.333496,4330.641113,4402.051270,4285.897461,4268.077148,4506.282227,4540.512695,4352.820313,4457.307617,0.000000,1.000000,18.000000,,,,0.000000,2.000000,2.000000,0.000000,4.000000,2.000000,2.000000,0.000000,0.000000,4.000000,4.000000,4.000000,4.000000,4.000000,4.000000,0.000000,,,,,,,,,,,,,,,,,6.000000,0.000000,0.506253,0.474304,-0.547607,0.467834,0.983518,-0.051764,-0.053229,-35.072987,45.043282,31.799438
1732159129.303515,1732159129.307344,25.000000,0.000000,4326.282227,4295.512695,4318.333496,4316.410156,4265.000000,4267.179688,4333.333496,4402.307617,4289.615234,4271.666504,4506.538574,4540.384766,4352.179688,4455.769043,0.000000,1.000000,18.000000,,,,0.000000,2.000000,2.000000,0.000000,4.000000,2.000000,2.000000,0.000000,0.000000,4.000000,4.000000,4.000000,4.000000,4.000000,4.000000,0.000000,,,,,,,,,,,,,,,,,,,,,,,,,,,,
1732159129.311324,1732159129.315352,26.000000,0.000000,4326.282227,4291.153809,4319.230957,4314.743652,4264.743652,4266.410156,4334.487305,4400.641113,4290.256348,4271.410156,4506.025879,4546.153809,4352.179688,4459.743652,0.000000,1.000000,18.000000,,,,0.000000,2.000000,2.000000,0.000000,4.000000,2.000000,2.000000,0.000000,0.000000,4.000000,4.000000,4.000000,4.000000,4.000000,4.000000,0.000000,,,,,,,,,,,,,,,,,,,,,,,,,,,,
1732159129.319132,1732159129.323160,27.000000,0.000000,4325.256348,4290.384766,4320.641113,4311.410156,4267.436035,4270.769043,4331.025879,4400.128418,4282.692383,4264.615234,4504.230957,4547.179688,4351.922852,4458.974121,0.000000,1.000000,18.000000,,,,0.000000,2.000000,2.000000,0.000000,4.000000,2.000000,2.000000,0.000000,0.000000,4.000000,4.000000,4.000000,4.000000,4.000000,4.000000,0.000000,,,,,,,,,,,,,,,,,,,,,,,,,,,,
1732159129.326940,1732159129.331068,28.000000,0.000000,4320.128418,4292.948730,4318.974121,4311.153809,4265.512695,4271.282227,4329.615234,4401.666504,4275.384766,4263.077148,4504.358887,4538.589844,4352.692383,4454.230957,0.000000,1.000000,18.000000,,,,0.000000,2.000000,2.000000,0.000000,4.000000,2.000000,2.000000,0.000000,0.000000,4.000000,4.000000,4.000000,4.000000,4.000000,4.000000,0.000000,,,,,,,,,,,,,,,,,7.000000,0.000000,0.505751,0.473694,-0.547974,0.468567,0.983518,-0.051764,-0.053229,-35.629120,45.003391,31.679213
1732159129.334748,1732159129.338876,29.000000,0.000000,4321.538574,4293.077148,4318.333496,4315.256348,4262.051270,4267.051270,4328.974121,4402.436035,4280.512695,4266.153809,4505.128418,4536.410156,4349.487305,4455.256348,0.000000,1.000000,18.000000,,,,0.000000,2.000000,2.000000,0.000000,4.000000,2.000000,2.000000,0.000000,0.000000,4.000000,4.000000,4.000000,4.000000,4.000000,4.000000,0.000000,,,,,,,,,,,,,,,,,,,,,,,,,,,,
1732159129.342557,1732159129.346884,30.000000,0.000000,4325.897461,4292.436035,4321.282227,4313.589844,4275.897461,4265.000000,4328.077148,4398.461426,4283.205078,4265.384766,4504.487305,4541.794922,4348.974121,4458.461426,0.000000,1.000000,18.000000,,,,0.000000,2.000000,2.000000,0.000000,4.000000,2.000000,2.000000,0.000000,0.000000,4.000000,4.000000,4.000000,4.000000,4.000000,4.000000,0.000000,,,,,,,,,,,,,,,,,,,,,,,,,,,,
1732159129.350365,1732159129.354693,31.000000,0.000000,4322.179688,4292.948730,4321.922852,4311.666504,4280.128418,4265.897461,4331.282227,4396.025879,4277.948730,4269.358887,4505.128418,4542.436035,4356.282227,4455.769043,0.000000,1.000000,18.000000,,,,0.000000,2.000000,2.000000,0.000000,4.000000,2.000000,2.000000,0.000000,0.000000,4.000000,4.000000,4.000000,4.000000,4.000000,4.000000,0.000000,,,,,,,,,,,,,,,,,,,,,,,,,,,,
1732159129.358173,1732159129.362601,32.000000,0.000000,4320.512695,4291.025879,4319.230957,4316.282227,4254.743652,4269.230957,4334.871582,4400.512695,4283.333496,4279.743652,4506.922852,4545.000000,4357.692383,4449.743652,0.000000,1.000000,18.000000,,,,0.000000,2.000000,2.000000,0.000000,4.000000,2.000000,2.000000,0.000000,0.000000,4.000000,4.000000,4.000000,4.000000,4.000000,4.000000,0.000000,,,,,,,,,,,,,,,,,8.000000,0.000000,0.504219,0.471802,-0.548767,0.471191,0.972287,-0.052741,-0.040044,-35.451252,44.939415,31.808495
1732159129.365981,1732159129.370409,33.000000,0.000000,4325.000000,4292.307617,4317.948730,4319.615234,4247.563965,4272.051270,4335.128418,4402.436035,4292.563965,4280.000000,4505.384766,4548.333496,4350.641113,4453.077148,0.000000,1.000000,18.000000,,,,0.000000,2.000000,2.000000,0.000000,4.000000,2.000000,2.000000,0.000000,0.000000,4.000000,4.000000,4.000000,4.000000,4.000000,4.000000,0.000000,,,,,,,,,,,,,,,,,,,,,,,,,,,,
1732159129.373789,1732159129.378017,34.000000,0.000000,4325.256348,4296.410156,4318.846191,4316.794922,4266.025879,4268.205078,4335.384766,4400.000000,4296.025879,4274.871582,4504.102539,4546.153809,4350.769043,4460.000000,0.000000,1.000000,18.000000,,,,0.000000,2.000000,2.000000,0.000000,4.000000,2.000000,2.000000,0.000000,0.000000,4.000000,4.000000,4.000000,4.000000,4.000000,4.000000,0.000000,,,,,,,,,,,,,,,,,,,,,,,,,,,,
1732159129.381598,1732159129.385825,35.000000,0.000000,4324.102539,4296.794922,4319.358887,4315.000000,4267.307617,4268.589844,4334.743652,4399.871582,4296.410156,4277.051270,4505.000000,4545.641113,4353.717773,4454.743652,0.000000,1.000000,18.000000,,,,0.000000,2.000000,2.000000,0.000000,4.000000,2.000000,2.000000,0.000000,0.000000,4.000000,4.000000,4.000000,4.000000,4.000000,4.000000,0.000000,,,,,,,,,,,,,,,,,,,,,,,,,,,,
1732159129.389406,1732159129.393734,36.000000,0.000000,4325.384766,4295.384766,4319.230957,4319.358887,4262.436035,4277.307617,4332.436035,4401.025879,4293.333496,4275.384766,4504.487305,4544.102539,4350.897461,4447.051270,0.000000,1.000000,18.000000,,,,0.000000,2.000000,2.000000,0.000000,4.000000,2.000000,2.000000,0.000000,0.000000,4.000000,4.000000,4.000000,4.000000,4.000000,4.000000,0.000000,,,,,,,,,,,,,,,,,9.000000,0.000000,0.503235,0.470886,-0.548828,0.473083,0.977170,-0.041021,-0.040532,-35.413849,44.987591,31.618214
1732159129.397214,1732159129.401542,37.000000,0.000000,4321.666504,4294.487305,4319.871582,4321.153809,4276.153809,4280.769043,4331.410156,4402.307617,4296.025879,4270.897461,4504.871582,4532.692383,4350.384766,4448.717773,0.000000,1.000000,18.000000,,,,0.000000,2.000000,2.000000,0.000000,4.000000,2.000000,2.000000,0.000000,0.000000,4.000000,4.000000,4.000000,4.000000,4.000000,4.000000,0.000000,,,,,,,,,,,,,,,,,,,,,,,,,,,,
1732159129.405023,1732159129.409550,38.000000,0.000000,4318.205078,4295.897461,4320.000000,4317.948730,4281.666504,4279.487305,4330.000000,4403.717773,4298.846191,4271.410156,4505.256348,4525.128418,4352.051270,4448.717773,0.000000,1.000000,18.000000,,,,0.000000,2.000000,2.000000,0.000000,4.000000,2.000000,2.000000,0.000000,0.000000,4.000000,4.000000,4.000000,4.000000,4.000000,4.000000,0.000000,,,,,,,,,,,,,,,,,,,,,,,,,,,,
1732159129.412831,1732159129.417358,39.000000,0.000000,4319.230957,4297.820313,4319.102539,4318.846191,4275.769043,4279.230957,4330.769043,4401.538574,4288.589844,4269.102539,4503.333496,4533.205078,4350.769043,4444.743652,0.000000,1.000000,18.000000,,,,0.000000,2.000000,2.000000,0.000000,4.000000,2.000000,2.000000,0.000000,0.000000,4.000000,4.000000,4.000000,4.000000,4.000000,4.000000,0.000000,,,,,,,,,,,,,,,,,,,,,,,,,,,,
1732159129.420639,1732159129.425266,40.000000,0.000000,4320.128418,4297.051270,4317.436035,4324.102539,4277.948730,4277.820313,4335.384766,4398.974121,4284.743652,4270.000000,4504.230957,4540.384766,4353.205078,4449.615234,0.000000,1.000000,18.000000,,,,0.000000,2.000000,2.000000,0.000000,4.000000,2.000000,2.000000,0.000000,0.000000,4.000000,4.000000,4.000000,4.000000,4.000000,4.000000,0.000000,,,,,,,,,,,,,,,,,10.000000,0.000000,0.502726,0.470215,-0.549133,0.473938,0.973263,-0.062508,-0.038579,-35.530216,44.673283,31.584087
1732159129.428447,1732159129.433074,41.000000,0.000000,4318.974121,4295.769043,4317.820313,4320.000000,4282.051270,4276.538574,4332.307617,4400.512695,4294.743652,4276.153809,4508.333496,4537.948730,4355.256348,4454.230957,0.000000,1.000000,18.000000,,,,0.000000,2.000000,2.000000,0.000000,4.000000,2.000000,2.000000,0.000000,0.000000,4.000000,4.000000,4.000000,4.000000,4.000000,4.000000,0.000000,,,,,,,,,,,,,,,,,,,,,,,,,,,,
1732159129.436256,1732159129.441082,42.000000,0.000000,4316.666504,4296.153809,4318.846191,4311.666504,4275.256348,4279.487305,4329.230957,4400.769043,4296.282227,4273.333496,4508.461426,4535.512695,4353.717773,4447.948730,0.000000,1.000000,18.000000,,,,0.000000,2.000000,2.000000,0.000000,4.000000,2.000000,2.000000,0.000000,0.000000,4.000000,4.000000,4.000000,4.000000,4.000000,4.000000,0.000000,,,,,,,,,,,,,,,,,,,,,,,,,,,,
1732159129.444064,1732159129.448890,43.000000,0.000000,4311.794922,4294.487305,4319.487305,4310.641113,4275.897461,4279.487305,4332.179688,4399.743652,4290.897461,4265.256348,4497.563965,4535.128418,4351.794922,4442.051270,0.000000,1.000000,18.000000,,,,0.000000,2.000000,2.000000,0.000000,4.000000,2.000000,2.000000,0.000000,0.000000,4.000000,4.000000,4.000000,4.000000,4.000000,4.000000,0.000000,,,,,,,,,,,,,,,,,,,,,,,,,,,,
1732159129.451872,1732159129.456799,44.000000,0.000000,4306.794922,4292.820313,4318.974121,4311.410156,4292.051270,4276.410156,4331.794922,4402.051270,4292.692383,4264.615234,4490.641113,4531.666504,4348.077148,4442.692383,0.000000,1.000000,18.000000,,,,0.000000,2.000000,2.000000,0.000000,4.000000,2.000000,2.000000,0.000000,0.000000,4.000000,4.000000,4.000000,4.000000,4.000000,4.000000,0.000000,,,,,,,,,,,,,,,,,11.000000,0.000000,0.502466,0.469910,-0.549316,0.474304,0.984007,-0.060066,-0.032719,-35.524475,44.830360,31.536444
1732159129.459680,1732159129.464607,45.000000,0.000000,4307.307617,4295.000000,4319.358887,4310.769043,4286.153809,4277.179688,4331.282227,4403.205078,4293.333496,4264.615234,4499.102539,4532.692383,4348.205078,4445.000000,0.000000,1.000000,18.000000,,,,0.000000,2.000000,2.000000,0.000000,4.000000,2.000000,2.000000,0.000000,0.000000,4.000000,4.000000,4.000000,4.000000,4.000000,4.000000,0.000000,,,,,,,,,,,,,,,,,,,,,,,,,,,,
1732159129.467489,1732159129.472615,46.000000,0.000000,4308.589844,4295.641113,4317.436035,4312.563965,4261.025879,4280.512695,4334.743652,4400.384766,4292.436035,4266.025879,4507.051270,4533.974121,4355.256348,4445.512695,0.000000,1.000000,18.000000,,,,0.000000,2.000000,2.000000,0.000000,4.000000,2.000000,2.000000,0.000000,0.000000,4.000000,4.000000,4.000000,4.000000,4.000000,4.000000,0.000000,,,,,,,,,,,,,,,,,,,,,,,,,,,,
1732159129.475297,1732159129.480423,47.000000,0.000000,4308.974121,4295.512695,4319.102539,4314.871582,4259.358887,4279.871582,4335.512695,4402.436035,4294.487305,4271.025879,4504.230957,4530.128418,4357.692383,4446.538574,0.000000,1.000000,18.000000,,,,0.000000,2.000000,2.000000,0.000000,4.000000,2.000000,2.000000,0.000000,0.000000,4.000000,4.000000,4.000000,4.000000,4.000000,4.000000,0.000000,,,,,,,,,,,,,,,,,,,,,,,,,,,,
1732159129.483105,1732159129.488331,48.000000,0.000000,4311.794922,4297.436035,4322.692383,4317.563965,4274.487305,4278.333496,4330.256348,4406.025879,4292.179688,4267.820313,4502.051270,4530.128418,4353.974121,4449.743652,0.000000,1.000000,18.000000,,,,0.000000,2.000000,2.000000,0.000000,4.000000,2.000000,2.000000,0.000000,0.000000,4.000000,4.000000,4.000000,4.000000,4.000000,4.000000,0.000000,,,,,,,,,,,,,,,,,12.000000,0.000000,0.501664,0.469299,-0.549622,0.475403,0.970822,-0.070809,-0.038579,-35.418159,44.742592,31.519520
1732159129.490913,1732159129.496139,49.000000,0.000000,4308.846191,4297.563965,4320.256348,4316.794922,4278.333496,4279.230957,4329.358887,4402.307617,4292.179688,4262.820313,4504.358887,4535.128418,4353.461426,4449.743652,0.000000,1.000000,18.000000,,,,0.000000,2.000000,2.000000,0.000000,4.000000,2.000000,2.000000,0.000000,0.000000,4.000000,4.000000,4.000000,4.000000,4.000000,4.000000,0.000000,,,,,,,,,,,,,,,,,,,,,,,,,,,,
1732159129.498722,1732159129.503748,50.000000,0.000000,4304.615234,4297.179688,4317.307617,4314.230957,4277.563965,4277.820313,4333.974121,4398.974121,4295.641113,4267.820313,4503.461426,4531.666504,4353.461426,4444.871582,0.000000,1.000000,18.000000,,,,0.000000,2.000000,2.000000,0.000000,4.000000,2.000000,2.000000,0.000000,0.000000,4.000000,4.000000,4.000000,4.000000,4.000000,4.000000,0.000000,,,,,,,,,,,,,,,,,,,,,,,,,,,,
1732159129.506530,1732159129.511556,51.000000,0.000000,4308.077148,4301.922852,4319.230957,4319.615234,4278.461426,4280.769043,4334.871582,4401.666504,4296.794922,4275.000000,4503.717773,4527.820313,4350.512695,4443.717773,0.000000,1.000000,18.000000,,,,0.000000,2.000000,2.000000,0.000000,4.000000,2.000000,2.000000,0.000000,0.000000,4.000000,4.000000,4.000000,4.000000,4.000000,4.000000,0.000000,,,,,,,,,,,,,,,,,,,,,,,,,,,,
1732159129.514338,1732159129.519464,52.000000,0.000000,4310.128418,4306.794922,4319.743652,4323.974121,4287.820313,4283.205078,4331.025879,4401.666504,4294.615234,4273.205078,4505.256348,4529.102539,4349.615234,4446.538574,0.000000,1.000000,18.000000,,,,0.000000,2.000000,2.000000,0.000000,4.000000,2.000000,2.000000,0.000000,0.000000,4.000000,4.000000,4.000000,4.000000,4.000000,4.000000,0.000000,,,,,,,,,,,,,,,,,13.000000,0.000000,0.501480,0.468933,-0.550049,0.475464,0.972775,-0.062996,-0.040532,-35.320374,44.753166,31.420811
1732159129.522146,1732159129.527272,53.000000,0.000000,4307.307617,4304.487305,4317.948730,4317.820313,4298.974121,4274.487305,4330.641113,4399.358887,4291.922852,4265.256348,4502.307617,4526.666504,4352.948730,4445.256348,0.000000,1.000000,18.000000,,,,0.000000,2.000000,2.000000,0.000000,4.000000,2.000000,2.000000,0.000000,0.000000,4.000000,4.000000,4.000000,4.000000,4.000000,4.000000,0.000000,,,,,,,,,,,,,,,,,,,,,,,,,,,,
1732159129.529955,1732159129.534881,54.000000,0.000000,4308.461426,4303.717773,4319.871582,4318.333496,4285.128418,4271.794922,4334.358887,4399.871582,4292.563965,4264.358887,4501.666504,4524.487305,4357.820313,4445.128418,0.000000,1.000000,18.000000,,,,0.000000,2.000000,2.000000,0.000000,4.000000,2.000000,2.000000,0.000000,0.000000,4.000000,4.000000,4.000000,4.000000,4.000000,4.000000,0.000000,,,,,,,,,,,,,,,,,,,,,,,,,,,,
1732159129.537763,1732159129.542689,55.000000,0.000000,4310.128418,4307.179688,4319.615234,4325.769043,4271.410156,4281.666504,4334.102539,4400.128418,4295.384766,4273.205078,4504.871582,4525.769043,4359.230957,4446.794922,0.000000,1.000000,18.000000,,,,0.000000,2.000000,2.000000,0.000000,4.000000,2.000000,2.000000,0.000000,0.000000,4.000000,4.000000,4.000000,4.000000,4.000000,4.000000,0.000000,,,,,,,,,,,,,,,,,,,,,,,,,,,,
1732159129.545571,1732159129.550397,56.000000,0.000000,4308.077148,4303.717773,4317.436035,4320.641113,4278.974121,4282.051270,4333.717773,4400.897461,4297.179688,4279.615234,4507.051270,4525.769043,4357.436035,4445.897461,0.000000,1.000000,18.000000,,,,0.000000,2.000000,2.000000,0.000000,4.000000,2.000000,2.000000,0.000000,0.000000,4.000000,4.000000,4.000000,4.000000,4.000000,4.000000,0.000000,,,,,,,,,,,,,,,,,14.000000,0.000000,0.501480,0.468933,-0.550049,0.475464,0.972287,-0.059578,-0.033696,-35.421169,44.701729,31.325857
1732159129.553379,1732159129.558205,57.000000,0.000000,4310.769043,4296.025879,4317.692383,4313.333496,4276.282227,4275.128418,4333.846191,4402.051270,4296.666504,4280.512695,4506.153809,4529.230957,4356.922852,4446.282227,0.000000,1.000000,18.000000,,,,0.000000,2.000000,2.000000,0.000000,4.000000,2.000000,2.000000,0.000000,0.000000,4.000000,4.000000,4.000000,4.000000,4.000000,4.000000,0.000000,,,,,,,,,,,,,,,,,,,,,,,,,,,,
1732159129.561188,1732159129.565814,58.000000,0.000000,4310.641113,4295.256348,4318.461426,4316.153809,4276.153809,4277.820313,4332.692383,4401.794922,4296.410156,4279.743652,4506.025879,4535.769043,4356.922852,4447.948730,0.000000,1.000000,18.000000,,,,0.000000,2.000000,2.000000,0.000000,4.000000,2.000000,2.000000,0.000000,0.000000,4.000000,4.000000,4.000000,4.000000,4.000000,4.000000,0.000000,,,,,,,,,,,,,,,,,,,,,,,,,,,,
1732159129.568996,1732159129.573622,59.000000,0.000000,4303.461426,4297.307617,4317.179688,4315.641113,4293.589844,4282.179688,4332.307617,4401.153809,4297.820313,4280.512695,4507.948730,4534.230957,4358.205078,4448.333496,0.000000,1.000000,18.000000,,,,0.000000,2.000000,2.000000,0.000000,4.000000,2.000000,2.000000,0.000000,0.000000,4.000000,4.000000,4.000000,4.000000,4.000000,4.000000,0.000000,,,,,,,,,,,,,,,,,,,,,,,,,,,,
1732159129.576804,1732159129.581330,60.000000,0.000000,4303.333496,4295.512695,4317.307617,4313.461426,4282.563965,4280.641113,4334.358887,4400.897461,4297.692383,4281.025879,4508.077148,4532.307617,4358.333496,4445.897461,0.000000,1.000000,18.000000,,,,0.000000,2.000000,2.000000,0.000000,4.000000,2.000000,2.000000,0.000000,0.000000,4.000000,4.000000,4.000000,4.000000,4.000000,4.000000,0.000000,,,,,,,,,,,,,,,,,15.000000,0.000000,0.500365,0.468994,-0.550537,0.476013,0.968380,-0.057624,-0.046392,-35.582813,44.863403,31.248943
1732159129.584612,1732159129.589139,61.000000,0.000000,4306.025879,4295.512695,4319.102539,4317.436035,4260.641113,4280.769043,4336.025879,4401.153809,4296.282227,4278.333496,4504.871582,4533.461426,4354.230957,4442.948730,0.000000,1.000000,18.000000,,,,0.000000,2.000000,2.000000,0.000000,4.000000,2.000000,2.000000,0.000000,0.000000,4.000000,4.000000,4.000000,4.000000,4.000000,4.000000,0.000000,,,,,,,,,,,,,,,,,,,,,,,,,,,,
1732159129.592421,1732159129.596747,62.000000,0.000000,4301.922852,4297.051270,4320.384766,4319.871582,4273.461426,4282.307617,4333.717773,4402.051270,4295.641113,4276.153809,4504.487305,4530.384766,4353.846191,4445.000000,0.000000,1.000000,18.000000,,,,0.000000,2.000000,2.000000,0.000000,4.000000,2.000000,2.000000,0.000000,0.000000,4.000000,4.000000,4.000000,4.000000,4.000000,4.000000,0.000000,,,,,,,,,,,,,,,,,,,,,,,,,,,,
1732159129.600229,1732159129.604555,63.000000,0.000000,4295.769043,4296.282227,4320.000000,4314.230957,4285.512695,4282.563965,4332.820313,4400.769043,4294.487305,4276.153809,4504.487305,4528.077148,4356.282227,4445.384766,0.000000,1.000000,18.000000,,,,0.000000,2.000000,2.000000,0.000000,4.000000,2.000000,2.000000,0.000000,0.000000,4.000000,4.000000,4.000000,4.000000,4.000000,4.000000,0.000000,,,,,,,,,,,,,,,,,,,,,,,,,,,,
1732159129.608037,1732159129.612263,64.000000,0.000000,4293.589844,4293.974121,4318.717773,4308.974121,4276.794922,4282.436035,4334.230957,4399.615234,4294.230957,4277.436035,4496.282227,4525.897461,4353.077148,4436.410156,0.000000,1.000000,18.000000,,,,0.000000,2.000000,2.000000,0.000000,4.000000,2.000000,2.000000,0.000000,0.000000,4.000000,4.000000,4.000000,4.000000,4.000000,4.000000,0.000000,,,,,,,,,,,,,,,,,16.000000,0.000000,0.499586,0.469055,-0.551086,0.476135,0.975217,-0.061531,-0.048834,-35.653748,44.622688,31.218311
1732159129.615845,1732159129.620072,65.000000,0.000000,4297.692383,4296.153809,4317.820313,4311.153809,4277.436035,4282.051270,4333.589844,4401.025879,4294.743652,4276.538574,4490.512695,4522.563965,4350.769043,4432.948730,1618.000000,1.000000,18.000000,,,,0.000000,2.000000,2.000000,0.000000,4.000000,2.000000,2.000000,0.000000,0.000000,4.000000,4.000000,4.000000,4.000000,4.000000,4.000000,0.000000,,,,,,,,,,,,,,,,,,,,,,,,,,,,
1732159129.623654,1732159129.627680,66.000000,0.000000,4302.307617,4301.666504,4319.102539,4316.922852,4284.615234,4279.102539,4332.307617,4401.794922,4292.820313,4272.948730,4496.410156,4523.333496,4353.846191,4441.025879,1356.000000,1.000000,18.000000,,,,0.000000,2.000000,2.000000,0.000000,4.000000,2.000000,2.000000,0.000000,0.000000,4.000000,4.000000,4.000000,4.000000,4.000000,4.000000,0.000000,,,,,,,,,,,,,,,,,,,,,,,,,,,,
1732159129.631462,1732159129.635488,67.000000,0.000000,4300.512695,4301.025879,4319.871582,4316.410156,4279.615234,4280.897461,4332.948730,4400.384766,4295.128418,4275.897461,4499.102539,4526.538574,4354.871582,4442.563965,1432.000000,1.000000,18.000000,,,,0.000000,2.000000,2.000000,0.000000,4.000000,2.000000,2.000000,0.000000,0.000000,4.000000,4.000000,4.000000,4.000000,4.000000,4.000000,0.000000,,,,,,,,,,,,,,,,,,,,,,,,,,,,
1732159129.639270,1732159129.643396,68.000000,0.000000,4295.128418,4295.897461,4318.846191,4311.153809,4278.461426,4286.410156,4333.974121,4400.128418,4300.512695,4280.000000,4493.974121,4522.948730,4348.461426,4438.077148,1437.000000,1.000000,18.000000,,,,0.000000,2.000000,2.000000,0.000000,4.000000,2.000000,2.000000,0.000000,0.000000,4.000000,4.000000,4.000000,4.000000,4.000000,4.000000,0.000000,,,,,,,,,,,,,,,,,17.000000,0.000000,0.498505,0.469116,-0.551697,0.476501,0.980588,-0.076181,-0.047369,-35.712868,44.437710,31.341831
1732159129.647078,1732159129.651205,69.000000,0.000000,4297.179688,4296.666504,4317.820313,4311.282227,4293.717773,4286.538574,4333.589844,4401.153809,4298.077148,4271.794922,4490.641113,4515.000000,4343.333496,4433.974121,1197.000000,1.000000,18.000000,,,,0.000000,2.000000,2.000000,0.000000,4.000000,2.000000,2.000000,0.000000,0.000000,4.000000,4.000000,4.000000,4.000000,4.000000,4.000000,0.000000,,,,,,,,,,,,,,,,,,,,,,,,,,,,
1732159129.654887,1732159129.659213,70.000000,0.000000,4300.897461,4300.000000,4317.692383,4315.897461,4300.384766,4285.128418,4333.461426,4401.410156,4294.102539,4265.769043,4492.307617,4510.000000,4345.897461,4428.589844,0.000000,1.000000,18.000000,,,,0.000000,2.000000,2.000000,0.000000,4.000000,2.000000,2.000000,0.000000,0.000000,4.000000,4.000000,4.000000,4.000000,4.000000,4.000000,0.000000,,,,,,,,,,,,,,,,,,,,,,,,,,,,
1732159129.662695,1732159129.667021,71.000000,0.000000,4300.512695,4303.974121,4318.461426,4319.871582,4280.128418,4288.974121,4333.589844,4401.153809,4296.410156,4275.769043,4499.615234,4514.871582,4352.307617,4433.717773,0.000000,1.000000,18.000000,,,,0.000000,2.000000,2.000000,0.000000,4.000000,2.000000,2.000000,0.000000,0.000000,4.000000,4.000000,4.000000,4.000000,4.000000,4.000000,0.000000,,,,,,,,,,,,,,,,,,,,,,,,,,,,
1732159129.670503,1732159129.674729,72.000000,0.000000,4299.743652,4308.717773,4318.589844,4322.948730,4267.179688,4288.205078,4333.974121,4401.025879,4296.538574,4281.538574,4506.794922,4523.589844,4355.897461,4443.846191,1539.000000,1.000000,18.000000,,,,0.000000,2.000000,2.000000,0.000000,4.000000,2.000000,2.000000,0.000000,0.000000,4.000000,4.000000,4.000000,4.000000,4.000000,4.000000,0.000000,,,,,,,,,,,,,,,,,18.000000,0.000000,0.498505,0.469116,-0.551697,0.476501,0.980588,-0.076181,-0.047369,-35.700756,44.527878,31.531883
1732159129.678311,1732159129.682537,73.000000,0.000000,4298.589844,4303.589844,4319.358887,4319.230957,4280.256348,4284.358887,4334.230957,4400.769043,4296.025879,4277.307617,4502.948730,4522.051270,4353.974121,4438.205078,1703.000000,1.000000,18.000000,,,,0.000000,2.000000,2.000000,0.000000,4.000000,2.000000,2.000000,0.000000,0.000000,4.000000,4.000000,4.000000,4.000000,4.000000,4.000000,0.000000,,,,,,,,,,,,,,,,,,,,,,,,,,,,
1732159129.686120,1732159129.690146,74.000000,0.000000,4293.846191,4295.128418,4318.205078,4312.051270,4286.025879,4290.897461,4335.256348,4401.025879,4296.794922,4278.589844,4495.256348,4517.436035,4350.128418,4428.333496,1566.000000,1.000000,18.000000,,,,0.000000,2.000000,2.000000,0.000000,4.000000,2.000000,2.000000,0.000000,0.000000,4.000000,4.000000,4.000000,4.000000,4.000000,4.000000,0.000000,,,,,,,,,,,,,,,,,,,,,,,,,,,,
1732159129.693928,1732159129.697954,75.000000,0.000000,4285.897461,4296.666504,4317.692383,4310.897461,4276.153809,4293.461426,4335.256348,4403.205078,4296.025879,4282.051270,4494.358887,4520.000000,4347.563965,4429.487305,1548.000000,1.000000,18.000000,,,,0.000000,2.000000,2.000000,0.000000,4.000000,2.000000,2.000000,0.000000,0.000000,4.000000,4.000000,4.000000,4.000000,4.000000,4.000000,0.000000,,,,,,,,,,,,,,,,,,,,,,,,,,,,
1732159129.701736,1732159129.705662,76.000000,0.000000,4286.410156,4299.615234,4318.589844,4312.820313,4284.102539,4284.487305,4330.384766,4402.692383,4299.358887,4279.871582,4495.000000,4520.512695,4352.179688,4431.538574,1706.000000,1.000000,18.000000,,,,0.000000,2.000000,2.000000,0.000000,4.000000,2.000000,2.000000,0.000000,0.000000,4.000000,4.000000,4.000000,4.000000,4.000000,4.000000,0.000000,,,,,,,,,,,,,,,,,19.000000,0.000000,0.497349,0.468811,-0.552734,0.476807,0.964473,-0.067879,-0.048346,-35.980946,44.517582,31.522493
1732159129.709545,1732159129.713471,77.000000,0.000000,4294.871582,4296.153809,4320.000000,4310.512695,4299.871582,4279.230957,4329.230957,4399.487305,4302.563965,4278.077148,4493.333496,4518.461426,4357.307617,4429.358887,1536.000000,1.000000,18.000000,,,,0.000000,2.000000,2.000000,0.000000,4.000000,2.000000,2.000000,0.000000,0.000000,4.000000,4.000000,4.000000,4.000000,4.000000,4.000000,0.000000,,,,,,,,,,,,,,,,,,,,,,,,,,,,
1732159129.717353,1732159129.721479,78.000000,0.000000,4294.487305,4296.153809,4318.846191,4310.641113,4290.641113,4280.897461,4333.717773,4399.230957,4299.102539,4278.846191,4492.948730,4517.563965,4351.538574,4429.230957,1566.000000,1.000000,18.000000,,,,0.000000,2.000000,2.000000,0.000000,4.000000,2.000000,2.000000,0.000000,0.000000,4.000000,4.000000,4.000000,4.000000,4.000000,4.000000,0.000000,1.000000,0.000000,2.000000,2.000000,0.000000,4.000000,2.000000,2.000000,0.000000,0.000000,4.000000,1.000000,4.000000,4.000000,4.000000,4.000000,,,,,,,,,,,,
1732159129.725161,1732159129.729287,79.000000,0.000000,4289.230957,4300.256348,4316.794922,4315.512695,4273.589844,4284.487305,4335.128418,4400.641113,4294.743652,4279.743652,4493.333496,4519.358887,4345.512695,4428.846191,1548.000000,1.000000,18.000000,,,,0.000000,2.000000,2.000000,0.000000,4.000000,2.000000,2.000000,0.000000,0.000000,4.000000,4.000000,4.000000,4.000000,4.000000,4.000000,0.000000,,,,,,,,,,,,,,,,,,,,,,,,,,,,
1732159129.732969,1732159129.737195,80.000000,0.000000,4290.512695,4299.358887,4317.948730,4314.487305,4274.487305,4287.820313,4333.205078,4399.615234,4294.358887,4277.820313,4492.820313,4519.230957,4350.128418,4428.974121,1706.000000,1.000000,18.000000,,,,0.000000,2.000000,2.000000,0.000000,4.000000,2.000000,2.000000,0.000000,0.000000,4.000000,4.000000,4.000000,4.000000,4.000000,4.000000,0.000000,,,,,,,,,,,,,,,,,20.000000,0.000000,0.497155,0.468811,-0.552856,0.476868,0.968868,-0.073739,-0.053229,-35.842899,44.384243,31.478220
1732159129.740777,1732159129.745003,81.000000,0.000000,4289.230957,4297.563965,4318.846191,4310.000000,4281.025879,4287.563965,4333.205078,4399.230957,4296.410156,4276.282227,4491.794922,4510.512695,4354.487305,4430.000000,1536.000000,1.000000,18.000000,,,,0.000000,2.000000,2.000000,0.000000,4.000000,2.000000,2.000000,0.000000,0.000000,4.000000,4.000000,4.000000,4.000000,4.000000,4.000000,0.000000,,,,,,,,,,,,,,,,,,,,,,,,,,,,
1732159129.748586,1732159129.753011,82.000000,0.000000,4282.692383,4297.179688,4315.769043,4312.948730,4282.692383,4282.051270,4334.487305,4401.153809,4297.051270,4276.794922,4490.769043,4503.846191,4349.230957,4429.102539,1566.000000,1.000000,18.000000,,,,0.000000,2.000000,2.000000,0.000000,4.000000,2.000000,2.000000,0.000000,0.000000,4.000000,4.000000,4.000000,4.000000,4.000000,4.000000,0.000000,,,,,,,,,,,,,,,,,,,,,,,,,,,,
1732159129.756394,1732159129.760819,83.000000,0.000000,4284.871582,4297.179688,4316.538574,4316.666504,4284.615234,4279.615234,4334.487305,4401.153809,4294.487305,4276.666504,4489.358887,4509.102539,4347.948730,4427.563965,1548.000000,1.000000,18.000000,,,,0.000000,2.000000,2.000000,0.000000,4.000000,2.000000,2.000000,0.000000,0.000000,4.000000,4.000000,4.000000,4.000000,4.000000,4.000000,0.000000,,,,,,,,,,,,,,,,,,,,,,,,,,,,
1732159129.764202,1732159129.768727,84.000000,0.000000,4291.410156,4297.179688,4321.794922,4314.487305,4280.256348,4281.410156,4332.820313,4400.641113,4295.128418,4277.563965,4490.128418,4513.461426,4352.307617,4428.846191,1706.000000,1.000000,18.000000,,,,0.000000,2.000000,2.000000,0.000000,4.000000,2.000000,2.000000,0.000000,0.000000,4.000000,4.000000,4.000000,4.000000,4.000000,4.000000,0.000000,,,,,,,,,,,,,,,,,21.000000,0.000000,0.497135,0.468750,-0.552979,0.476807,0.968868,-0.073739,-0.053229,-35.967751,44.501236,31.704023
1732159129.772010,1732159129.776536,85.000000,0.000000,4287.820313,4295.128418,4323.333496,4310.897461,4288.077148,4282.179688,4330.769043,4400.256348,4298.205078,4278.974121,4490.769043,4512.307617,4350.128418,4424.615234,1536.000000,1.000000,18.000000,,,,0.000000,2.000000,2.000000,0.000000,4.000000,2.000000,2.000000,0.000000,0.000000,4.000000,4.000000,4.000000,4.000000,4.000000,4.000000,0.000000,,,,,,,,,,,,,,,,,,,,,,,,,,,,
1732159129.779819,1732159129.784144,86.000000,0.000000,4280.769043,4296.410156,4321.666504,4309.615234,4304.358887,4284.102539,4333.205078,4400.512695,4297.179688,4277.563965,4488.974121,4513.846191,4346.282227,4414.871582,1566.000000,1.000000,18.000000,,,,0.000000,2.000000,2.000000,0.000000,4.000000,2.000000,2.000000,0.000000,0.000000,4.000000,4.000000,4.000000,4.000000,4.000000,4.000000,0.000000,,,,,,,,,,,,,,,,,,,,,,,,,,,,
1732159129.787627,1732159129.791952,87.000000,0.000000,4285.128418,4296.025879,4320.769043,4314.487305,4290.897461,4290.769043,4335.897461,4400.769043,4296.282227,4278.589844,4489.358887,4514.871582,4348.717773,4416.282227,1548.000000,1.000000,18.000000,,,,0.000000,2.000000,2.000000,0.000000,4.000000,2.000000,2.000000,0.000000,0.000000,4.000000,4.000000,4.000000,4.000000,4.000000,4.000000,0.000000,,,,,,,,,,,,,,,,,,,,,,,,,,,,
1732159129.795435,1732159129.799860,88.000000,0.000000,4289.743652,4290.512695,4319.871582,4318.846191,4271.410156,4297.179688,4335.256348,4401.282227,4301.153809,4286.282227,4492.820313,4514.615234,4353.333496,4421.794922,1706.000000,1.000000,18.000000,,,,0.000000,2.000000,2.000000,0.000000,4.000000,2.000000,2.000000,0.000000,0.000000,4.000000,4.000000,4.000000,4.000000,4.000000,4.000000,0.000000,,,,,,,,,,,,,,,,,22.000000,0.000000,0.496889,0.468445,-0.553406,0.476868,0.980100,-0.062996,-0.050787,-36.158878,44.822666,31.660259
1732159129.803244,1732159129.807668,89.000000,0.000000,4283.077148,4287.307617,4317.948730,4312.436035,4276.282227,4294.743652,4335.000000,4401.666504,4304.615234,4292.307617,4491.794922,4511.410156,4349.871582,4415.769043,1536.000000,1.000000,18.000000,,,,0.000000,2.000000,2.000000,0.000000,4.000000,2.000000,2.000000,0.000000,0.000000,4.000000,4.000000,4.000000,4.000000,4.000000,4.000000,0.000000,,,,,,,,,,,,,,,,,,,,,,,,,,,,
1732159129.811052,1732159129.815676,90.000000,0.000000,4276.153809,4288.333496,4318.717773,4304.487305,4284.871582,4292.179688,4335.000000,4400.000000,4302.307617,4288.461426,4483.589844,4505.384766,4342.179688,4410.000000,1566.000000,1.000000,18.000000,,,,0.000000,2.000000,2.000000,0.000000,4.000000,2.000000,2.000000,0.000000,0.000000,4.000000,4.000000,4.000000,4.000000,4.000000,4.000000,0.000000,,,,,,,,,,,,,,,,,,,,,,,,,,,,
1732159129.818860,1732159129.823485,91.000000,0.000000,4277.948730,4287.563965,4319.102539,4308.077148,4282.820313,4296.410156,4332.948730,4398.717773,4301.666504,4284.487305,4478.077148,4505.256348,4340.512695,4412.179688,1548.000000,1.000000,18.000000,,,,0.000000,2.000000,2.000000,0.000000,4.000000,2.000000,2.000000,0.000000,0.000000,4.000000,4.000000,4.000000,4.000000,4.000000,4.000000,0.000000,,,,,,,,,,,,,,,,,,,,,,,,,,,,
1732159129.826668,1732159129.831393,92.000000,0.000000,4278.974121,4283.589844,4318.077148,4311.794922,4284.102539,4296.666504,4334.358887,4400.512695,4301.025879,4285.000000,4478.461426,4507.820313,4343.461426,4412.307617,1706.000000,1.000000,18.000000,,,,0.000000,2.000000,2.000000,0.000000,4.000000,2.000000,2.000000,0.000000,0.000000,4.000000,4.000000,4.000000,4.000000,4.000000,4.000000,0.000000,,,,,,,,,,,,,,,,,23.000000,0.000000,0.496868,0.468323,-0.553528,0.476868,0.970822,-0.068856,-0.051764,-36.330357,44.816360,31.724810
1732159129.834477,1732159129.839201,93.000000,0.000000,4276.922852,4282.307617,4317.436035,4309.615234,4287.307617,4292.948730,4336.538574,4401.410156,4295.512695,4284.102539,4478.589844,4505.128418,4342.307617,4412.307617,1536.000000,1.000000,18.000000,,,,0.000000,2.000000,2.000000,0.000000,4.000000,2.000000,2.000000,0.000000,0.000000,4.000000,4.000000,4.000000,4.000000,4.000000,4.000000,0.000000,,,,,,,,,,,,,,,,,,,,,,,,,,,,
1732159129.842285,1732159129.847209,94.000000,0.000000,4278.974121,4287.051270,4318.205078,4310.769043,4288.077148,4294.743652,4334.615234,4400.769043,4291.410156,4280.897461,4477.563965,4503.333496,4338.461426,4417.563965,1566.000000,1.000000,18.000000,,,,0.000000,2.000000,2.000000,0.000000,4.000000,2.000000,2.000000,0.000000,0.000000,4.000000,4.000000,4.000000,4.000000,4.000000,4.000000,0.000000,,,,,,,,,,,,,,,,,,,,,,,,,,,,
1732159129.850093,1732159129.855017,95.000000,0.000000,4282.563965,4291.410156,4318.846191,4312.948730,4291.025879,4296.282227,4333.589844,4401.666504,4295.512695,4280.000000,4478.846191,4507.307617,4338.077148,4418.846191,1548.000000,1.000000,18.000000,,,,0.000000,2.000000,2.000000,0.000000,4.000000,2.000000,2.000000,0.000000,0.000000,4.000000,4.000000,4.000000,4.000000,4.000000,4.000000,0.000000,,,,,,,,,,,,,,,,,,,,,,,,,,,,
1732159129.857901,1732159129.862925,96.000000,0.000000,4281.538574,4287.563965,4318.974121,4311.025879,4288.077148,4293.717773,4335.641113,4402.948730,4296.794922,4280.897461,4481.025879,4513.333496,4338.717773,4419.871582,1706.000000,1.000000,18.000000,,,,0.000000,2.000000,2.000000,0.000000,4.000000,2.000000,2.000000,0.000000,0.000000,4.000000,4.000000,4.000000,4.000000,4.000000,4.000000,0.000000,,,,,,,,,,,,,,,,,24.000000,0.000000,0.496926,0.468262,-0.553528,0.476868,0.989379,-0.071298,-0.053717,-36.647591,44.819584,31.555429
1732159129.865710,1732159129.870734,97.000000,0.000000,4278.461426,4281.282227,4318.717773,4309.102539,4284.358887,4293.717773,4336.025879,4402.051270,4291.153809,4281.922852,4479.358887,4515.128418,4339.615234,4425.769043,1536.000000,1.000000,18.000000,,,,0.000000,2.000000,2.000000,0.000000,4.000000,2.000000,2.000000,0.000000,0.000000,4.000000,4.000000,4.000000,4.000000,4.000000,4.000000,0.000000,,,,,,,,,,,,,,,,,,,,,,,,,,,,
1732159129.873518,1732159129.878342,98.000000,0.000000,4278.333496,4281.538574,4318.077148,4308.717773,4295.897461,4294.358887,4335.256348,4400.128418,4291.153809,4282.051270,4476.410156,4511.666504,4338.077148,4424.358887,1566.000000,1.000000,18.000000,,,,0.000000,2.000000,2.000000,0.000000,4.000000,2.000000,2.000000,0.000000,0.000000,4.000000,4.000000,4.000000,4.000000,4.000000,4.000000,0.000000,,,,,,,,,,,,,,,,,,,,,,,,,,,,
1732159129.881326,1732159129.886150,99.000000,0.000000,4279.487305,4280.897461,4318.333496,4306.538574,4303.974121,4292.563965,4336.153809,4400.128418,4295.641113,4280.512695,4475.897461,4510.384766,4334.743652,4414.230957,1548.000000,1.000000,18.000000,,,,0.000000,2.000000,2.000000,0.000000,4.000000,2.000000,2.000000,0.000000,0.000000,4.000000,4.000000,4.000000,4.000000,4.000000,4.000000,0.000000,,,,,,,,,,,,,,,,,,,,,,,,,,,,
1732159129.889134,1732159129.894058,100.000000,0.000000,4280.384766,4280.512695,4319.230957,4307.692383,4285.641113,4294.230957,4335.512695,4401.794922,4296.538574,4283.077148,4476.410156,4512.307617,4335.641113,4413.717773,1706.000000,1.000000,18.000000,,,,0.000000,2.000000,2.000000,0.000000,4.000000,2.000000,2.000000,0.000000,0.000000,4.000000,4.000000,4.000000,4.000000,4.000000,4.000000,0.000000,,,,,,,,,,,,,,,,,25.000000,0.000000,0.496820,0.468262,-0.553833,0.476624,0.976193,-0.062996,-0.055183,-36.492882,44.505531,31.576565
1732159129.896943,1732159129.901866,101.000000,0.000000,4281.153809,4282.948730,4318.974121,4312.563965,4270.897461,4297.563965,4333.717773,4401.025879,4291.538574,4285.641113,4476.794922,4511.666504,4336.794922,4420.128418,1536.000000,1.000000,18.000000,,,,0.000000,2.000000,2.000000,0.000000,4.000000,2.000000,2.000000,0.000000,0.000000,4.000000,4.000000,4.000000,4.000000,4.000000,4.000000,0.000000,,,,,,,,,,,,,,,,,,,,,,,,,,,,
1732159129.904751,1732159129.909475,102.000000,0.000000,4280.000000,4284.230957,4317.563965,4312.307617,4281.922852,4294.743652,4335.256348,4399.230957,4290.897461,4280.769043,4477.692383,4507.563965,4335.769043,4416.538574,1566.000000,1.000000,18.000000,,,,0.000000,2.000000,2.000000,0.000000,4.000000,2.000000,2.000000,0.000000,0.000000,4.000000,4.000000,4.000000,4.000000,4.000000,4.000000,0.000000,,,,,,,,,,,,,,,,,,,,,,,,,,,,
1732159129.912559,1732159129.917283,103.000000,0.000000,4281.025879,4282.563965,4318.077148,4311.410156,4282.307617,4293.589844,4336.538574,4401.025879,4294.615234,4280.641113,4478.589844,4506.538574,4340.384766,4412.179688,1548.000000,1.000000,18.000000,,,,0.000000,2.000000,2.000000,0.000000,4.000000,2.000000,2.000000,0.000000,0.000000,4.000000,4.000000,4.000000,4.000000,4.000000,4.000000,0.000000,,,,,,,,,,,,,,,,,,,,,,,,,,,,
1732159129.920367,1732159129.924991,104.000000,0.000000,4278.589844,4281.025879,4318.077148,4310.897461,4280.512695,4292.948730,4334.743652,4402.436035,4294.230957,4286.922852,4477.820313,4507.051270,4344.358887,4414.102539,1706.000000,1.000000,18.000000,,,,0.000000,2.000000,2.000000,0.000000,4.000000,2.000000,2.000000,0.000000,0.000000,4.000000,4.000000,4.000000,4.000000,4.000000,4.000000,0.000000,,,,,,,,,,,,,,,,,26.000000,0.000000,0.495673,0.469299,-0.553772,0.476868,0.970822,-0.068856,-0.055183,-36.509232,44.476147,31.402018
1732159129.928176,1732159129.932800,105.000000,0.000000,4269.358887,4280.000000,4317.051270,4304.743652,4298.333496,4287.436035,4333.974121,4400.128418,4295.128418,4287.948730,4478.846191,4506.794922,4338.589844,4412.692383,1536.000000,1.000000,18.000000,,,,0.000000,2.000000,2.000000,0.000000,4.000000,2.000000,2.000000,0.000000,0.000000,4.000000,4.000000,4.000000,4.000000,4.000000,4.000000,0.000000,,,,,,,,,,,,,,,,,,,,,,,,,,,,
1732159129.935984,1732159129.940408,106.000000,0.000000,4265.641113,4278.846191,4316.794922,4301.025879,4293.333496,4285.897461,4335.128418,4400.128418,4297.692383,4284.871582,4479.487305,4505.641113,4336.538574,4410.000000,1566.000000,1.000000,18.000000,,,,0.000000,2.000000,2.000000,0.000000,4.000000,2.000000,2.000000,0.000000,0.000000,4.000000,4.000000,4.000000,4.000000,4.000000,4.000000,0.000000,,,,,,,,,,,,,,,,,,,,,,,,,,,,
1732159129.943792,1732159129.948216,107.000000,0.000000,4272.179688,4281.025879,4319.102539,4304.615234,4266.282227,4290.384766,4335.000000,4403.846191,4296.410156,4285.641113,4478.717773,4506.410156,4342.948730,4410.897461,1548.000000,1.000000,18.000000,,,,0.000000,2.000000,2.000000,0.000000,4.000000,2.000000,2.000000,0.000000,0.000000,4.000000,4.000000,4.000000,4.000000,4.000000,4.000000,0.000000,,,,,,,,,,,,,,,,,,,,,,,,,,,,
1732159129.951600,1732159129.955925,108.000000,0.000000,4276.538574,4286.282227,4318.974121,4310.128418,4270.000000,4293.077148,4334.615234,4405.000000,4297.179688,4288.974121,4480.769043,4509.230957,4345.384766,4410.769043,1706.000000,1.000000,18.000000,,,,0.000000,2.000000,2.000000,0.000000,4.000000,2.000000,2.000000,0.000000,0.000000,4.000000,4.000000,4.000000,4.000000,4.000000,4.000000,0.000000,,,,,,,,,,,,,,,,,27.000000,0.000000,0.495199,0.469666,-0.553833,0.476929,0.968868,-0.064949,-0.066414,-36.507481,44.512344,31.313967
1732159129.959409,1732159129.963733,109.000000,0.000000,4274.358887,4285.897461,4317.179688,4312.692383,4286.922852,4291.153809,4334.358887,4401.666504,4301.025879,4288.717773,4481.025879,4507.179688,4342.948730,4408.333496,1536.000000,1.000000,18.000000,,,,0.000000,2.000000,2.000000,0.000000,4.000000,2.000000,2.000000,0.000000,0.000000,4.000000,4.000000,4.000000,4.000000,4.000000,4.000000,0.000000,,,,,,,,,,,,,,,,,,,,,,,,,,,,
1732159129.967217,1732159129.971741,110.000000,0.000000,4275.256348,4281.538574,4317.436035,4310.897461,4284.230957,4290.128418,4334.230957,4400.512695,4294.102539,4282.948730,4478.333496,4503.589844,4342.307617,4410.256348,1566.000000,1.000000,18.000000,,,,0.000000,2.000000,2.000000,0.000000,4.000000,2.000000,2.000000,0.000000,0.000000,4.000000,4.000000,4.000000,4.000000,4.000000,4.000000,0.000000,,,,,,,,,,,,,,,,,,,,,,,,,,,,
1732159129.975025,1732159129.979549,111.000000,0.000000,4277.179688,4279.615234,4318.717773,4308.846191,4274.743652,4291.410156,4335.769043,4402.051270,4285.769043,4278.333496,4477.563965,4504.230957,4340.897461,4415.000000,1548.000000,1.000000,18.000000,,,,0.000000,2.000000,2.000000,0.000000,4.000000,2.000000,2.000000,0.000000,0.000000,4.000000,4.000000,4.000000,4.000000,4.000000,4.000000,0.000000,,,,,,,,,,,,,,,,,,,,,,,,,,,,
1732159129.982833,1732159129.987257,112.000000,0.000000,4276.153809,4279.487305,4318.717773,4310.769043,4280.128418,4292.051270,4334.358887,4400.769043,4291.282227,4283.461426,4477.051270,4505.128418,4335.897461,4412.563965,1706.000000,1.000000,18.000000,,,,0.000000,2.000000,2.000000,0.000000,4.000000,2.000000,2.000000,0.000000,0.000000,4.000000,4.000000,4.000000,4.000000,4.000000,4.000000,0.000000,,,,,,,,,,,,,,,,,28.000000,0.000000,0.495083,0.469727,-0.553833,0.476990,0.975705,-0.062996,-0.061043,-36.596058,44.436668,31.227648
1732159129.990642,1732159129.995065,113.000000,0.000000,4274.487305,4278.205078,4318.205078,4309.487305,4297.307617,4292.307617,4331.666504,4400.641113,4296.282227,4286.025879,4475.256348,4501.794922,4335.256348,4402.948730,1536.000000,1.000000,18.000000,,,,0.000000,2.000000,2.000000,0.000000,4.000000,2.000000,2.000000,0.000000,0.000000,4.000000,4.000000,4.000000,4.000000,4.000000,4.000000,0.000000,,,,,,,,,,,,,,,,,,,,,,,,,,,,
1732159129.998450,1732159130.002674,114.000000,0.000000,4275.512695,4277.179688,4317.820313,4306.025879,4296.410156,4294.358887,4333.333496,4402.820313,4296.922852,4282.820313,4475.769043,4503.205078,4336.025879,4399.358887,1566.000000,1.000000,18.000000,,,,0.000000,2.000000,2.000000,0.000000,4.000000,2.000000,2.000000,0.000000,0.000000,4.000000,4.000000,4.000000,4.000000,4.000000,4.000000,0.000000,,,,,,,,,,,,,,,,,,,,,,,,,,,,
1732159130.006258,1732159130.010482,115.000000,0.000000,4278.205078,4280.000000,4319.102539,4311.666504,4277.179688,4297.820313,4334.871582,4401.666504,4300.128418,4288.461426,4477.692383,4510.512695,4335.128418,4405.897461,1548.000000,1.000000,18.000000,,,,0.000000,2.000000,2.000000,0.000000,4.000000,2.000000,2.000000,0.000000,0.000000,4.000000,4.000000,4.000000,4.000000,4.000000,4.000000,0.000000,,,,,,,,,,,,,,,,,,,,,,,,,,,,
1732159130.014066,1732159130.018190,116.000000,0.000000,4280.000000,4282.436035,4319.743652,4315.641113,4273.974121,4295.641113,4333.846191,4400.769043,4301.153809,4296.538574,4477.948730,4505.000000,4339.102539,4409.358887,1706.000000,1.000000,18.000000,,,,0.000000,2.000000,2.000000,0.000000,4.000000,2.000000,2.000000,0.000000,0.000000,4.000000,4.000000,4.000000,4.000000,4.000000,4.000000,0.000000,,,,,,,,,,,,,,,,,29.000000,0.000000,0.494527,0.469910,-0.554016,0.477173,0.970822,-0.078135,-0.049322,-36.586140,44.463699,31.276060
1732159130.021875,1732159130.025999,117.000000,0.000000,4277.948730,4280.641113,4318.205078,4309.102539,4279.743652,4292.692383,4333.846191,4401.666504,4297.948730,4295.256348,4477.820313,4495.000000,4340.256348,4403.846191,1536.000000,1.000000,18.000000,,,,0.000000,2.000000,2.000000,0.000000,4.000000,2.000000,2.000000,0.000000,0.000000,4.000000,4.000000,4.000000,4.000000,4.000000,4.000000,0.000000,,,,,,,,,,,,,,,,,,,,,,,,,,,,
1732159130.029683,1732159130.033607,118.000000,0.000000,4272.179688,4278.333496,4317.820313,4303.846191,4283.974121,4293.077148,4335.000000,4400.769043,4296.794922,4287.948730,4476.153809,4495.384766,4336.025879,4399.743652,1566.000000,1.000000,18.000000,,,,0.000000,2.000000,2.000000,0.000000,4.000000,2.000000,2.000000,0.000000,0.000000,4.000000,4.000000,4.000000,4.000000,4.000000,4.000000,0.000000,,,,,,,,,,,,,,,,,,,,,,,,,,,,
1732159130.037491,1732159130.041415,119.000000,0.000000,4274.615234,4278.974121,4317.563965,4307.051270,4296.666504,4293.974121,4335.512695,4400.512695,4299.358887,4285.128418,4476.794922,4494.487305,4337.307617,4400.128418,1548.000000,1.000000,18.000000,,,,0.000000,2.000000,2.000000,0.000000,4.000000,2.000000,2.000000,0.000000,0.000000,4.000000,4.000000,4.000000,4.000000,4.000000,4.000000,0.000000,,,,,,,,,,,,,,,,,,,,,,,,,,,,
1732159130.045299,1732159130.049124,120.000000,0.000000,4282.051270,4279.743652,4317.307617,4312.563965,4292.051270,4295.769043,4335.512695,4400.256348,4303.461426,4291.282227,4478.461426,4490.641113,4340.512695,4398.974121,1706.000000,1.000000,18.000000,,,,0.000000,2.000000,2.000000,0.000000,4.000000,2.000000,2.000000,0.000000,0.000000,4.000000,4.000000,4.000000,4.000000,4.000000,4.000000,0.000000,,,,,,,,,,,,,,,,,30.000000,0.000000,0.494303,0.470032,-0.553955,0.477356,0.989867,-0.061043,-0.049811,-36.349773,44.343929,31.411943
1732159130.053108,1732159130.056932,121.000000,0.000000,4277.436035,4277.820313,4317.948730,4310.256348,4270.769043,4295.256348,4334.743652,4399.487305,4308.589844,4295.769043,4474.743652,4492.436035,4335.512695,4396.153809,1536.000000,1.000000,18.000000,,,,0.000000,2.000000,2.000000,0.000000,4.000000,2.000000,2.000000,0.000000,0.000000,4.000000,4.000000,4.000000,4.000000,4.000000,4.000000,0.000000,,,,,,,,,,,,,,,,,,,,,,,,,,,,
1732159130.060916,1732159130.064940,122.000000,0.000000,4265.641113,4276.666504,4318.846191,4305.128418,4275.769043,4295.897461,4336.282227,4404.102539,4305.512695,4290.897461,4471.025879,4491.025879,4330.128418,4394.230957,1566.000000,1.000000,18.000000,,,,0.000000,2.000000,2.000000,0.000000,4.000000,2.000000,2.000000,0.000000,0.000000,4.000000,4.000000,4.000000,4.000000,4.000000,4.000000,0.000000,,,,,,,,,,,,,,,,,,,,,,,,,,,,
1732159130.068724,1732159130.072748,123.000000,0.000000,4264.102539,4277.051270,4315.384766,4308.077148,4283.846191,4296.538574,4337.051270,4405.897461,4296.538574,4287.692383,4473.077148,4487.948730,4331.025879,4395.384766,1548.000000,1.000000,18.000000,,,,0.000000,2.000000,2.000000,0.000000,4.000000,2.000000,2.000000,0.000000,0.000000,4.000000,4.000000,4.000000,4.000000,4.000000,4.000000,0.000000,,,,,,,,,,,,,,,,,,,,,,,,,,,,
1732159130.076532,1732159130.080456,124.000000,0.000000,4269.102539,4273.461426,4315.000000,4309.230957,4277.436035,4288.589844,4333.589844,4400.641113,4293.589844,4288.461426,4474.743652,4497.051270,4333.589844,4398.974121,1706.000000,1.000000,18.000000,,,,0.000000,2.000000,2.000000,0.000000,4.000000,2.000000,2.000000,0.000000,0.000000,4.000000,4.000000,4.000000,4.000000,4.000000,4.000000,0.000000,,,,,,,,,,,,,,,,,31.000000,0.000000,0.494069,0.470154,-0.553955,0.477478,0.973263,-0.064949,-0.064461,-36.188316,44.468582,30.922007
1732159130.084341,1732159130.088265,125.000000,0.000000,4266.538574,4267.820313,4318.461426,4301.153809,4293.461426,4283.461426,4332.436035,4397.307617,4299.230957,4290.000000,4473.077148,4500.897461,4333.589844,4399.743652,1536.000000,1.000000,18.000000,,,,0.000000,2.000000,2.000000,0.000000,4.000000,2.000000,2.000000,0.000000,0.000000,4.000000,4.000000,4.000000,4.000000,4.000000,4.000000,0.000000,,,,,,,,,,,,,,,,,,,,,,,,,,,,
1732159130.092149,1732159130.095873,126.000000,0.000000,4263.974121,4267.051270,4318.974121,4296.538574,4304.743652,4291.794922,4334.102539,4402.563965,4302.563965,4292.948730,4473.846191,4495.384766,4332.563965,4398.077148,1566.000000,1.000000,18.000000,,,,0.000000,2.000000,2.000000,0.000000,4.000000,2.000000,2.000000,0.000000,0.000000,4.000000,4.000000,4.000000,4.000000,4.000000,4.000000,0.000000,,,,,,,,,,,,,,,,,,,,,,,,,,,,
1732159130.099957,1732159130.103681,127.000000,0.000000,4268.077148,4269.487305,4316.922852,4303.846191,4277.563965,4297.948730,4334.487305,4407.563965,4298.717773,4289.487305,4476.538574,4496.666504,4334.358887,4400.128418,18.000000,1.000000,18.000000,,,,0.000000,2.000000,2.000000,0.000000,4.000000,2.000000,2.000000,0.000000,0.000000,4.000000,4.000000,4.000000,4.000000,4.000000,4.000000,0.000000,,,,,,,,,,,,,,,,,,,,,,,,,,,,
1732159130.107765,1732159130.111589,0.000000,0.000000,4270.769043,4269.743652,4317.948730,4308.974121,4267.563965,4292.563965,4335.128418,4404.871582,4294.743652,4280.641113,4471.410156,4497.051270,4333.205078,4402.051270,0.000000,1.000000,18.000000,,,,0.000000,2.000000,2.000000,0.000000,4.000000,2.000000,2.000000,0.000000,0.000000,4.000000,4.000000,4.000000,4.000000,4.000000,4.000000,0.000000,,,,,,,,,,,,,,,,,0.000000,0.000000,0.494058,0.470093,-0.554016,0.477478,0.965938,-0.073251,-0.063973,-36.100868,44.424553,31.063492
1732159130.115574,1732159130.119397,1.000000,0.000000,4268.461426,4271.922852,4318.846191,4305.000000,4293.974121,4290.897461,4336.410156,4398.589844,4293.333496,4278.589844,4464.102539,4491.794922,4326.153809,4398.461426,1618.000000,1.000000,18.000000,,,,0.000000,2.000000,2.000000,0.000000,4.000000,2.000000,2.000000,0.000000,0.000000,4.000000,4.000000,4.000000,4.000000,4.000000,4.000000,0.000000,,,,,,,,,,,,,,,,,,,,,,,,,,,,
1732159130.123382,1732159130.127006,2.000000,0.000000,4266.410156,4269.102539,4316.538574,4300.128418,4292.307617,4295.512695,4336.153809,4398.717773,4294.743652,4281.410156,4462.948730,4490.897461,4323.461426,4395.128418,1356.000000,1.000000,18.000000,,,,0.000000,2.000000,2.000000,0.000000,4.000000,2.000000,2.000000,0.000000,0.000000,4.000000,4.000000,4.000000,4.000000,4.000000,4.000000,0.000000,,,,,,,,,,,,,,,,,,,,,,,,,,,,
1732159130.131190,1732159130.134814,3.000000,0.000000,4272.563965,4267.179688,4316.153809,4305.641113,4266.025879,4299.743652,4336.153809,4403.205078,4296.666504,4280.128418,4464.487305,4490.641113,4325.256348,4396.666504,1432.000000,1.000000,18.000000,,,,0.000000,2.000000,2.000000,0.000000,4.000000,2.000000,2.000000,0.000000,0.000000,4.000000,4.000000,4.000000,4.000000,4.000000,4.000000,0.000000,,,,,,,,,,,,,,,,,,,,,,,,,,,,
1732159130.138998,1732159130.142722,4.000000,0.000000,4278.077148,4274.230957,4317.307617,4313.077148,4268.846191,4293.974121,4336.410156,4402.307617,4295.512695,4283.077148,4468.589844,4491.666504,4326.153809,4400.256348,1431.000000,1.000000,18.000000,,,,0.000000,2.000000,2.000000,0.000000,4.000000,2.000000,2.000000,0.000000,0.000000,4.000000,4.000000,4.000000,4.000000,4.000000,4.000000,0.000000,,,,,,,,,,,,,,,,,1.000000,0.000000,0.494071,0.469421,-0.554626,0.477417,0.976682,-0.070321,-0.042974,-36.080036,44.305553,31.128096
1732159130.146807,1732159130.150530,5.000000,0.000000,4277.051270,4271.282227,4318.717773,4305.769043,4284.487305,4282.563965,4335.769043,4401.282227,4293.846191,4287.820313,4475.000000,4498.333496,4325.641113,4399.743652,1187.000000,1.000000,18.000000,,,,0.000000,2.000000,2.000000,0.000000,4.000000,2.000000,2.000000,0.000000,0.000000,4.000000,4.000000,4.000000,4.000000,4.000000,4.000000,0.000000,,,,,,,,,,,,,,,,,,,,,,,,,,,,
1732159130.154615,1732159130.158538,6.000000,0.000000,4272.948730,4262.948730,4319.487305,4297.692383,4282.692383,4285.000000,4336.538574,4401.410156,4296.410156,4288.205078,4468.205078,4499.743652,4325.000000,4395.769043,0.000000,1.000000,18.000000,,,,0.000000,2.000000,2.000000,0.000000,4.000000,2.000000,2.000000,0.000000,0.000000,4.000000,4.000000,4.000000,4.000000,4.000000,4.000000,0.000000,,,,,,,,,,,,,,,,,,,,,,,,,,,,
1732159130.162423,1732159130.166347,7.000000,0.000000,4269.871582,4263.846191,4319.230957,4300.256348,4272.820313,4289.871582,4336.025879,4401.666504,4296.410156,4286.794922,4459.487305,4496.410156,4325.897461,4395.512695,0.000000,1.000000,18.000000,,,,0.000000,2.000000,2.000000,0.000000,4.000000,2.000000,2.000000,0.000000,0.000000,4.000000,4.000000,4.000000,4.000000,4.000000,4.000000,0.000000,,,,,,,,,,,,,,,,,,,,,,,,,,,,
1732159130.170231,1732159130.174255,8.000000,0.000000,4273.077148,4267.948730,4318.333496,4300.128418,4281.025879,4281.153809,4333.333496,4401.794922,4294.487305,4288.461426,4468.461426,4495.128418,4327.820313,4398.461426,1541.000000,1.000000,18.000000,,,,0.000000,2.000000,2.000000,0.000000,4.000000,2.000000,2.000000,0.000000,0.000000,4.000000,4.000000,4.000000,4.000000,4.000000,4.000000,0.000000,,,,,,,,,,,,,,,,,2.000000,0.000000,0.493702,0.468994,-0.555054,0.477722,0.976682,-0.066903,-0.058601,-36.049831,44.022499,31.118757
1732159130.178040,1732159130.182063,9.000000,0.000000,4278.846191,4265.512695,4318.974121,4297.436035,4298.846191,4277.692383,4332.179688,4399.615234,4297.692383,4289.102539,4473.077148,4497.307617,4326.922852,4397.692383,1703.000000,1.000000,18.000000,,,,0.000000,2.000000,2.000000,0.000000,4.000000,2.000000,2.000000,0.000000,0.000000,4.000000,4.000000,4.000000,4.000000,4.000000,4.000000,0.000000,,,,,,,,,,,,,,,,,,,,,,,,,,,,
1732159130.185848,1732159130.189671,10.000000,0.000000,4279.230957,4263.461426,4317.948730,4302.563965,4289.230957,4290.000000,4332.820313,4398.461426,4297.563965,4281.794922,4466.922852,4504.615234,4325.512695,4396.666504,1571.000000,1.000000,18.000000,,,,0.000000,2.000000,2.000000,0.000000,4.000000,2.000000,2.000000,0.000000,0.000000,4.000000,4.000000,4.000000,4.000000,4.000000,4.000000,0.000000,,,,,,,,,,,,,,,,,,,,,,,,,,,,
1732159130.193656,1732159130.197480,11.000000,0.000000,4276.025879,4264.743652,4316.410156,4307.307617,4264.871582,4295.769043,4333.846191,4400.512695,4296.410156,4279.102539,4469.487305,4508.589844,4327.436035,4397.563965,1548.000000,1.000000,18.000000,,,,0.000000,2.000000,2.000000,0.000000,4.000000,2.000000,2.000000,0.000000,0.000000,4.000000,4.000000,4.000000,4.000000,4.000000,4.000000,0.000000,,,,,,,,,,,,,,,,,,,,,,,,,,,,
1732159130.201465,1732159130.205388,12.000000,0.000000,4276.666504,4267.307617,4316.538574,4307.563965,4270.512695,4292.179688,4335.384766,4401.282227,4303.846191,4284.102539,4477.051270,4506.153809,4328.974121,4398.333496,1706.000000,1.000000,18.000000,,,,0.000000,2.000000,2.000000,0.000000,4.000000,2.000000,2.000000,0.000000,0.000000,4.000000,4.000000,4.000000,4.000000,4.000000,4.000000,0.000000,,,,,,,,,,,,,,,,,3.000000,0.000000,0.493690,0.468872,-0.555115,0.477783,0.976682,-0.066903,-0.058601,-35.913696,44.018223,31.127859
1732159130.209273,1732159130.213196,13.000000,0.000000,4273.974121,4269.615234,4316.153809,4306.410156,4286.282227,4294.743652,4335.000000,4400.512695,4308.333496,4286.025879,4474.615234,4503.717773,4327.692383,4398.333496,1531.000000,1.000000,18.000000,,,,0.000000,2.000000,2.000000,0.000000,4.000000,2.000000,2.000000,0.000000,0.000000,4.000000,4.000000,4.000000,4.000000,4.000000,4.000000,0.000000,,,,,,,,,,,,,,,,,,,,,,,,,,,,
1732159130.217081,1732159130.221204,14.000000,0.000000,4265.128418,4265.512695,4313.974121,4300.897461,4283.205078,4295.512695,4333.077148,4401.538574,4300.384766,4280.769043,4464.487305,4497.820313,4325.128418,4393.077148,1571.000000,1.000000,18.000000,,,,0.000000,2.000000,2.000000,0.000000,4.000000,2.000000,2.000000,0.000000,0.000000,4.000000,4.000000,4.000000,4.000000,4.000000,4.000000,0.000000,1.000000,0.000000,2.000000,2.000000,0.000000,4.000000,2.000000,2.000000,0.000000,0.000000,4.000000,1.000000,4.000000,4.000000,4.000000,3.000000,,,,,,,,,,,,
1732159130.224889,1732159130.229012,15.000000,0.000000,4264.358887,4262.563965,4316.153809,4298.717773,4279.615234,4290.000000,4335.000000,4401.922852,4292.179688,4276.410156,4458.205078,4495.641113,4325.128418,4388.333496,1548.000000,1.000000,18.000000,,,,0.000000,2.000000,2.000000,0.000000,4.000000,2.000000,2.000000,0.000000,0.000000,4.000000,4.000000,4.000000,4.000000,4.000000,4.000000,0.000000,,,,,,,,,,,,,,,,,,,,,,,,,,,,
1732159130.232698,1732159130.236920,16.000000,0.000000,4272.307617,4268.589844,4319.871582,4306.538574,4280.000000,4291.666504,4336.153809,4401.538574,4298.461426,4280.512695,4466.794922,4506.538574,4326.025879,4392.307617,0.000000,1.000000,18.000000,,,,0.000000,2.000000,2.000000,0.000000,4.000000,2.000000,2.000000,0.000000,0.000000,4.000000,4.000000,4.000000,4.000000,4.000000,4.000000,0.000000,,,,,,,,,,,,,,,,,4.000000,0.000000,0.493218,0.468262,-0.555786,0.478088,0.963497,-0.078623,-0.053229,-36.063427,44.129761,31.211901
1732159130.240506,1732159130.244728,17.000000,0.000000,4273.717773,4275.128418,4319.358887,4310.769043,4291.153809,4296.025879,4334.358887,4402.436035,4304.230957,4280.897461,4472.307617,4512.820313,4323.974121,4396.025879,0.000000,1.000000,18.000000,,,,0.000000,2.000000,2.000000,0.000000,4.000000,2.000000,2.000000,0.000000,0.000000,4.000000,4.000000,4.000000,4.000000,4.000000,4.000000,0.000000,,,,,,,,,,,,,,,,,,,,,,,,,,,,
1732159130.248314,1732159130.252537,18.000000,0.000000,4266.153809,4277.820313,4316.666504,4304.102539,4303.333496,4286.410156,4332.948730,4402.436035,4297.436035,4279.230957,4463.333496,4502.692383,4325.128418,4394.358887,0.000000,1.000000,18.000000,,,,0.000000,2.000000,2.000000,0.000000,4.000000,2.000000,2.000000,0.000000,0.000000,4.000000,4.000000,4.000000,4.000000,4.000000,4.000000,0.000000,,,,,,,,,,,,,,,,,,,,,,,,,,,,
1732159130.256122,1732159130.260345,19.000000,0.000000,4266.538574,4276.794922,4314.358887,4300.256348,4283.717773,4280.384766,4334.615234,4401.538574,4293.589844,4285.641113,4465.897461,4494.358887,4330.128418,4396.025879,0.000000,1.000000,18.000000,,,,0.000000,2.000000,2.000000,0.000000,4.000000,2.000000,2.000000,0.000000,0.000000,4.000000,4.000000,4.000000,4.000000,4.000000,4.000000,0.000000,,,,,,,,,,,,,,,,,,,,,,,,,,,,
1732159130.263930,1732159130.268053,20.000000,0.000000,4276.282227,4276.922852,4313.461426,4308.333496,4264.230957,4288.077148,4334.487305,4400.897461,4297.307617,4289.230957,4474.615234,4496.922852,4328.846191,4398.461426,0.000000,1.000000,18.000000,,,,0.000000,2.000000,2.000000,0.000000,4.000000,2.000000,2.000000,0.000000,0.000000,4.000000,4.000000,4.000000,4.000000,4.000000,4.000000,0.000000,,,,,,,,,,,,,,,,,5.000000,0.000000,0.493148,0.468201,-0.555847,0.478149,0.980588,-0.079111,-0.062019,-36.133041,44.200108,31.336639
1732159130.271739,1732159130.275861,21.000000,0.000000,4282.307617,4278.717773,4315.512695,4316.153809,4278.333496,4287.820313,4331.794922,4400.384766,4295.897461,4281.282227,4468.205078,4499.743652,4324.487305,4398.974121,0.000000,1.000000,18.000000,,,,0.000000,2.000000,2.000000,0.000000,4.000000,2.000000,2.000000,0.000000,0.000000,4.000000,4.000000,4.000000,4.000000,4.000000,4.000000,0.000000,,,,,,,,,,,,,,,,,,,,,,,,,,,,
1732159130.279547,1732159130.283470,22.000000,0.000000,4277.179688,4273.589844,4316.666504,4308.846191,4284.230957,4282.820313,4331.410156,4401.282227,4290.769043,4276.153809,4461.666504,4500.384766,4326.922852,4399.230957,0.000000,1.000000,18.000000,,,,0.000000,2.000000,2.000000,0.000000,4.000000,2.000000,2.000000,0.000000,0.000000,4.000000,4.000000,4.000000,4.000000,4.000000,4.000000,0.000000,,,,,,,,,,,,,,,,,,,,,,,,,,,,
1732159130.287355,1732159130.291278,23.000000,0.000000,4268.589844,4264.615234,4311.922852,4296.282227,4276.410156,4286.666504,4334.487305,4402.692383,4291.538574,4279.615234,4462.692383,4496.153809,4326.153809,4392.948730,0.000000,1.000000,18.000000,,,,0.000000,2.000000,2.000000,0.000000,4.000000,2.000000,2.000000,0.000000,0.000000,4.000000,4.000000,4.000000,4.000000,4.000000,4.000000,0.000000,,,,,,,,,,,,,,,,,,,,,,,,,,,,
1732159130.295164,1732159130.298986,24.000000,0.000000,4264.102539,4263.974121,4311.666504,4294.230957,4292.307617,4290.128418,4334.871582,4401.282227,4296.025879,4280.128418,4461.538574,4489.871582,4320.128418,4383.589844,0.000000,1.000000,18.000000,,,,0.000000,2.000000,2.000000,0.000000,4.000000,2.000000,2.000000,0.000000,0.000000,4.000000,4.000000,4.000000,4.000000,4.000000,4.000000,0.000000,,,,,,,,,,,,,,,,,6.000000,0.000000,0.493009,0.468140,-0.555969,0.478210,0.970822,-0.071786,-0.058601,-36.072765,44.137085,31.129345
1732159130.302972,1732159130.306794,25.000000,0.000000,4264.743652,4266.666504,4317.051270,4299.358887,4296.666504,4290.512695,4333.205078,4400.769043,4300.641113,4279.871582,4465.641113,4490.000000,4323.333496,4382.436035,0.000000,1.000000,18.000000,,,,0.000000,2.000000,2.000000,0.000000,4.000000,2.000000,2.000000,0.000000,0.000000,4.000000,4.000000,4.000000,4.000000,4.000000,4.000000,0.000000,,,,,,,,,,,,,,,,,,,,,,,,,,,,
1732159130.310780,1732159130.314403,26.000000,0.000000,4264.743652,4265.897461,4318.974121,4301.025879,4270.769043,4293.974121,4334.358887,4401.538574,4300.512695,4286.794922,4474.102539,4495.641113,4328.461426,4388.077148,0.000000,1.000000,18.000000,,,,0.000000,2.000000,2.000000,0.000000,4.000000,2.000000,2.000000,0.000000,0.000000,4.000000,4.000000,4.000000,4.000000,4.000000,4.000000,0.000000,,,,,,,,,,,,,,,,,,,,,,,,,,,,
1732159130.318588,1732159130.322211,27.000000,0.000000,4263.974121,4270.384766,4317.563965,4302.051270,4268.846191,4290.256348,4334.743652,4402.436035,4296.025879,4293.717773,4472.948730,4495.000000,4330.128418,4393.846191,0.000000,1.000000,18.000000,,,,0.000000,2.000000,2.000000,0.000000,4.000000,2.000000,2.000000,0.000000,0.000000,4.000000,4.000000,4.000000,4.000000,4.000000,4.000000,0.000000,,,,,,,,,,,,,,,,,,,,,,,,,,,,
1732159130.326397,1732159130.329919,28.000000,0.000000,4265.897461,4273.846191,4317.307617,4303.846191,4281.410156,4283.846191,4334.615234,4405.384766,4297.563965,4291.410156,4471.282227,4493.717773,4331.666504,4397.563965,0.000000,1.000000,18.000000,,,,0.000000,2.000000,2.000000,0.000000,4.000000,2.000000,2.000000,0.000000,0.000000,4.000000,4.000000,4.000000,4.000000,4.000000,4.000000,0.000000,,,,,,,,,,,,,,,,,7.000000,0.000000,0.492821,0.468079,-0.556030,0.478394,0.984007,-0.074228,-0.054206,-36.280605,44.206039,31.073103
1732159130.334205,1732159130.337728,29.000000,0.000000,4265.512695,4266.922852,4314.743652,4301.922852,4281.025879,4289.358887,4335.384766,4403.974121,4301.153809,4283.205078,4474.743652,4496.538574,4328.333496,4396.025879,0.000000,1.000000,18.000000,,,,0.000000,2.000000,2.000000,0.000000,4.000000,2.000000,2.000000,0.000000,0.000000,4.000000,4.000000,4.000000,4.000000,4.000000,4.000000,0.000000,,,,,,,,,,,,,,,,,,,,,,,,,,,,
1732159130.342013,1732159130.345336,30.000000,0.000000,4260.641113,4261.538574,4312.563965,4298.077148,4291.153809,4292.436035,4334.487305,4401.538574,4297.051270,4278.717773,4470.256348,4496.794922,4324.358887,4390.384766,0.000000,1.000000,18.000000,,,,0.000000,2.000000,2.000000,0.000000,4.000000,2.000000,2.000000,0.000000,0.000000,4.000000,4.000000,4.000000,4.000000,4.000000,4.000000,0.000000,,,,,,,,,,,,,,,,,,,,,,,,,,,,
1732159130.349821,1732159130.353144,31.000000,0.000000,4258.077148,4263.333496,4313.077148,4295.384766,4294.487305,4285.128418,4334.102539,4403.461426,4293.846191,4284.230957,4465.256348,4497.436035,4326.922852,4387.692383,0.000000,1.000000,18.000000,,,,0.000000,2.000000,2.000000,0.000000,4.000000,2.000000,2.000000,0.000000,0.000000,4.000000,4.000000,4.000000,4.000000,4.000000,4.000000,0.000000,,,,,,,,,,,,,,,,,,,,,,,,,,,,
1732159130.357630,1732159130.360853,32.000000,0.000000,4260.641113,4263.974121,4315.769043,4295.128418,4268.717773,4282.948730,4334.487305,4402.948730,4298.461426,4290.897461,4468.589844,4496.922852,4328.205078,4386.538574,0.000000,1.000000,18.000000,,,,0.000000,2.000000,2.000000,0.000000,4.000000,2.000000,2.000000,0.000000,0.000000,4.000000,4.000000,4.000000,4.000000,4.000000,4.000000,0.000000,,,,,,,,,,,,,,,,,8.000000,0.000000,0.492395,0.467957,-0.556458,0.478455,0.964962,-0.074716,-0.062996,-36.317291,44.191891,31.127546
1732159130.365438,1732159130.368661,33.000000,0.000000,4263.589844,4263.461426,4317.436035,4295.769043,4264.358887,4290.256348,4334.487305,4400.512695,4299.102539,4285.897461,4467.307617,4491.922852,4323.589844,4382.436035,0.000000,1.000000,18.000000,,,,0.000000,2.000000,2.000000,0.000000,4.000000,2.000000,2.000000,0.000000,0.000000,4.000000,4.000000,4.000000,4.000000,4.000000,4.000000,0.000000,,,,,,,,,,,,,,,,,,,,,,,,,,,,
1732159130.373246,1732159130.376269,34.000000,0.000000,4264.102539,4265.128418,4315.128418,4297.563965,4278.589844,4291.794922,4333.974121,4401.922852,4293.846191,4278.333496,4460.641113,4492.563965,4323.461426,4384.487305,0.000000,1.000000,18.000000,,,,0.000000,2.000000,2.000000,0.000000,4.000000,2.000000,2.000000,0.000000,0.000000,4.000000,4.000000,4.000000,4.000000,4.000000,4.000000,0.000000,,,,,,,,,,,,,,,,,,,,,,,,,,,,
1732159130.381054,1732159130.384077,35.000000,0.000000,4264.615234,4264.230957,4314.615234,4295.384766,4278.461426,4284.871582,4335.128418,4402.179688,4291.794922,4280.000000,4462.307617,4497.307617,4327.179688,4391.410156,0.000000,1.000000,18.000000,,,,0.000000,2.000000,2.000000,0.000000,4.000000,2.000000,2.000000,0.000000,0.000000,4.000000,4.000000,4.000000,4.000000,4.000000,4.000000,0.000000,,,,,,,,,,,,,,,,,,,,,,,,,,,,
1732159130.388862,1732159130.391786,36.000000,0.000000,4263.974121,4262.948730,4317.179688,4291.922852,4286.282227,4279.230957,4335.256348,4401.153809,4293.333496,4283.461426,4468.717773,4496.794922,4326.794922,4390.897461,0.000000,1.000000,18.000000,,,,0.000000,2.000000,2.000000,0.000000,4.000000,2.000000,2.000000,0.000000,0.000000,4.000000,4.000000,4.000000,4.000000,4.000000,4.000000,0.000000,,,,,,,,,,,,,,,,,9.000000,0.000000,0.491945,0.468201,-0.556335,0.478821,0.978147,-0.072274,-0.051764,-36.375340,44.277100,31.059978
1732159130.396671,1732159130.399594,37.000000,0.000000,4264.487305,4264.230957,4315.512695,4292.692383,4288.205078,4281.922852,4335.128418,4401.794922,4294.230957,4281.666504,4472.436035,4497.820313,4323.461426,4389.358887,0.000000,1.000000,18.000000,,,,0.000000,2.000000,2.000000,0.000000,4.000000,2.000000,2.000000,0.000000,0.000000,4.000000,4.000000,4.000000,4.000000,4.000000,4.000000,0.000000,,,,,,,,,,,,,,,,,,,,,,,,,,,,
1732159130.404479,1732159130.407202,38.000000,0.000000,4266.538574,4265.512695,4313.077148,4293.717773,4265.000000,4291.666504,4335.128418,4401.025879,4295.769043,4281.922852,4472.051270,4496.025879,4323.333496,4397.051270,0.000000,1.000000,18.000000,,,,0.000000,2.000000,2.000000,0.000000,4.000000,2.000000,2.000000,0.000000,0.000000,4.000000,4.000000,4.000000,4.000000,4.000000,4.000000,0.000000,,,,,,,,,,,,,,,,,,,,,,,,,,,,
1732159130.412287,1732159130.415011,39.000000,0.000000,4265.256348,4264.358887,4317.307617,4291.153809,4257.948730,4291.410156,4335.128418,4405.000000,4296.538574,4281.282227,4465.897461,4490.000000,4328.589844,4400.000000,0.000000,1.000000,18.000000,,,,0.000000,2.000000,2.000000,0.000000,4.000000,2.000000,2.000000,0.000000,0.000000,4.000000,4.000000,4.000000,4.000000,4.000000,4.000000,0.000000,,,,,,,,,,,,,,,,,,,,,,,,,,,,
1732159130.420096,1732159130.422719,40.000000,0.000000,4262.820313,4264.358887,4320.128418,4291.794922,4275.128418,4280.641113,4335.000000,4408.974121,4295.000000,4280.256348,4461.025879,4490.256348,4326.794922,4388.461426,0.000000,1.000000,18.000000,,,,0.000000,2.000000,2.000000,0.000000,4.000000,2.000000,2.000000,0.000000,0.000000,4.000000,4.000000,4.000000,4.000000,4.000000,4.000000,0.000000,,,,,,,,,,,,,,,,,10.000000,0.000000,0.491923,0.468079,-0.556458,0.478821,0.970822,-0.070809,-0.052252,-36.462357,44.414452,31.206917
1732159130.427904,1732159130.430527,41.000000,0.000000,4263.974121,4266.666504,4317.179688,4297.948730,4282.051270,4279.743652,4334.743652,4403.461426,4296.538574,4282.948730,4461.922852,4493.205078,4320.897461,4385.000000,0.000000,1.000000,18.000000,,,,0.000000,2.000000,2.000000,0.000000,4.000000,2.000000,2.000000,0.000000,0.000000,4.000000,4.000000,4.000000,4.000000,4.000000,4.000000,0.000000,,,,,,,,,,,,,,,,,,,,,,,,,,,,
1732159130.435712,1732159130.438135,42.000000,0.000000,4264.615234,4266.538574,4313.974121,4296.282227,4274.615234,4288.333496,4335.256348,4400.000000,4295.769043,4283.333496,4464.743652,4493.846191,4323.974121,4392.436035,0.000000,1.000000,18.000000,,,,0.000000,2.000000,2.000000,0.000000,4.000000,2.000000,2.000000,0.000000,0.000000,4.000000,4.000000,4.000000,4.000000,4.000000,4.000000,0.000000,,,,,,,,,,,,,,,,,,,,,,,,,,,,
1732159130.443520,1732159130.445944,43.000000,0.000000,4261.282227,4262.179688,4314.358887,4287.051270,4276.922852,4285.000000,4336.025879,4403.846191,4292.563965,4280.641113,4463.589844,4492.179688,4326.025879,4389.230957,0.000000,1.000000,18.000000,,,,0.000000,2.000000,2.000000,0.000000,4.000000,2.000000,2.000000,0.000000,0.000000,4.000000,4.000000,4.000000,4.000000,4.000000,4.000000,0.000000,,,,,,,,,,,,,,,,,,,,,,,,,,,,
1732159130.451329,1732159130.453652,44.000000,0.000000,4258.589844,4260.512695,4313.589844,4286.666504,4293.589844,4281.153809,4335.897461,4403.461426,4291.794922,4277.692383,4458.077148,4484.615234,4318.205078,4378.846191,0.000000,1.000000,18.000000,,,,0.000000,2.000000,2.000000,0.000000,4.000000,2.000000,2.000000,0.000000,0.000000,4.000000,4.000000,4.000000,4.000000,4.000000,4.000000,0.000000,,,,,,,,,,,,,,,,,11.000000,0.000000,0.491673,0.467957,-0.556519,0.479126,0.984984,-0.089366,-0.045904,-36.306175,44.330704,31.052603
1732159130.459137,1732159130.461460,45.000000,0.000000,4258.589844,4263.077148,4315.128418,4293.974121,4287.820313,4285.512695,4335.769043,4401.025879,4290.769043,4278.589844,4458.589844,4482.307617,4317.179688,4380.384766,0.000000,1.000000,18.000000,,,,0.000000,2.000000,2.000000,0.000000,4.000000,2.000000,2.000000,0.000000,0.000000,4.000000,4.000000,4.000000,4.000000,4.000000,4.000000,0.000000,,,,,,,,,,,,,,,,,,,,,,,,,,,,
1732159130.466945,1732159130.469468,46.000000,0.000000,4259.871582,4263.589844,4317.692383,4297.692383,4261.153809,4287.179688,4335.897461,4400.897461,4286.922852,4284.871582,4464.615234,4493.589844,4324.615234,4386.794922,0.000000,1.000000,18.000000,,,,0.000000,2.000000,2.000000,0.000000,4.000000,2.000000,2.000000,0.000000,0.000000,4.000000,4.000000,4.000000,4.000000,4.000000,4.000000,0.000000,,,,,,,,,,,,,,,,,,,,,,,,,,,,
1732159130.474753,1732159130.477276,47.000000,0.000000,4259.743652,4261.538574,4313.205078,4296.153809,4266.410156,4286.794922,4335.897461,4401.922852,4283.205078,4286.282227,4462.948730,4497.820313,4320.769043,4386.794922,0.000000,1.000000,18.000000,,,,0.000000,2.000000,2.000000,0.000000,4.000000,2.000000,2.000000,0.000000,0.000000,4.000000,4.000000,4.000000,4.000000,4.000000,4.000000,0.000000,,,,,,,,,,,,,,,,,,,,,,,,,,,,
1732159130.482562,1732159130.485184,48.000000,0.000000,4259.487305,4262.820313,4309.487305,4295.384766,4281.410156,4286.282227,4336.025879,4402.179688,4287.563965,4288.205078,4460.384766,4489.871582,4316.538574,4385.769043,0.000000,1.000000,18.000000,,,,0.000000,2.000000,2.000000,0.000000,4.000000,2.000000,2.000000,0.000000,0.000000,4.000000,4.000000,4.000000,4.000000,4.000000,4.000000,0.000000,,,,,,,,,,,,,,,,,12.000000,0.000000,0.491543,0.467896,-0.556580,0.479248,0.976682,-0.079600,-0.055183,-36.358002,44.239536,30.985941
1732159130.490370,1732159130.492993,49.000000,0.000000,4261.410156,4265.128418,4313.589844,4296.410156,4274.102539,4285.641113,4335.769043,4400.128418,4294.615234,4296.025879,4466.538574,4486.538574,4324.615234,4385.256348,0.000000,1.000000,18.000000,,,,0.000000,2.000000,2.000000,0.000000,4.000000,2.000000,2.000000,0.000000,0.000000,4.000000,4.000000,4.000000,4.000000,4.000000,4.000000,0.000000,,,,,,,,,,,,,,,,,,,,,,,,,,,,
1732159130.498178,1732159130.500601,50.000000,0.000000,4262.820313,4263.077148,4315.769043,4295.512695,4285.256348,4287.563965,4335.641113,4400.769043,4293.461426,4292.820313,4465.897461,4484.871582,4326.666504,4384.102539,0.000000,1.000000,18.000000,,,,0.000000,2.000000,2.000000,0.000000,4.000000,2.000000,2.000000,0.000000,0.000000,4.000000,4.000000,4.000000,4.000000,4.000000,4.000000,0.000000,,,,,,,,,,,,,,,,,,,,,,,,,,,,
1732159130.505986,1732159130.508409,51.000000,0.000000,4262.307617,4261.666504,4314.358887,4293.589844,4297.179688,4288.589844,4336.282227,4402.563965,4291.153809,4284.230957,4459.743652,4482.692383,4318.846191,4386.025879,0.000000,1.000000,18.000000,,,,0.000000,2.000000,2.000000,0.000000,4.000000,2.000000,2.000000,0.000000,0.000000,4.000000,4.000000,4.000000,4.000000,4.000000,4.000000,0.000000,,,,,,,,,,,,,,,,,,,,,,,,,,,,
1732159130.513795,1732159130.516317,52.000000,0.000000,4263.717773,4265.000000,4316.153809,4296.538574,4270.000000,4285.769043,4335.256348,4400.769043,4291.794922,4291.666504,4462.563965,4488.333496,4315.641113,4391.282227,0.000000,1.000000,18.000000,,,,0.000000,2.000000,2.000000,0.000000,4.000000,2.000000,2.000000,0.000000,0.000000,4.000000,4.000000,4.000000,4.000000,4.000000,4.000000,0.000000,,,,,,,,,,,,,,,,,13.000000,0.000000,0.491425,0.467957,-0.556580,0.479309,0.976682,-0.079600,-0.055183,-36.258316,44.510693,30.798613
1732159130.521603,1732159130.524126,53.000000,0.000000,4266.153809,4267.563965,4316.025879,4300.641113,4255.384766,4282.692383,4334.358887,4398.461426,4286.666504,4294.615234,4465.384766,4491.025879,4321.666504,4395.641113,0.000000,1.000000,18.000000,,,,0.000000,2.000000,2.000000,0.000000,4.000000,2.000000,2.000000,0.000000,0.000000,4.000000,4.000000,4.000000,4.000000,4.000000,4.000000,0.000000,,,,,,,,,,,,,,,,,,,,,,,,,,,,
