title:3zero, start timestamp:1732159184.898454, stop timestamp:1732159227.843855, headset type:EPOCX, headset serial:E5020C3A, headset firmware:730, channels:67, sampling rate:eeg_128;mot_32, samples:5501      , version:2.2, 
Timestamp,OriginalTimestamp,EEG.Counter,EEG.Interpolated,EEG.AF3,EEG.F7,EEG.F3,EEG.FC5,EEG.T7,EEG.P7,EEG.O1,EEG.O2,EEG.P8,EEG.T8,EEG.FC6,EEG.F4,EEG.F8,EEG.AF4,EEG.RawCq,EEG.Battery,EEG.BatteryPercent,MarkerIndex,MarkerType,MarkerValueInt,EEG.MarkerHardware,CQ.AF3,CQ.F7,CQ.F3,CQ.FC5,CQ.T7,CQ.P7,CQ.O1,CQ.O2,CQ.P8,CQ.T8,CQ.FC6,CQ.F4,CQ.F8,CQ.AF4,CQ.Overall,EQ.SampleRateQuality,EQ.OVERALL,EQ.AF3,EQ.F7,EQ.F3,EQ.FC5,EQ.T7,EQ.P7,EQ.O1,EQ.O2,EQ.P8,EQ.T8,EQ.FC6,EQ.F4,EQ.F8,EQ.AF4,MOT.CounterMems,MOT.InterpolatedMems,MOT.Q0,MOT.Q1,MOT.Q2,MOT.Q3,MOT.AccX,MOT.AccY,MOT.AccZ,MOT.MagX,MOT.MagY,MOT.MagZ
1732159184.898454,1732159184.902490,105.000000,0.000000,4294.102539,4276.282227,4313.077148,4296.025879,4260.512695,4281.666504,4335.897461,4407.563965,4311.410156,4288.333496,4476.153809,4519.871582,4351.538574,4410.128418,1539.000000,1.000000,17.000000,,,,0.000000,2.000000,2.000000,0.000000,4.000000,2.000000,2.000000,0.000000,0.000000,4.000000,4.000000,4.000000,4.000000,4.000000,4.000000,0.000000,,,,,,,,,,,,,,,,,,,,,,,,,,,,
1732159184.906263,1732159184.910498,106.000000,0.000000,4292.948730,4276.410156,4314.871582,4296.666504,4273.077148,4277.563965,4335.256348,4407.948730,4311.282227,4280.897461,4474.743652,4518.846191,4349.230957,4411.794922,1563.000000,1.000000,17.000000,,,,0.000000,2.000000,2.000000,0.000000,4.000000,2.000000,2.000000,0.000000,0.000000,4.000000,4.000000,4.000000,4.000000,4.000000,4.000000,0.000000,,,,,,,,,,,,,,,,,,,,,,,,,,,,
1732159184.914071,1732159184.918306,107.000000,0.000000,4292.692383,4276.410156,4317.692383,4295.769043,4283.077148,4275.256348,4336.025879,4404.743652,4309.871582,4280.384766,4473.077148,4520.256348,4347.692383,4410.641113,1548.000000,1.000000,17.000000,,,,0.000000,2.000000,2.000000,0.000000,4.000000,2.000000,2.000000,0.000000,0.000000,4.000000,4.000000,4.000000,4.000000,4.000000,4.000000,0.000000,,,,,,,,,,,,,,,,,,,,,,,,,,,,
1732159184.921879,1732159184.926214,108.000000,0.000000,4295.641113,4279.230957,4316.538574,4298.077148,4277.179688,4276.410156,4336.666504,4405.000000,4310.769043,4282.692383,4473.974121,4521.153809,4351.538574,4410.769043,1706.000000,1.000000,17.000000,,,,0.000000,2.000000,2.000000,0.000000,4.000000,2.000000,2.000000,0.000000,0.000000,4.000000,4.000000,4.000000,4.000000,4.000000,4.000000,0.000000,,,,,,,,,,,,,,,,,27.000000,0.000000,0.514503,0.500305,-0.523804,0.458923,0.963008,0.034184,-0.054206,-34.939571,46.426880,31.384850
1732159184.929687,1732159184.934022,109.000000,0.000000,4296.538574,4278.205078,4316.282227,4298.589844,4275.512695,4272.948730,4335.512695,4410.256348,4311.410156,4283.974121,4476.922852,4525.641113,4350.384766,4412.563965,1539.000000,1.000000,17.000000,,,,0.000000,2.000000,2.000000,0.000000,4.000000,2.000000,2.000000,0.000000,0.000000,4.000000,4.000000,4.000000,4.000000,4.000000,4.000000,0.000000,,,,,,,,,,,,,,,,,,,,,,,,,,,,
1732159184.937496,1732159184.942030,110.000000,0.000000,4299.230957,4272.820313,4317.179688,4294.615234,4277.051270,4270.256348,4333.846191,4410.769043,4315.128418,4286.282227,4477.051270,4531.794922,4345.897461,4416.538574,1563.000000,1.000000,17.000000,,,,0.000000,2.000000,2.000000,0.000000,4.000000,2.000000,2.000000,0.000000,0.000000,4.000000,4.000000,4.000000,4.000000,4.000000,4.000000,0.000000,,,,,,,,,,,,,,,,,,,,,,,,,,,,
1732159184.945304,1732159184.949838,111.000000,0.000000,4304.230957,4267.820313,4319.102539,4294.102539,4271.410156,4271.538574,4336.538574,4404.230957,4319.230957,4285.897461,4474.615234,4527.820313,4352.436035,4422.436035,1548.000000,1.000000,17.000000,,,,0.000000,2.000000,2.000000,0.000000,4.000000,2.000000,2.000000,0.000000,0.000000,4.000000,4.000000,4.000000,4.000000,4.000000,4.000000,0.000000,,,,,,,,,,,,,,,,,,,,,,,,,,,,
1732159184.953112,1732159184.957747,112.000000,0.000000,4304.615234,4265.641113,4318.077148,4296.666504,4267.307617,4271.025879,4340.897461,4400.897461,4319.615234,4287.179688,4480.256348,4520.897461,4362.820313,4426.025879,1706.000000,1.000000,17.000000,,,,0.000000,2.000000,2.000000,0.000000,4.000000,2.000000,2.000000,0.000000,0.000000,4.000000,4.000000,4.000000,4.000000,4.000000,4.000000,0.000000,,,,,,,,,,,,,,,,,28.000000,0.000000,0.515079,0.500671,-0.523315,0.458435,0.961543,0.053229,-0.045416,-34.976051,46.399105,31.355062
1732159184.960920,1732159184.965555,113.000000,0.000000,4302.307617,4265.256348,4315.128418,4291.666504,4268.333496,4271.666504,4340.256348,4405.128418,4317.948730,4293.717773,4487.820313,4527.307617,4365.641113,4428.717773,1539.000000,1.000000,17.000000,,,,0.000000,2.000000,2.000000,0.000000,4.000000,2.000000,2.000000,0.000000,0.000000,4.000000,4.000000,4.000000,4.000000,4.000000,4.000000,0.000000,,,,,,,,,,,,,,,,,,,,,,,,,,,,
1732159184.968729,1732159184.973163,114.000000,0.000000,4301.794922,4264.230957,4313.333496,4280.769043,4266.153809,4273.846191,4336.922852,4408.589844,4318.205078,4296.153809,4487.948730,4533.846191,4371.282227,4429.743652,1563.000000,1.000000,17.000000,,,,0.000000,2.000000,2.000000,0.000000,4.000000,2.000000,2.000000,0.000000,0.000000,4.000000,4.000000,4.000000,4.000000,4.000000,4.000000,0.000000,,,,,,,,,,,,,,,,,,,,,,,,,,,,
1732159184.976537,1732159184.980971,115.000000,0.000000,4299.871582,4258.717773,4311.922852,4277.307617,4262.692383,4271.410156,4335.769043,4406.666504,4323.461426,4294.487305,4488.717773,4527.307617,4382.307617,4432.179688,1548.000000,1.000000,17.000000,,,,0.000000,2.000000,2.000000,0.000000,4.000000,2.000000,2.000000,0.000000,0.000000,4.000000,4.000000,4.000000,4.000000,4.000000,4.000000,0.000000,,,,,,,,,,,,,,,,,,,,,,,,,,,,
1732159184.984345,1732159184.988680,116.000000,0.000000,4295.769043,4251.794922,4310.897461,4279.358887,4264.230957,4266.538574,4335.384766,4406.282227,4326.794922,4294.358887,4493.589844,4520.769043,4385.897461,4438.205078,1706.000000,1.000000,17.000000,,,,0.000000,2.000000,2.000000,0.000000,4.000000,2.000000,2.000000,0.000000,0.000000,4.000000,4.000000,4.000000,4.000000,4.000000,4.000000,0.000000,,,,,,,,,,,,,,,,,29.000000,0.000000,0.515376,0.500916,-0.522949,0.458252,0.964962,0.064461,-0.041997,-35.082268,46.493275,31.394266
1732159184.992154,1732159184.996488,117.000000,0.000000,4294.871582,4250.128418,4311.538574,4276.538574,4268.717773,4265.512695,4334.615234,4406.794922,4320.897461,4292.948730,4493.333496,4523.333496,4382.436035,4442.563965,1539.000000,1.000000,17.000000,,,,0.000000,2.000000,2.000000,0.000000,4.000000,2.000000,2.000000,0.000000,0.000000,4.000000,4.000000,4.000000,4.000000,4.000000,4.000000,0.000000,,,,,,,,,,,,,,,,,,,,,,,,,,,,
1732159184.999962,1732159185.004096,118.000000,0.000000,4297.436035,4250.769043,4314.102539,4276.153809,4263.205078,4266.666504,4334.871582,4403.717773,4316.410156,4294.743652,4493.717773,4528.589844,4381.538574,4438.846191,1563.000000,1.000000,17.000000,,,,0.000000,2.000000,2.000000,0.000000,4.000000,2.000000,2.000000,0.000000,0.000000,4.000000,4.000000,4.000000,4.000000,4.000000,4.000000,0.000000,,,,,,,,,,,,,,,,,,,,,,,,,,,,
1732159185.007770,1732159185.011905,119.000000,0.000000,4297.948730,4249.230957,4313.077148,4277.820313,4260.641113,4267.051270,4334.871582,4404.615234,4321.538574,4298.589844,4499.230957,4532.051270,4382.563965,4432.436035,1548.000000,1.000000,17.000000,,,,0.000000,2.000000,2.000000,0.000000,4.000000,2.000000,2.000000,0.000000,0.000000,4.000000,4.000000,4.000000,4.000000,4.000000,4.000000,0.000000,,,,,,,,,,,,,,,,,,,,,,,,,,,,
1732159185.015578,1732159185.019613,120.000000,0.000000,4293.589844,4246.538574,4311.922852,4274.871582,4277.436035,4264.871582,4334.871582,4407.307617,4329.487305,4296.025879,4501.922852,4530.897461,4382.179688,4431.153809,1706.000000,1.000000,17.000000,,,,0.000000,2.000000,2.000000,0.000000,4.000000,2.000000,2.000000,0.000000,0.000000,4.000000,4.000000,4.000000,4.000000,4.000000,4.000000,0.000000,,,,,,,,,,,,,,,,,30.000000,0.000000,0.516029,0.502319,-0.521545,0.457581,0.971798,0.078135,-0.056648,-34.938305,46.456219,31.454355
1732159185.023386,1732159185.027421,121.000000,0.000000,4291.025879,4249.102539,4313.077148,4274.615234,4276.153809,4264.871582,4335.000000,4405.128418,4332.436035,4293.974121,4502.692383,4531.025879,4382.051270,4435.384766,1539.000000,1.000000,17.000000,,,,0.000000,2.000000,2.000000,0.000000,4.000000,2.000000,2.000000,0.000000,0.000000,4.000000,4.000000,4.000000,4.000000,4.000000,4.000000,0.000000,,,,,,,,,,,,,,,,,,,,,,,,,,,,
1732159185.031195,1732159185.035029,122.000000,0.000000,4293.077148,4251.025879,4314.487305,4280.769043,4249.102539,4268.717773,4335.000000,4401.922852,4328.205078,4297.436035,4503.205078,4534.102539,4380.000000,4436.922852,1563.000000,1.000000,17.000000,,,,0.000000,2.000000,2.000000,0.000000,4.000000,2.000000,2.000000,0.000000,0.000000,4.000000,4.000000,4.000000,4.000000,4.000000,4.000000,0.000000,,,,,,,,,,,,,,,,,,,,,,,,,,,,
1732159185.039003,1732159185.042838,123.000000,0.000000,4294.358887,4249.615234,4313.333496,4281.410156,4248.846191,4275.512695,4335.000000,4402.436035,4325.128418,4297.179688,4502.820313,4533.974121,4378.974121,4433.846191,1548.000000,1.000000,17.000000,,,,0.000000,2.000000,2.000000,0.000000,4.000000,2.000000,2.000000,0.000000,0.000000,4.000000,4.000000,4.000000,4.000000,4.000000,4.000000,0.000000,,,,,,,,,,,,,,,,,,,,,,,,,,,,
1732159185.046811,1732159185.050546,124.000000,0.000000,4293.717773,4255.641113,4312.307617,4279.871582,4270.000000,4280.000000,4335.000000,4405.769043,4325.128418,4287.307617,4500.769043,4527.820313,4382.307617,4432.692383,1706.000000,1.000000,17.000000,,,,0.000000,2.000000,2.000000,0.000000,4.000000,2.000000,2.000000,0.000000,0.000000,4.000000,4.000000,4.000000,4.000000,4.000000,4.000000,0.000000,,,,,,,,,,,,,,,,,31.000000,0.000000,0.514890,0.503540,-0.521118,0.458008,0.964962,0.058601,-0.042486,-34.761692,46.449539,31.459696
1732159185.054619,1732159185.058354,125.000000,0.000000,4293.717773,4262.948730,4313.461426,4285.256348,4268.461426,4276.282227,4335.000000,4407.179688,4319.102539,4279.358887,4493.974121,4522.820313,4380.897461,4431.538574,1539.000000,1.000000,17.000000,,,,0.000000,2.000000,2.000000,0.000000,4.000000,2.000000,2.000000,0.000000,0.000000,4.000000,4.000000,4.000000,4.000000,4.000000,4.000000,0.000000,,,,,,,,,,,,,,,,,,,,,,,,,,,,
1732159185.062428,1732159185.066362,126.000000,0.000000,4296.282227,4264.615234,4310.641113,4289.102539,4261.282227,4270.384766,4334.871582,4404.615234,4313.846191,4280.384766,4489.743652,4524.230957,4374.230957,4431.922852,1563.000000,1.000000,17.000000,,,,0.000000,2.000000,2.000000,0.000000,4.000000,2.000000,2.000000,0.000000,0.000000,4.000000,4.000000,4.000000,4.000000,4.000000,4.000000,0.000000,,,,,,,,,,,,,,,,,,,,,,,,,,,,
1732159185.070236,1732159185.074170,127.000000,0.000000,4299.743652,4264.871582,4307.820313,4289.230957,4267.179688,4269.615234,4335.256348,4401.153809,4320.769043,4281.794922,4492.948730,4528.205078,4376.153809,4434.487305,17.000000,1.000000,17.000000,,,,0.000000,2.000000,2.000000,0.000000,4.000000,2.000000,2.000000,0.000000,0.000000,4.000000,4.000000,4.000000,4.000000,4.000000,4.000000,0.000000,,,,,,,,,,,,,,,,,,,,,,,,,,,,
1732159185.078044,1732159185.082079,0.000000,0.000000,4299.871582,4260.384766,4308.333496,4285.897461,4265.128418,4269.487305,4334.743652,4400.641113,4325.897461,4280.128418,4493.589844,4531.538574,4381.025879,4432.563965,0.000000,1.000000,17.000000,,,,0.000000,2.000000,2.000000,0.000000,4.000000,2.000000,2.000000,0.000000,0.000000,4.000000,4.000000,4.000000,4.000000,4.000000,4.000000,0.000000,,,,,,,,,,,,,,,,,0.000000,0.000000,0.514890,0.503540,-0.521118,0.458008,0.974240,0.037114,-0.050299,-34.678638,46.309128,31.449020
1732159185.085853,1732159185.089887,1.000000,0.000000,4295.769043,4251.794922,4303.589844,4279.358887,4262.307617,4272.563965,4334.358887,4400.256348,4322.436035,4280.897461,4489.230957,4530.384766,4373.974121,4428.333496,1621.000000,1.000000,17.000000,,,,0.000000,2.000000,2.000000,0.000000,4.000000,2.000000,2.000000,0.000000,0.000000,4.000000,4.000000,4.000000,4.000000,4.000000,4.000000,0.000000,,,,,,,,,,,,,,,,,,,,,,,,,,,,
1732159185.093661,1732159185.097495,2.000000,0.000000,4289.230957,4248.333496,4300.897461,4276.410156,4265.641113,4279.743652,4334.487305,4405.000000,4321.794922,4279.102539,4487.436035,4526.922852,4367.307617,4427.051270,1357.000000,1.000000,17.000000,,,,0.000000,2.000000,2.000000,0.000000,4.000000,2.000000,2.000000,0.000000,0.000000,4.000000,4.000000,4.000000,4.000000,4.000000,4.000000,0.000000,,,,,,,,,,,,,,,,,,,,,,,,,,,,
1732159185.101469,1732159185.105303,3.000000,0.000000,4287.948730,4250.000000,4304.230957,4279.358887,4265.641113,4282.051270,4333.077148,4409.615234,4328.846191,4278.461426,4487.820313,4525.769043,4365.897461,4426.922852,1437.000000,1.000000,17.000000,,,,0.000000,2.000000,2.000000,0.000000,4.000000,2.000000,2.000000,0.000000,0.000000,4.000000,4.000000,4.000000,4.000000,4.000000,4.000000,0.000000,,,,,,,,,,,,,,,,,,,,,,,,,,,,
1732159185.109277,1732159185.113012,4.000000,0.000000,4292.948730,4254.743652,4306.153809,4280.384766,4266.282227,4281.025879,4331.922852,4405.384766,4333.846191,4289.871582,4490.000000,4528.974121,4365.256348,4427.179688,1447.000000,1.000000,17.000000,,,,0.000000,2.000000,2.000000,0.000000,4.000000,2.000000,2.000000,0.000000,0.000000,4.000000,4.000000,4.000000,4.000000,4.000000,4.000000,0.000000,,,,,,,,,,,,,,,,,1.000000,0.000000,0.512529,0.502869,-0.523499,0.458679,0.957148,0.014162,-0.057624,-34.609695,46.305393,31.297039
1732159185.117086,1732159185.120820,5.000000,0.000000,4295.384766,4263.717773,4302.820313,4279.615234,4268.846191,4280.769043,4334.743652,4401.153809,4329.358887,4297.051270,4491.538574,4530.897461,4373.974121,4429.102539,1197.000000,1.000000,17.000000,,,,0.000000,2.000000,2.000000,0.000000,4.000000,2.000000,2.000000,0.000000,0.000000,4.000000,4.000000,4.000000,4.000000,4.000000,4.000000,0.000000,,,,,,,,,,,,,,,,,,,,,,,,,,,,
1732159185.124894,1732159185.128428,6.000000,0.000000,4293.589844,4265.641113,4305.384766,4283.717773,4268.717773,4274.871582,4336.922852,4403.974121,4324.487305,4291.922852,4490.769043,4530.512695,4381.922852,4428.846191,0.000000,1.000000,17.000000,,,,0.000000,2.000000,2.000000,0.000000,4.000000,2.000000,2.000000,0.000000,0.000000,4.000000,4.000000,4.000000,4.000000,4.000000,4.000000,0.000000,,,,,,,,,,,,,,,,,,,,,,,,,,,,
1732159185.132702,1732159185.136236,7.000000,0.000000,4295.128418,4261.794922,4311.282227,4285.000000,4266.153809,4272.820313,4335.256348,4407.692383,4327.436035,4288.205078,4493.589844,4530.384766,4375.128418,4428.846191,0.000000,1.000000,17.000000,,,,0.000000,2.000000,2.000000,0.000000,4.000000,2.000000,2.000000,0.000000,0.000000,4.000000,4.000000,4.000000,4.000000,4.000000,4.000000,0.000000,,,,,,,,,,,,,,,,,,,,,,,,,,,,
1732159185.140510,1732159185.143945,8.000000,0.000000,4296.410156,4263.077148,4312.179688,4282.307617,4266.666504,4280.000000,4334.615234,4406.666504,4327.436035,4285.000000,4494.230957,4528.205078,4369.871582,4433.205078,1539.000000,1.000000,17.000000,,,,0.000000,2.000000,2.000000,0.000000,4.000000,2.000000,2.000000,0.000000,0.000000,4.000000,4.000000,4.000000,4.000000,4.000000,4.000000,0.000000,,,,,,,,,,,,,,,,,2.000000,0.000000,0.511806,0.500549,-0.526367,0.458740,0.950800,0.008302,-0.069344,-34.477188,46.287369,31.263935
1732159185.148318,1732159185.151753,9.000000,0.000000,4296.025879,4263.846191,4310.641113,4280.512695,4267.692383,4274.871582,4334.230957,4402.563965,4322.436035,4283.077148,4494.358887,4525.769043,4374.615234,4433.461426,1706.000000,1.000000,17.000000,,,,0.000000,2.000000,2.000000,0.000000,4.000000,2.000000,2.000000,0.000000,0.000000,4.000000,4.000000,4.000000,4.000000,4.000000,4.000000,0.000000,,,,,,,,,,,,,,,,,,,,,,,,,,,,
1732159185.156127,1732159185.159761,10.000000,0.000000,4297.948730,4263.205078,4311.025879,4280.384766,4263.205078,4262.051270,4333.077148,4401.025879,4326.282227,4288.589844,4502.692383,4529.615234,4379.102539,4431.922852,1571.000000,1.000000,17.000000,,,,0.000000,2.000000,2.000000,0.000000,4.000000,2.000000,2.000000,0.000000,0.000000,4.000000,4.000000,4.000000,4.000000,4.000000,4.000000,0.000000,,,,,,,,,,,,,,,,,,,,,,,,,,,,
1732159185.163935,1732159185.167569,11.000000,0.000000,4300.897461,4265.769043,4312.820313,4282.692383,4262.179688,4267.051270,4334.871582,4402.692383,4332.436035,4289.102539,4503.846191,4534.743652,4379.615234,4436.538574,1548.000000,1.000000,17.000000,,,,0.000000,2.000000,2.000000,0.000000,4.000000,2.000000,2.000000,0.000000,0.000000,4.000000,4.000000,4.000000,4.000000,4.000000,4.000000,0.000000,,,,,,,,,,,,,,,,,,,,,,,,,,,,
1732159185.171743,1732159185.175477,12.000000,0.000000,4300.897461,4266.153809,4314.871582,4287.820313,4268.974121,4275.897461,4336.282227,4403.717773,4329.102539,4281.282227,4493.077148,4531.025879,4376.794922,4438.717773,1706.000000,1.000000,17.000000,,,,0.000000,2.000000,2.000000,0.000000,4.000000,2.000000,2.000000,0.000000,0.000000,4.000000,4.000000,4.000000,4.000000,4.000000,4.000000,0.000000,,,,,,,,,,,,,,,,,3.000000,0.000000,0.512053,0.498230,-0.528748,0.458252,0.969357,0.046392,-0.065438,-34.554855,46.237766,31.355453
1732159185.179551,1732159185.183286,13.000000,0.000000,4298.589844,4265.641113,4316.410156,4288.717773,4271.153809,4273.974121,4335.256348,4405.128418,4324.743652,4279.743652,4490.128418,4530.384766,4368.974121,4432.436035,1539.000000,1.000000,17.000000,,,,0.000000,2.000000,2.000000,0.000000,4.000000,2.000000,2.000000,0.000000,0.000000,4.000000,4.000000,4.000000,4.000000,4.000000,4.000000,0.000000,,,,,,,,,,,,,,,,,,,,,,,,,,,,
1732159185.187360,1732159185.191294,14.000000,0.000000,4298.589844,4267.948730,4314.615234,4279.615234,4265.769043,4271.794922,4335.000000,4405.128418,4325.000000,4281.025879,4495.384766,4535.256348,4369.358887,4433.333496,1571.000000,1.000000,17.000000,,,,0.000000,2.000000,2.000000,0.000000,4.000000,2.000000,2.000000,0.000000,0.000000,4.000000,4.000000,4.000000,4.000000,4.000000,4.000000,0.000000,1.000000,0.000000,2.000000,2.000000,0.000000,4.000000,2.000000,1.000000,0.000000,0.000000,4.000000,4.000000,4.000000,4.000000,4.000000,4.000000,,,,,,,,,,,,
1732159185.195168,1732159185.199102,15.000000,0.000000,4301.922852,4271.666504,4314.487305,4278.205078,4264.358887,4273.077148,4336.025879,4405.256348,4326.282227,4278.846191,4493.205078,4536.666504,4378.205078,4441.153809,1548.000000,1.000000,17.000000,,,,0.000000,2.000000,2.000000,0.000000,4.000000,2.000000,2.000000,0.000000,0.000000,4.000000,4.000000,4.000000,4.000000,4.000000,4.000000,0.000000,,,,,,,,,,,,,,,,,,,,,,,,,,,,
1732159185.202976,1732159185.207010,16.000000,0.000000,4305.897461,4273.333496,4317.051270,4290.256348,4267.307617,4273.974121,4334.615234,4409.358887,4326.282227,4278.333496,4489.487305,4535.512695,4380.000000,4438.974121,0.000000,1.000000,17.000000,,,,0.000000,2.000000,2.000000,0.000000,4.000000,2.000000,2.000000,0.000000,0.000000,4.000000,4.000000,4.000000,4.000000,4.000000,4.000000,0.000000,,,,,,,,,,,,,,,,,4.000000,0.000000,0.511926,0.497803,-0.529114,0.458435,0.969357,0.046392,-0.065438,-34.322765,46.319260,30.971251
1732159185.210785,1732159185.214818,17.000000,0.000000,4307.307617,4270.641113,4316.794922,4291.538574,4264.487305,4272.051270,4333.589844,4411.153809,4322.948730,4278.205078,4493.461426,4536.666504,4379.871582,4437.436035,0.000000,1.000000,17.000000,,,,0.000000,2.000000,2.000000,0.000000,4.000000,2.000000,2.000000,0.000000,0.000000,4.000000,4.000000,4.000000,4.000000,4.000000,4.000000,0.000000,,,,,,,,,,,,,,,,,,,,,,,,,,,,
1732159185.218593,1732159185.222426,18.000000,0.000000,4307.436035,4269.358887,4315.128418,4282.179688,4259.743652,4267.563965,4333.974121,4408.974121,4317.948730,4277.563965,4496.538574,4538.717773,4387.307617,4443.461426,0.000000,1.000000,17.000000,,,,0.000000,2.000000,2.000000,0.000000,4.000000,2.000000,2.000000,0.000000,0.000000,4.000000,4.000000,4.000000,4.000000,4.000000,4.000000,0.000000,,,,,,,,,,,,,,,,,,,,,,,,,,,,
1732159185.226401,1732159185.230235,19.000000,0.000000,4310.641113,4274.230957,4316.410156,4283.333496,4257.948730,4265.000000,4334.743652,4409.358887,4318.333496,4276.153809,4496.153809,4537.307617,4387.692383,4443.717773,0.000000,1.000000,17.000000,,,,0.000000,2.000000,2.000000,0.000000,4.000000,2.000000,2.000000,0.000000,0.000000,4.000000,4.000000,4.000000,4.000000,4.000000,4.000000,0.000000,,,,,,,,,,,,,,,,,,,,,,,,,,,,
1732159185.234209,1732159185.238143,20.000000,0.000000,4317.051270,4281.410156,4314.871582,4292.948730,4260.769043,4266.538574,4335.897461,4408.974121,4319.743652,4274.230957,4498.461426,4538.077148,4384.102539,4446.282227,0.000000,1.000000,17.000000,,,,0.000000,2.000000,2.000000,0.000000,4.000000,2.000000,2.000000,0.000000,0.000000,4.000000,4.000000,4.000000,4.000000,4.000000,4.000000,0.000000,,,,,,,,,,,,,,,,,5.000000,0.000000,0.511987,0.495483,-0.529907,0.459961,0.966427,0.063973,-0.050299,-34.439774,46.215267,30.745047
1732159185.242018,1732159185.245951,21.000000,0.000000,4321.922852,4281.538574,4315.256348,4292.179688,4261.922852,4266.282227,4335.769043,4408.077148,4318.461426,4276.794922,4505.641113,4537.820313,4392.820313,4457.051270,0.000000,1.000000,17.000000,,,,0.000000,2.000000,2.000000,0.000000,4.000000,2.000000,2.000000,0.000000,0.000000,4.000000,4.000000,4.000000,4.000000,4.000000,4.000000,0.000000,,,,,,,,,,,,,,,,,,,,,,,,,,,,
1732159185.249826,1732159185.253959,22.000000,0.000000,4325.128418,4278.077148,4318.333496,4286.666504,4253.974121,4262.179688,4335.256348,4409.230957,4316.410156,4279.102539,4509.615234,4538.717773,4399.615234,4464.487305,0.000000,1.000000,17.000000,,,,0.000000,2.000000,2.000000,0.000000,4.000000,2.000000,2.000000,0.000000,0.000000,4.000000,4.000000,4.000000,4.000000,4.000000,4.000000,0.000000,,,,,,,,,,,,,,,,,,,,,,,,,,,,
1732159185.257634,1732159185.261767,23.000000,0.000000,4331.922852,4279.358887,4319.102539,4289.615234,4246.282227,4260.128418,4335.256348,4408.846191,4313.974121,4277.820313,4507.948730,4540.769043,4397.307617,4463.205078,0.000000,1.000000,17.000000,,,,0.000000,2.000000,2.000000,0.000000,4.000000,2.000000,2.000000,0.000000,0.000000,4.000000,4.000000,4.000000,4.000000,4.000000,4.000000,0.000000,,,,,,,,,,,,,,,,,,,,,,,,,,,,
1732159185.265442,1732159185.269675,24.000000,0.000000,4335.256348,4283.077148,4317.692383,4294.743652,4251.410156,4262.820313,4335.256348,4406.922852,4310.897461,4277.307617,4505.512695,4534.743652,4398.333496,4463.333496,0.000000,1.000000,17.000000,,,,0.000000,2.000000,2.000000,0.000000,4.000000,2.000000,2.000000,0.000000,0.000000,4.000000,4.000000,4.000000,4.000000,4.000000,4.000000,0.000000,,,,,,,,,,,,,,,,,6.000000,0.000000,0.511490,0.494568,-0.529968,0.461426,1.004517,0.042974,-0.047857,-34.372883,46.314365,30.853487
1732159185.273251,1732159185.277484,25.000000,0.000000,4332.307617,4288.846191,4317.307617,4295.384766,4255.897461,4264.230957,4335.256348,4408.205078,4309.487305,4277.179688,4503.846191,4528.589844,4400.256348,4467.948730,0.000000,1.000000,17.000000,,,,0.000000,2.000000,2.000000,0.000000,4.000000,2.000000,2.000000,0.000000,0.000000,4.000000,4.000000,4.000000,4.000000,4.000000,4.000000,0.000000,,,,,,,,,,,,,,,,,,,,,,,,,,,,
1732159185.281059,1732159185.285492,26.000000,0.000000,4333.205078,4294.230957,4318.077148,4295.000000,4254.102539,4256.794922,4335.512695,4409.230957,4308.589844,4279.230957,4504.230957,4529.871582,4399.102539,4472.820313,0.000000,1.000000,17.000000,,,,0.000000,2.000000,2.000000,0.000000,4.000000,2.000000,2.000000,0.000000,0.000000,4.000000,4.000000,4.000000,4.000000,4.000000,4.000000,0.000000,,,,,,,,,,,,,,,,,,,,,,,,,,,,
1732159185.288867,1732159185.293300,27.000000,0.000000,4340.128418,4297.436035,4316.666504,4295.641113,4253.589844,4251.666504,4335.256348,4407.307617,4307.051270,4278.461426,4505.128418,4531.153809,4400.000000,4475.000000,0.000000,1.000000,17.000000,,,,0.000000,2.000000,2.000000,0.000000,4.000000,2.000000,2.000000,0.000000,0.000000,4.000000,4.000000,4.000000,4.000000,4.000000,4.000000,0.000000,,,,,,,,,,,,,,,,,,,,,,,,,,,,
1732159185.296675,1732159185.301208,28.000000,0.000000,4343.974121,4296.922852,4317.563965,4299.487305,4256.410156,4257.563965,4333.333496,4407.563965,4308.846191,4271.922852,4504.358887,4532.051270,4397.948730,4475.128418,0.000000,1.000000,17.000000,,,,0.000000,2.000000,2.000000,0.000000,4.000000,2.000000,2.000000,0.000000,0.000000,4.000000,4.000000,4.000000,4.000000,4.000000,4.000000,0.000000,,,,,,,,,,,,,,,,,7.000000,0.000000,0.510933,0.494019,-0.530273,0.462280,0.990844,0.036626,-0.045904,-34.425369,46.014637,30.819658
1732159185.304484,1732159185.309016,29.000000,0.000000,4345.512695,4296.922852,4319.743652,4303.077148,4256.922852,4259.102539,4334.358887,4410.384766,4311.282227,4272.179688,4504.230957,4538.077148,4394.615234,4476.794922,0.000000,1.000000,17.000000,,,,0.000000,2.000000,2.000000,0.000000,4.000000,2.000000,2.000000,0.000000,0.000000,4.000000,4.000000,4.000000,4.000000,4.000000,4.000000,0.000000,,,,,,,,,,,,,,,,,,,,,,,,,,,,
1732159185.312292,1732159185.317024,30.000000,0.000000,4350.000000,4298.077148,4319.743652,4302.948730,4255.128418,4251.666504,4335.000000,4410.897461,4310.769043,4279.615234,4504.487305,4540.769043,4396.410156,4478.077148,0.000000,1.000000,17.000000,,,,0.000000,2.000000,2.000000,0.000000,4.000000,2.000000,2.000000,0.000000,0.000000,4.000000,4.000000,4.000000,4.000000,4.000000,4.000000,0.000000,,,,,,,,,,,,,,,,,,,,,,,,,,,,
1732159185.320100,1732159185.324832,31.000000,0.000000,4353.333496,4297.948730,4317.179688,4303.974121,4257.820313,4252.948730,4333.589844,4405.512695,4310.384766,4282.563965,4505.128418,4537.948730,4394.102539,4477.948730,0.000000,1.000000,17.000000,,,,0.000000,2.000000,2.000000,0.000000,4.000000,2.000000,2.000000,0.000000,0.000000,4.000000,4.000000,4.000000,4.000000,4.000000,4.000000,0.000000,,,,,,,,,,,,,,,,,,,,,,,,,,,,
1732159185.327908,1732159185.332740,32.000000,0.000000,4352.436035,4297.436035,4317.948730,4305.256348,4258.589844,4256.538574,4337.307617,4405.128418,4312.051270,4276.922852,4505.769043,4545.897461,4388.846191,4483.974121,0.000000,1.000000,17.000000,,,,0.000000,2.000000,2.000000,0.000000,4.000000,2.000000,2.000000,0.000000,0.000000,4.000000,4.000000,4.000000,4.000000,4.000000,4.000000,0.000000,,,,,,,,,,,,,,,,,8.000000,0.000000,0.509550,0.492737,-0.531250,0.464050,0.964962,0.013185,-0.035161,-34.629547,45.980190,31.170589
1732159185.335717,1732159185.340549,33.000000,0.000000,4350.769043,4296.538574,4320.512695,4303.461426,4252.051270,4251.922852,4340.384766,4411.794922,4304.743652,4268.717773,4504.230957,4553.205078,4389.487305,4488.974121,0.000000,1.000000,17.000000,,,,0.000000,2.000000,2.000000,0.000000,4.000000,2.000000,2.000000,0.000000,0.000000,4.000000,4.000000,4.000000,4.000000,4.000000,4.000000,0.000000,,,,,,,,,,,,,,,,,,,,,,,,,,,,
1732159185.343525,1732159185.348557,34.000000,0.000000,4351.410156,4296.153809,4318.589844,4302.563965,4248.333496,4248.205078,4336.666504,4411.922852,4294.102539,4266.794922,4502.948730,4543.077148,4395.000000,4485.256348,0.000000,1.000000,17.000000,,,,0.000000,2.000000,2.000000,0.000000,4.000000,2.000000,2.000000,0.000000,0.000000,4.000000,4.000000,4.000000,4.000000,4.000000,4.000000,0.000000,,,,,,,,,,,,,,,,,,,,,,,,,,,,
1732159185.351333,1732159185.356365,35.000000,0.000000,4351.666504,4295.897461,4318.205078,4302.820313,4250.256348,4248.974121,4333.717773,4407.436035,4298.974121,4276.282227,4505.000000,4535.769043,4397.692383,4479.230957,0.000000,1.000000,17.000000,,,,0.000000,2.000000,2.000000,0.000000,4.000000,2.000000,2.000000,0.000000,0.000000,4.000000,4.000000,4.000000,4.000000,4.000000,4.000000,0.000000,,,,,,,,,,,,,,,,,,,,,,,,,,,,
1732159185.359141,1732159185.364073,36.000000,0.000000,4350.897461,4295.256348,4323.205078,4300.512695,4250.897461,4249.102539,4335.128418,4410.641113,4305.000000,4282.307617,4506.025879,4540.769043,4392.436035,4477.948730,0.000000,1.000000,17.000000,,,,0.000000,2.000000,2.000000,0.000000,4.000000,2.000000,2.000000,0.000000,0.000000,4.000000,4.000000,4.000000,4.000000,4.000000,4.000000,0.000000,,,,,,,,,,,,,,,,,9.000000,0.000000,0.506361,0.489807,-0.534058,0.467407,0.972287,-0.016604,-0.050299,-34.764935,45.485619,31.251511
1732159185.366950,1732159185.371881,37.000000,0.000000,4350.769043,4295.384766,4323.974121,4299.743652,4249.871582,4248.974121,4335.128418,4411.282227,4301.153809,4278.333496,4503.974121,4536.666504,4387.179688,4478.333496,0.000000,1.000000,17.000000,,,,0.000000,2.000000,2.000000,0.000000,4.000000,2.000000,2.000000,0.000000,0.000000,4.000000,4.000000,4.000000,4.000000,4.000000,4.000000,0.000000,,,,,,,,,,,,,,,,,,,,,,,,,,,,
1732159185.374758,1732159185.379490,38.000000,0.000000,4351.922852,4295.897461,4322.179688,4300.769043,4253.974121,4251.922852,4335.384766,4403.974121,4300.512695,4277.948730,4499.615234,4528.717773,4387.307617,4477.948730,0.000000,1.000000,17.000000,,,,0.000000,2.000000,2.000000,0.000000,4.000000,2.000000,2.000000,0.000000,0.000000,4.000000,4.000000,4.000000,4.000000,4.000000,4.000000,0.000000,,,,,,,,,,,,,,,,,,,,,,,,,,,,
1732159185.382566,1732159185.387298,39.000000,0.000000,4351.538574,4297.436035,4322.563965,4299.487305,4257.563965,4249.487305,4336.025879,4404.487305,4303.846191,4279.615234,4494.871582,4533.333496,4386.410156,4477.051270,0.000000,1.000000,17.000000,,,,0.000000,2.000000,2.000000,0.000000,4.000000,2.000000,2.000000,0.000000,0.000000,4.000000,4.000000,4.000000,4.000000,4.000000,4.000000,0.000000,,,,,,,,,,,,,,,,,,,,,,,,,,,,
1732159185.390374,1732159185.395006,40.000000,0.000000,4351.153809,4301.922852,4324.487305,4304.615234,4261.410156,4248.077148,4333.974121,4410.256348,4305.641113,4278.846191,4493.205078,4536.410156,4381.153809,4476.666504,0.000000,1.000000,17.000000,,,,0.000000,2.000000,2.000000,0.000000,4.000000,2.000000,2.000000,0.000000,0.000000,4.000000,4.000000,4.000000,4.000000,4.000000,4.000000,0.000000,,,,,,,,,,,,,,,,,10.000000,0.000000,0.506361,0.489807,-0.534058,0.467407,0.984984,-0.012697,-0.049811,-34.904598,45.310017,31.287058
1732159185.398183,1732159185.402814,41.000000,0.000000,4352.051270,4306.922852,4323.461426,4310.512695,4263.205078,4252.051270,4336.538574,4411.410156,4308.717773,4276.794922,4492.692383,4533.333496,4381.282227,4476.282227,0.000000,1.000000,17.000000,,,,0.000000,2.000000,2.000000,0.000000,4.000000,2.000000,2.000000,0.000000,0.000000,4.000000,4.000000,4.000000,4.000000,4.000000,4.000000,0.000000,,,,,,,,,,,,,,,,,,,,,,,,,,,,
1732159185.405991,1732159185.410822,42.000000,0.000000,4352.563965,4310.512695,4322.051270,4311.794922,4261.410156,4253.077148,4343.205078,4409.230957,4305.000000,4273.717773,4495.128418,4538.717773,4384.743652,4478.333496,0.000000,1.000000,17.000000,,,,0.000000,2.000000,2.000000,0.000000,4.000000,2.000000,2.000000,0.000000,0.000000,4.000000,4.000000,4.000000,4.000000,4.000000,4.000000,0.000000,,,,,,,,,,,,,,,,,,,,,,,,,,,,
1732159185.413799,1732159185.418631,43.000000,0.000000,4353.333496,4313.077148,4323.717773,4312.436035,4261.794922,4249.230957,4341.410156,4408.589844,4297.051270,4275.000000,4502.436035,4545.128418,4383.333496,4482.307617,0.000000,1.000000,17.000000,,,,0.000000,2.000000,2.000000,0.000000,4.000000,2.000000,2.000000,0.000000,0.000000,4.000000,4.000000,4.000000,4.000000,4.000000,4.000000,0.000000,,,,,,,,,,,,,,,,,,,,,,,,,,,,
1732159185.421607,1732159185.426339,44.000000,0.000000,4354.743652,4311.410156,4323.974121,4312.307617,4260.256348,4247.436035,4333.846191,4410.384766,4300.384766,4280.256348,4506.538574,4546.794922,4382.436035,4482.692383,0.000000,1.000000,17.000000,,,,0.000000,2.000000,2.000000,0.000000,4.000000,2.000000,2.000000,0.000000,0.000000,4.000000,4.000000,4.000000,4.000000,4.000000,4.000000,0.000000,,,,,,,,,,,,,,,,,11.000000,0.000000,0.503962,0.487976,-0.536072,0.469604,0.989867,-0.021975,-0.047369,-34.891056,45.219448,31.264183
1732159185.429416,1732159185.434147,45.000000,0.000000,4353.461426,4310.769043,4325.512695,4310.897461,4254.358887,4249.358887,4333.205078,4412.051270,4302.692383,4278.461426,4504.102539,4549.743652,4382.948730,4480.256348,0.000000,1.000000,17.000000,,,,0.000000,2.000000,2.000000,0.000000,4.000000,2.000000,2.000000,0.000000,0.000000,4.000000,4.000000,4.000000,4.000000,4.000000,4.000000,0.000000,,,,,,,,,,,,,,,,,,,,,,,,,,,,
1732159185.437224,1732159185.441756,46.000000,0.000000,4350.384766,4311.410156,4326.794922,4312.179688,4255.512695,4248.974121,4336.282227,4410.641113,4298.717773,4273.461426,4505.128418,4547.307617,4381.794922,4479.358887,0.000000,1.000000,17.000000,,,,0.000000,2.000000,2.000000,0.000000,4.000000,2.000000,2.000000,0.000000,0.000000,4.000000,4.000000,4.000000,4.000000,4.000000,4.000000,0.000000,,,,,,,,,,,,,,,,,,,,,,,,,,,,
1732159185.445032,1732159185.449564,47.000000,0.000000,4349.743652,4304.743652,4326.922852,4311.025879,4262.948730,4247.563965,4334.871582,4410.384766,4302.563965,4276.922852,4504.615234,4540.641113,4381.153809,4476.025879,0.000000,1.000000,17.000000,,,,0.000000,2.000000,2.000000,0.000000,4.000000,2.000000,2.000000,0.000000,0.000000,4.000000,4.000000,4.000000,4.000000,4.000000,4.000000,0.000000,,,,,,,,,,,,,,,,,,,,,,,,,,,,
1732159185.452840,1732159185.457272,48.000000,0.000000,4350.256348,4301.025879,4325.769043,4308.846191,4265.256348,4251.794922,4334.230957,4412.692383,4305.384766,4278.333496,4497.051270,4539.102539,4380.641113,4473.077148,0.000000,1.000000,17.000000,,,,0.000000,2.000000,2.000000,0.000000,4.000000,2.000000,2.000000,0.000000,0.000000,4.000000,4.000000,4.000000,4.000000,4.000000,4.000000,0.000000,,,,,,,,,,,,,,,,,12.000000,0.000000,0.500346,0.486084,-0.538330,0.472839,0.963985,-0.045416,-0.059089,-35.046757,45.366085,31.157322
1732159185.460649,1732159185.465080,49.000000,0.000000,4346.794922,4309.615234,4325.512695,4313.205078,4263.077148,4258.846191,4336.922852,4410.769043,4298.333496,4268.077148,4495.000000,4540.128418,4377.563965,4475.512695,0.000000,1.000000,17.000000,,,,0.000000,2.000000,2.000000,0.000000,4.000000,2.000000,2.000000,0.000000,0.000000,4.000000,4.000000,4.000000,4.000000,4.000000,4.000000,0.000000,,,,,,,,,,,,,,,,,,,,,,,,,,,,
1732159185.468457,1732159185.472689,50.000000,0.000000,4339.743652,4313.974121,4323.974121,4314.871582,4263.846191,4260.769043,4336.538574,4407.563965,4293.205078,4264.615234,4496.153809,4534.358887,4376.922852,4471.025879,0.000000,1.000000,17.000000,,,,0.000000,2.000000,2.000000,0.000000,4.000000,2.000000,2.000000,0.000000,0.000000,4.000000,4.000000,4.000000,4.000000,4.000000,4.000000,0.000000,,,,,,,,,,,,,,,,,,,,,,,,,,,,
1732159185.476265,1732159185.480497,51.000000,0.000000,4336.922852,4305.128418,4322.436035,4306.025879,4264.743652,4259.358887,4333.589844,4408.974121,4295.512695,4275.769043,4493.077148,4526.794922,4379.743652,4461.282227,0.000000,1.000000,17.000000,,,,0.000000,2.000000,2.000000,0.000000,4.000000,2.000000,2.000000,0.000000,0.000000,4.000000,4.000000,4.000000,4.000000,4.000000,4.000000,0.000000,,,,,,,,,,,,,,,,,,,,,,,,,,,,
1732159185.484074,1732159185.488405,52.000000,0.000000,4341.282227,4301.794922,4322.820313,4305.384766,4263.846191,4260.256348,4334.615234,4410.384766,4301.666504,4281.666504,4496.410156,4531.153809,4381.922852,4464.615234,0.000000,1.000000,17.000000,,,,0.000000,2.000000,2.000000,0.000000,4.000000,2.000000,2.000000,0.000000,0.000000,4.000000,4.000000,4.000000,4.000000,4.000000,4.000000,0.000000,,,,,,,,,,,,,,,,,13.000000,0.000000,0.498141,0.484070,-0.540466,0.474792,0.970822,-0.044927,-0.058601,-35.206207,45.271530,31.257431
1732159185.491882,1732159185.496213,53.000000,0.000000,4343.846191,4308.846191,4322.307617,4314.487305,4264.358887,4258.461426,4336.282227,4409.358887,4303.205078,4278.717773,4505.256348,4539.102539,4381.922852,4470.512695,0.000000,1.000000,17.000000,,,,0.000000,2.000000,2.000000,0.000000,4.000000,2.000000,2.000000,0.000000,0.000000,4.000000,4.000000,4.000000,4.000000,4.000000,4.000000,0.000000,,,,,,,,,,,,,,,,,,,,,,,,,,,,
1732159185.499690,1732159185.504221,54.000000,0.000000,4342.179688,4313.461426,4321.794922,4316.666504,4265.641113,4260.128418,4334.487305,4408.589844,4300.641113,4278.077148,4506.666504,4540.000000,4381.025879,4463.974121,0.000000,1.000000,17.000000,,,,0.000000,2.000000,2.000000,0.000000,4.000000,2.000000,2.000000,0.000000,0.000000,4.000000,4.000000,4.000000,4.000000,4.000000,4.000000,0.000000,,,,,,,,,,,,,,,,,,,,,,,,,,,,
1732159185.507498,1732159185.512029,55.000000,0.000000,4342.820313,4313.077148,4320.641113,4312.436035,4267.563965,4260.897461,4332.692383,4409.487305,4302.948730,4281.922852,4503.717773,4541.282227,4383.077148,4463.205078,0.000000,1.000000,17.000000,,,,0.000000,2.000000,2.000000,0.000000,4.000000,2.000000,2.000000,0.000000,0.000000,4.000000,4.000000,4.000000,4.000000,4.000000,4.000000,0.000000,,,,,,,,,,,,,,,,,,,,,,,,,,,,
1732159185.515307,1732159185.519738,56.000000,0.000000,4343.717773,4310.641113,4317.563965,4312.179688,4265.384766,4253.846191,4335.000000,4408.974121,4308.205078,4284.230957,4504.487305,4545.128418,4380.769043,4470.000000,0.000000,1.000000,17.000000,,,,0.000000,2.000000,2.000000,0.000000,4.000000,2.000000,2.000000,0.000000,0.000000,4.000000,4.000000,4.000000,4.000000,4.000000,4.000000,0.000000,,,,,,,,,,,,,,,,,14.000000,0.000000,0.497534,0.483276,-0.541199,0.475403,0.970822,-0.044927,-0.058601,-35.357025,45.219940,31.113520
1732159185.523115,1732159185.527546,57.000000,0.000000,4343.461426,4308.461426,4317.436035,4314.615234,4262.563965,4254.358887,4336.410156,4408.077148,4305.512695,4282.692383,4506.282227,4544.230957,4375.256348,4467.692383,0.000000,1.000000,17.000000,,,,0.000000,2.000000,2.000000,0.000000,4.000000,2.000000,2.000000,0.000000,0.000000,4.000000,4.000000,4.000000,4.000000,4.000000,4.000000,0.000000,,,,,,,,,,,,,,,,,,,,,,,,,,,,
1732159185.530923,1732159185.535154,58.000000,0.000000,4341.025879,4309.743652,4321.025879,4315.128418,4269.230957,4263.846191,4334.871582,4411.410156,4299.871582,4275.769043,4502.563965,4542.948730,4374.615234,4462.051270,0.000000,1.000000,17.000000,,,,0.000000,2.000000,2.000000,0.000000,4.000000,2.000000,2.000000,0.000000,0.000000,4.000000,4.000000,4.000000,4.000000,4.000000,4.000000,0.000000,,,,,,,,,,,,,,,,,,,,,,,,,,,,
1732159185.538731,1732159185.542963,59.000000,0.000000,4331.538574,4308.333496,4320.769043,4312.307617,4273.333496,4267.179688,4333.974121,4411.282227,4303.077148,4266.666504,4494.358887,4541.025879,4370.897461,4456.153809,0.000000,1.000000,17.000000,,,,0.000000,2.000000,2.000000,0.000000,4.000000,2.000000,2.000000,0.000000,0.000000,4.000000,4.000000,4.000000,4.000000,4.000000,4.000000,0.000000,,,,,,,,,,,,,,,,,,,,,,,,,,,,
1732159185.546539,1732159185.550671,60.000000,0.000000,4327.179688,4303.589844,4318.205078,4310.512695,4271.410156,4265.128418,4333.077148,4403.846191,4304.102539,4263.846191,4486.922852,4533.077148,4364.743652,4449.358887,0.000000,1.000000,17.000000,,,,0.000000,2.000000,2.000000,0.000000,4.000000,2.000000,2.000000,0.000000,0.000000,4.000000,4.000000,4.000000,4.000000,4.000000,4.000000,0.000000,,,,,,,,,,,,,,,,,15.000000,0.000000,0.496880,0.482544,-0.541809,0.476135,0.965450,-0.058113,-0.045416,-35.427525,45.038151,31.123617
1732159185.554348,1732159185.558479,61.000000,0.000000,4336.025879,4306.410156,4317.820313,4315.769043,4273.333496,4265.000000,4332.820313,4399.230957,4296.666504,4267.179688,4488.461426,4530.384766,4368.461426,4452.179688,0.000000,1.000000,17.000000,,,,0.000000,2.000000,2.000000,0.000000,4.000000,2.000000,2.000000,0.000000,0.000000,4.000000,4.000000,4.000000,4.000000,4.000000,4.000000,0.000000,,,,,,,,,,,,,,,,,,,,,,,,,,,,
1732159185.562156,1732159185.566088,62.000000,0.000000,4339.487305,4309.230957,4318.717773,4318.077148,4274.743652,4263.077148,4334.358887,4405.256348,4293.717773,4270.897461,4498.205078,4538.077148,4376.410156,4461.025879,0.000000,1.000000,17.000000,,,,0.000000,2.000000,2.000000,0.000000,4.000000,2.000000,2.000000,0.000000,0.000000,4.000000,4.000000,4.000000,4.000000,4.000000,4.000000,0.000000,,,,,,,,,,,,,,,,,,,,,,,,,,,,
1732159185.569964,1732159185.573896,63.000000,0.000000,4333.077148,4302.563965,4319.230957,4312.436035,4269.358887,4262.692383,4334.615234,4407.692383,4300.897461,4276.025879,4504.102539,4538.461426,4376.282227,4460.512695,0.000000,1.000000,17.000000,,,,0.000000,2.000000,2.000000,0.000000,4.000000,2.000000,2.000000,0.000000,0.000000,4.000000,4.000000,4.000000,4.000000,4.000000,4.000000,0.000000,,,,,,,,,,,,,,,,,,,,,,,,,,,,
1732159185.577773,1732159185.581804,64.000000,0.000000,4332.692383,4302.692383,4321.025879,4310.769043,4269.487305,4264.743652,4334.230957,4402.307617,4308.333496,4279.743652,4503.205078,4532.436035,4371.794922,4456.410156,0.000000,1.000000,17.000000,,,,0.000000,2.000000,2.000000,0.000000,4.000000,2.000000,2.000000,0.000000,0.000000,4.000000,4.000000,4.000000,4.000000,4.000000,4.000000,0.000000,,,,,,,,,,,,,,,,,16.000000,0.000000,0.495088,0.478638,-0.544434,0.478943,0.973263,-0.064949,-0.046881,-35.617962,45.007568,31.015129
1732159185.585581,1732159185.589612,65.000000,0.000000,4336.025879,4310.000000,4321.666504,4313.461426,4275.512695,4262.436035,4333.846191,4401.282227,4307.563965,4279.102539,4503.077148,4535.897461,4372.179688,4457.051270,1623.000000,1.000000,17.000000,,,,0.000000,2.000000,2.000000,0.000000,4.000000,2.000000,2.000000,0.000000,0.000000,4.000000,4.000000,4.000000,4.000000,4.000000,4.000000,0.000000,,,,,,,,,,,,,,,,,,,,,,,,,,,,
1732159185.593389,1732159185.597620,66.000000,0.000000,4335.641113,4306.153809,4320.512695,4313.077148,4272.692383,4261.538574,4332.948730,4406.025879,4309.358887,4278.717773,4507.051270,4543.205078,4376.538574,4459.871582,1357.000000,1.000000,17.000000,,,,0.000000,2.000000,2.000000,0.000000,4.000000,2.000000,2.000000,0.000000,0.000000,4.000000,4.000000,4.000000,4.000000,4.000000,4.000000,0.000000,,,,,,,,,,,,,,,,,,,,,,,,,,,,
1732159185.601197,1732159185.605428,67.000000,0.000000,4334.487305,4302.307617,4319.102539,4311.410156,4273.205078,4264.230957,4333.717773,4407.820313,4312.307617,4280.897461,4506.538574,4538.461426,4380.000000,4462.307617,1437.000000,1.000000,17.000000,,,,0.000000,2.000000,2.000000,0.000000,4.000000,2.000000,2.000000,0.000000,0.000000,4.000000,4.000000,4.000000,4.000000,4.000000,4.000000,0.000000,,,,,,,,,,,,,,,,,,,,,,,,,,,,
1732159185.609006,1732159185.613336,68.000000,0.000000,4331.794922,4305.000000,4319.358887,4310.641113,4279.358887,4264.615234,4335.000000,4406.025879,4306.153809,4280.128418,4503.589844,4532.436035,4376.410156,4461.410156,1442.000000,1.000000,17.000000,,,,0.000000,2.000000,2.000000,0.000000,4.000000,2.000000,2.000000,0.000000,0.000000,4.000000,4.000000,4.000000,4.000000,4.000000,4.000000,0.000000,,,,,,,,,,,,,,,,,17.000000,0.000000,0.494827,0.477539,-0.545044,0.479614,0.973263,-0.064949,-0.046881,-35.600548,45.016132,30.938921
1732159185.616814,1732159185.621145,69.000000,0.000000,4329.615234,4303.461426,4320.897461,4309.615234,4280.769043,4266.153809,4334.358887,4403.974121,4297.436035,4276.410156,4506.282227,4532.948730,4370.000000,4457.692383,1197.000000,1.000000,17.000000,,,,0.000000,2.000000,2.000000,0.000000,4.000000,2.000000,2.000000,0.000000,0.000000,4.000000,4.000000,4.000000,4.000000,4.000000,4.000000,0.000000,,,,,,,,,,,,,,,,,,,,,,,,,,,,
1732159185.624622,1732159185.628753,70.000000,0.000000,4323.461426,4301.153809,4320.641113,4312.436035,4284.358887,4274.743652,4334.487305,4405.512695,4297.692383,4275.384766,4501.666504,4527.179688,4366.794922,4448.589844,0.000000,1.000000,17.000000,,,,0.000000,2.000000,2.000000,0.000000,4.000000,2.000000,2.000000,0.000000,0.000000,4.000000,4.000000,4.000000,4.000000,4.000000,4.000000,0.000000,,,,,,,,,,,,,,,,,,,,,,,,,,,,
1732159185.632430,1732159185.636561,71.000000,0.000000,4314.102539,4300.256348,4317.051270,4313.333496,4286.153809,4282.179688,4336.282227,4409.230957,4307.179688,4277.563965,4490.897461,4515.128418,4365.512695,4440.512695,0.000000,1.000000,17.000000,,,,0.000000,2.000000,2.000000,0.000000,4.000000,2.000000,2.000000,0.000000,0.000000,4.000000,4.000000,4.000000,4.000000,4.000000,4.000000,0.000000,,,,,,,,,,,,,,,,,,,,,,,,,,,,
1732159185.640239,1732159185.644469,72.000000,0.000000,4311.922852,4296.410156,4317.307617,4303.846191,4282.179688,4279.358887,4334.871582,4409.358887,4311.282227,4281.282227,4493.589844,4512.436035,4365.256348,4442.179688,1541.000000,1.000000,17.000000,,,,0.000000,2.000000,2.000000,0.000000,4.000000,2.000000,2.000000,0.000000,0.000000,4.000000,4.000000,4.000000,4.000000,4.000000,4.000000,0.000000,,,,,,,,,,,,,,,,,18.000000,0.000000,0.493796,0.474670,-0.546814,0.481506,0.986937,-0.068368,-0.035161,-35.898113,44.664734,30.982193
1732159185.648047,1732159185.652278,73.000000,0.000000,4318.589844,4296.025879,4322.692383,4299.871582,4277.820313,4270.384766,4333.333496,4406.282227,4306.025879,4281.025879,4506.153809,4521.410156,4366.794922,4445.897461,1706.000000,1.000000,17.000000,,,,0.000000,2.000000,2.000000,0.000000,4.000000,2.000000,2.000000,0.000000,0.000000,4.000000,4.000000,4.000000,4.000000,4.000000,4.000000,0.000000,,,,,,,,,,,,,,,,,,,,,,,,,,,,
1732159185.655855,1732159185.660286,74.000000,0.000000,4323.589844,4301.282227,4322.436035,4309.358887,4279.102539,4265.000000,4334.743652,4406.666504,4306.153809,4279.743652,4506.794922,4526.410156,4371.282227,4446.410156,1576.000000,1.000000,17.000000,,,,0.000000,2.000000,2.000000,0.000000,4.000000,2.000000,2.000000,0.000000,0.000000,4.000000,4.000000,4.000000,4.000000,4.000000,4.000000,0.000000,,,,,,,,,,,,,,,,,,,,,,,,,,,,
1732159185.663663,1732159185.668094,75.000000,0.000000,4320.897461,4299.615234,4316.666504,4312.179688,4278.461426,4265.384766,4333.077148,4407.179688,4309.743652,4284.743652,4501.410156,4523.846191,4372.692383,4446.410156,1548.000000,1.000000,17.000000,,,,0.000000,2.000000,2.000000,0.000000,4.000000,2.000000,2.000000,0.000000,0.000000,4.000000,4.000000,4.000000,4.000000,4.000000,4.000000,0.000000,,,,,,,,,,,,,,,,,,,,,,,,,,,,
1732159185.671471,1732159185.676002,76.000000,0.000000,4317.948730,4297.436035,4316.025879,4305.512695,4277.820313,4264.230957,4330.769043,4405.128418,4305.128418,4286.282227,4505.000000,4522.307617,4369.743652,4445.128418,1708.000000,1.000000,17.000000,,,,0.000000,2.000000,2.000000,0.000000,4.000000,2.000000,2.000000,0.000000,0.000000,4.000000,4.000000,4.000000,4.000000,4.000000,4.000000,0.000000,,,,,,,,,,,,,,,,,19.000000,0.000000,0.493154,0.471130,-0.548889,0.483276,0.988890,-0.067879,-0.046392,-35.889137,44.648434,31.043909
1732159185.679280,1732159185.683810,77.000000,0.000000,4318.846191,4298.205078,4321.538574,4306.410156,4279.230957,4263.077148,4332.820313,4407.563965,4300.512695,4281.410156,4504.615234,4522.563965,4366.410156,4442.179688,1536.000000,1.000000,17.000000,,,,0.000000,2.000000,2.000000,0.000000,4.000000,2.000000,2.000000,0.000000,0.000000,4.000000,4.000000,4.000000,4.000000,4.000000,4.000000,0.000000,,,,,,,,,,,,,,,,,,,,,,,,,,,,
1732159185.687088,1732159185.691818,78.000000,0.000000,4319.358887,4299.743652,4322.179688,4314.615234,4280.897461,4267.820313,4336.153809,4410.128418,4305.641113,4277.948730,4495.256348,4521.410156,4361.282227,4441.153809,1576.000000,1.000000,17.000000,,,,0.000000,2.000000,2.000000,0.000000,4.000000,2.000000,2.000000,0.000000,0.000000,4.000000,4.000000,4.000000,4.000000,4.000000,4.000000,0.000000,1.000000,0.000000,2.000000,2.000000,0.000000,4.000000,2.000000,2.000000,0.000000,0.000000,4.000000,4.000000,4.000000,3.000000,4.000000,4.000000,,,,,,,,,,,,
1732159185.694896,1732159185.699626,79.000000,0.000000,4318.846191,4301.410156,4319.358887,4315.769043,4282.179688,4271.025879,4336.538574,4408.205078,4304.743652,4278.077148,4488.846191,4520.128418,4358.974121,4436.794922,1548.000000,1.000000,17.000000,,,,0.000000,2.000000,2.000000,0.000000,4.000000,2.000000,2.000000,0.000000,0.000000,4.000000,4.000000,4.000000,4.000000,4.000000,4.000000,0.000000,,,,,,,,,,,,,,,,,,,,,,,,,,,,
1732159185.702705,1732159185.707534,80.000000,0.000000,4323.589844,4301.025879,4318.974121,4312.948730,4278.974121,4265.769043,4335.641113,4408.461426,4295.897461,4278.846191,4495.128418,4521.153809,4365.128418,4435.897461,1708.000000,1.000000,17.000000,,,,0.000000,2.000000,2.000000,0.000000,4.000000,2.000000,2.000000,0.000000,0.000000,4.000000,4.000000,4.000000,4.000000,4.000000,4.000000,0.000000,,,,,,,,,,,,,,,,,20.000000,0.000000,0.492683,0.469604,-0.549866,0.484131,0.992309,-0.057136,-0.043462,-35.925201,44.636898,30.937233
1732159185.710513,1732159185.715343,81.000000,0.000000,4327.563965,4298.589844,4321.025879,4312.307617,4279.615234,4264.102539,4335.769043,4410.641113,4294.743652,4278.333496,4501.794922,4526.922852,4364.102539,4440.256348,1536.000000,1.000000,17.000000,,,,0.000000,2.000000,2.000000,0.000000,4.000000,2.000000,2.000000,0.000000,0.000000,4.000000,4.000000,4.000000,4.000000,4.000000,4.000000,0.000000,,,,,,,,,,,,,,,,,,,,,,,,,,,,
1732159185.718321,1732159185.722951,82.000000,0.000000,4322.436035,4297.179688,4322.051270,4312.307617,4280.000000,4270.769043,4334.743652,4409.230957,4301.282227,4279.743652,4501.282227,4530.384766,4358.974121,4439.743652,1576.000000,1.000000,17.000000,,,,0.000000,2.000000,2.000000,0.000000,4.000000,2.000000,2.000000,0.000000,0.000000,4.000000,4.000000,4.000000,4.000000,4.000000,4.000000,0.000000,,,,,,,,,,,,,,,,,,,,,,,,,,,,
1732159185.726129,1732159185.730759,83.000000,0.000000,4317.948730,4295.897461,4322.820313,4311.153809,4278.461426,4279.358887,4335.000000,4409.102539,4309.743652,4285.000000,4500.641113,4526.410156,4362.563965,4438.974121,1548.000000,1.000000,17.000000,,,,0.000000,2.000000,2.000000,0.000000,4.000000,2.000000,2.000000,0.000000,0.000000,4.000000,4.000000,4.000000,4.000000,4.000000,4.000000,0.000000,,,,,,,,,,,,,,,,,,,,,,,,,,,,
1732159185.733938,1732159185.738468,84.000000,0.000000,4318.333496,4294.615234,4321.922852,4311.794922,4293.717773,4276.666504,4334.615234,4407.563965,4311.153809,4286.410156,4499.871582,4525.128418,4363.205078,4442.051270,1708.000000,1.000000,17.000000,,,,0.000000,2.000000,2.000000,0.000000,4.000000,2.000000,2.000000,0.000000,0.000000,4.000000,4.000000,4.000000,4.000000,4.000000,4.000000,0.000000,,,,,,,,,,,,,,,,,21.000000,0.000000,0.492355,0.468872,-0.550354,0.484619,0.981077,-0.053229,-0.034184,-35.971081,44.769222,31.234159
1732159185.741746,1732159185.746276,85.000000,0.000000,4319.102539,4300.641113,4321.538574,4315.256348,4302.179688,4267.051270,4333.846191,4403.974121,4305.000000,4280.897461,4497.948730,4527.436035,4357.692383,4443.589844,1536.000000,1.000000,17.000000,,,,0.000000,2.000000,2.000000,0.000000,4.000000,2.000000,2.000000,0.000000,0.000000,4.000000,4.000000,4.000000,4.000000,4.000000,4.000000,0.000000,,,,,,,,,,,,,,,,,,,,,,,,,,,,
1732159185.749554,1732159185.753884,86.000000,0.000000,4317.563965,4306.282227,4322.948730,4318.333496,4284.230957,4271.410156,4333.846191,4403.974121,4299.230957,4279.871582,4494.102539,4524.358887,4357.820313,4443.205078,1576.000000,1.000000,17.000000,,,,0.000000,2.000000,2.000000,0.000000,4.000000,2.000000,2.000000,0.000000,0.000000,4.000000,4.000000,4.000000,4.000000,4.000000,4.000000,0.000000,,,,,,,,,,,,,,,,,,,,,,,,,,,,
1732159185.757362,1732159185.761692,87.000000,0.000000,4318.461426,4304.871582,4321.410156,4319.743652,4272.820313,4278.461426,4334.230957,4405.512695,4298.589844,4282.051270,4489.743652,4521.794922,4355.000000,4441.794922,1548.000000,1.000000,17.000000,,,,0.000000,2.000000,2.000000,0.000000,4.000000,2.000000,2.000000,0.000000,0.000000,4.000000,4.000000,4.000000,4.000000,4.000000,4.000000,0.000000,,,,,,,,,,,,,,,,,,,,,,,,,,,,
1732159185.765171,1732159185.769401,88.000000,0.000000,4318.974121,4300.512695,4319.230957,4317.820313,4280.512695,4274.102539,4334.615234,4404.102539,4298.717773,4280.897461,4489.358887,4519.358887,4344.358887,4434.743652,1708.000000,1.000000,17.000000,,,,0.000000,2.000000,2.000000,0.000000,4.000000,2.000000,2.000000,0.000000,0.000000,4.000000,4.000000,4.000000,4.000000,4.000000,4.000000,0.000000,,,,,,,,,,,,,,,,,22.000000,0.000000,0.491662,0.467224,-0.551514,0.485596,0.983030,-0.068856,-0.032230,-36.324909,44.654736,31.253002
1732159185.772979,1732159185.777209,89.000000,0.000000,4313.846191,4296.410156,4320.384766,4312.307617,4281.666504,4274.102539,4335.769043,4405.000000,4296.666504,4277.948730,4484.358887,4512.307617,4341.666504,4428.205078,1536.000000,1.000000,17.000000,,,,0.000000,2.000000,2.000000,0.000000,4.000000,2.000000,2.000000,0.000000,0.000000,4.000000,4.000000,4.000000,4.000000,4.000000,4.000000,0.000000,,,,,,,,,,,,,,,,,,,,,,,,,,,,
1732159185.780787,1732159185.784817,90.000000,0.000000,4309.615234,4293.333496,4323.205078,4310.128418,4281.410156,4283.461426,4335.769043,4410.000000,4300.128418,4276.922852,4475.128418,4510.384766,4338.717773,4429.230957,1576.000000,1.000000,17.000000,,,,0.000000,2.000000,2.000000,0.000000,4.000000,2.000000,2.000000,0.000000,0.000000,4.000000,4.000000,4.000000,4.000000,4.000000,4.000000,0.000000,,,,,,,,,,,,,,,,,,,,,,,,,,,,
1732159185.788595,1732159185.792625,91.000000,0.000000,4310.256348,4292.563965,4321.025879,4308.461426,4284.871582,4285.769043,4334.230957,4410.769043,4311.666504,4283.461426,4477.436035,4513.333496,4335.256348,4429.230957,1548.000000,1.000000,17.000000,,,,0.000000,2.000000,2.000000,0.000000,4.000000,2.000000,2.000000,0.000000,0.000000,4.000000,4.000000,4.000000,4.000000,4.000000,4.000000,0.000000,,,,,,,,,,,,,,,,,,,,,,,,,,,,
1732159185.796404,1732159185.800534,92.000000,0.000000,4310.256348,4292.051270,4317.692383,4305.128418,4283.333496,4282.692383,4334.102539,4406.794922,4314.871582,4290.000000,4491.794922,4517.179688,4345.384766,4430.000000,1708.000000,1.000000,17.000000,,,,0.000000,2.000000,2.000000,0.000000,4.000000,2.000000,2.000000,0.000000,0.000000,4.000000,4.000000,4.000000,4.000000,4.000000,4.000000,0.000000,,,,,,,,,,,,,,,,,23.000000,0.000000,0.490142,0.464417,-0.553833,0.487183,0.980100,-0.079111,-0.044927,-36.279842,44.673668,31.176600
1732159185.804212,1732159185.808342,93.000000,0.000000,4309.871582,4292.436035,4318.077148,4307.436035,4287.179688,4287.820313,4336.666504,4405.769043,4304.487305,4284.743652,4490.641113,4520.897461,4351.922852,4432.051270,1536.000000,1.000000,17.000000,,,,0.000000,2.000000,2.000000,0.000000,4.000000,2.000000,2.000000,0.000000,0.000000,4.000000,4.000000,4.000000,4.000000,4.000000,4.000000,0.000000,,,,,,,,,,,,,,,,,,,,,,,,,,,,
1732159185.812020,1732159185.815950,94.000000,0.000000,4310.384766,4294.743652,4319.487305,4309.102539,4290.512695,4280.384766,4335.512695,4407.563965,4292.563965,4275.641113,4477.179688,4516.025879,4341.538574,4429.102539,1576.000000,1.000000,17.000000,,,,0.000000,2.000000,2.000000,0.000000,4.000000,2.000000,2.000000,0.000000,0.000000,4.000000,4.000000,4.000000,4.000000,4.000000,4.000000,0.000000,,,,,,,,,,,,,,,,,,,,,,,,,,,,
1732159185.819828,1732159185.823758,95.000000,0.000000,4308.205078,4292.692383,4316.666504,4305.769043,4281.922852,4261.922852,4328.846191,4405.897461,4292.179688,4279.871582,4478.717773,4508.461426,4337.179688,4425.384766,1548.000000,1.000000,17.000000,,,,0.000000,2.000000,2.000000,0.000000,4.000000,2.000000,2.000000,0.000000,0.000000,4.000000,4.000000,4.000000,4.000000,4.000000,4.000000,0.000000,,,,,,,,,,,,,,,,,,,,,,,,,,,,
1732159185.827637,1732159185.831467,96.000000,0.000000,4309.743652,4293.589844,4315.512695,4308.589844,4276.025879,4263.846191,4327.179688,4405.000000,4300.769043,4292.307617,4492.436035,4516.153809,4350.128418,4433.717773,1708.000000,1.000000,17.000000,,,,0.000000,2.000000,2.000000,0.000000,4.000000,2.000000,2.000000,0.000000,0.000000,4.000000,4.000000,4.000000,4.000000,4.000000,4.000000,0.000000,,,,,,,,,,,,,,,,,24.000000,0.000000,0.489786,0.464172,-0.554138,0.487427,0.977658,-0.069833,-0.046392,-36.225006,44.670673,31.136377
1732159185.835445,1732159185.839275,97.000000,0.000000,4318.461426,4300.384766,4316.794922,4314.743652,4288.846191,4276.153809,4333.717773,4408.077148,4301.153809,4296.794922,4495.128418,4526.538574,4358.205078,4442.563965,1536.000000,1.000000,17.000000,,,,0.000000,2.000000,2.000000,0.000000,4.000000,2.000000,2.000000,0.000000,0.000000,4.000000,4.000000,4.000000,4.000000,4.000000,4.000000,0.000000,,,,,,,,,,,,,,,,,,,,,,,,,,,,
1732159185.843253,1732159185.846883,98.000000,0.000000,4320.000000,4300.641113,4317.820313,4311.666504,4300.384766,4268.846191,4337.179688,4408.461426,4293.717773,4294.102539,4489.102539,4525.512695,4352.179688,4437.820313,1576.000000,1.000000,17.000000,,,,0.000000,2.000000,2.000000,0.000000,4.000000,2.000000,2.000000,0.000000,0.000000,4.000000,4.000000,4.000000,4.000000,4.000000,4.000000,0.000000,,,,,,,,,,,,,,,,,,,,,,,,,,,,
1732159185.851061,1732159185.854692,99.000000,0.000000,4312.948730,4294.615234,4318.717773,4306.666504,4285.000000,4260.641113,4334.871582,4405.769043,4299.358887,4293.974121,4492.436035,4524.871582,4347.563965,4435.384766,1548.000000,1.000000,17.000000,,,,0.000000,2.000000,2.000000,0.000000,4.000000,2.000000,2.000000,0.000000,0.000000,4.000000,4.000000,4.000000,4.000000,4.000000,4.000000,0.000000,,,,,,,,,,,,,,,,,,,,,,,,,,,,
1732159185.858870,1732159185.862400,100.000000,0.000000,4310.512695,4293.333496,4319.230957,4307.948730,4266.794922,4269.102539,4333.974121,4405.641113,4312.948730,4297.948730,4496.410156,4531.025879,4352.051270,4443.205078,1708.000000,1.000000,17.000000,,,,0.000000,2.000000,2.000000,0.000000,4.000000,2.000000,2.000000,0.000000,0.000000,4.000000,4.000000,4.000000,4.000000,4.000000,4.000000,0.000000,,,,,,,,,,,,,,,,,25.000000,0.000000,0.489304,0.463867,-0.554443,0.487854,0.968868,-0.080576,-0.050787,-36.308922,44.638245,30.825466
1732159185.866678,1732159185.870208,101.000000,0.000000,4312.948730,4295.128418,4317.948730,4308.846191,4272.820313,4274.871582,4335.769043,4406.538574,4313.974121,4297.179688,4492.307617,4532.948730,4355.000000,4440.769043,1536.000000,1.000000,17.000000,,,,0.000000,2.000000,2.000000,0.000000,4.000000,2.000000,2.000000,0.000000,0.000000,4.000000,4.000000,4.000000,4.000000,4.000000,4.000000,0.000000,,,,,,,,,,,,,,,,,,,,,,,,,,,,
1732159185.874486,1732159185.877816,102.000000,0.000000,4313.589844,4295.384766,4320.897461,4309.230957,4282.820313,4277.948730,4335.897461,4405.512695,4312.307617,4295.384766,4493.461426,4533.077148,4350.256348,4432.436035,1576.000000,1.000000,17.000000,,,,0.000000,2.000000,2.000000,0.000000,4.000000,2.000000,2.000000,0.000000,0.000000,4.000000,4.000000,4.000000,4.000000,4.000000,4.000000,0.000000,,,,,,,,,,,,,,,,,,,,,,,,,,,,
1732159185.882295,1732159185.885625,103.000000,0.000000,4312.563965,4296.794922,4325.000000,4311.794922,4282.820313,4280.384766,4334.871582,4405.512695,4314.102539,4296.538574,4494.487305,4535.256348,4343.077148,4433.077148,1548.000000,1.000000,17.000000,,,,0.000000,2.000000,2.000000,0.000000,4.000000,2.000000,2.000000,0.000000,0.000000,4.000000,4.000000,4.000000,4.000000,4.000000,4.000000,0.000000,,,,,,,,,,,,,,,,,,,,,,,,,,,,
1732159185.890103,1732159185.893333,104.000000,0.000000,4312.436035,4297.692383,4321.153809,4313.205078,4285.000000,4280.384766,4333.846191,4403.205078,4304.615234,4294.102539,4489.358887,4533.333496,4340.512695,4433.205078,1708.000000,1.000000,17.000000,,,,0.000000,2.000000,2.000000,0.000000,4.000000,2.000000,2.000000,0.000000,0.000000,4.000000,4.000000,4.000000,4.000000,4.000000,4.000000,0.000000,,,,,,,,,,,,,,,,,26.000000,0.000000,0.487983,0.463745,-0.554688,0.489014,0.977658,-0.091808,-0.032719,-36.385227,44.733643,30.831961
1732159185.897911,1732159185.901141,105.000000,0.000000,4313.589844,4297.692383,4318.205078,4315.769043,4286.538574,4283.461426,4334.358887,4400.641113,4294.487305,4288.333496,4488.461426,4531.282227,4346.922852,4435.128418,1536.000000,1.000000,17.000000,,,,0.000000,2.000000,2.000000,0.000000,4.000000,2.000000,2.000000,0.000000,0.000000,4.000000,4.000000,4.000000,4.000000,4.000000,4.000000,0.000000,,,,,,,,,,,,,,,,,,,,,,,,,,,,
1732159185.905719,1732159185.909149,106.000000,0.000000,4313.333496,4297.307617,4320.128418,4315.384766,4296.410156,4283.589844,4336.666504,4404.615234,4294.487305,4279.358887,4490.000000,4532.307617,4348.077148,4438.077148,1576.000000,1.000000,17.000000,,,,0.000000,2.000000,2.000000,0.000000,4.000000,2.000000,2.000000,0.000000,0.000000,4.000000,4.000000,4.000000,4.000000,4.000000,4.000000,0.000000,,,,,,,,,,,,,,,,,,,,,,,,,,,,
1732159185.913527,1732159185.916957,107.000000,0.000000,4309.743652,4295.512695,4321.025879,4310.128418,4306.282227,4280.128418,4335.256348,4407.436035,4295.512695,4276.922852,4486.794922,4529.615234,4339.615234,4431.666504,1548.000000,1.000000,17.000000,,,,0.000000,2.000000,2.000000,0.000000,4.000000,2.000000,2.000000,0.000000,0.000000,4.000000,4.000000,4.000000,4.000000,4.000000,4.000000,0.000000,,,,,,,,,,,,,,,,,,,,,,,,,,,,
1732159185.921336,1732159185.924866,108.000000,0.000000,4306.794922,4296.025879,4318.461426,4306.410156,4288.974121,4280.000000,4330.256348,4402.051270,4292.307617,4288.461426,4488.205078,4522.948730,4342.563965,4426.025879,1708.000000,1.000000,17.000000,,,,0.000000,2.000000,2.000000,0.000000,4.000000,2.000000,2.000000,0.000000,0.000000,4.000000,4.000000,4.000000,4.000000,4.000000,4.000000,0.000000,,,,,,,,,,,,,,,,,27.000000,0.000000,0.486900,0.463196,-0.555237,0.489990,0.985472,-0.100110,-0.035649,-36.195366,44.704250,30.960556
1732159185.929144,1732159185.932674,109.000000,0.000000,4309.102539,4296.922852,4317.948730,4304.487305,4268.974121,4281.025879,4330.512695,4401.410156,4296.538574,4297.563965,4491.538574,4526.794922,4351.410156,4429.102539,1536.000000,1.000000,17.000000,,,,0.000000,2.000000,2.000000,0.000000,4.000000,2.000000,2.000000,0.000000,0.000000,4.000000,4.000000,4.000000,4.000000,4.000000,4.000000,0.000000,,,,,,,,,,,,,,,,,,,,,,,,,,,,
1732159185.936952,1732159185.940282,110.000000,0.000000,4308.205078,4295.000000,4316.922852,4302.563965,4274.487305,4278.589844,4334.487305,4407.692383,4305.897461,4296.794922,4492.051270,4539.871582,4349.743652,4430.769043,1576.000000,1.000000,17.000000,,,,0.000000,2.000000,2.000000,0.000000,4.000000,2.000000,2.000000,0.000000,0.000000,4.000000,4.000000,4.000000,4.000000,4.000000,4.000000,0.000000,,,,,,,,,,,,,,,,,,,,,,,,,,,,
1732159185.944760,1732159185.948090,111.000000,0.000000,4301.282227,4291.153809,4315.897461,4302.307617,4280.769043,4272.948730,4334.615234,4408.077148,4306.153809,4301.153809,4494.358887,4544.358887,4349.615234,4429.615234,1548.000000,1.000000,17.000000,,,,0.000000,2.000000,2.000000,0.000000,4.000000,2.000000,2.000000,0.000000,0.000000,4.000000,4.000000,4.000000,4.000000,4.000000,4.000000,0.000000,,,,,,,,,,,,,,,,,,,,,,,,,,,,
1732159185.952569,1732159185.955799,112.000000,0.000000,4301.410156,4290.512695,4317.179688,4304.358887,4276.153809,4264.230957,4334.743652,4404.102539,4300.512695,4306.794922,4494.358887,4536.410156,4350.256348,4431.666504,1708.000000,1.000000,17.000000,,,,0.000000,2.000000,2.000000,0.000000,4.000000,2.000000,2.000000,0.000000,0.000000,4.000000,4.000000,4.000000,4.000000,4.000000,4.000000,0.000000,,,,,,,,,,,,,,,,,28.000000,0.000000,0.486418,0.463013,-0.555542,0.490295,0.981565,-0.105970,-0.041509,-36.316582,44.602112,30.968050
1732159185.960377,1732159185.963607,113.000000,0.000000,4308.333496,4293.077148,4318.461426,4306.538574,4277.307617,4262.563965,4337.051270,4405.641113,4297.307617,4300.384766,4490.897461,4532.307617,4344.102539,4430.128418,1536.000000,1.000000,17.000000,,,,0.000000,2.000000,2.000000,0.000000,4.000000,2.000000,2.000000,0.000000,0.000000,4.000000,4.000000,4.000000,4.000000,4.000000,4.000000,0.000000,,,,,,,,,,,,,,,,,,,,,,,,,,,,
1732159185.968185,1732159185.971215,114.000000,0.000000,4311.025879,4293.589844,4318.077148,4309.230957,4280.897461,4272.307617,4335.384766,4407.692383,4298.461426,4295.641113,4489.102539,4533.589844,4342.692383,4427.307617,1576.000000,1.000000,17.000000,,,,0.000000,2.000000,2.000000,0.000000,4.000000,2.000000,2.000000,0.000000,0.000000,4.000000,4.000000,4.000000,4.000000,4.000000,4.000000,0.000000,,,,,,,,,,,,,,,,,,,,,,,,,,,,
1732159185.975994,1732159185.979024,115.000000,0.000000,4310.000000,4293.333496,4318.461426,4310.769043,4284.743652,4279.102539,4333.717773,4406.282227,4296.922852,4297.948730,4488.589844,4530.128418,4345.769043,4428.205078,1548.000000,1.000000,17.000000,,,,0.000000,2.000000,2.000000,0.000000,4.000000,2.000000,2.000000,0.000000,0.000000,4.000000,4.000000,4.000000,4.000000,4.000000,4.000000,0.000000,,,,,,,,,,,,,,,,,,,,,,,,,,,,
1732159185.983802,1732159185.986932,116.000000,0.000000,4310.000000,4295.769043,4319.358887,4312.051270,4292.307617,4278.846191,4334.871582,4403.717773,4294.102539,4295.641113,4488.333496,4523.205078,4342.563965,4428.205078,1708.000000,1.000000,17.000000,,,,0.000000,2.000000,2.000000,0.000000,4.000000,2.000000,2.000000,0.000000,0.000000,4.000000,4.000000,4.000000,4.000000,4.000000,4.000000,0.000000,,,,,,,,,,,,,,,,,29.000000,0.000000,0.485735,0.462830,-0.555969,0.490662,0.978147,-0.118178,-0.039556,-36.298096,44.472710,31.040787
1732159185.991610,1732159185.994740,117.000000,0.000000,4305.769043,4292.307617,4319.102539,4313.205078,4292.179688,4279.102539,4333.974121,4405.897461,4293.846191,4292.307617,4484.487305,4517.692383,4339.230957,4423.589844,1536.000000,1.000000,17.000000,,,,0.000000,2.000000,2.000000,0.000000,4.000000,2.000000,2.000000,0.000000,0.000000,4.000000,4.000000,4.000000,4.000000,4.000000,4.000000,0.000000,,,,,,,,,,,,,,,,,,,,,,,,,,,,
1732159185.999418,1732159186.002748,118.000000,0.000000,4297.948730,4282.179688,4318.846191,4302.563965,4284.743652,4281.153809,4333.589844,4407.179688,4293.717773,4291.153809,4479.871582,4516.025879,4339.230957,4416.922852,1576.000000,1.000000,17.000000,,,,0.000000,2.000000,2.000000,0.000000,4.000000,2.000000,2.000000,0.000000,0.000000,4.000000,4.000000,4.000000,4.000000,4.000000,4.000000,0.000000,,,,,,,,,,,,,,,,,,,,,,,,,,,,
1732159186.007227,1732159186.010556,119.000000,0.000000,4295.256348,4278.205078,4317.820313,4291.538574,4280.641113,4281.410156,4335.128418,4403.974121,4298.077148,4294.615234,4483.077148,4522.179688,4340.897461,4418.077148,1548.000000,1.000000,17.000000,,,,0.000000,2.000000,2.000000,0.000000,4.000000,2.000000,2.000000,0.000000,0.000000,4.000000,4.000000,4.000000,4.000000,4.000000,4.000000,0.000000,,,,,,,,,,,,,,,,,,,,,,,,,,,,
1732159186.015035,1732159186.018464,120.000000,0.000000,4297.051270,4280.641113,4317.307617,4293.717773,4277.307617,4281.794922,4335.256348,4403.846191,4305.000000,4303.846191,4489.358887,4529.743652,4344.871582,4424.230957,1708.000000,1.000000,17.000000,,,,0.000000,2.000000,2.000000,0.000000,4.000000,2.000000,2.000000,0.000000,0.000000,4.000000,4.000000,4.000000,4.000000,4.000000,4.000000,0.000000,,,,,,,,,,,,,,,,,30.000000,0.000000,0.484360,0.463135,-0.556213,0.491455,0.976682,-0.117690,-0.054206,-36.149792,44.151230,30.966372
1732159186.022843,1732159186.026272,121.000000,0.000000,4297.051270,4278.846191,4317.179688,4298.333496,4286.282227,4280.256348,4335.256348,4405.641113,4304.358887,4305.384766,4488.846191,4527.563965,4343.846191,4426.282227,1536.000000,1.000000,17.000000,,,,0.000000,2.000000,2.000000,0.000000,4.000000,2.000000,2.000000,0.000000,0.000000,4.000000,4.000000,4.000000,4.000000,4.000000,4.000000,0.000000,,,,,,,,,,,,,,,,,,,,,,,,,,,,
1732159186.030651,1732159186.033881,122.000000,0.000000,4296.410156,4281.282227,4315.897461,4300.128418,4300.256348,4273.846191,4335.000000,4404.871582,4296.922852,4297.179688,4488.333496,4528.974121,4339.871582,4425.384766,1576.000000,1.000000,17.000000,,,,0.000000,2.000000,2.000000,0.000000,4.000000,2.000000,2.000000,0.000000,0.000000,4.000000,4.000000,4.000000,4.000000,4.000000,4.000000,0.000000,,,,,,,,,,,,,,,,,,,,,,,,,,,,
1732159186.038460,1732159186.041689,123.000000,0.000000,4302.307617,4290.128418,4314.358887,4306.666504,4290.256348,4273.974121,4334.615234,4402.948730,4294.743652,4293.846191,4489.743652,4538.461426,4344.358887,4427.436035,1548.000000,1.000000,17.000000,,,,0.000000,2.000000,2.000000,0.000000,4.000000,2.000000,2.000000,0.000000,0.000000,4.000000,4.000000,4.000000,4.000000,4.000000,4.000000,0.000000,,,,,,,,,,,,,,,,,,,,,,,,,,,,
1732159186.046268,1732159186.049597,124.000000,0.000000,4307.307617,4292.563965,4316.153809,4312.436035,4272.692383,4280.897461,4335.641113,4405.897461,4295.769043,4297.307617,4487.820313,4542.051270,4350.000000,4430.897461,1708.000000,1.000000,17.000000,,,,0.000000,2.000000,2.000000,0.000000,4.000000,2.000000,2.000000,0.000000,0.000000,4.000000,4.000000,4.000000,4.000000,4.000000,4.000000,0.000000,,,,,,,,,,,,,,,,,31.000000,0.000000,0.484138,0.463074,-0.556458,0.491455,0.976682,-0.117690,-0.054206,-35.957996,44.267494,30.904427
1732159186.054076,1732159186.057405,125.000000,0.000000,4302.948730,4291.025879,4317.820313,4311.025879,4276.538574,4281.282227,4335.384766,4409.487305,4297.692383,4299.871582,4489.358887,4532.307617,4350.897461,4425.512695,1536.000000,1.000000,17.000000,,,,0.000000,2.000000,2.000000,0.000000,4.000000,2.000000,2.000000,0.000000,0.000000,4.000000,4.000000,4.000000,4.000000,4.000000,4.000000,0.000000,,,,,,,,,,,,,,,,,,,,,,,,,,,,
1732159186.061884,1732159186.065413,126.000000,0.000000,4297.692383,4290.128418,4316.282227,4310.641113,4285.769043,4279.358887,4334.487305,4409.230957,4300.384766,4300.256348,4494.230957,4525.512695,4348.846191,4418.461426,1576.000000,1.000000,17.000000,,,,0.000000,2.000000,2.000000,0.000000,4.000000,2.000000,2.000000,0.000000,0.000000,4.000000,4.000000,4.000000,4.000000,4.000000,4.000000,0.000000,,,,,,,,,,,,,,,,,,,,,,,,,,,,
1732159186.069692,1732159186.073221,127.000000,0.000000,4296.666504,4284.743652,4314.615234,4309.487305,4284.358887,4287.051270,4335.512695,4407.820313,4298.846191,4300.769043,4495.256348,4528.589844,4344.743652,4417.820313,17.000000,1.000000,17.000000,,,,0.000000,2.000000,2.000000,0.000000,4.000000,2.000000,2.000000,0.000000,0.000000,4.000000,4.000000,4.000000,4.000000,4.000000,4.000000,0.000000,,,,,,,,,,,,,,,,,,,,,,,,,,,,
1732159186.077501,1732159186.081130,0.000000,0.000000,4295.128418,4277.563965,4314.743652,4301.666504,4281.922852,4290.512695,4336.538574,4407.563965,4299.487305,4300.512695,4491.922852,4526.666504,4340.897461,4416.666504,0.000000,1.000000,17.000000,,,,0.000000,2.000000,2.000000,0.000000,4.000000,2.000000,2.000000,0.000000,0.000000,4.000000,4.000000,4.000000,4.000000,4.000000,4.000000,0.000000,,,,,,,,,,,,,,,,,0.000000,0.000000,0.483924,0.463013,-0.556641,0.491516,0.979123,-0.100110,-0.045416,-35.982643,44.076672,31.094252
1732159186.085309,1732159186.088938,1.000000,0.000000,4294.358887,4281.153809,4315.000000,4297.179688,4281.410156,4282.307617,4335.897461,4406.538574,4307.179688,4303.717773,4490.128418,4521.410156,4345.000000,4413.205078,1626.000000,1.000000,17.000000,,,,0.000000,2.000000,2.000000,0.000000,4.000000,2.000000,2.000000,0.000000,0.000000,4.000000,4.000000,4.000000,4.000000,4.000000,4.000000,0.000000,,,,,,,,,,,,,,,,,,,,,,,,,,,,
1732159186.093117,1732159186.096946,2.000000,0.000000,4295.000000,4286.025879,4316.538574,4299.358887,4284.615234,4278.974121,4335.384766,4406.922852,4306.666504,4304.487305,4491.410156,4524.871582,4348.077148,4415.769043,1359.000000,1.000000,17.000000,,,,0.000000,2.000000,2.000000,0.000000,4.000000,2.000000,2.000000,0.000000,0.000000,4.000000,4.000000,4.000000,4.000000,4.000000,4.000000,0.000000,,,,,,,,,,,,,,,,,,,,,,,,,,,,
1732159186.100926,1732159186.104754,3.000000,0.000000,4297.051270,4282.563965,4317.436035,4302.948730,4286.153809,4280.384766,4335.000000,4409.102539,4298.974121,4298.589844,4491.282227,4531.153809,4342.051270,4421.025879,1436.000000,1.000000,17.000000,,,,0.000000,2.000000,2.000000,0.000000,4.000000,2.000000,2.000000,0.000000,0.000000,4.000000,4.000000,4.000000,4.000000,4.000000,4.000000,0.000000,,,,,,,,,,,,,,,,,,,,,,,,,,,,
1732159186.108734,1732159186.112662,4.000000,0.000000,4303.461426,4284.230957,4316.282227,4303.846191,4275.769043,4277.051270,4335.000000,4406.282227,4293.717773,4294.871582,4492.051270,4526.410156,4341.153809,4422.692383,1431.000000,1.000000,17.000000,,,,0.000000,2.000000,2.000000,0.000000,4.000000,2.000000,2.000000,0.000000,0.000000,4.000000,4.000000,4.000000,4.000000,4.000000,4.000000,0.000000,,,,,,,,,,,,,,,,,1.000000,0.000000,0.483778,0.462708,-0.557129,0.491394,0.980100,-0.096691,-0.048834,-35.884277,44.062103,31.266344
1732159186.116542,1732159186.120470,5.000000,0.000000,4304.743652,4290.641113,4314.615234,4304.487305,4286.153809,4275.769043,4335.769043,4404.487305,4292.179688,4294.358887,4493.846191,4520.000000,4348.974121,4419.358887,1197.000000,1.000000,17.000000,,,,0.000000,2.000000,2.000000,0.000000,4.000000,2.000000,2.000000,0.000000,0.000000,4.000000,4.000000,4.000000,4.000000,4.000000,4.000000,0.000000,,,,,,,,,,,,,,,,,,,,,,,,,,,,
1732159186.124350,1732159186.128079,6.000000,0.000000,4297.820313,4287.436035,4316.922852,4304.743652,4307.179688,4280.128418,4333.846191,4408.974121,4299.871582,4294.615234,4494.871582,4525.128418,4350.512695,4415.256348,0.000000,1.000000,17.000000,,,,0.000000,2.000000,2.000000,0.000000,4.000000,2.000000,2.000000,0.000000,0.000000,4.000000,4.000000,4.000000,4.000000,4.000000,4.000000,0.000000,,,,,,,,,,,,,,,,,,,,,,,,,,,,
1732159186.132159,1732159186.135887,7.000000,0.000000,4296.025879,4281.410156,4317.948730,4306.666504,4289.358887,4280.512695,4333.461426,4408.205078,4306.025879,4296.538574,4495.384766,4530.641113,4344.487305,4419.615234,0.000000,1.000000,17.000000,,,,0.000000,2.000000,2.000000,0.000000,4.000000,2.000000,2.000000,0.000000,0.000000,4.000000,4.000000,4.000000,4.000000,4.000000,4.000000,0.000000,,,,,,,,,,,,,,,,,,,,,,,,,,,,
1732159186.139967,1732159186.143595,8.000000,0.000000,4297.820313,4285.000000,4314.358887,4307.051270,4261.538574,4280.384766,4335.769043,4403.333496,4296.922852,4296.282227,4493.846191,4529.102539,4341.282227,4425.641113,1539.000000,1.000000,17.000000,,,,0.000000,2.000000,2.000000,0.000000,4.000000,2.000000,2.000000,0.000000,0.000000,4.000000,4.000000,4.000000,4.000000,4.000000,4.000000,0.000000,,,,,,,,,,,,,,,,,2.000000,0.000000,0.483816,0.462585,-0.557251,0.491333,0.984495,-0.100110,-0.049811,-35.751263,44.200302,31.422405
1732159186.147775,1732159186.151403,9.000000,0.000000,4294.487305,4285.512695,4315.256348,4302.820313,4270.769043,4285.000000,4336.410156,4406.922852,4294.743652,4295.256348,4491.794922,4527.179688,4343.077148,4419.615234,1703.000000,1.000000,17.000000,,,,0.000000,2.000000,2.000000,0.000000,4.000000,2.000000,2.000000,0.000000,0.000000,4.000000,4.000000,4.000000,4.000000,4.000000,4.000000,0.000000,,,,,,,,,,,,,,,,,,,,,,,,,,,,
1732159186.155583,1732159186.159012,10.000000,0.000000,4293.974121,4279.358887,4318.461426,4301.282227,4285.512695,4286.025879,4335.128418,4409.358887,4310.769043,4303.589844,4494.230957,4532.051270,4345.769043,4412.692383,1578.000000,1.000000,17.000000,,,,0.000000,2.000000,2.000000,0.000000,4.000000,2.000000,2.000000,0.000000,0.000000,4.000000,4.000000,4.000000,4.000000,4.000000,4.000000,0.000000,,,,,,,,,,,,,,,,,,,,,,,,,,,,
1732159186.163392,1732159186.166820,11.000000,0.000000,4297.051270,4281.922852,4319.230957,4306.282227,4278.589844,4281.922852,4334.358887,4406.666504,4312.436035,4306.282227,4495.897461,4533.717773,4345.128418,4417.307617,1549.000000,1.000000,17.000000,,,,0.000000,2.000000,2.000000,0.000000,4.000000,2.000000,2.000000,0.000000,0.000000,4.000000,4.000000,4.000000,4.000000,4.000000,4.000000,0.000000,,,,,,,,,,,,,,,,,,,,,,,,,,,,
1732159186.171200,1732159186.174528,12.000000,0.000000,4296.666504,4286.410156,4316.666504,4307.948730,4277.820313,4280.641113,4335.128418,4408.333496,4297.563965,4295.384766,4491.922852,4528.974121,4341.666504,4422.179688,1705.000000,1.000000,17.000000,,,,0.000000,2.000000,2.000000,0.000000,4.000000,2.000000,2.000000,0.000000,0.000000,4.000000,4.000000,4.000000,4.000000,4.000000,4.000000,0.000000,,,,,,,,,,,,,,,,,3.000000,0.000000,0.484010,0.462585,-0.557190,0.491211,0.984495,-0.100110,-0.049811,-35.956856,43.972244,31.405481
1732159186.179008,1732159186.182337,13.000000,0.000000,4294.487305,4283.717773,4315.897461,4302.436035,4283.077148,4281.538574,4335.769043,4409.358887,4294.358887,4292.179688,4489.743652,4528.846191,4341.025879,4419.102539,1534.000000,1.000000,17.000000,,,,0.000000,2.000000,2.000000,0.000000,4.000000,2.000000,2.000000,0.000000,0.000000,4.000000,4.000000,4.000000,4.000000,4.000000,4.000000,0.000000,,,,,,,,,,,,,,,,,,,,,,,,,,,,
1732159186.186816,1732159186.189945,14.000000,0.000000,4295.769043,4283.461426,4315.512695,4301.282227,4282.436035,4279.871582,4335.641113,4404.743652,4297.436035,4296.794922,4492.820313,4529.615234,4344.358887,4417.820313,1578.000000,1.000000,17.000000,,,,0.000000,2.000000,2.000000,0.000000,4.000000,2.000000,2.000000,0.000000,0.000000,4.000000,4.000000,4.000000,4.000000,4.000000,4.000000,0.000000,1.000000,0.000000,2.000000,2.000000,0.000000,4.000000,2.000000,2.000000,0.000000,0.000000,4.000000,4.000000,4.000000,4.000000,4.000000,4.000000,,,,,,,,,,,,
1732159186.194625,1732159186.197753,15.000000,0.000000,4298.077148,4290.000000,4316.025879,4306.282227,4283.333496,4278.461426,4334.230957,4406.538574,4296.410156,4297.051270,4496.282227,4528.077148,4349.230957,4423.461426,1549.000000,1.000000,17.000000,,,,0.000000,2.000000,2.000000,0.000000,4.000000,2.000000,2.000000,0.000000,0.000000,4.000000,4.000000,4.000000,4.000000,4.000000,4.000000,0.000000,,,,,,,,,,,,,,,,,,,,,,,,,,,,
1732159186.202433,1732159186.205462,16.000000,0.000000,4298.717773,4292.692383,4317.179688,4308.589844,4279.230957,4278.333496,4333.846191,4407.820313,4294.487305,4297.179688,4496.153809,4528.205078,4349.871582,4426.666504,0.000000,1.000000,17.000000,,,,0.000000,2.000000,2.000000,0.000000,4.000000,2.000000,2.000000,0.000000,0.000000,4.000000,4.000000,4.000000,4.000000,4.000000,4.000000,0.000000,,,,,,,,,,,,,,,,,4.000000,0.000000,0.484116,0.463623,-0.556396,0.491028,0.988402,-0.096203,-0.058113,-36.008389,43.982521,31.155107
1732159186.210241,1732159186.213270,17.000000,0.000000,4298.333496,4286.410156,4316.282227,4306.025879,4283.974121,4278.846191,4334.743652,4404.871582,4295.128418,4297.051270,4493.461426,4526.282227,4344.102539,4420.256348,0.000000,1.000000,17.000000,,,,0.000000,2.000000,2.000000,0.000000,4.000000,2.000000,2.000000,0.000000,0.000000,4.000000,4.000000,4.000000,4.000000,4.000000,4.000000,0.000000,,,,,,,,,,,,,,,,,,,,,,,,,,,,
1732159186.218049,1732159186.220878,18.000000,0.000000,4294.487305,4280.000000,4316.153809,4301.538574,4299.487305,4282.948730,4335.641113,4406.410156,4298.461426,4296.410156,4491.282227,4517.563965,4338.461426,4412.436035,0.000000,1.000000,17.000000,,,,0.000000,2.000000,2.000000,0.000000,4.000000,2.000000,2.000000,0.000000,0.000000,4.000000,4.000000,4.000000,4.000000,4.000000,4.000000,0.000000,,,,,,,,,,,,,,,,,,,,,,,,,,,,
1732159186.225858,1732159186.228686,19.000000,0.000000,4288.077148,4281.538574,4319.615234,4298.974121,4292.563965,4288.077148,4336.025879,4407.692383,4303.333496,4298.589844,4491.025879,4513.846191,4338.717773,4410.512695,0.000000,1.000000,17.000000,,,,0.000000,2.000000,2.000000,0.000000,4.000000,2.000000,2.000000,0.000000,0.000000,4.000000,4.000000,4.000000,4.000000,4.000000,4.000000,0.000000,,,,,,,,,,,,,,,,,,,,,,,,,,,,
1732159186.233666,1732159186.236395,20.000000,0.000000,4288.589844,4283.205078,4319.871582,4300.000000,4273.077148,4291.538574,4336.025879,4406.666504,4306.410156,4300.000000,4493.717773,4521.538574,4344.743652,4412.051270,0.000000,1.000000,17.000000,,,,0.000000,2.000000,2.000000,0.000000,4.000000,2.000000,2.000000,0.000000,0.000000,4.000000,4.000000,4.000000,4.000000,4.000000,4.000000,0.000000,,,,,,,,,,,,,,,,,5.000000,0.000000,0.484273,0.464294,-0.555969,0.490723,0.971310,-0.090343,-0.063484,-36.041794,44.014175,31.032303
1732159186.241474,1732159186.244203,21.000000,0.000000,4294.743652,4278.589844,4315.000000,4300.128418,4274.487305,4293.717773,4335.641113,4408.077148,4311.025879,4302.436035,4495.384766,4523.205078,4348.846191,4413.333496,0.000000,1.000000,17.000000,,,,0.000000,2.000000,2.000000,0.000000,4.000000,2.000000,2.000000,0.000000,0.000000,4.000000,4.000000,4.000000,4.000000,4.000000,4.000000,0.000000,,,,,,,,,,,,,,,,,,,,,,,,,,,,
1732159186.249282,1732159186.251811,22.000000,0.000000,4297.051270,4279.615234,4314.230957,4299.871582,4285.512695,4293.589844,4334.743652,4408.205078,4313.974121,4303.846191,4495.512695,4519.487305,4344.102539,4417.563965,0.000000,1.000000,17.000000,,,,0.000000,2.000000,2.000000,0.000000,4.000000,2.000000,2.000000,0.000000,0.000000,4.000000,4.000000,4.000000,4.000000,4.000000,4.000000,0.000000,,,,,,,,,,,,,,,,,,,,,,,,,,,,
1732159186.257091,1732159186.259620,23.000000,0.000000,4295.641113,4289.615234,4318.461426,4302.692383,4282.692383,4289.358887,4333.974121,4407.307617,4305.256348,4299.230957,4499.102539,4522.051270,4341.922852,4421.538574,0.000000,1.000000,17.000000,,,,0.000000,2.000000,2.000000,0.000000,4.000000,2.000000,2.000000,0.000000,0.000000,4.000000,4.000000,4.000000,4.000000,4.000000,4.000000,0.000000,,,,,,,,,,,,,,,,,,,,,,,,,,,,
1732159186.264899,1732159186.267328,24.000000,0.000000,4298.205078,4288.205078,4317.820313,4305.128418,4276.794922,4284.102539,4333.461426,4407.563965,4297.307617,4296.410156,4507.307617,4529.743652,4350.256348,4420.769043,0.000000,1.000000,17.000000,,,,0.000000,2.000000,2.000000,0.000000,4.000000,2.000000,2.000000,0.000000,0.000000,4.000000,4.000000,4.000000,4.000000,4.000000,4.000000,0.000000,,,,,,,,,,,,,,,,,6.000000,0.000000,0.484273,0.464294,-0.555969,0.490723,0.966915,-0.099622,-0.047857,-36.188854,44.114815,31.052832
1732159186.272707,1732159186.275136,25.000000,0.000000,4299.102539,4280.128418,4312.948730,4303.717773,4289.615234,4280.000000,4333.974121,4403.974121,4296.025879,4297.307617,4504.102539,4531.282227,4352.563965,4419.743652,0.000000,1.000000,17.000000,,,,0.000000,2.000000,2.000000,0.000000,4.000000,2.000000,2.000000,0.000000,0.000000,4.000000,4.000000,4.000000,4.000000,4.000000,4.000000,0.000000,,,,,,,,,,,,,,,,,,,,,,,,,,,,
1732159186.280516,1732159186.282744,26.000000,0.000000,4294.487305,4280.641113,4314.230957,4299.615234,4302.179688,4282.179688,4334.871582,4404.230957,4294.743652,4297.051270,4493.974121,4527.051270,4345.512695,4422.051270,0.000000,1.000000,17.000000,,,,0.000000,2.000000,2.000000,0.000000,4.000000,2.000000,2.000000,0.000000,0.000000,4.000000,4.000000,4.000000,4.000000,4.000000,4.000000,0.000000,,,,,,,,,,,,,,,,,,,,,,,,,,,,
1732159186.288324,1732159186.290553,27.000000,0.000000,4294.871582,4283.077148,4318.461426,4301.410156,4288.589844,4289.230957,4335.384766,4410.000000,4297.051270,4298.461426,4498.846191,4525.641113,4347.948730,4419.615234,0.000000,1.000000,17.000000,,,,0.000000,2.000000,2.000000,0.000000,4.000000,2.000000,2.000000,0.000000,0.000000,4.000000,4.000000,4.000000,4.000000,4.000000,4.000000,0.000000,,,,,,,,,,,,,,,,,,,,,,,,,,,,
1732159186.296132,1732159186.298261,28.000000,0.000000,4296.025879,4282.307617,4319.743652,4303.974121,4271.025879,4292.692383,4335.000000,4411.025879,4302.436035,4304.743652,4503.846191,4527.179688,4351.282227,4413.717773,0.000000,1.000000,17.000000,,,,0.000000,2.000000,2.000000,0.000000,4.000000,2.000000,2.000000,0.000000,0.000000,4.000000,4.000000,4.000000,4.000000,4.000000,4.000000,0.000000,,,,,,,,,,,,,,,,,7.000000,0.000000,0.484751,0.464539,-0.555725,0.490295,0.965938,-0.090831,-0.039067,-36.171303,44.292999,31.041128
1732159186.303940,1732159186.306069,29.000000,0.000000,4287.051270,4280.384766,4317.692383,4297.563965,4276.025879,4290.641113,4336.666504,4407.692383,4306.794922,4307.436035,4494.615234,4527.051270,4344.102539,4412.820313,0.000000,1.000000,17.000000,,,,0.000000,2.000000,2.000000,0.000000,4.000000,2.000000,2.000000,0.000000,0.000000,4.000000,4.000000,4.000000,4.000000,4.000000,4.000000,0.000000,,,,,,,,,,,,,,,,,,,,,,,,,,,,
1732159186.311748,1732159186.313678,30.000000,0.000000,4278.205078,4274.871582,4316.794922,4288.717773,4282.820313,4289.871582,4339.358887,4408.846191,4308.974121,4302.436035,4490.000000,4523.589844,4341.153809,4413.589844,0.000000,1.000000,17.000000,,,,0.000000,2.000000,2.000000,0.000000,4.000000,2.000000,2.000000,0.000000,0.000000,4.000000,4.000000,4.000000,4.000000,4.000000,4.000000,0.000000,,,,,,,,,,,,,,,,,,,,,,,,,,,,
1732159186.319557,1732159186.321486,31.000000,0.000000,4281.025879,4273.589844,4316.025879,4292.692383,4282.051270,4292.563965,4337.436035,4411.410156,4307.179688,4295.897461,4492.820313,4515.769043,4344.358887,4409.358887,0.000000,1.000000,17.000000,,,,0.000000,2.000000,2.000000,0.000000,4.000000,2.000000,2.000000,0.000000,0.000000,4.000000,4.000000,4.000000,4.000000,4.000000,4.000000,0.000000,,,,,,,,,,,,,,,,,,,,,,,,,,,,
1732159186.327365,1732159186.329394,32.000000,0.000000,4288.205078,4281.025879,4315.641113,4303.077148,4284.358887,4289.358887,4334.743652,4409.871582,4301.153809,4295.128418,4491.025879,4514.615234,4341.922852,4411.282227,0.000000,1.000000,17.000000,,,,0.000000,2.000000,2.000000,0.000000,4.000000,2.000000,2.000000,0.000000,0.000000,4.000000,4.000000,4.000000,4.000000,4.000000,4.000000,0.000000,,,,,,,,,,,,,,,,,8.000000,0.000000,0.485588,0.465149,-0.555237,0.489441,0.980588,-0.084483,-0.055183,-36.417091,44.243996,30.816647
1732159186.335173,1732159186.337202,33.000000,0.000000,4292.051270,4283.717773,4317.436035,4302.436035,4282.948730,4284.615234,4334.743652,4407.436035,4301.794922,4298.717773,4495.256348,4525.512695,4342.179688,4422.179688,0.000000,1.000000,17.000000,,,,0.000000,2.000000,2.000000,0.000000,4.000000,2.000000,2.000000,0.000000,0.000000,4.000000,4.000000,4.000000,4.000000,4.000000,4.000000,0.000000,,,,,,,,,,,,,,,,,,,,,,,,,,,,
1732159186.342981,1732159186.344811,34.000000,0.000000,4294.615234,4280.384766,4318.205078,4299.487305,4282.692383,4282.563965,4334.871582,4407.820313,4304.230957,4297.179688,4501.666504,4529.615234,4350.128418,4423.461426,0.000000,1.000000,17.000000,,,,0.000000,2.000000,2.000000,0.000000,4.000000,2.000000,2.000000,0.000000,0.000000,4.000000,4.000000,4.000000,4.000000,4.000000,4.000000,0.000000,,,,,,,,,,,,,,,,,,,,,,,,,,,,
1732159186.350790,1732159186.352619,35.000000,0.000000,4294.871582,4280.128418,4316.794922,4303.205078,4282.051270,4280.769043,4334.102539,4409.102539,4298.846191,4292.948730,4494.230957,4519.230957,4348.461426,4413.077148,0.000000,1.000000,17.000000,,,,0.000000,2.000000,2.000000,0.000000,4.000000,2.000000,2.000000,0.000000,0.000000,4.000000,4.000000,4.000000,4.000000,4.000000,4.000000,0.000000,,,,,,,,,,,,,,,,,,,,,,,,,,,,
1732159186.358598,1732159186.360527,36.000000,0.000000,4290.769043,4279.487305,4316.922852,4302.820313,4281.794922,4283.077148,4333.717773,4407.820313,4295.256348,4293.846191,4487.948730,4515.128418,4336.666504,4407.948730,0.000000,1.000000,17.000000,,,,0.000000,2.000000,2.000000,0.000000,4.000000,2.000000,2.000000,0.000000,0.000000,4.000000,4.000000,4.000000,4.000000,4.000000,4.000000,0.000000,,,,,,,,,,,,,,,,,9.000000,0.000000,0.485693,0.465759,-0.554688,0.489380,0.974728,-0.084971,-0.046881,-36.276176,44.490971,31.056484
1732159186.366406,1732159186.368335,37.000000,0.000000,4283.333496,4277.307617,4317.692383,4297.307617,4298.846191,4289.230957,4334.358887,4406.922852,4296.153809,4295.769043,4491.282227,4520.128418,4333.717773,4410.512695,0.000000,1.000000,17.000000,,,,0.000000,2.000000,2.000000,0.000000,4.000000,2.000000,2.000000,0.000000,0.000000,4.000000,4.000000,4.000000,4.000000,4.000000,4.000000,0.000000,,,,,,,,,,,,,,,,,,,,,,,,,,,,
1732159186.374215,1732159186.376343,38.000000,0.000000,4281.410156,4279.358887,4317.179688,4299.487305,4303.461426,4295.256348,4338.205078,4408.077148,4299.615234,4293.333496,4493.205078,4520.769043,4341.025879,4413.461426,0.000000,1.000000,17.000000,,,,0.000000,2.000000,2.000000,0.000000,4.000000,2.000000,2.000000,0.000000,0.000000,4.000000,4.000000,4.000000,4.000000,4.000000,4.000000,0.000000,,,,,,,,,,,,,,,,,,,,,,,,,,,,
1732159186.382023,1732159186.384151,39.000000,0.000000,4285.769043,4281.538574,4315.769043,4300.128418,4283.077148,4297.051270,4339.871582,4405.897461,4307.820313,4293.974121,4492.436035,4517.820313,4342.948730,4410.000000,0.000000,1.000000,17.000000,,,,0.000000,2.000000,2.000000,0.000000,4.000000,2.000000,2.000000,0.000000,0.000000,4.000000,4.000000,4.000000,4.000000,4.000000,4.000000,0.000000,,,,,,,,,,,,,,,,,,,,,,,,,,,,
1732159186.389831,1732159186.392059,40.000000,0.000000,4287.307617,4278.333496,4315.769043,4295.641113,4269.743652,4292.820313,4335.384766,4404.230957,4313.205078,4299.358887,4493.717773,4514.358887,4340.769043,4405.128418,0.000000,1.000000,17.000000,,,,0.000000,2.000000,2.000000,0.000000,4.000000,2.000000,2.000000,0.000000,0.000000,4.000000,4.000000,4.000000,4.000000,4.000000,4.000000,0.000000,,,,,,,,,,,,,,,,,10.000000,0.000000,0.485693,0.465759,-0.554688,0.489380,0.976682,-0.074716,-0.061531,-36.132034,44.616020,31.250751
1732159186.397639,1732159186.399868,41.000000,0.000000,4287.820313,4279.102539,4316.666504,4297.436035,4276.282227,4283.461426,4334.102539,4405.897461,4306.282227,4299.487305,4494.102539,4511.153809,4342.692383,4408.974121,0.000000,1.000000,17.000000,,,,0.000000,2.000000,2.000000,0.000000,4.000000,2.000000,2.000000,0.000000,0.000000,4.000000,4.000000,4.000000,4.000000,4.000000,4.000000,0.000000,,,,,,,,,,,,,,,,,,,,,,,,,,,,
1732159186.405448,1732159186.407876,42.000000,0.000000,4286.153809,4279.615234,4315.641113,4297.820313,4288.589844,4278.077148,4335.897461,4404.615234,4295.769043,4292.307617,4491.410156,4509.358887,4341.025879,4411.025879,0.000000,1.000000,17.000000,,,,0.000000,2.000000,2.000000,0.000000,4.000000,2.000000,2.000000,0.000000,0.000000,4.000000,4.000000,4.000000,4.000000,4.000000,4.000000,0.000000,,,,,,,,,,,,,,,,,,,,,,,,,,,,
1732159186.413256,1732159186.415684,43.000000,0.000000,4280.256348,4270.256348,4314.487305,4292.948730,4287.051270,4281.153809,4336.025879,4401.794922,4295.641113,4288.205078,4488.846191,4506.666504,4337.051270,4403.077148,0.000000,1.000000,17.000000,,,,0.000000,2.000000,2.000000,0.000000,4.000000,2.000000,2.000000,0.000000,0.000000,4.000000,4.000000,4.000000,4.000000,4.000000,4.000000,0.000000,,,,,,,,,,,,,,,,,,,,,,,,,,,,
1732159186.421064,1732159186.423592,44.000000,0.000000,4280.512695,4268.461426,4316.153809,4298.333496,4273.589844,4289.487305,4335.897461,4406.794922,4300.769043,4290.769043,4489.487305,4506.410156,4340.384766,4405.256348,0.000000,1.000000,17.000000,,,,0.000000,2.000000,2.000000,0.000000,4.000000,2.000000,2.000000,0.000000,0.000000,4.000000,4.000000,4.000000,4.000000,4.000000,4.000000,0.000000,,,,,,,,,,,,,,,,,11.000000,0.000000,0.486413,0.466003,-0.554443,0.488708,0.972287,-0.095226,-0.058601,-36.235283,44.647308,31.266443
1732159186.428872,1732159186.431400,45.000000,0.000000,4288.717773,4280.000000,4318.077148,4305.384766,4271.538574,4295.769043,4336.153809,4410.000000,4300.256348,4290.256348,4491.025879,4513.077148,4345.000000,4414.615234,0.000000,1.000000,17.000000,,,,0.000000,2.000000,2.000000,0.000000,4.000000,2.000000,2.000000,0.000000,0.000000,4.000000,4.000000,4.000000,4.000000,4.000000,4.000000,0.000000,,,,,,,,,,,,,,,,,,,,,,,,,,,,
1732159186.436680,1732159186.439408,46.000000,0.000000,4294.230957,4282.563965,4315.897461,4301.153809,4278.717773,4294.615234,4335.384766,4404.743652,4296.410156,4288.589844,4490.897461,4516.282227,4343.846191,4413.589844,0.000000,1.000000,17.000000,,,,0.000000,2.000000,2.000000,0.000000,4.000000,2.000000,2.000000,0.000000,0.000000,4.000000,4.000000,4.000000,4.000000,4.000000,4.000000,0.000000,,,,,,,,,,,,,,,,,,,,,,,,,,,,
1732159186.444489,1732159186.447216,47.000000,0.000000,4290.641113,4274.358887,4318.333496,4296.410156,4273.974121,4288.974121,4336.153809,4404.615234,4296.282227,4293.589844,4491.282227,4513.461426,4339.102539,4412.179688,0.000000,1.000000,17.000000,,,,0.000000,2.000000,2.000000,0.000000,4.000000,2.000000,2.000000,0.000000,0.000000,4.000000,4.000000,4.000000,4.000000,4.000000,4.000000,0.000000,,,,,,,,,,,,,,,,,,,,,,,,,,,,
1732159186.452297,1732159186.455124,48.000000,0.000000,4281.794922,4274.615234,4320.256348,4295.256348,4283.589844,4282.436035,4337.307617,4406.922852,4295.384766,4294.871582,4487.948730,4509.487305,4334.487305,4411.410156,0.000000,1.000000,17.000000,,,,0.000000,2.000000,2.000000,0.000000,4.000000,2.000000,2.000000,0.000000,0.000000,4.000000,4.000000,4.000000,4.000000,4.000000,4.000000,0.000000,,,,,,,,,,,,,,,,,12.000000,0.000000,0.486574,0.465881,-0.554565,0.488525,0.985960,-0.084483,-0.058601,-36.315578,44.609322,31.162485
1732159186.460105,1732159186.462933,49.000000,0.000000,4278.974121,4276.666504,4317.563965,4294.743652,4292.436035,4280.641113,4336.282227,4406.666504,4294.102539,4287.307617,4485.256348,4508.461426,4332.307617,4405.000000,0.000000,1.000000,17.000000,,,,0.000000,2.000000,2.000000,0.000000,4.000000,2.000000,2.000000,0.000000,0.000000,4.000000,4.000000,4.000000,4.000000,4.000000,4.000000,0.000000,,,,,,,,,,,,,,,,,,,,,,,,,,,,
1732159186.467914,1732159186.470941,50.000000,0.000000,4287.820313,4275.769043,4316.666504,4299.487305,4270.769043,4289.230957,4336.410156,4408.205078,4297.051270,4284.230957,4489.358887,4509.871582,4331.922852,4406.922852,0.000000,1.000000,17.000000,,,,0.000000,2.000000,2.000000,0.000000,4.000000,2.000000,2.000000,0.000000,0.000000,4.000000,4.000000,4.000000,4.000000,4.000000,4.000000,0.000000,,,,,,,,,,,,,,,,,,,,,,,,,,,,
1732159186.475722,1732159186.478749,51.000000,0.000000,4290.128418,4277.820313,4318.717773,4301.153809,4262.436035,4295.769043,4337.179688,4409.358887,4298.846191,4285.641113,4487.436035,4513.461426,4327.307617,4412.820313,0.000000,1.000000,17.000000,,,,0.000000,2.000000,2.000000,0.000000,4.000000,2.000000,2.000000,0.000000,0.000000,4.000000,4.000000,4.000000,4.000000,4.000000,4.000000,0.000000,,,,,,,,,,,,,,,,,,,,,,,,,,,,
1732159186.483530,1732159186.486657,52.000000,0.000000,4285.000000,4279.358887,4318.205078,4296.922852,4279.230957,4295.128418,4336.153809,4407.820313,4297.051270,4282.179688,4480.769043,4515.512695,4324.487305,4410.000000,0.000000,1.000000,17.000000,,,,0.000000,2.000000,2.000000,0.000000,4.000000,2.000000,2.000000,0.000000,0.000000,4.000000,4.000000,4.000000,4.000000,4.000000,4.000000,0.000000,,,,,,,,,,,,,,,,,13.000000,0.000000,0.486569,0.465942,-0.554626,0.488403,0.983030,-0.088390,-0.052741,-36.383953,44.816883,31.256613
1732159186.491338,1732159186.494465,53.000000,0.000000,4289.487305,4274.743652,4317.179688,4297.948730,4283.205078,4291.025879,4334.230957,4407.179688,4297.307617,4279.487305,4483.974121,4512.948730,4330.128418,4408.717773,0.000000,1.000000,17.000000,,,,0.000000,2.000000,2.000000,0.000000,4.000000,2.000000,2.000000,0.000000,0.000000,4.000000,4.000000,4.000000,4.000000,4.000000,4.000000,0.000000,,,,,,,,,,,,,,,,,,,,,,,,,,,,
1732159186.499147,1732159186.502473,54.000000,0.000000,4293.846191,4269.230957,4319.102539,4301.538574,4279.358887,4287.179688,4334.230957,4409.358887,4296.410156,4280.897461,4489.743652,4510.641113,4332.692383,4411.025879,0.000000,1.000000,17.000000,,,,0.000000,2.000000,2.000000,0.000000,4.000000,2.000000,2.000000,0.000000,0.000000,4.000000,4.000000,4.000000,4.000000,4.000000,4.000000,0.000000,,,,,,,,,,,,,,,,,,,,,,,,,,,,
1732159186.506955,1732159186.510281,55.000000,0.000000,4290.256348,4272.179688,4318.846191,4298.846191,4279.743652,4287.692383,4336.025879,4406.282227,4295.128418,4286.922852,4488.333496,4512.307617,4328.333496,4412.307617,0.000000,1.000000,17.000000,,,,0.000000,2.000000,2.000000,0.000000,4.000000,2.000000,2.000000,0.000000,0.000000,4.000000,4.000000,4.000000,4.000000,4.000000,4.000000,0.000000,,,,,,,,,,,,,,,,,,,,,,,,,,,,
1732159186.514763,1732159186.518189,56.000000,0.000000,4290.000000,4277.820313,4316.538574,4298.205078,4281.025879,4289.743652,4335.641113,4401.153809,4294.871582,4288.589844,4487.051270,4511.794922,4328.333496,4413.077148,0.000000,1.000000,17.000000,,,,0.000000,2.000000,2.000000,0.000000,4.000000,2.000000,2.000000,0.000000,0.000000,4.000000,4.000000,4.000000,4.000000,4.000000,4.000000,0.000000,,,,,,,,,,,,,,,,,14.000000,0.000000,0.486569,0.465942,-0.554626,0.488403,0.983030,-0.088390,-0.052741,-36.394333,44.910007,31.257856
1732159186.522571,1732159186.525998,57.000000,0.000000,4291.025879,4277.563965,4315.641113,4299.102539,4295.641113,4288.077148,4334.743652,4403.077148,4293.461426,4280.512695,4488.461426,4510.512695,4334.871582,4408.589844,0.000000,1.000000,17.000000,,,,0.000000,2.000000,2.000000,0.000000,4.000000,2.000000,2.000000,0.000000,0.000000,4.000000,4.000000,4.000000,4.000000,4.000000,4.000000,0.000000,,,,,,,,,,,,,,,,,,,,,,,,,,,,
1732159186.530380,1732159186.533606,58.000000,0.000000,4290.384766,4278.333496,4317.820313,4300.000000,4301.922852,4289.358887,4335.000000,4410.128418,4296.153809,4280.256348,4488.974121,4517.179688,4336.025879,4406.153809,0.000000,1.000000,17.000000,,,,0.000000,2.000000,2.000000,0.000000,4.000000,2.000000,2.000000,0.000000,0.000000,4.000000,4.000000,4.000000,4.000000,4.000000,4.000000,0.000000,,,,,,,,,,,,,,,,,,,,,,,,,,,,
1732159186.538188,1732159186.541414,59.000000,0.000000,4291.410156,4276.794922,4317.051270,4302.820313,4283.589844,4293.974121,4335.000000,4408.077148,4301.922852,4292.563965,4489.358887,4515.641113,4333.461426,4411.538574,0.000000,1.000000,17.000000,,,,0.000000,2.000000,2.000000,0.000000,4.000000,2.000000,2.000000,0.000000,0.000000,4.000000,4.000000,4.000000,4.000000,4.000000,4.000000,0.000000,,,,,,,,,,,,,,,,,,,,,,,,,,,,
1732159186.545996,1732159186.549123,60.000000,0.000000,4286.922852,4271.282227,4314.230957,4302.820313,4269.102539,4292.436035,4334.615234,4402.436035,4300.769043,4294.487305,4489.487305,4505.769043,4335.384766,4414.358887,0.000000,1.000000,17.000000,,,,0.000000,2.000000,2.000000,0.000000,4.000000,2.000000,2.000000,0.000000,0.000000,4.000000,4.000000,4.000000,4.000000,4.000000,4.000000,0.000000,,,,,,,,,,,,,,,,,15.000000,0.000000,0.486349,0.466125,-0.554504,0.488586,0.981565,-0.080088,-0.044439,-36.254410,44.873772,31.298864
1732159186.553804,1732159186.556931,61.000000,0.000000,4280.769043,4267.563965,4315.384766,4298.589844,4278.333496,4287.948730,4335.000000,4406.794922,4293.077148,4283.077148,4489.871582,4505.128418,4334.743652,4411.794922,0.000000,1.000000,17.000000,,,,0.000000,2.000000,2.000000,0.000000,4.000000,2.000000,2.000000,0.000000,0.000000,4.000000,4.000000,4.000000,4.000000,4.000000,4.000000,0.000000,,,,,,,,,,,,,,,,,,,,,,,,,,,,
1732159186.561612,1732159186.564539,62.000000,0.000000,4281.794922,4267.436035,4317.436035,4295.641113,4294.871582,4285.769043,4335.769043,4411.282227,4292.948730,4280.512695,4490.897461,4508.846191,4334.615234,4411.666504,0.000000,1.000000,17.000000,,,,0.000000,2.000000,2.000000,0.000000,4.000000,2.000000,2.000000,0.000000,0.000000,4.000000,4.000000,4.000000,4.000000,4.000000,4.000000,0.000000,,,,,,,,,,,,,,,,,,,,,,,,,,,,
1732159186.569421,1732159186.572347,63.000000,0.000000,4282.307617,4271.666504,4314.487305,4299.358887,4289.230957,4289.230957,4336.282227,4406.922852,4301.666504,4290.384766,4491.538574,4507.692383,4336.282227,4412.307617,0.000000,1.000000,17.000000,,,,0.000000,2.000000,2.000000,0.000000,4.000000,2.000000,2.000000,0.000000,0.000000,4.000000,4.000000,4.000000,4.000000,4.000000,4.000000,0.000000,,,,,,,,,,,,,,,,,,,,,,,,,,,,
1732159186.577229,1732159186.580056,64.000000,0.000000,4281.025879,4273.846191,4314.102539,4301.538574,4272.692383,4296.666504,4335.641113,4404.102539,4304.743652,4289.230957,4490.256348,4506.666504,4330.512695,4411.025879,0.000000,1.000000,17.000000,,,,0.000000,2.000000,2.000000,0.000000,4.000000,2.000000,2.000000,0.000000,0.000000,4.000000,4.000000,4.000000,4.000000,4.000000,4.000000,0.000000,,,,,,,,,,,,,,,,,16.000000,0.000000,0.486368,0.466187,-0.554382,0.488647,0.985472,-0.096691,-0.042974,-36.044407,44.722755,31.175413
1732159186.585037,1732159186.587864,65.000000,0.000000,4283.333496,4268.846191,4318.589844,4297.820313,4275.000000,4297.948730,4333.974121,4406.538574,4297.563965,4280.512695,4488.974121,4507.436035,4327.436035,4411.410156,1621.000000,1.000000,17.000000,,,,0.000000,2.000000,2.000000,0.000000,4.000000,2.000000,2.000000,0.000000,0.000000,4.000000,4.000000,4.000000,4.000000,4.000000,4.000000,0.000000,,,,,,,,,,,,,,,,,,,,,,,,,,,,
1732159186.592846,1732159186.595472,66.000000,0.000000,4284.358887,4265.512695,4320.000000,4296.794922,4280.769043,4291.153809,4336.153809,4410.000000,4293.846191,4286.410156,4492.307617,4511.153809,4337.563965,4414.871582,1359.000000,1.000000,17.000000,,,,0.000000,2.000000,2.000000,0.000000,4.000000,2.000000,2.000000,0.000000,0.000000,4.000000,4.000000,4.000000,4.000000,4.000000,4.000000,0.000000,,,,,,,,,,,,,,,,,,,,,,,,,,,,
1732159186.600654,1732159186.603281,67.000000,0.000000,4283.205078,4268.974121,4316.794922,4298.974121,4279.358887,4283.205078,4338.974121,4408.974121,4301.666504,4298.077148,4494.230957,4518.717773,4341.922852,4415.384766,1434.000000,1.000000,17.000000,,,,0.000000,2.000000,2.000000,0.000000,4.000000,2.000000,2.000000,0.000000,0.000000,4.000000,4.000000,4.000000,4.000000,4.000000,4.000000,0.000000,,,,,,,,,,,,,,,,,,,,,,,,,,,,
1732159186.608462,1732159186.610989,68.000000,0.000000,4283.461426,4271.538574,4316.025879,4296.282227,4291.282227,4281.922852,4336.666504,4404.871582,4303.333496,4293.077148,4489.358887,4514.743652,4331.153809,4408.461426,1432.000000,1.000000,17.000000,,,,0.000000,2.000000,2.000000,0.000000,4.000000,2.000000,2.000000,0.000000,0.000000,4.000000,4.000000,4.000000,4.000000,4.000000,4.000000,0.000000,,,,,,,,,,,,,,,,,17.000000,0.000000,0.486259,0.466309,-0.554321,0.488708,0.985472,-0.096691,-0.042974,-36.447636,44.617100,31.047085
1732159186.616270,1732159186.618797,69.000000,0.000000,4284.102539,4272.307617,4317.692383,4296.025879,4293.461426,4288.974121,4333.589844,4403.077148,4295.128418,4283.205078,4486.025879,4505.384766,4328.205078,4403.333496,1195.000000,1.000000,17.000000,,,,0.000000,2.000000,2.000000,0.000000,4.000000,2.000000,2.000000,0.000000,0.000000,4.000000,4.000000,4.000000,4.000000,4.000000,4.000000,0.000000,,,,,,,,,,,,,,,,,,,,,,,,,,,,
1732159186.624079,1732159186.626406,70.000000,0.000000,4283.333496,4269.615234,4316.922852,4301.666504,4273.589844,4296.538574,4335.641113,4406.282227,4294.743652,4287.307617,4488.077148,4505.256348,4331.410156,4402.436035,0.000000,1.000000,17.000000,,,,0.000000,2.000000,2.000000,0.000000,4.000000,2.000000,2.000000,0.000000,0.000000,4.000000,4.000000,4.000000,4.000000,4.000000,4.000000,0.000000,,,,,,,,,,,,,,,,,,,,,,,,,,,,
1732159186.631887,1732159186.634214,71.000000,0.000000,4280.512695,4266.538574,4315.897461,4300.256348,4271.538574,4296.666504,4338.461426,4408.974121,4303.974121,4292.692383,4486.922852,4504.358887,4327.563965,4398.846191,0.000000,1.000000,17.000000,,,,0.000000,2.000000,2.000000,0.000000,4.000000,2.000000,2.000000,0.000000,0.000000,4.000000,4.000000,4.000000,4.000000,4.000000,4.000000,0.000000,,,,,,,,,,,,,,,,,,,,,,,,,,,,
1732159186.639695,1732159186.641922,72.000000,0.000000,4280.128418,4272.563965,4316.410156,4297.179688,4283.205078,4296.538574,4337.948730,4406.538574,4305.897461,4292.307617,4485.384766,4497.692383,4328.589844,4396.794922,1538.000000,1.000000,17.000000,,,,0.000000,2.000000,2.000000,0.000000,4.000000,2.000000,2.000000,0.000000,0.000000,4.000000,4.000000,4.000000,4.000000,4.000000,4.000000,0.000000,,,,,,,,,,,,,,,,,18.000000,0.000000,0.486075,0.466309,-0.554321,0.488892,0.972287,-0.088390,-0.040532,-36.670918,44.521519,30.969805
1732159186.647504,1732159186.649730,73.000000,0.000000,4282.692383,4274.615234,4317.436035,4299.102539,4283.077148,4297.563965,4335.897461,4405.128418,4299.358887,4292.692383,4488.846191,4500.000000,4335.384766,4400.897461,1706.000000,1.000000,17.000000,,,,0.000000,2.000000,2.000000,0.000000,4.000000,2.000000,2.000000,0.000000,0.000000,4.000000,4.000000,4.000000,4.000000,4.000000,4.000000,0.000000,,,,,,,,,,,,,,,,,,,,,,,,,,,,
1732159186.655312,1732159186.657339,74.000000,0.000000,4283.589844,4270.000000,4316.794922,4300.000000,4280.641113,4296.538574,4334.487305,4408.205078,4296.538574,4296.153809,4489.230957,4509.230957,4335.769043,4406.025879,1566.000000,1.000000,17.000000,,,,0.000000,2.000000,2.000000,0.000000,4.000000,2.000000,2.000000,0.000000,0.000000,4.000000,4.000000,4.000000,4.000000,4.000000,4.000000,0.000000,,,,,,,,,,,,,,,,,,,,,,,,,,,,
1732159186.663120,1732159186.665147,75.000000,0.000000,4282.563965,4268.077148,4316.666504,4297.948730,4293.077148,4293.589844,4337.563965,4410.256348,4295.769043,4296.922852,4482.307617,4509.871582,4332.179688,4403.974121,1549.000000,1.000000,17.000000,,,,0.000000,2.000000,2.000000,0.000000,4.000000,2.000000,2.000000,0.000000,0.000000,4.000000,4.000000,4.000000,4.000000,4.000000,4.000000,0.000000,,,,,,,,,,,,,,,,,,,,,,,,,,,,
1732159186.670928,1732159186.672855,76.000000,0.000000,4282.948730,4266.794922,4316.025879,4298.333496,4302.692383,4291.410156,4341.794922,4408.846191,4295.641113,4293.846191,4475.512695,4505.000000,4331.410156,4399.487305,1708.000000,1.000000,17.000000,,,,0.000000,2.000000,2.000000,0.000000,4.000000,2.000000,2.000000,0.000000,0.000000,4.000000,4.000000,4.000000,4.000000,4.000000,4.000000,0.000000,,,,,,,,,,,,,,,,,19.000000,0.000000,0.486025,0.466370,-0.554260,0.488953,0.965450,-0.081065,-0.056159,-36.851776,44.310760,30.907209
1732159186.678736,1732159186.680663,77.000000,0.000000,4283.333496,4265.641113,4314.743652,4300.641113,4289.487305,4293.077148,4340.000000,4408.589844,4297.820313,4295.000000,4476.153809,4505.256348,4328.974121,4401.282227,1536.000000,1.000000,17.000000,,,,0.000000,2.000000,2.000000,0.000000,4.000000,2.000000,2.000000,0.000000,0.000000,4.000000,4.000000,4.000000,4.000000,4.000000,4.000000,0.000000,,,,,,,,,,,,,,,,,,,,,,,,,,,,
1732159186.686545,1732159186.688272,78.000000,0.000000,4280.641113,4266.025879,4314.743652,4300.769043,4272.051270,4297.563965,4339.487305,4407.820313,4298.717773,4299.230957,4477.307617,4508.205078,4328.974121,4402.307617,1566.000000,1.000000,17.000000,,,,0.000000,2.000000,2.000000,0.000000,4.000000,2.000000,2.000000,0.000000,0.000000,4.000000,4.000000,4.000000,4.000000,4.000000,4.000000,0.000000,1.000000,0.000000,2.000000,2.000000,0.000000,4.000000,2.000000,2.000000,0.000000,0.000000,4.000000,4.000000,4.000000,4.000000,4.000000,4.000000,,,,,,,,,,,,
1732159186.694353,1732159186.696080,79.000000,0.000000,4276.538574,4263.589844,4318.846191,4297.948730,4278.589844,4300.384766,4342.179688,4402.948730,4295.769043,4299.102539,4474.743652,4505.897461,4332.692383,4397.307617,1549.000000,1.000000,17.000000,,,,0.000000,2.000000,2.000000,0.000000,4.000000,2.000000,2.000000,0.000000,0.000000,4.000000,4.000000,4.000000,4.000000,4.000000,4.000000,0.000000,,,,,,,,,,,,,,,,,,,,,,,,,,,,
1732159186.702161,1732159186.703788,80.000000,0.000000,4277.307617,4261.922852,4319.871582,4295.897461,4288.717773,4295.769043,4339.230957,4402.179688,4295.128418,4298.974121,4479.102539,4505.641113,4333.846191,4397.307617,1708.000000,1.000000,17.000000,,,,0.000000,2.000000,2.000000,0.000000,4.000000,2.000000,2.000000,0.000000,0.000000,4.000000,4.000000,4.000000,4.000000,4.000000,4.000000,0.000000,,,,,,,,,,,,,,,,,20.000000,0.000000,0.485866,0.466553,-0.554138,0.489075,0.985960,-0.085460,-0.044439,-36.689938,44.220051,30.671505
1732159186.709969,1732159186.711597,81.000000,0.000000,4279.487305,4265.000000,4316.794922,4295.000000,4284.487305,4290.641113,4334.871582,4407.051270,4300.897461,4301.410156,4486.922852,4508.589844,4335.256348,4400.128418,1536.000000,1.000000,17.000000,,,,0.000000,2.000000,2.000000,0.000000,4.000000,2.000000,2.000000,0.000000,0.000000,4.000000,4.000000,4.000000,4.000000,4.000000,4.000000,0.000000,,,,,,,,,,,,,,,,,,,,,,,,,,,,
1732159186.717778,1732159186.719605,82.000000,0.000000,4278.333496,4264.487305,4315.769043,4294.358887,4287.051270,4295.128418,4337.563965,4407.563965,4305.384766,4302.563965,4487.307617,4502.051270,4336.538574,4397.820313,1566.000000,1.000000,17.000000,,,,0.000000,2.000000,2.000000,0.000000,4.000000,2.000000,2.000000,0.000000,0.000000,4.000000,4.000000,4.000000,4.000000,4.000000,4.000000,0.000000,,,,,,,,,,,,,,,,,,,,,,,,,,,,
1732159186.725586,1732159186.727413,83.000000,0.000000,4278.461426,4263.717773,4317.948730,4296.025879,4287.820313,4301.153809,4340.512695,4405.384766,4302.820313,4302.179688,4483.333496,4496.025879,4332.948730,4398.077148,1549.000000,1.000000,17.000000,,,,0.000000,2.000000,2.000000,0.000000,4.000000,2.000000,2.000000,0.000000,0.000000,4.000000,4.000000,4.000000,4.000000,4.000000,4.000000,0.000000,,,,,,,,,,,,,,,,,,,,,,,,,,,,
1732159186.733394,1732159186.735321,84.000000,0.000000,4277.179688,4264.102539,4317.692383,4293.974121,4288.589844,4297.307617,4338.717773,4405.128418,4298.846191,4300.128418,4484.743652,4499.871582,4331.025879,4399.358887,1708.000000,1.000000,17.000000,,,,0.000000,2.000000,2.000000,0.000000,4.000000,2.000000,2.000000,0.000000,0.000000,4.000000,4.000000,4.000000,4.000000,4.000000,4.000000,0.000000,,,,,,,,,,,,,,,,,21.000000,0.000000,0.485837,0.466736,-0.553955,0.489136,0.973752,-0.083506,-0.034184,-36.780518,44.336575,30.607252
1732159186.741202,1732159186.743129,85.000000,0.000000,4272.179688,4263.333496,4315.256348,4292.179688,4302.307617,4291.282227,4337.820313,4405.897461,4297.820313,4296.666504,4488.205078,4501.538574,4337.692383,4397.051270,1536.000000,1.000000,17.000000,,,,0.000000,2.000000,2.000000,0.000000,4.000000,2.000000,2.000000,0.000000,0.000000,4.000000,4.000000,4.000000,4.000000,4.000000,4.000000,0.000000,,,,,,,,,,,,,,,,,,,,,,,,,,,,
1732159186.749011,1732159186.751137,86.000000,0.000000,4272.179688,4263.589844,4315.897461,4295.128418,4298.461426,4293.461426,4339.358887,4406.922852,4296.410156,4297.051270,4488.077148,4500.000000,4342.820313,4402.563965,1566.000000,1.000000,17.000000,,,,0.000000,2.000000,2.000000,0.000000,4.000000,2.000000,2.000000,0.000000,0.000000,4.000000,4.000000,4.000000,4.000000,4.000000,4.000000,0.000000,,,,,,,,,,,,,,,,,,,,,,,,,,,,
1732159186.756819,1732159186.758945,87.000000,0.000000,4278.974121,4265.384766,4317.436035,4297.820313,4276.025879,4295.769043,4341.794922,4409.871582,4295.897461,4300.256348,4487.563965,4508.974121,4339.615234,4411.922852,1549.000000,1.000000,17.000000,,,,0.000000,2.000000,2.000000,0.000000,4.000000,2.000000,2.000000,0.000000,0.000000,4.000000,4.000000,4.000000,4.000000,4.000000,4.000000,0.000000,,,,,,,,,,,,,,,,,,,,,,,,,,,,
1732159186.764627,1732159186.766853,88.000000,0.000000,4281.153809,4263.974121,4317.948730,4297.307617,4274.487305,4296.538574,4340.000000,4411.666504,4297.436035,4298.846191,4487.692383,4517.307617,4337.307617,4411.794922,1708.000000,1.000000,17.000000,,,,0.000000,2.000000,2.000000,0.000000,4.000000,2.000000,2.000000,0.000000,0.000000,4.000000,4.000000,4.000000,4.000000,4.000000,4.000000,0.000000,,,,,,,,,,,,,,,,,22.000000,0.000000,0.485222,0.466736,-0.553955,0.489746,0.981565,-0.088878,-0.053717,-36.445553,44.382626,30.653542
1732159186.772436,1732159186.774662,89.000000,0.000000,4278.974121,4263.205078,4317.436035,4296.153809,4285.384766,4298.461426,4334.871582,4407.692383,4297.051270,4299.102539,4490.128418,4510.512695,4340.897461,4410.000000,1536.000000,1.000000,17.000000,,,,0.000000,2.000000,2.000000,0.000000,4.000000,2.000000,2.000000,0.000000,0.000000,4.000000,4.000000,4.000000,4.000000,4.000000,4.000000,0.000000,,,,,,,,,,,,,,,,,,,,,,,,,,,,
1732159186.780244,1732159186.782670,90.000000,0.000000,4280.128418,4266.666504,4317.948730,4296.153809,4278.974121,4300.128418,4334.743652,4403.461426,4295.641113,4301.153809,4487.820313,4504.743652,4340.769043,4412.820313,1566.000000,1.000000,17.000000,,,,0.000000,2.000000,2.000000,0.000000,4.000000,2.000000,2.000000,0.000000,0.000000,4.000000,4.000000,4.000000,4.000000,4.000000,4.000000,0.000000,,,,,,,,,,,,,,,,,,,,,,,,,,,,
1732159186.788052,1732159186.790478,91.000000,0.000000,4281.410156,4266.410156,4318.077148,4297.563965,4287.179688,4295.897461,4336.922852,4404.230957,4296.153809,4297.179688,4477.436035,4507.563965,4332.948730,4407.436035,1549.000000,1.000000,17.000000,,,,0.000000,2.000000,2.000000,0.000000,4.000000,2.000000,2.000000,0.000000,0.000000,4.000000,4.000000,4.000000,4.000000,4.000000,4.000000,0.000000,,,,,,,,,,,,,,,,,,,,,,,,,,,,
1732159186.795860,1732159186.798386,92.000000,0.000000,4280.769043,4265.384766,4317.436035,4301.410156,4299.615234,4287.563965,4334.743652,4406.025879,4295.641113,4293.974121,4473.333496,4506.922852,4330.128418,4401.153809,1708.000000,1.000000,17.000000,,,,0.000000,2.000000,2.000000,0.000000,4.000000,2.000000,2.000000,0.000000,0.000000,4.000000,4.000000,4.000000,4.000000,4.000000,4.000000,0.000000,,,,,,,,,,,,,,,,,23.000000,0.000000,0.485421,0.466431,-0.554199,0.489563,0.982542,-0.081553,-0.051276,-36.367565,44.404926,30.884369
1732159186.803668,1732159186.806194,93.000000,0.000000,4280.256348,4268.974121,4317.307617,4302.436035,4283.333496,4287.436035,4334.102539,4404.871582,4293.461426,4298.205078,4482.948730,4505.128418,4336.153809,4408.077148,1536.000000,1.000000,17.000000,,,,0.000000,2.000000,2.000000,0.000000,4.000000,2.000000,2.000000,0.000000,0.000000,4.000000,4.000000,4.000000,4.000000,4.000000,4.000000,0.000000,,,,,,,,,,,,,,,,,,,,,,,,,,,,
1732159186.811477,1732159186.814202,94.000000,0.000000,4280.641113,4269.487305,4317.436035,4299.102539,4271.025879,4292.563965,4339.230957,4403.974121,4293.461426,4300.000000,4491.282227,4512.307617,4338.589844,4413.974121,1566.000000,1.000000,17.000000,,,,0.000000,2.000000,2.000000,0.000000,4.000000,2.000000,2.000000,0.000000,0.000000,4.000000,4.000000,4.000000,4.000000,4.000000,4.000000,0.000000,,,,,,,,,,,,,,,,,,,,,,,,,,,,
1732159186.819285,1732159186.822010,95.000000,0.000000,4281.025879,4265.769043,4317.307617,4301.282227,4279.102539,4290.769043,4339.743652,4403.974121,4293.333496,4294.230957,4489.230957,4516.282227,4337.948730,4408.589844,1549.000000,1.000000,17.000000,,,,0.000000,2.000000,2.000000,0.000000,4.000000,2.000000,2.000000,0.000000,0.000000,4.000000,4.000000,4.000000,4.000000,4.000000,4.000000,0.000000,,,,,,,,,,,,,,,,,,,,,,,,,,,,
1732159186.827093,1732159186.829918,96.000000,0.000000,4281.282227,4264.487305,4317.436035,4305.000000,4283.461426,4288.205078,4335.000000,4403.846191,4293.077148,4294.487305,4484.871582,4514.615234,4338.974121,4406.666504,1708.000000,1.000000,17.000000,,,,0.000000,2.000000,2.000000,0.000000,4.000000,2.000000,2.000000,0.000000,0.000000,4.000000,4.000000,4.000000,4.000000,4.000000,4.000000,0.000000,,,,,,,,,,,,,,,,,24.000000,0.000000,0.485511,0.466248,-0.554382,0.489441,0.975217,-0.099133,-0.046392,-36.364395,44.392990,31.056339
1732159186.834901,1732159186.837727,97.000000,0.000000,4281.922852,4263.846191,4317.179688,4299.743652,4281.538574,4292.948730,4334.487305,4403.461426,4294.615234,4297.820313,4479.871582,4515.769043,4337.179688,4409.230957,1536.000000,1.000000,17.000000,,,,0.000000,2.000000,2.000000,0.000000,4.000000,2.000000,2.000000,0.000000,0.000000,4.000000,4.000000,4.000000,4.000000,4.000000,4.000000,0.000000,,,,,,,,,,,,,,,,,,,,,,,,,,,,
1732159186.842710,1732159186.845735,98.000000,0.000000,4282.179688,4263.846191,4316.922852,4293.589844,4284.358887,4294.615234,4335.769043,4405.000000,4295.897461,4295.897461,4479.358887,4513.205078,4335.769043,4409.871582,1566.000000,1.000000,17.000000,,,,0.000000,2.000000,2.000000,0.000000,4.000000,2.000000,2.000000,0.000000,0.000000,4.000000,4.000000,4.000000,4.000000,4.000000,4.000000,0.000000,,,,,,,,,,,,,,,,,,,,,,,,,,,,
1732159186.850518,1732159186.853543,99.000000,0.000000,4282.436035,4266.922852,4317.051270,4297.948730,4286.922852,4292.307617,4335.128418,4408.205078,4297.051270,4296.025879,4486.282227,4507.820313,4335.897461,4408.846191,1549.000000,1.000000,17.000000,,,,0.000000,2.000000,2.000000,0.000000,4.000000,2.000000,2.000000,0.000000,0.000000,4.000000,4.000000,4.000000,4.000000,4.000000,4.000000,0.000000,,,,,,,,,,,,,,,,,,,,,,,,,,,,
1732159186.858326,1732159186.861451,100.000000,0.000000,4281.153809,4266.922852,4317.820313,4301.282227,4299.487305,4293.205078,4335.000000,4408.717773,4297.051270,4297.436035,4487.820313,4507.563965,4333.589844,4408.461426,1708.000000,1.000000,17.000000,,,,0.000000,2.000000,2.000000,0.000000,4.000000,2.000000,2.000000,0.000000,0.000000,4.000000,4.000000,4.000000,4.000000,4.000000,4.000000,0.000000,,,,,,,,,,,,,,,,,25.000000,0.000000,0.485228,0.466431,-0.554260,0.489685,0.969845,-0.075693,-0.053229,-36.423492,44.516655,30.987301
1732159186.866135,1732159186.869259,101.000000,0.000000,4280.128418,4263.974121,4317.307617,4295.641113,4306.282227,4295.384766,4335.641113,4406.666504,4294.871582,4294.230957,4480.769043,4509.358887,4332.948730,4409.102539,1536.000000,1.000000,17.000000,,,,0.000000,2.000000,2.000000,0.000000,4.000000,2.000000,2.000000,0.000000,0.000000,4.000000,4.000000,4.000000,4.000000,4.000000,4.000000,0.000000,,,,,,,,,,,,,,,,,,,,,,,,,,,,
1732159186.873943,1732159186.877267,102.000000,0.000000,4279.615234,4262.948730,4315.897461,4293.205078,4281.410156,4292.820313,4335.256348,4404.871582,4294.102539,4293.846191,4477.051270,4505.769043,4334.230957,4406.410156,1566.000000,1.000000,17.000000,,,,0.000000,2.000000,2.000000,0.000000,4.000000,2.000000,2.000000,0.000000,0.000000,4.000000,4.000000,4.000000,4.000000,4.000000,4.000000,0.000000,,,,,,,,,,,,,,,,,,,,,,,,,,,,
1732159186.881751,1732159186.885075,103.000000,0.000000,4278.333496,4262.692383,4316.025879,4294.871582,4260.769043,4289.743652,4334.615234,4405.000000,4295.769043,4298.846191,4482.179688,4503.846191,4335.769043,4401.025879,1549.000000,1.000000,17.000000,,,,0.000000,2.000000,2.000000,0.000000,4.000000,2.000000,2.000000,0.000000,0.000000,4.000000,4.000000,4.000000,4.000000,4.000000,4.000000,0.000000,,,,,,,,,,,,,,,,,,,,,,,,,,,,
1732159186.889559,1732159186.892784,104.000000,0.000000,4276.538574,4263.589844,4316.666504,4294.230957,4272.307617,4288.205078,4336.538574,4403.077148,4297.179688,4299.871582,4489.615234,4505.641113,4338.205078,4401.153809,1708.000000,1.000000,17.000000,,,,0.000000,2.000000,2.000000,0.000000,4.000000,2.000000,2.000000,0.000000,0.000000,4.000000,4.000000,4.000000,4.000000,4.000000,4.000000,0.000000,,,,,,,,,,,,,,,,,26.000000,0.000000,0.485329,0.466309,-0.554382,0.489563,0.988890,-0.094738,-0.051764,-36.261360,44.543491,30.999714
1732159186.897368,1732159186.900592,105.000000,0.000000,4277.179688,4265.384766,4315.512695,4291.025879,4284.487305,4285.512695,4337.820313,4400.000000,4297.692383,4299.102539,4490.000000,4505.128418,4339.358887,4403.589844,1536.000000,1.000000,17.000000,,,,0.000000,2.000000,2.000000,0.000000,4.000000,2.000000,2.000000,0.000000,0.000000,4.000000,4.000000,4.000000,4.000000,4.000000,4.000000,0.000000,,,,,,,,,,,,,,,,,,,,,,,,,,,,
1732159186.905176,1732159186.908200,106.000000,0.000000,4280.128418,4266.153809,4312.820313,4291.922852,4275.641113,4287.820313,4337.179688,4400.641113,4296.794922,4298.589844,4481.666504,4501.666504,4338.333496,4399.743652,1566.000000,1.000000,17.000000,,,,0.000000,2.000000,2.000000,0.000000,4.000000,2.000000,2.000000,0.000000,0.000000,4.000000,4.000000,4.000000,4.000000,4.000000,4.000000,0.000000,,,,,,,,,,,,,,,,,,,,,,,,,,,,
1732159186.912984,1732159186.916009,107.000000,0.000000,4280.641113,4265.256348,4313.333496,4294.230957,4281.282227,4287.820313,4338.589844,4404.871582,4291.922852,4290.128418,4474.102539,4498.461426,4334.871582,4396.410156,1549.000000,1.000000,17.000000,,,,0.000000,2.000000,2.000000,0.000000,4.000000,2.000000,2.000000,0.000000,0.000000,4.000000,4.000000,4.000000,4.000000,4.000000,4.000000,0.000000,,,,,,,,,,,,,,,,,,,,,,,,,,,,
1732159186.920792,1732159186.923717,108.000000,0.000000,4277.563965,4265.384766,4314.230957,4293.717773,4299.615234,4281.153809,4339.743652,4406.410156,4290.000000,4281.025879,4474.487305,4497.948730,4331.282227,4399.743652,1708.000000,1.000000,17.000000,,,,0.000000,2.000000,2.000000,0.000000,4.000000,2.000000,2.000000,0.000000,0.000000,4.000000,4.000000,4.000000,4.000000,4.000000,4.000000,0.000000,,,,,,,,,,,,,,,,,27.000000,0.000000,0.485329,0.466309,-0.554382,0.489563,0.975705,-0.089366,-0.046392,-36.100037,44.550228,31.129768
1732159186.928601,1732159186.931525,109.000000,0.000000,4276.025879,4265.128418,4315.512695,4293.333496,4288.974121,4282.563965,4338.846191,4406.794922,4294.487305,4283.717773,4474.230957,4499.102539,4329.743652,4402.436035,1536.000000,1.000000,17.000000,,,,0.000000,2.000000,2.000000,0.000000,4.000000,2.000000,2.000000,0.000000,0.000000,4.000000,4.000000,4.000000,4.000000,4.000000,4.000000,0.000000,,,,,,,,,,,,,,,,,,,,,,,,,,,,
