title:4zero, start timestamp:1732159232.778622, stop timestamp:1732159281.002401, headset type:EPOCX, headset serial:E5020C3A, headset firmware:730, channels:67, sampling rate:eeg_128;mot_32, samples:6177      , version:2.2, 
Timestamp,OriginalTimestamp,EEG.Counter,EEG.Interpolated,EEG.AF3,EEG.F7,EEG.F3,EEG.FC5,EEG.T7,EEG.P7,EEG.O1,EEG.O2,EEG.P8,EEG.T8,EEG.FC6,EEG.F4,EEG.F8,EEG.AF4,EEG.RawCq,EEG.Battery,EEG.BatteryPercent,MarkerIndex,MarkerType,MarkerValueInt,EEG.MarkerHardware,CQ.AF3,CQ.F7,CQ.F3,CQ.FC5,CQ.T7,CQ.P7,CQ.O1,CQ.O2,CQ.P8,CQ.T8,CQ.FC6,CQ.F4,CQ.F8,CQ.AF4,CQ.Overall,EQ.SampleRateQuality,EQ.OVERALL,EQ.AF3,EQ.F7,EQ.F3,EQ.FC5,EQ.T7,EQ.P7,EQ.O1,EQ.O2,EQ.P8,EQ.T8,EQ.FC6,EQ.F4,EQ.F8,EQ.AF4,MOT.CounterMems,MOT.InterpolatedMems,MOT.Q0,MOT.Q1,MOT.Q2,MOT.Q3,MOT.AccX,MOT.AccY,MOT.AccZ,MOT.MagX,MOT.MagY,MOT.MagZ
1732159232.778622,1732159232.781425,93.000000,0.000000,4286.410156,4264.102539,4313.846191,4290.384766,4297.692383,4295.384766,4335.769043,4401.538574,4300.000000,4280.769043,4493.974121,4514.615234,4333.717773,4411.282227,1538.000000,1.000000,17.000000,,,,0.000000,2.000000,2.000000,0.000000,4.000000,2.000000,2.000000,0.000000,0.000000,4.000000,4.000000,4.000000,4.000000,4.000000,4.000000,0.000000,,,,,,,,,,,,,,,,,,,,,,,,,,,,
1732159232.786430,1732159232.789433,94.000000,0.000000,4287.307617,4267.051270,4313.846191,4294.871582,4294.102539,4294.102539,4336.025879,4401.666504,4297.051270,4276.666504,4495.384766,4515.000000,4336.025879,4411.922852,1574.000000,1.000000,17.000000,,,,0.000000,2.000000,2.000000,0.000000,4.000000,2.000000,2.000000,0.000000,0.000000,4.000000,4.000000,4.000000,4.000000,4.000000,4.000000,0.000000,,,,,,,,,,,,,,,,,,,,,,,,,,,,
1732159232.794238,1732159232.797241,95.000000,0.000000,4285.512695,4265.000000,4313.077148,4293.333496,4294.743652,4293.461426,4335.641113,4400.384766,4306.153809,4277.948730,4494.871582,4514.743652,4340.641113,4412.948730,1548.000000,1.000000,17.000000,,,,0.000000,2.000000,2.000000,0.000000,4.000000,2.000000,2.000000,0.000000,0.000000,4.000000,4.000000,4.000000,4.000000,4.000000,4.000000,0.000000,,,,,,,,,,,,,,,,,,,,,,,,,,,,
1732159232.802046,1732159232.805149,96.000000,0.000000,4288.589844,4263.589844,4313.461426,4288.846191,4282.051270,4292.692383,4335.897461,4401.282227,4308.205078,4282.051270,4496.922852,4515.256348,4341.666504,4411.794922,1720.000000,1.000000,17.000000,,,,0.000000,2.000000,2.000000,0.000000,4.000000,2.000000,2.000000,0.000000,0.000000,4.000000,4.000000,4.000000,4.000000,4.000000,4.000000,0.000000,,,,,,,,,,,,,,,,,24.000000,0.000000,0.509515,0.514832,-0.508118,0.466003,0.956660,0.060066,-0.048834,-34.893036,46.197712,30.300928
1732159232.809855,1732159232.812958,97.000000,0.000000,4295.512695,4265.641113,4312.563965,4291.282227,4272.692383,4293.333496,4335.897461,4401.666504,4296.410156,4275.512695,4502.563965,4514.487305,4342.948730,4415.000000,1538.000000,1.000000,17.000000,,,,0.000000,2.000000,2.000000,0.000000,4.000000,2.000000,2.000000,0.000000,0.000000,4.000000,4.000000,4.000000,4.000000,4.000000,4.000000,0.000000,,,,,,,,,,,,,,,,,,,,,,,,,,,,
1732159232.817663,1732159232.820966,98.000000,0.000000,4295.128418,4266.794922,4312.436035,4295.512695,4268.846191,4294.871582,4335.769043,4400.641113,4295.897461,4267.179688,4504.871582,4520.128418,4343.717773,4423.717773,1574.000000,1.000000,17.000000,,,,0.000000,2.000000,2.000000,0.000000,4.000000,2.000000,2.000000,0.000000,0.000000,4.000000,4.000000,4.000000,4.000000,4.000000,4.000000,0.000000,,,,,,,,,,,,,,,,,,,,,,,,,,,,
1732159232.825471,1732159232.828774,99.000000,0.000000,4292.820313,4265.256348,4313.205078,4294.615234,4261.922852,4295.256348,4336.025879,4400.512695,4305.641113,4271.282227,4505.000000,4526.153809,4342.307617,4421.282227,1548.000000,1.000000,17.000000,,,,0.000000,2.000000,2.000000,0.000000,4.000000,2.000000,2.000000,0.000000,0.000000,4.000000,4.000000,4.000000,4.000000,4.000000,4.000000,0.000000,,,,,,,,,,,,,,,,,,,,,,,,,,,,
1732159232.833279,1732159232.836682,100.000000,0.000000,4292.436035,4263.205078,4314.615234,4292.051270,4261.794922,4296.025879,4335.769043,4401.410156,4311.153809,4280.769043,4503.974121,4523.974121,4343.205078,4412.436035,1720.000000,1.000000,17.000000,,,,0.000000,2.000000,2.000000,0.000000,4.000000,2.000000,2.000000,0.000000,0.000000,4.000000,4.000000,4.000000,4.000000,4.000000,4.000000,0.000000,,,,,,,,,,,,,,,,,25.000000,0.000000,0.509515,0.514832,-0.508118,0.466003,0.956660,0.060066,-0.048834,-34.953358,46.011814,30.313751
1732159232.841088,1732159232.844490,101.000000,0.000000,4290.897461,4262.051270,4315.128418,4293.461426,4261.666504,4297.436035,4335.641113,4401.538574,4311.153809,4279.487305,4497.179688,4521.666504,4342.436035,4413.205078,1538.000000,1.000000,17.000000,,,,0.000000,2.000000,2.000000,0.000000,4.000000,2.000000,2.000000,0.000000,0.000000,4.000000,4.000000,4.000000,4.000000,4.000000,4.000000,0.000000,,,,,,,,,,,,,,,,,,,,,,,,,,,,
1732159232.848896,1732159232.852498,102.000000,0.000000,4292.436035,4262.692383,4314.230957,4295.769043,4254.871582,4298.461426,4336.410156,4401.282227,4302.563965,4271.282227,4491.794922,4521.794922,4335.000000,4415.897461,1574.000000,1.000000,17.000000,,,,0.000000,2.000000,2.000000,0.000000,4.000000,2.000000,2.000000,0.000000,0.000000,4.000000,4.000000,4.000000,4.000000,4.000000,4.000000,0.000000,,,,,,,,,,,,,,,,,,,,,,,,,,,,
1732159232.856704,1732159232.860306,103.000000,0.000000,4295.769043,4264.102539,4313.717773,4295.769043,4248.333496,4300.641113,4336.666504,4401.410156,4297.179688,4263.717773,4494.230957,4517.179688,4334.102539,4413.717773,1548.000000,1.000000,17.000000,,,,0.000000,2.000000,2.000000,0.000000,4.000000,2.000000,2.000000,0.000000,0.000000,4.000000,4.000000,4.000000,4.000000,4.000000,4.000000,0.000000,,,,,,,,,,,,,,,,,,,,,,,,,,,,
1732159232.864512,1732159232.868214,104.000000,0.000000,4292.179688,4263.077148,4314.615234,4296.025879,4247.820313,4300.384766,4335.384766,4401.666504,4302.948730,4263.717773,4492.051270,4511.794922,4336.153809,4411.153809,1720.000000,1.000000,17.000000,,,,0.000000,2.000000,2.000000,0.000000,4.000000,2.000000,2.000000,0.000000,0.000000,4.000000,4.000000,4.000000,4.000000,4.000000,4.000000,0.000000,,,,,,,,,,,,,,,,,26.000000,0.000000,0.509855,0.513367,-0.508362,0.466980,0.989867,0.088390,-0.029300,-34.860554,45.997902,30.274137
1732159232.872321,1732159232.876023,105.000000,0.000000,4286.538574,4262.563965,4314.615234,4294.102539,4252.051270,4297.307617,4334.615234,4400.641113,4303.974121,4275.128418,4486.153809,4511.666504,4325.128418,4409.102539,1538.000000,1.000000,17.000000,,,,0.000000,2.000000,2.000000,0.000000,4.000000,2.000000,2.000000,0.000000,0.000000,4.000000,4.000000,4.000000,4.000000,4.000000,4.000000,0.000000,,,,,,,,,,,,,,,,,,,,,,,,,,,,
1732159232.880129,1732159232.884031,106.000000,0.000000,4286.922852,4265.128418,4313.077148,4294.102539,4249.230957,4297.948730,4335.128418,4401.410156,4302.307617,4278.846191,4491.153809,4515.897461,4321.922852,4410.769043,1574.000000,1.000000,17.000000,,,,0.000000,2.000000,2.000000,0.000000,4.000000,2.000000,2.000000,0.000000,0.000000,4.000000,4.000000,4.000000,4.000000,4.000000,4.000000,0.000000,,,,,,,,,,,,,,,,,,,,,,,,,,,,
1732159232.887937,1732159232.891839,107.000000,0.000000,4287.436035,4265.641113,4312.692383,4294.487305,4249.102539,4298.461426,4335.000000,4402.820313,4303.461426,4266.922852,4496.538574,4516.025879,4335.256348,4414.487305,1548.000000,1.000000,17.000000,,,,0.000000,2.000000,2.000000,0.000000,4.000000,2.000000,2.000000,0.000000,0.000000,4.000000,4.000000,4.000000,4.000000,4.000000,4.000000,0.000000,,,,,,,,,,,,,,,,,,,,,,,,,,,,
1732159232.895745,1732159232.899547,108.000000,0.000000,4285.641113,4263.461426,4313.846191,4291.282227,4265.897461,4294.358887,4334.615234,4400.897461,4302.051270,4261.794922,4490.000000,4512.307617,4340.641113,4412.820313,1720.000000,1.000000,17.000000,,,,0.000000,2.000000,2.000000,0.000000,4.000000,2.000000,2.000000,0.000000,0.000000,4.000000,4.000000,4.000000,4.000000,4.000000,4.000000,0.000000,,,,,,,,,,,,,,,,,27.000000,0.000000,0.509869,0.512939,-0.508667,0.467102,0.982053,0.100598,-0.048346,-34.798714,46.228302,30.283718
1732159232.903554,1732159232.907355,109.000000,0.000000,4288.974121,4264.102539,4311.025879,4292.051270,4265.769043,4293.333496,4336.025879,4398.461426,4305.000000,4268.974121,4491.410156,4514.871582,4336.410156,4411.666504,1538.000000,1.000000,17.000000,,,,0.000000,2.000000,2.000000,0.000000,4.000000,2.000000,2.000000,0.000000,0.000000,4.000000,4.000000,4.000000,4.000000,4.000000,4.000000,0.000000,,,,,,,,,,,,,,,,,,,,,,,,,,,,
1732159232.911362,1732159232.914964,110.000000,0.000000,4294.487305,4265.000000,4309.743652,4297.563965,4238.974121,4296.666504,4337.179688,4400.256348,4312.563965,4271.922852,4503.461426,4521.922852,4338.717773,4417.307617,1574.000000,1.000000,17.000000,,,,0.000000,2.000000,2.000000,0.000000,4.000000,2.000000,2.000000,0.000000,0.000000,4.000000,4.000000,4.000000,4.000000,4.000000,4.000000,0.000000,,,,,,,,,,,,,,,,,,,,,,,,,,,,
1732159232.919170,1732159232.922772,111.000000,0.000000,4293.205078,4266.794922,4311.922852,4299.615234,4226.922852,4297.948730,4336.282227,4403.461426,4312.436035,4265.897461,4502.692383,4524.230957,4344.743652,4418.589844,1548.000000,1.000000,17.000000,,,,0.000000,2.000000,2.000000,0.000000,4.000000,2.000000,2.000000,0.000000,0.000000,4.000000,4.000000,4.000000,4.000000,4.000000,4.000000,0.000000,,,,,,,,,,,,,,,,,,,,,,,,,,,,
1732159232.926978,1732159232.930480,112.000000,0.000000,4291.666504,4273.205078,4312.436035,4298.077148,4235.641113,4297.307617,4337.179688,4402.563965,4307.948730,4260.769043,4490.000000,4520.897461,4345.384766,4416.282227,1720.000000,1.000000,17.000000,,,,0.000000,2.000000,2.000000,0.000000,4.000000,2.000000,2.000000,0.000000,0.000000,4.000000,4.000000,4.000000,4.000000,4.000000,4.000000,0.000000,,,,,,,,,,,,,,,,,28.000000,0.000000,0.509802,0.513062,-0.508667,0.467041,0.982053,0.100598,-0.048346,-35.121960,46.501591,30.261478
1732159232.934787,1732159232.938288,113.000000,0.000000,4296.538574,4280.128418,4309.358887,4303.846191,4235.128418,4297.051270,4336.410156,4400.512695,4310.000000,4262.692383,4490.512695,4521.666504,4347.307617,4420.128418,1538.000000,1.000000,17.000000,,,,0.000000,2.000000,2.000000,0.000000,4.000000,2.000000,2.000000,0.000000,0.000000,4.000000,4.000000,4.000000,4.000000,4.000000,4.000000,0.000000,,,,,,,,,,,,,,,,,,,,,,,,,,,,
1732159232.942595,1732159232.945897,114.000000,0.000000,4298.333496,4280.769043,4308.717773,4307.436035,4229.615234,4297.820313,4331.282227,4400.000000,4313.077148,4266.538574,4503.077148,4522.692383,4349.743652,4422.820313,1574.000000,1.000000,17.000000,,,,0.000000,2.000000,2.000000,0.000000,4.000000,2.000000,2.000000,0.000000,0.000000,4.000000,4.000000,4.000000,4.000000,4.000000,4.000000,0.000000,,,,,,,,,,,,,,,,,,,,,,,,,,,,
1732159232.950403,1732159232.953705,115.000000,0.000000,4294.871582,4278.461426,4306.153809,4301.282227,4232.820313,4297.948730,4326.282227,4400.384766,4307.692383,4257.307617,4504.615234,4523.205078,4351.538574,4418.589844,1548.000000,1.000000,17.000000,,,,0.000000,2.000000,2.000000,0.000000,4.000000,2.000000,2.000000,0.000000,0.000000,4.000000,4.000000,4.000000,4.000000,4.000000,4.000000,0.000000,,,,,,,,,,,,,,,,,,,,,,,,,,,,
1732159232.958212,1732159232.961413,116.000000,0.000000,4293.974121,4279.615234,4302.051270,4301.794922,4233.846191,4296.282227,4327.563965,4399.102539,4300.512695,4246.025879,4499.102539,4524.871582,4354.230957,4419.102539,1720.000000,1.000000,17.000000,,,,0.000000,2.000000,2.000000,0.000000,4.000000,2.000000,2.000000,0.000000,0.000000,4.000000,4.000000,4.000000,4.000000,4.000000,4.000000,0.000000,,,,,,,,,,,,,,,,,29.000000,0.000000,0.507777,0.512695,-0.510498,0.467651,0.974240,0.034184,-0.051764,-35.087120,46.426289,30.236797
1732159232.966020,1732159232.969222,117.000000,0.000000,4296.794922,4282.307617,4302.307617,4310.897461,4228.461426,4294.487305,4332.692383,4396.794922,4300.384766,4246.794922,4501.666504,4522.307617,4356.025879,4425.384766,1538.000000,1.000000,17.000000,,,,0.000000,2.000000,2.000000,0.000000,4.000000,2.000000,2.000000,0.000000,0.000000,4.000000,4.000000,4.000000,4.000000,4.000000,4.000000,0.000000,,,,,,,,,,,,,,,,,,,,,,,,,,,,
1732159232.973828,1732159232.976830,118.000000,0.000000,4298.461426,4282.563965,4302.692383,4312.307617,4225.000000,4294.615234,4334.743652,4398.717773,4306.410156,4250.897461,4507.948730,4523.717773,4356.153809,4427.820313,1574.000000,1.000000,17.000000,,,,0.000000,2.000000,2.000000,0.000000,4.000000,2.000000,2.000000,0.000000,0.000000,4.000000,4.000000,4.000000,4.000000,4.000000,4.000000,0.000000,,,,,,,,,,,,,,,,,,,,,,,,,,,,
1732159232.981636,1732159232.984638,119.000000,0.000000,4296.538574,4279.615234,4304.102539,4305.897461,4226.153809,4295.384766,4334.102539,4400.897461,4311.410156,4250.384766,4510.384766,4531.410156,4355.897461,4428.846191,1548.000000,1.000000,17.000000,,,,0.000000,2.000000,2.000000,0.000000,4.000000,2.000000,2.000000,0.000000,0.000000,4.000000,4.000000,4.000000,4.000000,4.000000,4.000000,0.000000,,,,,,,,,,,,,,,,,,,,,,,,,,,,
1732159232.989444,1732159232.992546,120.000000,0.000000,4295.641113,4278.846191,4306.410156,4306.153809,4220.256348,4295.512695,4334.615234,4399.230957,4312.051270,4248.717773,4509.743652,4533.846191,4357.563965,4428.974121,1720.000000,1.000000,17.000000,,,,0.000000,2.000000,2.000000,0.000000,4.000000,2.000000,2.000000,0.000000,0.000000,4.000000,4.000000,4.000000,4.000000,4.000000,4.000000,0.000000,,,,,,,,,,,,,,,,,30.000000,0.000000,0.506589,0.511230,-0.512695,0.468140,0.960078,0.035649,-0.060554,-35.058903,46.415295,30.350140
1732159232.997253,1732159233.000355,121.000000,0.000000,4300.384766,4280.128418,4305.641113,4309.230957,4215.897461,4292.179688,4336.025879,4400.000000,4306.794922,4248.717773,4508.205078,4531.153809,4357.436035,4428.717773,1538.000000,1.000000,17.000000,,,,0.000000,2.000000,2.000000,0.000000,4.000000,2.000000,2.000000,0.000000,0.000000,4.000000,4.000000,4.000000,4.000000,4.000000,4.000000,0.000000,,,,,,,,,,,,,,,,,,,,,,,,,,,,
1732159233.005061,1732159233.007963,122.000000,0.000000,4307.692383,4281.666504,4304.871582,4308.333496,4229.487305,4284.487305,4335.769043,4402.179688,4305.000000,4250.256348,4513.077148,4532.948730,4360.641113,4434.743652,1574.000000,1.000000,17.000000,,,,0.000000,2.000000,2.000000,0.000000,4.000000,2.000000,2.000000,0.000000,0.000000,4.000000,4.000000,4.000000,4.000000,4.000000,4.000000,0.000000,,,,,,,,,,,,,,,,,,,,,,,,,,,,
1732159233.012869,1732159233.015771,123.000000,0.000000,4311.538574,4284.102539,4309.871582,4308.717773,4227.051270,4278.333496,4335.641113,4401.282227,4309.871582,4251.025879,4520.128418,4535.256348,4365.512695,4438.077148,1548.000000,1.000000,17.000000,,,,0.000000,2.000000,2.000000,0.000000,4.000000,2.000000,2.000000,0.000000,0.000000,4.000000,4.000000,4.000000,4.000000,4.000000,4.000000,0.000000,,,,,,,,,,,,,,,,,,,,,,,,,,,,
1732159233.020677,1732159233.023480,124.000000,0.000000,4310.000000,4288.846191,4312.051270,4311.538574,4200.769043,4283.589844,4336.153809,4401.282227,4310.384766,4247.948730,4513.205078,4528.974121,4361.282227,4431.666504,1720.000000,1.000000,17.000000,,,,0.000000,2.000000,2.000000,0.000000,4.000000,2.000000,2.000000,0.000000,0.000000,4.000000,4.000000,4.000000,4.000000,4.000000,4.000000,0.000000,,,,,,,,,,,,,,,,,31.000000,0.000000,0.505942,0.510376,-0.513794,0.468567,0.973263,0.018557,-0.062508,-35.206043,46.431389,30.188614
1732159233.028486,1732159233.031288,125.000000,0.000000,4306.922852,4291.153809,4311.538574,4312.179688,4194.102539,4292.179688,4335.641113,4405.000000,4310.897461,4248.461426,4505.256348,4525.512695,4355.769043,4433.205078,1538.000000,1.000000,17.000000,,,,0.000000,2.000000,2.000000,0.000000,4.000000,2.000000,2.000000,0.000000,0.000000,4.000000,4.000000,4.000000,4.000000,4.000000,4.000000,0.000000,,,,,,,,,,,,,,,,,,,,,,,,,,,,
1732159233.036294,1732159233.038896,126.000000,0.000000,4307.948730,4291.410156,4313.846191,4309.358887,4204.230957,4287.948730,4335.769043,4404.615234,4312.307617,4251.153809,4509.871582,4526.410156,4360.000000,4441.666504,1574.000000,1.000000,17.000000,,,,0.000000,2.000000,2.000000,0.000000,4.000000,2.000000,2.000000,0.000000,0.000000,4.000000,4.000000,4.000000,4.000000,4.000000,4.000000,0.000000,,,,,,,,,,,,,,,,,,,,,,,,,,,,
1732159233.044102,1732159233.046704,127.000000,0.000000,4309.230957,4294.358887,4315.897461,4310.897461,4202.692383,4281.282227,4336.282227,4401.666504,4307.436035,4247.820313,4511.282227,4524.230957,4364.871582,4438.077148,17.000000,1.000000,17.000000,,,,0.000000,2.000000,2.000000,0.000000,4.000000,2.000000,2.000000,0.000000,0.000000,4.000000,4.000000,4.000000,4.000000,4.000000,4.000000,0.000000,,,,,,,,,,,,,,,,,,,,,,,,,,,,
1732159233.051911,1732159233.054612,0.000000,0.000000,4309.230957,4296.922852,4314.358887,4314.230957,4204.358887,4282.563965,4335.256348,4400.769043,4307.051270,4246.025879,4506.922852,4522.051270,4366.410156,4435.000000,0.000000,1.000000,17.000000,,,,0.000000,2.000000,2.000000,0.000000,4.000000,2.000000,2.000000,0.000000,0.000000,4.000000,4.000000,4.000000,4.000000,4.000000,4.000000,0.000000,,,,,,,,,,,,,,,,,0.000000,0.000000,0.504264,0.506287,-0.518188,0.469971,0.979612,0.011232,-0.059089,-35.103561,46.254425,30.247776
1732159233.059719,1732159233.062421,1.000000,0.000000,4310.897461,4296.410156,4313.717773,4311.153809,4210.000000,4283.589844,4335.897461,4399.615234,4310.384766,4246.410156,4508.333496,4525.769043,4365.897461,4443.333496,1624.000000,1.000000,17.000000,,,,0.000000,2.000000,2.000000,0.000000,4.000000,2.000000,2.000000,0.000000,0.000000,4.000000,4.000000,4.000000,4.000000,4.000000,4.000000,0.000000,,,,,,,,,,,,,,,,,,,,,,,,,,,,
1732159233.067527,1732159233.070029,2.000000,0.000000,4311.410156,4298.077148,4317.820313,4310.769043,4207.307617,4282.307617,4338.461426,4400.512695,4304.102539,4237.051270,4506.153809,4530.000000,4354.230957,4443.974121,1361.000000,1.000000,17.000000,,,,0.000000,2.000000,2.000000,0.000000,4.000000,2.000000,2.000000,0.000000,0.000000,4.000000,4.000000,4.000000,4.000000,4.000000,4.000000,0.000000,,,,,,,,,,,,,,,,,,,,,,,,,,,,
1732159233.075335,1732159233.077837,3.000000,0.000000,4308.717773,4297.179688,4320.897461,4310.897461,4209.102539,4283.974121,4337.563965,4403.205078,4298.846191,4231.410156,4501.666504,4527.179688,4347.563965,4437.307617,1439.000000,1.000000,17.000000,,,,0.000000,2.000000,2.000000,0.000000,4.000000,2.000000,2.000000,0.000000,0.000000,4.000000,4.000000,4.000000,4.000000,4.000000,4.000000,0.000000,,,,,,,,,,,,,,,,,,,,,,,,,,,,
1732159233.083144,1732159233.085546,4.000000,0.000000,4310.769043,4295.897461,4318.846191,4303.846191,4210.512695,4282.307617,4335.384766,4401.282227,4300.000000,4241.025879,4504.230957,4525.641113,4359.358887,4442.179688,1441.000000,1.000000,17.000000,,,,0.000000,2.000000,2.000000,0.000000,4.000000,2.000000,2.000000,0.000000,0.000000,4.000000,4.000000,4.000000,4.000000,4.000000,4.000000,0.000000,,,,,,,,,,,,,,,,,1.000000,0.000000,0.502731,0.500549,-0.523560,0.471802,0.966427,0.030277,-0.067391,-35.258884,46.171085,30.250698
1732159233.090952,1732159233.093354,5.000000,0.000000,4320.512695,4302.307617,4316.538574,4300.512695,4202.948730,4277.820313,4336.282227,4401.538574,4296.025879,4241.922852,4507.307617,4529.743652,4371.153809,4451.794922,1194.000000,1.000000,17.000000,,,,0.000000,2.000000,2.000000,0.000000,4.000000,2.000000,2.000000,0.000000,0.000000,4.000000,4.000000,4.000000,4.000000,4.000000,4.000000,0.000000,,,,,,,,,,,,,,,,,,,,,,,,,,,,
1732159233.098760,1732159233.101362,6.000000,0.000000,4328.974121,4307.563965,4319.743652,4307.179688,4198.461426,4280.384766,4336.410156,4406.153809,4294.487305,4234.102539,4511.538574,4535.384766,4375.769043,4458.077148,0.000000,1.000000,17.000000,,,,0.000000,2.000000,2.000000,0.000000,4.000000,2.000000,2.000000,0.000000,0.000000,4.000000,4.000000,4.000000,4.000000,4.000000,4.000000,0.000000,,,,,,,,,,,,,,,,,,,,,,,,,,,,
1732159233.106568,1732159233.109170,7.000000,0.000000,4331.922852,4305.897461,4320.384766,4307.948730,4211.410156,4278.077148,4335.128418,4405.384766,4300.512695,4239.871582,4518.077148,4539.743652,4384.358887,4466.538574,0.000000,1.000000,17.000000,,,,0.000000,2.000000,2.000000,0.000000,4.000000,2.000000,2.000000,0.000000,0.000000,4.000000,4.000000,4.000000,4.000000,4.000000,4.000000,0.000000,,,,,,,,,,,,,,,,,,,,,,,,,,,,
1732159233.114376,1732159233.117078,8.000000,0.000000,4334.487305,4302.051270,4316.538574,4302.436035,4222.307617,4268.846191,4335.897461,4403.077148,4302.307617,4248.974121,4523.077148,4545.512695,4395.384766,4477.563965,1544.000000,1.000000,17.000000,,,,0.000000,2.000000,2.000000,0.000000,4.000000,2.000000,2.000000,0.000000,0.000000,4.000000,4.000000,4.000000,4.000000,4.000000,4.000000,0.000000,,,,,,,,,,,,,,,,,2.000000,0.000000,0.502118,0.498108,-0.525757,0.472595,0.981077,0.051764,-0.056159,-35.399696,46.043579,30.048067
1732159233.122185,1732159233.124886,9.000000,0.000000,4339.487305,4301.538574,4317.051270,4304.487305,4205.256348,4273.461426,4337.051270,4406.025879,4307.051270,4248.205078,4529.743652,4552.692383,4405.384766,4487.948730,1716.000000,1.000000,17.000000,,,,0.000000,2.000000,2.000000,0.000000,4.000000,2.000000,2.000000,0.000000,0.000000,4.000000,4.000000,4.000000,4.000000,4.000000,4.000000,0.000000,,,,,,,,,,,,,,,,,,,,,,,,,,,,
1732159233.129993,1732159233.132894,10.000000,0.000000,4342.692383,4304.615234,4320.384766,4304.743652,4186.025879,4281.410156,4336.666504,4406.794922,4311.410156,4248.589844,4538.333496,4554.743652,4414.871582,4494.487305,1579.000000,1.000000,17.000000,,,,0.000000,2.000000,2.000000,0.000000,4.000000,2.000000,2.000000,0.000000,0.000000,4.000000,4.000000,4.000000,4.000000,4.000000,4.000000,0.000000,,,,,,,,,,,,,,,,,,,,,,,,,,,,
1732159233.137801,1732159233.140703,11.000000,0.000000,4345.769043,4304.358887,4318.974121,4300.897461,4193.589844,4273.333496,4336.282227,4403.333496,4302.820313,4250.897461,4539.102539,4553.589844,4417.179688,4493.589844,1548.000000,1.000000,17.000000,,,,0.000000,2.000000,2.000000,0.000000,4.000000,2.000000,2.000000,0.000000,0.000000,4.000000,4.000000,4.000000,4.000000,4.000000,4.000000,0.000000,,,,,,,,,,,,,,,,,,,,,,,,,,,,
1732159233.145610,1732159233.148611,12.000000,0.000000,4348.846191,4299.615234,4318.205078,4300.641113,4199.102539,4262.692383,4336.794922,4402.436035,4297.563965,4248.077148,4536.153809,4557.179688,4415.769043,4492.820313,1718.000000,1.000000,17.000000,,,,0.000000,2.000000,2.000000,0.000000,4.000000,2.000000,2.000000,0.000000,0.000000,4.000000,4.000000,4.000000,4.000000,4.000000,4.000000,0.000000,,,,,,,,,,,,,,,,,3.000000,0.000000,0.501568,0.497437,-0.526367,0.473206,0.987914,0.039067,-0.053717,-35.453754,45.955299,30.018934
1732159233.153418,1732159233.156419,13.000000,0.000000,4349.615234,4299.615234,4320.512695,4298.846191,4188.717773,4264.102539,4339.102539,4401.153809,4304.230957,4250.769043,4538.717773,4560.000000,4421.794922,4500.641113,1524.000000,1.000000,17.000000,,,,0.000000,2.000000,2.000000,0.000000,4.000000,2.000000,2.000000,0.000000,0.000000,4.000000,4.000000,4.000000,4.000000,4.000000,4.000000,0.000000,,,,,,,,,,,,,,,,,,,,,,,,,,,,
1732159233.161226,1732159233.164427,14.000000,0.000000,4350.641113,4300.384766,4320.256348,4295.897461,4193.205078,4266.410156,4341.794922,4403.333496,4305.384766,4257.692383,4539.871582,4559.615234,4427.563965,4507.051270,1579.000000,1.000000,17.000000,,,,0.000000,2.000000,2.000000,0.000000,4.000000,2.000000,2.000000,0.000000,0.000000,4.000000,4.000000,4.000000,4.000000,4.000000,4.000000,0.000000,1.000000,0.000000,2.000000,2.000000,0.000000,4.000000,2.000000,2.000000,0.000000,0.000000,4.000000,3.000000,4.000000,4.000000,4.000000,4.000000,,,,,,,,,,,,
1732159233.169034,1732159233.172235,15.000000,0.000000,4351.538574,4295.641113,4318.846191,4297.051270,4203.461426,4265.641113,4338.717773,4409.487305,4297.820313,4260.128418,4540.769043,4560.000000,4430.384766,4506.153809,1548.000000,1.000000,17.000000,,,,0.000000,2.000000,2.000000,0.000000,4.000000,2.000000,2.000000,0.000000,0.000000,4.000000,4.000000,4.000000,4.000000,4.000000,4.000000,0.000000,,,,,,,,,,,,,,,,,,,,,,,,,,,,
1732159233.176843,1732159233.180143,16.000000,0.000000,4350.641113,4295.128418,4322.692383,4298.077148,4201.025879,4265.512695,4336.153809,4409.615234,4294.743652,4261.410156,4542.820313,4559.358887,4438.333496,4508.205078,0.000000,1.000000,17.000000,,,,0.000000,2.000000,2.000000,0.000000,4.000000,2.000000,2.000000,0.000000,0.000000,4.000000,4.000000,4.000000,4.000000,4.000000,4.000000,0.000000,,,,,,,,,,,,,,,,,4.000000,0.000000,0.498389,0.493225,-0.531128,0.475647,0.969845,-0.018069,-0.063484,-35.372540,45.795460,30.265337
1732159233.184651,1732159233.187951,17.000000,0.000000,4349.743652,4296.025879,4323.974121,4295.512695,4198.717773,4263.589844,4337.307617,4405.512695,4297.179688,4264.230957,4541.666504,4559.615234,4443.974121,4510.769043,0.000000,1.000000,17.000000,,,,0.000000,2.000000,2.000000,0.000000,4.000000,2.000000,2.000000,0.000000,0.000000,4.000000,4.000000,4.000000,4.000000,4.000000,4.000000,0.000000,,,,,,,,,,,,,,,,,,,,,,,,,,,,
1732159233.192459,1732159233.195959,18.000000,0.000000,4350.512695,4295.384766,4321.922852,4298.589844,4200.897461,4263.974121,4338.205078,4402.563965,4299.871582,4266.282227,4541.153809,4563.333496,4436.538574,4510.256348,0.000000,1.000000,17.000000,,,,0.000000,2.000000,2.000000,0.000000,4.000000,2.000000,2.000000,0.000000,0.000000,4.000000,4.000000,4.000000,4.000000,4.000000,4.000000,0.000000,,,,,,,,,,,,,,,,,,,,,,,,,,,,
1732159233.200267,1732159233.203768,19.000000,0.000000,4350.128418,4296.153809,4321.282227,4299.743652,4202.307617,4265.128418,4338.974121,4400.512695,4295.769043,4263.333496,4538.846191,4560.512695,4426.282227,4506.922852,0.000000,1.000000,17.000000,,,,0.000000,2.000000,2.000000,0.000000,4.000000,2.000000,2.000000,0.000000,0.000000,4.000000,4.000000,4.000000,4.000000,4.000000,4.000000,0.000000,,,,,,,,,,,,,,,,,,,,,,,,,,,,
1732159233.208076,1732159233.211676,20.000000,0.000000,4349.615234,4295.512695,4320.256348,4296.666504,4203.461426,4263.974121,4338.974121,4401.538574,4289.487305,4260.897461,4537.179688,4555.128418,4431.922852,4507.179688,0.000000,1.000000,17.000000,,,,0.000000,2.000000,2.000000,0.000000,4.000000,2.000000,2.000000,0.000000,0.000000,4.000000,4.000000,4.000000,4.000000,4.000000,4.000000,0.000000,,,,,,,,,,,,,,,,,5.000000,0.000000,0.496360,0.491333,-0.533081,0.477539,0.963985,-0.020022,-0.067391,-35.381760,45.565987,30.456589
1732159233.215884,1732159233.219484,21.000000,0.000000,4350.512695,4296.282227,4320.128418,4296.666504,4204.487305,4264.230957,4335.897461,4406.538574,4294.102539,4264.743652,4546.153809,4559.358887,4441.538574,4513.846191,0.000000,1.000000,17.000000,,,,0.000000,2.000000,2.000000,0.000000,4.000000,2.000000,2.000000,0.000000,0.000000,4.000000,4.000000,4.000000,4.000000,4.000000,4.000000,0.000000,,,,,,,,,,,,,,,,,,,,,,,,,,,,
1732159233.223692,1732159233.227492,22.000000,0.000000,4348.974121,4294.743652,4321.410156,4296.410156,4208.974121,4265.000000,4333.589844,4408.205078,4299.102539,4268.077148,4554.358887,4563.333496,4437.948730,4516.025879,0.000000,1.000000,17.000000,,,,0.000000,2.000000,2.000000,0.000000,4.000000,2.000000,2.000000,0.000000,0.000000,4.000000,4.000000,4.000000,4.000000,4.000000,4.000000,0.000000,,,,,,,,,,,,,,,,,,,,,,,,,,,,
1732159233.231500,1732159233.235300,23.000000,0.000000,4345.512695,4285.897461,4323.846191,4293.461426,4214.487305,4264.743652,4335.769043,4406.666504,4295.000000,4265.641113,4544.230957,4560.769043,4428.461426,4505.897461,0.000000,1.000000,17.000000,,,,0.000000,2.000000,2.000000,0.000000,4.000000,2.000000,2.000000,0.000000,0.000000,4.000000,4.000000,4.000000,4.000000,4.000000,4.000000,0.000000,,,,,,,,,,,,,,,,,,,,,,,,,,,,
1732159233.239309,1732159233.243208,24.000000,0.000000,4345.641113,4285.897461,4322.051270,4294.871582,4217.436035,4265.512695,4336.666504,4405.384766,4292.307617,4268.077148,4536.538574,4556.410156,4426.410156,4503.077148,0.000000,1.000000,17.000000,,,,0.000000,2.000000,2.000000,0.000000,4.000000,2.000000,2.000000,0.000000,0.000000,4.000000,4.000000,4.000000,4.000000,4.000000,4.000000,0.000000,,,,,,,,,,,,,,,,,6.000000,0.000000,0.495544,0.490662,-0.533691,0.478394,0.957148,-0.009767,-0.059089,-35.277557,45.268452,30.528170
1732159233.247117,1732159233.251016,25.000000,0.000000,4349.743652,4295.384766,4318.974121,4297.307617,4217.051270,4265.512695,4335.000000,4404.358887,4295.256348,4278.077148,4547.307617,4558.974121,4429.871582,4514.102539,0.000000,1.000000,17.000000,,,,0.000000,2.000000,2.000000,0.000000,4.000000,2.000000,2.000000,0.000000,0.000000,4.000000,4.000000,4.000000,4.000000,4.000000,4.000000,0.000000,,,,,,,,,,,,,,,,,,,,,,,,,,,,
1732159233.254925,1732159233.259024,26.000000,0.000000,4351.410156,4296.410156,4321.153809,4294.743652,4214.615234,4261.153809,4335.000000,4403.846191,4296.282227,4281.025879,4554.743652,4565.641113,4433.333496,4515.256348,0.000000,1.000000,17.000000,,,,0.000000,2.000000,2.000000,0.000000,4.000000,2.000000,2.000000,0.000000,0.000000,4.000000,4.000000,4.000000,4.000000,4.000000,4.000000,0.000000,,,,,,,,,,,,,,,,,,,,,,,,,,,,
1732159233.262733,1732159233.266833,27.000000,0.000000,4351.922852,4292.948730,4325.000000,4295.128418,4215.384766,4258.717773,4334.871582,4405.000000,4296.153809,4279.615234,4551.025879,4566.922852,4436.025879,4512.820313,0.000000,1.000000,17.000000,,,,0.000000,2.000000,2.000000,0.000000,4.000000,2.000000,2.000000,0.000000,0.000000,4.000000,4.000000,4.000000,4.000000,4.000000,4.000000,0.000000,,,,,,,,,,,,,,,,,,,,,,,,,,,,
1732159233.270542,1732159233.274541,28.000000,0.000000,4356.282227,4295.384766,4322.179688,4300.512695,4218.589844,4261.666504,4335.000000,4405.641113,4297.051270,4281.410156,4551.025879,4567.820313,4434.743652,4516.538574,0.000000,1.000000,17.000000,,,,0.000000,2.000000,2.000000,0.000000,4.000000,2.000000,2.000000,0.000000,0.000000,4.000000,4.000000,4.000000,4.000000,4.000000,4.000000,0.000000,,,,,,,,,,,,,,,,,7.000000,0.000000,0.494630,0.489075,-0.534790,0.479736,0.980588,-0.034184,-0.037602,-35.414822,45.570778,30.739485
1732159233.278350,1732159233.282349,29.000000,0.000000,4359.102539,4296.922852,4319.230957,4302.179688,4218.461426,4258.589844,4334.871582,4406.538574,4297.179688,4282.436035,4552.948730,4568.846191,4433.077148,4517.563965,0.000000,1.000000,17.000000,,,,0.000000,2.000000,2.000000,0.000000,4.000000,2.000000,2.000000,0.000000,0.000000,4.000000,4.000000,4.000000,4.000000,4.000000,4.000000,0.000000,,,,,,,,,,,,,,,,,,,,,,,,,,,,
1732159233.286158,1732159233.289958,30.000000,0.000000,4358.205078,4296.153809,4321.282227,4300.256348,4221.153809,4254.230957,4334.871582,4406.153809,4297.948730,4281.666504,4551.153809,4569.230957,4435.512695,4516.922852,0.000000,1.000000,17.000000,,,,0.000000,2.000000,2.000000,0.000000,4.000000,2.000000,2.000000,0.000000,0.000000,4.000000,4.000000,4.000000,4.000000,4.000000,4.000000,0.000000,,,,,,,,,,,,,,,,,,,,,,,,,,,,
1732159233.293966,1732159233.297766,31.000000,0.000000,4355.000000,4295.897461,4321.282227,4299.487305,4230.897461,4261.153809,4335.000000,4405.641113,4296.794922,4280.897461,4551.153809,4571.794922,4433.333496,4515.384766,0.000000,1.000000,17.000000,,,,0.000000,2.000000,2.000000,0.000000,4.000000,2.000000,2.000000,0.000000,0.000000,4.000000,4.000000,4.000000,4.000000,4.000000,4.000000,0.000000,,,,,,,,,,,,,,,,,,,,,,,,,,,,
1732159233.301775,1732159233.305474,32.000000,0.000000,4351.666504,4292.436035,4320.128418,4303.589844,4234.358887,4269.871582,4335.000000,4406.666504,4293.077148,4278.589844,4549.358887,4572.692383,4423.846191,4510.256348,0.000000,1.000000,17.000000,,,,0.000000,2.000000,2.000000,0.000000,4.000000,2.000000,2.000000,0.000000,0.000000,4.000000,4.000000,4.000000,4.000000,4.000000,4.000000,0.000000,,,,,,,,,,,,,,,,,8.000000,0.000000,0.492370,0.486755,-0.536133,0.482910,0.984984,-0.060554,-0.045416,-35.392673,45.732330,30.660648
1732159233.309583,1732159233.313282,33.000000,0.000000,4350.641113,4292.692383,4319.102539,4304.615234,4230.641113,4266.410156,4334.743652,4407.820313,4293.974121,4276.282227,4542.563965,4565.897461,4417.692383,4505.769043,0.000000,1.000000,17.000000,,,,0.000000,2.000000,2.000000,0.000000,4.000000,2.000000,2.000000,0.000000,0.000000,4.000000,4.000000,4.000000,4.000000,4.000000,4.000000,0.000000,,,,,,,,,,,,,,,,,,,,,,,,,,,,
1732159233.317391,1732159233.320891,34.000000,0.000000,4351.153809,4295.256348,4319.871582,4301.794922,4232.051270,4261.922852,4334.615234,4406.025879,4297.692383,4277.820313,4537.820313,4561.410156,4420.384766,4509.230957,0.000000,1.000000,17.000000,,,,0.000000,2.000000,2.000000,0.000000,4.000000,2.000000,2.000000,0.000000,0.000000,4.000000,4.000000,4.000000,4.000000,4.000000,4.000000,0.000000,,,,,,,,,,,,,,,,,,,,,,,,,,,,
1732159233.325199,1732159233.328699,35.000000,0.000000,4348.717773,4294.358887,4320.128418,4302.563965,4233.589844,4264.358887,4335.641113,4404.358887,4297.179688,4281.282227,4539.487305,4560.128418,4421.153809,4506.153809,0.000000,1.000000,17.000000,,,,0.000000,2.000000,2.000000,0.000000,4.000000,2.000000,2.000000,0.000000,0.000000,4.000000,4.000000,4.000000,4.000000,4.000000,4.000000,0.000000,,,,,,,,,,,,,,,,,,,,,,,,,,,,
1732159233.333008,1732159233.336407,36.000000,0.000000,4343.846191,4294.358887,4318.333496,4308.333496,4235.128418,4265.897461,4334.487305,4405.256348,4295.641113,4282.307617,4541.410156,4558.717773,4416.153809,4496.538574,0.000000,1.000000,17.000000,,,,0.000000,2.000000,2.000000,0.000000,4.000000,2.000000,2.000000,0.000000,0.000000,4.000000,4.000000,4.000000,4.000000,4.000000,4.000000,0.000000,,,,,,,,,,,,,,,,,9.000000,0.000000,0.490135,0.484619,-0.537964,0.485291,0.972287,-0.059578,-0.044927,-35.388065,45.393188,30.650126
1732159233.340816,1732159233.344215,37.000000,0.000000,4342.307617,4297.436035,4319.102539,4309.743652,4238.589844,4264.358887,4334.358887,4405.384766,4295.000000,4281.025879,4538.461426,4561.410156,4412.436035,4492.307617,0.000000,1.000000,17.000000,,,,0.000000,2.000000,2.000000,0.000000,4.000000,2.000000,2.000000,0.000000,0.000000,4.000000,4.000000,4.000000,4.000000,4.000000,4.000000,0.000000,,,,,,,,,,,,,,,,,,,,,,,,,,,,
1732159233.348624,1732159233.351824,38.000000,0.000000,4342.820313,4296.282227,4330.128418,4304.358887,4237.307617,4263.461426,4340.000000,4408.846191,4295.256348,4281.538574,4535.256348,4566.794922,4412.692383,4494.615234,0.000000,1.000000,17.000000,,,,0.000000,2.000000,2.000000,0.000000,4.000000,2.000000,2.000000,0.000000,0.000000,4.000000,4.000000,4.000000,4.000000,4.000000,4.000000,0.000000,,,,,,,,,,,,,,,,,,,,,,,,,,,,
1732159233.356432,1732159233.359632,39.000000,0.000000,4341.922852,4292.179688,4335.000000,4303.461426,4238.461426,4265.128418,4341.922852,4411.025879,4297.307617,4282.436035,4537.436035,4571.538574,4413.461426,4495.256348,0.000000,1.000000,17.000000,,,,0.000000,2.000000,2.000000,0.000000,4.000000,2.000000,2.000000,0.000000,0.000000,4.000000,4.000000,4.000000,4.000000,4.000000,4.000000,0.000000,,,,,,,,,,,,,,,,,,,,,,,,,,,,
1732159233.364241,1732159233.367340,40.000000,0.000000,4341.794922,4293.846191,4326.153809,4308.589844,4245.000000,4265.512695,4335.641113,4409.871582,4297.051270,4281.410156,4536.794922,4572.051270,4410.000000,4491.538574,0.000000,1.000000,17.000000,,,,0.000000,2.000000,2.000000,0.000000,4.000000,2.000000,2.000000,0.000000,0.000000,4.000000,4.000000,4.000000,4.000000,4.000000,4.000000,0.000000,,,,,,,,,,,,,,,,,10.000000,0.000000,0.489563,0.483765,-0.538757,0.485840,0.972287,-0.059578,-0.044927,-35.631001,45.286816,31.064936
1732159233.372049,1732159233.375149,41.000000,0.000000,4342.820313,4297.563965,4317.307617,4311.282227,4247.051270,4264.487305,4332.820313,4407.179688,4293.205078,4279.487305,4526.794922,4563.717773,4405.000000,4491.153809,0.000000,1.000000,17.000000,,,,0.000000,2.000000,2.000000,0.000000,4.000000,2.000000,2.000000,0.000000,0.000000,4.000000,4.000000,4.000000,4.000000,4.000000,4.000000,0.000000,,,,,,,,,,,,,,,,,,,,,,,,,,,,
1732159233.379857,1732159233.382757,42.000000,0.000000,4342.948730,4296.794922,4316.410156,4310.897461,4247.820313,4266.538574,4335.641113,4401.410156,4292.436035,4278.461426,4520.128418,4555.769043,4402.948730,4491.282227,0.000000,1.000000,17.000000,,,,0.000000,2.000000,2.000000,0.000000,4.000000,2.000000,2.000000,0.000000,0.000000,4.000000,4.000000,4.000000,4.000000,4.000000,4.000000,0.000000,,,,,,,,,,,,,,,,,,,,,,,,,,,,
1732159233.387665,1732159233.390565,43.000000,0.000000,4342.948730,4297.692383,4318.717773,4314.230957,4255.256348,4267.563965,4334.358887,4400.512695,4293.974121,4280.384766,4523.846191,4555.512695,4401.538574,4490.256348,0.000000,1.000000,17.000000,,,,0.000000,2.000000,2.000000,0.000000,4.000000,2.000000,2.000000,0.000000,0.000000,4.000000,4.000000,4.000000,4.000000,4.000000,4.000000,0.000000,,,,,,,,,,,,,,,,,,,,,,,,,,,,
1732159233.395474,1732159233.398274,44.000000,0.000000,4343.205078,4299.871582,4317.948730,4317.692383,4252.179688,4267.563965,4331.922852,4408.589844,4296.666504,4282.563965,4526.153809,4555.256348,4396.794922,4488.846191,0.000000,1.000000,17.000000,,,,0.000000,2.000000,2.000000,0.000000,4.000000,2.000000,2.000000,0.000000,0.000000,4.000000,4.000000,4.000000,4.000000,4.000000,4.000000,0.000000,,,,,,,,,,,,,,,,,11.000000,0.000000,0.486976,0.481506,-0.540527,0.488708,0.986937,-0.076670,-0.041509,-35.709442,45.077320,31.102598
1732159233.403282,1732159233.406082,45.000000,0.000000,4342.179688,4296.922852,4316.282227,4313.461426,4253.717773,4268.846191,4333.589844,4410.256348,4296.153809,4282.692383,4522.051270,4555.897461,4396.153809,4487.692383,0.000000,1.000000,17.000000,,,,0.000000,2.000000,2.000000,0.000000,4.000000,2.000000,2.000000,0.000000,0.000000,4.000000,4.000000,4.000000,4.000000,4.000000,4.000000,0.000000,,,,,,,,,,,,,,,,,,,,,,,,,,,,
1732159233.411090,1732159233.413690,46.000000,0.000000,4341.794922,4294.230957,4317.436035,4311.282227,4274.358887,4267.307617,4335.641113,4399.871582,4286.794922,4281.666504,4520.000000,4555.128418,4397.307617,4490.256348,0.000000,1.000000,17.000000,,,,0.000000,2.000000,2.000000,0.000000,4.000000,2.000000,2.000000,0.000000,0.000000,4.000000,4.000000,4.000000,4.000000,4.000000,4.000000,0.000000,,,,,,,,,,,,,,,,,,,,,,,,,,,,
1732159233.418898,1732159233.421498,47.000000,0.000000,4342.051270,4295.512695,4319.615234,4313.846191,4269.487305,4272.820313,4336.282227,4398.717773,4283.846191,4280.256348,4520.512695,4553.205078,4391.922852,4487.307617,0.000000,1.000000,17.000000,,,,0.000000,2.000000,2.000000,0.000000,4.000000,2.000000,2.000000,0.000000,0.000000,4.000000,4.000000,4.000000,4.000000,4.000000,4.000000,0.000000,,,,,,,,,,,,,,,,,,,,,,,,,,,,
1732159233.426707,1732159233.429207,48.000000,0.000000,4340.256348,4294.487305,4319.102539,4314.230957,4244.102539,4283.589844,4335.512695,4403.589844,4294.230957,4279.230957,4520.641113,4554.871582,4386.666504,4479.615234,0.000000,1.000000,17.000000,,,,0.000000,2.000000,2.000000,0.000000,4.000000,2.000000,2.000000,0.000000,0.000000,4.000000,4.000000,4.000000,4.000000,4.000000,4.000000,0.000000,,,,,,,,,,,,,,,,,12.000000,0.000000,0.486126,0.480164,-0.541382,0.489929,0.983518,-0.093761,-0.047857,-35.956314,44.990963,31.041437
1732159233.434515,1732159233.437015,49.000000,0.000000,4338.846191,4294.358887,4317.563965,4312.436035,4243.846191,4277.692383,4335.000000,4401.794922,4298.974121,4280.512695,4520.512695,4558.205078,4388.461426,4479.102539,0.000000,1.000000,17.000000,,,,0.000000,2.000000,2.000000,0.000000,4.000000,2.000000,2.000000,0.000000,0.000000,4.000000,4.000000,4.000000,4.000000,4.000000,4.000000,0.000000,,,,,,,,,,,,,,,,,,,,,,,,,,,,
1732159233.442323,1732159233.445023,50.000000,0.000000,4341.282227,4296.282227,4318.717773,4314.615234,4257.563965,4265.512695,4335.128418,4400.128418,4296.153809,4286.025879,4519.743652,4557.563965,4393.717773,4484.358887,0.000000,1.000000,17.000000,,,,0.000000,2.000000,2.000000,0.000000,4.000000,2.000000,2.000000,0.000000,0.000000,4.000000,4.000000,4.000000,4.000000,4.000000,4.000000,0.000000,,,,,,,,,,,,,,,,,,,,,,,,,,,,
1732159233.450132,1732159233.452831,51.000000,0.000000,4341.153809,4297.820313,4319.230957,4319.102539,4258.205078,4270.641113,4334.358887,4401.025879,4296.025879,4288.077148,4521.282227,4554.102539,4392.563965,4482.948730,0.000000,1.000000,17.000000,,,,0.000000,2.000000,2.000000,0.000000,4.000000,2.000000,2.000000,0.000000,0.000000,4.000000,4.000000,4.000000,4.000000,4.000000,4.000000,0.000000,,,,,,,,,,,,,,,,,,,,,,,,,,,,
1732159233.457940,1732159233.460739,52.000000,0.000000,4335.000000,4299.871582,4317.179688,4319.871582,4260.897461,4280.897461,4333.589844,4402.179688,4295.000000,4281.794922,4520.128418,4553.589844,4382.436035,4477.563965,0.000000,1.000000,17.000000,,,,0.000000,2.000000,2.000000,0.000000,4.000000,2.000000,2.000000,0.000000,0.000000,4.000000,4.000000,4.000000,4.000000,4.000000,4.000000,0.000000,,,,,,,,,,,,,,,,,13.000000,0.000000,0.485704,0.479553,-0.541748,0.490540,0.974240,-0.092785,-0.039556,-35.792950,44.961014,30.835232
1732159233.465748,1732159233.468547,53.000000,0.000000,4332.307617,4299.102539,4318.461426,4315.256348,4267.051270,4280.897461,4335.512695,4402.051270,4292.307617,4278.333496,4515.769043,4551.410156,4376.282227,4477.692383,0.000000,1.000000,17.000000,,,,0.000000,2.000000,2.000000,0.000000,4.000000,2.000000,2.000000,0.000000,0.000000,4.000000,4.000000,4.000000,4.000000,4.000000,4.000000,0.000000,,,,,,,,,,,,,,,,,,,,,,,,,,,,
1732159233.473556,1732159233.476555,54.000000,0.000000,4335.769043,4295.384766,4320.256348,4311.922852,4265.000000,4278.846191,4336.922852,4402.948730,4293.205078,4280.384766,4516.538574,4543.589844,4381.025879,4477.948730,0.000000,1.000000,17.000000,,,,0.000000,2.000000,2.000000,0.000000,4.000000,2.000000,2.000000,0.000000,0.000000,4.000000,4.000000,4.000000,4.000000,4.000000,4.000000,0.000000,,,,,,,,,,,,,,,,,,,,,,,,,,,,
1732159233.481364,1732159233.484364,55.000000,0.000000,4333.974121,4295.384766,4319.615234,4311.794922,4264.102539,4276.282227,4335.384766,4405.128418,4295.256348,4281.410156,4520.128418,4541.025879,4384.358887,4472.436035,0.000000,1.000000,17.000000,,,,0.000000,2.000000,2.000000,0.000000,4.000000,2.000000,2.000000,0.000000,0.000000,4.000000,4.000000,4.000000,4.000000,4.000000,4.000000,0.000000,,,,,,,,,,,,,,,,,,,,,,,,,,,,
1732159233.489173,1732159233.492272,56.000000,0.000000,4326.794922,4296.410156,4319.102539,4311.282227,4264.487305,4274.743652,4334.615234,4404.615234,4297.820313,4285.000000,4518.717773,4546.538574,4380.384766,4467.948730,0.000000,1.000000,17.000000,,,,0.000000,2.000000,2.000000,0.000000,4.000000,2.000000,2.000000,0.000000,0.000000,4.000000,4.000000,4.000000,4.000000,4.000000,4.000000,0.000000,,,,,,,,,,,,,,,,,14.000000,0.000000,0.484999,0.477966,-0.542786,0.491638,0.976193,-0.096691,-0.033696,-35.927288,44.905087,31.024870
1732159233.496981,1732159233.500080,57.000000,0.000000,4325.128418,4293.589844,4319.743652,4310.256348,4264.871582,4277.820313,4335.128418,4404.615234,4300.000000,4288.205078,4517.179688,4549.358887,4379.102539,4471.153809,0.000000,1.000000,17.000000,,,,0.000000,2.000000,2.000000,0.000000,4.000000,2.000000,2.000000,0.000000,0.000000,4.000000,4.000000,4.000000,4.000000,4.000000,4.000000,0.000000,,,,,,,,,,,,,,,,,,,,,,,,,,,,
1732159233.504789,1732159233.508088,58.000000,0.000000,4329.487305,4296.025879,4320.256348,4313.461426,4266.153809,4281.025879,4335.128418,4408.077148,4303.846191,4285.128418,4523.077148,4546.922852,4383.846191,4474.102539,0.000000,1.000000,17.000000,,,,0.000000,2.000000,2.000000,0.000000,4.000000,2.000000,2.000000,0.000000,0.000000,4.000000,4.000000,4.000000,4.000000,4.000000,4.000000,0.000000,,,,,,,,,,,,,,,,,,,,,,,,,,,,
1732159233.512597,1732159233.515896,59.000000,0.000000,4328.205078,4299.743652,4321.666504,4315.256348,4266.794922,4280.641113,4335.000000,4407.820313,4301.153809,4282.051270,4520.128418,4543.846191,4383.974121,4467.436035,0.000000,1.000000,17.000000,,,,0.000000,2.000000,2.000000,0.000000,4.000000,2.000000,2.000000,0.000000,0.000000,4.000000,4.000000,4.000000,4.000000,4.000000,4.000000,0.000000,,,,,,,,,,,,,,,,,,,,,,,,,,,,
1732159233.520406,1732159233.523804,60.000000,0.000000,4323.589844,4298.333496,4322.179688,4313.717773,4266.794922,4278.461426,4334.487305,4401.794922,4291.922852,4279.230957,4508.333496,4538.974121,4376.153809,4458.333496,0.000000,1.000000,17.000000,,,,0.000000,2.000000,2.000000,0.000000,4.000000,2.000000,2.000000,0.000000,0.000000,4.000000,4.000000,4.000000,4.000000,4.000000,4.000000,0.000000,,,,,,,,,,,,,,,,,15.000000,0.000000,0.485110,0.475220,-0.543823,0.493042,0.981565,-0.087413,-0.040532,-36.001102,44.674786,31.080145
1732159233.528214,1732159233.531612,61.000000,0.000000,4325.256348,4300.769043,4319.358887,4314.358887,4266.538574,4278.205078,4334.871582,4401.153809,4295.769043,4279.230957,4512.179688,4538.974121,4374.358887,4462.179688,0.000000,1.000000,17.000000,,,,0.000000,2.000000,2.000000,0.000000,4.000000,2.000000,2.000000,0.000000,0.000000,4.000000,4.000000,4.000000,4.000000,4.000000,4.000000,0.000000,,,,,,,,,,,,,,,,,,,,,,,,,,,,
1732159233.536022,1732159233.539620,62.000000,0.000000,4327.307617,4305.384766,4318.333496,4317.820313,4265.000000,4280.000000,4336.153809,4404.102539,4304.743652,4287.436035,4525.128418,4545.128418,4382.692383,4472.179688,0.000000,1.000000,17.000000,,,,0.000000,2.000000,2.000000,0.000000,4.000000,2.000000,2.000000,0.000000,0.000000,4.000000,4.000000,4.000000,4.000000,4.000000,4.000000,0.000000,,,,,,,,,,,,,,,,,,,,,,,,,,,,
1732159233.543831,1732159233.547429,63.000000,0.000000,4323.846191,4302.820313,4320.897461,4316.538574,4263.589844,4281.153809,4335.512695,4402.436035,4299.487305,4289.871582,4520.512695,4544.358887,4386.410156,4468.589844,0.000000,1.000000,17.000000,,,,0.000000,2.000000,2.000000,0.000000,4.000000,2.000000,2.000000,0.000000,0.000000,4.000000,4.000000,4.000000,4.000000,4.000000,4.000000,0.000000,,,,,,,,,,,,,,,,,,,,,,,,,,,,
1732159233.551639,1732159233.555337,64.000000,0.000000,4321.410156,4303.589844,4323.077148,4313.717773,4270.128418,4280.641113,4333.205078,4401.153809,4293.461426,4279.743652,4506.282227,4535.128418,4377.948730,4458.333496,0.000000,1.000000,17.000000,,,,0.000000,2.000000,2.000000,0.000000,4.000000,2.000000,2.000000,0.000000,0.000000,4.000000,4.000000,4.000000,4.000000,4.000000,4.000000,0.000000,,,,,,,,,,,,,,,,,16.000000,0.000000,0.486076,0.473450,-0.544006,0.493591,0.998169,-0.085948,-0.025394,-35.884228,44.611576,31.131584
1732159233.559447,1732159233.563145,65.000000,0.000000,4322.436035,4308.461426,4322.563965,4315.641113,4274.487305,4281.153809,4332.692383,4401.025879,4298.077148,4277.948730,4506.922852,4531.153809,4372.436035,4457.692383,1619.000000,1.000000,17.000000,,,,0.000000,2.000000,2.000000,0.000000,4.000000,2.000000,2.000000,0.000000,0.000000,4.000000,4.000000,4.000000,4.000000,4.000000,4.000000,0.000000,,,,,,,,,,,,,,,,,,,,,,,,,,,,
1732159233.567255,1732159233.571153,66.000000,0.000000,4322.051270,4307.179688,4320.384766,4315.641113,4277.436035,4283.333496,4333.974121,4401.025879,4299.230957,4282.307617,4510.897461,4536.153809,4373.717773,4459.487305,1359.000000,1.000000,17.000000,,,,0.000000,2.000000,2.000000,0.000000,4.000000,2.000000,2.000000,0.000000,0.000000,4.000000,4.000000,4.000000,4.000000,4.000000,4.000000,0.000000,,,,,,,,,,,,,,,,,,,,,,,,,,,,
1732159233.575064,1732159233.578961,67.000000,0.000000,4318.333496,4303.717773,4319.871582,4314.102539,4290.897461,4281.922852,4334.358887,4401.538574,4296.410156,4279.230957,4505.769043,4532.692383,4369.230957,4455.128418,1439.000000,1.000000,17.000000,,,,0.000000,2.000000,2.000000,0.000000,4.000000,2.000000,2.000000,0.000000,0.000000,4.000000,4.000000,4.000000,4.000000,4.000000,4.000000,0.000000,,,,,,,,,,,,,,,,,,,,,,,,,,,,
1732159233.582872,1732159233.586869,68.000000,0.000000,4313.589844,4302.692383,4322.051270,4317.307617,4290.000000,4280.256348,4335.256348,4401.153809,4296.794922,4278.205078,4501.666504,4522.948730,4363.846191,4451.153809,1441.000000,1.000000,17.000000,,,,0.000000,2.000000,2.000000,0.000000,4.000000,2.000000,2.000000,0.000000,0.000000,4.000000,4.000000,4.000000,4.000000,4.000000,4.000000,0.000000,,,,,,,,,,,,,,,,,17.000000,0.000000,0.486076,0.473450,-0.544006,0.493591,0.993774,-0.087413,-0.030765,-35.789558,44.605377,31.098249
1732159233.590680,1732159233.594677,69.000000,0.000000,4311.666504,4303.461426,4322.179688,4321.666504,4266.153809,4285.641113,4336.538574,4399.487305,4295.641113,4280.897461,4502.692383,4523.077148,4365.512695,4448.205078,1194.000000,1.000000,17.000000,,,,0.000000,2.000000,2.000000,0.000000,4.000000,2.000000,2.000000,0.000000,0.000000,4.000000,4.000000,4.000000,4.000000,4.000000,4.000000,0.000000,,,,,,,,,,,,,,,,,,,,,,,,,,,,
1732159233.598488,1732159233.602686,70.000000,0.000000,4312.948730,4302.436035,4318.974121,4317.692383,4260.384766,4288.846191,4336.282227,4400.641113,4294.871582,4280.256348,4504.871582,4525.384766,4367.179688,4447.692383,0.000000,1.000000,17.000000,,,,0.000000,2.000000,2.000000,0.000000,4.000000,2.000000,2.000000,0.000000,0.000000,4.000000,4.000000,4.000000,4.000000,4.000000,4.000000,0.000000,,,,,,,,,,,,,,,,,,,,,,,,,,,,
1732159233.606297,1732159233.610494,71.000000,0.000000,4310.641113,4297.563965,4316.025879,4310.769043,4273.077148,4281.666504,4334.871582,4404.487305,4297.307617,4280.128418,4505.128418,4522.436035,4366.794922,4448.205078,0.000000,1.000000,17.000000,,,,0.000000,2.000000,2.000000,0.000000,4.000000,2.000000,2.000000,0.000000,0.000000,4.000000,4.000000,4.000000,4.000000,4.000000,4.000000,0.000000,,,,,,,,,,,,,,,,,,,,,,,,,,,,
1732159233.614105,1732159233.618402,72.000000,0.000000,4309.743652,4294.358887,4318.589844,4310.384766,4270.897461,4279.102539,4334.615234,4403.589844,4298.589844,4283.077148,4501.153809,4523.205078,4366.794922,4443.333496,1534.000000,1.000000,17.000000,,,,0.000000,2.000000,2.000000,0.000000,4.000000,2.000000,2.000000,0.000000,0.000000,4.000000,4.000000,4.000000,4.000000,4.000000,4.000000,0.000000,,,,,,,,,,,,,,,,,18.000000,0.000000,0.486855,0.472534,-0.543884,0.493835,0.974240,-0.074716,-0.024905,-35.857876,44.708691,31.171249
1732159233.621913,1732159233.626210,73.000000,0.000000,4308.077148,4296.538574,4319.743652,4310.641113,4270.384766,4286.025879,4334.743652,4399.487305,4294.358887,4280.384766,4493.077148,4521.410156,4360.000000,4438.974121,1706.000000,1.000000,17.000000,,,,0.000000,2.000000,2.000000,0.000000,4.000000,2.000000,2.000000,0.000000,0.000000,4.000000,4.000000,4.000000,4.000000,4.000000,4.000000,0.000000,,,,,,,,,,,,,,,,,,,,,,,,,,,,
1732159233.629721,1732159233.633818,74.000000,0.000000,4301.410156,4298.333496,4318.333496,4311.153809,4277.179688,4286.794922,4335.000000,4403.205078,4299.743652,4280.769043,4490.256348,4516.410156,4354.615234,4440.384766,1564.000000,1.000000,17.000000,,,,0.000000,2.000000,2.000000,0.000000,4.000000,2.000000,2.000000,0.000000,0.000000,4.000000,4.000000,4.000000,4.000000,4.000000,4.000000,0.000000,,,,,,,,,,,,,,,,,,,,,,,,,,,,
1732159233.637529,1732159233.641627,75.000000,0.000000,4301.538574,4296.410156,4318.461426,4311.282227,4274.230957,4281.794922,4335.384766,4407.820313,4314.871582,4292.948730,4497.436035,4520.769043,4360.769043,4442.948730,1546.000000,1.000000,17.000000,,,,0.000000,2.000000,2.000000,0.000000,4.000000,2.000000,2.000000,0.000000,0.000000,4.000000,4.000000,4.000000,4.000000,4.000000,4.000000,0.000000,,,,,,,,,,,,,,,,,,,,,,,,,,,,
1732159233.645338,1732159233.649335,76.000000,0.000000,4309.615234,4296.410156,4318.974121,4310.384766,4283.205078,4277.948730,4335.769043,4403.717773,4311.794922,4296.538574,4503.077148,4528.205078,4366.794922,4445.512695,1706.000000,1.000000,17.000000,,,,0.000000,2.000000,2.000000,0.000000,4.000000,2.000000,2.000000,0.000000,0.000000,4.000000,4.000000,4.000000,4.000000,4.000000,4.000000,0.000000,,,,,,,,,,,,,,,,,19.000000,0.000000,0.487030,0.472839,-0.543518,0.493774,0.989379,-0.073739,-0.030765,-35.753212,44.732372,31.137045
1732159233.653146,1732159233.657143,77.000000,0.000000,4313.077148,4295.897461,4317.307617,4313.333496,4294.487305,4279.358887,4336.153809,4399.102539,4303.461426,4292.307617,4503.846191,4527.948730,4365.769043,4449.615234,1521.000000,1.000000,17.000000,,,,0.000000,2.000000,2.000000,0.000000,4.000000,2.000000,2.000000,0.000000,0.000000,4.000000,4.000000,4.000000,4.000000,4.000000,4.000000,0.000000,,,,,,,,,,,,,,,,,,,,,,,,,,,,
1732159233.660954,1732159233.664752,78.000000,0.000000,4310.641113,4295.769043,4317.436035,4316.922852,4279.230957,4287.051270,4336.410156,4400.512695,4310.512695,4293.846191,4504.743652,4526.794922,4359.358887,4448.846191,1564.000000,1.000000,17.000000,,,,0.000000,2.000000,2.000000,0.000000,4.000000,2.000000,2.000000,0.000000,0.000000,4.000000,4.000000,4.000000,4.000000,4.000000,4.000000,0.000000,1.000000,0.000000,2.000000,2.000000,0.000000,4.000000,1.000000,2.000000,0.000000,0.000000,4.000000,1.000000,4.000000,4.000000,4.000000,4.000000,,,,,,,,,,,,
1732159233.668763,1732159233.672560,79.000000,0.000000,4309.230957,4296.922852,4320.256348,4315.512695,4266.282227,4289.358887,4336.153809,4401.538574,4313.333496,4295.769043,4501.538574,4528.461426,4354.871582,4443.205078,1546.000000,1.000000,17.000000,,,,0.000000,2.000000,2.000000,0.000000,4.000000,2.000000,2.000000,0.000000,0.000000,4.000000,4.000000,4.000000,4.000000,4.000000,4.000000,0.000000,,,,,,,,,,,,,,,,,,,,,,,,,,,,
1732159233.676571,1732159233.680268,80.000000,0.000000,4309.743652,4299.871582,4319.230957,4314.358887,4278.077148,4281.922852,4335.256348,4400.512695,4304.743652,4291.282227,4495.512695,4524.871582,4355.641113,4442.948730,1706.000000,1.000000,17.000000,,,,0.000000,2.000000,2.000000,0.000000,4.000000,2.000000,2.000000,0.000000,0.000000,4.000000,4.000000,4.000000,4.000000,4.000000,4.000000,0.000000,,,,,,,,,,,,,,,,,20.000000,0.000000,0.486991,0.473083,-0.543396,0.493713,0.989379,-0.073739,-0.030765,-35.926769,44.751556,31.237673
1732159233.684379,1732159233.688076,81.000000,0.000000,4310.256348,4300.512695,4316.922852,4315.769043,4283.077148,4280.641113,4333.333496,4400.897461,4301.922852,4286.538574,4496.538574,4519.487305,4355.000000,4444.743652,1521.000000,1.000000,17.000000,,,,0.000000,2.000000,2.000000,0.000000,4.000000,2.000000,2.000000,0.000000,0.000000,4.000000,4.000000,4.000000,4.000000,4.000000,4.000000,0.000000,,,,,,,,,,,,,,,,,,,,,,,,,,,,
1732159233.692187,1732159233.695685,82.000000,0.000000,4307.436035,4295.128418,4317.179688,4310.769043,4275.897461,4286.922852,4333.717773,4402.820313,4306.153809,4288.461426,4502.307617,4524.743652,4354.102539,4442.051270,1564.000000,1.000000,17.000000,,,,0.000000,2.000000,2.000000,0.000000,4.000000,2.000000,2.000000,0.000000,0.000000,4.000000,4.000000,4.000000,4.000000,4.000000,4.000000,0.000000,,,,,,,,,,,,,,,,,,,,,,,,,,,,
1732159233.699996,1732159233.703493,83.000000,0.000000,4307.948730,4292.179688,4317.051270,4308.205078,4275.256348,4285.769043,4335.641113,4404.102539,4308.974121,4294.102539,4504.487305,4532.563965,4360.128418,4441.538574,1546.000000,1.000000,17.000000,,,,0.000000,2.000000,2.000000,0.000000,4.000000,2.000000,2.000000,0.000000,0.000000,4.000000,4.000000,4.000000,4.000000,4.000000,4.000000,0.000000,,,,,,,,,,,,,,,,,,,,,,,,,,,,
1732159233.707804,1732159233.711201,84.000000,0.000000,4310.000000,4294.102539,4315.769043,4310.512695,4278.205078,4280.000000,4335.769043,4403.589844,4310.769043,4299.230957,4505.256348,4531.794922,4367.563965,4446.666504,1706.000000,1.000000,17.000000,,,,0.000000,2.000000,2.000000,0.000000,4.000000,2.000000,2.000000,0.000000,0.000000,4.000000,4.000000,4.000000,4.000000,4.000000,4.000000,0.000000,,,,,,,,,,,,,,,,,21.000000,0.000000,0.487070,0.473206,-0.543274,0.493652,0.992309,-0.067879,-0.034184,-35.652348,44.667091,31.290848
1732159233.715612,1732159233.719009,85.000000,0.000000,4302.692383,4296.282227,4317.820313,4306.410156,4278.077148,4280.000000,4334.615234,4403.974121,4308.974121,4297.563965,4504.871582,4532.436035,4364.358887,4444.102539,1521.000000,1.000000,17.000000,,,,0.000000,2.000000,2.000000,0.000000,4.000000,2.000000,2.000000,0.000000,0.000000,4.000000,4.000000,4.000000,4.000000,4.000000,4.000000,0.000000,,,,,,,,,,,,,,,,,,,,,,,,,,,,
1732159233.723420,1732159233.726618,86.000000,0.000000,4299.615234,4294.358887,4318.846191,4306.153809,4279.487305,4286.538574,4335.256348,4408.205078,4311.153809,4294.487305,4504.102539,4534.358887,4356.666504,4437.436035,1564.000000,1.000000,17.000000,,,,0.000000,2.000000,2.000000,0.000000,4.000000,2.000000,2.000000,0.000000,0.000000,4.000000,4.000000,4.000000,4.000000,4.000000,4.000000,0.000000,,,,,,,,,,,,,,,,,,,,,,,,,,,,
1732159233.731229,1732159233.734426,87.000000,0.000000,4303.461426,4288.974121,4316.794922,4310.512695,4283.333496,4293.077148,4336.538574,4407.948730,4317.051270,4298.077148,4505.128418,4527.179688,4357.563965,4438.077148,1546.000000,1.000000,17.000000,,,,0.000000,2.000000,2.000000,0.000000,4.000000,2.000000,2.000000,0.000000,0.000000,4.000000,4.000000,4.000000,4.000000,4.000000,4.000000,0.000000,,,,,,,,,,,,,,,,,,,,,,,,,,,,
1732159233.739037,1732159233.742134,88.000000,0.000000,4300.512695,4291.025879,4316.025879,4309.230957,4280.641113,4291.538574,4335.384766,4401.410156,4311.153809,4295.769043,4502.179688,4518.461426,4364.102539,4436.922852,1706.000000,1.000000,17.000000,,,,0.000000,2.000000,2.000000,0.000000,4.000000,2.000000,2.000000,0.000000,0.000000,4.000000,4.000000,4.000000,4.000000,4.000000,4.000000,0.000000,,,,,,,,,,,,,,,,,22.000000,0.000000,0.486248,0.473999,-0.543152,0.493835,0.987914,-0.073251,-0.032230,-35.690071,44.605347,31.490587
1732159233.746845,1732159233.749943,89.000000,0.000000,4294.487305,4293.589844,4316.922852,4306.282227,4281.538574,4284.615234,4333.846191,4401.538574,4301.410156,4284.743652,4495.384766,4517.436035,4361.538574,4429.230957,1521.000000,1.000000,17.000000,,,,0.000000,2.000000,2.000000,0.000000,4.000000,2.000000,2.000000,0.000000,0.000000,4.000000,4.000000,4.000000,4.000000,4.000000,4.000000,0.000000,,,,,,,,,,,,,,,,,,,,,,,,,,,,
1732159233.754653,1732159233.757551,90.000000,0.000000,4294.358887,4284.230957,4317.179688,4305.897461,4295.641113,4285.000000,4335.256348,4406.282227,4303.589844,4283.846191,4490.256348,4519.358887,4353.589844,4425.897461,1564.000000,1.000000,17.000000,,,,0.000000,2.000000,2.000000,0.000000,4.000000,2.000000,2.000000,0.000000,0.000000,4.000000,4.000000,4.000000,4.000000,4.000000,4.000000,0.000000,,,,,,,,,,,,,,,,,,,,,,,,,,,,
1732159233.762462,1732159233.765359,91.000000,0.000000,4294.102539,4279.102539,4317.051270,4307.436035,4291.666504,4293.077148,4336.666504,4407.820313,4311.025879,4294.743652,4493.205078,4522.179688,4355.128418,4429.871582,1546.000000,1.000000,17.000000,,,,0.000000,2.000000,2.000000,0.000000,4.000000,2.000000,2.000000,0.000000,0.000000,4.000000,4.000000,4.000000,4.000000,4.000000,4.000000,0.000000,,,,,,,,,,,,,,,,,,,,,,,,,,,,
1732159233.770270,1732159233.773068,92.000000,0.000000,4293.205078,4291.153809,4316.282227,4310.897461,4270.256348,4297.179688,4335.641113,4406.538574,4312.820313,4299.230957,4498.717773,4524.871582,4357.692383,4432.948730,1706.000000,1.000000,17.000000,,,,0.000000,2.000000,2.000000,0.000000,4.000000,2.000000,2.000000,0.000000,0.000000,4.000000,4.000000,4.000000,4.000000,4.000000,4.000000,0.000000,,,,,,,,,,,,,,,,,23.000000,0.000000,0.486123,0.474121,-0.543213,0.493774,0.987914,-0.073251,-0.032230,-35.847290,44.635330,31.649042
1732159233.778078,1732159233.780876,93.000000,0.000000,4295.512695,4292.563965,4317.948730,4311.538574,4270.128418,4293.846191,4335.641113,4407.820313,4309.871582,4294.615234,4497.179688,4522.692383,4351.410156,4431.666504,1521.000000,1.000000,17.000000,,,,0.000000,2.000000,2.000000,0.000000,4.000000,2.000000,2.000000,0.000000,0.000000,4.000000,4.000000,4.000000,4.000000,4.000000,4.000000,0.000000,,,,,,,,,,,,,,,,,,,,,,,,,,,,
1732159233.785886,1732159233.788484,94.000000,0.000000,4296.282227,4284.230957,4319.358887,4307.179688,4282.563965,4288.205078,4336.666504,4408.077148,4305.128418,4289.102539,4491.666504,4522.563965,4349.102539,4429.487305,1564.000000,1.000000,17.000000,,,,0.000000,2.000000,2.000000,0.000000,4.000000,2.000000,2.000000,0.000000,0.000000,4.000000,4.000000,4.000000,4.000000,4.000000,4.000000,0.000000,,,,,,,,,,,,,,,,,,,,,,,,,,,,
1732159233.793695,1732159233.796292,95.000000,0.000000,4296.794922,4287.051270,4318.205078,4307.563965,4280.641113,4287.179688,4336.025879,4402.563965,4303.333496,4287.820313,4492.563965,4522.692383,4354.871582,4430.512695,1546.000000,1.000000,17.000000,,,,0.000000,2.000000,2.000000,0.000000,4.000000,2.000000,2.000000,0.000000,0.000000,4.000000,4.000000,4.000000,4.000000,4.000000,4.000000,0.000000,,,,,,,,,,,,,,,,,,,,,,,,,,,,
1732159233.801503,1732159233.804001,96.000000,0.000000,4297.436035,4291.153809,4318.205078,4310.897461,4278.333496,4292.692383,4337.436035,4402.051270,4311.153809,4295.000000,4497.307617,4522.179688,4354.743652,4433.717773,1706.000000,1.000000,17.000000,,,,0.000000,2.000000,2.000000,0.000000,4.000000,2.000000,2.000000,0.000000,0.000000,4.000000,4.000000,4.000000,4.000000,4.000000,4.000000,0.000000,,,,,,,,,,,,,,,,,24.000000,0.000000,0.485163,0.474792,-0.543152,0.494141,0.977658,-0.076181,-0.030277,-35.876305,44.482948,31.430725
1732159233.809311,1732159233.811809,97.000000,0.000000,4298.205078,4286.794922,4320.384766,4311.794922,4282.436035,4297.948730,4340.512695,4402.820313,4312.820313,4294.871582,4493.846191,4521.538574,4348.077148,4432.820313,1521.000000,1.000000,17.000000,,,,0.000000,2.000000,2.000000,0.000000,4.000000,2.000000,2.000000,0.000000,0.000000,4.000000,4.000000,4.000000,4.000000,4.000000,4.000000,0.000000,,,,,,,,,,,,,,,,,,,,,,,,,,,,
1732159233.817119,1732159233.819817,98.000000,0.000000,4297.436035,4286.410156,4319.487305,4311.666504,4283.333496,4292.948730,4340.512695,4402.436035,4300.000000,4281.282227,4491.538574,4520.512695,4351.410156,4429.871582,1564.000000,1.000000,17.000000,,,,0.000000,2.000000,2.000000,0.000000,4.000000,2.000000,2.000000,0.000000,0.000000,4.000000,4.000000,4.000000,4.000000,4.000000,4.000000,0.000000,,,,,,,,,,,,,,,,,,,,,,,,,,,,
1732159233.824928,1732159233.827625,99.000000,0.000000,4296.666504,4292.051270,4316.410156,4310.000000,4284.230957,4291.666504,4339.358887,4404.743652,4296.153809,4281.410156,4497.692383,4523.589844,4360.897461,4430.512695,1546.000000,1.000000,17.000000,,,,0.000000,2.000000,2.000000,0.000000,4.000000,2.000000,2.000000,0.000000,0.000000,4.000000,4.000000,4.000000,4.000000,4.000000,4.000000,0.000000,,,,,,,,,,,,,,,,,,,,,,,,,,,,
1732159233.832736,1732159233.835533,100.000000,0.000000,4299.102539,4291.794922,4318.589844,4311.410156,4279.102539,4296.153809,4339.871582,4405.512695,4310.769043,4289.871582,4499.871582,4530.256348,4362.307617,4433.077148,1706.000000,1.000000,17.000000,,,,0.000000,2.000000,2.000000,0.000000,4.000000,2.000000,2.000000,0.000000,0.000000,4.000000,4.000000,4.000000,4.000000,4.000000,4.000000,0.000000,,,,,,,,,,,,,,,,,25.000000,0.000000,0.484430,0.475281,-0.543213,0.494324,0.971310,-0.069833,-0.045416,-36.001472,44.307858,31.372221
1732159233.840544,1732159233.843341,101.000000,0.000000,4297.948730,4287.179688,4320.128418,4310.512695,4281.410156,4287.051270,4338.589844,4401.025879,4312.692383,4282.307617,4492.307617,4527.820313,4356.666504,4431.282227,1521.000000,1.000000,17.000000,,,,0.000000,2.000000,2.000000,0.000000,4.000000,2.000000,2.000000,0.000000,0.000000,4.000000,4.000000,4.000000,4.000000,4.000000,4.000000,0.000000,,,,,,,,,,,,,,,,,,,,,,,,,,,,
1732159233.848353,1732159233.851349,102.000000,0.000000,4296.282227,4285.641113,4317.692383,4305.256348,4294.871582,4277.307617,4335.897461,4402.307617,4298.461426,4276.153809,4489.358887,4519.102539,4355.000000,4428.461426,1564.000000,1.000000,17.000000,,,,0.000000,2.000000,2.000000,0.000000,4.000000,2.000000,2.000000,0.000000,0.000000,4.000000,4.000000,4.000000,4.000000,4.000000,4.000000,0.000000,,,,,,,,,,,,,,,,,,,,,,,,,,,,
1732159233.856161,1732159233.859158,103.000000,0.000000,4301.794922,4289.358887,4316.922852,4308.205078,4285.641113,4283.974121,4335.512695,4407.692383,4302.436035,4290.897461,4496.153809,4523.077148,4361.794922,4430.256348,1546.000000,1.000000,17.000000,,,,0.000000,2.000000,2.000000,0.000000,4.000000,2.000000,2.000000,0.000000,0.000000,4.000000,4.000000,4.000000,4.000000,4.000000,4.000000,0.000000,,,,,,,,,,,,,,,,,,,,,,,,,,,,
1732159233.863969,1732159233.867066,104.000000,0.000000,4304.743652,4288.205078,4321.025879,4314.615234,4262.563965,4289.230957,4335.641113,4405.000000,4312.307617,4299.487305,4497.051270,4531.538574,4364.102539,4430.512695,1706.000000,1.000000,17.000000,,,,0.000000,2.000000,2.000000,0.000000,4.000000,2.000000,2.000000,0.000000,0.000000,4.000000,4.000000,4.000000,4.000000,4.000000,4.000000,0.000000,,,,,,,,,,,,,,,,,26.000000,0.000000,0.484119,0.475464,-0.543274,0.494385,0.967403,-0.076181,-0.043462,-36.106194,44.241032,31.241499
1732159233.871777,1732159233.874874,105.000000,0.000000,4299.230957,4281.025879,4320.000000,4311.922852,4262.307617,4285.769043,4335.000000,4401.282227,4300.512695,4284.487305,4493.205078,4527.948730,4360.000000,4427.436035,1521.000000,1.000000,17.000000,,,,0.000000,2.000000,2.000000,0.000000,4.000000,2.000000,2.000000,0.000000,0.000000,4.000000,4.000000,4.000000,4.000000,4.000000,4.000000,0.000000,,,,,,,,,,,,,,,,,,,,,,,,,,,,
1732159233.879585,1732159233.882882,106.000000,0.000000,4296.794922,4282.563965,4315.256348,4308.589844,4271.153809,4285.641113,4334.743652,4403.974121,4291.153809,4277.820313,4492.820313,4527.692383,4359.615234,4427.307617,1564.000000,1.000000,17.000000,,,,0.000000,2.000000,2.000000,0.000000,4.000000,2.000000,2.000000,0.000000,0.000000,4.000000,4.000000,4.000000,4.000000,4.000000,4.000000,0.000000,,,,,,,,,,,,,,,,,,,,,,,,,,,,
1732159233.887394,1732159233.890690,107.000000,0.000000,4296.410156,4286.538574,4316.922852,4310.897461,4270.256348,4286.410156,4334.358887,4406.538574,4301.410156,4286.538574,4492.820313,4532.051270,4358.717773,4429.358887,1546.000000,1.000000,17.000000,,,,0.000000,2.000000,2.000000,0.000000,4.000000,2.000000,2.000000,0.000000,0.000000,4.000000,4.000000,4.000000,4.000000,4.000000,4.000000,0.000000,,,,,,,,,,,,,,,,,,,,,,,,,,,,
1732159233.895202,1732159233.898598,108.000000,0.000000,4295.384766,4285.128418,4319.615234,4311.794922,4274.871582,4286.410156,4335.384766,4406.538574,4303.461426,4288.717773,4491.922852,4527.307617,4355.128418,4428.846191,1706.000000,1.000000,17.000000,,,,0.000000,2.000000,2.000000,0.000000,4.000000,2.000000,2.000000,0.000000,0.000000,4.000000,4.000000,4.000000,4.000000,4.000000,4.000000,0.000000,,,,,,,,,,,,,,,,,27.000000,0.000000,0.483920,0.475464,-0.543396,0.494446,0.968868,-0.070321,-0.032719,-36.434349,43.910236,31.353947
1732159233.903010,1732159233.906406,109.000000,0.000000,4299.230957,4284.102539,4318.205078,4312.436035,4281.922852,4290.128418,4336.922852,4403.717773,4299.230957,4288.205078,4493.205078,4520.897461,4360.641113,4428.717773,1521.000000,1.000000,17.000000,,,,0.000000,2.000000,2.000000,0.000000,4.000000,2.000000,2.000000,0.000000,0.000000,4.000000,4.000000,4.000000,4.000000,4.000000,4.000000,0.000000,,,,,,,,,,,,,,,,,,,,,,,,,,,,
1732159233.910818,1732159233.914414,110.000000,0.000000,4300.897461,4285.512695,4317.820313,4311.282227,4276.153809,4290.384766,4335.512695,4403.717773,4305.384766,4294.358887,4497.179688,4525.512695,4367.692383,4429.615234,1564.000000,1.000000,17.000000,,,,0.000000,2.000000,2.000000,0.000000,4.000000,2.000000,2.000000,0.000000,0.000000,4.000000,4.000000,4.000000,4.000000,4.000000,4.000000,0.000000,,,,,,,,,,,,,,,,,,,,,,,,,,,,
1732159233.918627,1732159233.922223,111.000000,0.000000,4296.153809,4281.538574,4318.589844,4305.512695,4281.666504,4283.205078,4334.230957,4406.794922,4307.692383,4297.948730,4496.025879,4530.512695,4360.769043,4428.461426,1546.000000,1.000000,17.000000,,,,0.000000,2.000000,2.000000,0.000000,4.000000,2.000000,2.000000,0.000000,0.000000,4.000000,4.000000,4.000000,4.000000,4.000000,4.000000,0.000000,,,,,,,,,,,,,,,,,,,,,,,,,,,,
1732159233.926435,1732159233.930131,112.000000,0.000000,4296.282227,4279.358887,4316.282227,4306.794922,4289.743652,4277.563965,4335.641113,4405.897461,4304.230957,4292.436035,4491.153809,4526.794922,4355.128418,4426.666504,1706.000000,1.000000,17.000000,,,,0.000000,2.000000,2.000000,0.000000,4.000000,2.000000,2.000000,0.000000,0.000000,4.000000,4.000000,4.000000,4.000000,4.000000,4.000000,0.000000,,,,,,,,,,,,,,,,,28.000000,0.000000,0.483621,0.475647,-0.543335,0.494629,0.972775,-0.074716,-0.041997,-36.223492,43.925625,31.108364
1732159233.934243,1732159233.937939,113.000000,0.000000,4299.102539,4280.641113,4316.922852,4312.563965,4275.128418,4283.333496,4335.769043,4401.794922,4302.948730,4285.641113,4488.205078,4524.871582,4357.948730,4426.794922,1521.000000,1.000000,17.000000,,,,0.000000,2.000000,2.000000,0.000000,4.000000,2.000000,2.000000,0.000000,0.000000,4.000000,4.000000,4.000000,4.000000,4.000000,4.000000,0.000000,,,,,,,,,,,,,,,,,,,,,,,,,,,,
1732159233.942052,1732159233.945947,114.000000,0.000000,4296.794922,4278.589844,4318.846191,4310.384766,4264.230957,4294.487305,4334.871582,4402.563965,4307.563965,4284.102539,4488.846191,4524.102539,4357.307617,4429.871582,1564.000000,1.000000,17.000000,,,,0.000000,2.000000,2.000000,0.000000,4.000000,2.000000,2.000000,0.000000,0.000000,4.000000,4.000000,4.000000,4.000000,4.000000,4.000000,0.000000,,,,,,,,,,,,,,,,,,,,,,,,,,,,
1732159233.949860,1732159233.953755,115.000000,0.000000,4294.743652,4279.358887,4316.410156,4308.461426,4276.922852,4299.102539,4335.769043,4408.333496,4311.410156,4285.000000,4489.102539,4519.615234,4351.282227,4426.794922,1546.000000,1.000000,17.000000,,,,0.000000,2.000000,2.000000,0.000000,4.000000,2.000000,2.000000,0.000000,0.000000,4.000000,4.000000,4.000000,4.000000,4.000000,4.000000,0.000000,,,,,,,,,,,,,,,,,,,,,,,,,,,,
1732159233.957668,1732159233.961663,116.000000,0.000000,4295.512695,4281.666504,4313.846191,4310.512695,4285.897461,4295.897461,4336.153809,4408.205078,4309.615234,4280.641113,4488.333496,4521.538574,4347.948730,4419.743652,1706.000000,1.000000,17.000000,,,,0.000000,2.000000,2.000000,0.000000,4.000000,2.000000,2.000000,0.000000,0.000000,4.000000,4.000000,4.000000,4.000000,4.000000,4.000000,0.000000,,,,,,,,,,,,,,,,,29.000000,0.000000,0.483490,0.475647,-0.543396,0.494690,0.964962,-0.078135,-0.053229,-36.359360,44.054756,31.196108
1732159233.965476,1732159233.969472,117.000000,0.000000,4296.538574,4273.974121,4317.692383,4307.051270,4272.692383,4288.589844,4335.641113,4401.666504,4308.205078,4281.410156,4488.717773,4531.025879,4350.000000,4422.692383,1521.000000,1.000000,17.000000,,,,0.000000,2.000000,2.000000,0.000000,4.000000,2.000000,2.000000,0.000000,0.000000,4.000000,4.000000,4.000000,4.000000,4.000000,4.000000,0.000000,,,,,,,,,,,,,,,,,,,,,,,,,,,,
1732159233.973285,1732159233.977480,118.000000,0.000000,4292.948730,4265.897461,4319.615234,4298.589844,4265.512695,4286.282227,4336.025879,4400.769043,4311.410156,4290.641113,4488.846191,4534.102539,4350.000000,4424.487305,1564.000000,1.000000,17.000000,,,,0.000000,2.000000,2.000000,0.000000,4.000000,2.000000,2.000000,0.000000,0.000000,4.000000,4.000000,4.000000,4.000000,4.000000,4.000000,0.000000,,,,,,,,,,,,,,,,,,,,,,,,,,,,
1732159233.981093,1732159233.985288,119.000000,0.000000,4286.794922,4270.897461,4317.692383,4296.538574,4281.153809,4285.769043,4335.897461,4405.128418,4307.563965,4289.615234,4488.846191,4532.307617,4350.256348,4414.871582,1546.000000,1.000000,17.000000,,,,0.000000,2.000000,2.000000,0.000000,4.000000,2.000000,2.000000,0.000000,0.000000,4.000000,4.000000,4.000000,4.000000,4.000000,4.000000,0.000000,,,,,,,,,,,,,,,,,,,,,,,,,,,,
1732159233.988901,1732159233.992996,120.000000,0.000000,4289.615234,4275.769043,4316.538574,4303.077148,4290.000000,4284.743652,4335.641113,4404.358887,4301.922852,4286.153809,4488.846191,4531.922852,4353.589844,4410.512695,1706.000000,1.000000,17.000000,,,,0.000000,2.000000,2.000000,0.000000,4.000000,2.000000,2.000000,0.000000,0.000000,4.000000,4.000000,4.000000,4.000000,4.000000,4.000000,0.000000,,,,,,,,,,,,,,,,,30.000000,0.000000,0.483484,0.475647,-0.543457,0.494629,0.976193,-0.079600,-0.047857,-36.469414,44.234352,31.222181
1732159233.996709,1732159234.000804,121.000000,0.000000,4296.153809,4272.692383,4317.820313,4308.077148,4275.384766,4290.000000,4336.410156,4403.461426,4312.307617,4295.769043,4488.846191,4531.922852,4353.974121,4415.384766,1521.000000,1.000000,17.000000,,,,0.000000,2.000000,2.000000,0.000000,4.000000,2.000000,2.000000,0.000000,0.000000,4.000000,4.000000,4.000000,4.000000,4.000000,4.000000,0.000000,,,,,,,,,,,,,,,,,,,,,,,,,,,,
1732159234.004517,1732159234.008812,122.000000,0.000000,4296.025879,4273.846191,4319.743652,4307.563965,4262.436035,4296.538574,4336.922852,4405.128418,4317.563965,4298.461426,4488.846191,4529.230957,4351.025879,4414.230957,1564.000000,1.000000,17.000000,,,,0.000000,2.000000,2.000000,0.000000,4.000000,2.000000,2.000000,0.000000,0.000000,4.000000,4.000000,4.000000,4.000000,4.000000,4.000000,0.000000,,,,,,,,,,,,,,,,,,,,,,,,,,,,
1732159234.012326,1732159234.016620,123.000000,0.000000,4293.974121,4277.179688,4319.743652,4304.358887,4265.256348,4292.563965,4335.769043,4402.051270,4307.692383,4287.563965,4488.846191,4530.256348,4350.641113,4415.384766,1546.000000,1.000000,17.000000,,,,0.000000,2.000000,2.000000,0.000000,4.000000,2.000000,2.000000,0.000000,0.000000,4.000000,4.000000,4.000000,4.000000,4.000000,4.000000,0.000000,,,,,,,,,,,,,,,,,,,,,,,,,,,,
1732159234.020134,1732159234.024329,124.000000,0.000000,4295.128418,4276.153809,4317.948730,4307.820313,4276.666504,4288.461426,4334.743652,4400.256348,4305.128418,4286.922852,4488.846191,4531.666504,4353.333496,4420.256348,1706.000000,1.000000,17.000000,,,,0.000000,2.000000,2.000000,0.000000,4.000000,2.000000,2.000000,0.000000,0.000000,4.000000,4.000000,4.000000,4.000000,4.000000,4.000000,0.000000,,,,,,,,,,,,,,,,,31.000000,0.000000,0.483602,0.475159,-0.543945,0.494446,0.977658,-0.078623,-0.047369,-36.411892,44.348160,31.369967
1732159234.027942,1732159234.032137,125.000000,0.000000,4294.230957,4276.666504,4319.102539,4309.358887,4286.666504,4290.000000,4335.000000,4402.820313,4311.794922,4293.717773,4488.846191,4532.051270,4351.794922,4419.230957,1521.000000,1.000000,17.000000,,,,0.000000,2.000000,2.000000,0.000000,4.000000,2.000000,2.000000,0.000000,0.000000,4.000000,4.000000,4.000000,4.000000,4.000000,4.000000,0.000000,,,,,,,,,,,,,,,,,,,,,,,,,,,,
1732159234.035751,1732159234.040145,126.000000,0.000000,4293.717773,4279.743652,4320.384766,4302.948730,4277.692383,4290.897461,4335.128418,4402.948730,4310.641113,4290.128418,4488.846191,4532.307617,4349.871582,4420.256348,1564.000000,1.000000,17.000000,,,,0.000000,2.000000,2.000000,0.000000,4.000000,2.000000,2.000000,0.000000,0.000000,4.000000,4.000000,4.000000,4.000000,4.000000,4.000000,0.000000,,,,,,,,,,,,,,,,,,,,,,,,,,,,
1732159234.043559,1732159234.047953,127.000000,0.000000,4291.410156,4278.589844,4318.974121,4302.820313,4267.051270,4295.769043,4334.871582,4402.307617,4308.077148,4287.563965,4488.846191,4532.692383,4353.589844,4421.538574,17.000000,1.000000,17.000000,,,,0.000000,2.000000,2.000000,0.000000,4.000000,2.000000,2.000000,0.000000,0.000000,4.000000,4.000000,4.000000,4.000000,4.000000,4.000000,0.000000,,,,,,,,,,,,,,,,,,,,,,,,,,,,
1732159234.051367,1732159234.055661,0.000000,0.000000,4285.128418,4274.230957,4317.307617,4309.358887,4277.051270,4302.563965,4335.000000,4403.333496,4311.153809,4287.948730,4488.846191,4532.563965,4353.461426,4416.025879,0.000000,1.000000,17.000000,,,,0.000000,2.000000,2.000000,0.000000,4.000000,2.000000,2.000000,0.000000,0.000000,4.000000,4.000000,4.000000,4.000000,4.000000,4.000000,0.000000,,,,,,,,,,,,,,,,,0.000000,0.000000,0.483197,0.474731,-0.544678,0.494446,0.977658,-0.071786,-0.022464,-36.455299,44.290340,31.223005
1732159234.059175,1732159234.063470,1.000000,0.000000,4286.025879,4273.205078,4317.820313,4309.230957,4284.358887,4296.922852,4335.000000,4403.846191,4311.794922,4282.948730,4488.846191,4530.769043,4349.230957,4412.820313,1618.000000,1.000000,17.000000,,,,0.000000,2.000000,2.000000,0.000000,4.000000,2.000000,2.000000,0.000000,0.000000,4.000000,4.000000,4.000000,4.000000,4.000000,4.000000,0.000000,,,,,,,,,,,,,,,,,,,,,,,,,,,,
1732159234.066984,1732159234.071078,2.000000,0.000000,4291.922852,4275.384766,4319.358887,4304.615234,4278.461426,4287.307617,4334.615234,4404.230957,4310.512695,4280.769043,4488.846191,4529.358887,4349.230957,4415.128418,1359.000000,1.000000,17.000000,,,,0.000000,2.000000,2.000000,0.000000,4.000000,2.000000,2.000000,0.000000,0.000000,4.000000,4.000000,4.000000,4.000000,4.000000,4.000000,0.000000,,,,,,,,,,,,,,,,,,,,,,,,,,,,
1732159234.074792,1732159234.078886,3.000000,0.000000,4291.025879,4275.128418,4318.974121,4305.769043,4275.128418,4290.897461,4335.128418,4405.897461,4311.410156,4288.333496,4488.974121,4527.563965,4349.871582,4412.692383,1439.000000,1.000000,17.000000,,,,0.000000,2.000000,2.000000,0.000000,4.000000,2.000000,2.000000,0.000000,0.000000,4.000000,4.000000,4.000000,4.000000,4.000000,4.000000,0.000000,,,,,,,,,,,,,,,,,,,,,,,,,,,,
1732159234.082600,1732159234.086595,4.000000,0.000000,4288.333496,4270.000000,4318.077148,4305.897461,4281.538574,4297.179688,4335.256348,4408.589844,4312.563965,4294.487305,4489.615234,4531.282227,4349.358887,4412.051270,1436.000000,1.000000,17.000000,,,,0.000000,2.000000,2.000000,0.000000,4.000000,2.000000,2.000000,0.000000,0.000000,4.000000,4.000000,4.000000,4.000000,4.000000,4.000000,0.000000,,,,,,,,,,,,,,,,,1.000000,0.000000,0.482708,0.474548,-0.545105,0.494629,0.970822,-0.081553,-0.050787,-36.383793,44.326843,31.282301
1732159234.090408,1732159234.094403,5.000000,0.000000,4292.948730,4271.538574,4318.717773,4304.871582,4295.641113,4294.871582,4333.974121,4407.051270,4310.897461,4293.589844,4488.205078,4535.512695,4354.487305,4415.512695,1192.000000,1.000000,17.000000,,,,0.000000,2.000000,2.000000,0.000000,4.000000,2.000000,2.000000,0.000000,0.000000,4.000000,4.000000,4.000000,4.000000,4.000000,4.000000,0.000000,,,,,,,,,,,,,,,,,,,,,,,,,,,,
1732159234.098217,1732159234.102011,6.000000,0.000000,4293.974121,4279.615234,4320.128418,4310.641113,4294.358887,4293.333496,4336.282227,4403.589844,4311.153809,4291.282227,4488.333496,4529.743652,4356.794922,4414.230957,0.000000,1.000000,17.000000,,,,0.000000,2.000000,2.000000,0.000000,4.000000,2.000000,2.000000,0.000000,0.000000,4.000000,4.000000,4.000000,4.000000,4.000000,4.000000,0.000000,,,,,,,,,,,,,,,,,,,,,,,,,,,,
1732159234.106025,1732159234.109819,7.000000,0.000000,4287.692383,4280.384766,4318.205078,4313.846191,4272.692383,4297.051270,4340.641113,4406.282227,4313.205078,4288.461426,4491.282227,4523.333496,4350.256348,4411.153809,0.000000,1.000000,17.000000,,,,0.000000,2.000000,2.000000,0.000000,4.000000,2.000000,2.000000,0.000000,0.000000,4.000000,4.000000,4.000000,4.000000,4.000000,4.000000,0.000000,,,,,,,,,,,,,,,,,,,,,,,,,,,,
1732159234.113833,1732159234.117528,8.000000,0.000000,4281.666504,4270.128418,4318.077148,4304.230957,4267.692383,4299.230957,4340.641113,4409.487305,4314.487305,4285.512695,4485.256348,4522.436035,4343.717773,4407.307617,1543.000000,1.000000,17.000000,,,,0.000000,2.000000,2.000000,0.000000,4.000000,2.000000,2.000000,0.000000,0.000000,4.000000,4.000000,4.000000,4.000000,4.000000,4.000000,0.000000,,,,,,,,,,,,,,,,,2.000000,0.000000,0.482505,0.474487,-0.545227,0.494751,0.973263,-0.085460,-0.054694,-36.469204,44.138077,31.133665
1732159234.121641,1732159234.125336,9.000000,0.000000,4279.102539,4265.000000,4319.615234,4297.820313,4287.307617,4298.077148,4338.333496,4406.282227,4313.589844,4285.769043,4478.974121,4520.769043,4343.461426,4402.820313,1706.000000,1.000000,17.000000,,,,0.000000,2.000000,2.000000,0.000000,4.000000,2.000000,2.000000,0.000000,0.000000,4.000000,4.000000,4.000000,4.000000,4.000000,4.000000,0.000000,,,,,,,,,,,,,,,,,,,,,,,,,,,,
1732159234.129449,1732159234.132944,10.000000,0.000000,4284.230957,4273.589844,4316.794922,4307.051270,4293.717773,4296.153809,4338.974121,4405.128418,4313.333496,4291.666504,4485.256348,4518.846191,4350.769043,4406.794922,1563.000000,1.000000,17.000000,,,,0.000000,2.000000,2.000000,0.000000,4.000000,2.000000,2.000000,0.000000,0.000000,4.000000,4.000000,4.000000,4.000000,4.000000,4.000000,0.000000,,,,,,,,,,,,,,,,,,,,,,,,,,,,
1732159234.137258,1732159234.140753,11.000000,0.000000,4289.358887,4283.077148,4315.256348,4313.333496,4279.871582,4295.256348,4340.000000,4406.922852,4316.153809,4297.179688,4492.436035,4524.102539,4357.436035,4415.384766,1549.000000,1.000000,17.000000,,,,0.000000,2.000000,2.000000,0.000000,4.000000,2.000000,2.000000,0.000000,0.000000,4.000000,4.000000,4.000000,4.000000,4.000000,4.000000,0.000000,,,,,,,,,,,,,,,,,,,,,,,,,,,,
1732159234.145066,1732159234.148661,12.000000,0.000000,4285.000000,4277.436035,4320.512695,4309.871582,4273.333496,4296.410156,4339.871582,4406.794922,4313.846191,4293.333496,4489.358887,4527.692383,4356.410156,4414.615234,1708.000000,1.000000,17.000000,,,,0.000000,2.000000,2.000000,0.000000,4.000000,2.000000,2.000000,0.000000,0.000000,4.000000,4.000000,4.000000,4.000000,4.000000,4.000000,0.000000,,,,,,,,,,,,,,,,,3.000000,0.000000,0.481915,0.474487,-0.545471,0.495056,0.977658,-0.080088,-0.044439,-36.485058,44.306843,30.964935
1732159234.152874,1732159234.156469,13.000000,0.000000,4278.974121,4268.846191,4323.333496,4308.205078,4280.256348,4297.820313,4340.256348,4406.282227,4309.871582,4288.589844,4486.153809,4525.897461,4355.128418,4411.410156,1536.000000,1.000000,17.000000,,,,0.000000,2.000000,2.000000,0.000000,4.000000,2.000000,2.000000,0.000000,0.000000,4.000000,4.000000,4.000000,4.000000,4.000000,4.000000,0.000000,,,,,,,,,,,,,,,,,,,,,,,,,,,,
1732159234.160683,1732159234.164477,14.000000,0.000000,4284.871582,4270.769043,4320.000000,4306.922852,4277.820313,4296.666504,4340.128418,4406.666504,4311.153809,4292.051270,4489.615234,4526.666504,4356.153809,4416.538574,1563.000000,1.000000,17.000000,,,,0.000000,2.000000,2.000000,0.000000,4.000000,2.000000,2.000000,0.000000,0.000000,4.000000,4.000000,4.000000,4.000000,4.000000,4.000000,0.000000,1.000000,0.000000,2.000000,2.000000,0.000000,4.000000,1.000000,2.000000,0.000000,0.000000,4.000000,1.000000,4.000000,4.000000,4.000000,3.000000,,,,,,,,,,,,
1732159234.168491,1732159234.172285,15.000000,0.000000,4289.743652,4271.538574,4318.974121,4300.000000,4279.487305,4289.102539,4340.128418,4405.769043,4312.563965,4295.512695,4492.948730,4530.384766,4354.743652,4419.615234,1549.000000,1.000000,17.000000,,,,0.000000,2.000000,2.000000,0.000000,4.000000,2.000000,2.000000,0.000000,0.000000,4.000000,4.000000,4.000000,4.000000,4.000000,4.000000,0.000000,,,,,,,,,,,,,,,,,,,,,,,,,,,,
1732159234.176299,1732159234.180193,16.000000,0.000000,4284.230957,4269.358887,4319.102539,4298.205078,4295.641113,4281.794922,4340.256348,4406.025879,4315.000000,4296.153809,4493.589844,4529.487305,4354.871582,4419.358887,0.000000,1.000000,17.000000,,,,0.000000,2.000000,2.000000,0.000000,4.000000,2.000000,2.000000,0.000000,0.000000,4.000000,4.000000,4.000000,4.000000,4.000000,4.000000,0.000000,,,,,,,,,,,,,,,,,4.000000,0.000000,0.481324,0.474060,-0.546143,0.495300,0.968868,-0.084483,-0.052252,-36.364563,44.310207,30.911596
1732159234.184107,1732159234.188001,17.000000,0.000000,4281.794922,4273.205078,4318.333496,4304.743652,4281.666504,4286.410156,4340.128418,4405.256348,4317.563965,4296.410156,4490.897461,4523.333496,4358.846191,4419.102539,0.000000,1.000000,17.000000,,,,0.000000,2.000000,2.000000,0.000000,4.000000,2.000000,2.000000,0.000000,0.000000,4.000000,4.000000,4.000000,4.000000,4.000000,4.000000,0.000000,,,,,,,,,,,,,,,,,,,,,,,,,,,,
1732159234.191916,1732159234.195610,18.000000,0.000000,4285.128418,4278.974121,4318.205078,4308.205078,4263.717773,4295.897461,4340.128418,4403.717773,4313.589844,4296.666504,4488.589844,4515.641113,4358.461426,4416.282227,0.000000,1.000000,17.000000,,,,0.000000,2.000000,2.000000,0.000000,4.000000,2.000000,2.000000,0.000000,0.000000,4.000000,4.000000,4.000000,4.000000,4.000000,4.000000,0.000000,,,,,,,,,,,,,,,,,,,,,,,,,,,,
1732159234.199724,1732159234.203418,19.000000,0.000000,4284.743652,4279.102539,4318.077148,4305.256348,4285.128418,4295.384766,4340.128418,4407.436035,4308.077148,4294.358887,4487.948730,4513.846191,4351.282227,4412.820313,0.000000,1.000000,17.000000,,,,0.000000,2.000000,2.000000,0.000000,4.000000,2.000000,2.000000,0.000000,0.000000,4.000000,4.000000,4.000000,4.000000,4.000000,4.000000,0.000000,,,,,,,,,,,,,,,,,,,,,,,,,,,,
1732159234.207532,1732159234.211126,20.000000,0.000000,4281.794922,4278.333496,4316.153809,4304.615234,4289.102539,4293.461426,4340.128418,4411.025879,4309.230957,4293.846191,4488.974121,4521.025879,4351.666504,4412.692383,0.000000,1.000000,17.000000,,,,0.000000,2.000000,2.000000,0.000000,4.000000,2.000000,2.000000,0.000000,0.000000,4.000000,4.000000,4.000000,4.000000,4.000000,4.000000,0.000000,,,,,,,,,,,,,,,,,5.000000,0.000000,0.481324,0.474060,-0.546143,0.495300,0.970333,-0.083018,-0.042974,-36.041962,44.449604,30.928394
1732159234.215341,1732159234.218935,21.000000,0.000000,4282.179688,4278.974121,4317.179688,4304.487305,4265.641113,4295.897461,4340.128418,4409.358887,4313.461426,4298.974121,4491.922852,4522.563965,4362.436035,4414.102539,0.000000,1.000000,17.000000,,,,0.000000,2.000000,2.000000,0.000000,4.000000,2.000000,2.000000,0.000000,0.000000,4.000000,4.000000,4.000000,4.000000,4.000000,4.000000,0.000000,,,,,,,,,,,,,,,,,,,,,,,,,,,,
1732159234.223149,1732159234.226943,22.000000,0.000000,4281.538574,4276.153809,4318.333496,4299.230957,4267.051270,4296.794922,4340.128418,4407.692383,4315.641113,4302.307617,4492.563965,4512.820313,4366.922852,4413.589844,0.000000,1.000000,17.000000,,,,0.000000,2.000000,2.000000,0.000000,4.000000,2.000000,2.000000,0.000000,0.000000,4.000000,4.000000,4.000000,4.000000,4.000000,4.000000,0.000000,,,,,,,,,,,,,,,,,,,,,,,,,,,,
1732159234.230957,1732159234.234751,23.000000,0.000000,4280.384766,4271.153809,4316.538574,4296.025879,4277.948730,4295.897461,4340.128418,4411.153809,4313.974121,4299.358887,4490.384766,4512.436035,4359.487305,4412.307617,0.000000,1.000000,17.000000,,,,0.000000,2.000000,2.000000,0.000000,4.000000,2.000000,2.000000,0.000000,0.000000,4.000000,4.000000,4.000000,4.000000,4.000000,4.000000,0.000000,,,,,,,,,,,,,,,,,,,,,,,,,,,,
1732159234.238765,1732159234.242659,24.000000,0.000000,4280.641113,4264.871582,4316.538574,4295.512695,4283.974121,4291.410156,4340.128418,4410.256348,4309.615234,4295.256348,4487.820313,4518.846191,4350.000000,4411.410156,0.000000,1.000000,17.000000,,,,0.000000,2.000000,2.000000,0.000000,4.000000,2.000000,2.000000,0.000000,0.000000,4.000000,4.000000,4.000000,4.000000,4.000000,4.000000,0.000000,,,,,,,,,,,,,,,,,6.000000,0.000000,0.481225,0.473816,-0.546387,0.495361,0.983030,-0.083995,-0.041021,-36.265656,44.504177,30.966999
1732159234.246573,1732159234.250467,25.000000,0.000000,4282.051270,4264.487305,4319.871582,4295.512695,4292.692383,4290.128418,4340.128418,4407.307617,4310.000000,4296.410156,4488.461426,4517.307617,4348.205078,4411.922852,0.000000,1.000000,17.000000,,,,0.000000,2.000000,2.000000,0.000000,4.000000,2.000000,2.000000,0.000000,0.000000,4.000000,4.000000,4.000000,4.000000,4.000000,4.000000,0.000000,,,,,,,,,,,,,,,,,,,,,,,,,,,,
1732159234.254382,1732159234.258475,26.000000,0.000000,4283.589844,4266.538574,4319.743652,4297.948730,4277.051270,4295.128418,4340.128418,4409.871582,4314.230957,4300.769043,4490.769043,4521.025879,4355.000000,4413.589844,0.000000,1.000000,17.000000,,,,0.000000,2.000000,2.000000,0.000000,4.000000,2.000000,2.000000,0.000000,0.000000,4.000000,4.000000,4.000000,4.000000,4.000000,4.000000,0.000000,,,,,,,,,,,,,,,,,,,,,,,,,,,,
1732159234.262190,1732159234.266283,27.000000,0.000000,4284.871582,4268.461426,4316.025879,4302.692383,4259.615234,4298.333496,4340.128418,4406.538574,4313.205078,4300.641113,4491.666504,4526.282227,4359.230957,4414.871582,0.000000,1.000000,17.000000,,,,0.000000,2.000000,2.000000,0.000000,4.000000,2.000000,2.000000,0.000000,0.000000,4.000000,4.000000,4.000000,4.000000,4.000000,4.000000,0.000000,,,,,,,,,,,,,,,,,,,,,,,,,,,,
1732159234.269998,1732159234.274191,28.000000,0.000000,4285.512695,4273.205078,4316.282227,4307.692383,4273.461426,4295.000000,4340.128418,4402.436035,4307.179688,4293.846191,4490.769043,4515.897461,4354.358887,4411.410156,0.000000,1.000000,17.000000,,,,0.000000,2.000000,2.000000,0.000000,4.000000,2.000000,2.000000,0.000000,0.000000,4.000000,4.000000,4.000000,4.000000,4.000000,4.000000,0.000000,,,,,,,,,,,,,,,,,7.000000,0.000000,0.481013,0.473083,-0.546875,0.495728,0.979612,-0.093273,-0.051276,-36.221848,44.491718,31.091602
1732159234.277806,1732159234.282000,29.000000,0.000000,4283.717773,4274.102539,4320.641113,4306.666504,4285.641113,4293.461426,4340.128418,4403.205078,4305.641113,4292.692383,4485.384766,4509.615234,4350.000000,4406.410156,0.000000,1.000000,17.000000,,,,0.000000,2.000000,2.000000,0.000000,4.000000,2.000000,2.000000,0.000000,0.000000,4.000000,4.000000,4.000000,4.000000,4.000000,4.000000,0.000000,,,,,,,,,,,,,,,,,,,,,,,,,,,,
1732159234.285615,1732159234.290008,30.000000,0.000000,4280.769043,4266.153809,4319.743652,4298.333496,4281.410156,4296.153809,4340.128418,4401.666504,4307.820313,4299.615234,4481.794922,4516.922852,4350.769043,4408.077148,0.000000,1.000000,17.000000,,,,0.000000,2.000000,2.000000,0.000000,4.000000,2.000000,2.000000,0.000000,0.000000,4.000000,4.000000,4.000000,4.000000,4.000000,4.000000,0.000000,,,,,,,,,,,,,,,,,,,,,,,,,,,,
1732159234.293423,1732159234.297816,31.000000,0.000000,4281.666504,4261.153809,4316.410156,4293.333496,4278.461426,4291.153809,4340.128418,4402.563965,4307.948730,4301.922852,4485.769043,4521.282227,4353.589844,4413.589844,0.000000,1.000000,17.000000,,,,0.000000,2.000000,2.000000,0.000000,4.000000,2.000000,2.000000,0.000000,0.000000,4.000000,4.000000,4.000000,4.000000,4.000000,4.000000,0.000000,,,,,,,,,,,,,,,,,,,,,,,,,,,,
1732159234.301231,1732159234.305524,32.000000,0.000000,4286.666504,4266.922852,4317.692383,4295.384766,4279.743652,4284.743652,4340.128418,4408.589844,4307.563965,4304.487305,4490.769043,4519.615234,4359.743652,4416.410156,0.000000,1.000000,17.000000,,,,0.000000,2.000000,2.000000,0.000000,4.000000,2.000000,2.000000,0.000000,0.000000,4.000000,4.000000,4.000000,4.000000,4.000000,4.000000,0.000000,,,,,,,,,,,,,,,,,8.000000,0.000000,0.481162,0.472778,-0.547119,0.495605,0.974240,-0.101087,-0.047857,-36.169697,44.498291,31.209198
1732159234.309039,1732159234.313332,33.000000,0.000000,4289.743652,4272.692383,4318.077148,4298.461426,4294.102539,4283.205078,4340.000000,4407.436035,4305.641113,4310.769043,4486.282227,4514.743652,4359.358887,4416.025879,0.000000,1.000000,17.000000,,,,0.000000,2.000000,2.000000,0.000000,4.000000,2.000000,2.000000,0.000000,0.000000,4.000000,4.000000,4.000000,4.000000,4.000000,4.000000,0.000000,,,,,,,,,,,,,,,,,,,,,,,,,,,,
1732159234.316848,1732159234.321340,34.000000,0.000000,4286.922852,4269.871582,4316.794922,4301.794922,4296.538574,4285.128418,4340.000000,4404.615234,4303.589844,4310.128418,4479.102539,4516.025879,4350.384766,4415.384766,0.000000,1.000000,17.000000,,,,0.000000,2.000000,2.000000,0.000000,4.000000,2.000000,2.000000,0.000000,0.000000,4.000000,4.000000,4.000000,4.000000,4.000000,4.000000,0.000000,,,,,,,,,,,,,,,,,,,,,,,,,,,,
1732159234.324656,1732159234.329149,35.000000,0.000000,4282.436035,4265.128418,4317.307617,4300.256348,4273.846191,4290.897461,4340.384766,4408.205078,4309.487305,4312.179688,4478.205078,4525.128418,4351.666504,4415.000000,0.000000,1.000000,17.000000,,,,0.000000,2.000000,2.000000,0.000000,4.000000,2.000000,2.000000,0.000000,0.000000,4.000000,4.000000,4.000000,4.000000,4.000000,4.000000,0.000000,,,,,,,,,,,,,,,,,,,,,,,,,,,,
1732159234.332464,1732159234.337057,36.000000,0.000000,4280.769043,4262.948730,4319.230957,4297.179688,4268.846191,4294.743652,4340.256348,4409.102539,4313.717773,4318.205078,4481.794922,4524.615234,4357.307617,4414.615234,0.000000,1.000000,17.000000,,,,0.000000,2.000000,2.000000,0.000000,4.000000,2.000000,2.000000,0.000000,0.000000,4.000000,4.000000,4.000000,4.000000,4.000000,4.000000,0.000000,,,,,,,,,,,,,,,,,9.000000,0.000000,0.481222,0.472717,-0.547119,0.495605,0.974240,-0.101087,-0.047857,-36.232456,44.371948,31.232784
1732159234.340273,1732159234.344865,37.000000,0.000000,4283.589844,4264.358887,4317.436035,4300.128418,4284.230957,4294.230957,4340.000000,4408.077148,4307.436035,4314.871582,4482.051270,4517.820313,4352.436035,4413.077148,0.000000,1.000000,17.000000,,,,0.000000,2.000000,2.000000,0.000000,4.000000,2.000000,2.000000,0.000000,0.000000,4.000000,4.000000,4.000000,4.000000,4.000000,4.000000,0.000000,,,,,,,,,,,,,,,,,,,,,,,,,,,,
1732159234.348081,1732159234.352873,38.000000,0.000000,4284.871582,4264.743652,4315.769043,4302.436035,4285.256348,4296.538574,4341.794922,4410.384766,4303.333496,4310.512695,4475.769043,4520.384766,4348.077148,4411.282227,0.000000,1.000000,17.000000,,,,0.000000,2.000000,2.000000,0.000000,4.000000,2.000000,2.000000,0.000000,0.000000,4.000000,4.000000,4.000000,4.000000,4.000000,4.000000,0.000000,,,,,,,,,,,,,,,,,,,,,,,,,,,,
1732159234.355889,1732159234.360681,39.000000,0.000000,4280.384766,4265.000000,4317.436035,4302.307617,4282.179688,4299.871582,4343.077148,4409.487305,4298.974121,4310.897461,4473.077148,4513.974121,4349.743652,4410.769043,0.000000,1.000000,17.000000,,,,0.000000,2.000000,2.000000,0.000000,4.000000,2.000000,2.000000,0.000000,0.000000,4.000000,4.000000,4.000000,4.000000,4.000000,4.000000,0.000000,,,,,,,,,,,,,,,,,,,,,,,,,,,,
1732159234.363697,1732159234.368589,40.000000,0.000000,4280.384766,4265.384766,4319.358887,4303.461426,4298.333496,4293.846191,4341.666504,4407.948730,4292.692383,4303.717773,4473.974121,4503.846191,4348.461426,4410.384766,0.000000,1.000000,17.000000,,,,0.000000,2.000000,2.000000,0.000000,4.000000,2.000000,2.000000,0.000000,0.000000,4.000000,4.000000,4.000000,4.000000,4.000000,4.000000,0.000000,,,,,,,,,,,,,,,,,10.000000,0.000000,0.481049,0.472778,-0.546997,0.495850,0.982542,-0.085948,-0.048834,-36.321621,44.291279,31.010221
1732159234.371505,1732159234.376397,41.000000,0.000000,4290.512695,4266.153809,4318.333496,4305.512695,4301.794922,4291.282227,4338.974121,4407.948730,4296.538574,4304.615234,4476.794922,4516.025879,4348.461426,4412.820313,0.000000,1.000000,17.000000,,,,0.000000,2.000000,2.000000,0.000000,4.000000,2.000000,2.000000,0.000000,0.000000,4.000000,4.000000,4.000000,4.000000,4.000000,4.000000,0.000000,,,,,,,,,,,,,,,,,,,,,,,,,,,,
1732159234.379314,1732159234.384405,42.000000,0.000000,4292.563965,4266.410156,4316.410156,4305.641113,4280.512695,4295.641113,4336.666504,4408.077148,4300.256348,4315.769043,4483.717773,4527.692383,4350.897461,4415.256348,0.000000,1.000000,17.000000,,,,0.000000,2.000000,2.000000,0.000000,4.000000,2.000000,2.000000,0.000000,0.000000,4.000000,4.000000,4.000000,4.000000,4.000000,4.000000,0.000000,,,,,,,,,,,,,,,,,,,,,,,,,,,,
1732159234.387122,1732159234.392214,43.000000,0.000000,4281.410156,4266.025879,4317.692383,4305.897461,4267.436035,4293.717773,4335.384766,4407.563965,4299.358887,4315.256348,4489.230957,4522.692383,4348.589844,4416.282227,0.000000,1.000000,17.000000,,,,0.000000,2.000000,2.000000,0.000000,4.000000,2.000000,2.000000,0.000000,0.000000,4.000000,4.000000,4.000000,4.000000,4.000000,4.000000,0.000000,,,,,,,,,,,,,,,,,,,,,,,,,,,,
1732159234.394930,1732159234.399922,44.000000,0.000000,4280.000000,4271.282227,4318.974121,4308.589844,4273.589844,4291.153809,4338.077148,4403.333496,4302.436035,4310.128418,4489.102539,4520.128418,4352.051270,4421.794922,0.000000,1.000000,17.000000,,,,0.000000,2.000000,2.000000,0.000000,4.000000,2.000000,2.000000,0.000000,0.000000,4.000000,4.000000,4.000000,4.000000,4.000000,4.000000,0.000000,,,,,,,,,,,,,,,,,11.000000,0.000000,0.480655,0.472717,-0.547119,0.496155,0.982053,-0.093273,-0.037114,-36.530514,44.195934,30.821613
1732159234.402738,1732159234.407730,45.000000,0.000000,4288.205078,4277.307617,4318.461426,4309.615234,4290.897461,4287.436035,4340.384766,4402.692383,4301.410156,4311.794922,4488.333496,4518.077148,4356.922852,4427.307617,0.000000,1.000000,17.000000,,,,0.000000,2.000000,2.000000,0.000000,4.000000,2.000000,2.000000,0.000000,0.000000,4.000000,4.000000,4.000000,4.000000,4.000000,4.000000,0.000000,,,,,,,,,,,,,,,,,,,,,,,,,,,,
1732159234.410547,1732159234.415339,46.000000,0.000000,4292.307617,4279.230957,4318.974121,4310.384766,4293.589844,4279.487305,4339.615234,4407.436035,4295.641113,4310.897461,4489.230957,4514.743652,4353.846191,4426.666504,0.000000,1.000000,17.000000,,,,0.000000,2.000000,2.000000,0.000000,4.000000,2.000000,2.000000,0.000000,0.000000,4.000000,4.000000,4.000000,4.000000,4.000000,4.000000,0.000000,,,,,,,,,,,,,,,,,,,,,,,,,,,,
1732159234.418355,1732159234.423147,47.000000,0.000000,4292.820313,4280.000000,4319.230957,4311.922852,4273.333496,4280.512695,4340.641113,4408.077148,4301.922852,4311.794922,4488.333496,4517.179688,4355.641113,4428.077148,0.000000,1.000000,17.000000,,,,0.000000,2.000000,2.000000,0.000000,4.000000,2.000000,2.000000,0.000000,0.000000,4.000000,4.000000,4.000000,4.000000,4.000000,4.000000,0.000000,,,,,,,,,,,,,,,,,,,,,,,,,,,,
1732159234.426163,1732159234.430855,48.000000,0.000000,4288.717773,4273.846191,4316.794922,4310.128418,4264.615234,4292.820313,4342.307617,4407.820313,4312.563965,4319.358887,4488.461426,4517.820313,4358.717773,4429.871582,0.000000,1.000000,17.000000,,,,0.000000,2.000000,2.000000,0.000000,4.000000,2.000000,2.000000,0.000000,0.000000,4.000000,4.000000,4.000000,4.000000,4.000000,4.000000,0.000000,,,,,,,,,,,,,,,,,12.000000,0.000000,0.480374,0.472656,-0.547363,0.496216,0.973263,-0.083506,-0.046881,-36.566383,44.540375,31.035507
1732159234.433972,1732159234.438663,49.000000,0.000000,4282.436035,4266.666504,4317.051270,4304.102539,4279.358887,4297.307617,4340.128418,4411.282227,4312.563965,4317.820313,4489.358887,4515.128418,4353.461426,4420.897461,0.000000,1.000000,17.000000,,,,0.000000,2.000000,2.000000,0.000000,4.000000,2.000000,2.000000,0.000000,0.000000,4.000000,4.000000,4.000000,4.000000,4.000000,4.000000,0.000000,,,,,,,,,,,,,,,,,,,,,,,,,,,,
1732159234.441780,1732159234.446272,50.000000,0.000000,4281.282227,4270.641113,4319.487305,4308.205078,4285.512695,4292.692383,4338.846191,4408.846191,4308.077148,4311.538574,4488.589844,4518.205078,4350.512695,4416.922852,0.000000,1.000000,17.000000,,,,0.000000,2.000000,2.000000,0.000000,4.000000,2.000000,2.000000,0.000000,0.000000,4.000000,4.000000,4.000000,4.000000,4.000000,4.000000,0.000000,,,,,,,,,,,,,,,,,,,,,,,,,,,,
1732159234.449588,1732159234.454080,51.000000,0.000000,4282.436035,4279.102539,4318.333496,4314.102539,4281.282227,4293.589844,4341.666504,4403.589844,4307.820313,4312.948730,4488.589844,4520.000000,4354.102539,4422.563965,0.000000,1.000000,17.000000,,,,0.000000,2.000000,2.000000,0.000000,4.000000,2.000000,2.000000,0.000000,0.000000,4.000000,4.000000,4.000000,4.000000,4.000000,4.000000,0.000000,,,,,,,,,,,,,,,,,,,,,,,,,,,,
1732159234.457396,1732159234.461788,52.000000,0.000000,4283.205078,4277.563965,4317.179688,4311.025879,4289.743652,4298.717773,4343.717773,4405.897461,4306.025879,4312.820313,4488.974121,4516.922852,4351.922852,4423.333496,0.000000,1.000000,17.000000,,,,0.000000,2.000000,2.000000,0.000000,4.000000,2.000000,2.000000,0.000000,0.000000,4.000000,4.000000,4.000000,4.000000,4.000000,4.000000,0.000000,,,,,,,,,,,,,,,,,13.000000,0.000000,0.480181,0.472717,-0.547424,0.496277,0.984495,-0.084483,-0.057136,-36.300438,44.311035,30.933760
1732159234.465205,1732159234.469596,53.000000,0.000000,4284.743652,4270.769043,4319.358887,4308.846191,4291.666504,4291.538574,4340.128418,4409.230957,4298.589844,4308.846191,4487.563965,4516.410156,4348.717773,4423.461426,0.000000,1.000000,17.000000,,,,0.000000,2.000000,2.000000,0.000000,4.000000,2.000000,2.000000,0.000000,0.000000,4.000000,4.000000,4.000000,4.000000,4.000000,4.000000,0.000000,,,,,,,,,,,,,,,,,,,,,,,,,,,,
1732159234.473013,1732159234.477604,54.000000,0.000000,4286.153809,4270.128418,4319.871582,4310.641113,4277.692383,4279.743652,4336.538574,4406.025879,4301.538574,4312.563965,4486.666504,4515.897461,4353.974121,4425.897461,0.000000,1.000000,17.000000,,,,0.000000,2.000000,2.000000,0.000000,4.000000,2.000000,2.000000,0.000000,0.000000,4.000000,4.000000,4.000000,4.000000,4.000000,4.000000,0.000000,,,,,,,,,,,,,,,,,,,,,,,,,,,,
1732159234.480821,1732159234.485413,55.000000,0.000000,4288.333496,4273.589844,4320.384766,4310.384766,4276.922852,4284.102539,4338.717773,4405.512695,4309.230957,4317.179688,4489.487305,4515.128418,4360.384766,4424.102539,0.000000,1.000000,17.000000,,,,0.000000,2.000000,2.000000,0.000000,4.000000,2.000000,2.000000,0.000000,0.000000,4.000000,4.000000,4.000000,4.000000,4.000000,4.000000,0.000000,,,,,,,,,,,,,,,,,,,,,,,,,,,,
1732159234.488629,1732159234.493321,56.000000,0.000000,4291.025879,4276.666504,4319.743652,4309.358887,4295.641113,4290.128418,4341.410156,4409.743652,4300.256348,4310.897461,4489.487305,4513.461426,4359.487305,4423.717773,0.000000,1.000000,17.000000,,,,0.000000,2.000000,2.000000,0.000000,4.000000,2.000000,2.000000,0.000000,0.000000,4.000000,4.000000,4.000000,4.000000,4.000000,4.000000,0.000000,,,,,,,,,,,,,,,,,14.000000,0.000000,0.479989,0.472778,-0.547485,0.496338,0.977658,-0.088878,-0.045904,-36.491688,44.303608,30.938013
1732159234.496438,1732159234.501129,57.000000,0.000000,4291.794922,4276.153809,4317.436035,4311.153809,4297.436035,4287.307617,4340.000000,4410.641113,4292.820313,4307.820313,4487.820313,4512.820313,4356.153809,4427.948730,0.000000,1.000000,17.000000,,,,0.000000,2.000000,2.000000,0.000000,4.000000,2.000000,2.000000,0.000000,0.000000,4.000000,4.000000,4.000000,4.000000,4.000000,4.000000,0.000000,,,,,,,,,,,,,,,,,,,,,,,,,,,,
1732159234.504246,1732159234.508737,58.000000,0.000000,4293.974121,4276.025879,4317.692383,4311.922852,4276.153809,4289.615234,4338.717773,4407.563965,4305.897461,4312.436035,4488.461426,4514.871582,4357.692383,4423.461426,0.000000,1.000000,17.000000,,,,0.000000,2.000000,2.000000,0.000000,4.000000,2.000000,2.000000,0.000000,0.000000,4.000000,4.000000,4.000000,4.000000,4.000000,4.000000,0.000000,,,,,,,,,,,,,,,,,,,,,,,,,,,,
1732159234.512054,1732159234.516546,59.000000,0.000000,4294.487305,4278.461426,4320.000000,4311.922852,4273.461426,4294.487305,4340.897461,4407.179688,4312.820313,4311.282227,4485.256348,4515.000000,4355.897461,4416.025879,0.000000,1.000000,17.000000,,,,0.000000,2.000000,2.000000,0.000000,4.000000,2.000000,2.000000,0.000000,0.000000,4.000000,4.000000,4.000000,4.000000,4.000000,4.000000,0.000000,,,,,,,,,,,,,,,,,,,,,,,,,,,,
1732159234.519862,1732159234.524254,60.000000,0.000000,4288.717773,4279.102539,4317.948730,4314.487305,4282.563965,4295.512695,4340.641113,4407.307617,4303.974121,4307.179688,4478.589844,4512.051270,4349.615234,4415.256348,0.000000,1.000000,17.000000,,,,0.000000,2.000000,2.000000,0.000000,4.000000,2.000000,2.000000,0.000000,0.000000,4.000000,4.000000,4.000000,4.000000,4.000000,4.000000,0.000000,,,,,,,,,,,,,,,,,15.000000,0.000000,0.479739,0.472961,-0.547546,0.496338,0.984984,-0.088390,-0.054206,-36.421600,44.462589,30.926456
1732159234.527671,1732159234.532062,61.000000,0.000000,4281.282227,4280.128418,4316.153809,4315.256348,4282.307617,4291.666504,4338.077148,4406.153809,4301.666504,4307.692383,4475.769043,4512.820313,4350.000000,4415.512695,0.000000,1.000000,17.000000,,,,0.000000,2.000000,2.000000,0.000000,4.000000,2.000000,2.000000,0.000000,0.000000,4.000000,4.000000,4.000000,4.000000,4.000000,4.000000,0.000000,,,,,,,,,,,,,,,,,,,,,,,,,,,,
1732159234.535479,1732159234.539671,62.000000,0.000000,4280.512695,4279.358887,4318.589844,4313.333496,4296.153809,4287.179688,4338.461426,4407.820313,4299.487305,4305.897461,4479.615234,4517.436035,4351.922852,4419.102539,0.000000,1.000000,17.000000,,,,0.000000,2.000000,2.000000,0.000000,4.000000,2.000000,2.000000,0.000000,0.000000,4.000000,4.000000,4.000000,4.000000,4.000000,4.000000,0.000000,,,,,,,,,,,,,,,,,,,,,,,,,,,,
1732159234.543287,1732159234.547479,63.000000,0.000000,4291.025879,4279.102539,4318.974121,4314.487305,4297.436035,4287.948730,4339.615234,4408.333496,4297.307617,4306.282227,4486.922852,4517.692383,4354.102539,4427.436035,0.000000,1.000000,17.000000,,,,0.000000,2.000000,2.000000,0.000000,4.000000,2.000000,2.000000,0.000000,0.000000,4.000000,4.000000,4.000000,4.000000,4.000000,4.000000,0.000000,,,,,,,,,,,,,,,,,,,,,,,,,,,,
1732159234.551095,1732159234.555187,64.000000,0.000000,4295.897461,4282.307617,4318.077148,4315.128418,4267.948730,4286.922852,4340.128418,4405.769043,4300.512695,4312.563965,4492.179688,4520.000000,4362.948730,4429.615234,0.000000,1.000000,17.000000,,,,0.000000,2.000000,2.000000,0.000000,4.000000,2.000000,2.000000,0.000000,0.000000,4.000000,4.000000,4.000000,4.000000,4.000000,4.000000,0.000000,,,,,,,,,,,,,,,,,16.000000,0.000000,0.479739,0.472961,-0.547546,0.496338,0.975705,-0.090343,-0.038579,-36.379829,44.381363,30.887096
1732159234.558904,1732159234.562995,65.000000,0.000000,4285.769043,4277.692383,4318.461426,4310.769043,4265.641113,4280.769043,4339.871582,4406.666504,4302.948730,4313.717773,4491.794922,4525.512695,4367.948730,4423.974121,1618.000000,1.000000,17.000000,,,,0.000000,2.000000,2.000000,0.000000,4.000000,2.000000,2.000000,0.000000,0.000000,4.000000,4.000000,4.000000,4.000000,4.000000,4.000000,0.000000,,,,,,,,,,,,,,,,,,,,,,,,,,,,
1732159234.566712,1732159234.571003,66.000000,0.000000,4277.820313,4268.974121,4318.717773,4309.102539,4284.615234,4286.025879,4339.615234,4409.487305,4306.538574,4309.871582,4491.153809,4524.102539,4361.794922,4424.743652,1359.000000,1.000000,17.000000,,,,0.000000,2.000000,2.000000,0.000000,4.000000,2.000000,2.000000,0.000000,0.000000,4.000000,4.000000,4.000000,4.000000,4.000000,4.000000,0.000000,,,,,,,,,,,,,,,,,,,,,,,,,,,,
1732159234.574520,1732159234.578811,67.000000,0.000000,4281.153809,4269.358887,4317.436035,4310.512695,4283.589844,4294.743652,4340.256348,4408.974121,4311.282227,4309.871582,4493.205078,4514.743652,4357.820313,4425.384766,1437.000000,1.000000,17.000000,,,,0.000000,2.000000,2.000000,0.000000,4.000000,2.000000,2.000000,0.000000,0.000000,4.000000,4.000000,4.000000,4.000000,4.000000,4.000000,0.000000,,,,,,,,,,,,,,,,,,,,,,,,,,,,
1732159234.582328,1732159234.586720,68.000000,0.000000,4282.436035,4272.436035,4318.461426,4308.461426,4290.641113,4288.077148,4341.538574,4408.846191,4308.077148,4311.410156,4491.794922,4516.153809,4358.461426,4420.384766,1434.000000,1.000000,17.000000,,,,0.000000,2.000000,2.000000,0.000000,4.000000,2.000000,2.000000,0.000000,0.000000,4.000000,4.000000,4.000000,4.000000,4.000000,4.000000,0.000000,,,,,,,,,,,,,,,,,17.000000,0.000000,0.479318,0.473267,-0.547485,0.496521,0.959590,-0.098645,-0.042974,-36.290997,44.532238,30.880215
1732159234.590137,1732159234.594528,69.000000,0.000000,4278.974121,4268.461426,4319.358887,4308.333496,4301.410156,4287.307617,4341.282227,4407.948730,4302.051270,4310.512695,4490.641113,4523.077148,4358.333496,4424.102539,1189.000000,1.000000,17.000000,,,,0.000000,2.000000,2.000000,0.000000,4.000000,2.000000,2.000000,0.000000,0.000000,4.000000,4.000000,4.000000,4.000000,4.000000,4.000000,0.000000,,,,,,,,,,,,,,,,,,,,,,,,,,,,
1732159234.597945,1732159234.602536,70.000000,0.000000,4280.641113,4270.384766,4318.846191,4312.179688,4286.922852,4296.410156,4340.128418,4405.769043,4305.641113,4309.487305,4490.384766,4520.897461,4358.205078,4428.589844,0.000000,1.000000,17.000000,,,,0.000000,2.000000,2.000000,0.000000,4.000000,2.000000,2.000000,0.000000,0.000000,4.000000,4.000000,4.000000,4.000000,4.000000,4.000000,0.000000,,,,,,,,,,,,,,,,,,,,,,,,,,,,
1732159234.605753,1732159234.610344,71.000000,0.000000,4280.769043,4276.538574,4316.538574,4314.358887,4274.487305,4296.922852,4340.000000,4404.102539,4309.102539,4311.025879,4488.846191,4521.153809,4356.410156,4423.974121,0.000000,1.000000,17.000000,,,,0.000000,2.000000,2.000000,0.000000,4.000000,2.000000,2.000000,0.000000,0.000000,4.000000,4.000000,4.000000,4.000000,4.000000,4.000000,0.000000,,,,,,,,,,,,,,,,,,,,,,,,,,,,
1732159234.613561,1732159234.618052,72.000000,0.000000,4277.436035,4271.922852,4316.794922,4314.871582,4283.461426,4295.000000,4340.256348,4405.128418,4303.717773,4311.538574,4490.512695,4524.615234,4356.666504,4419.230957,1543.000000,1.000000,17.000000,,,,0.000000,2.000000,2.000000,0.000000,4.000000,2.000000,2.000000,0.000000,0.000000,4.000000,4.000000,4.000000,4.000000,4.000000,4.000000,0.000000,,,,,,,,,,,,,,,,,18.000000,0.000000,0.479280,0.473022,-0.547729,0.496521,0.965450,-0.103040,-0.047857,-36.237373,44.551113,30.984640
1732159234.621370,1732159234.625861,73.000000,0.000000,4278.717773,4270.256348,4318.333496,4316.025879,4302.563965,4294.358887,4341.025879,4410.128418,4299.230957,4304.871582,4488.974121,4519.743652,4357.820313,4417.307617,1703.000000,1.000000,17.000000,,,,0.000000,2.000000,2.000000,0.000000,4.000000,2.000000,2.000000,0.000000,0.000000,4.000000,4.000000,4.000000,4.000000,4.000000,4.000000,0.000000,,,,,,,,,,,,,,,,,,,,,,,,,,,,
1732159234.629178,1732159234.633469,74.000000,0.000000,4282.307617,4278.461426,4317.051270,4319.230957,4307.179688,4294.358887,4341.025879,4413.205078,4300.897461,4301.282227,4480.128418,4515.384766,4353.077148,4419.358887,1569.000000,1.000000,17.000000,,,,0.000000,2.000000,2.000000,0.000000,4.000000,2.000000,2.000000,0.000000,0.000000,4.000000,4.000000,4.000000,4.000000,4.000000,4.000000,0.000000,,,,,,,,,,,,,,,,,,,,,,,,,,,,
1732159234.636986,1732159234.641277,75.000000,0.000000,4282.692383,4278.974121,4316.153809,4323.205078,4287.563965,4294.743652,4338.333496,4409.487305,4309.102539,4308.333496,4475.769043,4519.102539,4349.743652,4423.333496,1549.000000,1.000000,17.000000,,,,0.000000,2.000000,2.000000,0.000000,4.000000,2.000000,2.000000,0.000000,0.000000,4.000000,4.000000,4.000000,4.000000,4.000000,4.000000,0.000000,,,,,,,,,,,,,,,,,,,,,,,,,,,,
1732159234.644794,1732159234.649185,76.000000,0.000000,4282.820313,4276.025879,4317.436035,4319.615234,4273.333496,4295.769043,4337.179688,4407.948730,4309.743652,4307.820313,4478.589844,4520.384766,4350.000000,4418.461426,1713.000000,1.000000,17.000000,,,,0.000000,2.000000,2.000000,0.000000,4.000000,2.000000,2.000000,0.000000,0.000000,4.000000,4.000000,4.000000,4.000000,4.000000,4.000000,0.000000,,,,,,,,,,,,,,,,,19.000000,0.000000,0.479438,0.472778,-0.547913,0.496399,0.971798,-0.094738,-0.053229,-36.140606,44.579735,31.114225
1732159234.652603,1732159234.656993,77.000000,0.000000,4282.692383,4277.051270,4318.077148,4314.615234,4287.307617,4296.922852,4339.487305,4407.563965,4298.205078,4297.820313,4476.410156,4514.358887,4344.230957,4412.051270,1531.000000,1.000000,17.000000,,,,0.000000,2.000000,2.000000,0.000000,4.000000,2.000000,2.000000,0.000000,0.000000,4.000000,4.000000,4.000000,4.000000,4.000000,4.000000,0.000000,,,,,,,,,,,,,,,,,,,,,,,,,,,,
1732159234.660411,1732159234.665001,78.000000,0.000000,4280.128418,4275.128418,4317.692383,4314.615234,4305.000000,4291.666504,4340.769043,4404.358887,4293.974121,4295.897461,4472.820313,4511.538574,4339.871582,4412.307617,1569.000000,1.000000,17.000000,,,,0.000000,2.000000,2.000000,0.000000,4.000000,2.000000,2.000000,0.000000,0.000000,4.000000,4.000000,4.000000,4.000000,4.000000,4.000000,0.000000,1.000000,0.000000,2.000000,2.000000,0.000000,4.000000,2.000000,2.000000,0.000000,0.000000,4.000000,4.000000,4.000000,4.000000,4.000000,4.000000,,,,,,,,,,,,
1732159234.668219,1732159234.672810,79.000000,0.000000,4280.512695,4271.538574,4317.820313,4315.512695,4296.794922,4284.230957,4339.230957,4405.256348,4298.461426,4298.846191,4474.743652,4515.256348,4342.307617,4412.563965,1549.000000,1.000000,17.000000,,,,0.000000,2.000000,2.000000,0.000000,4.000000,2.000000,2.000000,0.000000,0.000000,4.000000,4.000000,4.000000,4.000000,4.000000,4.000000,0.000000,,,,,,,,,,,,,,,,,,,,,,,,,,,,
1732159234.676027,1732159234.680718,80.000000,0.000000,4282.179688,4275.641113,4316.282227,4316.025879,4278.589844,4284.615234,4339.102539,4406.410156,4298.461426,4296.153809,4473.846191,4512.436035,4342.948730,4410.512695,1713.000000,1.000000,17.000000,,,,0.000000,2.000000,2.000000,0.000000,4.000000,2.000000,2.000000,0.000000,0.000000,4.000000,4.000000,4.000000,4.000000,4.000000,4.000000,0.000000,,,,,,,,,,,,,,,,,20.000000,0.000000,0.479438,0.472778,-0.547913,0.496399,0.971798,-0.094738,-0.053229,-36.062225,44.647919,31.099190
1732159234.683836,1732159234.688526,81.000000,0.000000,4281.410156,4280.256348,4316.282227,4316.282227,4274.102539,4288.717773,4338.846191,4402.692383,4296.153809,4295.512695,4471.025879,4503.974121,4343.077148,4411.153809,1531.000000,1.000000,17.000000,,,,0.000000,2.000000,2.000000,0.000000,4.000000,2.000000,2.000000,0.000000,0.000000,4.000000,4.000000,4.000000,4.000000,4.000000,4.000000,0.000000,,,,,,,,,,,,,,,,,,,,,,,,,,,,
1732159234.691644,1732159234.696534,82.000000,0.000000,4280.384766,4277.179688,4318.461426,4313.461426,4283.974121,4286.025879,4338.846191,4404.230957,4297.307617,4296.410156,4472.820313,4502.692383,4347.820313,4410.256348,1569.000000,1.000000,17.000000,,,,0.000000,2.000000,2.000000,0.000000,4.000000,2.000000,2.000000,0.000000,0.000000,4.000000,4.000000,4.000000,4.000000,4.000000,4.000000,0.000000,,,,,,,,,,,,,,,,,,,,,,,,,,,,
1732159234.699452,1732159234.704342,83.000000,0.000000,4279.358887,4270.384766,4317.948730,4310.128418,4287.692383,4287.563965,4341.922852,4411.410156,4299.102539,4296.153809,4473.461426,4507.307617,4351.153809,4411.282227,1549.000000,1.000000,17.000000,,,,0.000000,2.000000,2.000000,0.000000,4.000000,2.000000,2.000000,0.000000,0.000000,4.000000,4.000000,4.000000,4.000000,4.000000,4.000000,0.000000,,,,,,,,,,,,,,,,,,,,,,,,,,,,
1732159234.707260,1732159234.712250,84.000000,0.000000,4280.000000,4271.282227,4317.436035,4313.333496,4291.666504,4292.051270,4342.948730,4408.846191,4298.974121,4295.512695,4471.538574,4508.589844,4347.948730,4412.948730,1713.000000,1.000000,17.000000,,,,0.000000,2.000000,2.000000,0.000000,4.000000,2.000000,2.000000,0.000000,0.000000,4.000000,4.000000,4.000000,4.000000,4.000000,4.000000,0.000000,,,,,,,,,,,,,,,,,21.000000,0.000000,0.479472,0.472595,-0.548096,0.496338,0.973263,-0.085460,-0.039556,-36.048733,44.479813,31.123676
1732159234.715069,1732159234.720058,85.000000,0.000000,4282.820313,4280.897461,4318.974121,4320.384766,4297.051270,4287.563965,4339.358887,4405.769043,4291.282227,4288.846191,4470.897461,4506.538574,4342.436035,4410.256348,1531.000000,1.000000,17.000000,,,,0.000000,2.000000,2.000000,0.000000,4.000000,2.000000,2.000000,0.000000,0.000000,4.000000,4.000000,4.000000,4.000000,4.000000,4.000000,0.000000,,,,,,,,,,,,,,,,,,,,,,,,,,,,
1732159234.722877,1732159234.728066,86.000000,0.000000,4283.333496,4288.589844,4317.436035,4322.436035,4292.563965,4284.743652,4337.563965,4411.538574,4286.282227,4284.743652,4472.563965,4505.769043,4344.487305,4412.307617,1569.000000,1.000000,17.000000,,,,0.000000,2.000000,2.000000,0.000000,4.000000,2.000000,2.000000,0.000000,0.000000,4.000000,4.000000,4.000000,4.000000,4.000000,4.000000,0.000000,,,,,,,,,,,,,,,,,,,,,,,,,,,,
1732159234.730685,1732159234.735875,87.000000,0.000000,4281.025879,4285.641113,4316.153809,4318.846191,4305.000000,4286.153809,4336.282227,4412.179688,4295.256348,4291.666504,4473.846191,4509.358887,4351.538574,4414.358887,1549.000000,1.000000,17.000000,,,,0.000000,2.000000,2.000000,0.000000,4.000000,2.000000,2.000000,0.000000,0.000000,4.000000,4.000000,4.000000,4.000000,4.000000,4.000000,0.000000,,,,,,,,,,,,,,,,,,,,,,,,,,,,
1732159234.738494,1732159234.743583,88.000000,0.000000,4281.153809,4280.897461,4318.077148,4318.846191,4313.333496,4285.897461,4335.897461,4407.051270,4301.410156,4297.051270,4472.563965,4515.769043,4351.538574,4409.358887,1713.000000,1.000000,17.000000,,,,0.000000,2.000000,2.000000,0.000000,4.000000,2.000000,2.000000,0.000000,0.000000,4.000000,4.000000,4.000000,4.000000,4.000000,4.000000,0.000000,,,,,,,,,,,,,,,,,22.000000,0.000000,0.479339,0.472595,-0.548157,0.496399,0.969845,-0.078135,-0.048346,-36.237808,44.405315,31.115179
1732159234.746302,1732159234.751391,89.000000,0.000000,4281.410156,4279.615234,4318.974121,4322.692383,4288.461426,4286.025879,4339.615234,4407.692383,4295.897461,4294.358887,4470.769043,4518.461426,4348.333496,4408.077148,1531.000000,1.000000,17.000000,,,,0.000000,2.000000,2.000000,0.000000,4.000000,2.000000,2.000000,0.000000,0.000000,4.000000,4.000000,4.000000,4.000000,4.000000,4.000000,0.000000,,,,,,,,,,,,,,,,,,,,,,,,,,,,
1732159234.754110,1732159234.759399,90.000000,0.000000,4280.000000,4279.615234,4317.307617,4321.282227,4275.641113,4285.641113,4339.871582,4408.717773,4294.102539,4293.974121,4471.666504,4516.153809,4350.897461,4407.820313,1569.000000,1.000000,17.000000,,,,0.000000,2.000000,2.000000,0.000000,4.000000,2.000000,2.000000,0.000000,0.000000,4.000000,4.000000,4.000000,4.000000,4.000000,4.000000,0.000000,,,,,,,,,,,,,,,,,,,,,,,,,,,,
1732159234.761918,1732159234.767207,91.000000,0.000000,4278.717773,4280.897461,4317.051270,4316.922852,4286.538574,4285.769043,4338.589844,4406.282227,4296.922852,4295.512695,4472.179688,4514.743652,4350.384766,4405.000000,1549.000000,1.000000,17.000000,,,,0.000000,2.000000,2.000000,0.000000,4.000000,2.000000,2.000000,0.000000,0.000000,4.000000,4.000000,4.000000,4.000000,4.000000,4.000000,0.000000,,,,,,,,,,,,,,,,,,,,,,,,,,,,
1732159234.769726,1732159234.774916,92.000000,0.000000,4278.333496,4279.871582,4316.538574,4318.717773,4291.282227,4289.358887,4338.333496,4406.025879,4295.897461,4295.897461,4472.051270,4514.102539,4342.820313,4407.692383,1713.000000,1.000000,17.000000,,,,0.000000,2.000000,2.000000,0.000000,4.000000,2.000000,2.000000,0.000000,0.000000,4.000000,4.000000,4.000000,4.000000,4.000000,4.000000,0.000000,,,,,,,,,,,,,,,,,23.000000,0.000000,0.479402,0.472595,-0.548157,0.496338,0.969845,-0.078135,-0.048346,-36.147625,44.201637,31.389961
1732159234.777535,1732159234.782724,93.000000,0.000000,4279.487305,4279.102539,4315.256348,4321.794922,4303.589844,4288.077148,4337.563965,4403.333496,4293.461426,4293.974121,4473.205078,4510.641113,4340.128418,4408.077148,1531.000000,1.000000,17.000000,,,,0.000000,2.000000,2.000000,0.000000,4.000000,2.000000,2.000000,0.000000,0.000000,4.000000,4.000000,4.000000,4.000000,4.000000,4.000000,0.000000,,,,,,,,,,,,,,,,,,,,,,,,,,,,
1732159234.785343,1732159234.790332,94.000000,0.000000,4279.230957,4280.641113,4317.179688,4317.307617,4310.641113,4282.948730,4337.692383,4402.051270,4293.205078,4285.384766,4469.615234,4501.922852,4343.333496,4398.846191,1569.000000,1.000000,17.000000,,,,0.000000,2.000000,2.000000,0.000000,4.000000,2.000000,2.000000,0.000000,0.000000,4.000000,4.000000,4.000000,4.000000,4.000000,4.000000,0.000000,,,,,,,,,,,,,,,,,,,,,,,,,,,,
1732159234.793151,1732159234.798141,95.000000,0.000000,4277.948730,4278.717773,4317.692383,4313.461426,4284.871582,4289.358887,4337.692383,4406.794922,4295.128418,4278.333496,4466.410156,4496.922852,4339.743652,4394.743652,1549.000000,1.000000,17.000000,,,,0.000000,2.000000,2.000000,0.000000,4.000000,2.000000,2.000000,0.000000,0.000000,4.000000,4.000000,4.000000,4.000000,4.000000,4.000000,0.000000,,,,,,,,,,,,,,,,,,,,,,,,,,,,
1732159234.800959,1732159234.805849,96.000000,0.000000,4277.051270,4271.410156,4316.794922,4313.974121,4271.282227,4291.153809,4335.256348,4408.717773,4295.641113,4277.948730,4467.436035,4495.641113,4332.820313,4397.179688,1713.000000,1.000000,17.000000,,,,0.000000,2.000000,2.000000,0.000000,4.000000,2.000000,2.000000,0.000000,0.000000,4.000000,4.000000,4.000000,4.000000,4.000000,4.000000,0.000000,,,,,,,,,,,,,,,,,24.000000,0.000000,0.479420,0.472351,-0.548462,0.496216,0.972775,-0.084971,-0.054694,-36.366241,44.263329,31.159203
1732159234.808768,1732159234.813657,97.000000,0.000000,4276.153809,4271.538574,4318.077148,4312.563965,4284.102539,4281.666504,4334.102539,4407.948730,4294.102539,4281.153809,4468.717773,4495.256348,4337.436035,4399.487305,1531.000000,1.000000,17.000000,,,,0.000000,2.000000,2.000000,0.000000,4.000000,2.000000,2.000000,0.000000,0.000000,4.000000,4.000000,4.000000,4.000000,4.000000,4.000000,0.000000,,,,,,,,,,,,,,,,,,,,,,,,,,,,
