title:zero3, start timestamp:1732083732.874781, stop timestamp:1732083779.693137, headset type:EPOCX, headset serial:E5020C3A, headset firmware:730, channels:67, sampling rate:eeg_128;mot_32, samples:5997      , version:2.2, 
Timestamp,OriginalTimestamp,EEG.Counter,EEG.Interpolated,EEG.AF3,EEG.F7,EEG.F3,EEG.FC5,EEG.T7,EEG.P7,EEG.O1,EEG.O2,EEG.P8,EEG.T8,EEG.FC6,EEG.F4,EEG.F8,EEG.AF4,EEG.RawCq,EEG.Battery,EEG.BatteryPercent,MarkerIndex,MarkerType,MarkerValueInt,EEG.MarkerHardware,CQ.AF3,CQ.F7,CQ.F3,CQ.FC5,CQ.T7,CQ.P7,CQ.O1,CQ.O2,CQ.P8,CQ.T8,CQ.FC6,CQ.F4,CQ.F8,CQ.AF4,CQ.Overall,EQ.SampleRateQuality,EQ.OVERALL,EQ.AF3,EQ.F7,EQ.F3,EQ.FC5,EQ.T7,EQ.P7,EQ.O1,EQ.O2,EQ.P8,EQ.T8,EQ.FC6,EQ.F4,EQ.F8,EQ.AF4,MOT.CounterMems,MOT.InterpolatedMems,MOT.Q0,MOT.Q1,MOT.Q2,MOT.Q3,MOT.AccX,MOT.AccY,MOT.AccZ,MOT.MagX,MOT.MagY,MOT.MagZ
1732083732.874781,1732083732.874873,73.000000,0.000000,4318.846191,4296.410156,4325.512695,4315.897461,4292.820313,4293.974121,4340.384766,4327.436035,4315.256348,4309.102539,4462.820313,4470.897461,4352.179688,4411.410156,1523.000000,0.000000,5.000000,,,,0.000000,2.000000,2.000000,0.000000,2.000000,2.000000,2.000000,0.000000,2.000000,4.000000,4.000000,4.000000,4.000000,2.000000,4.000000,16.666666,,,,,,,,,,,,,,,,,,,,,,,,,,,,
1732083732.882589,1732083732.882482,74.000000,0.000000,4317.563965,4294.743652,4325.769043,4312.820313,4299.487305,4296.025879,4335.512695,4326.794922,4314.230957,4303.974121,4456.410156,4471.282227,4350.769043,4410.512695,1389.000000,0.000000,5.000000,,,,0.000000,2.000000,2.000000,0.000000,2.000000,2.000000,2.000000,0.000000,2.000000,4.000000,4.000000,4.000000,4.000000,2.000000,4.000000,16.666666,,,,,,,,,,,,,,,,,,,,,,,,,,,,
1732083732.890397,1732083732.890290,75.000000,0.000000,4316.282227,4293.461426,4322.436035,4309.230957,4293.461426,4294.871582,4335.641113,4322.692383,4309.487305,4303.589844,4457.051270,4466.025879,4348.974121,4410.769043,1523.000000,0.000000,5.000000,,,,0.000000,2.000000,2.000000,0.000000,2.000000,2.000000,2.000000,0.000000,2.000000,4.000000,4.000000,4.000000,4.000000,2.000000,4.000000,16.666666,,,,,,,,,,,,,,,,,,,,,,,,,,,,
1732083732.898206,1732083732.898198,76.000000,0.000000,4318.846191,4290.897461,4323.846191,4309.615234,4293.717773,4287.563965,4336.282227,4320.128418,4308.589844,4304.871582,4459.102539,4465.128418,4348.077148,4410.641113,1751.000000,0.000000,5.000000,,,,0.000000,2.000000,2.000000,0.000000,2.000000,2.000000,2.000000,0.000000,2.000000,4.000000,4.000000,4.000000,4.000000,2.000000,4.000000,16.666666,,,,,,,,,,,,,,,,,19.000000,0.000000,0.657306,0.401489,-0.580078,0.265076,0.956171,0.211452,0.029789,-71.317406,67.541405,31.041748
1732083732.906014,1732083732.906006,77.000000,0.000000,4322.563965,4292.563965,4322.051270,4314.230957,4296.153809,4285.897461,4334.743652,4320.769043,4315.000000,4305.384766,4458.846191,4469.871582,4351.025879,4413.205078,1543.000000,0.000000,5.000000,,,,0.000000,2.000000,2.000000,0.000000,2.000000,2.000000,2.000000,0.000000,2.000000,4.000000,4.000000,4.000000,4.000000,2.000000,4.000000,16.666666,,,,,,,,,,,,,,,,,,,,,,,,,,,,
1732083732.913822,1732083732.914014,78.000000,0.000000,4322.051270,4296.410156,4322.307617,4315.000000,4293.205078,4287.692383,4335.641113,4323.333496,4315.384766,4305.641113,4457.436035,4470.128418,4356.410156,4415.384766,1389.000000,0.000000,5.000000,,,,0.000000,2.000000,2.000000,0.000000,2.000000,2.000000,2.000000,0.000000,2.000000,4.000000,4.000000,4.000000,4.000000,2.000000,4.000000,16.666666,1.000000,8.333333,2.000000,2.000000,0.000000,2.000000,2.000000,2.000000,0.000000,2.000000,1.000000,4.000000,4.000000,4.000000,2.000000,4.000000,,,,,,,,,,,,
1732083732.921631,1732083732.921823,79.000000,0.000000,4322.820313,4296.410156,4322.436035,4314.102539,4293.205078,4286.538574,4333.461426,4320.897461,4309.102539,4304.358887,4452.563965,4463.717773,4355.128418,4413.717773,1523.000000,0.000000,5.000000,,,,0.000000,2.000000,2.000000,0.000000,2.000000,2.000000,2.000000,0.000000,2.000000,4.000000,4.000000,4.000000,4.000000,2.000000,4.000000,16.666666,,,,,,,,,,,,,,,,,,,,,,,,,,,,
1732083732.929439,1732083732.929731,80.000000,0.000000,4322.179688,4296.794922,4323.974121,4316.025879,4295.769043,4287.692383,4334.871582,4317.051270,4307.820313,4301.410156,4450.384766,4465.000000,4349.871582,4411.025879,1751.000000,0.000000,5.000000,,,,0.000000,2.000000,2.000000,0.000000,2.000000,2.000000,2.000000,0.000000,2.000000,4.000000,4.000000,4.000000,4.000000,2.000000,4.000000,16.666666,,,,,,,,,,,,,,,,,20.000000,0.000000,0.654540,0.398132,-0.582947,0.270630,0.973263,0.207545,-0.002930,-71.757095,67.433540,31.063816
1732083732.937247,1732083732.937539,81.000000,0.000000,4321.922852,4300.641113,4320.128418,4318.205078,4300.769043,4291.282227,4337.051270,4317.948730,4309.230957,4299.871582,4455.256348,4467.948730,4352.820313,4410.512695,1543.000000,0.000000,5.000000,,,,0.000000,2.000000,2.000000,0.000000,2.000000,2.000000,2.000000,0.000000,2.000000,4.000000,4.000000,4.000000,4.000000,2.000000,4.000000,16.666666,,,,,,,,,,,,,,,,,,,,,,,,,,,,
1732083732.945055,1732083732.945547,82.000000,0.000000,4324.743652,4301.538574,4319.102539,4317.436035,4303.205078,4293.974121,4335.256348,4318.846191,4307.436035,4299.230957,4457.307617,4466.410156,4355.512695,4410.641113,1389.000000,0.000000,5.000000,,,,0.000000,2.000000,2.000000,0.000000,2.000000,2.000000,2.000000,0.000000,2.000000,4.000000,4.000000,4.000000,4.000000,2.000000,4.000000,16.666666,,,,,,,,,,,,,,,,,,,,,,,,,,,,
1732083732.952864,1732083732.953355,83.000000,0.000000,4325.384766,4299.358887,4320.512695,4313.846191,4302.307617,4292.820313,4331.666504,4318.077148,4306.794922,4298.717773,4453.205078,4468.333496,4351.666504,4409.743652,1523.000000,0.000000,5.000000,,,,0.000000,2.000000,2.000000,0.000000,2.000000,2.000000,2.000000,0.000000,2.000000,4.000000,4.000000,4.000000,4.000000,2.000000,4.000000,16.666666,,,,,,,,,,,,,,,,,,,,,,,,,,,,
1732083732.960672,1732083732.961263,84.000000,0.000000,4321.025879,4299.615234,4320.000000,4311.538574,4299.487305,4287.692383,4333.717773,4318.717773,4306.538574,4296.410156,4451.282227,4469.102539,4347.436035,4406.666504,1751.000000,0.000000,5.000000,,,,0.000000,2.000000,2.000000,0.000000,2.000000,2.000000,2.000000,0.000000,2.000000,4.000000,4.000000,4.000000,4.000000,2.000000,4.000000,16.666666,,,,,,,,,,,,,,,,,21.000000,0.000000,0.651281,0.396484,-0.585571,0.275208,0.924918,0.230497,0.001465,-71.859917,67.089500,31.001692
1732083732.968480,1732083732.969071,85.000000,0.000000,4319.615234,4301.922852,4320.256348,4315.769043,4297.436035,4287.948730,4335.256348,4318.077148,4303.846191,4293.077148,4452.179688,4464.230957,4345.897461,4404.358887,1543.000000,0.000000,5.000000,,,,0.000000,2.000000,2.000000,0.000000,2.000000,2.000000,2.000000,0.000000,2.000000,4.000000,4.000000,4.000000,4.000000,2.000000,4.000000,16.666666,,,,,,,,,,,,,,,,,,,,,,,,,,,,
1732083732.976288,1732083732.977079,86.000000,0.000000,4318.974121,4298.974121,4324.487305,4316.153809,4298.846191,4295.384766,4337.307617,4318.077148,4305.384766,4296.282227,4451.410156,4465.000000,4346.666504,4406.282227,1389.000000,0.000000,5.000000,,,,0.000000,2.000000,2.000000,0.000000,2.000000,2.000000,2.000000,0.000000,2.000000,4.000000,4.000000,4.000000,4.000000,2.000000,4.000000,16.666666,,,,,,,,,,,,,,,,,,,,,,,,,,,,
1732083732.984097,1732083732.984888,87.000000,0.000000,4315.000000,4296.410156,4325.384766,4312.051270,4300.769043,4297.051270,4339.230957,4324.615234,4311.282227,4302.436035,4451.922852,4467.179688,4349.102539,4410.256348,1523.000000,0.000000,5.000000,,,,0.000000,2.000000,2.000000,0.000000,2.000000,2.000000,2.000000,0.000000,2.000000,4.000000,4.000000,4.000000,4.000000,2.000000,4.000000,16.666666,,,,,,,,,,,,,,,,,,,,,,,,,,,,
1732083732.991905,1732083732.992796,88.000000,0.000000,4315.897461,4298.589844,4322.051270,4312.820313,4297.692383,4289.102539,4336.538574,4322.948730,4308.077148,4300.512695,4451.410156,4462.820313,4349.615234,4409.487305,1751.000000,0.000000,5.000000,,,,0.000000,2.000000,2.000000,0.000000,2.000000,2.000000,2.000000,0.000000,2.000000,4.000000,4.000000,4.000000,4.000000,2.000000,4.000000,16.666666,,,,,,,,,,,,,,,,,22.000000,0.000000,0.648229,0.396912,-0.586731,0.279297,0.940544,0.254914,-0.021975,-71.823196,66.744164,30.989704
1732083732.999713,1732083733.000604,89.000000,0.000000,4317.563965,4297.948730,4325.256348,4312.051270,4294.615234,4287.051270,4332.948730,4315.897461,4304.743652,4295.384766,4450.000000,4464.871582,4347.051270,4406.153809,1543.000000,0.000000,5.000000,,,,0.000000,2.000000,2.000000,0.000000,2.000000,2.000000,2.000000,0.000000,2.000000,4.000000,4.000000,4.000000,4.000000,2.000000,4.000000,16.666666,,,,,,,,,,,,,,,,,,,,,,,,,,,,
1732083733.007521,1732083733.008612,90.000000,0.000000,4315.000000,4298.461426,4323.717773,4310.000000,4296.025879,4293.717773,4335.256348,4320.000000,4307.051270,4292.820313,4449.230957,4471.410156,4346.282227,4409.102539,1389.000000,0.000000,5.000000,,,,0.000000,2.000000,2.000000,0.000000,2.000000,2.000000,2.000000,0.000000,2.000000,4.000000,4.000000,4.000000,4.000000,2.000000,4.000000,16.666666,,,,,,,,,,,,,,,,,,,,,,,,,,,,
1732083733.015330,1732083733.016420,91.000000,0.000000,4316.538574,4299.358887,4319.871582,4313.461426,4294.743652,4290.897461,4337.563965,4321.410156,4305.641113,4291.153809,4450.000000,4468.077148,4351.666504,4415.256348,1523.000000,0.000000,5.000000,,,,0.000000,2.000000,2.000000,0.000000,2.000000,2.000000,2.000000,0.000000,2.000000,4.000000,4.000000,4.000000,4.000000,2.000000,4.000000,16.666666,,,,,,,,,,,,,,,,,,,,,,,,,,,,
1732083733.023138,1732083733.024328,92.000000,0.000000,4319.743652,4297.179688,4318.846191,4317.820313,4290.000000,4280.512695,4331.666504,4310.897461,4300.000000,4292.307617,4455.128418,4468.589844,4359.230957,4416.538574,1751.000000,0.000000,5.000000,,,,0.000000,2.000000,2.000000,0.000000,2.000000,2.000000,2.000000,0.000000,2.000000,4.000000,4.000000,4.000000,4.000000,2.000000,4.000000,16.666666,,,,,,,,,,,,,,,,,23.000000,0.000000,0.647299,0.397522,-0.586792,0.280457,0.940544,0.254914,-0.021975,-72.078453,66.507767,30.959993
1732083733.030946,1732083733.032136,93.000000,0.000000,4318.461426,4296.410156,4321.153809,4315.256348,4287.436035,4283.205078,4330.000000,4307.948730,4298.333496,4290.641113,4453.589844,4476.794922,4355.641113,4414.358887,1543.000000,0.000000,5.000000,,,,0.000000,2.000000,2.000000,0.000000,2.000000,2.000000,2.000000,0.000000,2.000000,4.000000,4.000000,4.000000,4.000000,2.000000,4.000000,16.666666,,,,,,,,,,,,,,,,,,,,,,,,,,,,
1732083733.038754,1732083733.040144,94.000000,0.000000,4321.025879,4301.282227,4317.436035,4315.256348,4286.153809,4291.153809,4333.205078,4316.538574,4302.179688,4290.512695,4451.282227,4477.307617,4352.179688,4419.871582,1389.000000,0.000000,5.000000,,,,0.000000,2.000000,2.000000,0.000000,2.000000,2.000000,2.000000,0.000000,2.000000,4.000000,4.000000,4.000000,4.000000,2.000000,4.000000,16.666666,,,,,,,,,,,,,,,,,,,,,,,,,,,,
1732083733.046563,1732083733.047953,95.000000,0.000000,4325.897461,4300.897461,4318.333496,4318.461426,4284.358887,4287.820313,4336.410156,4318.717773,4306.025879,4298.974121,4457.948730,4477.820313,4358.846191,4426.538574,1523.000000,0.000000,5.000000,,,,0.000000,2.000000,2.000000,0.000000,2.000000,2.000000,2.000000,0.000000,2.000000,4.000000,4.000000,4.000000,4.000000,2.000000,4.000000,16.666666,,,,,,,,,,,,,,,,,,,,,,,,,,,,
1732083733.054371,1732083733.055861,96.000000,0.000000,4327.820313,4292.692383,4318.205078,4316.922852,4282.820313,4287.563965,4334.871582,4317.051270,4307.051270,4305.000000,4462.051270,4481.922852,4358.461426,4424.102539,1751.000000,0.000000,5.000000,,,,0.000000,2.000000,2.000000,0.000000,2.000000,2.000000,2.000000,0.000000,2.000000,4.000000,4.000000,4.000000,4.000000,2.000000,4.000000,16.666666,,,,,,,,,,,,,,,,,24.000000,0.000000,0.642664,0.398071,-0.588562,0.286560,0.973263,0.172873,-0.008302,-72.158546,66.272957,31.042595
1732083733.062179,1732083733.063669,97.000000,0.000000,4330.000000,4292.179688,4319.487305,4311.666504,4281.410156,4292.692383,4335.512695,4319.487305,4304.743652,4296.282227,4454.615234,4481.666504,4349.871582,4420.128418,1543.000000,0.000000,5.000000,,,,0.000000,2.000000,2.000000,0.000000,2.000000,2.000000,2.000000,0.000000,2.000000,4.000000,4.000000,4.000000,4.000000,2.000000,4.000000,16.666666,,,,,,,,,,,,,,,,,,,,,,,,,,,,
1732083733.069987,1732083733.071277,98.000000,0.000000,4332.948730,4298.974121,4321.922852,4312.307617,4281.538574,4289.871582,4335.512695,4319.358887,4305.000000,4288.077148,4450.000000,4476.666504,4349.615234,4420.641113,1389.000000,0.000000,5.000000,,,,0.000000,2.000000,2.000000,0.000000,2.000000,2.000000,2.000000,0.000000,2.000000,4.000000,4.000000,4.000000,4.000000,2.000000,4.000000,16.666666,,,,,,,,,,,,,,,,,,,,,,,,,,,,
1732083733.077796,1732083733.079086,99.000000,0.000000,4333.461426,4299.615234,4325.512695,4317.692383,4285.641113,4285.128418,4337.436035,4318.717773,4304.743652,4291.538574,4454.743652,4475.256348,4355.128418,4420.897461,1523.000000,0.000000,5.000000,,,,0.000000,2.000000,2.000000,0.000000,2.000000,2.000000,2.000000,0.000000,2.000000,4.000000,4.000000,4.000000,4.000000,2.000000,4.000000,16.666666,,,,,,,,,,,,,,,,,,,,,,,,,,,,
1732083733.085604,1732083733.086994,100.000000,0.000000,4334.102539,4296.922852,4321.282227,4316.410156,4288.461426,4289.358887,4335.897461,4322.692383,4306.410156,4298.846191,4457.436035,4478.461426,4353.205078,4422.307617,1751.000000,0.000000,5.000000,,,,0.000000,2.000000,2.000000,0.000000,2.000000,2.000000,2.000000,0.000000,2.000000,4.000000,4.000000,4.000000,4.000000,2.000000,4.000000,16.666666,,,,,,,,,,,,,,,,,25.000000,0.000000,0.641190,0.397278,-0.589661,0.288696,0.989379,0.159687,-0.005860,-72.678429,66.146095,30.957834
1732083733.093412,1732083733.094802,101.000000,0.000000,4337.307617,4297.820313,4318.717773,4311.025879,4287.563965,4293.846191,4333.461426,4326.282227,4314.358887,4300.512695,4454.871582,4481.153809,4349.358887,4422.179688,1543.000000,0.000000,5.000000,,,,0.000000,2.000000,2.000000,0.000000,2.000000,2.000000,2.000000,0.000000,2.000000,4.000000,4.000000,4.000000,4.000000,2.000000,4.000000,16.666666,,,,,,,,,,,,,,,,,,,,,,,,,,,,
1732083733.101220,1732083733.102410,102.000000,0.000000,4340.256348,4298.589844,4322.307617,4313.461426,4287.692383,4293.589844,4336.666504,4326.153809,4315.769043,4295.641113,4452.948730,4483.974121,4354.102539,4420.641113,1389.000000,0.000000,5.000000,,,,0.000000,2.000000,2.000000,0.000000,2.000000,2.000000,2.000000,0.000000,2.000000,4.000000,4.000000,4.000000,4.000000,2.000000,4.000000,16.666666,,,,,,,,,,,,,,,,,,,,,,,,,,,,
1732083733.109029,1732083733.110219,103.000000,0.000000,4343.846191,4298.205078,4320.384766,4317.948730,4284.871582,4287.563965,4336.282227,4319.358887,4304.615234,4296.794922,4460.512695,4484.487305,4363.205078,4428.846191,1523.000000,0.000000,5.000000,,,,0.000000,2.000000,2.000000,0.000000,2.000000,2.000000,2.000000,0.000000,2.000000,4.000000,4.000000,4.000000,4.000000,2.000000,4.000000,16.666666,,,,,,,,,,,,,,,,,,,,,,,,,,,,
1732083733.116837,1732083733.117927,104.000000,0.000000,4351.025879,4302.692383,4319.230957,4318.333496,4281.794922,4280.641113,4331.666504,4308.974121,4293.846191,4299.230957,4464.102539,4483.333496,4363.846191,4436.666504,1751.000000,0.000000,5.000000,,,,0.000000,2.000000,2.000000,0.000000,2.000000,2.000000,2.000000,0.000000,2.000000,4.000000,4.000000,4.000000,4.000000,2.000000,4.000000,16.666666,,,,,,,,,,,,,,,,,26.000000,0.000000,0.639658,0.396240,-0.590881,0.291016,0.989379,0.159687,-0.005860,-72.869522,65.691673,30.829180
1732083733.124645,1732083733.125735,105.000000,0.000000,4356.410156,4309.102539,4316.025879,4319.358887,4286.410156,4287.692383,4331.922852,4308.589844,4296.538574,4294.487305,4458.846191,4480.641113,4359.102539,4433.077148,1543.000000,0.000000,5.000000,,,,0.000000,2.000000,2.000000,0.000000,2.000000,2.000000,2.000000,0.000000,2.000000,4.000000,4.000000,4.000000,4.000000,2.000000,4.000000,16.666666,,,,,,,,,,,,,,,,,,,,,,,,,,,,
1732083733.132454,1732083733.133344,106.000000,0.000000,4356.666504,4310.000000,4315.000000,4318.717773,4285.512695,4290.512695,4333.461426,4311.666504,4298.589844,4296.153809,4461.410156,4481.025879,4361.794922,4433.333496,1389.000000,0.000000,5.000000,,,,0.000000,2.000000,2.000000,0.000000,2.000000,2.000000,2.000000,0.000000,2.000000,4.000000,4.000000,4.000000,4.000000,2.000000,4.000000,16.666666,,,,,,,,,,,,,,,,,,,,,,,,,,,,
1732083733.140262,1732083733.141152,107.000000,0.000000,4360.000000,4307.692383,4308.461426,4317.948730,4278.846191,4280.000000,4327.692383,4308.717773,4297.820313,4306.025879,4467.948730,4481.410156,4367.179688,4443.974121,1523.000000,0.000000,5.000000,,,,0.000000,2.000000,2.000000,0.000000,2.000000,2.000000,2.000000,0.000000,2.000000,4.000000,4.000000,4.000000,4.000000,2.000000,4.000000,16.666666,,,,,,,,,,,,,,,,,,,,,,,,,,,,
1732083733.148070,1732083733.149060,108.000000,0.000000,4364.871582,4308.077148,4309.102539,4322.051270,4281.794922,4276.794922,4326.794922,4310.384766,4305.128418,4300.897461,4467.179688,4483.974121,4367.563965,4448.589844,1751.000000,0.000000,5.000000,,,,0.000000,2.000000,2.000000,0.000000,2.000000,2.000000,2.000000,0.000000,2.000000,4.000000,4.000000,4.000000,4.000000,2.000000,4.000000,16.666666,,,,,,,,,,,,,,,,,27.000000,0.000000,0.632848,0.389282,-0.597107,0.302368,0.977658,0.113295,0.016115,-72.925980,65.180252,30.418303
1732083733.155878,1732083733.156868,109.000000,0.000000,4367.436035,4312.563965,4304.615234,4326.794922,4288.846191,4280.769043,4326.666504,4313.846191,4309.358887,4293.205078,4467.179688,4484.102539,4368.846191,4446.153809,1543.000000,0.000000,5.000000,,,,0.000000,2.000000,2.000000,0.000000,2.000000,2.000000,2.000000,0.000000,2.000000,4.000000,4.000000,4.000000,4.000000,2.000000,4.000000,16.666666,,,,,,,,,,,,,,,,,,,,,,,,,,,,
1732083733.163687,1732083733.164876,110.000000,0.000000,4370.641113,4313.589844,4301.794922,4325.512695,4287.948730,4280.512695,4324.102539,4310.512695,4302.307617,4296.538574,4467.563965,4480.256348,4367.307617,4445.641113,1389.000000,0.000000,5.000000,,,,0.000000,2.000000,2.000000,0.000000,2.000000,2.000000,2.000000,0.000000,2.000000,4.000000,4.000000,4.000000,4.000000,2.000000,4.000000,16.666666,,,,,,,,,,,,,,,,,,,,,,,,,,,,
1732083733.171495,1732083733.172684,111.000000,0.000000,4373.974121,4311.025879,4301.025879,4326.794922,4288.846191,4287.563965,4323.461426,4314.871582,4300.256348,4294.615234,4464.358887,4477.820313,4362.436035,4450.256348,1523.000000,0.000000,5.000000,,,,0.000000,2.000000,2.000000,0.000000,2.000000,2.000000,2.000000,0.000000,2.000000,4.000000,4.000000,4.000000,4.000000,2.000000,4.000000,16.666666,,,,,,,,,,,,,,,,,,,,,,,,,,,,
1732083733.179303,1732083733.180592,112.000000,0.000000,4374.743652,4311.153809,4303.461426,4329.230957,4290.512695,4290.128418,4324.615234,4319.743652,4305.512695,4292.820313,4465.256348,4483.205078,4366.666504,4457.436035,1751.000000,0.000000,5.000000,,,,0.000000,2.000000,2.000000,0.000000,2.000000,2.000000,2.000000,0.000000,2.000000,4.000000,4.000000,4.000000,4.000000,2.000000,4.000000,16.666666,,,,,,,,,,,,,,,,,28.000000,0.000000,0.627129,0.383362,-0.601990,0.312012,0.953241,0.083506,0.005372,-73.171715,64.616005,30.068825
1732083733.187112,1732083733.188401,113.000000,0.000000,4380.512695,4314.487305,4304.487305,4327.820313,4288.333496,4278.333496,4320.256348,4311.282227,4303.461426,4298.333496,4472.051270,4491.282227,4375.512695,4464.487305,1543.000000,0.000000,5.000000,,,,0.000000,2.000000,2.000000,0.000000,2.000000,2.000000,2.000000,0.000000,2.000000,4.000000,4.000000,4.000000,4.000000,2.000000,4.000000,16.666666,,,,,,,,,,,,,,,,,,,,,,,,,,,,
1732083733.194920,1732083733.196009,114.000000,0.000000,4387.179688,4314.743652,4306.153809,4328.077148,4287.179688,4277.179688,4320.897461,4310.128418,4303.461426,4298.461426,4475.641113,4495.384766,4375.641113,4468.717773,1389.000000,0.000000,5.000000,,,,0.000000,2.000000,2.000000,0.000000,2.000000,2.000000,2.000000,0.000000,2.000000,4.000000,4.000000,4.000000,4.000000,2.000000,4.000000,16.666666,,,,,,,,,,,,,,,,,,,,,,,,,,,,
1732083733.202728,1732083733.203817,115.000000,0.000000,4387.563965,4310.256348,4304.358887,4329.615234,4287.051270,4282.948730,4321.410156,4318.205078,4309.230957,4295.384766,4475.256348,4493.974121,4373.589844,4471.666504,1523.000000,0.000000,5.000000,,,,0.000000,2.000000,2.000000,0.000000,2.000000,2.000000,2.000000,0.000000,2.000000,4.000000,4.000000,4.000000,4.000000,2.000000,4.000000,16.666666,,,,,,,,,,,,,,,,,,,,,,,,,,,,
1732083733.210536,1732083733.211525,116.000000,0.000000,4386.666504,4307.948730,4300.128418,4327.692383,4289.615234,4280.128418,4320.641113,4317.563965,4306.153809,4297.179688,4476.153809,4494.743652,4376.922852,4474.615234,1751.000000,0.000000,5.000000,,,,0.000000,2.000000,2.000000,0.000000,2.000000,2.000000,2.000000,0.000000,2.000000,4.000000,4.000000,4.000000,4.000000,2.000000,4.000000,16.666666,,,,,,,,,,,,,,,,,29.000000,0.000000,0.627129,0.383362,-0.601990,0.312012,0.925406,0.065438,0.009278,-73.490753,63.963966,29.935747
1732083733.218345,1732083733.219334,117.000000,0.000000,4391.410156,4313.461426,4301.794922,4329.358887,4292.692383,4278.077148,4319.871582,4313.205078,4298.974121,4293.077148,4477.051270,4500.897461,4376.153809,4476.153809,1543.000000,0.000000,5.000000,,,,0.000000,2.000000,2.000000,0.000000,2.000000,2.000000,2.000000,0.000000,2.000000,4.000000,4.000000,4.000000,4.000000,2.000000,4.000000,16.666666,,,,,,,,,,,,,,,,,,,,,,,,,,,,
1732083733.226153,1732083733.227342,118.000000,0.000000,4395.769043,4317.948730,4303.077148,4333.589844,4290.128418,4278.846191,4318.461426,4312.307617,4298.461426,4282.307617,4475.256348,4495.512695,4373.077148,4474.615234,1389.000000,0.000000,5.000000,,,,0.000000,2.000000,2.000000,0.000000,2.000000,2.000000,2.000000,0.000000,2.000000,4.000000,4.000000,4.000000,4.000000,2.000000,4.000000,16.666666,,,,,,,,,,,,,,,,,,,,,,,,,,,,
1732083733.233961,1732083733.235150,119.000000,0.000000,4396.538574,4318.205078,4303.717773,4329.871582,4287.563965,4276.025879,4317.051270,4310.641113,4299.487305,4282.436035,4476.282227,4490.000000,4377.692383,4474.230957,1523.000000,0.000000,5.000000,,,,0.000000,2.000000,2.000000,0.000000,2.000000,2.000000,2.000000,0.000000,2.000000,4.000000,4.000000,4.000000,4.000000,2.000000,4.000000,16.666666,,,,,,,,,,,,,,,,,,,,,,,,,,,,
1732083733.241769,1732083733.243058,120.000000,0.000000,4398.717773,4319.871582,4302.051270,4327.692383,4291.922852,4277.563965,4320.128418,4311.794922,4298.974121,4290.000000,4481.025879,4498.333496,4383.717773,4477.436035,1751.000000,0.000000,5.000000,,,,0.000000,2.000000,2.000000,0.000000,2.000000,2.000000,2.000000,0.000000,2.000000,4.000000,4.000000,4.000000,4.000000,2.000000,4.000000,16.666666,,,,,,,,,,,,,,,,,30.000000,0.000000,0.621630,0.379761,-0.605347,0.320801,0.934684,0.049811,0.014162,-74.030846,63.622478,30.106289
1732083733.249578,1732083733.250866,121.000000,0.000000,4400.000000,4320.000000,4307.307617,4331.025879,4293.717773,4282.307617,4323.077148,4314.487305,4303.461426,4286.538574,4482.307617,4506.538574,4384.358887,4477.436035,1543.000000,0.000000,5.000000,,,,0.000000,2.000000,2.000000,0.000000,2.000000,2.000000,2.000000,0.000000,2.000000,4.000000,4.000000,4.000000,4.000000,2.000000,4.000000,16.666666,,,,,,,,,,,,,,,,,,,,,,,,,,,,
1732083733.257386,1732083733.258874,122.000000,0.000000,4395.000000,4316.025879,4306.922852,4330.000000,4293.077148,4281.153809,4321.538574,4313.205078,4306.282227,4276.153809,4479.743652,4501.538574,4380.512695,4476.794922,1389.000000,0.000000,5.000000,,,,0.000000,2.000000,2.000000,0.000000,2.000000,2.000000,2.000000,0.000000,2.000000,4.000000,4.000000,4.000000,4.000000,2.000000,4.000000,16.666666,,,,,,,,,,,,,,,,,,,,,,,,,,,,
1732083733.265194,1732083733.266682,123.000000,0.000000,4387.948730,4313.974121,4307.692383,4325.512695,4293.589844,4279.743652,4324.230957,4311.922852,4304.102539,4279.871582,4481.922852,4500.641113,4378.333496,4475.897461,1523.000000,0.000000,5.000000,,,,0.000000,2.000000,2.000000,0.000000,2.000000,2.000000,2.000000,0.000000,2.000000,4.000000,4.000000,4.000000,4.000000,2.000000,4.000000,16.666666,,,,,,,,,,,,,,,,,,,,,,,,,,,,
1732083733.273002,1732083733.274591,124.000000,0.000000,4389.230957,4316.794922,4307.948730,4326.922852,4295.384766,4283.077148,4327.179688,4312.948730,4305.384766,4291.666504,4484.102539,4505.256348,4381.282227,4474.615234,1751.000000,0.000000,5.000000,,,,0.000000,2.000000,2.000000,0.000000,2.000000,2.000000,2.000000,0.000000,2.000000,4.000000,4.000000,4.000000,4.000000,2.000000,4.000000,16.666666,,,,,,,,,,,,,,,,,31.000000,0.000000,0.616177,0.377197,-0.607666,0.329834,0.982053,0.067391,-0.016604,-74.708313,62.927540,30.059427
1732083733.280811,1732083733.282399,125.000000,0.000000,4386.410156,4313.077148,4313.077148,4327.051270,4295.512695,4284.358887,4329.358887,4312.563965,4306.666504,4292.820313,4481.153809,4506.666504,4379.358887,4472.307617,1543.000000,0.000000,5.000000,,,,0.000000,2.000000,2.000000,0.000000,2.000000,2.000000,2.000000,0.000000,2.000000,4.000000,4.000000,4.000000,4.000000,2.000000,4.000000,16.666666,,,,,,,,,,,,,,,,,,,,,,,,,,,,
1732083733.288619,1732083733.290007,126.000000,0.000000,4382.436035,4310.256348,4314.487305,4325.384766,4295.769043,4281.794922,4326.025879,4311.922852,4303.846191,4292.307617,4483.974121,4506.282227,4376.410156,4471.794922,1389.000000,0.000000,5.000000,,,,0.000000,2.000000,2.000000,0.000000,2.000000,2.000000,2.000000,0.000000,2.000000,4.000000,4.000000,4.000000,4.000000,2.000000,4.000000,16.666666,,,,,,,,,,,,,,,,,,,,,,,,,,,,
1732083733.296427,1732083733.297815,127.000000,0.000000,4387.820313,4319.487305,4313.333496,4328.589844,4295.897461,4279.230957,4321.794922,4312.051270,4301.922852,4293.717773,4487.948730,4507.948730,4380.897461,4475.256348,5.000000,0.000000,5.000000,,,,0.000000,2.000000,2.000000,0.000000,2.000000,2.000000,2.000000,0.000000,2.000000,4.000000,4.000000,4.000000,4.000000,2.000000,4.000000,16.666666,,,,,,,,,,,,,,,,,,,,,,,,,,,,
1732083733.304235,1732083733.305524,0.000000,0.000000,4387.436035,4323.717773,4311.153809,4333.461426,4297.307617,4281.025879,4322.436035,4312.307617,4304.615234,4292.692383,4486.410156,4509.102539,4385.000000,4477.179688,0.000000,0.000000,5.000000,,,,0.000000,2.000000,2.000000,0.000000,2.000000,2.000000,2.000000,0.000000,2.000000,4.000000,4.000000,4.000000,4.000000,2.000000,4.000000,16.666666,,,,,,,,,,,,,,,,,0.000000,0.000000,0.612901,0.377441,-0.608459,0.334167,0.990844,0.090831,-0.040044,-75.387070,62.262974,29.878136
1732083733.312044,1732083733.313332,1.000000,0.000000,4376.282227,4317.436035,4314.871582,4333.333496,4300.384766,4282.948730,4328.717773,4312.563965,4306.794922,4293.461426,4487.051270,4507.051270,4381.922852,4472.948730,1327.000000,0.000000,5.000000,,,,0.000000,2.000000,2.000000,0.000000,2.000000,2.000000,2.000000,0.000000,2.000000,4.000000,4.000000,4.000000,4.000000,2.000000,4.000000,16.666666,,,,,,,,,,,,,,,,,,,,,,,,,,,,
1732083733.319852,1732083733.321340,2.000000,0.000000,4375.128418,4317.692383,4320.512695,4332.307617,4298.333496,4281.410156,4328.333496,4312.307617,4308.077148,4300.512695,4489.743652,4507.692383,4381.922852,4470.897461,1237.000000,0.000000,5.000000,,,,0.000000,2.000000,2.000000,0.000000,2.000000,2.000000,2.000000,0.000000,2.000000,4.000000,4.000000,4.000000,4.000000,2.000000,4.000000,16.666666,,,,,,,,,,,,,,,,,,,,,,,,,,,,
1732083733.327660,1732083733.329148,3.000000,0.000000,4381.410156,4322.051270,4317.820313,4331.922852,4290.512695,4279.871582,4324.615234,4310.641113,4305.000000,4302.820313,4488.461426,4512.436035,4382.179688,4474.102539,1200.000000,0.000000,5.000000,,,,0.000000,2.000000,2.000000,0.000000,2.000000,2.000000,2.000000,0.000000,2.000000,4.000000,4.000000,4.000000,4.000000,2.000000,4.000000,16.666666,,,,,,,,,,,,,,,,,,,,,,,,,,,,
1732083733.335468,1732083733.337056,4.000000,0.000000,4378.461426,4318.077148,4316.025879,4330.128418,4286.538574,4280.512695,4325.128418,4308.846191,4298.205078,4295.769043,4486.922852,4517.307617,4378.077148,4474.743652,1214.000000,0.000000,5.000000,,,,0.000000,2.000000,2.000000,0.000000,2.000000,2.000000,2.000000,0.000000,2.000000,4.000000,4.000000,4.000000,4.000000,2.000000,4.000000,16.666666,,,,,,,,,,,,,,,,,1.000000,0.000000,0.611153,0.377930,-0.608704,0.336365,0.972287,0.078135,-0.031742,-75.708527,61.578011,29.626291
1732083733.343277,1732083733.344864,5.000000,0.000000,4377.179688,4318.974121,4322.563965,4331.794922,4289.743652,4281.410156,4329.230957,4310.641113,4302.820313,4293.205078,4491.282227,4520.641113,4381.025879,4476.025879,1075.000000,0.000000,5.000000,,,,0.000000,2.000000,2.000000,0.000000,2.000000,2.000000,2.000000,0.000000,2.000000,4.000000,4.000000,4.000000,4.000000,2.000000,4.000000,16.666666,,,,,,,,,,,,,,,,,,,,,,,,,,,,
1732083733.351085,1732083733.352872,6.000000,0.000000,4382.692383,4325.128418,4327.051270,4334.871582,4291.025879,4280.128418,4328.974121,4311.282227,4308.461426,4298.974121,4490.641113,4521.794922,4383.846191,4477.692383,0.000000,0.000000,5.000000,,,,0.000000,2.000000,2.000000,0.000000,2.000000,2.000000,2.000000,0.000000,2.000000,4.000000,4.000000,4.000000,4.000000,2.000000,4.000000,16.666666,,,,,,,,,,,,,,,,,,,,,,,,,,,,
1732083733.358893,1732083733.360681,7.000000,0.000000,4378.589844,4320.769043,4321.666504,4331.794922,4285.256348,4281.025879,4328.846191,4308.205078,4303.333496,4299.871582,4487.692383,4518.589844,4381.282227,4477.436035,1169.000000,0.000000,5.000000,,,,0.000000,2.000000,2.000000,0.000000,2.000000,2.000000,2.000000,0.000000,2.000000,4.000000,4.000000,4.000000,4.000000,2.000000,4.000000,16.666666,,,,,,,,,,,,,,,,,,,,,,,,,,,,
1732083733.366701,1732083733.368589,8.000000,0.000000,4369.487305,4314.230957,4320.769043,4326.922852,4283.846191,4280.256348,4331.025879,4309.487305,4301.538574,4294.358887,4488.205078,4514.615234,4382.179688,4477.307617,1371.000000,0.000000,5.000000,,,,0.000000,2.000000,2.000000,0.000000,2.000000,2.000000,2.000000,0.000000,2.000000,4.000000,4.000000,4.000000,4.000000,2.000000,4.000000,16.666666,,,,,,,,,,,,,,,,,2.000000,0.000000,0.607346,0.379089,-0.609314,0.340820,0.951776,0.066414,-0.045416,-75.700577,60.929855,29.253962
1732083733.374510,1732083733.376397,9.000000,0.000000,4366.794922,4314.871582,4323.077148,4328.205078,4286.538574,4280.384766,4332.820313,4314.487305,4309.358887,4295.384766,4486.282227,4516.410156,4382.179688,4471.666504,1521.000000,0.000000,5.000000,,,,0.000000,2.000000,2.000000,0.000000,2.000000,2.000000,2.000000,0.000000,2.000000,4.000000,4.000000,4.000000,4.000000,2.000000,4.000000,16.666666,,,,,,,,,,,,,,,,,,,,,,,,,,,,
1732083733.382318,1732083733.384405,10.000000,0.000000,4363.974121,4312.436035,4321.922852,4327.307617,4284.230957,4285.000000,4332.820313,4315.512695,4311.922852,4300.384766,4482.563965,4517.948730,4376.410156,4461.538574,1389.000000,0.000000,5.000000,,,,0.000000,2.000000,2.000000,0.000000,2.000000,2.000000,2.000000,0.000000,2.000000,4.000000,4.000000,4.000000,4.000000,2.000000,4.000000,16.666666,,,,,,,,,,,,,,,,,,,,,,,,,,,,
1732083733.390126,1732083733.392213,11.000000,0.000000,4359.358887,4308.846191,4318.846191,4324.230957,4283.717773,4286.794922,4334.358887,4316.025879,4310.769043,4299.102539,4481.282227,4510.641113,4373.589844,4458.974121,1519.000000,0.000000,5.000000,,,,0.000000,2.000000,2.000000,0.000000,2.000000,2.000000,2.000000,0.000000,2.000000,4.000000,4.000000,4.000000,4.000000,2.000000,4.000000,16.666666,,,,,,,,,,,,,,,,,,,,,,,,,,,,
1732083733.397935,1732083733.400121,12.000000,0.000000,4357.051270,4309.871582,4320.769043,4324.743652,4290.641113,4291.153809,4337.692383,4322.563965,4313.333496,4295.641113,4480.769043,4506.153809,4377.563965,4460.256348,1751.000000,0.000000,5.000000,,,,0.000000,2.000000,2.000000,0.000000,2.000000,2.000000,2.000000,0.000000,2.000000,4.000000,4.000000,4.000000,4.000000,2.000000,4.000000,16.666666,,,,,,,,,,,,,,,,,3.000000,0.000000,0.600245,0.382202,-0.610229,0.348206,0.987914,0.051276,-0.031254,-76.107468,60.173183,28.992376
1732083733.405743,1732083733.407929,13.000000,0.000000,4355.128418,4312.436035,4323.077148,4326.153809,4290.897461,4297.692383,4336.025879,4323.717773,4314.487305,4297.563965,4478.461426,4509.358887,4378.205078,4456.538574,1543.000000,0.000000,5.000000,,,,0.000000,2.000000,2.000000,0.000000,2.000000,2.000000,2.000000,0.000000,2.000000,4.000000,4.000000,4.000000,4.000000,2.000000,4.000000,16.666666,,,,,,,,,,,,,,,,,,,,,,,,,,,,
1732083733.413551,1732083733.415538,14.000000,0.000000,4352.051270,4310.384766,4326.794922,4323.205078,4290.769043,4289.871582,4333.205078,4315.384766,4313.077148,4299.871582,4475.897461,4511.922852,4375.384766,4456.538574,1389.000000,0.000000,5.000000,,,,0.000000,2.000000,2.000000,0.000000,2.000000,2.000000,2.000000,0.000000,2.000000,4.000000,4.000000,4.000000,4.000000,2.000000,4.000000,16.666666,1.000000,16.666666,2.000000,2.000000,0.000000,2.000000,2.000000,2.000000,0.000000,2.000000,3.000000,4.000000,4.000000,4.000000,2.000000,4.000000,,,,,,,,,,,,
1732083733.421359,1732083733.423346,15.000000,0.000000,4355.897461,4309.487305,4328.846191,4321.410156,4300.384766,4278.589844,4332.692383,4309.102539,4310.769043,4295.897461,4476.794922,4508.717773,4376.025879,4460.384766,1519.000000,0.000000,5.000000,,,,0.000000,2.000000,2.000000,0.000000,2.000000,2.000000,2.000000,0.000000,2.000000,4.000000,4.000000,4.000000,4.000000,2.000000,4.000000,16.666666,,,,,,,,,,,,,,,,,,,,,,,,,,,,
1732083733.429168,1732083733.431054,16.000000,0.000000,4355.256348,4309.871582,4327.820313,4321.794922,4295.000000,4287.563965,4338.333496,4310.769043,4305.897461,4290.512695,4477.948730,4510.641113,4377.307617,4455.128418,0.000000,0.000000,5.000000,,,,0.000000,2.000000,2.000000,0.000000,2.000000,2.000000,2.000000,0.000000,2.000000,4.000000,4.000000,4.000000,4.000000,2.000000,4.000000,16.666666,,,,,,,,,,,,,,,,,4.000000,0.000000,0.598470,0.383118,-0.610352,0.350037,0.987914,0.051276,-0.031254,-76.232048,59.596943,28.528824
1732083733.436976,1732083733.438863,17.000000,0.000000,4342.820313,4308.461426,4327.436035,4319.358887,4284.230957,4300.256348,4338.589844,4314.358887,4306.153809,4292.436035,4478.333496,4518.077148,4373.846191,4447.948730,0.000000,0.000000,5.000000,,,,0.000000,2.000000,2.000000,0.000000,2.000000,2.000000,2.000000,0.000000,2.000000,4.000000,4.000000,4.000000,4.000000,2.000000,4.000000,16.666666,,,,,,,,,,,,,,,,,,,,,,,,,,,,
1732083733.444784,1732083733.446471,18.000000,0.000000,4336.538574,4307.307617,4331.666504,4318.333496,4291.922852,4298.717773,4336.666504,4314.487305,4308.846191,4293.205078,4477.692383,4521.025879,4368.205078,4446.794922,0.000000,0.000000,5.000000,,,,0.000000,2.000000,2.000000,0.000000,2.000000,2.000000,2.000000,0.000000,2.000000,4.000000,4.000000,4.000000,4.000000,2.000000,4.000000,16.666666,,,,,,,,,,,,,,,,,,,,,,,,,,,,
1732083733.452592,1732083733.454279,19.000000,0.000000,4338.846191,4306.794922,4331.538574,4320.512695,4299.615234,4295.897461,4336.666504,4310.897461,4306.538574,4286.153809,4477.948730,4517.051270,4365.128418,4446.666504,0.000000,0.000000,5.000000,,,,0.000000,2.000000,2.000000,0.000000,2.000000,2.000000,2.000000,0.000000,2.000000,4.000000,4.000000,4.000000,4.000000,2.000000,4.000000,16.666666,,,,,,,,,,,,,,,,,,,,,,,,,,,,
1732083733.460401,1732083733.461988,20.000000,0.000000,4339.230957,4303.846191,4326.025879,4316.666504,4294.102539,4295.897461,4337.051270,4311.538574,4308.205078,4290.384766,4478.205078,4509.743652,4366.666504,4445.000000,0.000000,0.000000,5.000000,,,,0.000000,2.000000,2.000000,0.000000,2.000000,2.000000,2.000000,0.000000,2.000000,4.000000,4.000000,4.000000,4.000000,2.000000,4.000000,16.666666,,,,,,,,,,,,,,,,,5.000000,0.000000,0.592671,0.383362,-0.612854,0.355225,1.047491,-0.004395,-0.056648,-76.377960,58.913525,28.365015
1732083733.468209,1732083733.469796,21.000000,0.000000,4337.948730,4300.897461,4325.769043,4311.410156,4292.051270,4294.102539,4336.153809,4320.512695,4318.333496,4306.153809,4475.128418,4506.410156,4369.230957,4443.717773,0.000000,0.000000,5.000000,,,,0.000000,2.000000,2.000000,0.000000,2.000000,2.000000,2.000000,0.000000,2.000000,4.000000,4.000000,4.000000,4.000000,2.000000,4.000000,16.666666,,,,,,,,,,,,,,,,,,,,,,,,,,,,
1732083733.476017,1732083733.477804,22.000000,0.000000,4336.794922,4300.897461,4330.641113,4316.282227,4295.512695,4294.871582,4339.102539,4327.820313,4321.153809,4309.871582,4471.794922,4505.256348,4366.410156,4443.077148,0.000000,0.000000,5.000000,,,,0.000000,2.000000,2.000000,0.000000,2.000000,2.000000,2.000000,0.000000,2.000000,4.000000,4.000000,4.000000,4.000000,2.000000,4.000000,16.666666,,,,,,,,,,,,,,,,,,,,,,,,,,,,
1732083733.483826,1732083733.485612,23.000000,0.000000,4340.000000,4304.615234,4330.512695,4320.897461,4295.512695,4298.077148,4341.666504,4327.948730,4315.128418,4306.922852,4472.307617,4504.871582,4362.307617,4443.205078,0.000000,0.000000,5.000000,,,,0.000000,2.000000,2.000000,0.000000,2.000000,2.000000,2.000000,0.000000,2.000000,4.000000,4.000000,4.000000,4.000000,2.000000,4.000000,16.666666,,,,,,,,,,,,,,,,,,,,,,,,,,,,
1732083733.491634,1732083733.493320,24.000000,0.000000,4344.743652,4305.512695,4328.461426,4315.897461,4297.563965,4296.922852,4338.589844,4321.666504,4313.333496,4312.179688,4476.666504,4506.666504,4366.666504,4446.410156,0.000000,0.000000,5.000000,,,,0.000000,2.000000,2.000000,0.000000,2.000000,2.000000,2.000000,0.000000,2.000000,4.000000,4.000000,4.000000,4.000000,2.000000,4.000000,16.666666,,,,,,,,,,,,,,,,,6.000000,0.000000,0.580774,0.379211,-0.622070,0.363220,1.019167,-0.054206,-0.062019,-77.027809,58.128288,27.750662
1732083733.499442,1732083733.501128,25.000000,0.000000,4340.256348,4301.794922,4333.205078,4312.307617,4294.487305,4293.974121,4338.461426,4311.794922,4314.871582,4316.410156,4480.512695,4509.358887,4369.487305,4453.333496,0.000000,0.000000,5.000000,,,,0.000000,2.000000,2.000000,0.000000,2.000000,2.000000,2.000000,0.000000,2.000000,4.000000,4.000000,4.000000,4.000000,2.000000,4.000000,16.666666,,,,,,,,,,,,,,,,,,,,,,,,,,,,
1732083733.507250,1732083733.508737,26.000000,0.000000,4332.436035,4300.897461,4334.487305,4314.230957,4291.922852,4296.538574,4340.897461,4310.769043,4314.358887,4313.589844,4477.820313,4508.846191,4366.666504,4454.871582,0.000000,0.000000,5.000000,,,,0.000000,2.000000,2.000000,0.000000,2.000000,2.000000,2.000000,0.000000,2.000000,4.000000,4.000000,4.000000,4.000000,2.000000,4.000000,16.666666,,,,,,,,,,,,,,,,,,,,,,,,,,,,
1732083733.515059,1732083733.516545,27.000000,0.000000,4331.922852,4308.846191,4330.256348,4315.384766,4307.179688,4298.077148,4338.589844,4316.794922,4315.128418,4313.717773,4470.769043,4505.000000,4364.743652,4440.897461,0.000000,0.000000,5.000000,,,,0.000000,2.000000,2.000000,0.000000,2.000000,2.000000,2.000000,0.000000,2.000000,4.000000,4.000000,4.000000,4.000000,2.000000,4.000000,16.666666,,,,,,,,,,,,,,,,,,,,,,,,,,,,
1732083733.522867,1732083733.524253,28.000000,0.000000,4332.692383,4315.000000,4325.512695,4315.512695,4319.615234,4294.358887,4336.282227,4315.897461,4318.589844,4318.589844,4469.743652,4495.897461,4364.102539,4426.922852,0.000000,0.000000,5.000000,,,,0.000000,2.000000,2.000000,0.000000,2.000000,2.000000,2.000000,0.000000,2.000000,4.000000,4.000000,4.000000,4.000000,2.000000,4.000000,16.666666,,,,,,,,,,,,,,,,,7.000000,0.000000,0.574272,0.376892,-0.627380,0.366821,0.938591,-0.050787,-0.077158,-77.487526,57.392246,27.286369
1732083733.530675,1732083733.532062,29.000000,0.000000,4328.846191,4305.128418,4321.410156,4315.512695,4305.000000,4297.692383,4337.563965,4316.153809,4325.641113,4326.538574,4473.846191,4490.897461,4364.102539,4428.077148,0.000000,0.000000,5.000000,,,,0.000000,2.000000,2.000000,0.000000,2.000000,2.000000,2.000000,0.000000,2.000000,4.000000,4.000000,4.000000,4.000000,2.000000,4.000000,16.666666,,,,,,,,,,,,,,,,,,,,,,,,,,,,
1732083733.538483,1732083733.539670,30.000000,0.000000,4324.230957,4298.846191,4315.641113,4315.256348,4293.077148,4305.769043,4334.615234,4323.846191,4331.153809,4329.743652,4474.871582,4498.077148,4364.615234,4428.974121,0.000000,0.000000,5.000000,,,,0.000000,2.000000,2.000000,0.000000,2.000000,2.000000,2.000000,0.000000,2.000000,4.000000,4.000000,4.000000,4.000000,2.000000,4.000000,16.666666,,,,,,,,,,,,,,,,,,,,,,,,,,,,
1732083733.546292,1732083733.547478,31.000000,0.000000,4322.179688,4304.743652,4315.256348,4318.717773,4305.384766,4302.563965,4332.051270,4326.538574,4330.000000,4322.436035,4474.871582,4501.666504,4365.769043,4430.128418,0.000000,0.000000,5.000000,,,,0.000000,2.000000,2.000000,0.000000,2.000000,2.000000,2.000000,0.000000,2.000000,4.000000,4.000000,4.000000,4.000000,2.000000,4.000000,16.666666,,,,,,,,,,,,,,,,,,,,,,,,,,,,
1732083733.554100,1732083733.555187,32.000000,0.000000,4325.769043,4305.128418,4315.512695,4322.307617,4308.974121,4297.820313,4331.282227,4323.846191,4331.538574,4320.384766,4477.307617,4495.641113,4368.461426,4440.256348,0.000000,0.000000,5.000000,,,,0.000000,2.000000,2.000000,0.000000,2.000000,2.000000,2.000000,0.000000,2.000000,4.000000,4.000000,4.000000,4.000000,2.000000,4.000000,16.666666,,,,,,,,,,,,,,,,,8.000000,0.000000,0.571414,0.375793,-0.629822,0.368225,0.924429,-0.048834,-0.090831,-77.584900,56.684387,26.756960
1732083733.561908,1732083733.562995,33.000000,0.000000,4331.282227,4301.410156,4316.538574,4323.589844,4301.538574,4302.948730,4331.153809,4321.025879,4334.102539,4322.820313,4476.282227,4491.410156,4369.871582,4442.820313,0.000000,0.000000,5.000000,,,,0.000000,2.000000,2.000000,0.000000,2.000000,2.000000,2.000000,0.000000,2.000000,4.000000,4.000000,4.000000,4.000000,2.000000,4.000000,16.666666,,,,,,,,,,,,,,,,,,,,,,,,,,,,
1732083733.569716,1732083733.571003,34.000000,0.000000,4335.128418,4307.820313,4318.589844,4328.077148,4305.256348,4305.256348,4327.692383,4316.410156,4325.769043,4313.846191,4473.717773,4488.205078,4370.769043,4435.769043,0.000000,0.000000,5.000000,,,,0.000000,2.000000,2.000000,0.000000,2.000000,2.000000,2.000000,0.000000,2.000000,4.000000,4.000000,4.000000,4.000000,2.000000,4.000000,16.666666,,,,,,,,,,,,,,,,,,,,,,,,,,,,
1732083733.577525,1732083733.578811,35.000000,0.000000,4333.974121,4312.948730,4319.743652,4332.436035,4311.153809,4301.922852,4329.102539,4315.384766,4319.102539,4302.051270,4473.846191,4488.974121,4372.820313,4435.256348,0.000000,0.000000,5.000000,,,,0.000000,2.000000,2.000000,0.000000,2.000000,2.000000,2.000000,0.000000,2.000000,4.000000,4.000000,4.000000,4.000000,2.000000,4.000000,16.666666,,,,,,,,,,,,,,,,,,,,,,,,,,,,
1732083733.585333,1732083733.586719,36.000000,0.000000,4330.128418,4309.230957,4320.256348,4330.512695,4310.641113,4304.743652,4333.974121,4317.692383,4325.256348,4303.589844,4475.512695,4501.666504,4373.333496,4440.897461,0.000000,0.000000,5.000000,,,,0.000000,2.000000,2.000000,0.000000,2.000000,2.000000,2.000000,0.000000,2.000000,4.000000,4.000000,4.000000,4.000000,2.000000,4.000000,16.666666,,,,,,,,,,,,,,,,,9.000000,0.000000,0.561710,0.374573,-0.637085,0.371887,0.931266,-0.029789,-0.130875,-78.208771,55.929352,26.074804
1732083733.593141,1732083733.594527,37.000000,0.000000,4329.871582,4307.436035,4320.897461,4323.974121,4304.743652,4311.666504,4339.743652,4319.487305,4330.769043,4309.102539,4478.717773,4509.871582,4370.769043,4443.333496,0.000000,0.000000,5.000000,,,,0.000000,2.000000,2.000000,0.000000,2.000000,2.000000,2.000000,0.000000,2.000000,4.000000,4.000000,4.000000,4.000000,2.000000,4.000000,16.666666,,,,,,,,,,,,,,,,,,,,,,,,,,,,
1732083733.600949,1732083733.602136,38.000000,0.000000,4326.666504,4302.563965,4322.436035,4315.897461,4308.589844,4312.436035,4341.025879,4322.436035,4331.538574,4308.333496,4478.846191,4506.538574,4366.410156,4437.820313,0.000000,0.000000,5.000000,,,,0.000000,2.000000,2.000000,0.000000,2.000000,2.000000,2.000000,0.000000,2.000000,4.000000,4.000000,4.000000,4.000000,2.000000,4.000000,16.666666,,,,,,,,,,,,,,,,,,,,,,,,,,,,
1732083733.608758,1732083733.609944,39.000000,0.000000,4319.358887,4297.307617,4320.769043,4313.846191,4317.307617,4303.717773,4337.436035,4320.897461,4332.820313,4309.487305,4477.179688,4505.897461,4365.384766,4430.000000,0.000000,0.000000,5.000000,,,,0.000000,2.000000,2.000000,0.000000,2.000000,2.000000,2.000000,0.000000,2.000000,4.000000,4.000000,4.000000,4.000000,2.000000,4.000000,16.666666,,,,,,,,,,,,,,,,,,,,,,,,,,,,
1732083733.616566,1732083733.617652,40.000000,0.000000,4321.922852,4301.922852,4320.769043,4317.820313,4305.384766,4295.641113,4333.717773,4314.615234,4331.153809,4312.179688,4477.948730,4506.794922,4372.179688,4435.512695,0.000000,0.000000,5.000000,,,,0.000000,2.000000,2.000000,0.000000,2.000000,2.000000,2.000000,0.000000,2.000000,4.000000,4.000000,4.000000,4.000000,2.000000,4.000000,16.666666,,,,,,,,,,,,,,,,,10.000000,0.000000,0.558016,0.375793,-0.639038,0.372864,0.956660,-0.038091,-0.135759,-78.665771,55.317776,25.488924
1732083733.624374,1732083733.625460,41.000000,0.000000,4327.692383,4307.563965,4318.717773,4320.384766,4290.641113,4298.589844,4335.000000,4316.922852,4327.692383,4310.256348,4477.948730,4500.128418,4373.205078,4442.820313,0.000000,0.000000,5.000000,,,,0.000000,2.000000,2.000000,0.000000,2.000000,2.000000,2.000000,0.000000,2.000000,4.000000,4.000000,4.000000,4.000000,2.000000,4.000000,16.666666,,,,,,,,,,,,,,,,,,,,,,,,,,,,
1732083733.632182,1732083733.633069,42.000000,0.000000,4325.897461,4308.205078,4317.307617,4323.077148,4298.333496,4305.000000,4336.282227,4325.897461,4329.230957,4300.384766,4477.179688,4492.051270,4364.487305,4432.179688,0.000000,0.000000,5.000000,,,,0.000000,2.000000,2.000000,0.000000,2.000000,2.000000,2.000000,0.000000,2.000000,4.000000,4.000000,4.000000,4.000000,2.000000,4.000000,16.666666,,,,,,,,,,,,,,,,,,,,,,,,,,,,
1732083733.639991,1732083733.640877,43.000000,0.000000,4327.307617,4309.615234,4317.948730,4328.205078,4307.436035,4306.410156,4332.051270,4322.179688,4325.897461,4290.641113,4470.641113,4487.051270,4361.666504,4423.333496,0.000000,0.000000,5.000000,,,,0.000000,2.000000,2.000000,0.000000,2.000000,2.000000,2.000000,0.000000,2.000000,4.000000,4.000000,4.000000,4.000000,2.000000,4.000000,16.666666,,,,,,,,,,,,,,,,,,,,,,,,,,,,
1732083733.647799,1732083733.648785,44.000000,0.000000,4330.512695,4312.179688,4320.256348,4328.717773,4303.974121,4307.820313,4329.871582,4310.512695,4314.102539,4285.769043,4464.230957,4487.820313,4361.794922,4428.589844,0.000000,0.000000,5.000000,,,,0.000000,2.000000,2.000000,0.000000,2.000000,2.000000,2.000000,0.000000,2.000000,4.000000,4.000000,4.000000,4.000000,2.000000,4.000000,16.666666,,,,,,,,,,,,,,,,,11.000000,0.000000,0.556030,0.376892,-0.639587,0.373779,0.961543,-0.050787,-0.145037,-78.674271,54.589066,25.139362
1732083733.655607,1732083733.656593,45.000000,0.000000,4326.538574,4309.487305,4320.769043,4324.102539,4304.358887,4311.025879,4330.897461,4310.128418,4314.358887,4280.384766,4463.974121,4491.538574,4357.436035,4432.179688,0.000000,0.000000,5.000000,,,,0.000000,2.000000,2.000000,0.000000,2.000000,2.000000,2.000000,0.000000,2.000000,4.000000,4.000000,4.000000,4.000000,2.000000,4.000000,16.666666,,,,,,,,,,,,,,,,,,,,,,,,,,,,
1732083733.663416,1732083733.664601,46.000000,0.000000,4322.692383,4304.871582,4320.256348,4322.436035,4304.615234,4311.282227,4333.461426,4317.051270,4323.846191,4283.205078,4467.179688,4490.641113,4357.820313,4429.615234,0.000000,0.000000,5.000000,,,,0.000000,2.000000,2.000000,0.000000,2.000000,2.000000,2.000000,0.000000,2.000000,4.000000,4.000000,4.000000,4.000000,2.000000,4.000000,16.666666,,,,,,,,,,,,,,,,,,,,,,,,,,,,
1732083733.671224,1732083733.672410,47.000000,0.000000,4328.077148,4307.563965,4319.871582,4324.102539,4306.025879,4312.307617,4335.641113,4319.743652,4327.051270,4299.871582,4470.512695,4488.846191,4364.230957,4428.717773,0.000000,0.000000,5.000000,,,,0.000000,2.000000,2.000000,0.000000,2.000000,2.000000,2.000000,0.000000,2.000000,4.000000,4.000000,4.000000,4.000000,2.000000,4.000000,16.666666,,,,,,,,,,,,,,,,,,,,,,,,,,,,
1732083733.679032,1732083733.680318,48.000000,0.000000,4330.384766,4308.077148,4321.153809,4322.820313,4309.230957,4313.333496,4336.538574,4319.871582,4327.051270,4315.000000,4473.589844,4490.128418,4366.025879,4428.205078,0.000000,0.000000,5.000000,,,,0.000000,2.000000,2.000000,0.000000,2.000000,2.000000,2.000000,0.000000,2.000000,4.000000,4.000000,4.000000,4.000000,2.000000,4.000000,16.666666,,,,,,,,,,,,,,,,,12.000000,0.000000,0.552585,0.377563,-0.641174,0.375488,0.979612,-0.074716,-0.133805,-78.672829,53.970478,24.511217
1732083733.686840,1732083733.688126,49.000000,0.000000,4326.282227,4302.563965,4323.717773,4320.384766,4302.436035,4309.615234,4334.102539,4320.128418,4327.307617,4315.641113,4474.358887,4490.641113,4365.000000,4428.205078,0.000000,0.000000,5.000000,,,,0.000000,2.000000,2.000000,0.000000,2.000000,2.000000,2.000000,0.000000,2.000000,4.000000,4.000000,4.000000,4.000000,2.000000,4.000000,16.666666,,,,,,,,,,,,,,,,,,,,,,,,,,,,
1732083733.694649,1732083733.696134,50.000000,0.000000,4323.461426,4303.205078,4325.000000,4321.410156,4299.487305,4310.512695,4337.051270,4320.000000,4324.102539,4308.333496,4472.563965,4488.974121,4365.384766,4429.871582,0.000000,0.000000,5.000000,,,,0.000000,2.000000,2.000000,0.000000,2.000000,2.000000,2.000000,0.000000,2.000000,4.000000,4.000000,4.000000,4.000000,2.000000,4.000000,16.666666,,,,,,,,,,,,,,,,,,,,,,,,,,,,
1732083733.702457,1732083733.703942,51.000000,0.000000,4324.871582,4306.153809,4324.358887,4322.563965,4300.000000,4313.461426,4338.333496,4327.692383,4326.410156,4306.922852,4474.230957,4490.769043,4366.794922,4434.358887,0.000000,0.000000,5.000000,,,,0.000000,2.000000,2.000000,0.000000,2.000000,2.000000,2.000000,0.000000,2.000000,4.000000,4.000000,4.000000,4.000000,2.000000,4.000000,16.666666,,,,,,,,,,,,,,,,,,,,,,,,,,,,
1732083733.710265,1732083733.711650,52.000000,0.000000,4326.666504,4305.128418,4326.025879,4320.512695,4305.000000,4304.487305,4334.743652,4327.563965,4326.153809,4308.205078,4476.025879,4485.769043,4368.205078,4435.897461,0.000000,0.000000,5.000000,,,,0.000000,2.000000,2.000000,0.000000,2.000000,2.000000,2.000000,0.000000,2.000000,4.000000,4.000000,4.000000,4.000000,2.000000,4.000000,16.666666,,,,,,,,,,,,,,,,,13.000000,0.000000,0.545900,0.374023,-0.645935,0.380615,0.947870,-0.142596,-0.152362,-79.104988,53.301086,24.037418
1732083733.718073,1732083733.719459,53.000000,0.000000,4325.769043,4308.461426,4328.333496,4322.179688,4316.410156,4293.461426,4332.563965,4311.538574,4312.179688,4304.358887,4473.205078,4477.820313,4366.922852,4433.333496,0.000000,0.000000,5.000000,,,,0.000000,2.000000,2.000000,0.000000,2.000000,2.000000,2.000000,0.000000,2.000000,4.000000,4.000000,4.000000,4.000000,2.000000,4.000000,16.666666,,,,,,,,,,,,,,,,,,,,,,,,,,,,
1732083733.725882,1732083733.727467,54.000000,0.000000,4323.974121,4310.512695,4326.794922,4327.051270,4312.820313,4298.974121,4334.743652,4308.717773,4312.307617,4302.948730,4471.410156,4483.589844,4366.538574,4433.077148,0.000000,0.000000,5.000000,,,,0.000000,2.000000,2.000000,0.000000,2.000000,2.000000,2.000000,0.000000,2.000000,4.000000,4.000000,4.000000,4.000000,2.000000,4.000000,16.666666,,,,,,,,,,,,,,,,,,,,,,,,,,,,
1732083733.733690,1732083733.735275,55.000000,0.000000,4322.563965,4302.307617,4323.333496,4321.153809,4293.333496,4309.487305,4334.487305,4320.000000,4328.717773,4312.051270,4472.051270,4493.717773,4367.820313,4436.666504,0.000000,0.000000,5.000000,,,,0.000000,2.000000,2.000000,0.000000,2.000000,2.000000,2.000000,0.000000,2.000000,4.000000,4.000000,4.000000,4.000000,2.000000,4.000000,16.666666,,,,,,,,,,,,,,,,,,,,,,,,,,,,
1732083733.741498,1732083733.743183,56.000000,0.000000,4320.256348,4298.717773,4321.922852,4312.307617,4295.897461,4310.512695,4336.025879,4316.922852,4329.487305,4318.205078,4476.025879,4487.307617,4367.820313,4436.282227,0.000000,0.000000,5.000000,,,,0.000000,2.000000,2.000000,0.000000,2.000000,2.000000,2.000000,0.000000,2.000000,4.000000,4.000000,4.000000,4.000000,2.000000,4.000000,16.666666,,,,,,,,,,,,,,,,,14.000000,0.000000,0.543130,0.369019,-0.648865,0.384460,0.922964,-0.153339,-0.130875,-79.258377,52.797215,23.563643
1732083733.749307,1732083733.750991,57.000000,0.000000,4315.512695,4303.333496,4323.077148,4311.922852,4311.410156,4311.282227,4339.102539,4310.000000,4323.974121,4310.897461,4477.948730,4482.051270,4365.256348,4434.102539,0.000000,0.000000,5.000000,,,,0.000000,2.000000,2.000000,0.000000,2.000000,2.000000,2.000000,0.000000,2.000000,4.000000,4.000000,4.000000,4.000000,2.000000,4.000000,16.666666,,,,,,,,,,,,,,,,,,,,,,,,,,,,
1732083733.757115,1732083733.758999,58.000000,0.000000,4312.692383,4302.051270,4321.410156,4312.563965,4304.102539,4311.153809,4336.025879,4315.641113,4328.846191,4308.717773,4470.897461,4483.974121,4364.102539,4432.179688,0.000000,0.000000,5.000000,,,,0.000000,2.000000,2.000000,0.000000,2.000000,2.000000,2.000000,0.000000,2.000000,4.000000,4.000000,4.000000,4.000000,2.000000,4.000000,16.666666,,,,,,,,,,,,,,,,,,,,,,,,,,,,
1732083733.764923,1732083733.766807,59.000000,0.000000,4313.461426,4297.051270,4320.512695,4309.487305,4297.436035,4307.692383,4334.743652,4318.205078,4330.256348,4312.307617,4464.102539,4481.538574,4365.384766,4427.179688,0.000000,0.000000,5.000000,,,,0.000000,2.000000,2.000000,0.000000,2.000000,2.000000,2.000000,0.000000,2.000000,4.000000,4.000000,4.000000,4.000000,2.000000,4.000000,16.666666,,,,,,,,,,,,,,,,,,,,,,,,,,,,
1732083733.772731,1732083733.774715,60.000000,0.000000,4312.179688,4298.846191,4320.897461,4310.897461,4304.743652,4310.256348,4339.358887,4319.102539,4327.692383,4305.512695,4466.025879,4483.333496,4366.666504,4425.384766,0.000000,0.000000,5.000000,,,,0.000000,2.000000,2.000000,0.000000,2.000000,2.000000,2.000000,0.000000,2.000000,4.000000,4.000000,4.000000,4.000000,2.000000,4.000000,16.666666,,,,,,,,,,,,,,,,,15.000000,0.000000,0.542709,0.367371,-0.649536,0.385498,0.950311,-0.151386,-0.122574,-79.652618,52.044075,23.488216
1732083733.780540,1732083733.782524,61.000000,0.000000,4313.461426,4304.743652,4321.922852,4315.256348,4301.922852,4309.230957,4340.256348,4325.384766,4328.846191,4296.025879,4466.922852,4492.692383,4366.538574,4429.230957,0.000000,0.000000,5.000000,,,,0.000000,2.000000,2.000000,0.000000,2.000000,2.000000,2.000000,0.000000,2.000000,4.000000,4.000000,4.000000,4.000000,2.000000,4.000000,16.666666,,,,,,,,,,,,,,,,,,,,,,,,,,,,
1732083733.788348,1732083733.790232,62.000000,0.000000,4317.820313,4305.769043,4321.922852,4314.615234,4308.461426,4298.717773,4334.487305,4323.461426,4326.282227,4298.589844,4458.717773,4488.461426,4365.128418,4429.871582,0.000000,0.000000,5.000000,,,,0.000000,2.000000,2.000000,0.000000,2.000000,2.000000,2.000000,0.000000,2.000000,4.000000,4.000000,4.000000,4.000000,2.000000,4.000000,16.666666,,,,,,,,,,,,,,,,,,,,,,,,,,,,
1732083733.796156,1732083733.798040,63.000000,0.000000,4318.589844,4304.743652,4324.230957,4314.615234,4321.538574,4299.487305,4336.538574,4317.051270,4324.358887,4306.666504,4458.333496,4478.974121,4367.436035,4424.871582,0.000000,0.000000,5.000000,,,,0.000000,2.000000,2.000000,0.000000,2.000000,2.000000,2.000000,0.000000,2.000000,4.000000,4.000000,4.000000,4.000000,2.000000,4.000000,16.666666,,,,,,,,,,,,,,,,,,,,,,,,,,,,
1732083733.803965,1732083733.805948,64.000000,0.000000,4315.384766,4306.282227,4324.102539,4318.333496,4307.563965,4312.820313,4340.000000,4324.487305,4330.769043,4307.948730,4468.461426,4483.717773,4365.897461,4422.692383,0.000000,0.000000,5.000000,,,,0.000000,2.000000,2.000000,0.000000,2.000000,2.000000,2.000000,0.000000,2.000000,4.000000,4.000000,4.000000,4.000000,2.000000,4.000000,16.666666,,,,,,,,,,,,,,,,,16.000000,0.000000,0.542876,0.362183,-0.651001,0.387695,0.991332,-0.143084,-0.113783,-79.800285,51.427368,23.067123
1732083733.811773,1732083733.813757,65.000000,0.000000,4316.538574,4306.922852,4323.846191,4320.000000,4291.794922,4314.487305,4339.102539,4331.538574,4331.922852,4305.000000,4468.846191,4492.179688,4360.641113,4427.051270,1329.000000,0.000000,5.000000,,,,0.000000,2.000000,2.000000,0.000000,2.000000,2.000000,2.000000,0.000000,2.000000,4.000000,4.000000,4.000000,4.000000,2.000000,4.000000,16.666666,,,,,,,,,,,,,,,,,,,,,,,,,,,,
1732083733.819581,1732083733.821365,66.000000,0.000000,4321.794922,4307.179688,4326.666504,4322.307617,4307.948730,4310.512695,4336.025879,4322.307617,4324.230957,4302.563965,4461.922852,4492.307617,4362.051270,4430.641113,1242.000000,0.000000,5.000000,,,,0.000000,2.000000,2.000000,0.000000,2.000000,2.000000,2.000000,0.000000,2.000000,4.000000,4.000000,4.000000,4.000000,2.000000,4.000000,16.666666,,,,,,,,,,,,,,,,,,,,,,,,,,,,
1732083733.827389,1732083733.829173,67.000000,0.000000,4320.128418,4304.871582,4327.051270,4321.025879,4318.333496,4312.563965,4336.794922,4316.666504,4323.717773,4302.948730,4458.461426,4485.641113,4363.717773,4423.717773,1200.000000,0.000000,5.000000,,,,0.000000,2.000000,2.000000,0.000000,2.000000,2.000000,2.000000,0.000000,2.000000,4.000000,4.000000,4.000000,4.000000,2.000000,4.000000,16.666666,,,,,,,,,,,,,,,,,,,,,,,,,,,,
1732083733.835197,1732083733.836881,68.000000,0.000000,4316.666504,4298.846191,4324.615234,4311.922852,4306.153809,4311.922852,4335.769043,4325.000000,4327.436035,4307.436035,4460.512695,4482.179688,4362.948730,4415.128418,1215.000000,0.000000,5.000000,,,,0.000000,2.000000,2.000000,0.000000,2.000000,2.000000,2.000000,0.000000,2.000000,4.000000,4.000000,4.000000,4.000000,2.000000,4.000000,16.666666,,,,,,,,,,,,,,,,,17.000000,0.000000,0.543295,0.358337,-0.651978,0.389038,0.993285,-0.156757,-0.118178,-80.048233,50.857834,22.801037
1732083733.843006,1732083733.844690,69.000000,0.000000,4316.410156,4301.538574,4325.000000,4309.230957,4311.922852,4309.358887,4334.743652,4331.922852,4325.512695,4306.153809,4463.077148,4488.974121,4361.538574,4419.871582,1077.000000,0.000000,5.000000,,,,0.000000,2.000000,2.000000,0.000000,2.000000,2.000000,2.000000,0.000000,2.000000,4.000000,4.000000,4.000000,4.000000,2.000000,4.000000,16.666666,,,,,,,,,,,,,,,,,,,,,,,,,,,,
1732083733.850814,1732083733.852298,70.000000,0.000000,4316.025879,4309.487305,4327.307617,4316.922852,4322.820313,4307.692383,4335.769043,4326.282227,4322.179688,4302.051270,4461.794922,4495.128418,4359.615234,4430.000000,0.000000,0.000000,5.000000,,,,0.000000,2.000000,2.000000,0.000000,2.000000,2.000000,2.000000,0.000000,2.000000,4.000000,4.000000,4.000000,4.000000,2.000000,4.000000,16.666666,,,,,,,,,,,,,,,,,,,,,,,,,,,,
1732083733.858622,1732083733.860106,71.000000,0.000000,4315.000000,4305.128418,4325.512695,4318.333496,4310.512695,4309.358887,4337.307617,4318.205078,4322.436035,4303.589844,4460.641113,4489.358887,4360.512695,4427.179688,1169.000000,0.000000,5.000000,,,,0.000000,2.000000,2.000000,0.000000,2.000000,2.000000,2.000000,0.000000,2.000000,4.000000,4.000000,4.000000,4.000000,2.000000,4.000000,16.666666,,,,,,,,,,,,,,,,,,,,,,,,,,,,
1732083733.866430,1732083733.867815,72.000000,0.000000,4312.436035,4295.641113,4322.692383,4311.025879,4302.307617,4317.436035,4337.948730,4322.436035,4326.025879,4308.205078,4461.410156,4484.230957,4364.871582,4418.333496,1371.000000,0.000000,5.000000,,,,0.000000,2.000000,2.000000,0.000000,2.000000,2.000000,2.000000,0.000000,2.000000,4.000000,4.000000,4.000000,4.000000,2.000000,4.000000,16.666666,,,,,,,,,,,,,,,,,18.000000,0.000000,0.543269,0.357422,-0.652283,0.389404,0.993285,-0.156757,-0.118178,-80.039070,50.314846,22.533838
1732083733.874239,1732083733.875623,73.000000,0.000000,4310.384766,4295.512695,4320.897461,4308.589844,4308.974121,4317.436035,4338.589844,4331.153809,4332.820313,4311.410156,4463.461426,4490.384766,4365.769043,4420.128418,1523.000000,0.000000,5.000000,,,,0.000000,2.000000,2.000000,0.000000,2.000000,2.000000,2.000000,0.000000,2.000000,4.000000,4.000000,4.000000,4.000000,2.000000,4.000000,16.666666,,,,,,,,,,,,,,,,,,,,,,,,,,,,
1732083733.882047,1732083733.883231,74.000000,0.000000,4310.256348,4298.205078,4325.256348,4310.769043,4311.025879,4309.615234,4338.589844,4327.563965,4334.487305,4311.922852,4466.282227,4494.743652,4364.358887,4426.922852,1389.000000,0.000000,5.000000,,,,0.000000,2.000000,2.000000,0.000000,2.000000,2.000000,2.000000,0.000000,2.000000,4.000000,4.000000,4.000000,4.000000,2.000000,4.000000,16.666666,,,,,,,,,,,,,,,,,,,,,,,,,,,,
1732083733.889855,1732083733.891039,75.000000,0.000000,4310.384766,4300.641113,4326.025879,4311.025879,4307.563965,4315.256348,4337.948730,4325.512695,4330.000000,4310.897461,4468.205078,4486.794922,4367.051270,4425.128418,1519.000000,0.000000,5.000000,,,,0.000000,2.000000,2.000000,0.000000,2.000000,2.000000,2.000000,0.000000,2.000000,4.000000,4.000000,4.000000,4.000000,2.000000,4.000000,16.666666,,,,,,,,,,,,,,,,,,,,,,,,,,,,
1732083733.897663,1732083733.898748,76.000000,0.000000,4310.512695,4303.461426,4321.282227,4313.589844,4312.820313,4321.025879,4337.692383,4332.051270,4328.717773,4307.692383,4467.436035,4480.512695,4365.897461,4421.538574,1756.000000,0.000000,5.000000,,,,0.000000,2.000000,2.000000,0.000000,2.000000,2.000000,2.000000,0.000000,2.000000,4.000000,4.000000,4.000000,4.000000,2.000000,4.000000,16.666666,,,,,,,,,,,,,,,,,19.000000,0.000000,0.543406,0.356567,-0.652527,0.389587,0.987425,-0.125992,-0.115248,-80.286644,49.873360,22.519075
1732083733.905472,1732083733.906556,77.000000,0.000000,4313.461426,4303.974121,4321.153809,4316.153809,4315.256348,4311.794922,4336.794922,4326.794922,4327.563965,4309.487305,4462.948730,4483.461426,4365.128418,4422.307617,1544.000000,0.000000,5.000000,,,,0.000000,2.000000,2.000000,0.000000,2.000000,2.000000,2.000000,0.000000,2.000000,4.000000,4.000000,4.000000,4.000000,2.000000,4.000000,16.666666,,,,,,,,,,,,,,,,,,,,,,,,,,,,
1732083733.913280,1732083733.914164,78.000000,0.000000,4312.563965,4302.563965,4326.538574,4313.846191,4306.025879,4307.179688,4339.487305,4317.307617,4327.692383,4312.692383,4462.436035,4486.538574,4367.436035,4420.897461,1389.000000,0.000000,5.000000,,,,0.000000,2.000000,2.000000,0.000000,2.000000,2.000000,2.000000,0.000000,2.000000,4.000000,4.000000,4.000000,4.000000,2.000000,4.000000,16.666666,1.000000,16.666666,2.000000,2.000000,0.000000,2.000000,2.000000,2.000000,0.000000,2.000000,4.000000,4.000000,4.000000,4.000000,2.000000,4.000000,,,,,,,,,,,,
1732083733.921088,1732083733.921973,79.000000,0.000000,4310.512695,4306.153809,4326.666504,4316.025879,4311.025879,4311.666504,4338.717773,4318.589844,4329.230957,4310.769043,4468.846191,4483.717773,4367.692383,4422.436035,1519.000000,0.000000,5.000000,,,,0.000000,2.000000,2.000000,0.000000,2.000000,2.000000,2.000000,0.000000,2.000000,4.000000,4.000000,4.000000,4.000000,2.000000,4.000000,16.666666,,,,,,,,,,,,,,,,,,,,,,,,,,,,
1732083733.928897,1732083733.929681,80.000000,0.000000,4312.051270,4307.307617,4323.846191,4319.358887,4322.436035,4309.102539,4336.282227,4322.436035,4328.974121,4308.846191,4470.769043,4481.282227,4367.051270,4425.256348,1756.000000,0.000000,5.000000,,,,0.000000,2.000000,2.000000,0.000000,2.000000,2.000000,2.000000,0.000000,2.000000,4.000000,4.000000,4.000000,4.000000,2.000000,4.000000,16.666666,,,,,,,,,,,,,,,,,20.000000,0.000000,0.543940,0.354248,-0.653381,0.389526,0.966915,-0.129410,-0.109877,-80.468849,49.467419,22.447119
1732083733.936705,1732083733.937489,81.000000,0.000000,4311.538574,4302.692383,4323.333496,4313.974121,4310.384766,4307.307617,4336.538574,4325.256348,4330.641113,4311.025879,4461.794922,4482.948730,4365.128418,4421.538574,1544.000000,0.000000,5.000000,,,,0.000000,2.000000,2.000000,0.000000,2.000000,2.000000,2.000000,0.000000,2.000000,4.000000,4.000000,4.000000,4.000000,2.000000,4.000000,16.666666,,,,,,,,,,,,,,,,,,,,,,,,,,,,
1732083733.944513,1732083733.945097,82.000000,0.000000,4309.615234,4302.307617,4325.769043,4308.974121,4293.717773,4314.358887,4340.256348,4328.974121,4328.461426,4306.410156,4457.436035,4481.794922,4365.384766,4417.692383,1389.000000,0.000000,5.000000,,,,0.000000,2.000000,2.000000,0.000000,2.000000,2.000000,2.000000,0.000000,2.000000,4.000000,4.000000,4.000000,4.000000,2.000000,4.000000,16.666666,,,,,,,,,,,,,,,,,,,,,,,,,,,,
1732083733.952321,1732083733.952906,83.000000,0.000000,4310.384766,4309.487305,4326.922852,4314.487305,4300.384766,4316.666504,4338.846191,4326.153809,4322.948730,4299.871582,4467.307617,4480.897461,4368.333496,4422.051270,1519.000000,0.000000,5.000000,,,,0.000000,2.000000,2.000000,0.000000,2.000000,2.000000,2.000000,0.000000,2.000000,4.000000,4.000000,4.000000,4.000000,2.000000,4.000000,16.666666,,,,,,,,,,,,,,,,,,,,,,,,,,,,
1732083733.960130,1732083733.960614,84.000000,0.000000,4312.563965,4313.846191,4323.461426,4320.512695,4308.077148,4311.538574,4337.051270,4319.230957,4323.717773,4306.025879,4471.282227,4484.615234,4369.358887,4423.717773,1756.000000,0.000000,5.000000,,,,0.000000,2.000000,2.000000,0.000000,2.000000,2.000000,2.000000,0.000000,2.000000,4.000000,4.000000,4.000000,4.000000,2.000000,4.000000,16.666666,,,,,,,,,,,,,,,,,21.000000,0.000000,0.544045,0.354065,-0.653320,0.389648,0.966915,-0.129410,-0.109877,-80.701431,49.328609,22.232166
1732083733.967938,1732083733.968422,85.000000,0.000000,4316.282227,4311.666504,4322.179688,4322.051270,4303.589844,4309.871582,4337.563965,4321.666504,4327.179688,4314.615234,4464.743652,4487.820313,4368.077148,4419.871582,1544.000000,0.000000,5.000000,,,,0.000000,2.000000,2.000000,0.000000,2.000000,2.000000,2.000000,0.000000,2.000000,4.000000,4.000000,4.000000,4.000000,2.000000,4.000000,16.666666,,,,,,,,,,,,,,,,,,,,,,,,,,,,
1732083733.975746,1732083733.976031,86.000000,0.000000,4317.563965,4311.410156,4325.641113,4319.743652,4304.102539,4312.692383,4338.974121,4325.769043,4325.512695,4311.153809,4462.179688,4483.846191,4365.641113,4417.051270,1389.000000,0.000000,5.000000,,,,0.000000,2.000000,2.000000,0.000000,2.000000,2.000000,2.000000,0.000000,2.000000,4.000000,4.000000,4.000000,4.000000,2.000000,4.000000,16.666666,,,,,,,,,,,,,,,,,,,,,,,,,,,,
1732083733.983554,1732083733.983839,87.000000,0.000000,4312.692383,4308.717773,4324.358887,4313.717773,4301.153809,4312.820313,4339.102539,4326.410156,4325.769043,4309.102539,4463.077148,4481.153809,4365.256348,4415.769043,1519.000000,0.000000,5.000000,,,,0.000000,2.000000,2.000000,0.000000,2.000000,2.000000,2.000000,0.000000,2.000000,4.000000,4.000000,4.000000,4.000000,2.000000,4.000000,16.666666,,,,,,,,,,,,,,,,,,,,,,,,,,,,
1732083733.991363,1732083733.991747,88.000000,0.000000,4307.307617,4303.461426,4320.641113,4311.025879,4303.717773,4309.615234,4337.948730,4328.205078,4327.179688,4310.641113,4462.179688,4481.153809,4366.025879,4417.179688,1756.000000,0.000000,5.000000,,,,0.000000,2.000000,2.000000,0.000000,2.000000,2.000000,2.000000,0.000000,2.000000,4.000000,4.000000,4.000000,4.000000,2.000000,4.000000,16.666666,,,,,,,,,,,,,,,,,22.000000,0.000000,0.544934,0.352966,-0.653137,0.389709,0.974728,-0.117690,-0.112318,-80.821495,49.076176,21.998055
1732083733.999171,1732083733.999555,89.000000,0.000000,4308.077148,4303.461426,4321.794922,4311.153809,4312.179688,4307.179688,4336.410156,4326.794922,4323.333496,4304.615234,4461.538574,4478.717773,4365.128418,4415.128418,1544.000000,0.000000,5.000000,,,,0.000000,2.000000,2.000000,0.000000,2.000000,2.000000,2.000000,0.000000,2.000000,4.000000,4.000000,4.000000,4.000000,2.000000,4.000000,16.666666,,,,,,,,,,,,,,,,,,,,,,,,,,,,
1732083734.006979,1732083734.007164,90.000000,0.000000,4309.615234,4303.974121,4325.256348,4311.538574,4297.948730,4307.436035,4335.384766,4325.897461,4322.692383,4301.282227,4463.333496,4480.256348,4360.641113,4412.820313,1389.000000,0.000000,5.000000,,,,0.000000,2.000000,2.000000,0.000000,2.000000,2.000000,2.000000,0.000000,2.000000,4.000000,4.000000,4.000000,4.000000,2.000000,4.000000,16.666666,,,,,,,,,,,,,,,,,,,,,,,,,,,,
1732083734.014788,1732083734.014972,91.000000,0.000000,4307.820313,4300.256348,4326.794922,4311.538574,4287.436035,4312.051270,4336.025879,4329.871582,4328.077148,4307.692383,4464.230957,4486.025879,4361.666504,4413.846191,1519.000000,0.000000,5.000000,,,,0.000000,2.000000,2.000000,0.000000,2.000000,2.000000,2.000000,0.000000,2.000000,4.000000,4.000000,4.000000,4.000000,2.000000,4.000000,16.666666,,,,,,,,,,,,,,,,,,,,,,,,,,,,
1732083734.022596,1732083734.022680,92.000000,0.000000,4306.922852,4300.384766,4326.538574,4309.743652,4299.358887,4313.974121,4338.717773,4329.230957,4329.871582,4308.461426,4463.077148,4484.358887,4364.230957,4414.615234,1756.000000,0.000000,5.000000,,,,0.000000,2.000000,2.000000,0.000000,2.000000,2.000000,2.000000,0.000000,2.000000,4.000000,4.000000,4.000000,4.000000,2.000000,4.000000,16.666666,,,,,,,,,,,,,,,,,23.000000,0.000000,0.546404,0.352051,-0.651855,0.390625,0.968868,-0.117690,-0.101575,-81.028748,48.820034,22.056757
1732083734.030404,1732083734.030488,93.000000,0.000000,4311.666504,4308.205078,4326.153809,4312.948730,4304.743652,4311.410156,4339.871582,4320.897461,4322.820313,4300.897461,4462.563965,4480.000000,4363.974121,4414.871582,1544.000000,0.000000,5.000000,,,,0.000000,2.000000,2.000000,0.000000,2.000000,2.000000,2.000000,0.000000,2.000000,4.000000,4.000000,4.000000,4.000000,2.000000,4.000000,16.666666,,,,,,,,,,,,,,,,,,,,,,,,,,,,
1732083734.038212,1732083734.038496,94.000000,0.000000,4312.820313,4309.358887,4325.000000,4317.051270,4297.436035,4311.666504,4334.487305,4317.948730,4317.307617,4300.000000,4464.487305,4484.487305,4364.102539,4414.358887,1389.000000,0.000000,5.000000,,,,0.000000,2.000000,2.000000,0.000000,2.000000,2.000000,2.000000,0.000000,2.000000,4.000000,4.000000,4.000000,4.000000,2.000000,4.000000,16.666666,,,,,,,,,,,,,,,,,,,,,,,,,,,,
1732083734.046021,1732083734.046305,95.000000,0.000000,4302.563965,4300.384766,4324.230957,4309.102539,4296.153809,4316.025879,4334.615234,4323.077148,4323.717773,4307.051270,4464.102539,4487.436035,4362.692383,4409.743652,1519.000000,0.000000,5.000000,,,,0.000000,2.000000,2.000000,0.000000,2.000000,2.000000,2.000000,0.000000,2.000000,4.000000,4.000000,4.000000,4.000000,2.000000,4.000000,16.666666,,,,,,,,,,,,,,,,,,,,,,,,,,,,
1732083734.053829,1732083734.054013,96.000000,0.000000,4294.871582,4294.743652,4324.358887,4300.256348,4299.871582,4320.641113,4339.871582,4332.692383,4335.769043,4309.487305,4462.820313,4485.256348,4361.410156,4407.436035,1756.000000,0.000000,5.000000,,,,0.000000,2.000000,2.000000,0.000000,2.000000,2.000000,2.000000,0.000000,2.000000,4.000000,4.000000,4.000000,4.000000,2.000000,4.000000,16.666666,,,,,,,,,,,,,,,,,24.000000,0.000000,0.547704,0.351135,-0.650818,0.391357,0.981565,-0.132829,-0.090343,-81.214951,48.605896,22.097641
1732083734.061637,1732083734.061821,97.000000,0.000000,4300.769043,4296.153809,4324.871582,4305.256348,4303.589844,4318.205078,4342.948730,4337.820313,4335.641113,4305.000000,4462.820313,4482.563965,4363.333496,4409.230957,1544.000000,0.000000,5.000000,,,,0.000000,2.000000,2.000000,0.000000,2.000000,2.000000,2.000000,0.000000,2.000000,4.000000,4.000000,4.000000,4.000000,2.000000,4.000000,16.666666,,,,,,,,,,,,,,,,,,,,,,,,,,,,
1732083734.069445,1732083734.069829,98.000000,0.000000,4305.641113,4298.974121,4323.974121,4312.051270,4302.820313,4313.717773,4339.743652,4328.974121,4327.179688,4303.846191,4460.897461,4480.512695,4362.563965,4407.563965,1389.000000,0.000000,5.000000,,,,0.000000,2.000000,2.000000,0.000000,2.000000,2.000000,2.000000,0.000000,2.000000,4.000000,4.000000,4.000000,4.000000,2.000000,4.000000,16.666666,,,,,,,,,,,,,,,,,,,,,,,,,,,,
1732083734.077254,1732083734.077637,99.000000,0.000000,4300.000000,4297.051270,4322.820313,4307.692383,4302.692383,4314.743652,4337.820313,4323.461426,4324.102539,4307.563965,4461.410156,4480.769043,4359.487305,4407.179688,1519.000000,0.000000,5.000000,,,,0.000000,2.000000,2.000000,0.000000,2.000000,2.000000,2.000000,0.000000,2.000000,4.000000,4.000000,4.000000,4.000000,2.000000,4.000000,16.666666,,,,,,,,,,,,,,,,,,,,,,,,,,,,
1732083734.085062,1732083734.085545,100.000000,0.000000,4298.461426,4295.897461,4324.615234,4303.974121,4311.538574,4317.436035,4340.000000,4331.794922,4327.179688,4308.205078,4465.641113,4484.487305,4362.051270,4411.922852,1756.000000,0.000000,5.000000,,,,0.000000,2.000000,2.000000,0.000000,2.000000,2.000000,2.000000,0.000000,2.000000,4.000000,4.000000,4.000000,4.000000,2.000000,4.000000,16.666666,,,,,,,,,,,,,,,,,25.000000,0.000000,0.547704,0.351135,-0.650818,0.391357,0.962031,-0.124039,-0.080088,-81.500778,48.492443,22.265755
1732083734.092870,1732083734.093354,101.000000,0.000000,4301.282227,4298.205078,4324.487305,4308.846191,4308.589844,4323.846191,4348.717773,4341.538574,4333.077148,4307.820313,4463.077148,4486.538574,4359.871582,4406.794922,1544.000000,0.000000,5.000000,,,,0.000000,2.000000,2.000000,0.000000,2.000000,2.000000,2.000000,0.000000,2.000000,4.000000,4.000000,4.000000,4.000000,2.000000,4.000000,16.666666,,,,,,,,,,,,,,,,,,,,,,,,,,,,
1732083734.100679,1732083734.101362,102.000000,0.000000,4299.615234,4298.589844,4322.948730,4313.589844,4295.641113,4327.179688,4348.717773,4342.051270,4336.153809,4310.256348,4461.025879,4486.282227,4355.128418,4400.000000,1389.000000,0.000000,5.000000,,,,0.000000,2.000000,2.000000,0.000000,2.000000,2.000000,2.000000,0.000000,2.000000,4.000000,4.000000,4.000000,4.000000,2.000000,4.000000,16.666666,,,,,,,,,,,,,,,,,,,,,,,,,,,,
1732083734.108487,1732083734.109170,103.000000,0.000000,4298.974121,4296.794922,4325.512695,4311.538574,4294.743652,4319.358887,4341.666504,4338.077148,4336.794922,4310.897461,4468.333496,4485.897461,4362.436035,4407.307617,1519.000000,0.000000,5.000000,,,,0.000000,2.000000,2.000000,0.000000,2.000000,2.000000,2.000000,0.000000,2.000000,4.000000,4.000000,4.000000,4.000000,2.000000,4.000000,16.666666,,,,,,,,,,,,,,,,,,,,,,,,,,,,
1732083734.116295,1732083734.116878,104.000000,0.000000,4299.871582,4296.282227,4325.769043,4307.948730,4299.487305,4314.230957,4342.692383,4340.128418,4339.102539,4308.077148,4473.717773,4483.333496,4368.846191,4414.743652,1756.000000,0.000000,5.000000,,,,0.000000,2.000000,2.000000,0.000000,2.000000,2.000000,2.000000,0.000000,2.000000,4.000000,4.000000,4.000000,4.000000,2.000000,4.000000,16.666666,,,,,,,,,,,,,,,,,26.000000,0.000000,0.548606,0.350403,-0.650269,0.391663,0.968380,-0.114760,-0.095226,-81.267296,48.317211,22.260262
1732083734.124103,1732083734.124686,105.000000,0.000000,4297.692383,4297.179688,4321.794922,4309.102539,4300.000000,4320.384766,4344.743652,4337.307617,4337.051270,4312.307617,4470.384766,4481.025879,4365.128418,4411.922852,1544.000000,0.000000,5.000000,,,,0.000000,2.000000,2.000000,0.000000,2.000000,2.000000,2.000000,0.000000,2.000000,4.000000,4.000000,4.000000,4.000000,2.000000,4.000000,16.666666,,,,,,,,,,,,,,,,,,,,,,,,,,,,
1732083734.131911,1732083734.132694,106.000000,0.000000,4297.051270,4296.282227,4320.897461,4311.410156,4303.205078,4321.538574,4342.179688,4327.948730,4327.692383,4314.230957,4464.743652,4481.922852,4362.820313,4410.897461,1389.000000,0.000000,5.000000,,,,0.000000,2.000000,2.000000,0.000000,2.000000,2.000000,2.000000,0.000000,2.000000,4.000000,4.000000,4.000000,4.000000,2.000000,4.000000,16.666666,,,,,,,,,,,,,,,,,,,,,,,,,,,,
1732083734.139720,1732083734.140503,107.000000,0.000000,4299.358887,4296.153809,4325.256348,4312.179688,4304.487305,4317.436035,4344.358887,4331.153809,4326.410156,4305.000000,4461.794922,4484.358887,4364.358887,4412.436035,1519.000000,0.000000,5.000000,,,,0.000000,2.000000,2.000000,0.000000,2.000000,2.000000,2.000000,0.000000,2.000000,4.000000,4.000000,4.000000,4.000000,2.000000,4.000000,16.666666,,,,,,,,,,,,,,,,,,,,,,,,,,,,
1732083734.147528,1732083734.148411,108.000000,0.000000,4301.025879,4296.538574,4326.538574,4312.307617,4300.641113,4320.256348,4346.666504,4336.410156,4329.230957,4302.692383,4462.051270,4480.384766,4363.589844,4407.307617,1756.000000,0.000000,5.000000,,,,0.000000,2.000000,2.000000,0.000000,2.000000,2.000000,2.000000,0.000000,2.000000,4.000000,4.000000,4.000000,4.000000,2.000000,4.000000,16.666666,,,,,,,,,,,,,,,,,27.000000,0.000000,0.550797,0.348816,-0.649048,0.392029,0.976193,-0.131364,-0.078623,-81.323174,48.213608,22.594145
1732083734.155336,1732083734.156219,109.000000,0.000000,4303.589844,4294.102539,4325.641113,4308.589844,4309.871582,4319.102539,4341.538574,4328.589844,4323.461426,4312.563965,4460.384766,4480.512695,4362.820313,4405.769043,1544.000000,0.000000,5.000000,,,,0.000000,2.000000,2.000000,0.000000,2.000000,2.000000,2.000000,0.000000,2.000000,4.000000,4.000000,4.000000,4.000000,2.000000,4.000000,16.666666,,,,,,,,,,,,,,,,,,,,,,,,,,,,
1732083734.163144,1732083734.164227,110.000000,0.000000,4301.666504,4293.205078,4325.000000,4305.512695,4314.871582,4314.743652,4342.436035,4328.974121,4326.922852,4316.153809,4461.153809,4491.282227,4365.128418,4412.563965,1389.000000,0.000000,5.000000,,,,0.000000,2.000000,2.000000,0.000000,2.000000,2.000000,2.000000,0.000000,2.000000,4.000000,4.000000,4.000000,4.000000,2.000000,4.000000,16.666666,,,,,,,,,,,,,,,,,,,,,,,,,,,,
1732083734.170953,1732083734.172035,111.000000,0.000000,4296.794922,4295.128418,4323.846191,4307.820313,4299.871582,4317.307617,4344.871582,4335.512695,4332.179688,4312.179688,4464.230957,4491.282227,4364.358887,4413.846191,1519.000000,0.000000,5.000000,,,,0.000000,2.000000,2.000000,0.000000,2.000000,2.000000,2.000000,0.000000,2.000000,4.000000,4.000000,4.000000,4.000000,2.000000,4.000000,16.666666,,,,,,,,,,,,,,,,,,,,,,,,,,,,
1732083734.178761,1732083734.179943,112.000000,0.000000,4296.282227,4295.769043,4324.230957,4309.871582,4293.717773,4322.948730,4343.589844,4330.384766,4322.436035,4309.615234,4463.974121,4480.128418,4361.794922,4407.820313,1756.000000,0.000000,5.000000,,,,0.000000,2.000000,2.000000,0.000000,2.000000,2.000000,2.000000,0.000000,2.000000,4.000000,4.000000,4.000000,4.000000,2.000000,4.000000,16.666666,,,,,,,,,,,,,,,,,28.000000,0.000000,0.551373,0.348450,-0.648682,0.392151,0.983518,-0.129899,-0.080088,-81.103439,48.291355,22.651258
1732083734.186569,1732083734.187751,113.000000,0.000000,4296.282227,4294.102539,4322.563965,4308.974121,4302.179688,4324.230957,4342.436035,4332.179688,4323.205078,4308.589844,4466.538574,4482.563965,4361.538574,4404.230957,1544.000000,0.000000,5.000000,,,,0.000000,2.000000,2.000000,0.000000,2.000000,2.000000,2.000000,0.000000,2.000000,4.000000,4.000000,4.000000,4.000000,2.000000,4.000000,16.666666,,,,,,,,,,,,,,,,,,,,,,,,,,,,
1732083734.194378,1732083734.195759,114.000000,0.000000,4292.563965,4291.666504,4322.051270,4308.333496,4308.333496,4319.487305,4344.615234,4343.077148,4332.307617,4308.846191,4470.641113,4487.948730,4361.666504,4404.102539,1389.000000,0.000000,5.000000,,,,0.000000,2.000000,2.000000,0.000000,2.000000,2.000000,2.000000,0.000000,2.000000,4.000000,4.000000,4.000000,4.000000,2.000000,4.000000,16.666666,,,,,,,,,,,,,,,,,,,,,,,,,,,,
1732083734.202186,1732083734.203568,115.000000,0.000000,4292.179688,4292.179688,4324.487305,4304.615234,4311.153809,4313.461426,4342.692383,4339.743652,4328.974121,4311.922852,4469.615234,4481.666504,4360.769043,4404.615234,1519.000000,0.000000,5.000000,,,,0.000000,2.000000,2.000000,0.000000,2.000000,2.000000,2.000000,0.000000,2.000000,4.000000,4.000000,4.000000,4.000000,2.000000,4.000000,16.666666,,,,,,,,,,,,,,,,,,,,,,,,,,,,
1732083734.209994,1732083734.211476,116.000000,0.000000,4296.153809,4294.615234,4323.205078,4302.179688,4304.487305,4313.589844,4344.102539,4334.743652,4330.128418,4316.025879,4472.307617,4480.769043,4361.025879,4406.666504,1756.000000,0.000000,5.000000,,,,0.000000,2.000000,2.000000,0.000000,2.000000,2.000000,2.000000,0.000000,2.000000,4.000000,4.000000,4.000000,4.000000,2.000000,4.000000,16.666666,,,,,,,,,,,,,,,,,29.000000,0.000000,0.551373,0.348450,-0.648682,0.392151,0.970822,-0.116713,-0.070809,-80.925453,48.204330,22.622519
1732083734.217802,1732083734.219284,117.000000,0.000000,4297.563965,4295.769043,4319.871582,4307.820313,4292.051270,4320.000000,4348.589844,4338.205078,4338.333496,4319.487305,4477.051270,4487.307617,4364.102539,4407.948730,1544.000000,0.000000,5.000000,,,,0.000000,2.000000,2.000000,0.000000,2.000000,2.000000,2.000000,0.000000,2.000000,4.000000,4.000000,4.000000,4.000000,2.000000,4.000000,16.666666,,,,,,,,,,,,,,,,,,,,,,,,,,,,
1732083734.225611,1732083734.227292,118.000000,0.000000,4297.948730,4296.922852,4323.461426,4312.307617,4299.871582,4320.512695,4347.436035,4337.051270,4331.666504,4315.769043,4470.128418,4485.128418,4363.205078,4404.743652,1389.000000,0.000000,5.000000,,,,0.000000,2.000000,2.000000,0.000000,2.000000,2.000000,2.000000,0.000000,2.000000,4.000000,4.000000,4.000000,4.000000,2.000000,4.000000,16.666666,,,,,,,,,,,,,,,,,,,,,,,,,,,,
1732083734.233419,1732083734.235100,119.000000,0.000000,4297.179688,4298.461426,4326.666504,4311.282227,4307.820313,4318.205078,4343.461426,4336.153809,4326.410156,4311.410156,4465.128418,4482.307617,4357.436035,4405.128418,1519.000000,0.000000,5.000000,,,,0.000000,2.000000,2.000000,0.000000,2.000000,2.000000,2.000000,0.000000,2.000000,4.000000,4.000000,4.000000,4.000000,2.000000,4.000000,16.666666,,,,,,,,,,,,,,,,,,,,,,,,,,,,
1732083734.241227,1732083734.242808,120.000000,0.000000,4295.897461,4298.461426,4325.128418,4312.563965,4299.743652,4319.230957,4344.871582,4337.307617,4331.410156,4311.666504,4467.436035,4488.846191,4357.179688,4408.846191,1756.000000,0.000000,5.000000,,,,0.000000,2.000000,2.000000,0.000000,2.000000,2.000000,2.000000,0.000000,2.000000,4.000000,4.000000,4.000000,4.000000,2.000000,4.000000,16.666666,,,,,,,,,,,,,,,,,30.000000,0.000000,0.552383,0.348145,-0.647949,0.392212,0.979123,-0.121109,-0.081553,-80.819618,48.252174,22.680906
1732083734.249035,1732083734.250617,121.000000,0.000000,4295.384766,4297.051270,4324.615234,4312.948730,4307.307617,4313.974121,4343.974121,4334.102539,4328.846191,4310.256348,4463.077148,4496.538574,4358.333496,4408.717773,1544.000000,0.000000,5.000000,,,,0.000000,2.000000,2.000000,0.000000,2.000000,2.000000,2.000000,0.000000,2.000000,4.000000,4.000000,4.000000,4.000000,2.000000,4.000000,16.666666,,,,,,,,,,,,,,,,,,,,,,,,,,,,
1732083734.256844,1732083734.258225,122.000000,0.000000,4296.153809,4296.538574,4325.000000,4310.000000,4311.538574,4308.717773,4339.358887,4337.307617,4326.410156,4310.256348,4459.358887,4499.358887,4356.153809,4405.897461,1389.000000,0.000000,5.000000,,,,0.000000,2.000000,2.000000,0.000000,2.000000,2.000000,2.000000,0.000000,2.000000,4.000000,4.000000,4.000000,4.000000,2.000000,4.000000,16.666666,,,,,,,,,,,,,,,,,,,,,,,,,,,,
1732083734.264652,1732083734.266033,123.000000,0.000000,4296.153809,4296.282227,4321.922852,4309.743652,4294.743652,4315.128418,4343.077148,4344.358887,4331.025879,4313.077148,4462.307617,4499.102539,4356.794922,4401.922852,1519.000000,0.000000,5.000000,,,,0.000000,2.000000,2.000000,0.000000,2.000000,2.000000,2.000000,0.000000,2.000000,4.000000,4.000000,4.000000,4.000000,2.000000,4.000000,16.666666,,,,,,,,,,,,,,,,,,,,,,,,,,,,
1732083734.272460,1732083734.273742,124.000000,0.000000,4295.384766,4296.025879,4319.871582,4312.563965,4290.256348,4318.205078,4347.820313,4335.000000,4327.307617,4311.282227,4462.563965,4496.666504,4358.461426,4398.205078,1756.000000,0.000000,5.000000,,,,0.000000,2.000000,2.000000,0.000000,2.000000,2.000000,2.000000,0.000000,2.000000,4.000000,4.000000,4.000000,4.000000,2.000000,4.000000,16.666666,,,,,,,,,,,,,,,,,31.000000,0.000000,0.553141,0.347717,-0.647827,0.391724,0.978147,-0.119644,-0.083018,-80.635559,48.190929,22.739868
1732083734.280269,1732083734.281550,125.000000,0.000000,4295.000000,4296.410156,4322.948730,4312.820313,4299.102539,4310.897461,4345.512695,4326.282227,4316.538574,4307.820313,4460.384766,4494.871582,4353.589844,4398.077148,1544.000000,0.000000,5.000000,,,,0.000000,2.000000,2.000000,0.000000,2.000000,2.000000,2.000000,0.000000,2.000000,4.000000,4.000000,4.000000,4.000000,2.000000,4.000000,16.666666,,,,,,,,,,,,,,,,,,,,,,,,,,,,
1732083734.288077,1732083734.289158,126.000000,0.000000,4294.230957,4296.153809,4325.897461,4311.666504,4303.589844,4310.128418,4344.743652,4336.025879,4317.692383,4302.948730,4463.461426,4498.077148,4351.538574,4401.153809,1389.000000,0.000000,5.000000,,,,0.000000,2.000000,2.000000,0.000000,2.000000,2.000000,2.000000,0.000000,2.000000,4.000000,4.000000,4.000000,4.000000,2.000000,4.000000,16.666666,,,,,,,,,,,,,,,,,,,,,,,,,,,,
1732083734.295885,1732083734.296966,127.000000,0.000000,4293.205078,4296.794922,4323.589844,4313.205078,4305.128418,4313.846191,4348.717773,4340.769043,4326.538574,4301.153809,4463.589844,4495.641113,4355.128418,4401.538574,5.000000,0.000000,5.000000,,,,0.000000,2.000000,2.000000,0.000000,2.000000,2.000000,2.000000,0.000000,2.000000,4.000000,4.000000,4.000000,4.000000,2.000000,4.000000,16.666666,,,,,,,,,,,,,,,,,,,,,,,,,,,,
1732083734.303693,1732083734.304675,0.000000,0.000000,4293.589844,4295.641113,4320.256348,4312.692383,4301.410156,4312.051270,4345.641113,4336.410156,4328.461426,4309.102539,4460.384766,4491.922852,4354.743652,4401.025879,0.000000,0.000000,5.000000,,,,0.000000,2.000000,2.000000,0.000000,2.000000,2.000000,2.000000,0.000000,2.000000,4.000000,4.000000,4.000000,4.000000,2.000000,4.000000,16.666666,,,,,,,,,,,,,,,,,0.000000,0.000000,0.553294,0.347656,-0.647766,0.391663,0.975217,-0.127945,-0.080576,-80.483131,47.964653,22.757626
1732083734.311502,1732083734.312483,1.000000,0.000000,4291.922852,4291.922852,4321.666504,4310.897461,4305.769043,4312.179688,4341.538574,4332.692383,4322.436035,4312.436035,4461.922852,4494.487305,4351.922852,4402.179688,1329.000000,0.000000,5.000000,,,,0.000000,2.000000,2.000000,0.000000,2.000000,2.000000,2.000000,0.000000,2.000000,4.000000,4.000000,4.000000,4.000000,2.000000,4.000000,16.666666,,,,,,,,,,,,,,,,,,,,,,,,,,,,
1732083734.319310,1732083734.320091,2.000000,0.000000,4293.461426,4293.589844,4323.589844,4314.358887,4318.974121,4313.846191,4343.333496,4325.384766,4316.410156,4306.538574,4462.307617,4491.538574,4350.512695,4400.897461,1245.000000,0.000000,5.000000,,,,0.000000,2.000000,2.000000,0.000000,2.000000,2.000000,2.000000,0.000000,2.000000,4.000000,4.000000,4.000000,4.000000,2.000000,4.000000,16.666666,,,,,,,,,,,,,,,,,,,,,,,,,,,,
1732083734.327118,1732083734.327900,3.000000,0.000000,4297.820313,4297.948730,4321.666504,4315.512695,4307.179688,4310.641113,4345.641113,4325.384766,4320.000000,4308.589844,4461.794922,4487.820313,4351.922852,4399.615234,1200.000000,0.000000,5.000000,,,,0.000000,2.000000,2.000000,0.000000,2.000000,2.000000,2.000000,0.000000,2.000000,4.000000,4.000000,4.000000,4.000000,2.000000,4.000000,16.666666,,,,,,,,,,,,,,,,,,,,,,,,,,,,
1732083734.334926,1732083734.335608,4.000000,0.000000,4297.051270,4297.307617,4321.538574,4312.051270,4287.436035,4310.384766,4342.820313,4339.358887,4328.717773,4313.846191,4467.692383,4495.769043,4356.153809,4400.769043,1212.000000,0.000000,5.000000,,,,0.000000,2.000000,2.000000,0.000000,2.000000,2.000000,2.000000,0.000000,2.000000,4.000000,4.000000,4.000000,4.000000,2.000000,4.000000,16.666666,,,,,,,,,,,,,,,,,1.000000,0.000000,0.553656,0.347717,-0.647461,0.391602,0.969845,-0.115248,-0.076670,-80.406342,47.868034,22.798677
1732083734.342735,1732083734.343416,5.000000,0.000000,4295.000000,4295.512695,4322.563965,4311.666504,4296.410156,4317.051270,4345.128418,4343.846191,4329.743652,4309.230957,4474.230957,4501.025879,4355.128418,4403.077148,1077.000000,0.000000,5.000000,,,,0.000000,2.000000,2.000000,0.000000,2.000000,2.000000,2.000000,0.000000,2.000000,4.000000,4.000000,4.000000,4.000000,2.000000,4.000000,16.666666,,,,,,,,,,,,,,,,,,,,,,,,,,,,
1732083734.350543,1732083734.351024,6.000000,0.000000,4299.615234,4296.666504,4319.487305,4315.256348,4306.410156,4315.769043,4348.205078,4335.384766,4322.307617,4305.512695,4472.179688,4497.436035,4351.410156,4403.846191,0.000000,0.000000,5.000000,,,,0.000000,2.000000,2.000000,0.000000,2.000000,2.000000,2.000000,0.000000,2.000000,4.000000,4.000000,4.000000,4.000000,2.000000,4.000000,16.666666,,,,,,,,,,,,,,,,,,,,,,,,,,,,
1732083734.358351,1732083734.358833,7.000000,0.000000,4300.641113,4296.025879,4319.487305,4315.641113,4303.205078,4311.025879,4347.948730,4332.948730,4320.769043,4309.871582,4468.974121,4497.307617,4356.025879,4402.051270,1167.000000,0.000000,5.000000,,,,0.000000,2.000000,2.000000,0.000000,2.000000,2.000000,2.000000,0.000000,2.000000,4.000000,4.000000,4.000000,4.000000,2.000000,4.000000,16.666666,,,,,,,,,,,,,,,,,,,,,,,,,,,,
1732083734.366160,1732083734.366541,8.000000,0.000000,4295.641113,4295.384766,4323.077148,4314.487305,4306.153809,4315.128418,4346.282227,4338.717773,4326.794922,4311.666504,4471.282227,4498.589844,4360.128418,4400.000000,1371.000000,0.000000,5.000000,,,,0.000000,2.000000,2.000000,0.000000,2.000000,2.000000,2.000000,0.000000,2.000000,4.000000,4.000000,4.000000,4.000000,2.000000,4.000000,16.666666,,,,,,,,,,,,,,,,,2.000000,0.000000,0.554829,0.347534,-0.646851,0.391113,0.979612,-0.117690,-0.074228,-80.565804,48.034775,22.706928
1732083734.373968,1732083734.374349,9.000000,0.000000,4295.641113,4297.307617,4323.974121,4314.615234,4308.333496,4321.794922,4346.794922,4344.615234,4328.205078,4307.051270,4469.358887,4496.794922,4354.871582,4400.769043,1523.000000,0.000000,5.000000,,,,0.000000,2.000000,2.000000,0.000000,2.000000,2.000000,2.000000,0.000000,2.000000,4.000000,4.000000,4.000000,4.000000,2.000000,4.000000,16.666666,,,,,,,,,,,,,,,,,,,,,,,,,,,,
1732083734.381776,1732083734.381958,10.000000,0.000000,4297.051270,4297.692383,4320.769043,4317.179688,4316.410156,4323.077148,4349.230957,4340.256348,4326.538574,4303.461426,4461.922852,4496.794922,4348.974121,4401.025879,1389.000000,0.000000,5.000000,,,,0.000000,2.000000,2.000000,0.000000,2.000000,2.000000,2.000000,0.000000,2.000000,4.000000,4.000000,4.000000,4.000000,2.000000,4.000000,16.666666,,,,,,,,,,,,,,,,,,,,,,,,,,,,
1732083734.389584,1732083734.389766,11.000000,0.000000,4295.384766,4297.179688,4321.282227,4320.897461,4324.102539,4321.025879,4348.333496,4327.948730,4323.077148,4310.128418,4460.769043,4496.153809,4351.410156,4398.589844,1529.000000,0.000000,5.000000,,,,0.000000,2.000000,2.000000,0.000000,2.000000,2.000000,2.000000,0.000000,2.000000,4.000000,4.000000,4.000000,4.000000,2.000000,4.000000,16.666666,,,,,,,,,,,,,,,,,,,,,,,,,,,,
1732083734.397393,1732083734.397674,12.000000,0.000000,4295.641113,4297.563965,4324.743652,4320.256348,4306.666504,4318.974121,4346.666504,4327.820313,4320.769043,4316.794922,4464.230957,4495.128418,4354.615234,4399.358887,1758.000000,0.000000,5.000000,,,,0.000000,2.000000,2.000000,0.000000,2.000000,2.000000,2.000000,0.000000,2.000000,4.000000,4.000000,4.000000,4.000000,2.000000,4.000000,16.666666,,,,,,,,,,,,,,,,,3.000000,0.000000,0.555199,0.347534,-0.646606,0.390991,0.977658,-0.116225,-0.077158,-80.746635,48.138168,22.772612
1732083734.405201,1732083734.405482,13.000000,0.000000,4297.820313,4296.666504,4323.974121,4318.846191,4292.179688,4317.948730,4345.512695,4335.384766,4320.897461,4305.128418,4463.717773,4496.794922,4352.179688,4401.025879,1541.000000,0.000000,5.000000,,,,0.000000,2.000000,2.000000,0.000000,2.000000,2.000000,2.000000,0.000000,2.000000,4.000000,4.000000,4.000000,4.000000,2.000000,4.000000,16.666666,,,,,,,,,,,,,,,,,,,,,,,,,,,,
1732083734.413009,1732083734.413490,14.000000,0.000000,4297.436035,4297.563965,4323.333496,4319.230957,4306.153809,4318.077148,4346.025879,4337.948730,4321.282227,4293.974121,4459.102539,4491.922852,4347.948730,4393.846191,1389.000000,0.000000,5.000000,,,,0.000000,2.000000,2.000000,0.000000,2.000000,2.000000,2.000000,0.000000,2.000000,4.000000,4.000000,4.000000,4.000000,2.000000,4.000000,16.666666,1.000000,16.666666,2.000000,2.000000,0.000000,2.000000,2.000000,2.000000,0.000000,2.000000,4.000000,4.000000,4.000000,4.000000,2.000000,4.000000,,,,,,,,,,,,
1732083734.420817,1732083734.421298,15.000000,0.000000,4296.666504,4300.512695,4326.794922,4319.743652,4313.846191,4318.461426,4344.743652,4342.179688,4323.846191,4303.205078,4459.358887,4487.692383,4346.153809,4389.743652,1529.000000,0.000000,5.000000,,,,0.000000,2.000000,2.000000,0.000000,2.000000,2.000000,2.000000,0.000000,2.000000,4.000000,4.000000,4.000000,4.000000,2.000000,4.000000,16.666666,,,,,,,,,,,,,,,,,,,,,,,,,,,,
1732083734.428625,1732083734.429007,16.000000,0.000000,4297.436035,4298.589844,4327.307617,4319.358887,4304.615234,4317.948730,4346.794922,4341.410156,4321.153809,4310.000000,4461.922852,4491.410156,4346.025879,4397.436035,0.000000,0.000000,5.000000,,,,0.000000,2.000000,2.000000,0.000000,2.000000,2.000000,2.000000,0.000000,2.000000,4.000000,4.000000,4.000000,4.000000,2.000000,4.000000,16.666666,,,,,,,,,,,,,,,,,4.000000,0.000000,0.555546,0.347412,-0.646484,0.390808,0.977658,-0.116225,-0.077158,-80.833107,48.086914,23.005816
1732083734.436434,1732083734.436815,17.000000,0.000000,4295.897461,4295.641113,4322.563965,4318.333496,4315.000000,4314.358887,4346.410156,4333.205078,4315.641113,4305.128418,4461.538574,4491.666504,4345.512695,4398.974121,0.000000,0.000000,5.000000,,,,0.000000,2.000000,2.000000,0.000000,2.000000,2.000000,2.000000,0.000000,2.000000,4.000000,4.000000,4.000000,4.000000,2.000000,4.000000,16.666666,,,,,,,,,,,,,,,,,,,,,,,,,,,,
1732083734.444242,1732083734.444823,18.000000,0.000000,4293.974121,4296.153809,4322.051270,4319.102539,4321.410156,4312.948730,4346.410156,4335.000000,4318.333496,4305.384766,4459.487305,4483.974121,4342.436035,4390.256348,0.000000,0.000000,5.000000,,,,0.000000,2.000000,2.000000,0.000000,2.000000,2.000000,2.000000,0.000000,2.000000,4.000000,4.000000,4.000000,4.000000,2.000000,4.000000,16.666666,,,,,,,,,,,,,,,,,,,,,,,,,,,,
1732083734.452050,1732083734.452631,19.000000,0.000000,4293.333496,4295.769043,4324.358887,4319.230957,4302.179688,4320.128418,4347.692383,4341.666504,4324.487305,4308.974121,4458.205078,4480.512695,4338.333496,4386.025879,0.000000,0.000000,5.000000,,,,0.000000,2.000000,2.000000,0.000000,2.000000,2.000000,2.000000,0.000000,2.000000,4.000000,4.000000,4.000000,4.000000,2.000000,4.000000,16.666666,,,,,,,,,,,,,,,,,,,,,,,,,,,,
1732083734.459859,1732083734.460539,20.000000,0.000000,4288.589844,4293.461426,4322.051270,4314.487305,4295.512695,4323.077148,4348.333496,4344.743652,4325.897461,4304.743652,4454.102539,4482.179688,4335.641113,4385.641113,0.000000,0.000000,5.000000,,,,0.000000,2.000000,2.000000,0.000000,2.000000,2.000000,2.000000,0.000000,2.000000,4.000000,4.000000,4.000000,4.000000,2.000000,4.000000,16.666666,,,,,,,,,,,,,,,,,5.000000,0.000000,0.556123,0.346924,-0.646545,0.390320,0.975705,-0.120620,-0.082041,-80.853149,48.015400,23.203045
1732083734.467667,1732083734.468347,21.000000,0.000000,4285.128418,4292.820313,4320.384766,4309.102539,4305.512695,4318.589844,4346.922852,4346.410156,4326.666504,4304.743652,4451.025879,4483.077148,4335.897461,4382.436035,0.000000,0.000000,5.000000,,,,0.000000,2.000000,2.000000,0.000000,2.000000,2.000000,2.000000,0.000000,2.000000,4.000000,4.000000,4.000000,4.000000,2.000000,4.000000,16.666666,,,,,,,,,,,,,,,,,,,,,,,,,,,,
1732083734.475475,1732083734.476355,22.000000,0.000000,4288.846191,4293.717773,4324.102539,4311.538574,4302.563965,4317.307617,4347.820313,4342.563965,4325.512695,4309.871582,4455.000000,4485.384766,4340.000000,4381.794922,0.000000,0.000000,5.000000,,,,0.000000,2.000000,2.000000,0.000000,2.000000,2.000000,2.000000,0.000000,2.000000,4.000000,4.000000,4.000000,4.000000,2.000000,4.000000,16.666666,,,,,,,,,,,,,,,,,,,,,,,,,,,,
1732083734.483283,1732083734.484164,23.000000,0.000000,4295.769043,4297.051270,4325.512695,4316.666504,4306.025879,4315.512695,4347.307617,4337.563965,4318.077148,4308.717773,4458.974121,4487.948730,4343.333496,4389.230957,0.000000,0.000000,5.000000,,,,0.000000,2.000000,2.000000,0.000000,2.000000,2.000000,2.000000,0.000000,2.000000,4.000000,4.000000,4.000000,4.000000,2.000000,4.000000,16.666666,,,,,,,,,,,,,,,,,,,,,,,,,,,,
1732083734.491092,1732083734.492072,24.000000,0.000000,4297.051270,4298.205078,4324.102539,4316.282227,4319.230957,4310.000000,4347.051270,4337.051270,4315.641113,4302.563965,4457.820313,4489.102539,4342.179688,4393.717773,0.000000,0.000000,5.000000,,,,0.000000,2.000000,2.000000,0.000000,2.000000,2.000000,2.000000,0.000000,2.000000,4.000000,4.000000,4.000000,4.000000,2.000000,4.000000,16.666666,,,,,,,,,,,,,,,,,6.000000,0.000000,0.556152,0.346924,-0.646484,0.390381,0.972287,-0.112807,-0.069833,-81.002716,48.340809,23.312799
1732083734.498900,1732083734.499880,25.000000,0.000000,4294.102539,4296.282227,4323.461426,4317.051270,4305.000000,4313.205078,4348.589844,4333.974121,4319.102539,4301.666504,4459.102539,4490.384766,4342.436035,4391.794922,0.000000,0.000000,5.000000,,,,0.000000,2.000000,2.000000,0.000000,2.000000,2.000000,2.000000,0.000000,2.000000,4.000000,4.000000,4.000000,4.000000,2.000000,4.000000,16.666666,,,,,,,,,,,,,,,,,,,,,,,,,,,,
1732083734.506708,1732083734.507888,26.000000,0.000000,4292.820313,4298.077148,4324.358887,4317.948730,4293.205078,4321.153809,4349.871582,4340.384766,4325.000000,4310.769043,4462.307617,4493.717773,4345.128418,4390.897461,0.000000,0.000000,5.000000,,,,0.000000,2.000000,2.000000,0.000000,2.000000,2.000000,2.000000,0.000000,2.000000,4.000000,4.000000,4.000000,4.000000,2.000000,4.000000,16.666666,,,,,,,,,,,,,,,,,,,,,,,,,,,,
1732083734.514516,1732083734.515696,27.000000,0.000000,4296.282227,4299.358887,4325.128418,4314.615234,4306.153809,4321.538574,4350.256348,4350.769043,4325.641113,4314.871582,4461.794922,4494.230957,4343.461426,4392.436035,0.000000,0.000000,5.000000,,,,0.000000,2.000000,2.000000,0.000000,2.000000,2.000000,2.000000,0.000000,2.000000,4.000000,4.000000,4.000000,4.000000,2.000000,4.000000,16.666666,,,,,,,,,,,,,,,,,,,,,,,,,,,,
1732083734.522325,1732083734.523604,28.000000,0.000000,4294.871582,4295.897461,4324.487305,4313.077148,4308.974121,4318.333496,4347.692383,4340.897461,4315.769043,4303.974121,4458.846191,4493.333496,4341.410156,4391.025879,0.000000,0.000000,5.000000,,,,0.000000,2.000000,2.000000,0.000000,2.000000,2.000000,2.000000,0.000000,2.000000,4.000000,4.000000,4.000000,4.000000,2.000000,4.000000,16.666666,,,,,,,,,,,,,,,,,7.000000,0.000000,0.556142,0.346985,-0.646423,0.390442,0.975217,-0.125015,-0.071298,-81.287201,48.244389,23.316700
1732083734.530133,1732083734.531412,29.000000,0.000000,4287.820313,4294.871582,4324.358887,4313.589844,4302.436035,4320.384766,4348.461426,4334.871582,4313.461426,4301.794922,4458.205078,4491.410156,4343.077148,4388.974121,0.000000,0.000000,5.000000,,,,0.000000,2.000000,2.000000,0.000000,2.000000,2.000000,2.000000,0.000000,2.000000,4.000000,4.000000,4.000000,4.000000,2.000000,4.000000,16.666666,,,,,,,,,,,,,,,,,,,,,,,,,,,,
1732083734.537941,1732083734.539420,30.000000,0.000000,4288.461426,4295.897461,4323.589844,4311.025879,4301.666504,4320.769043,4348.461426,4347.436035,4324.871582,4312.563965,4461.538574,4491.282227,4341.794922,4391.153809,0.000000,0.000000,5.000000,,,,0.000000,2.000000,2.000000,0.000000,2.000000,2.000000,2.000000,0.000000,2.000000,4.000000,4.000000,4.000000,4.000000,2.000000,4.000000,16.666666,,,,,,,,,,,,,,,,,,,,,,,,,,,,
1732083734.545750,1732083734.547229,31.000000,0.000000,4292.948730,4295.769043,4321.794922,4310.128418,4311.410156,4314.615234,4345.128418,4346.794922,4324.871582,4310.769043,4461.538574,4491.282227,4337.307617,4391.666504,0.000000,0.000000,5.000000,,,,0.000000,2.000000,2.000000,0.000000,2.000000,2.000000,2.000000,0.000000,2.000000,4.000000,4.000000,4.000000,4.000000,2.000000,4.000000,16.666666,,,,,,,,,,,,,,,,,,,,,,,,,,,,
1732083734.553558,1732083734.555137,32.000000,0.000000,4292.820313,4297.051270,4321.922852,4311.922852,4319.102539,4308.974121,4341.410156,4332.563965,4315.897461,4303.846191,4458.077148,4492.179688,4338.461426,4393.461426,0.000000,0.000000,5.000000,,,,0.000000,2.000000,2.000000,0.000000,2.000000,2.000000,2.000000,0.000000,2.000000,4.000000,4.000000,4.000000,4.000000,2.000000,4.000000,16.666666,,,,,,,,,,,,,,,,,8.000000,0.000000,0.556290,0.346863,-0.646545,0.390137,0.974240,-0.124527,-0.070809,-81.264297,48.546288,23.224861
1732083734.561366,1732083734.562945,33.000000,0.000000,4291.410156,4298.205078,4323.589844,4311.025879,4305.769043,4308.077148,4344.743652,4332.307617,4319.615234,4306.794922,4461.025879,4492.692383,4343.077148,4394.358887,0.000000,0.000000,5.000000,,,,0.000000,2.000000,2.000000,0.000000,2.000000,2.000000,2.000000,0.000000,2.000000,4.000000,4.000000,4.000000,4.000000,2.000000,4.000000,16.666666,,,,,,,,,,,,,,,,,,,,,,,,,,,,
1732083734.569174,1732083734.570753,34.000000,0.000000,4291.922852,4296.025879,4324.102539,4309.358887,4289.230957,4308.461426,4345.512695,4337.436035,4326.538574,4312.948730,4467.948730,4489.358887,4346.153809,4393.333496,0.000000,0.000000,5.000000,,,,0.000000,2.000000,2.000000,0.000000,2.000000,2.000000,2.000000,0.000000,2.000000,4.000000,4.000000,4.000000,4.000000,2.000000,4.000000,16.666666,,,,,,,,,,,,,,,,,,,,,,,,,,,,
1732083734.576983,1732083734.578561,35.000000,0.000000,4292.179688,4295.769043,4323.077148,4309.358887,4298.461426,4308.077148,4347.179688,4335.256348,4325.897461,4315.769043,4470.512695,4490.512695,4350.128418,4397.179688,0.000000,0.000000,5.000000,,,,0.000000,2.000000,2.000000,0.000000,2.000000,2.000000,2.000000,0.000000,2.000000,4.000000,4.000000,4.000000,4.000000,2.000000,4.000000,16.666666,,,,,,,,,,,,,,,,,,,,,,,,,,,,
1732083734.584791,1732083734.586270,36.000000,0.000000,4294.102539,4299.487305,4319.743652,4312.307617,4312.307617,4311.922852,4350.384766,4337.051270,4322.820313,4313.333496,4471.410156,4492.307617,4352.820313,4400.000000,0.000000,0.000000,5.000000,,,,0.000000,2.000000,2.000000,0.000000,2.000000,2.000000,2.000000,0.000000,2.000000,4.000000,4.000000,4.000000,4.000000,2.000000,4.000000,16.666666,,,,,,,,,,,,,,,,,9.000000,0.000000,0.556512,0.347168,-0.646301,0.389954,0.964962,-0.113783,-0.073739,-81.232414,48.695827,23.322138
1732083734.592599,1732083734.594078,37.000000,0.000000,4294.102539,4301.282227,4318.077148,4315.128418,4306.282227,4315.000000,4349.230957,4340.384766,4321.025879,4305.384766,4468.461426,4487.179688,4348.205078,4395.641113,0.000000,0.000000,5.000000,,,,0.000000,2.000000,2.000000,0.000000,2.000000,2.000000,2.000000,0.000000,2.000000,4.000000,4.000000,4.000000,4.000000,2.000000,4.000000,16.666666,,,,,,,,,,,,,,,,,,,,,,,,,,,,
1732083734.600407,1732083734.601686,38.000000,0.000000,4289.743652,4297.436035,4321.410156,4312.051270,4298.077148,4315.000000,4345.384766,4339.615234,4320.897461,4304.615234,4461.282227,4484.743652,4341.410156,4388.461426,0.000000,0.000000,5.000000,,,,0.000000,2.000000,2.000000,0.000000,2.000000,2.000000,2.000000,0.000000,2.000000,4.000000,4.000000,4.000000,4.000000,2.000000,4.000000,16.666666,,,,,,,,,,,,,,,,,,,,,,,,,,,,
1732083734.608216,1732083734.609494,39.000000,0.000000,4290.769043,4295.256348,4325.256348,4309.871582,4307.436035,4313.461426,4346.153809,4341.025879,4323.077148,4312.692383,4459.743652,4486.282227,4340.000000,4386.153809,0.000000,0.000000,5.000000,,,,0.000000,2.000000,2.000000,0.000000,2.000000,2.000000,2.000000,0.000000,2.000000,4.000000,4.000000,4.000000,4.000000,2.000000,4.000000,16.666666,,,,,,,,,,,,,,,,,,,,,,,,,,,,
1732083734.616024,1732083734.617203,40.000000,0.000000,4294.743652,4298.717773,4324.102539,4315.641113,4320.641113,4309.743652,4347.436035,4342.179688,4324.871582,4311.666504,4460.769043,4485.128418,4340.000000,4387.307617,0.000000,0.000000,5.000000,,,,0.000000,2.000000,2.000000,0.000000,2.000000,2.000000,2.000000,0.000000,2.000000,4.000000,4.000000,4.000000,4.000000,2.000000,4.000000,16.666666,,,,,,,,,,,,,,,,,10.000000,0.000000,0.556696,0.347168,-0.646179,0.389893,0.979612,-0.106458,-0.079111,-81.073257,48.816952,23.400930
1732083734.623832,1732083734.625011,41.000000,0.000000,4294.230957,4299.487305,4325.512695,4318.077148,4309.871582,4311.922852,4346.282227,4339.358887,4324.615234,4307.948730,4458.717773,4482.051270,4339.615234,4391.282227,0.000000,0.000000,5.000000,,,,0.000000,2.000000,2.000000,0.000000,2.000000,2.000000,2.000000,0.000000,2.000000,4.000000,4.000000,4.000000,4.000000,2.000000,4.000000,16.666666,,,,,,,,,,,,,,,,,,,,,,,,,,,,
1732083734.631641,1732083734.632619,42.000000,0.000000,4292.436035,4296.153809,4327.179688,4313.974121,4292.307617,4315.769043,4346.538574,4338.589844,4324.230957,4311.410156,4459.743652,4487.692383,4343.077148,4395.897461,0.000000,0.000000,5.000000,,,,0.000000,2.000000,2.000000,0.000000,2.000000,2.000000,2.000000,0.000000,2.000000,4.000000,4.000000,4.000000,4.000000,2.000000,4.000000,16.666666,,,,,,,,,,,,,,,,,,,,,,,,,,,,
1732083734.639449,1732083734.640428,43.000000,0.000000,4294.230957,4296.153809,4323.974121,4310.897461,4299.358887,4314.358887,4347.948730,4341.666504,4323.205078,4311.282227,4462.563965,4490.384766,4344.743652,4395.512695,0.000000,0.000000,5.000000,,,,0.000000,2.000000,2.000000,0.000000,2.000000,2.000000,2.000000,0.000000,2.000000,4.000000,4.000000,4.000000,4.000000,2.000000,4.000000,16.666666,,,,,,,,,,,,,,,,,,,,,,,,,,,,
1732083734.647257,1732083734.648136,44.000000,0.000000,4293.717773,4296.922852,4321.794922,4312.179688,4308.333496,4315.384766,4349.358887,4344.487305,4323.461426,4303.974121,4459.230957,4485.897461,4338.846191,4394.487305,0.000000,0.000000,5.000000,,,,0.000000,2.000000,2.000000,0.000000,2.000000,2.000000,2.000000,0.000000,2.000000,4.000000,4.000000,4.000000,4.000000,2.000000,4.000000,16.666666,,,,,,,,,,,,,,,,,11.000000,0.000000,0.556900,0.347046,-0.646179,0.389709,0.958613,-0.106458,-0.071298,-81.071007,48.738400,23.351421
1732083734.655065,1732083734.655944,45.000000,0.000000,4294.743652,4297.692383,4322.179688,4315.000000,4305.897461,4316.538574,4347.692383,4342.692383,4322.820313,4302.436035,4457.179688,4486.794922,4336.538574,4394.743652,0.000000,0.000000,5.000000,,,,0.000000,2.000000,2.000000,0.000000,2.000000,2.000000,2.000000,0.000000,2.000000,4.000000,4.000000,4.000000,4.000000,2.000000,4.000000,16.666666,,,,,,,,,,,,,,,,,,,,,,,,,,,,
1732083734.662874,1732083734.663553,46.000000,0.000000,4297.948730,4299.230957,4323.846191,4315.128418,4301.666504,4310.769043,4348.846191,4339.743652,4319.358887,4308.461426,4462.692383,4492.820313,4343.333496,4395.641113,0.000000,0.000000,5.000000,,,,0.000000,2.000000,2.000000,0.000000,2.000000,2.000000,2.000000,0.000000,2.000000,4.000000,4.000000,4.000000,4.000000,2.000000,4.000000,16.666666,,,,,,,,,,,,,,,,,,,,,,,,,,,,
1732083734.670682,1732083734.671361,47.000000,0.000000,4296.794922,4299.743652,4324.102539,4314.358887,4301.025879,4310.897461,4350.769043,4338.077148,4318.589844,4308.077148,4463.974121,4493.461426,4344.487305,4395.256348,0.000000,0.000000,5.000000,,,,0.000000,2.000000,2.000000,0.000000,2.000000,2.000000,2.000000,0.000000,2.000000,4.000000,4.000000,4.000000,4.000000,2.000000,4.000000,16.666666,,,,,,,,,,,,,,,,,,,,,,,,,,,,
1732083734.678490,1732083734.679069,48.000000,0.000000,4293.205078,4297.692383,4323.205078,4312.436035,4312.692383,4314.743652,4349.230957,4335.897461,4318.077148,4301.282227,4456.410156,4486.153809,4338.077148,4392.563965,0.000000,0.000000,5.000000,,,,0.000000,2.000000,2.000000,0.000000,2.000000,2.000000,2.000000,0.000000,2.000000,4.000000,4.000000,4.000000,4.000000,2.000000,4.000000,16.666666,,,,,,,,,,,,,,,,,12.000000,0.000000,0.557105,0.346924,-0.646179,0.389526,0.972775,-0.107435,-0.082041,-80.965851,48.649769,23.447985
1732083734.686298,1732083734.686877,49.000000,0.000000,4292.179688,4295.897461,4323.589844,4311.282227,4319.102539,4310.769043,4346.025879,4333.974121,4316.410156,4298.461426,4452.692383,4483.205078,4335.128418,4389.871582,0.000000,0.000000,5.000000,,,,0.000000,2.000000,2.000000,0.000000,2.000000,2.000000,2.000000,0.000000,2.000000,4.000000,4.000000,4.000000,4.000000,2.000000,4.000000,16.666666,,,,,,,,,,,,,,,,,,,,,,,,,,,,
1732083734.694106,1732083734.694486,50.000000,0.000000,4294.743652,4299.230957,4324.358887,4313.333496,4298.333496,4311.794922,4348.333496,4333.589844,4317.179688,4299.230957,4457.307617,4483.077148,4336.794922,4388.077148,0.000000,0.000000,5.000000,,,,0.000000,2.000000,2.000000,0.000000,2.000000,2.000000,2.000000,0.000000,2.000000,4.000000,4.000000,4.000000,4.000000,2.000000,4.000000,16.666666,,,,,,,,,,,,,,,,,,,,,,,,,,,,
1732083734.701915,1732083734.702294,51.000000,0.000000,4299.743652,4300.256348,4321.282227,4313.461426,4290.384766,4312.307617,4345.769043,4334.871582,4318.333496,4297.563965,4460.000000,4482.307617,4338.077148,4389.358887,0.000000,0.000000,5.000000,,,,0.000000,2.000000,2.000000,0.000000,2.000000,2.000000,2.000000,0.000000,2.000000,4.000000,4.000000,4.000000,4.000000,2.000000,4.000000,16.666666,,,,,,,,,,,,,,,,,,,,,,,,,,,,
1732083734.709723,1732083734.710002,52.000000,0.000000,4300.000000,4297.820313,4320.256348,4311.794922,4310.512695,4305.000000,4343.205078,4334.871582,4316.666504,4294.871582,4458.717773,4484.871582,4336.025879,4389.615234,0.000000,0.000000,5.000000,,,,0.000000,2.000000,2.000000,0.000000,2.000000,2.000000,2.000000,0.000000,2.000000,4.000000,4.000000,4.000000,4.000000,2.000000,4.000000,16.666666,,,,,,,,,,,,,,,,,13.000000,0.000000,0.557200,0.346680,-0.646301,0.389404,0.987914,-0.121597,-0.076181,-80.885666,48.701313,23.624535
1732083734.717531,1732083734.717810,53.000000,0.000000,4297.692383,4301.282227,4323.205078,4316.153809,4309.615234,4306.794922,4345.000000,4332.820313,4317.051270,4300.128418,4459.230957,4490.128418,4337.436035,4390.384766,0.000000,0.000000,5.000000,,,,0.000000,2.000000,2.000000,0.000000,2.000000,2.000000,2.000000,0.000000,2.000000,4.000000,4.000000,4.000000,4.000000,2.000000,4.000000,16.666666,,,,,,,,,,,,,,,,,,,,,,,,,,,,
1732083734.725340,1732083734.725419,54.000000,0.000000,4298.974121,4304.358887,4322.436035,4320.256348,4291.538574,4313.077148,4346.922852,4332.436035,4320.897461,4303.846191,4460.769043,4488.461426,4341.666504,4393.205078,0.000000,0.000000,5.000000,,,,0.000000,2.000000,2.000000,0.000000,2.000000,2.000000,2.000000,0.000000,2.000000,4.000000,4.000000,4.000000,4.000000,2.000000,4.000000,16.666666,,,,,,,,,,,,,,,,,,,,,,,,,,,,
1732083734.733148,1732083734.733227,55.000000,0.000000,4298.846191,4298.717773,4319.871582,4313.974121,4296.282227,4312.051270,4346.410156,4341.666504,4324.358887,4295.384766,4460.128418,4483.461426,4336.025879,4390.000000,0.000000,0.000000,5.000000,,,,0.000000,2.000000,2.000000,0.000000,2.000000,2.000000,2.000000,0.000000,2.000000,4.000000,4.000000,4.000000,4.000000,2.000000,4.000000,16.666666,,,,,,,,,,,,,,,,,,,,,,,,,,,,
1732083734.740956,1732083734.740935,56.000000,0.000000,4293.717773,4295.256348,4321.538574,4310.256348,4306.922852,4311.538574,4346.538574,4343.974121,4323.717773,4290.256348,4458.205078,4486.794922,4329.743652,4382.948730,0.000000,0.000000,5.000000,,,,0.000000,2.000000,2.000000,0.000000,2.000000,2.000000,2.000000,0.000000,2.000000,4.000000,4.000000,4.000000,4.000000,2.000000,4.000000,16.666666,,,,,,,,,,,,,,,,,14.000000,0.000000,0.557200,0.346680,-0.646301,0.389404,0.974728,-0.121597,-0.068368,-80.745728,48.668064,23.617538
1732083734.748764,1732083734.748744,57.000000,0.000000,4295.512695,4298.717773,4322.692383,4314.615234,4305.641113,4312.692383,4345.512695,4333.205078,4316.666504,4298.333496,4458.846191,4492.692383,4340.769043,4387.307617,0.000000,0.000000,5.000000,,,,0.000000,2.000000,2.000000,0.000000,2.000000,2.000000,2.000000,0.000000,2.000000,4.000000,4.000000,4.000000,4.000000,2.000000,4.000000,16.666666,,,,,,,,,,,,,,,,,,,,,,,,,,,,
1732083734.756573,1732083734.756352,58.000000,0.000000,4302.436035,4297.307617,4321.794922,4316.153809,4300.512695,4312.307617,4346.922852,4336.153809,4315.256348,4303.846191,4461.410156,4492.051270,4349.230957,4396.666504,0.000000,0.000000,5.000000,,,,0.000000,2.000000,2.000000,0.000000,2.000000,2.000000,2.000000,0.000000,2.000000,4.000000,4.000000,4.000000,4.000000,2.000000,4.000000,16.666666,,,,,,,,,,,,,,,,,,,,,,,,,,,,
1732083734.764381,1732083734.764160,59.000000,0.000000,4299.871582,4294.615234,4320.384766,4312.948730,4304.102539,4312.820313,4350.256348,4346.922852,4321.410156,4301.538574,4461.922852,4485.512695,4343.205078,4393.333496,0.000000,0.000000,5.000000,,,,0.000000,2.000000,2.000000,0.000000,2.000000,2.000000,2.000000,0.000000,2.000000,4.000000,4.000000,4.000000,4.000000,2.000000,4.000000,16.666666,,,,,,,,,,,,,,,,,,,,,,,,,,,,
1732083734.772189,1732083734.771869,60.000000,0.000000,4292.307617,4295.128418,4320.256348,4308.846191,4313.205078,4308.205078,4345.641113,4342.948730,4322.692383,4302.051270,4462.307617,4486.794922,4342.820313,4391.922852,0.000000,0.000000,5.000000,,,,0.000000,2.000000,2.000000,0.000000,2.000000,2.000000,2.000000,0.000000,2.000000,4.000000,4.000000,4.000000,4.000000,2.000000,4.000000,16.666666,,,,,,,,,,,,,,,,,15.000000,0.000000,0.557309,0.346619,-0.646240,0.389404,0.975705,-0.115248,-0.063484,-80.967369,48.681133,23.693541
1732083734.779997,1732083734.779677,61.000000,0.000000,4294.358887,4295.256348,4322.563965,4309.871582,4306.410156,4303.333496,4342.820313,4331.153809,4319.615234,4306.153809,4462.436035,4490.256348,4348.461426,4399.615234,0.000000,0.000000,5.000000,,,,0.000000,2.000000,2.000000,0.000000,2.000000,2.000000,2.000000,0.000000,2.000000,4.000000,4.000000,4.000000,4.000000,2.000000,4.000000,16.666666,,,,,,,,,,,,,,,,,,,,,,,,,,,,
1732083734.787806,1732083734.787685,62.000000,0.000000,4301.153809,4296.666504,4324.230957,4314.871582,4291.282227,4309.230957,4346.538574,4328.461426,4321.794922,4306.922852,4460.641113,4490.128418,4347.307617,4399.615234,0.000000,0.000000,5.000000,,,,0.000000,2.000000,2.000000,0.000000,2.000000,2.000000,2.000000,0.000000,2.000000,4.000000,4.000000,4.000000,4.000000,2.000000,4.000000,16.666666,,,,,,,,,,,,,,,,,,,,,,,,,,,,
1732083734.795614,1732083734.795493,63.000000,0.000000,4300.384766,4296.666504,4325.256348,4315.128418,4297.820313,4312.692383,4350.512695,4332.307617,4320.641113,4302.948730,4460.512695,4490.256348,4344.487305,4396.666504,0.000000,0.000000,5.000000,,,,0.000000,2.000000,2.000000,0.000000,2.000000,2.000000,2.000000,0.000000,2.000000,4.000000,4.000000,4.000000,4.000000,2.000000,4.000000,16.666666,,,,,,,,,,,,,,,,,,,,,,,,,,,,
1732083734.803422,1732083734.803401,64.000000,0.000000,4295.256348,4295.512695,4325.512695,4310.641113,4308.205078,4307.948730,4346.666504,4334.102539,4315.384766,4300.384766,4461.538574,4491.666504,4344.871582,4398.077148,0.000000,0.000000,5.000000,,,,0.000000,2.000000,2.000000,0.000000,2.000000,2.000000,2.000000,0.000000,2.000000,4.000000,4.000000,4.000000,4.000000,2.000000,4.000000,16.666666,,,,,,,,,,,,,,,,,16.000000,0.000000,0.557205,0.346558,-0.646362,0.389404,0.964473,-0.119644,-0.075693,-81.098572,48.746716,23.748434
1732083734.811231,1732083734.811209,65.000000,0.000000,4295.897461,4295.897461,4322.436035,4310.256348,4298.333496,4309.102539,4345.384766,4334.230957,4318.333496,4302.820313,4460.256348,4490.897461,4343.846191,4393.974121,1329.000000,0.000000,5.000000,,,,0.000000,2.000000,2.000000,0.000000,2.000000,2.000000,2.000000,0.000000,2.000000,4.000000,4.000000,4.000000,4.000000,2.000000,4.000000,16.666666,,,,,,,,,,,,,,,,,,,,,,,,,,,,
1732083734.819039,1732083734.819217,66.000000,0.000000,4303.461426,4296.538574,4319.230957,4316.538574,4303.461426,4311.153809,4345.256348,4335.128418,4322.692383,4303.205078,4459.743652,4490.384766,4340.641113,4390.384766,1245.000000,0.000000,5.000000,,,,0.000000,2.000000,2.000000,0.000000,2.000000,2.000000,2.000000,0.000000,2.000000,4.000000,4.000000,4.000000,4.000000,2.000000,4.000000,16.666666,,,,,,,,,,,,,,,,,,,,,,,,,,,,
1732083734.826847,1732083734.827025,67.000000,0.000000,4306.794922,4298.205078,4321.538574,4318.333496,4319.230957,4304.615234,4347.179688,4335.512695,4320.000000,4300.897461,4460.512695,4493.205078,4341.922852,4394.615234,1200.000000,0.000000,5.000000,,,,0.000000,2.000000,2.000000,0.000000,2.000000,2.000000,2.000000,0.000000,2.000000,4.000000,4.000000,4.000000,4.000000,2.000000,4.000000,16.666666,,,,,,,,,,,,,,,,,,,,,,,,,,,,
1732083734.834655,1732083734.834934,68.000000,0.000000,4301.794922,4300.128418,4322.948730,4313.589844,4303.974121,4302.692383,4349.102539,4334.871582,4317.563965,4299.358887,4460.256348,4492.820313,4348.205078,4396.025879,1212.000000,0.000000,5.000000,,,,0.000000,2.000000,2.000000,0.000000,2.000000,2.000000,2.000000,0.000000,2.000000,4.000000,4.000000,4.000000,4.000000,2.000000,4.000000,16.666666,,,,,,,,,,,,,,,,,17.000000,0.000000,0.557067,0.346802,-0.646240,0.389587,0.962031,-0.107923,-0.074716,-81.008179,48.806507,23.782898
1732083734.842464,1732083734.842742,69.000000,0.000000,4295.897461,4296.922852,4321.282227,4309.615234,4290.256348,4309.615234,4348.333496,4335.128418,4320.512695,4299.871582,4460.769043,4491.794922,4348.461426,4394.230957,1077.000000,0.000000,5.000000,,,,0.000000,2.000000,2.000000,0.000000,2.000000,2.000000,2.000000,0.000000,2.000000,4.000000,4.000000,4.000000,4.000000,2.000000,4.000000,16.666666,,,,,,,,,,,,,,,,,,,,,,,,,,,,
1732083734.850272,1732083734.850750,70.000000,0.000000,4295.256348,4293.589844,4320.384766,4311.025879,4298.589844,4310.384766,4344.487305,4333.589844,4323.077148,4304.230957,4461.666504,4492.436035,4345.128418,4395.128418,0.000000,0.000000,5.000000,,,,0.000000,2.000000,2.000000,0.000000,2.000000,2.000000,2.000000,0.000000,2.000000,4.000000,4.000000,4.000000,4.000000,2.000000,4.000000,16.666666,,,,,,,,,,,,,,,,,,,,,,,,,,,,
1732083734.858080,1732083734.858558,71.000000,0.000000,4296.922852,4295.384766,4321.153809,4311.666504,4301.153809,4303.974121,4346.153809,4336.282227,4322.820313,4307.179688,4461.538574,4493.461426,4346.922852,4396.666504,1167.000000,0.000000,5.000000,,,,0.000000,2.000000,2.000000,0.000000,2.000000,2.000000,2.000000,0.000000,2.000000,4.000000,4.000000,4.000000,4.000000,2.000000,4.000000,16.666666,,,,,,,,,,,,,,,,,,,,,,,,,,,,
1732083734.865888,1732083734.866466,72.000000,0.000000,4296.410156,4296.410156,4320.897461,4307.692383,4304.615234,4301.666504,4350.641113,4342.051270,4321.794922,4299.615234,4459.743652,4492.051270,4346.282227,4395.897461,1366.000000,0.000000,5.000000,,,,0.000000,2.000000,2.000000,0.000000,2.000000,2.000000,2.000000,0.000000,2.000000,4.000000,4.000000,4.000000,4.000000,2.000000,4.000000,16.666666,,,,,,,,,,,,,,,,,18.000000,0.000000,0.557138,0.346802,-0.646179,0.389587,0.962031,-0.107923,-0.074716,-81.196625,48.779938,23.697481
1732083734.873697,1732083734.874274,73.000000,0.000000,4294.743652,4294.230957,4321.410156,4307.563965,4309.743652,4301.922852,4347.692383,4338.974121,4321.025879,4298.717773,4459.102539,4488.077148,4341.538574,4395.769043,1519.000000,0.000000,5.000000,,,,0.000000,2.000000,2.000000,0.000000,2.000000,2.000000,2.000000,0.000000,2.000000,4.000000,4.000000,4.000000,4.000000,2.000000,4.000000,16.666666,,,,,,,,,,,,,,,,,,,,,,,,,,,,
1732083734.881505,1732083734.882282,74.000000,0.000000,4293.461426,4294.743652,4322.051270,4310.000000,4297.307617,4303.589844,4343.974121,4339.358887,4324.743652,4307.436035,4461.794922,4490.769043,4344.358887,4398.461426,1387.000000,0.000000,5.000000,,,,0.000000,2.000000,2.000000,0.000000,2.000000,2.000000,2.000000,0.000000,2.000000,4.000000,4.000000,4.000000,4.000000,2.000000,4.000000,16.666666,,,,,,,,,,,,,,,,,,,,,,,,,,,,
1732083734.889313,1732083734.890091,75.000000,0.000000,4294.871582,4296.410156,4321.410156,4310.384766,4291.666504,4309.487305,4346.153809,4340.641113,4323.717773,4301.282227,4462.820313,4494.743652,4348.589844,4399.743652,1529.000000,0.000000,5.000000,,,,0.000000,2.000000,2.000000,0.000000,2.000000,2.000000,2.000000,0.000000,2.000000,4.000000,4.000000,4.000000,4.000000,2.000000,4.000000,16.666666,,,,,,,,,,,,,,,,,,,,,,,,,,,,
1732083734.897122,1732083734.897999,76.000000,0.000000,4295.641113,4295.897461,4318.974121,4313.974121,4305.641113,4311.666504,4349.743652,4333.846191,4317.179688,4290.128418,4460.256348,4488.846191,4344.102539,4395.384766,1755.000000,0.000000,5.000000,,,,0.000000,2.000000,2.000000,0.000000,2.000000,2.000000,2.000000,0.000000,2.000000,4.000000,4.000000,4.000000,4.000000,2.000000,4.000000,16.666666,,,,,,,,,,,,,,,,,19.000000,0.000000,0.557194,0.346802,-0.646057,0.389709,0.972775,-0.121109,-0.075693,-81.102600,48.790081,23.551626
1732083734.904930,1732083734.905807,77.000000,0.000000,4294.358887,4296.538574,4318.846191,4312.563965,4305.769043,4304.743652,4346.153809,4331.410156,4319.358887,4297.948730,4459.230957,4484.358887,4341.538574,4394.487305,1538.000000,0.000000,5.000000,,,,0.000000,2.000000,2.000000,0.000000,2.000000,2.000000,2.000000,0.000000,2.000000,4.000000,4.000000,4.000000,4.000000,2.000000,4.000000,16.666666,,,,,,,,,,,,,,,,,,,,,,,,,,,,
