title:zero2, start timestamp:1732082104.694858, stop timestamp:1732082134.366245, headset type:EPOCX, headset serial:E5020C3A, headset firmware:730, channels:67, sampling rate:eeg_128;mot_32, samples:3801      , version:2.2, 
Timestamp,OriginalTimestamp,EEG.Counter,EEG.Interpolated,EEG.AF3,EEG.F7,EEG.F3,EEG.FC5,EEG.T7,EEG.P7,EEG.O1,EEG.O2,EEG.P8,EEG.T8,EEG.FC6,EEG.F4,EEG.F8,EEG.AF4,EEG.RawCq,EEG.Battery,EEG.BatteryPercent,MarkerIndex,MarkerType,MarkerValueInt,EEG.MarkerHardware,CQ.AF3,CQ.F7,CQ.F3,CQ.FC5,CQ.T7,CQ.P7,CQ.O1,CQ.O2,CQ.P8,CQ.T8,CQ.FC6,CQ.F4,CQ.F8,CQ.AF4,CQ.Overall,EQ.SampleRateQuality,EQ.OVERALL,EQ.AF3,EQ.F7,EQ.F3,EQ.FC5,EQ.T7,EQ.P7,EQ.O1,EQ.O2,EQ.P8,EQ.T8,EQ.FC6,EQ.F4,EQ.F8,EQ.AF4,MOT.CounterMems,MOT.InterpolatedMems,MOT.Q0,MOT.Q1,MOT.Q2,MOT.Q3,MOT.AccX,MOT.AccY,MOT.AccZ,MOT.MagX,MOT.MagY,MOT.MagZ
1732082104.694858,1732082104.696749,65.000000,0.000000,4316.538574,4290.128418,4318.333496,4320.256348,4246.025879,4323.589844,4325.641113,4338.461426,4330.897461,4323.077148,4438.461426,4464.743652,4345.769043,4386.282227,1289.000000,0.000000,11.000000,,,,0.000000,2.000000,2.000000,0.000000,2.000000,2.000000,2.000000,0.000000,2.000000,4.000000,4.000000,4.000000,4.000000,2.000000,4.000000,16.666666,,,,,,,,,,,,,,,,,,,,,,,,,,,,
1732082104.702666,1732082104.704357,66.000000,0.000000,4320.512695,4291.538574,4320.256348,4318.589844,4252.307617,4318.589844,4325.384766,4336.410156,4326.410156,4323.717773,4436.666504,4466.666504,4345.512695,4384.615234,1222.000000,0.000000,11.000000,,,,0.000000,2.000000,2.000000,0.000000,2.000000,2.000000,2.000000,0.000000,2.000000,4.000000,4.000000,4.000000,4.000000,2.000000,4.000000,16.666666,,,,,,,,,,,,,,,,,,,,,,,,,,,,
1732082104.710474,1732082104.712165,67.000000,0.000000,4320.000000,4290.256348,4315.769043,4317.051270,4256.794922,4311.538574,4321.794922,4335.897461,4325.000000,4324.358887,4429.615234,4471.025879,4343.461426,4383.846191,1184.000000,0.000000,11.000000,,,,0.000000,2.000000,2.000000,0.000000,2.000000,2.000000,2.000000,0.000000,2.000000,4.000000,4.000000,4.000000,4.000000,2.000000,4.000000,16.666666,,,,,,,,,,,,,,,,,,,,,,,,,,,,
1732082104.718283,1732082104.719874,68.000000,0.000000,4316.153809,4288.205078,4316.666504,4321.025879,4251.666504,4309.230957,4318.077148,4334.102539,4324.871582,4319.230957,4431.153809,4467.948730,4341.538574,4386.025879,1190.000000,0.000000,11.000000,,,,0.000000,2.000000,2.000000,0.000000,2.000000,2.000000,2.000000,0.000000,2.000000,4.000000,4.000000,4.000000,4.000000,2.000000,4.000000,16.666666,,,,,,,,,,,,,,,,,17.000000,0.000000,0.634310,0.410095,-0.591980,0.281128,0.976682,0.173361,-0.038579,-73.641975,67.080360,28.534239
1732082104.726091,1732082104.727682,69.000000,0.000000,4318.846191,4291.922852,4321.538574,4324.102539,4252.436035,4313.717773,4315.769043,4328.846191,4321.538574,4312.948730,4427.179688,4465.512695,4339.358887,4383.846191,1072.000000,0.000000,11.000000,,,,0.000000,2.000000,2.000000,0.000000,2.000000,2.000000,2.000000,0.000000,2.000000,4.000000,4.000000,4.000000,4.000000,2.000000,4.000000,16.666666,,,,,,,,,,,,,,,,,,,,,,,,,,,,
1732082104.733899,1732082104.735290,70.000000,0.000000,4320.000000,4296.410156,4323.974121,4321.666504,4255.512695,4316.410156,4318.846191,4328.077148,4320.128418,4312.051270,4418.077148,4468.974121,4338.717773,4380.128418,188.000000,0.000000,11.000000,,,,0.000000,2.000000,2.000000,0.000000,2.000000,2.000000,2.000000,0.000000,2.000000,4.000000,4.000000,4.000000,4.000000,2.000000,4.000000,16.666666,,,,,,,,,,,,,,,,,,,,,,,,,,,,
1732082104.741707,1732082104.743099,71.000000,0.000000,4312.179688,4291.922852,4319.871582,4319.102539,4254.743652,4313.333496,4319.615234,4331.922852,4321.538574,4312.692383,4423.846191,4467.179688,4337.820313,4381.794922,1199.000000,0.000000,11.000000,,,,0.000000,2.000000,2.000000,0.000000,2.000000,2.000000,2.000000,0.000000,2.000000,4.000000,4.000000,4.000000,4.000000,2.000000,4.000000,16.666666,,,,,,,,,,,,,,,,,,,,,,,,,,,,
1732082104.749516,1732082104.751007,72.000000,0.000000,4312.563965,4287.692383,4318.205078,4318.461426,4254.743652,4310.128418,4317.563965,4332.692383,4321.153809,4313.077148,4433.205078,4461.666504,4333.974121,4383.461426,1344.000000,0.000000,11.000000,,,,0.000000,2.000000,2.000000,0.000000,2.000000,2.000000,2.000000,0.000000,2.000000,4.000000,4.000000,4.000000,4.000000,2.000000,4.000000,16.666666,,,,,,,,,,,,,,,,,18.000000,0.000000,0.633420,0.409607,-0.592834,0.282043,0.967403,0.176291,-0.028812,-73.770004,67.048424,28.499399
1732082104.757324,1732082104.758815,73.000000,0.000000,4321.410156,4292.436035,4317.820313,4318.717773,4249.871582,4310.512695,4319.102539,4331.025879,4320.769043,4313.205078,4432.179688,4463.717773,4336.922852,4385.384766,1471.000000,0.000000,11.000000,,,,0.000000,2.000000,2.000000,0.000000,2.000000,2.000000,2.000000,0.000000,2.000000,4.000000,4.000000,4.000000,4.000000,2.000000,4.000000,16.666666,,,,,,,,,,,,,,,,,,,,,,,,,,,,
1732082104.765132,1732082104.766423,74.000000,0.000000,4318.333496,4292.051270,4317.051270,4316.794922,4245.769043,4311.794922,4323.333496,4332.436035,4321.410156,4313.846191,4430.897461,4465.769043,4342.436035,4385.512695,1342.000000,0.000000,11.000000,,,,0.000000,2.000000,2.000000,0.000000,2.000000,2.000000,2.000000,0.000000,2.000000,4.000000,4.000000,4.000000,4.000000,2.000000,4.000000,16.666666,,,,,,,,,,,,,,,,,,,,,,,,,,,,
1732082104.772941,1732082104.774231,75.000000,0.000000,4307.948730,4286.282227,4317.692383,4315.256348,4255.384766,4309.743652,4320.769043,4332.179688,4320.128418,4313.589844,4429.871582,4459.230957,4335.128418,4378.717773,1489.000000,0.000000,11.000000,,,,0.000000,2.000000,2.000000,0.000000,2.000000,2.000000,2.000000,0.000000,2.000000,4.000000,4.000000,4.000000,4.000000,2.000000,4.000000,16.666666,,,,,,,,,,,,,,,,,,,,,,,,,,,,
1732082104.780749,1732082104.781940,76.000000,0.000000,4306.153809,4290.384766,4318.077148,4318.589844,4263.205078,4309.743652,4317.692383,4331.410156,4320.641113,4313.589844,4425.897461,4452.820313,4329.230957,4372.179688,1716.000000,0.000000,11.000000,,,,0.000000,2.000000,2.000000,0.000000,2.000000,2.000000,2.000000,0.000000,2.000000,4.000000,4.000000,4.000000,4.000000,2.000000,4.000000,16.666666,,,,,,,,,,,,,,,,,19.000000,0.000000,0.633175,0.409241,-0.593262,0.282227,0.963008,0.176779,-0.045416,-74.003700,67.007553,29.006180
1732082104.788557,1732082104.789748,77.000000,0.000000,4306.282227,4295.000000,4317.179688,4319.871582,4250.128418,4312.307617,4323.205078,4334.102539,4323.846191,4316.922852,4428.974121,4455.000000,4336.282227,4374.102539,1688.000000,0.000000,11.000000,,,,0.000000,2.000000,2.000000,0.000000,2.000000,2.000000,2.000000,0.000000,2.000000,4.000000,4.000000,4.000000,4.000000,2.000000,4.000000,16.666666,,,,,,,,,,,,,,,,,,,,,,,,,,,,
1732082104.796365,1732082104.797356,78.000000,0.000000,4307.436035,4293.333496,4316.666504,4316.794922,4240.128418,4311.922852,4322.307617,4336.153809,4323.333496,4320.000000,4436.666504,4456.025879,4340.897461,4378.333496,1342.000000,0.000000,11.000000,,,,0.000000,2.000000,2.000000,0.000000,2.000000,2.000000,2.000000,0.000000,2.000000,4.000000,4.000000,4.000000,4.000000,2.000000,4.000000,16.666666,1.000000,8.333333,2.000000,2.000000,0.000000,2.000000,1.000000,2.000000,0.000000,1.000000,1.000000,3.000000,4.000000,4.000000,2.000000,4.000000,,,,,,,,,,,,
1732082104.804173,1732082104.805165,79.000000,0.000000,4311.410156,4291.922852,4319.615234,4316.282227,4251.025879,4310.897461,4319.615234,4334.358887,4321.282227,4318.717773,4435.512695,4455.000000,4337.563965,4376.410156,1489.000000,0.000000,11.000000,,,,0.000000,2.000000,2.000000,0.000000,2.000000,2.000000,2.000000,0.000000,2.000000,4.000000,4.000000,4.000000,4.000000,2.000000,4.000000,16.666666,,,,,,,,,,,,,,,,,,,,,,,,,,,,
1732082104.811982,1732082104.812873,80.000000,0.000000,4311.922852,4295.897461,4318.077148,4319.230957,4258.974121,4312.563965,4321.410156,4333.974121,4322.948730,4315.641113,4433.333496,4456.794922,4338.974121,4374.487305,1716.000000,0.000000,11.000000,,,,0.000000,2.000000,2.000000,0.000000,2.000000,2.000000,2.000000,0.000000,2.000000,4.000000,4.000000,4.000000,4.000000,2.000000,4.000000,16.666666,,,,,,,,,,,,,,,,,20.000000,0.000000,0.632293,0.408630,-0.594360,0.282776,0.963008,0.191430,-0.045416,-73.976334,66.931122,29.068340
1732082104.819790,1732082104.820681,81.000000,0.000000,4312.179688,4296.538574,4318.205078,4318.589844,4254.743652,4312.820313,4323.717773,4336.410156,4324.358887,4317.436035,4431.538574,4459.615234,4340.897461,4379.615234,1688.000000,0.000000,11.000000,,,,0.000000,2.000000,2.000000,0.000000,2.000000,2.000000,2.000000,0.000000,2.000000,4.000000,4.000000,4.000000,4.000000,2.000000,4.000000,16.666666,,,,,,,,,,,,,,,,,,,,,,,,,,,,
1732082104.827598,1732082104.828689,82.000000,0.000000,4313.205078,4294.743652,4317.692383,4318.461426,4253.333496,4310.256348,4318.846191,4331.922852,4322.692383,4319.230957,4425.641113,4457.692383,4339.102539,4382.692383,1342.000000,0.000000,11.000000,,,,0.000000,2.000000,2.000000,0.000000,2.000000,2.000000,2.000000,0.000000,2.000000,4.000000,4.000000,4.000000,4.000000,2.000000,4.000000,16.666666,,,,,,,,,,,,,,,,,,,,,,,,,,,,
1732082104.835406,1732082104.836497,83.000000,0.000000,4309.615234,4295.000000,4316.538574,4319.230957,4253.077148,4309.871582,4317.563965,4326.025879,4318.461426,4313.589844,4425.256348,4448.077148,4337.307617,4377.179688,1489.000000,0.000000,11.000000,,,,0.000000,2.000000,2.000000,0.000000,2.000000,2.000000,2.000000,0.000000,2.000000,4.000000,4.000000,4.000000,4.000000,2.000000,4.000000,16.666666,,,,,,,,,,,,,,,,,,,,,,,,,,,,
1732082104.843215,1732082104.844405,84.000000,0.000000,4305.769043,4296.025879,4313.974121,4318.333496,4254.743652,4313.333496,4318.333496,4330.128418,4317.948730,4308.077148,4428.717773,4438.461426,4332.948730,4375.512695,1716.000000,0.000000,11.000000,,,,0.000000,2.000000,2.000000,0.000000,2.000000,2.000000,2.000000,0.000000,2.000000,4.000000,4.000000,4.000000,4.000000,2.000000,4.000000,16.666666,,,,,,,,,,,,,,,,,21.000000,0.000000,0.631784,0.408813,-0.594543,0.283264,0.929801,0.206080,-0.044927,-74.110832,66.927544,29.052021
1732082104.851023,1732082104.852214,85.000000,0.000000,4307.436035,4293.717773,4316.922852,4316.794922,4255.384766,4317.051270,4318.974121,4335.641113,4322.179688,4308.461426,4429.102539,4441.666504,4328.461426,4379.871582,1688.000000,0.000000,11.000000,,,,0.000000,2.000000,2.000000,0.000000,2.000000,2.000000,2.000000,0.000000,2.000000,4.000000,4.000000,4.000000,4.000000,2.000000,4.000000,16.666666,,,,,,,,,,,,,,,,,,,,,,,,,,,,
1732082104.858831,1732082104.860222,86.000000,0.000000,4314.743652,4290.384766,4317.820313,4316.153809,4250.769043,4314.102539,4320.128418,4333.589844,4324.230957,4313.077148,4432.179688,4448.461426,4336.538574,4382.307617,1342.000000,0.000000,11.000000,,,,0.000000,2.000000,2.000000,0.000000,2.000000,2.000000,2.000000,0.000000,2.000000,4.000000,4.000000,4.000000,4.000000,2.000000,4.000000,16.666666,,,,,,,,,,,,,,,,,,,,,,,,,,,,
1732082104.866640,1732082104.868030,87.000000,0.000000,4319.358887,4292.692383,4318.846191,4319.487305,4246.282227,4307.563965,4319.743652,4332.179688,4320.769043,4316.025879,4437.436035,4451.410156,4348.589844,4389.615234,1489.000000,0.000000,11.000000,,,,0.000000,2.000000,2.000000,0.000000,2.000000,2.000000,2.000000,0.000000,2.000000,4.000000,4.000000,4.000000,4.000000,2.000000,4.000000,16.666666,,,,,,,,,,,,,,,,,,,,,,,,,,,,
1732082104.874448,1732082104.875738,88.000000,0.000000,4324.487305,4299.871582,4318.974121,4324.102539,4247.051270,4307.051270,4318.974121,4334.358887,4314.871582,4311.410156,4436.794922,4454.102539,4348.205078,4398.461426,1716.000000,0.000000,11.000000,,,,0.000000,2.000000,2.000000,0.000000,2.000000,2.000000,2.000000,0.000000,2.000000,4.000000,4.000000,4.000000,4.000000,2.000000,4.000000,16.666666,,,,,,,,,,,,,,,,,22.000000,0.000000,0.631877,0.408936,-0.594360,0.283264,0.929801,0.206080,-0.044927,-74.168106,67.084641,29.153805
1732082104.882256,1732082104.883546,89.000000,0.000000,4331.282227,4302.948730,4321.025879,4326.410156,4250.128418,4308.205078,4318.846191,4334.871582,4314.102539,4305.897461,4432.179688,4453.205078,4342.436035,4398.077148,1688.000000,0.000000,11.000000,,,,0.000000,2.000000,2.000000,0.000000,2.000000,2.000000,2.000000,0.000000,2.000000,4.000000,4.000000,4.000000,4.000000,2.000000,4.000000,16.666666,,,,,,,,,,,,,,,,,,,,,,,,,,,,
1732082104.890064,1732082104.891554,90.000000,0.000000,4330.641113,4298.717773,4323.846191,4324.487305,4249.102539,4308.205078,4320.000000,4333.846191,4319.487305,4309.230957,4432.563965,4452.948730,4342.436035,4395.641113,1342.000000,0.000000,11.000000,,,,0.000000,2.000000,2.000000,0.000000,2.000000,2.000000,2.000000,0.000000,2.000000,4.000000,4.000000,4.000000,4.000000,2.000000,4.000000,16.666666,,,,,,,,,,,,,,,,,,,,,,,,,,,,
1732082104.897873,1732082104.899363,91.000000,0.000000,4329.102539,4295.384766,4322.692383,4324.102539,4250.128418,4307.820313,4321.922852,4335.641113,4321.410156,4312.179688,4433.974121,4460.256348,4347.436035,4402.179688,1489.000000,0.000000,11.000000,,,,0.000000,2.000000,2.000000,0.000000,2.000000,2.000000,2.000000,0.000000,2.000000,4.000000,4.000000,4.000000,4.000000,2.000000,4.000000,16.666666,,,,,,,,,,,,,,,,,,,,,,,,,,,,
1732082104.905681,1732082104.907271,92.000000,0.000000,4338.589844,4300.512695,4320.897461,4328.077148,4250.128418,4304.230957,4320.384766,4337.307617,4316.666504,4305.897461,4435.641113,4463.717773,4351.794922,4410.769043,1716.000000,0.000000,11.000000,,,,0.000000,2.000000,2.000000,0.000000,2.000000,2.000000,2.000000,0.000000,2.000000,4.000000,4.000000,4.000000,4.000000,2.000000,4.000000,16.666666,,,,,,,,,,,,,,,,,23.000000,0.000000,0.632146,0.409180,-0.593994,0.283081,0.928824,0.228055,-0.056648,-74.009499,67.226891,28.934582
1732082104.913489,1732082104.915079,93.000000,0.000000,4346.153809,4302.820313,4319.743652,4326.666504,4247.692383,4298.717773,4317.436035,4331.153809,4312.820313,4299.871582,4438.589844,4458.974121,4349.871582,4412.563965,1688.000000,0.000000,11.000000,,,,0.000000,2.000000,2.000000,0.000000,2.000000,2.000000,2.000000,0.000000,2.000000,4.000000,4.000000,4.000000,4.000000,2.000000,4.000000,16.666666,,,,,,,,,,,,,,,,,,,,,,,,,,,,
1732082104.921297,1732082104.923087,94.000000,0.000000,4345.256348,4298.717773,4322.307617,4323.974121,4246.282227,4296.282227,4319.615234,4326.153809,4310.512695,4299.615234,4438.333496,4459.743652,4345.512695,4413.974121,1342.000000,0.000000,11.000000,,,,0.000000,2.000000,2.000000,0.000000,2.000000,2.000000,2.000000,0.000000,2.000000,4.000000,4.000000,4.000000,4.000000,2.000000,4.000000,16.666666,,,,,,,,,,,,,,,,,,,,,,,,,,,,
1732082104.929106,1732082104.930895,95.000000,0.000000,4351.666504,4295.384766,4325.256348,4327.179688,4244.102539,4297.692383,4321.666504,4331.922852,4308.717773,4299.358887,4439.358887,4464.743652,4346.666504,4421.025879,1489.000000,0.000000,11.000000,,,,0.000000,2.000000,2.000000,0.000000,2.000000,2.000000,2.000000,0.000000,2.000000,4.000000,4.000000,4.000000,4.000000,2.000000,4.000000,16.666666,,,,,,,,,,,,,,,,,,,,,,,,,,,,
1732082104.936914,1732082104.938803,96.000000,0.000000,4361.153809,4298.974121,4329.358887,4328.077148,4243.077148,4297.051270,4325.128418,4336.666504,4308.461426,4299.743652,4441.538574,4469.102539,4348.589844,4425.000000,1716.000000,0.000000,11.000000,,,,0.000000,2.000000,2.000000,0.000000,2.000000,2.000000,2.000000,0.000000,2.000000,4.000000,4.000000,4.000000,4.000000,2.000000,4.000000,16.666666,,,,,,,,,,,,,,,,,24.000000,0.000000,0.633441,0.410522,-0.591858,0.282715,0.975217,0.207057,-0.050787,-74.214363,67.032120,28.825344
1732082104.944722,1732082104.946611,97.000000,0.000000,4361.922852,4305.384766,4327.179688,4326.153809,4241.282227,4295.641113,4324.487305,4328.974121,4309.230957,4301.410156,4442.051270,4472.563965,4347.563965,4424.871582,1688.000000,0.000000,11.000000,,,,0.000000,2.000000,2.000000,0.000000,2.000000,2.000000,2.000000,0.000000,2.000000,4.000000,4.000000,4.000000,4.000000,2.000000,4.000000,16.666666,,,,,,,,,,,,,,,,,,,,,,,,,,,,
1732082104.952530,1732082104.954619,98.000000,0.000000,4362.307617,4304.487305,4328.461426,4326.922852,4239.487305,4295.641113,4321.794922,4326.538574,4310.384766,4300.000000,4441.666504,4476.538574,4349.871582,4429.615234,1342.000000,0.000000,11.000000,,,,0.000000,2.000000,2.000000,0.000000,2.000000,2.000000,2.000000,0.000000,2.000000,4.000000,4.000000,4.000000,4.000000,2.000000,4.000000,16.666666,,,,,,,,,,,,,,,,,,,,,,,,,,,,
1732082104.960339,1732082104.962428,99.000000,0.000000,4366.922852,4296.794922,4331.153809,4327.948730,4239.102539,4296.025879,4321.794922,4334.615234,4312.948730,4301.538574,4444.615234,4480.256348,4353.333496,4434.230957,1489.000000,0.000000,11.000000,,,,0.000000,2.000000,2.000000,0.000000,2.000000,2.000000,2.000000,0.000000,2.000000,4.000000,4.000000,4.000000,4.000000,2.000000,4.000000,16.666666,,,,,,,,,,,,,,,,,,,,,,,,,,,,
1732082104.968147,1732082104.970336,100.000000,0.000000,4369.358887,4297.820313,4331.794922,4326.025879,4240.128418,4296.025879,4326.153809,4335.384766,4311.794922,4304.358887,4445.000000,4475.000000,4356.025879,4434.102539,1716.000000,0.000000,11.000000,,,,0.000000,2.000000,2.000000,0.000000,2.000000,2.000000,2.000000,0.000000,2.000000,4.000000,4.000000,4.000000,4.000000,2.000000,4.000000,16.666666,,,,,,,,,,,,,,,,,25.000000,0.000000,0.633696,0.410522,-0.591614,0.282654,0.975217,0.207057,-0.050787,-74.345299,66.876015,28.876862
1732082104.975955,1732082104.978144,101.000000,0.000000,4373.974121,4306.025879,4330.128418,4327.948730,4238.077148,4294.615234,4325.897461,4331.282227,4310.128418,4305.000000,4441.538574,4464.743652,4355.769043,4436.794922,1688.000000,0.000000,11.000000,,,,0.000000,2.000000,2.000000,0.000000,2.000000,2.000000,2.000000,0.000000,2.000000,4.000000,4.000000,4.000000,4.000000,2.000000,4.000000,16.666666,,,,,,,,,,,,,,,,,,,,,,,,,,,,
1732082104.983763,1732082104.986152,102.000000,0.000000,4378.974121,4305.512695,4331.282227,4327.436035,4236.794922,4293.717773,4323.461426,4335.000000,4312.563965,4308.077148,4444.102539,4466.538574,4353.846191,4442.436035,1342.000000,0.000000,11.000000,,,,0.000000,2.000000,2.000000,0.000000,2.000000,2.000000,2.000000,0.000000,2.000000,4.000000,4.000000,4.000000,4.000000,2.000000,4.000000,16.666666,,,,,,,,,,,,,,,,,,,,,,,,,,,,
1732082104.991572,1732082104.993960,103.000000,0.000000,4378.333496,4301.025879,4332.179688,4325.641113,4243.077148,4293.077148,4322.820313,4337.436035,4316.025879,4311.538574,4444.871582,4471.282227,4357.051270,4444.102539,1489.000000,0.000000,11.000000,,,,0.000000,2.000000,2.000000,0.000000,2.000000,2.000000,2.000000,0.000000,2.000000,4.000000,4.000000,4.000000,4.000000,2.000000,4.000000,16.666666,,,,,,,,,,,,,,,,,,,,,,,,,,,,
1732082104.999380,1732082105.001669,104.000000,0.000000,4379.230957,4303.461426,4329.487305,4327.307617,4244.358887,4291.794922,4320.641113,4330.256348,4315.128418,4310.769043,4445.128418,4464.102539,4362.307617,4443.974121,1716.000000,0.000000,11.000000,,,,0.000000,2.000000,2.000000,0.000000,2.000000,2.000000,2.000000,0.000000,2.000000,4.000000,4.000000,4.000000,4.000000,2.000000,4.000000,16.666666,,,,,,,,,,,,,,,,,26.000000,0.000000,0.633817,0.410095,-0.591431,0.283386,0.985472,0.187523,-0.045416,-74.469688,66.772903,28.931925
1732082105.007188,1732082105.009477,105.000000,0.000000,4382.820313,4308.589844,4329.487305,4326.794922,4240.512695,4291.282227,4321.794922,4330.769043,4309.871582,4308.974121,4445.000000,4462.051270,4358.077148,4445.641113,1688.000000,0.000000,11.000000,,,,0.000000,2.000000,2.000000,0.000000,2.000000,2.000000,2.000000,0.000000,2.000000,4.000000,4.000000,4.000000,4.000000,2.000000,4.000000,16.666666,,,,,,,,,,,,,,,,,,,,,,,,,,,,
1732082105.014996,1732082105.017085,106.000000,0.000000,4383.205078,4306.538574,4328.589844,4328.589844,4244.871582,4295.897461,4325.384766,4334.358887,4308.461426,4310.384766,4440.256348,4468.974121,4351.153809,4444.743652,1342.000000,0.000000,11.000000,,,,0.000000,2.000000,2.000000,0.000000,2.000000,2.000000,2.000000,0.000000,2.000000,4.000000,4.000000,4.000000,4.000000,2.000000,4.000000,16.666666,,,,,,,,,,,,,,,,,,,,,,,,,,,,
1732082105.022805,1732082105.024893,107.000000,0.000000,4385.128418,4304.358887,4327.948730,4331.538574,4249.615234,4297.436035,4325.128418,4329.102539,4309.615234,4308.717773,4444.230957,4474.615234,4354.487305,4445.128418,1489.000000,0.000000,11.000000,,,,0.000000,2.000000,2.000000,0.000000,2.000000,2.000000,2.000000,0.000000,2.000000,4.000000,4.000000,4.000000,4.000000,2.000000,4.000000,16.666666,,,,,,,,,,,,,,,,,,,,,,,,,,,,
1732082105.030613,1732082105.032602,108.000000,0.000000,4391.025879,4305.897461,4323.717773,4326.282227,4245.897461,4289.743652,4322.179688,4330.256348,4309.743652,4307.948730,4456.538574,4477.563965,4358.717773,4449.615234,1716.000000,0.000000,11.000000,,,,0.000000,2.000000,2.000000,0.000000,2.000000,2.000000,2.000000,0.000000,2.000000,4.000000,4.000000,4.000000,4.000000,2.000000,4.000000,16.666666,,,,,,,,,,,,,,,,,27.000000,0.000000,0.632222,0.407593,-0.593689,0.285828,0.971310,0.162129,-0.036137,-74.558784,66.817719,29.006525
1732082105.038421,1732082105.040410,109.000000,0.000000,4392.051270,4304.102539,4324.230957,4318.717773,4240.641113,4292.820313,4322.820313,4336.794922,4306.666504,4306.794922,4455.256348,4474.230957,4355.128418,4449.487305,1688.000000,0.000000,11.000000,,,,0.000000,2.000000,2.000000,0.000000,2.000000,2.000000,2.000000,0.000000,2.000000,4.000000,4.000000,4.000000,4.000000,2.000000,4.000000,16.666666,,,,,,,,,,,,,,,,,,,,,,,,,,,,
1732082105.046229,1732082105.048018,110.000000,0.000000,4394.487305,4304.487305,4325.256348,4324.871582,4245.897461,4295.641113,4318.461426,4330.769043,4306.538574,4305.512695,4443.077148,4467.051270,4352.692383,4445.256348,1342.000000,0.000000,11.000000,,,,0.000000,2.000000,2.000000,0.000000,2.000000,2.000000,2.000000,0.000000,2.000000,4.000000,4.000000,4.000000,4.000000,2.000000,4.000000,16.666666,,,,,,,,,,,,,,,,,,,,,,,,,,,,
1732082105.054038,1732082105.055826,111.000000,0.000000,4401.153809,4308.077148,4326.922852,4333.846191,4250.128418,4284.230957,4312.179688,4324.871582,4312.948730,4307.948730,4444.487305,4468.461426,4354.102539,4447.051270,1489.000000,0.000000,11.000000,,,,0.000000,2.000000,2.000000,0.000000,2.000000,2.000000,2.000000,0.000000,2.000000,4.000000,4.000000,4.000000,4.000000,2.000000,4.000000,16.666666,,,,,,,,,,,,,,,,,,,,,,,,,,,,
1732082105.061846,1732082105.063535,112.000000,0.000000,4405.128418,4309.615234,4320.256348,4333.974121,4246.794922,4283.717773,4312.563965,4328.717773,4312.051270,4308.974121,4455.641113,4467.051270,4355.512695,4453.717773,1716.000000,0.000000,11.000000,,,,0.000000,2.000000,2.000000,0.000000,2.000000,2.000000,2.000000,0.000000,2.000000,4.000000,4.000000,4.000000,4.000000,2.000000,4.000000,16.666666,,,,,,,,,,,,,,,,,28.000000,0.000000,0.630462,0.404236,-0.596313,0.289001,0.951288,0.145526,-0.032719,-74.622612,66.767349,28.953619
1732082105.069654,1732082105.071343,113.000000,0.000000,4404.358887,4308.461426,4317.307617,4333.077148,4248.461426,4289.743652,4315.897461,4326.282227,4304.615234,4304.358887,4456.410156,4458.974121,4356.538574,4457.179688,1688.000000,0.000000,11.000000,,,,0.000000,2.000000,2.000000,0.000000,2.000000,2.000000,2.000000,0.000000,2.000000,4.000000,4.000000,4.000000,4.000000,2.000000,4.000000,16.666666,,,,,,,,,,,,,,,,,,,,,,,,,,,,
1732082105.077463,1732082105.078951,114.000000,0.000000,4399.871582,4308.589844,4319.743652,4335.641113,4257.692383,4284.871582,4312.820313,4321.538574,4302.692383,4299.743652,4446.538574,4456.666504,4356.538574,4456.153809,1342.000000,0.000000,11.000000,,,,0.000000,2.000000,2.000000,0.000000,2.000000,2.000000,2.000000,0.000000,2.000000,4.000000,4.000000,4.000000,4.000000,2.000000,4.000000,16.666666,,,,,,,,,,,,,,,,,,,,,,,,,,,,
1732082105.085271,1732082105.086760,115.000000,0.000000,4397.820313,4305.769043,4321.538574,4337.179688,4256.410156,4285.384766,4311.282227,4323.846191,4305.256348,4301.282227,4442.436035,4456.922852,4355.769043,4453.589844,1489.000000,0.000000,11.000000,,,,0.000000,2.000000,2.000000,0.000000,2.000000,2.000000,2.000000,0.000000,2.000000,4.000000,4.000000,4.000000,4.000000,2.000000,4.000000,16.666666,,,,,,,,,,,,,,,,,,,,,,,,,,,,
1732082105.093079,1732082105.094468,116.000000,0.000000,4401.666504,4305.000000,4317.307617,4334.487305,4257.692383,4290.897461,4311.794922,4323.846191,4305.641113,4302.692383,4450.897461,4458.077148,4361.538574,4455.384766,1716.000000,0.000000,11.000000,,,,0.000000,2.000000,2.000000,0.000000,2.000000,2.000000,2.000000,0.000000,2.000000,4.000000,4.000000,4.000000,4.000000,2.000000,4.000000,16.666666,,,,,,,,,,,,,,,,,29.000000,0.000000,0.630462,0.404236,-0.596313,0.289001,0.946893,0.149921,-0.041021,-74.599319,66.621559,28.790766
1732082105.100887,1732082105.102276,117.000000,0.000000,4398.205078,4307.820313,4312.820313,4328.974121,4270.512695,4285.384766,4312.307617,4325.897461,4305.769043,4300.512695,4458.589844,4464.358887,4367.179688,4458.333496,1688.000000,0.000000,11.000000,,,,0.000000,2.000000,2.000000,0.000000,2.000000,2.000000,2.000000,0.000000,2.000000,4.000000,4.000000,4.000000,4.000000,2.000000,4.000000,16.666666,,,,,,,,,,,,,,,,,,,,,,,,,,,,
1732082105.108696,1732082105.109885,118.000000,0.000000,4393.205078,4306.025879,4313.846191,4327.948730,4268.846191,4284.102539,4311.794922,4331.282227,4309.615234,4301.410156,4455.384766,4468.461426,4366.025879,4458.205078,1342.000000,0.000000,11.000000,,,,0.000000,2.000000,2.000000,0.000000,2.000000,2.000000,2.000000,0.000000,2.000000,4.000000,4.000000,4.000000,4.000000,2.000000,4.000000,16.666666,,,,,,,,,,,,,,,,,,,,,,,,,,,,
1732082105.116504,1732082105.117693,119.000000,0.000000,4398.974121,4306.282227,4311.153809,4331.153809,4256.025879,4288.077148,4310.128418,4331.153809,4314.358887,4307.563965,4455.641113,4468.205078,4362.820313,4460.384766,1489.000000,0.000000,11.000000,,,,0.000000,2.000000,2.000000,0.000000,2.000000,2.000000,2.000000,0.000000,2.000000,4.000000,4.000000,4.000000,4.000000,2.000000,4.000000,16.666666,,,,,,,,,,,,,,,,,,,,,,,,,,,,
1732082105.124312,1732082105.125401,120.000000,0.000000,4401.282227,4307.307617,4309.487305,4331.666504,4260.128418,4284.615234,4308.717773,4329.615234,4317.820313,4312.179688,4466.410156,4470.897461,4363.205078,4462.179688,1716.000000,0.000000,11.000000,,,,0.000000,2.000000,2.000000,0.000000,2.000000,2.000000,2.000000,0.000000,2.000000,4.000000,4.000000,4.000000,4.000000,2.000000,4.000000,16.666666,,,,,,,,,,,,,,,,,30.000000,0.000000,0.629238,0.401550,-0.597961,0.291992,0.950800,0.135759,-0.035161,-74.522118,66.350128,28.900520
1732082105.132120,1732082105.133209,121.000000,0.000000,4398.589844,4306.922852,4310.384766,4331.153809,4269.871582,4284.230957,4307.563965,4329.871582,4317.307617,4313.461426,4474.358887,4473.461426,4367.436035,4461.794922,1688.000000,0.000000,11.000000,,,,0.000000,2.000000,2.000000,0.000000,2.000000,2.000000,2.000000,0.000000,2.000000,4.000000,4.000000,4.000000,4.000000,2.000000,4.000000,16.666666,,,,,,,,,,,,,,,,,,,,,,,,,,,,
1732082105.139929,1732082105.140818,122.000000,0.000000,4401.282227,4308.846191,4316.153809,4331.410156,4265.000000,4283.077148,4307.436035,4329.743652,4317.307617,4314.487305,4474.230957,4477.820313,4370.641113,4465.000000,1342.000000,0.000000,11.000000,,,,0.000000,2.000000,2.000000,0.000000,2.000000,2.000000,2.000000,0.000000,2.000000,4.000000,4.000000,4.000000,4.000000,2.000000,4.000000,16.666666,,,,,,,,,,,,,,,,,,,,,,,,,,,,
1732082105.147737,1732082105.148626,123.000000,0.000000,4400.897461,4311.794922,4313.974121,4331.538574,4262.563965,4279.358887,4303.974121,4330.000000,4321.410156,4314.871582,4470.384766,4479.230957,4369.487305,4469.230957,1489.000000,0.000000,11.000000,,,,0.000000,2.000000,2.000000,0.000000,2.000000,2.000000,2.000000,0.000000,2.000000,4.000000,4.000000,4.000000,4.000000,2.000000,4.000000,16.666666,,,,,,,,,,,,,,,,,,,,,,,,,,,,
1732082105.155545,1732082105.156534,124.000000,0.000000,4398.461426,4312.051270,4312.692383,4331.153809,4265.256348,4280.384766,4302.307617,4329.358887,4321.538574,4311.666504,4464.230957,4476.794922,4367.948730,4463.205078,1716.000000,0.000000,11.000000,,,,0.000000,2.000000,2.000000,0.000000,2.000000,2.000000,2.000000,0.000000,2.000000,4.000000,4.000000,4.000000,4.000000,2.000000,4.000000,16.666666,,,,,,,,,,,,,,,,,31.000000,0.000000,0.626623,0.395691,-0.599792,0.301697,0.968380,0.104017,-0.022952,-74.644577,65.906937,28.704420
1732082105.163353,1732082105.164342,125.000000,0.000000,4399.743652,4313.589844,4315.128418,4333.333496,4269.871582,4281.025879,4302.179688,4327.820313,4316.282227,4307.820313,4461.153809,4475.512695,4369.358887,4455.897461,1688.000000,0.000000,11.000000,,,,0.000000,2.000000,2.000000,0.000000,2.000000,2.000000,2.000000,0.000000,2.000000,4.000000,4.000000,4.000000,4.000000,2.000000,4.000000,16.666666,,,,,,,,,,,,,,,,,,,,,,,,,,,,
1732082105.171162,1732082105.171951,126.000000,0.000000,4396.666504,4315.000000,4317.179688,4333.333496,4273.077148,4280.512695,4302.692383,4327.436035,4314.230957,4306.922852,4462.692383,4476.666504,4367.563965,4455.769043,1342.000000,0.000000,11.000000,,,,0.000000,2.000000,2.000000,0.000000,2.000000,2.000000,2.000000,0.000000,2.000000,4.000000,4.000000,4.000000,4.000000,2.000000,4.000000,16.666666,,,,,,,,,,,,,,,,,,,,,,,,,,,,
1732082105.178970,1732082105.179759,127.000000,0.000000,4391.922852,4313.077148,4313.205078,4330.384766,4277.051270,4290.512695,4304.230957,4328.077148,4319.487305,4308.974121,4463.846191,4476.410156,4365.384766,4453.205078,11.000000,0.000000,11.000000,,,,0.000000,2.000000,2.000000,0.000000,2.000000,2.000000,2.000000,0.000000,2.000000,4.000000,4.000000,4.000000,4.000000,2.000000,4.000000,16.666666,,,,,,,,,,,,,,,,,,,,,,,,,,,,
1732082105.186778,1732082105.187467,0.000000,0.000000,4391.025879,4312.563965,4313.205078,4330.641113,4293.846191,4298.333496,4308.589844,4327.307617,4319.487305,4307.436035,4458.461426,4470.897461,4365.769043,4444.743652,0.000000,0.000000,11.000000,,,,0.000000,2.000000,2.000000,0.000000,2.000000,2.000000,2.000000,0.000000,2.000000,4.000000,4.000000,4.000000,4.000000,2.000000,4.000000,16.666666,,,,,,,,,,,,,,,,,0.000000,0.000000,0.625396,0.394348,-0.599731,0.306091,0.985960,0.079600,-0.025394,-74.785446,65.572952,28.678915
1732082105.194586,1732082105.195275,1.000000,0.000000,4389.871582,4314.358887,4314.871582,4329.871582,4297.051270,4296.538574,4307.179688,4327.436035,4313.589844,4305.641113,4457.436035,4464.871582,4366.025879,4441.025879,1290.000000,0.000000,11.000000,,,,0.000000,2.000000,2.000000,0.000000,2.000000,2.000000,2.000000,0.000000,2.000000,4.000000,4.000000,4.000000,4.000000,2.000000,4.000000,16.666666,,,,,,,,,,,,,,,,,,,,,,,,,,,,
1732082105.202395,1732082105.202884,2.000000,0.000000,4388.333496,4312.820313,4318.461426,4328.077148,4275.000000,4297.692383,4307.563965,4327.307617,4316.794922,4307.948730,4462.948730,4470.769043,4366.410156,4443.974121,1212.000000,0.000000,11.000000,,,,0.000000,2.000000,2.000000,0.000000,2.000000,2.000000,2.000000,0.000000,2.000000,4.000000,4.000000,4.000000,4.000000,2.000000,4.000000,16.666666,,,,,,,,,,,,,,,,,,,,,,,,,,,,
1732082105.210203,1732082105.210692,3.000000,0.000000,4388.846191,4311.410156,4322.563965,4332.948730,4267.948730,4297.948730,4311.153809,4327.179688,4323.589844,4308.461426,4462.436035,4477.307617,4366.410156,4445.641113,1182.000000,0.000000,11.000000,,,,0.000000,2.000000,2.000000,0.000000,2.000000,2.000000,2.000000,0.000000,2.000000,4.000000,4.000000,4.000000,4.000000,2.000000,4.000000,16.666666,,,,,,,,,,,,,,,,,,,,,,,,,,,,
1732082105.218011,1732082105.218400,4.000000,0.000000,4388.205078,4313.077148,4323.333496,4336.922852,4281.282227,4289.743652,4308.846191,4325.897461,4318.077148,4305.000000,4458.205078,4464.102539,4366.282227,4445.897461,1197.000000,0.000000,11.000000,,,,0.000000,2.000000,2.000000,0.000000,2.000000,2.000000,2.000000,0.000000,2.000000,4.000000,4.000000,4.000000,4.000000,2.000000,4.000000,16.666666,,,,,,,,,,,,,,,,,1.000000,0.000000,0.625396,0.394348,-0.599731,0.306091,1.000610,0.058113,-0.008302,-75.169540,65.227425,28.628254
1732082105.225819,1732082105.226208,5.000000,0.000000,4387.563965,4311.922852,4322.563965,4331.282227,4283.589844,4288.205078,4306.922852,4326.282227,4314.487305,4308.205078,4460.000000,4451.410156,4366.153809,4444.615234,1072.000000,0.000000,11.000000,,,,0.000000,2.000000,2.000000,0.000000,2.000000,2.000000,2.000000,0.000000,2.000000,4.000000,4.000000,4.000000,4.000000,2.000000,4.000000,16.666666,,,,,,,,,,,,,,,,,,,,,,,,,,,,
1732082105.233628,1732082105.234217,6.000000,0.000000,4383.589844,4307.948730,4321.282227,4325.769043,4279.102539,4297.948730,4313.461426,4330.000000,4322.051270,4316.153809,4460.128418,4461.922852,4364.871582,4440.769043,192.000000,0.000000,11.000000,,,,0.000000,2.000000,2.000000,0.000000,2.000000,2.000000,2.000000,0.000000,2.000000,4.000000,4.000000,4.000000,4.000000,2.000000,4.000000,16.666666,,,,,,,,,,,,,,,,,,,,,,,,,,,,
1732082105.241436,1732082105.242025,7.000000,0.000000,4377.307617,4306.153809,4321.153809,4325.128418,4290.256348,4298.717773,4316.153809,4328.333496,4321.922852,4313.974121,4450.641113,4471.282227,4360.000000,4435.384766,1199.000000,0.000000,11.000000,,,,0.000000,2.000000,2.000000,0.000000,2.000000,2.000000,2.000000,0.000000,2.000000,4.000000,4.000000,4.000000,4.000000,2.000000,4.000000,16.666666,,,,,,,,,,,,,,,,,,,,,,,,,,,,
1732082105.249244,1732082105.249933,8.000000,0.000000,4376.153809,4305.128418,4320.000000,4322.436035,4302.692383,4293.077148,4311.794922,4327.179688,4316.410156,4305.641113,4445.641113,4459.230957,4355.512695,4431.538574,1344.000000,0.000000,11.000000,,,,0.000000,2.000000,2.000000,0.000000,2.000000,2.000000,2.000000,0.000000,2.000000,4.000000,4.000000,4.000000,4.000000,2.000000,4.000000,16.666666,,,,,,,,,,,,,,,,,2.000000,0.000000,0.622972,0.390869,-0.600525,0.313843,0.967892,0.056648,-0.004395,-75.532326,64.990883,28.597219
1732082105.257053,1732082105.257741,9.000000,0.000000,4376.922852,4304.743652,4323.333496,4323.589844,4296.794922,4294.102539,4311.153809,4330.128418,4319.102539,4306.282227,4453.333496,4455.641113,4359.230957,4435.512695,1469.000000,0.000000,11.000000,,,,0.000000,2.000000,2.000000,0.000000,2.000000,2.000000,2.000000,0.000000,2.000000,4.000000,4.000000,4.000000,4.000000,2.000000,4.000000,16.666666,,,,,,,,,,,,,,,,,,,,,,,,,,,,
1732082105.264861,1732082105.265749,10.000000,0.000000,4375.000000,4304.871582,4323.461426,4330.641113,4285.000000,4295.641113,4312.692383,4329.743652,4323.333496,4314.358887,4460.384766,4473.205078,4363.205078,4440.769043,1347.000000,0.000000,11.000000,,,,0.000000,2.000000,2.000000,0.000000,2.000000,2.000000,2.000000,0.000000,2.000000,4.000000,4.000000,4.000000,4.000000,2.000000,4.000000,16.666666,,,,,,,,,,,,,,,,,,,,,,,,,,,,
1732082105.272669,1732082105.273557,11.000000,0.000000,4368.717773,4305.000000,4324.102539,4329.615234,4292.307617,4294.358887,4313.333496,4330.000000,4322.179688,4313.974121,4457.307617,4477.179688,4355.384766,4435.641113,1489.000000,0.000000,11.000000,,,,0.000000,2.000000,2.000000,0.000000,2.000000,2.000000,2.000000,0.000000,2.000000,4.000000,4.000000,4.000000,4.000000,2.000000,4.000000,16.666666,,,,,,,,,,,,,,,,,,,,,,,,,,,,
1732082105.280477,1732082105.281266,12.000000,0.000000,4364.743652,4305.641113,4325.512695,4324.871582,4304.743652,4296.538574,4313.461426,4334.615234,4322.179688,4309.102539,4448.461426,4464.102539,4345.641113,4427.563965,1710.000000,0.000000,11.000000,,,,0.000000,2.000000,2.000000,0.000000,2.000000,2.000000,2.000000,0.000000,2.000000,4.000000,4.000000,4.000000,4.000000,2.000000,4.000000,16.666666,,,,,,,,,,,,,,,,,3.000000,0.000000,0.622239,0.389771,-0.600525,0.316650,0.968380,0.078623,0.003418,-75.811188,64.522614,28.520414
1732082105.288286,1732082105.289074,13.000000,0.000000,4364.743652,4304.230957,4325.256348,4325.256348,4299.358887,4298.461426,4313.717773,4333.974121,4322.436035,4310.512695,4448.461426,4466.153809,4348.846191,4427.307617,1690.000000,0.000000,11.000000,,,,0.000000,2.000000,2.000000,0.000000,2.000000,2.000000,2.000000,0.000000,2.000000,4.000000,4.000000,4.000000,4.000000,2.000000,4.000000,16.666666,,,,,,,,,,,,,,,,,,,,,,,,,,,,
1732082105.296094,1732082105.297082,14.000000,0.000000,4366.922852,4300.000000,4323.333496,4327.692383,4295.512695,4295.384766,4312.179688,4329.102539,4321.282227,4313.077148,4457.436035,4478.717773,4357.692383,4429.358887,1347.000000,0.000000,11.000000,,,,0.000000,2.000000,2.000000,0.000000,2.000000,2.000000,2.000000,0.000000,2.000000,4.000000,4.000000,4.000000,4.000000,2.000000,4.000000,16.666666,1.000000,8.333333,2.000000,2.000000,0.000000,2.000000,1.000000,2.000000,0.000000,1.000000,4.000000,3.000000,4.000000,4.000000,2.000000,4.000000,,,,,,,,,,,,
1732082105.303902,1732082105.304890,15.000000,0.000000,4369.615234,4300.512695,4323.846191,4328.461426,4293.974121,4293.333496,4312.692383,4329.358887,4321.410156,4309.230957,4463.846191,4478.846191,4362.179688,4432.307617,1489.000000,0.000000,11.000000,,,,0.000000,2.000000,2.000000,0.000000,2.000000,2.000000,2.000000,0.000000,2.000000,4.000000,4.000000,4.000000,4.000000,2.000000,4.000000,16.666666,,,,,,,,,,,,,,,,,,,,,,,,,,,,
1732082105.311710,1732082105.312798,16.000000,0.000000,4369.102539,4304.358887,4325.000000,4328.974121,4295.256348,4293.717773,4310.384766,4329.358887,4320.769043,4305.897461,4461.282227,4474.871582,4362.563965,4435.128418,0.000000,0.000000,11.000000,,,,0.000000,2.000000,2.000000,0.000000,2.000000,2.000000,2.000000,0.000000,2.000000,4.000000,4.000000,4.000000,4.000000,2.000000,4.000000,16.666666,,,,,,,,,,,,,,,,,4.000000,0.000000,0.622117,0.390137,-0.600220,0.317017,0.978147,0.089855,-0.011232,-76.100395,64.201653,28.358202
1732082105.319519,1732082105.320606,17.000000,0.000000,4362.948730,4301.025879,4325.897461,4328.205078,4307.820313,4294.102539,4309.487305,4327.563965,4320.000000,4308.205078,4454.743652,4474.230957,4359.871582,4431.282227,0.000000,0.000000,11.000000,,,,0.000000,2.000000,2.000000,0.000000,2.000000,2.000000,2.000000,0.000000,2.000000,4.000000,4.000000,4.000000,4.000000,2.000000,4.000000,16.666666,,,,,,,,,,,,,,,,,,,,,,,,,,,,
1732082105.327327,1732082105.328614,18.000000,0.000000,4357.563965,4297.179688,4329.487305,4328.846191,4305.384766,4297.563965,4314.615234,4330.897461,4320.256348,4309.615234,4455.641113,4467.820313,4357.820313,4424.358887,0.000000,0.000000,11.000000,,,,0.000000,2.000000,2.000000,0.000000,2.000000,2.000000,2.000000,0.000000,2.000000,4.000000,4.000000,4.000000,4.000000,2.000000,4.000000,16.666666,,,,,,,,,,,,,,,,,,,,,,,,,,,,
1732082105.335135,1732082105.336422,19.000000,0.000000,4357.563965,4300.897461,4330.641113,4334.743652,4289.871582,4305.512695,4321.025879,4335.256348,4319.487305,4305.641113,4455.512695,4466.922852,4355.256348,4421.025879,0.000000,0.000000,11.000000,,,,0.000000,2.000000,2.000000,0.000000,2.000000,2.000000,2.000000,0.000000,2.000000,4.000000,4.000000,4.000000,4.000000,2.000000,4.000000,16.666666,,,,,,,,,,,,,,,,,,,,,,,,,,,,
1732082105.342943,1732082105.344331,20.000000,0.000000,4356.922852,4303.589844,4325.384766,4334.743652,4293.717773,4307.436035,4318.589844,4334.615234,4319.743652,4303.717773,4451.794922,4473.974121,4352.692383,4420.512695,0.000000,0.000000,11.000000,,,,0.000000,2.000000,2.000000,0.000000,2.000000,2.000000,2.000000,0.000000,2.000000,4.000000,4.000000,4.000000,4.000000,2.000000,4.000000,16.666666,,,,,,,,,,,,,,,,,5.000000,0.000000,0.622002,0.391296,-0.599487,0.317200,0.982053,0.109877,-0.021487,-76.137985,63.846668,28.335144
1732082105.350752,1732082105.352139,21.000000,0.000000,4351.410156,4301.410156,4323.461426,4327.820313,4303.589844,4302.179688,4315.128418,4332.179688,4321.410156,4309.487305,4456.666504,4475.128418,4358.846191,4420.128418,0.000000,0.000000,11.000000,,,,0.000000,2.000000,2.000000,0.000000,2.000000,2.000000,2.000000,0.000000,2.000000,4.000000,4.000000,4.000000,4.000000,2.000000,4.000000,16.666666,,,,,,,,,,,,,,,,,,,,,,,,,,,,
1732082105.358560,1732082105.360147,22.000000,0.000000,4345.512695,4298.846191,4323.077148,4322.436035,4296.282227,4300.000000,4317.820313,4334.230957,4322.436035,4315.897461,4462.307617,4472.820313,4365.641113,4421.666504,0.000000,0.000000,11.000000,,,,0.000000,2.000000,2.000000,0.000000,2.000000,2.000000,2.000000,0.000000,2.000000,4.000000,4.000000,4.000000,4.000000,2.000000,4.000000,16.666666,,,,,,,,,,,,,,,,,,,,,,,,,,,,
1732082105.366368,1732082105.367955,23.000000,0.000000,4345.897461,4298.974121,4318.974121,4322.436035,4291.794922,4301.666504,4318.974121,4335.769043,4324.230957,4315.641113,4459.615234,4474.615234,4362.051270,4422.820313,0.000000,0.000000,11.000000,,,,0.000000,2.000000,2.000000,0.000000,2.000000,2.000000,2.000000,0.000000,2.000000,4.000000,4.000000,4.000000,4.000000,2.000000,4.000000,16.666666,,,,,,,,,,,,,,,,,,,,,,,,,,,,
1732082105.374176,1732082105.375863,24.000000,0.000000,4345.897461,4298.974121,4316.025879,4323.589844,4306.025879,4301.282227,4311.922852,4332.051270,4325.897461,4314.102539,4456.410156,4469.615234,4356.794922,4418.717773,0.000000,0.000000,11.000000,,,,0.000000,2.000000,2.000000,0.000000,2.000000,2.000000,2.000000,0.000000,2.000000,4.000000,4.000000,4.000000,4.000000,2.000000,4.000000,16.666666,,,,,,,,,,,,,,,,,6.000000,0.000000,0.620937,0.394775,-0.598633,0.316589,0.992309,0.112807,-0.025394,-76.418434,63.617470,28.379799
1732082105.381985,1732082105.383671,25.000000,0.000000,4338.333496,4297.051270,4316.666504,4321.666504,4313.205078,4302.820313,4308.974121,4330.512695,4325.256348,4313.974121,4454.102539,4461.538574,4356.410156,4408.461426,0.000000,0.000000,11.000000,,,,0.000000,2.000000,2.000000,0.000000,2.000000,2.000000,2.000000,0.000000,2.000000,4.000000,4.000000,4.000000,4.000000,2.000000,4.000000,16.666666,,,,,,,,,,,,,,,,,,,,,,,,,,,,
1732082105.389793,1732082105.391280,26.000000,0.000000,4337.051270,4295.256348,4316.153809,4321.025879,4298.333496,4307.692383,4315.769043,4335.128418,4324.487305,4314.871582,4449.871582,4463.333496,4354.358887,4403.717773,0.000000,0.000000,11.000000,,,,0.000000,2.000000,2.000000,0.000000,2.000000,2.000000,2.000000,0.000000,2.000000,4.000000,4.000000,4.000000,4.000000,2.000000,4.000000,16.666666,,,,,,,,,,,,,,,,,,,,,,,,,,,,
1732082105.397601,1732082105.399088,27.000000,0.000000,4343.974121,4296.794922,4318.077148,4322.692383,4289.871582,4310.000000,4318.205078,4337.563965,4327.179688,4317.307617,4453.846191,4468.205078,4354.487305,4410.256348,0.000000,0.000000,11.000000,,,,0.000000,2.000000,2.000000,0.000000,2.000000,2.000000,2.000000,0.000000,2.000000,4.000000,4.000000,4.000000,4.000000,2.000000,4.000000,16.666666,,,,,,,,,,,,,,,,,,,,,,,,,,,,
1732082105.405409,1732082105.406996,28.000000,0.000000,4345.512695,4298.717773,4319.743652,4325.641113,4299.743652,4308.974121,4314.743652,4334.615234,4323.846191,4314.871582,4459.358887,4471.025879,4358.333496,4415.769043,0.000000,0.000000,11.000000,,,,0.000000,2.000000,2.000000,0.000000,2.000000,2.000000,2.000000,0.000000,2.000000,4.000000,4.000000,4.000000,4.000000,2.000000,4.000000,16.666666,,,,,,,,,,,,,,,,,7.000000,0.000000,0.619805,0.395996,-0.598999,0.316589,0.966427,0.090831,-0.036137,-76.448929,63.358482,28.254305
1732082105.413218,1732082105.414804,29.000000,0.000000,4344.487305,4297.692383,4317.307617,4329.615234,4298.077148,4309.871582,4314.358887,4333.205078,4316.538574,4310.512695,4453.974121,4476.922852,4355.256348,4415.000000,0.000000,0.000000,11.000000,,,,0.000000,2.000000,2.000000,0.000000,2.000000,2.000000,2.000000,0.000000,2.000000,4.000000,4.000000,4.000000,4.000000,2.000000,4.000000,16.666666,,,,,,,,,,,,,,,,,,,,,,,,,,,,
1732082105.421026,1732082105.422413,30.000000,0.000000,4346.538574,4298.077148,4318.461426,4331.410156,4297.307617,4309.871582,4317.948730,4335.769043,4316.410156,4311.410156,4450.897461,4480.897461,4351.153809,4415.769043,0.000000,0.000000,11.000000,,,,0.000000,2.000000,2.000000,0.000000,2.000000,2.000000,2.000000,0.000000,2.000000,4.000000,4.000000,4.000000,4.000000,2.000000,4.000000,16.666666,,,,,,,,,,,,,,,,,,,,,,,,,,,,
1732082105.428834,1732082105.430221,31.000000,0.000000,4344.358887,4299.487305,4321.410156,4328.589844,4313.333496,4307.051270,4317.307617,4335.000000,4320.897461,4312.820313,4457.307617,4483.589844,4354.230957,4421.666504,0.000000,0.000000,11.000000,,,,0.000000,2.000000,2.000000,0.000000,2.000000,2.000000,2.000000,0.000000,2.000000,4.000000,4.000000,4.000000,4.000000,2.000000,4.000000,16.666666,,,,,,,,,,,,,,,,,,,,,,,,,,,,
1732082105.436643,1732082105.437929,32.000000,0.000000,4341.153809,4300.512695,4319.743652,4326.794922,4307.948730,4305.641113,4317.179688,4334.743652,4321.666504,4310.897461,4458.077148,4488.205078,4356.410156,4421.794922,0.000000,0.000000,11.000000,,,,0.000000,2.000000,2.000000,0.000000,2.000000,2.000000,2.000000,0.000000,2.000000,4.000000,4.000000,4.000000,4.000000,2.000000,4.000000,16.666666,,,,,,,,,,,,,,,,,8.000000,0.000000,0.619065,0.396545,-0.599304,0.316772,0.966427,0.090831,-0.036137,-76.480301,63.190372,28.035986
1732082105.444451,1732082105.445737,33.000000,0.000000,4341.538574,4300.769043,4318.846191,4328.974121,4287.948730,4309.358887,4318.077148,4338.077148,4323.461426,4312.051270,4452.948730,4488.589844,4356.025879,4418.205078,0.000000,0.000000,11.000000,,,,0.000000,2.000000,2.000000,0.000000,2.000000,2.000000,2.000000,0.000000,2.000000,4.000000,4.000000,4.000000,4.000000,2.000000,4.000000,16.666666,,,,,,,,,,,,,,,,,,,,,,,,,,,,
1732082105.452259,1732082105.453346,34.000000,0.000000,4336.025879,4297.948730,4321.794922,4328.589844,4295.256348,4312.692383,4320.256348,4340.128418,4326.538574,4314.487305,4454.871582,4484.487305,4355.128418,4415.769043,0.000000,0.000000,11.000000,,,,0.000000,2.000000,2.000000,0.000000,2.000000,2.000000,2.000000,0.000000,2.000000,4.000000,4.000000,4.000000,4.000000,2.000000,4.000000,16.666666,,,,,,,,,,,,,,,,,,,,,,,,,,,,
1732082105.460067,1732082105.461154,35.000000,0.000000,4331.282227,4298.205078,4321.794922,4328.205078,4303.205078,4311.666504,4320.384766,4341.282227,4327.436035,4315.384766,4457.051270,4480.512695,4352.051270,4413.077148,0.000000,0.000000,11.000000,,,,0.000000,2.000000,2.000000,0.000000,2.000000,2.000000,2.000000,0.000000,2.000000,4.000000,4.000000,4.000000,4.000000,2.000000,4.000000,16.666666,,,,,,,,,,,,,,,,,,,,,,,,,,,,
1732082105.467876,1732082105.469062,36.000000,0.000000,4332.307617,4301.025879,4323.077148,4328.589844,4296.410156,4310.384766,4319.615234,4341.794922,4326.025879,4314.743652,4451.410156,4476.922852,4350.769043,4412.948730,0.000000,0.000000,11.000000,,,,0.000000,2.000000,2.000000,0.000000,2.000000,2.000000,2.000000,0.000000,2.000000,4.000000,4.000000,4.000000,4.000000,2.000000,4.000000,16.666666,,,,,,,,,,,,,,,,,9.000000,0.000000,0.616683,0.397217,-0.601440,0.316528,0.997680,0.125504,-0.070809,-76.544044,63.062534,27.905815
1732082105.475684,1732082105.476870,37.000000,0.000000,4331.410156,4297.179688,4321.666504,4326.025879,4304.871582,4308.974121,4318.461426,4340.256348,4325.512695,4312.948730,4452.307617,4474.615234,4353.461426,4411.410156,0.000000,0.000000,11.000000,,,,0.000000,2.000000,2.000000,0.000000,2.000000,2.000000,2.000000,0.000000,2.000000,4.000000,4.000000,4.000000,4.000000,2.000000,4.000000,16.666666,,,,,,,,,,,,,,,,,,,,,,,,,,,,
1732082105.483492,1732082105.484479,38.000000,0.000000,4327.692383,4295.769043,4317.051270,4324.358887,4307.948730,4305.641113,4316.153809,4340.384766,4327.436035,4311.410156,4457.948730,4473.589844,4356.410156,4407.820313,0.000000,0.000000,11.000000,,,,0.000000,2.000000,2.000000,0.000000,2.000000,2.000000,2.000000,0.000000,2.000000,4.000000,4.000000,4.000000,4.000000,2.000000,4.000000,16.666666,,,,,,,,,,,,,,,,,,,,,,,,,,,,
1732082105.491300,1732082105.492287,39.000000,0.000000,4327.563965,4305.128418,4316.282227,4325.512695,4291.410156,4304.743652,4312.307617,4339.743652,4326.410156,4311.538574,4455.256348,4474.487305,4357.948730,4406.794922,0.000000,0.000000,11.000000,,,,0.000000,2.000000,2.000000,0.000000,2.000000,2.000000,2.000000,0.000000,2.000000,4.000000,4.000000,4.000000,4.000000,2.000000,4.000000,16.666666,,,,,,,,,,,,,,,,,,,,,,,,,,,,
1732082105.499109,1732082105.499995,40.000000,0.000000,4327.820313,4304.487305,4320.000000,4324.230957,4289.871582,4305.512695,4310.256348,4336.410156,4323.589844,4310.512695,4450.384766,4473.846191,4355.769043,4405.641113,0.000000,0.000000,11.000000,,,,0.000000,2.000000,2.000000,0.000000,2.000000,2.000000,2.000000,0.000000,2.000000,4.000000,4.000000,4.000000,4.000000,2.000000,4.000000,16.666666,,,,,,,,,,,,,,,,,10.000000,0.000000,0.615296,0.396973,-0.602539,0.317444,0.968868,0.102063,-0.069344,-76.545677,62.992321,27.750378
1732082105.506917,1732082105.507803,41.000000,0.000000,4324.743652,4296.282227,4319.615234,4321.153809,4299.230957,4307.307617,4310.897461,4338.077148,4326.282227,4314.615234,4455.641113,4471.666504,4351.794922,4402.948730,0.000000,0.000000,11.000000,,,,0.000000,2.000000,2.000000,0.000000,2.000000,2.000000,2.000000,0.000000,2.000000,4.000000,4.000000,4.000000,4.000000,2.000000,4.000000,16.666666,,,,,,,,,,,,,,,,,,,,,,,,,,,,
1732082105.514725,1732082105.515412,42.000000,0.000000,4320.128418,4300.000000,4317.051270,4319.615234,4298.589844,4310.384766,4312.436035,4340.128418,4329.358887,4319.615234,4457.563965,4469.615234,4349.743652,4402.820313,0.000000,0.000000,11.000000,,,,0.000000,2.000000,2.000000,0.000000,2.000000,2.000000,2.000000,0.000000,2.000000,4.000000,4.000000,4.000000,4.000000,2.000000,4.000000,16.666666,,,,,,,,,,,,,,,,,,,,,,,,,,,,
1732082105.522533,1732082105.523220,43.000000,0.000000,4317.179688,4303.333496,4317.948730,4321.538574,4294.487305,4312.307617,4315.897461,4337.948730,4326.410156,4319.871582,4447.436035,4469.230957,4347.179688,4400.641113,0.000000,0.000000,11.000000,,,,0.000000,2.000000,2.000000,0.000000,2.000000,2.000000,2.000000,0.000000,2.000000,4.000000,4.000000,4.000000,4.000000,2.000000,4.000000,16.666666,,,,,,,,,,,,,,,,,,,,,,,,,,,,
1732082105.530342,1732082105.530928,44.000000,0.000000,4317.563965,4296.538574,4321.282227,4322.307617,4295.128418,4311.794922,4318.461426,4340.641113,4325.641113,4319.487305,4445.256348,4469.230957,4345.641113,4395.769043,0.000000,0.000000,11.000000,,,,0.000000,2.000000,2.000000,0.000000,2.000000,2.000000,2.000000,0.000000,2.000000,4.000000,4.000000,4.000000,4.000000,2.000000,4.000000,16.666666,,,,,,,,,,,,,,,,,11.000000,0.000000,0.614430,0.396790,-0.603027,0.318420,0.942010,0.085460,-0.063973,-76.695328,62.867111,27.512806
1732082105.538150,1732082105.538737,45.000000,0.000000,4315.769043,4294.871582,4322.179688,4317.692383,4303.974121,4309.743652,4317.948730,4342.563965,4326.538574,4316.794922,4450.384766,4471.666504,4344.230957,4396.794922,0.000000,0.000000,11.000000,,,,0.000000,2.000000,2.000000,0.000000,2.000000,2.000000,2.000000,0.000000,2.000000,4.000000,4.000000,4.000000,4.000000,2.000000,4.000000,16.666666,,,,,,,,,,,,,,,,,,,,,,,,,,,,
1732082105.545958,1732082105.546345,46.000000,0.000000,4311.666504,4298.461426,4322.179688,4314.743652,4308.589844,4306.410156,4315.000000,4337.051270,4324.743652,4314.102539,4442.563965,4474.230957,4341.794922,4397.948730,0.000000,0.000000,11.000000,,,,0.000000,2.000000,2.000000,0.000000,2.000000,2.000000,2.000000,0.000000,2.000000,4.000000,4.000000,4.000000,4.000000,2.000000,4.000000,16.666666,,,,,,,,,,,,,,,,,,,,,,,,,,,,
1732082105.553766,1732082105.554153,47.000000,0.000000,4313.974121,4298.205078,4324.230957,4320.512695,4294.871582,4307.436035,4316.794922,4337.563965,4327.820313,4318.717773,4438.461426,4472.820313,4343.974121,4398.846191,0.000000,0.000000,11.000000,,,,0.000000,2.000000,2.000000,0.000000,2.000000,2.000000,2.000000,0.000000,2.000000,4.000000,4.000000,4.000000,4.000000,2.000000,4.000000,16.666666,,,,,,,,,,,,,,,,,,,,,,,,,,,,
1732082105.561575,1732082105.562061,48.000000,0.000000,4320.128418,4300.128418,4323.717773,4323.974121,4290.769043,4313.077148,4317.820313,4343.077148,4331.410156,4322.307617,4454.230957,4473.205078,4351.153809,4406.025879,0.000000,0.000000,11.000000,,,,0.000000,2.000000,2.000000,0.000000,2.000000,2.000000,2.000000,0.000000,2.000000,4.000000,4.000000,4.000000,4.000000,2.000000,4.000000,16.666666,,,,,,,,,,,,,,,,,12.000000,0.000000,0.611868,0.395569,-0.604553,0.321960,0.947381,0.074228,-0.053717,-76.531555,62.734028,27.573706
1732082105.569383,1732082105.569870,49.000000,0.000000,4320.384766,4304.102539,4322.307617,4320.769043,4305.641113,4311.538574,4317.692383,4343.589844,4328.461426,4315.769043,4458.205078,4475.897461,4352.436035,4407.948730,0.000000,0.000000,11.000000,,,,0.000000,2.000000,2.000000,0.000000,2.000000,2.000000,2.000000,0.000000,2.000000,4.000000,4.000000,4.000000,4.000000,2.000000,4.000000,16.666666,,,,,,,,,,,,,,,,,,,,,,,,,,,,
1732082105.577191,1732082105.577878,50.000000,0.000000,4318.077148,4301.922852,4324.487305,4320.512695,4306.153809,4307.179688,4316.410156,4342.692383,4325.769043,4309.487305,4449.358887,4477.051270,4348.717773,4405.256348,0.000000,0.000000,11.000000,,,,0.000000,2.000000,2.000000,0.000000,2.000000,2.000000,2.000000,0.000000,2.000000,4.000000,4.000000,4.000000,4.000000,2.000000,4.000000,16.666666,,,,,,,,,,,,,,,,,,,,,,,,,,,,
1732082105.584999,1732082105.585686,51.000000,0.000000,4321.666504,4298.846191,4326.025879,4323.846191,4301.282227,4308.717773,4315.256348,4341.794922,4323.974121,4308.205078,4454.743652,4481.410156,4347.692383,4408.717773,0.000000,0.000000,11.000000,,,,0.000000,2.000000,2.000000,0.000000,2.000000,2.000000,2.000000,0.000000,2.000000,4.000000,4.000000,4.000000,4.000000,2.000000,4.000000,16.666666,,,,,,,,,,,,,,,,,,,,,,,,,,,,
1732082105.592808,1732082105.593394,52.000000,0.000000,4324.230957,4298.974121,4324.102539,4321.410156,4304.230957,4311.538574,4314.230957,4342.179688,4323.589844,4310.384766,4462.948730,4483.974121,4349.358887,4414.102539,0.000000,0.000000,11.000000,,,,0.000000,2.000000,2.000000,0.000000,2.000000,2.000000,2.000000,0.000000,2.000000,4.000000,4.000000,4.000000,4.000000,2.000000,4.000000,16.666666,,,,,,,,,,,,,,,,,13.000000,0.000000,0.610071,0.395203,-0.604614,0.325684,0.950311,0.082041,-0.031254,-76.602226,62.821228,27.306368
1732082105.600616,1732082105.601202,53.000000,0.000000,4318.974121,4300.000000,4324.743652,4315.897461,4303.974121,4310.769043,4314.871582,4344.102539,4326.794922,4314.615234,4454.615234,4481.025879,4350.769043,4409.743652,0.000000,0.000000,11.000000,,,,0.000000,2.000000,2.000000,0.000000,2.000000,2.000000,2.000000,0.000000,2.000000,4.000000,4.000000,4.000000,4.000000,2.000000,4.000000,16.666666,,,,,,,,,,,,,,,,,,,,,,,,,,,,
1732082105.608424,1732082105.608811,54.000000,0.000000,4311.538574,4298.077148,4321.922852,4316.025879,4311.410156,4308.077148,4314.487305,4342.563965,4327.820313,4311.153809,4441.922852,4469.743652,4343.717773,4398.589844,0.000000,0.000000,11.000000,,,,0.000000,2.000000,2.000000,0.000000,2.000000,2.000000,2.000000,0.000000,2.000000,4.000000,4.000000,4.000000,4.000000,2.000000,4.000000,16.666666,,,,,,,,,,,,,,,,,,,,,,,,,,,,
1732082105.616233,1732082105.616619,55.000000,0.000000,4306.282227,4292.436035,4317.948730,4317.820313,4314.230957,4307.307617,4315.641113,4339.871582,4324.871582,4306.666504,4439.871582,4462.692383,4334.871582,4392.051270,0.000000,0.000000,11.000000,,,,0.000000,2.000000,2.000000,0.000000,2.000000,2.000000,2.000000,0.000000,2.000000,4.000000,4.000000,4.000000,4.000000,2.000000,4.000000,16.666666,,,,,,,,,,,,,,,,,,,,,,,,,,,,
1732082105.624041,1732082105.624327,56.000000,0.000000,4307.563965,4292.051270,4319.487305,4317.820313,4300.384766,4310.897461,4317.307617,4342.436035,4328.333496,4311.666504,4443.077148,4469.615234,4337.563965,4393.077148,0.000000,0.000000,11.000000,,,,0.000000,2.000000,2.000000,0.000000,2.000000,2.000000,2.000000,0.000000,2.000000,4.000000,4.000000,4.000000,4.000000,2.000000,4.000000,16.666666,,,,,,,,,,,,,,,,,14.000000,0.000000,0.610016,0.395508,-0.603943,0.326660,0.976682,0.075693,-0.036137,-76.592804,62.908527,27.123159
1732082105.631849,1732082105.632135,57.000000,0.000000,4313.974121,4301.538574,4322.179688,4321.282227,4296.025879,4312.051270,4317.307617,4344.102539,4333.077148,4315.128418,4444.102539,4479.615234,4342.436035,4397.692383,0.000000,0.000000,11.000000,,,,0.000000,2.000000,2.000000,0.000000,2.000000,2.000000,2.000000,0.000000,2.000000,4.000000,4.000000,4.000000,4.000000,2.000000,4.000000,16.666666,,,,,,,,,,,,,,,,,,,,,,,,,,,,
1732082105.639657,1732082105.640143,58.000000,0.000000,4315.641113,4309.487305,4317.948730,4325.512695,4303.589844,4306.282227,4316.025879,4340.897461,4329.743652,4312.436035,4443.589844,4480.512695,4343.846191,4402.179688,0.000000,0.000000,11.000000,,,,0.000000,2.000000,2.000000,0.000000,2.000000,2.000000,2.000000,0.000000,2.000000,4.000000,4.000000,4.000000,4.000000,2.000000,4.000000,16.666666,,,,,,,,,,,,,,,,,,,,,,,,,,,,
1732082105.647466,1732082105.647952,59.000000,0.000000,4313.333496,4305.256348,4315.641113,4320.512695,4302.948730,4303.846191,4314.358887,4340.512695,4325.897461,4313.846191,4445.641113,4474.102539,4346.153809,4401.794922,0.000000,0.000000,11.000000,,,,0.000000,2.000000,2.000000,0.000000,2.000000,2.000000,2.000000,0.000000,2.000000,4.000000,4.000000,4.000000,4.000000,2.000000,4.000000,16.666666,,,,,,,,,,,,,,,,,,,,,,,,,,,,
1732082105.655274,1732082105.655860,60.000000,0.000000,4311.794922,4300.256348,4318.461426,4316.922852,4299.230957,4311.025879,4315.256348,4342.563965,4327.563965,4314.743652,4442.051270,4472.692383,4346.153809,4396.922852,0.000000,0.000000,11.000000,,,,0.000000,2.000000,2.000000,0.000000,2.000000,2.000000,2.000000,0.000000,2.000000,4.000000,4.000000,4.000000,4.000000,2.000000,4.000000,16.666666,,,,,,,,,,,,,,,,,15.000000,0.000000,0.610057,0.395508,-0.603638,0.327148,0.997680,0.074228,-0.033207,-76.701836,62.514240,26.878092
1732082105.663082,1732082105.663668,61.000000,0.000000,4311.410156,4301.025879,4318.589844,4322.436035,4303.846191,4313.589844,4314.871582,4342.051270,4329.102539,4310.384766,4431.282227,4475.641113,4340.000000,4394.102539,0.000000,0.000000,11.000000,,,,0.000000,2.000000,2.000000,0.000000,2.000000,2.000000,2.000000,0.000000,2.000000,4.000000,4.000000,4.000000,4.000000,2.000000,4.000000,16.666666,,,,,,,,,,,,,,,,,,,,,,,,,,,,
1732082105.670890,1732082105.671676,62.000000,0.000000,4310.641113,4302.436035,4317.179688,4321.282227,4314.102539,4302.948730,4311.538574,4340.000000,4327.307617,4310.897461,4428.333496,4472.307617,4335.384766,4392.051270,0.000000,0.000000,11.000000,,,,0.000000,2.000000,2.000000,0.000000,2.000000,2.000000,2.000000,0.000000,2.000000,4.000000,4.000000,4.000000,4.000000,2.000000,4.000000,16.666666,,,,,,,,,,,,,,,,,,,,,,,,,,,,
1732082105.678699,1732082105.679484,63.000000,0.000000,4310.641113,4300.897461,4318.077148,4312.820313,4314.871582,4297.563965,4309.102539,4337.692383,4326.153809,4315.512695,4434.102539,4461.922852,4336.282227,4391.538574,0.000000,0.000000,11.000000,,,,0.000000,2.000000,2.000000,0.000000,2.000000,2.000000,2.000000,0.000000,2.000000,4.000000,4.000000,4.000000,4.000000,2.000000,4.000000,16.666666,,,,,,,,,,,,,,,,,,,,,,,,,,,,
1732082105.686507,1732082105.687392,64.000000,0.000000,4308.717773,4298.846191,4318.717773,4313.205078,4300.000000,4305.897461,4312.820313,4335.256348,4324.871582,4316.025879,4432.563965,4457.948730,4333.974121,4391.153809,0.000000,0.000000,11.000000,,,,0.000000,2.000000,2.000000,0.000000,2.000000,2.000000,2.000000,0.000000,2.000000,4.000000,4.000000,4.000000,4.000000,2.000000,4.000000,16.666666,,,,,,,,,,,,,,,,,16.000000,0.000000,0.610053,0.394043,-0.603638,0.328918,0.992309,0.054206,-0.025394,-76.768486,62.119869,26.726254
1732082105.694315,1732082105.695200,65.000000,0.000000,4307.436035,4302.179688,4319.743652,4321.282227,4299.102539,4311.666504,4313.077148,4334.102539,4323.461426,4314.230957,4424.615234,4461.025879,4327.307617,4388.077148,1294.000000,0.000000,11.000000,,,,0.000000,2.000000,2.000000,0.000000,2.000000,2.000000,2.000000,0.000000,2.000000,4.000000,4.000000,4.000000,4.000000,2.000000,4.000000,16.666666,,,,,,,,,,,,,,,,,,,,,,,,,,,,
1732082105.702123,1732082105.703208,66.000000,0.000000,4307.051270,4304.743652,4321.922852,4322.692383,4312.820313,4307.563965,4311.025879,4335.000000,4323.077148,4312.436035,4426.025879,4461.025879,4326.025879,4382.692383,1214.000000,0.000000,11.000000,,,,0.000000,2.000000,2.000000,0.000000,2.000000,2.000000,2.000000,0.000000,2.000000,4.000000,4.000000,4.000000,4.000000,2.000000,4.000000,16.666666,,,,,,,,,,,,,,,,,,,,,,,,,,,,
1732082105.709931,1732082105.711017,67.000000,0.000000,4306.538574,4301.538574,4321.410156,4320.641113,4307.820313,4306.153809,4312.563965,4336.282227,4320.512695,4310.384766,4428.974121,4459.871582,4325.384766,4381.794922,1179.000000,0.000000,11.000000,,,,0.000000,2.000000,2.000000,0.000000,2.000000,2.000000,2.000000,0.000000,2.000000,4.000000,4.000000,4.000000,4.000000,2.000000,4.000000,16.666666,,,,,,,,,,,,,,,,,,,,,,,,,,,,
1732082105.717740,1732082105.718925,68.000000,0.000000,4308.205078,4301.025879,4322.948730,4323.461426,4308.974121,4310.897461,4315.128418,4335.769043,4319.615234,4308.205078,4420.897461,4458.846191,4318.205078,4383.333496,1190.000000,0.000000,11.000000,,,,0.000000,2.000000,2.000000,0.000000,2.000000,2.000000,2.000000,0.000000,2.000000,4.000000,4.000000,4.000000,4.000000,2.000000,4.000000,16.666666,,,,,,,,,,,,,,,,,17.000000,0.000000,0.609831,0.393127,-0.604126,0.329529,0.985472,0.054206,-0.038091,-77.105804,61.920425,26.889933
1732082105.725548,1732082105.726733,69.000000,0.000000,4310.128418,4306.282227,4323.461426,4325.641113,4323.846191,4312.692383,4314.358887,4333.589844,4322.563965,4308.589844,4417.948730,4458.589844,4317.948730,4381.922852,1072.000000,0.000000,11.000000,,,,0.000000,2.000000,2.000000,0.000000,2.000000,2.000000,2.000000,0.000000,2.000000,4.000000,4.000000,4.000000,4.000000,2.000000,4.000000,16.666666,,,,,,,,,,,,,,,,,,,,,,,,,,,,
1732082105.733356,1732082105.734741,70.000000,0.000000,4305.128418,4305.384766,4322.563965,4323.205078,4312.179688,4311.794922,4314.230957,4337.179688,4325.384766,4312.820313,4426.538574,4460.512695,4323.589844,4381.410156,192.000000,0.000000,11.000000,,,,0.000000,2.000000,2.000000,0.000000,2.000000,2.000000,2.000000,0.000000,2.000000,4.000000,4.000000,4.000000,4.000000,2.000000,4.000000,16.666666,,,,,,,,,,,,,,,,,,,,,,,,,,,,
1732082105.741165,1732082105.742549,71.000000,0.000000,4298.589844,4300.512695,4321.538574,4321.794922,4296.538574,4311.153809,4310.897461,4341.794922,4328.589844,4317.179688,4430.256348,4459.487305,4325.897461,4384.102539,1199.000000,0.000000,11.000000,,,,0.000000,2.000000,2.000000,0.000000,2.000000,2.000000,2.000000,0.000000,2.000000,4.000000,4.000000,4.000000,4.000000,2.000000,4.000000,16.666666,,,,,,,,,,,,,,,,,,,,,,,,,,,,
1732082105.748973,1732082105.750457,72.000000,0.000000,4299.487305,4300.769043,4321.666504,4319.615234,4305.256348,4310.384766,4311.153809,4337.948730,4328.717773,4316.410156,4428.717773,4457.948730,4329.487305,4388.974121,1344.000000,0.000000,11.000000,,,,0.000000,2.000000,2.000000,0.000000,2.000000,2.000000,2.000000,0.000000,2.000000,4.000000,4.000000,4.000000,4.000000,2.000000,4.000000,16.666666,,,,,,,,,,,,,,,,,18.000000,0.000000,0.609831,0.393127,-0.604126,0.329529,0.982053,0.051764,-0.023440,-77.244034,61.998878,27.037512
1732082105.756781,1732082105.758266,73.000000,0.000000,4299.871582,4298.333496,4320.256348,4312.179688,4315.512695,4309.487305,4313.205078,4335.256348,4324.102539,4313.974121,4428.333496,4460.000000,4330.769043,4386.922852,1469.000000,0.000000,11.000000,,,,0.000000,2.000000,2.000000,0.000000,2.000000,2.000000,2.000000,0.000000,2.000000,4.000000,4.000000,4.000000,4.000000,2.000000,4.000000,16.666666,,,,,,,,,,,,,,,,,,,,,,,,,,,,
1732082105.764589,1732082105.766274,74.000000,0.000000,4293.461426,4295.128418,4322.563965,4308.717773,4311.410156,4310.512695,4312.436035,4340.769043,4323.333496,4314.615234,4428.077148,4458.974121,4324.487305,4379.358887,1357.000000,0.000000,11.000000,,,,0.000000,2.000000,2.000000,0.000000,2.000000,2.000000,2.000000,0.000000,2.000000,4.000000,4.000000,4.000000,4.000000,2.000000,4.000000,16.666666,,,,,,,,,,,,,,,,,,,,,,,,,,,,
1732082105.772398,1732082105.774082,75.000000,0.000000,4291.794922,4299.615234,4322.563965,4312.563965,4309.230957,4312.820313,4313.333496,4343.333496,4327.307617,4313.846191,4423.205078,4457.051270,4319.743652,4377.051270,1489.000000,0.000000,11.000000,,,,0.000000,2.000000,2.000000,0.000000,2.000000,2.000000,2.000000,0.000000,2.000000,4.000000,4.000000,4.000000,4.000000,2.000000,4.000000,16.666666,,,,,,,,,,,,,,,,,,,,,,,,,,,,
1732082105.780206,1732082105.781990,76.000000,0.000000,4297.436035,4302.692383,4318.589844,4316.282227,4321.666504,4312.563965,4314.230957,4339.743652,4326.410156,4309.230957,4415.512695,4458.077148,4318.333496,4378.717773,1725.000000,0.000000,11.000000,,,,0.000000,2.000000,2.000000,0.000000,2.000000,2.000000,2.000000,0.000000,2.000000,4.000000,4.000000,4.000000,4.000000,2.000000,4.000000,16.666666,,,,,,,,,,,,,,,,,19.000000,0.000000,0.609525,0.391602,-0.605225,0.329895,0.963008,0.060554,-0.043951,-77.264336,61.800758,27.087051
1732082105.788014,1732082105.789798,77.000000,0.000000,4297.436035,4298.974121,4319.358887,4315.128418,4324.743652,4311.025879,4313.461426,4339.358887,4324.615234,4308.205078,4417.179688,4453.333496,4318.846191,4381.025879,1690.000000,0.000000,11.000000,,,,0.000000,2.000000,2.000000,0.000000,2.000000,2.000000,2.000000,0.000000,2.000000,4.000000,4.000000,4.000000,4.000000,2.000000,4.000000,16.666666,,,,,,,,,,,,,,,,,,,,,,,,,,,,
1732082105.795823,1732082105.797406,78.000000,0.000000,4295.000000,4297.307617,4320.641113,4311.666504,4310.641113,4311.153809,4312.948730,4342.179688,4328.461426,4313.461426,4427.692383,4448.717773,4325.128418,4379.102539,1357.000000,0.000000,11.000000,,,,0.000000,2.000000,2.000000,0.000000,2.000000,2.000000,2.000000,0.000000,2.000000,4.000000,4.000000,4.000000,4.000000,2.000000,4.000000,16.666666,1.000000,8.333333,2.000000,2.000000,0.000000,2.000000,1.000000,2.000000,0.000000,1.000000,4.000000,3.000000,4.000000,4.000000,2.000000,3.000000,,,,,,,,,,,,
1732082105.803631,1732082105.805215,79.000000,0.000000,4296.410156,4302.307617,4319.487305,4312.563965,4304.743652,4312.820313,4315.641113,4342.563965,4330.897461,4315.897461,4433.205078,4450.641113,4324.743652,4375.000000,1489.000000,0.000000,11.000000,,,,0.000000,2.000000,2.000000,0.000000,2.000000,2.000000,2.000000,0.000000,2.000000,4.000000,4.000000,4.000000,4.000000,2.000000,4.000000,16.666666,,,,,,,,,,,,,,,,,,,,,,,,,,,,
1732082105.811439,1732082105.812923,80.000000,0.000000,4298.589844,4305.384766,4317.307617,4316.410156,4311.153809,4313.589844,4312.436035,4339.871582,4330.128418,4311.794922,4424.871582,4450.000000,4318.717773,4373.077148,1725.000000,0.000000,11.000000,,,,0.000000,2.000000,2.000000,0.000000,2.000000,2.000000,2.000000,0.000000,2.000000,4.000000,4.000000,4.000000,4.000000,2.000000,4.000000,16.666666,,,,,,,,,,,,,,,,,20.000000,0.000000,0.609247,0.391846,-0.605347,0.329895,0.968868,0.085460,-0.028324,-77.407448,61.725281,26.990511
1732082105.819247,1732082105.820731,81.000000,0.000000,4298.974121,4303.333496,4318.461426,4313.974121,4316.666504,4311.025879,4310.512695,4334.487305,4327.436035,4307.051270,4417.820313,4444.615234,4319.487305,4375.000000,1690.000000,0.000000,11.000000,,,,0.000000,2.000000,2.000000,0.000000,2.000000,2.000000,2.000000,0.000000,2.000000,4.000000,4.000000,4.000000,4.000000,2.000000,4.000000,16.666666,,,,,,,,,,,,,,,,,,,,,,,,,,,,
1732082105.827056,1732082105.828340,82.000000,0.000000,4296.410156,4304.102539,4320.256348,4313.333496,4320.000000,4308.717773,4311.538574,4335.384766,4324.743652,4306.922852,4422.051270,4445.641113,4323.974121,4376.794922,1357.000000,0.000000,11.000000,,,,0.000000,2.000000,2.000000,0.000000,2.000000,2.000000,2.000000,0.000000,2.000000,4.000000,4.000000,4.000000,4.000000,2.000000,4.000000,16.666666,,,,,,,,,,,,,,,,,,,,,,,,,,,,
1732082105.834864,1732082105.836148,83.000000,0.000000,4294.871582,4307.436035,4321.282227,4318.717773,4312.948730,4312.692383,4314.871582,4341.922852,4327.051270,4308.846191,4426.025879,4448.974121,4324.230957,4372.179688,1489.000000,0.000000,11.000000,,,,0.000000,2.000000,2.000000,0.000000,2.000000,2.000000,2.000000,0.000000,2.000000,4.000000,4.000000,4.000000,4.000000,2.000000,4.000000,16.666666,,,,,,,,,,,,,,,,,,,,,,,,,,,,
1732082105.842672,1732082105.843856,84.000000,0.000000,4298.333496,4306.410156,4317.820313,4314.487305,4303.974121,4316.025879,4318.205078,4343.846191,4330.128418,4308.461426,4423.846191,4445.512695,4318.461426,4367.307617,1725.000000,0.000000,11.000000,,,,0.000000,2.000000,2.000000,0.000000,2.000000,2.000000,2.000000,0.000000,2.000000,4.000000,4.000000,4.000000,4.000000,2.000000,4.000000,16.666666,,,,,,,,,,,,,,,,,21.000000,0.000000,0.609592,0.392395,-0.605042,0.329163,0.977170,0.077646,-0.031254,-77.450035,61.652477,27.013981
1732082105.850480,1732082105.851664,85.000000,0.000000,4300.000000,4300.384766,4315.128418,4305.128418,4306.282227,4314.102539,4316.794922,4340.256348,4328.333496,4308.205078,4421.025879,4443.205078,4317.948730,4369.102539,1690.000000,0.000000,11.000000,,,,0.000000,2.000000,2.000000,0.000000,2.000000,2.000000,2.000000,0.000000,2.000000,4.000000,4.000000,4.000000,4.000000,2.000000,4.000000,16.666666,,,,,,,,,,,,,,,,,,,,,,,,,,,,
1732082105.858288,1732082105.859273,86.000000,0.000000,4295.769043,4295.128418,4316.794922,4304.230957,4311.282227,4310.512695,4313.717773,4340.128418,4325.000000,4308.974121,4424.615234,4443.846191,4323.077148,4373.077148,1357.000000,0.000000,11.000000,,,,0.000000,2.000000,2.000000,0.000000,2.000000,2.000000,2.000000,0.000000,2.000000,4.000000,4.000000,4.000000,4.000000,2.000000,4.000000,16.666666,,,,,,,,,,,,,,,,,,,,,,,,,,,,
1732082105.866097,1732082105.867081,87.000000,0.000000,4293.717773,4295.641113,4318.077148,4305.384766,4316.153809,4309.487305,4314.743652,4342.179688,4324.743652,4308.205078,4426.282227,4443.717773,4324.358887,4370.769043,1489.000000,0.000000,11.000000,,,,0.000000,2.000000,2.000000,0.000000,2.000000,2.000000,2.000000,0.000000,2.000000,4.000000,4.000000,4.000000,4.000000,2.000000,4.000000,16.666666,,,,,,,,,,,,,,,,,,,,,,,,,,,,
1732082105.873905,1732082105.874989,88.000000,0.000000,4296.922852,4299.743652,4314.743652,4308.846191,4312.436035,4314.358887,4316.922852,4343.333496,4328.717773,4309.615234,4427.307617,4444.871582,4323.589844,4372.820313,1725.000000,0.000000,11.000000,,,,0.000000,2.000000,2.000000,0.000000,2.000000,2.000000,2.000000,0.000000,2.000000,4.000000,4.000000,4.000000,4.000000,2.000000,4.000000,16.666666,,,,,,,,,,,,,,,,,22.000000,0.000000,0.609685,0.392456,-0.605042,0.328918,0.977170,0.077646,-0.031254,-77.301193,61.655174,27.169659
1732082105.881713,1732082105.882797,89.000000,0.000000,4298.589844,4302.820313,4316.025879,4314.871582,4299.102539,4317.820313,4316.153809,4344.102539,4333.333496,4312.692383,4429.615234,4447.051270,4324.743652,4379.230957,1690.000000,0.000000,11.000000,,,,0.000000,2.000000,2.000000,0.000000,2.000000,2.000000,2.000000,0.000000,2.000000,4.000000,4.000000,4.000000,4.000000,2.000000,4.000000,16.666666,,,,,,,,,,,,,,,,,,,,,,,,,,,,
1732082105.889521,1732082105.890406,90.000000,0.000000,4296.922852,4302.051270,4318.589844,4312.179688,4299.358887,4313.589844,4313.974121,4343.974121,4333.846191,4313.333496,4428.461426,4447.051270,4324.615234,4379.358887,1357.000000,0.000000,11.000000,,,,0.000000,2.000000,2.000000,0.000000,2.000000,2.000000,2.000000,0.000000,2.000000,4.000000,4.000000,4.000000,4.000000,2.000000,4.000000,16.666666,,,,,,,,,,,,,,,,,,,,,,,,,,,,
1732082105.897330,1732082105.898214,91.000000,0.000000,4296.410156,4300.256348,4318.717773,4308.461426,4309.743652,4309.102539,4313.717773,4342.820313,4331.666504,4313.846191,4429.487305,4450.384766,4325.641113,4380.256348,1489.000000,0.000000,11.000000,,,,0.000000,2.000000,2.000000,0.000000,2.000000,2.000000,2.000000,0.000000,2.000000,4.000000,4.000000,4.000000,4.000000,2.000000,4.000000,16.666666,,,,,,,,,,,,,,,,,,,,,,,,,,,,
1732082105.905138,1732082105.905922,92.000000,0.000000,4296.922852,4301.282227,4316.666504,4313.077148,4315.641113,4310.512695,4313.846191,4342.563965,4333.333496,4316.410156,4430.512695,4451.794922,4327.307617,4379.743652,1725.000000,0.000000,11.000000,,,,0.000000,2.000000,2.000000,0.000000,2.000000,2.000000,2.000000,0.000000,2.000000,4.000000,4.000000,4.000000,4.000000,2.000000,4.000000,16.666666,,,,,,,,,,,,,,,,,23.000000,0.000000,0.609575,0.393250,-0.604736,0.328735,0.982053,0.079600,-0.026859,-77.147301,61.390690,27.024090
1732082105.912946,1732082105.913730,93.000000,0.000000,4296.153809,4305.512695,4316.794922,4315.000000,4315.897461,4311.410156,4312.692383,4342.948730,4333.846191,4317.051270,4429.743652,4443.846191,4324.743652,4371.794922,1690.000000,0.000000,11.000000,,,,0.000000,2.000000,2.000000,0.000000,2.000000,2.000000,2.000000,0.000000,2.000000,4.000000,4.000000,4.000000,4.000000,2.000000,4.000000,16.666666,,,,,,,,,,,,,,,,,,,,,,,,,,,,
1732082105.920755,1732082105.921339,94.000000,0.000000,4294.358887,4307.563965,4317.051270,4311.794922,4304.615234,4310.641113,4314.743652,4342.436035,4331.153809,4313.974121,4427.948730,4441.025879,4322.563965,4367.051270,1357.000000,0.000000,11.000000,,,,0.000000,2.000000,2.000000,0.000000,2.000000,2.000000,2.000000,0.000000,2.000000,4.000000,4.000000,4.000000,4.000000,2.000000,4.000000,16.666666,,,,,,,,,,,,,,,,,,,,,,,,,,,,
1732082105.928563,1732082105.929147,95.000000,0.000000,4293.589844,4306.922852,4316.538574,4312.820313,4299.358887,4312.563965,4317.051270,4341.538574,4330.384766,4313.461426,4429.102539,4447.820313,4324.615234,4373.461426,1489.000000,0.000000,11.000000,,,,0.000000,2.000000,2.000000,0.000000,2.000000,2.000000,2.000000,0.000000,2.000000,4.000000,4.000000,4.000000,4.000000,2.000000,4.000000,16.666666,,,,,,,,,,,,,,,,,,,,,,,,,,,,
1732082105.936371,1732082105.936855,96.000000,0.000000,4295.769043,4311.153809,4318.717773,4318.974121,4311.922852,4310.641113,4317.179688,4341.538574,4330.641113,4315.256348,4430.128418,4444.615234,4326.282227,4374.743652,1725.000000,0.000000,11.000000,,,,0.000000,2.000000,2.000000,0.000000,2.000000,2.000000,2.000000,0.000000,2.000000,4.000000,4.000000,4.000000,4.000000,2.000000,4.000000,16.666666,,,,,,,,,,,,,,,,,24.000000,0.000000,0.609542,0.393250,-0.604736,0.328796,0.974728,0.073739,-0.041021,-77.372643,61.613125,26.869513
1732082105.944179,1732082105.944664,97.000000,0.000000,4296.410156,4312.563965,4320.128418,4321.025879,4315.512695,4308.717773,4313.205078,4342.179688,4329.358887,4312.948730,4429.230957,4438.077148,4325.512695,4369.743652,1690.000000,0.000000,11.000000,,,,0.000000,2.000000,2.000000,0.000000,2.000000,2.000000,2.000000,0.000000,2.000000,4.000000,4.000000,4.000000,4.000000,2.000000,4.000000,16.666666,,,,,,,,,,,,,,,,,,,,,,,,,,,,
1732082105.951988,1732082105.952272,98.000000,0.000000,4291.410156,4305.512695,4318.333496,4316.922852,4305.000000,4311.282227,4313.717773,4343.974121,4329.102539,4310.000000,4430.000000,4448.589844,4321.794922,4371.025879,1357.000000,0.000000,11.000000,,,,0.000000,2.000000,2.000000,0.000000,2.000000,2.000000,2.000000,0.000000,2.000000,4.000000,4.000000,4.000000,4.000000,2.000000,4.000000,16.666666,,,,,,,,,,,,,,,,,,,,,,,,,,,,
1732082105.959796,1732082105.960080,99.000000,0.000000,4289.102539,4304.615234,4316.282227,4316.153809,4308.717773,4309.743652,4313.974121,4341.922852,4329.743652,4309.743652,4427.692383,4454.615234,4322.692383,4373.205078,1489.000000,0.000000,11.000000,,,,0.000000,2.000000,2.000000,0.000000,2.000000,2.000000,2.000000,0.000000,2.000000,4.000000,4.000000,4.000000,4.000000,2.000000,4.000000,16.666666,,,,,,,,,,,,,,,,,,,,,,,,,,,,
1732082105.967604,1732082105.967988,100.000000,0.000000,4292.307617,4309.871582,4318.461426,4318.974121,4320.128418,4306.153809,4312.692383,4336.922852,4326.410156,4308.717773,4428.589844,4445.512695,4326.538574,4372.563965,1725.000000,0.000000,11.000000,,,,0.000000,2.000000,2.000000,0.000000,2.000000,2.000000,2.000000,0.000000,2.000000,4.000000,4.000000,4.000000,4.000000,2.000000,4.000000,16.666666,,,,,,,,,,,,,,,,,25.000000,0.000000,0.609521,0.393188,-0.604797,0.328796,0.974728,0.073739,-0.041021,-77.465179,61.583298,26.879305
1732082105.975412,1732082105.975797,101.000000,0.000000,4291.922852,4310.128418,4317.563965,4317.563965,4309.102539,4309.102539,4312.820313,4336.538574,4324.615234,4310.769043,4437.307617,4443.846191,4325.897461,4371.666504,1690.000000,0.000000,11.000000,,,,0.000000,2.000000,2.000000,0.000000,2.000000,2.000000,2.000000,0.000000,2.000000,4.000000,4.000000,4.000000,4.000000,2.000000,4.000000,16.666666,,,,,,,,,,,,,,,,,,,,,,,,,,,,
1732082105.983221,1732082105.983805,102.000000,0.000000,4288.077148,4305.128418,4316.410156,4316.538574,4293.205078,4315.512695,4316.538574,4341.922852,4326.666504,4313.974121,4439.102539,4447.692383,4322.051270,4369.487305,1357.000000,0.000000,11.000000,,,,0.000000,2.000000,2.000000,0.000000,2.000000,2.000000,2.000000,0.000000,2.000000,4.000000,4.000000,4.000000,4.000000,2.000000,4.000000,16.666666,,,,,,,,,,,,,,,,,,,,,,,,,,,,
1732082105.991029,1732082105.991613,103.000000,0.000000,4290.641113,4302.948730,4317.051270,4320.641113,4301.410156,4312.948730,4318.333496,4346.025879,4329.871582,4312.436035,4438.077148,4447.307617,4325.897461,4372.563965,1489.000000,0.000000,11.000000,,,,0.000000,2.000000,2.000000,0.000000,2.000000,2.000000,2.000000,0.000000,2.000000,4.000000,4.000000,4.000000,4.000000,2.000000,4.000000,16.666666,,,,,,,,,,,,,,,,,,,,,,,,,,,,
1732082105.998837,1732082105.999521,104.000000,0.000000,4295.128418,4306.025879,4316.282227,4320.512695,4305.512695,4306.794922,4316.794922,4344.743652,4330.256348,4311.666504,4441.538574,4451.794922,4332.179688,4380.769043,1725.000000,0.000000,11.000000,,,,0.000000,2.000000,2.000000,0.000000,2.000000,2.000000,2.000000,0.000000,2.000000,4.000000,4.000000,4.000000,4.000000,2.000000,4.000000,16.666666,,,,,,,,,,,,,,,,,26.000000,0.000000,0.609024,0.392944,-0.605225,0.329224,0.970333,0.074228,-0.034672,-77.536789,61.535805,26.952238
1732082106.006646,1732082106.007329,105.000000,0.000000,4296.025879,4309.230957,4313.717773,4316.538574,4299.615234,4306.282227,4314.743652,4342.436035,4330.128418,4315.000000,4441.922852,4459.102539,4329.871582,4381.410156,1690.000000,0.000000,11.000000,,,,0.000000,2.000000,2.000000,0.000000,2.000000,2.000000,2.000000,0.000000,2.000000,4.000000,4.000000,4.000000,4.000000,2.000000,4.000000,16.666666,,,,,,,,,,,,,,,,,,,,,,,,,,,,
1732082106.014454,1732082106.015337,106.000000,0.000000,4297.307617,4307.307617,4317.051270,4314.871582,4315.897461,4305.512695,4313.974121,4340.384766,4329.487305,4314.871582,4436.025879,4454.743652,4327.051270,4375.897461,1357.000000,0.000000,11.000000,,,,0.000000,2.000000,2.000000,0.000000,2.000000,2.000000,2.000000,0.000000,2.000000,4.000000,4.000000,4.000000,4.000000,2.000000,4.000000,16.666666,,,,,,,,,,,,,,,,,,,,,,,,,,,,
1732082106.022262,1732082106.023145,107.000000,0.000000,4298.205078,4306.282227,4319.743652,4316.410156,4319.102539,4306.282227,4317.563965,4341.153809,4330.000000,4314.743652,4436.025879,4449.743652,4333.077148,4378.461426,1489.000000,0.000000,11.000000,,,,0.000000,2.000000,2.000000,0.000000,2.000000,2.000000,2.000000,0.000000,2.000000,4.000000,4.000000,4.000000,4.000000,2.000000,4.000000,16.666666,,,,,,,,,,,,,,,,,,,,,,,,,,,,
1732082106.030070,1732082106.031053,108.000000,0.000000,4294.615234,4310.769043,4317.820313,4317.563965,4297.179688,4309.871582,4320.000000,4343.077148,4333.589844,4315.897461,4440.384766,4452.820313,4336.282227,4381.025879,1725.000000,0.000000,11.000000,,,,0.000000,2.000000,2.000000,0.000000,2.000000,2.000000,2.000000,0.000000,2.000000,4.000000,4.000000,4.000000,4.000000,2.000000,4.000000,16.666666,,,,,,,,,,,,,,,,,27.000000,0.000000,0.608867,0.392700,-0.605408,0.329468,0.982542,0.069344,-0.045416,-77.458138,61.530670,27.006311
1732082106.037878,1732082106.038862,109.000000,0.000000,4293.974121,4311.538574,4315.641113,4315.769043,4297.563965,4310.641113,4318.974121,4341.538574,4332.436035,4315.256348,4441.794922,4457.179688,4330.384766,4375.897461,1690.000000,0.000000,11.000000,,,,0.000000,2.000000,2.000000,0.000000,2.000000,2.000000,2.000000,0.000000,2.000000,4.000000,4.000000,4.000000,4.000000,2.000000,4.000000,16.666666,,,,,,,,,,,,,,,,,,,,,,,,,,,,
1732082106.045687,1732082106.046870,110.000000,0.000000,4295.128418,4308.846191,4317.436035,4315.769043,4308.333496,4309.871582,4318.205078,4340.641113,4329.487305,4313.846191,4435.256348,4461.666504,4328.333496,4374.487305,1357.000000,0.000000,11.000000,,,,0.000000,2.000000,2.000000,0.000000,2.000000,2.000000,2.000000,0.000000,2.000000,4.000000,4.000000,4.000000,4.000000,2.000000,4.000000,16.666666,,,,,,,,,,,,,,,,,,,,,,,,,,,,
1732082106.053495,1732082106.054678,111.000000,0.000000,4288.333496,4311.282227,4318.974121,4315.512695,4312.948730,4312.179688,4319.487305,4343.205078,4332.563965,4314.230957,4430.512695,4457.307617,4332.563965,4375.512695,1489.000000,0.000000,11.000000,,,,0.000000,2.000000,2.000000,0.000000,2.000000,2.000000,2.000000,0.000000,2.000000,4.000000,4.000000,4.000000,4.000000,2.000000,4.000000,16.666666,,,,,,,,,,,,,,,,,,,,,,,,,,,,
1732082106.061303,1732082106.062586,112.000000,0.000000,4283.205078,4310.512695,4315.769043,4310.897461,4316.410156,4312.948730,4318.205078,4341.922852,4334.358887,4316.153809,4438.717773,4446.666504,4334.358887,4373.077148,1725.000000,0.000000,11.000000,,,,0.000000,2.000000,2.000000,0.000000,2.000000,2.000000,2.000000,0.000000,2.000000,4.000000,4.000000,4.000000,4.000000,2.000000,4.000000,16.666666,,,,,,,,,,,,,,,,,28.000000,0.000000,0.608867,0.392700,-0.605408,0.329468,0.980100,0.069344,-0.041509,-77.259422,61.466507,27.065113
1732082106.069111,1732082106.070394,113.000000,0.000000,4285.256348,4302.051270,4311.538574,4306.922852,4306.153809,4309.743652,4318.077148,4335.256348,4325.641113,4312.307617,4440.769043,4440.384766,4332.436035,4369.871582,1690.000000,0.000000,11.000000,,,,0.000000,2.000000,2.000000,0.000000,2.000000,2.000000,2.000000,0.000000,2.000000,4.000000,4.000000,4.000000,4.000000,2.000000,4.000000,16.666666,,,,,,,,,,,,,,,,,,,,,,,,,,,,
1732082106.076920,1732082106.078402,114.000000,0.000000,4282.436035,4303.589844,4311.538574,4308.461426,4295.769043,4311.153809,4317.307617,4336.410156,4320.512695,4304.615234,4427.948730,4435.256348,4328.077148,4368.589844,1357.000000,0.000000,11.000000,,,,0.000000,2.000000,2.000000,0.000000,2.000000,2.000000,2.000000,0.000000,2.000000,4.000000,4.000000,4.000000,4.000000,2.000000,4.000000,16.666666,,,,,,,,,,,,,,,,,,,,,,,,,,,,
1732082106.084728,1732082106.086210,115.000000,0.000000,4279.230957,4311.025879,4315.641113,4308.589844,4305.641113,4312.307617,4318.717773,4342.563965,4325.128418,4305.128418,4424.230957,4430.512695,4322.948730,4366.025879,1489.000000,0.000000,11.000000,,,,0.000000,2.000000,2.000000,0.000000,2.000000,2.000000,2.000000,0.000000,2.000000,4.000000,4.000000,4.000000,4.000000,2.000000,4.000000,16.666666,,,,,,,,,,,,,,,,,,,,,,,,,,,,
1732082106.092536,1732082106.094118,116.000000,0.000000,4285.512695,4309.358887,4315.000000,4308.205078,4311.666504,4310.641113,4319.615234,4341.538574,4330.000000,4311.538574,4434.102539,4431.538574,4321.794922,4365.641113,1725.000000,0.000000,11.000000,,,,0.000000,2.000000,2.000000,0.000000,2.000000,2.000000,2.000000,0.000000,2.000000,4.000000,4.000000,4.000000,4.000000,2.000000,4.000000,16.666666,,,,,,,,,,,,,,,,,29.000000,0.000000,0.608858,0.392517,-0.605469,0.329590,0.973752,0.079111,-0.039067,-77.273468,61.472874,26.862741
1732082106.100345,1732082106.101927,117.000000,0.000000,4287.179688,4306.025879,4314.487305,4309.615234,4305.000000,4308.461426,4318.717773,4338.974121,4329.487305,4311.922852,4436.794922,4440.128418,4325.769043,4371.153809,1690.000000,0.000000,11.000000,,,,0.000000,2.000000,2.000000,0.000000,2.000000,2.000000,2.000000,0.000000,2.000000,4.000000,4.000000,4.000000,4.000000,2.000000,4.000000,16.666666,,,,,,,,,,,,,,,,,,,,,,,,,,,,
1732082106.108153,1732082106.109935,118.000000,0.000000,4279.615234,4307.436035,4317.179688,4310.256348,4307.307617,4308.077148,4318.846191,4340.641113,4328.333496,4312.307617,4435.512695,4446.153809,4329.615234,4367.948730,1357.000000,0.000000,11.000000,,,,0.000000,2.000000,2.000000,0.000000,2.000000,2.000000,2.000000,0.000000,2.000000,4.000000,4.000000,4.000000,4.000000,2.000000,4.000000,16.666666,,,,,,,,,,,,,,,,,,,,,,,,,,,,
1732082106.115961,1732082106.117743,119.000000,0.000000,4278.589844,4307.948730,4318.077148,4311.153809,4307.692383,4310.641113,4322.051270,4346.153809,4333.077148,4316.794922,4437.307617,4445.512695,4330.641113,4363.589844,1489.000000,0.000000,11.000000,,,,0.000000,2.000000,2.000000,0.000000,2.000000,2.000000,2.000000,0.000000,2.000000,4.000000,4.000000,4.000000,4.000000,2.000000,4.000000,16.666666,,,,,,,,,,,,,,,,,,,,,,,,,,,,
1732082106.123769,1732082106.125651,120.000000,0.000000,4279.615234,4304.358887,4314.230957,4310.128418,4311.922852,4311.538574,4320.897461,4348.717773,4336.666504,4314.230957,4436.025879,4444.743652,4328.974121,4370.641113,1725.000000,0.000000,11.000000,,,,0.000000,2.000000,2.000000,0.000000,2.000000,2.000000,2.000000,0.000000,2.000000,4.000000,4.000000,4.000000,4.000000,2.000000,4.000000,16.666666,,,,,,,,,,,,,,,,,30.000000,0.000000,0.608912,0.392639,-0.605469,0.329346,0.986449,0.063484,-0.044439,-77.303177,61.551361,27.017155
1732082106.131578,1732082106.133459,121.000000,0.000000,4279.487305,4301.794922,4317.179688,4307.820313,4321.282227,4309.487305,4318.205078,4344.871582,4332.563965,4307.692383,4431.282227,4446.153809,4325.256348,4372.307617,1690.000000,0.000000,11.000000,,,,0.000000,2.000000,2.000000,0.000000,2.000000,2.000000,2.000000,0.000000,2.000000,4.000000,4.000000,4.000000,4.000000,2.000000,4.000000,16.666666,,,,,,,,,,,,,,,,,,,,,,,,,,,,
1732082106.139386,1732082106.141167,122.000000,0.000000,4285.256348,4302.563965,4319.230957,4311.538574,4309.615234,4309.487305,4319.615234,4340.512695,4329.102539,4309.230957,4428.589844,4438.461426,4322.436035,4362.307617,1357.000000,0.000000,11.000000,,,,0.000000,2.000000,2.000000,0.000000,2.000000,2.000000,2.000000,0.000000,2.000000,4.000000,4.000000,4.000000,4.000000,2.000000,4.000000,16.666666,,,,,,,,,,,,,,,,,,,,,,,,,,,,
1732082106.147194,1732082106.148976,123.000000,0.000000,4287.692383,4304.743652,4315.641113,4316.538574,4294.487305,4312.051270,4320.384766,4343.205078,4330.000000,4309.615234,4425.256348,4428.589844,4319.743652,4361.794922,1489.000000,0.000000,11.000000,,,,0.000000,2.000000,2.000000,0.000000,2.000000,2.000000,2.000000,0.000000,2.000000,4.000000,4.000000,4.000000,4.000000,2.000000,4.000000,16.666666,,,,,,,,,,,,,,,,,,,,,,,,,,,,
1732082106.155002,1732082106.156884,124.000000,0.000000,4287.692383,4305.769043,4317.692383,4312.436035,4305.512695,4311.538574,4320.641113,4344.743652,4327.948730,4303.077148,4418.717773,4435.384766,4317.692383,4368.333496,1725.000000,0.000000,11.000000,,,,0.000000,2.000000,2.000000,0.000000,2.000000,2.000000,2.000000,0.000000,2.000000,4.000000,4.000000,4.000000,4.000000,2.000000,4.000000,16.666666,,,,,,,,,,,,,,,,,31.000000,0.000000,0.608926,0.392822,-0.605469,0.329102,0.967403,0.072763,-0.048346,-77.305573,61.576603,26.988895
1732082106.162811,1732082106.164692,125.000000,0.000000,4290.641113,4304.871582,4321.538574,4309.358887,4316.794922,4310.256348,4320.128418,4340.384766,4324.871582,4300.769043,4422.307617,4443.589844,4319.358887,4365.641113,1690.000000,0.000000,11.000000,,,,0.000000,2.000000,2.000000,0.000000,2.000000,2.000000,2.000000,0.000000,2.000000,4.000000,4.000000,4.000000,4.000000,2.000000,4.000000,16.666666,,,,,,,,,,,,,,,,,,,,,,,,,,,,
1732082106.170619,1732082106.172700,126.000000,0.000000,4291.666504,4305.641113,4317.436035,4312.563965,4301.922852,4309.615234,4319.230957,4338.717773,4325.512695,4306.025879,4432.436035,4442.692383,4323.333496,4365.384766,1357.000000,0.000000,11.000000,,,,0.000000,2.000000,2.000000,0.000000,2.000000,2.000000,2.000000,0.000000,2.000000,4.000000,4.000000,4.000000,4.000000,2.000000,4.000000,16.666666,,,,,,,,,,,,,,,,,,,,,,,,,,,,
1732082106.178427,1732082106.180508,127.000000,0.000000,4288.589844,4307.179688,4314.487305,4311.666504,4302.692383,4307.179688,4318.974121,4336.282227,4326.410156,4307.436035,4432.820313,4446.025879,4324.487305,4370.384766,11.000000,0.000000,11.000000,,,,0.000000,2.000000,2.000000,0.000000,2.000000,2.000000,2.000000,0.000000,2.000000,4.000000,4.000000,4.000000,4.000000,2.000000,4.000000,16.666666,,,,,,,,,,,,,,,,,,,,,,,,,,,,
1732082106.186236,1732082106.188216,0.000000,0.000000,4290.769043,4310.256348,4319.743652,4310.512695,4320.641113,4306.538574,4320.128418,4333.205078,4324.230957,4301.794922,4426.922852,4446.922852,4322.692383,4369.871582,0.000000,0.000000,11.000000,,,,0.000000,2.000000,2.000000,0.000000,2.000000,2.000000,2.000000,0.000000,2.000000,4.000000,4.000000,4.000000,4.000000,2.000000,4.000000,16.666666,,,,,,,,,,,,,,,,,0.000000,0.000000,0.608868,0.393005,-0.605408,0.329102,0.969357,0.060554,-0.041509,-77.187515,61.710381,26.891005
1732082106.194044,1732082106.196025,1.000000,0.000000,4292.948730,4309.871582,4321.922852,4314.102539,4310.000000,4309.615234,4320.128418,4337.436035,4323.846191,4301.794922,4430.128418,4444.871582,4324.102539,4369.743652,1294.000000,0.000000,11.000000,,,,0.000000,2.000000,2.000000,0.000000,2.000000,2.000000,2.000000,0.000000,2.000000,4.000000,4.000000,4.000000,4.000000,2.000000,4.000000,16.666666,,,,,,,,,,,,,,,,,,,,,,,,,,,,
1732082106.201852,1732082106.203633,2.000000,0.000000,4288.333496,4304.615234,4320.128418,4313.589844,4293.846191,4312.692383,4321.922852,4344.487305,4328.461426,4309.230957,4441.666504,4455.897461,4326.153809,4372.307617,1214.000000,0.000000,11.000000,,,,0.000000,2.000000,2.000000,0.000000,2.000000,2.000000,2.000000,0.000000,2.000000,4.000000,4.000000,4.000000,4.000000,2.000000,4.000000,16.666666,,,,,,,,,,,,,,,,,,,,,,,,,,,,
1732082106.209660,1732082106.211441,3.000000,0.000000,4289.102539,4303.717773,4318.846191,4312.179688,4300.256348,4312.563965,4322.563965,4343.717773,4329.871582,4312.307617,4443.846191,4461.666504,4326.410156,4371.922852,1177.000000,0.000000,11.000000,,,,0.000000,2.000000,2.000000,0.000000,2.000000,2.000000,2.000000,0.000000,2.000000,4.000000,4.000000,4.000000,4.000000,2.000000,4.000000,16.666666,,,,,,,,,,,,,,,,,,,,,,,,,,,,
1732082106.217468,1732082106.219150,4.000000,0.000000,4292.307617,4305.384766,4319.615234,4314.615234,4307.820313,4311.153809,4322.051270,4338.205078,4326.153809,4307.692383,4435.000000,4449.230957,4326.666504,4370.128418,1190.000000,0.000000,11.000000,,,,0.000000,2.000000,2.000000,0.000000,2.000000,2.000000,2.000000,0.000000,2.000000,4.000000,4.000000,4.000000,4.000000,2.000000,4.000000,16.666666,,,,,,,,,,,,,,,,,1.000000,0.000000,0.608881,0.393250,-0.605469,0.328674,0.982542,0.077158,-0.055671,-77.421883,61.653740,26.810047
1732082106.225277,1732082106.226958,5.000000,0.000000,4292.307617,4304.230957,4318.717773,4313.461426,4305.641113,4311.153809,4320.128418,4339.743652,4325.000000,4305.256348,4430.769043,4442.051270,4327.563965,4373.717773,1072.000000,0.000000,11.000000,,,,0.000000,2.000000,2.000000,0.000000,2.000000,2.000000,2.000000,0.000000,2.000000,4.000000,4.000000,4.000000,4.000000,2.000000,4.000000,16.666666,,,,,,,,,,,,,,,,,,,,,,,,,,,,
1732082106.233085,1732082106.234566,6.000000,0.000000,4289.358887,4301.794922,4317.692383,4307.179688,4305.000000,4312.051270,4319.871582,4343.077148,4328.205078,4308.846191,4433.205078,4446.538574,4327.307617,4374.230957,188.000000,0.000000,11.000000,,,,0.000000,2.000000,2.000000,0.000000,2.000000,2.000000,2.000000,0.000000,2.000000,4.000000,4.000000,4.000000,4.000000,2.000000,4.000000,16.666666,,,,,,,,,,,,,,,,,,,,,,,,,,,,
1732082106.240893,1732082106.242374,7.000000,0.000000,4285.000000,4303.333496,4314.615234,4307.051270,4304.487305,4310.897461,4321.666504,4338.333496,4327.051270,4309.743652,4430.769043,4446.153809,4325.000000,4369.358887,1199.000000,0.000000,11.000000,,,,0.000000,2.000000,2.000000,0.000000,2.000000,2.000000,2.000000,0.000000,2.000000,4.000000,4.000000,4.000000,4.000000,2.000000,4.000000,16.666666,,,,,,,,,,,,,,,,,,,,,,,,,,,,
1732082106.248701,1732082106.250283,8.000000,0.000000,4282.179688,4304.743652,4314.615234,4309.615234,4311.025879,4307.179688,4322.820313,4335.512695,4321.794922,4305.897461,4428.974121,4442.179688,4324.487305,4368.717773,1344.000000,0.000000,11.000000,,,,0.000000,2.000000,2.000000,0.000000,2.000000,2.000000,2.000000,0.000000,2.000000,4.000000,4.000000,4.000000,4.000000,2.000000,4.000000,16.666666,,,,,,,,,,,,,,,,,2.000000,0.000000,0.608908,0.393188,-0.605713,0.328247,0.984495,0.085460,-0.046881,-77.565063,61.526196,26.766138
1732082106.256510,1732082106.258091,9.000000,0.000000,4281.025879,4305.128418,4316.666504,4310.000000,4316.666504,4311.538574,4321.410156,4339.358887,4324.871582,4304.743652,4433.589844,4442.179688,4325.897461,4370.128418,1469.000000,0.000000,11.000000,,,,0.000000,2.000000,2.000000,0.000000,2.000000,2.000000,2.000000,0.000000,2.000000,4.000000,4.000000,4.000000,4.000000,2.000000,4.000000,16.666666,,,,,,,,,,,,,,,,,,,,,,,,,,,,
1732082106.264318,1732082106.265699,10.000000,0.000000,4282.820313,4304.871582,4318.205078,4312.179688,4303.589844,4317.051270,4320.000000,4338.974121,4329.743652,4307.948730,4430.384766,4442.820313,4328.333496,4368.461426,1362.000000,0.000000,11.000000,,,,0.000000,2.000000,2.000000,0.000000,2.000000,2.000000,2.000000,0.000000,2.000000,4.000000,4.000000,4.000000,4.000000,2.000000,4.000000,16.666666,,,,,,,,,,,,,,,,,,,,,,,,,,,,
1732082106.272126,1732082106.273507,11.000000,0.000000,4283.589844,4302.436035,4315.897461,4313.077148,4297.051270,4313.205078,4321.025879,4337.307617,4329.615234,4308.205078,4423.846191,4443.205078,4326.153809,4369.743652,1497.000000,0.000000,11.000000,,,,0.000000,2.000000,2.000000,0.000000,2.000000,2.000000,2.000000,0.000000,2.000000,4.000000,4.000000,4.000000,4.000000,2.000000,4.000000,16.666666,,,,,,,,,,,,,,,,,,,,,,,,,,,,
1732082106.279935,1732082106.281216,12.000000,0.000000,4283.205078,4303.077148,4314.358887,4310.256348,4303.846191,4309.487305,4320.769043,4342.563965,4330.000000,4310.641113,4435.000000,4442.051270,4325.384766,4375.256348,1726.000000,0.000000,11.000000,,,,0.000000,2.000000,2.000000,0.000000,2.000000,2.000000,2.000000,0.000000,2.000000,4.000000,4.000000,4.000000,4.000000,2.000000,4.000000,16.666666,,,,,,,,,,,,,,,,,3.000000,0.000000,0.608880,0.393188,-0.605774,0.328186,0.984495,0.085460,-0.046881,-77.711029,61.496220,26.782238
1732082106.287743,1732082106.289024,13.000000,0.000000,4286.410156,4306.025879,4314.102539,4310.000000,4308.589844,4312.692383,4320.769043,4343.846191,4331.153809,4314.743652,4442.563965,4441.538574,4330.641113,4374.871582,1688.000000,0.000000,11.000000,,,,0.000000,2.000000,2.000000,0.000000,2.000000,2.000000,2.000000,0.000000,2.000000,4.000000,4.000000,4.000000,4.000000,2.000000,4.000000,16.666666,,,,,,,,,,,,,,,,,,,,,,,,,,,,
1732082106.295551,1732082106.297032,14.000000,0.000000,4289.871582,4308.846191,4314.358887,4314.230957,4317.436035,4313.461426,4320.769043,4337.563965,4328.205078,4310.384766,4429.871582,4443.461426,4328.846191,4370.384766,1362.000000,0.000000,11.000000,,,,0.000000,2.000000,2.000000,0.000000,2.000000,2.000000,2.000000,0.000000,2.000000,4.000000,4.000000,4.000000,4.000000,2.000000,4.000000,16.666666,1.000000,8.333333,2.000000,2.000000,0.000000,2.000000,2.000000,2.000000,0.000000,1.000000,4.000000,4.000000,4.000000,4.000000,2.000000,4.000000,,,,,,,,,,,,
1732082106.303359,1732082106.304840,15.000000,0.000000,4289.487305,4311.025879,4316.538574,4316.025879,4314.615234,4311.282227,4321.666504,4338.846191,4329.743652,4309.230957,4424.871582,4446.922852,4326.025879,4372.179688,1497.000000,0.000000,11.000000,,,,0.000000,2.000000,2.000000,0.000000,2.000000,2.000000,2.000000,0.000000,2.000000,4.000000,4.000000,4.000000,4.000000,2.000000,4.000000,16.666666,,,,,,,,,,,,,,,,,,,,,,,,,,,,
1732082106.311168,1732082106.312548,16.000000,0.000000,4288.846191,4311.794922,4314.102539,4313.205078,4294.743652,4311.410156,4321.025879,4343.846191,4334.358887,4317.179688,4435.128418,4449.102539,4330.256348,4375.769043,0.000000,0.000000,11.000000,,,,0.000000,2.000000,2.000000,0.000000,2.000000,2.000000,2.000000,0.000000,2.000000,4.000000,4.000000,4.000000,4.000000,2.000000,4.000000,16.666666,,,,,,,,,,,,,,,,,4.000000,0.000000,0.608789,0.393372,-0.605713,0.328247,0.979123,0.090831,-0.049811,-77.734268,61.591938,26.633614
1732082106.318976,1732082106.320357,17.000000,0.000000,4290.384766,4308.077148,4309.230957,4313.205078,4294.230957,4310.897461,4320.897461,4342.307617,4330.641113,4314.615234,4434.358887,4447.563965,4331.922852,4374.358887,0.000000,0.000000,11.000000,,,,0.000000,2.000000,2.000000,0.000000,2.000000,2.000000,2.000000,0.000000,2.000000,4.000000,4.000000,4.000000,4.000000,2.000000,4.000000,16.666666,,,,,,,,,,,,,,,,,,,,,,,,,,,,
1732082106.326784,1732082106.328365,18.000000,0.000000,4291.282227,4308.846191,4311.282227,4316.410156,4307.051270,4310.256348,4320.000000,4338.461426,4325.256348,4306.282227,4425.000000,4445.128418,4328.333496,4372.563965,0.000000,0.000000,11.000000,,,,0.000000,2.000000,2.000000,0.000000,2.000000,2.000000,2.000000,0.000000,2.000000,4.000000,4.000000,4.000000,4.000000,2.000000,4.000000,16.666666,,,,,,,,,,,,,,,,,,,,,,,,,,,,
1732082106.334592,1732082106.336173,19.000000,0.000000,4291.025879,4313.077148,4318.589844,4315.897461,4305.641113,4309.743652,4320.128418,4335.128418,4323.333496,4306.025879,4426.282227,4442.948730,4327.820313,4374.871582,0.000000,0.000000,11.000000,,,,0.000000,2.000000,2.000000,0.000000,2.000000,2.000000,2.000000,0.000000,2.000000,4.000000,4.000000,4.000000,4.000000,2.000000,4.000000,16.666666,,,,,,,,,,,,,,,,,,,,,,,,,,,,
1732082106.342401,1732082106.344081,20.000000,0.000000,4293.077148,4312.051270,4318.205078,4312.307617,4304.743652,4308.077148,4319.615234,4334.102539,4324.871582,4309.230957,4431.666504,4445.641113,4328.077148,4378.077148,0.000000,0.000000,11.000000,,,,0.000000,2.000000,2.000000,0.000000,2.000000,2.000000,2.000000,0.000000,2.000000,4.000000,4.000000,4.000000,4.000000,2.000000,4.000000,16.666666,,,,,,,,,,,,,,,,,5.000000,0.000000,0.608356,0.394409,-0.605408,0.328369,0.982053,0.075204,-0.039556,-77.628090,61.749470,26.538227
1732082106.350209,1732082106.351889,21.000000,0.000000,4292.820313,4310.000000,4314.615234,4313.589844,4302.820313,4311.153809,4318.974121,4333.717773,4325.641113,4307.307617,4427.563965,4446.538574,4326.922852,4373.717773,0.000000,0.000000,11.000000,,,,0.000000,2.000000,2.000000,0.000000,2.000000,2.000000,2.000000,0.000000,2.000000,4.000000,4.000000,4.000000,4.000000,2.000000,4.000000,16.666666,,,,,,,,,,,,,,,,,,,,,,,,,,,,
1732082106.358017,1732082106.359897,22.000000,0.000000,4287.692383,4309.102539,4313.205078,4312.179688,4304.487305,4313.589844,4317.051270,4333.846191,4319.487305,4301.282227,4417.307617,4437.948730,4325.384766,4364.230957,0.000000,0.000000,11.000000,,,,0.000000,2.000000,2.000000,0.000000,2.000000,2.000000,2.000000,0.000000,2.000000,4.000000,4.000000,4.000000,4.000000,2.000000,4.000000,16.666666,,,,,,,,,,,,,,,,,,,,,,,,,,,,
1732082106.365825,1732082106.367705,23.000000,0.000000,4287.692383,4307.436035,4314.615234,4306.025879,4314.743652,4306.922852,4318.205078,4334.487305,4316.922852,4298.717773,4417.307617,4433.974121,4324.871582,4362.179688,0.000000,0.000000,11.000000,,,,0.000000,2.000000,2.000000,0.000000,2.000000,2.000000,2.000000,0.000000,2.000000,4.000000,4.000000,4.000000,4.000000,2.000000,4.000000,16.666666,,,,,,,,,,,,,,,,,,,,,,,,,,,,
1732082106.373634,1732082106.375613,24.000000,0.000000,4293.333496,4307.307617,4315.256348,4309.487305,4305.256348,4304.487305,4321.153809,4333.333496,4322.436035,4300.769043,4423.077148,4443.589844,4326.025879,4367.179688,0.000000,0.000000,11.000000,,,,0.000000,2.000000,2.000000,0.000000,2.000000,2.000000,2.000000,0.000000,2.000000,4.000000,4.000000,4.000000,4.000000,2.000000,4.000000,16.666666,,,,,,,,,,,,,,,,,6.000000,0.000000,0.608336,0.394592,-0.605408,0.328186,0.981077,0.080576,-0.054206,-77.692085,61.777069,26.560965
1732082106.381442,1732082106.383422,25.000000,0.000000,4292.307617,4305.256348,4317.051270,4316.153809,4289.743652,4315.512695,4322.948730,4335.128418,4324.102539,4300.128418,4415.769043,4445.512695,4320.512695,4365.641113,0.000000,0.000000,11.000000,,,,0.000000,2.000000,2.000000,0.000000,2.000000,2.000000,2.000000,0.000000,2.000000,4.000000,4.000000,4.000000,4.000000,2.000000,4.000000,16.666666,,,,,,,,,,,,,,,,,,,,,,,,,,,,
1732082106.389250,1732082106.391430,26.000000,0.000000,4288.333496,4302.051270,4315.512695,4313.461426,4301.794922,4323.077148,4325.769043,4343.846191,4322.948730,4301.025879,4411.410156,4432.820313,4315.512695,4360.256348,0.000000,0.000000,11.000000,,,,0.000000,2.000000,2.000000,0.000000,2.000000,2.000000,2.000000,0.000000,2.000000,4.000000,4.000000,4.000000,4.000000,2.000000,4.000000,16.666666,,,,,,,,,,,,,,,,,,,,,,,,,,,,
1732082106.397058,1732082106.399238,27.000000,0.000000,4289.743652,4302.307617,4313.974121,4309.615234,4315.512695,4317.692383,4328.077148,4346.538574,4324.743652,4306.025879,4423.846191,4432.307617,4321.666504,4365.897461,0.000000,0.000000,11.000000,,,,0.000000,2.000000,2.000000,0.000000,2.000000,2.000000,2.000000,0.000000,2.000000,4.000000,4.000000,4.000000,4.000000,2.000000,4.000000,16.666666,,,,,,,,,,,,,,,,,,,,,,,,,,,,
1732082106.404867,1732082106.406946,28.000000,0.000000,4295.512695,4308.846191,4316.282227,4312.948730,4305.769043,4311.922852,4326.538574,4336.282227,4324.358887,4307.948730,4433.205078,4443.846191,4329.871582,4376.153809,0.000000,0.000000,11.000000,,,,0.000000,2.000000,2.000000,0.000000,2.000000,2.000000,2.000000,0.000000,2.000000,4.000000,4.000000,4.000000,4.000000,2.000000,4.000000,16.666666,,,,,,,,,,,,,,,,,7.000000,0.000000,0.608171,0.394897,-0.605408,0.328125,0.969357,0.065926,-0.038579,-77.560593,61.819427,26.454380
1732082106.412675,1732082106.414754,29.000000,0.000000,4301.025879,4315.641113,4318.717773,4317.307617,4302.179688,4311.794922,4322.051270,4332.436035,4322.820313,4310.384766,4431.922852,4447.692383,4332.692383,4382.179688,0.000000,0.000000,11.000000,,,,0.000000,2.000000,2.000000,0.000000,2.000000,2.000000,2.000000,0.000000,2.000000,4.000000,4.000000,4.000000,4.000000,2.000000,4.000000,16.666666,,,,,,,,,,,,,,,,,,,,,,,,,,,,
1732082106.420483,1732082106.422762,30.000000,0.000000,4295.769043,4313.077148,4317.436035,4313.077148,4315.256348,4307.563965,4322.436035,4339.615234,4323.205078,4314.102539,4429.230957,4450.769043,4329.102539,4380.897461,0.000000,0.000000,11.000000,,,,0.000000,2.000000,2.000000,0.000000,2.000000,2.000000,2.000000,0.000000,2.000000,4.000000,4.000000,4.000000,4.000000,2.000000,4.000000,16.666666,,,,,,,,,,,,,,,,,,,,,,,,,,,,
1732082106.428291,1732082106.430571,31.000000,0.000000,4286.922852,4303.589844,4316.282227,4308.077148,4313.205078,4301.282227,4323.077148,4340.384766,4324.615234,4313.461426,4429.487305,4458.333496,4324.871582,4382.051270,0.000000,0.000000,11.000000,,,,0.000000,2.000000,2.000000,0.000000,2.000000,2.000000,2.000000,0.000000,2.000000,4.000000,4.000000,4.000000,4.000000,2.000000,4.000000,16.666666,,,,,,,,,,,,,,,,,,,,,,,,,,,,
1732082106.436100,1732082106.438479,32.000000,0.000000,4288.589844,4303.333496,4316.282227,4309.871582,4296.794922,4305.128418,4324.487305,4337.820313,4323.717773,4312.692383,4430.769043,4461.282227,4327.307617,4384.871582,0.000000,0.000000,11.000000,,,,0.000000,2.000000,2.000000,0.000000,2.000000,2.000000,2.000000,0.000000,2.000000,4.000000,4.000000,4.000000,4.000000,2.000000,4.000000,16.666666,,,,,,,,,,,,,,,,,8.000000,0.000000,0.608002,0.395325,-0.605530,0.327698,0.977170,0.083018,-0.049322,-77.530746,61.785404,26.578049
1732082106.443908,1732082106.446287,33.000000,0.000000,4294.102539,4308.589844,4315.512695,4311.410156,4294.743652,4311.922852,4324.358887,4340.512695,4322.948730,4311.025879,4428.974121,4460.512695,4329.102539,4378.205078,0.000000,0.000000,11.000000,,,,0.000000,2.000000,2.000000,0.000000,2.000000,2.000000,2.000000,0.000000,2.000000,4.000000,4.000000,4.000000,4.000000,2.000000,4.000000,16.666666,,,,,,,,,,,,,,,,,,,,,,,,,,,,
1732082106.451716,1732082106.454295,34.000000,0.000000,4290.641113,4303.461426,4317.307617,4310.000000,4303.717773,4307.820313,4323.589844,4342.948730,4323.846191,4305.641113,4426.922852,4458.205078,4322.179688,4369.615234,0.000000,0.000000,11.000000,,,,0.000000,2.000000,2.000000,0.000000,2.000000,2.000000,2.000000,0.000000,2.000000,4.000000,4.000000,4.000000,4.000000,2.000000,4.000000,16.666666,,,,,,,,,,,,,,,,,,,,,,,,,,,,
1732082106.459525,1732082106.462103,35.000000,0.000000,4290.000000,4300.897461,4317.307617,4312.563965,4302.692383,4302.692383,4322.307617,4341.666504,4325.897461,4303.974121,4428.205078,4450.897461,4319.743652,4372.179688,0.000000,0.000000,11.000000,,,,0.000000,2.000000,2.000000,0.000000,2.000000,2.000000,2.000000,0.000000,2.000000,4.000000,4.000000,4.000000,4.000000,2.000000,4.000000,16.666666,,,,,,,,,,,,,,,,,,,,,,,,,,,,
1732082106.467333,1732082106.470011,36.000000,0.000000,4295.512695,4307.179688,4317.563965,4317.563965,4302.948730,4307.436035,4322.948730,4342.692383,4325.512695,4305.769043,4425.769043,4444.358887,4324.871582,4375.769043,0.000000,0.000000,11.000000,,,,0.000000,2.000000,2.000000,0.000000,2.000000,2.000000,2.000000,0.000000,2.000000,4.000000,4.000000,4.000000,4.000000,2.000000,4.000000,16.666666,,,,,,,,,,,,,,,,,9.000000,0.000000,0.608097,0.395447,-0.605652,0.327148,0.970333,0.075693,-0.047369,-77.461571,61.416176,26.619886
1732082106.475141,1732082106.477819,37.000000,0.000000,4296.410156,4311.666504,4319.230957,4321.025879,4306.666504,4312.436035,4323.974121,4344.230957,4324.871582,4306.282227,4420.769043,4441.666504,4322.948730,4370.384766,0.000000,0.000000,11.000000,,,,0.000000,2.000000,2.000000,0.000000,2.000000,2.000000,2.000000,0.000000,2.000000,4.000000,4.000000,4.000000,4.000000,2.000000,4.000000,16.666666,,,,,,,,,,,,,,,,,,,,,,,,,,,,
1732082106.482949,1732082106.485827,38.000000,0.000000,4293.077148,4310.256348,4320.641113,4321.666504,4309.871582,4311.538574,4322.692383,4338.333496,4322.436035,4302.051270,4416.666504,4437.820313,4316.922852,4364.487305,0.000000,0.000000,11.000000,,,,0.000000,2.000000,2.000000,0.000000,2.000000,2.000000,2.000000,0.000000,2.000000,4.000000,4.000000,4.000000,4.000000,2.000000,4.000000,16.666666,,,,,,,,,,,,,,,,,,,,,,,,,,,,
1732082106.490758,1732082106.493636,39.000000,0.000000,4290.769043,4307.820313,4318.077148,4316.794922,4317.436035,4305.897461,4319.871582,4332.436035,4313.846191,4295.384766,4414.102539,4436.538574,4318.717773,4362.948730,0.000000,0.000000,11.000000,,,,0.000000,2.000000,2.000000,0.000000,2.000000,2.000000,2.000000,0.000000,2.000000,4.000000,4.000000,4.000000,4.000000,2.000000,4.000000,16.666666,,,,,,,,,,,,,,,,,,,,,,,,,,,,
1732082106.498566,1732082106.501544,40.000000,0.000000,4293.846191,4308.717773,4318.077148,4312.820313,4310.897461,4302.436035,4320.384766,4332.948730,4313.589844,4294.871582,4417.948730,4441.282227,4324.358887,4366.666504,0.000000,0.000000,11.000000,,,,0.000000,2.000000,2.000000,0.000000,2.000000,2.000000,2.000000,0.000000,2.000000,4.000000,4.000000,4.000000,4.000000,2.000000,4.000000,16.666666,,,,,,,,,,,,,,,,,10.000000,0.000000,0.608050,0.395569,-0.605652,0.327087,0.963497,0.080088,-0.047369,-77.237206,61.552101,26.530441
1732082106.506374,1732082106.509352,41.000000,0.000000,4296.922852,4313.717773,4318.461426,4317.051270,4296.153809,4308.589844,4322.820313,4335.384766,4324.615234,4299.230957,4421.922852,4441.922852,4325.128418,4369.615234,0.000000,0.000000,11.000000,,,,0.000000,2.000000,2.000000,0.000000,2.000000,2.000000,2.000000,0.000000,2.000000,4.000000,4.000000,4.000000,4.000000,2.000000,4.000000,16.666666,,,,,,,,,,,,,,,,,,,,,,,,,,,,
1732082106.514182,1732082106.517360,42.000000,0.000000,4293.717773,4313.333496,4317.307617,4318.589844,4296.922852,4314.358887,4321.153809,4335.384766,4324.102539,4299.102539,4416.666504,4437.563965,4322.179688,4360.897461,0.000000,0.000000,11.000000,,,,0.000000,2.000000,2.000000,0.000000,2.000000,2.000000,2.000000,0.000000,2.000000,4.000000,4.000000,4.000000,4.000000,2.000000,4.000000,16.666666,,,,,,,,,,,,,,,,,,,,,,,,,,,,
1732082106.521991,1732082106.525168,43.000000,0.000000,4287.563965,4302.436035,4316.153809,4312.307617,4311.025879,4307.436035,4320.641113,4333.589844,4312.563965,4295.256348,4416.922852,4436.153809,4320.769043,4355.641113,0.000000,0.000000,11.000000,,,,0.000000,2.000000,2.000000,0.000000,2.000000,2.000000,2.000000,0.000000,2.000000,4.000000,4.000000,4.000000,4.000000,2.000000,4.000000,16.666666,,,,,,,,,,,,,,,,,,,,,,,,,,,,
1732082106.529799,1732082106.533076,44.000000,0.000000,4283.077148,4298.974121,4317.436035,4309.230957,4315.000000,4301.538574,4322.820313,4335.384766,4312.948730,4295.000000,4422.948730,4441.794922,4322.307617,4360.384766,0.000000,0.000000,11.000000,,,,0.000000,2.000000,2.000000,0.000000,2.000000,2.000000,2.000000,0.000000,2.000000,4.000000,4.000000,4.000000,4.000000,2.000000,4.000000,16.666666,,,,,,,,,,,,,,,,,11.000000,0.000000,0.608333,0.395264,-0.605896,0.326477,0.983030,0.078135,-0.055671,-77.382133,61.415535,26.872990
1732082106.537607,1732082106.540885,45.000000,0.000000,4286.153809,4306.282227,4318.333496,4313.974121,4301.410156,4307.307617,4323.333496,4342.051270,4324.358887,4300.000000,4422.563965,4445.512695,4326.922852,4363.077148,0.000000,0.000000,11.000000,,,,0.000000,2.000000,2.000000,0.000000,2.000000,2.000000,2.000000,0.000000,2.000000,4.000000,4.000000,4.000000,4.000000,2.000000,4.000000,16.666666,,,,,,,,,,,,,,,,,,,,,,,,,,,,
1732082106.545415,1732082106.548493,46.000000,0.000000,4290.384766,4306.025879,4315.512695,4315.512695,4295.512695,4309.871582,4320.000000,4340.641113,4326.282227,4305.000000,4418.589844,4440.256348,4326.666504,4361.025879,0.000000,0.000000,11.000000,,,,0.000000,2.000000,2.000000,0.000000,2.000000,2.000000,2.000000,0.000000,2.000000,4.000000,4.000000,4.000000,4.000000,2.000000,4.000000,16.666666,,,,,,,,,,,,,,,,,,,,,,,,,,,,
1732082106.553224,1732082106.556301,47.000000,0.000000,4288.974121,4301.666504,4313.846191,4313.205078,4304.230957,4308.077148,4319.487305,4331.922852,4320.769043,4304.230957,4417.692383,4435.000000,4321.025879,4358.717773,0.000000,0.000000,11.000000,,,,0.000000,2.000000,2.000000,0.000000,2.000000,2.000000,2.000000,0.000000,2.000000,4.000000,4.000000,4.000000,4.000000,2.000000,4.000000,16.666666,,,,,,,,,,,,,,,,,,,,,,,,,,,,
1732082106.561032,1732082106.564009,48.000000,0.000000,4287.948730,4306.538574,4316.538574,4315.641113,4312.179688,4309.871582,4319.487305,4331.410156,4319.487305,4303.077148,4420.256348,4433.333496,4321.666504,4356.794922,0.000000,0.000000,11.000000,,,,0.000000,2.000000,2.000000,0.000000,2.000000,2.000000,2.000000,0.000000,2.000000,4.000000,4.000000,4.000000,4.000000,2.000000,4.000000,16.666666,,,,,,,,,,,,,,,,,12.000000,0.000000,0.608452,0.394958,-0.606140,0.326172,0.984495,0.086925,-0.053229,-77.312866,61.499916,26.817122
1732082106.568840,1732082106.571818,49.000000,0.000000,4290.384766,4306.922852,4318.333496,4315.128418,4313.974121,4309.102539,4320.128418,4336.153809,4319.871582,4303.333496,4420.256348,4431.538574,4323.717773,4356.410156,0.000000,0.000000,11.000000,,,,0.000000,2.000000,2.000000,0.000000,2.000000,2.000000,2.000000,0.000000,2.000000,4.000000,4.000000,4.000000,4.000000,2.000000,4.000000,16.666666,,,,,,,,,,,,,,,,,,,,,,,,,,,,
1732082106.576648,1732082106.579826,50.000000,0.000000,4290.256348,4299.102539,4314.102539,4311.282227,4309.358887,4308.333496,4320.641113,4335.897461,4320.512695,4301.666504,4414.743652,4427.820313,4322.179688,4355.384766,0.000000,0.000000,11.000000,,,,0.000000,2.000000,2.000000,0.000000,2.000000,2.000000,2.000000,0.000000,2.000000,4.000000,4.000000,4.000000,4.000000,2.000000,4.000000,16.666666,,,,,,,,,,,,,,,,,,,,,,,,,,,,
1732082106.584457,1732082106.587634,51.000000,0.000000,4287.692383,4296.538574,4313.205078,4310.000000,4298.077148,4312.692383,4324.487305,4335.000000,4323.077148,4301.794922,4412.820313,4427.692383,4321.538574,4351.666504,0.000000,0.000000,11.000000,,,,0.000000,2.000000,2.000000,0.000000,2.000000,2.000000,2.000000,0.000000,2.000000,4.000000,4.000000,4.000000,4.000000,2.000000,4.000000,16.666666,,,,,,,,,,,,,,,,,,,,,,,,,,,,
1732082106.592265,1732082106.595542,52.000000,0.000000,4285.128418,4295.384766,4313.846191,4308.974121,4295.384766,4313.589844,4325.128418,4335.384766,4324.230957,4302.563965,4419.230957,4428.974121,4322.948730,4352.948730,0.000000,0.000000,11.000000,,,,0.000000,2.000000,2.000000,0.000000,2.000000,2.000000,2.000000,0.000000,2.000000,4.000000,4.000000,4.000000,4.000000,2.000000,4.000000,16.666666,,,,,,,,,,,,,,,,,13.000000,0.000000,0.608560,0.394531,-0.606506,0.325806,0.960566,0.075693,-0.054694,-77.366753,61.541599,26.891869
1732082106.600073,1732082106.603350,53.000000,0.000000,4285.256348,4295.769043,4314.487305,4307.051270,4304.487305,4310.128418,4322.051270,4334.871582,4323.589844,4302.307617,4421.410156,4430.128418,4325.256348,4358.589844,0.000000,0.000000,11.000000,,,,0.000000,2.000000,2.000000,0.000000,2.000000,2.000000,2.000000,0.000000,2.000000,4.000000,4.000000,4.000000,4.000000,2.000000,4.000000,16.666666,,,,,,,,,,,,,,,,,,,,,,,,,,,,
1732082106.607881,1732082106.610959,54.000000,0.000000,4288.077148,4300.000000,4315.256348,4307.051270,4313.077148,4309.615234,4320.897461,4334.743652,4323.974121,4305.897461,4417.563965,4431.282227,4328.846191,4359.615234,0.000000,0.000000,11.000000,,,,0.000000,2.000000,2.000000,0.000000,2.000000,2.000000,2.000000,0.000000,2.000000,4.000000,4.000000,4.000000,4.000000,2.000000,4.000000,16.666666,,,,,,,,,,,,,,,,,,,,,,,,,,,,
1732082106.615690,1732082106.618767,55.000000,0.000000,4286.922852,4299.230957,4316.282227,4306.410156,4311.410156,4308.461426,4321.538574,4333.077148,4325.256348,4307.179688,4415.641113,4430.256348,4327.820313,4354.358887,0.000000,0.000000,11.000000,,,,0.000000,2.000000,2.000000,0.000000,2.000000,2.000000,2.000000,0.000000,2.000000,4.000000,4.000000,4.000000,4.000000,2.000000,4.000000,16.666666,,,,,,,,,,,,,,,,,,,,,,,,,,,,
1732082106.623498,1732082106.626475,56.000000,0.000000,4284.871582,4297.436035,4314.743652,4306.794922,4295.641113,4306.538574,4320.897461,4332.692383,4323.846191,4302.436035,4413.717773,4428.589844,4325.384766,4352.436035,0.000000,0.000000,11.000000,,,,0.000000,2.000000,2.000000,0.000000,2.000000,2.000000,2.000000,0.000000,2.000000,4.000000,4.000000,4.000000,4.000000,2.000000,4.000000,16.666666,,,,,,,,,,,,,,,,,14.000000,0.000000,0.608572,0.394470,-0.606567,0.325745,0.972775,0.065438,-0.055183,-77.550400,61.470364,26.817413
1732082106.631306,1732082106.634283,57.000000,0.000000,4286.666504,4300.641113,4315.384766,4308.205078,4290.512695,4306.410156,4322.307617,4333.974121,4322.436035,4303.717773,4414.230957,4429.230957,4329.358887,4355.512695,0.000000,0.000000,11.000000,,,,0.000000,2.000000,2.000000,0.000000,2.000000,2.000000,2.000000,0.000000,2.000000,4.000000,4.000000,4.000000,4.000000,2.000000,4.000000,16.666666,,,,,,,,,,,,,,,,,,,,,,,,,,,,
1732082106.639115,1732082106.641892,58.000000,0.000000,4290.128418,4301.666504,4316.538574,4307.692383,4307.051270,4306.282227,4324.743652,4334.615234,4323.333496,4307.436035,4413.717773,4429.743652,4331.666504,4353.589844,0.000000,0.000000,11.000000,,,,0.000000,2.000000,2.000000,0.000000,2.000000,2.000000,2.000000,0.000000,2.000000,4.000000,4.000000,4.000000,4.000000,2.000000,4.000000,16.666666,,,,,,,,,,,,,,,,,,,,,,,,,,,,
1732082106.646923,1732082106.649700,59.000000,0.000000,4292.307617,4300.512695,4315.641113,4306.794922,4312.051270,4306.153809,4322.051270,4335.897461,4324.358887,4301.922852,4413.205078,4430.000000,4332.307617,4350.641113,0.000000,0.000000,11.000000,,,,0.000000,2.000000,2.000000,0.000000,2.000000,2.000000,2.000000,0.000000,2.000000,4.000000,4.000000,4.000000,4.000000,2.000000,4.000000,16.666666,,,,,,,,,,,,,,,,,,,,,,,,,,,,
1732082106.654731,1732082106.657408,60.000000,0.000000,4292.563965,4301.538574,4312.948730,4308.717773,4299.487305,4308.077148,4321.410156,4335.897461,4324.102539,4296.025879,4413.589844,4431.282227,4334.230957,4350.897461,0.000000,0.000000,11.000000,,,,0.000000,2.000000,2.000000,0.000000,2.000000,2.000000,2.000000,0.000000,2.000000,4.000000,4.000000,4.000000,4.000000,2.000000,4.000000,16.666666,,,,,,,,,,,,,,,,,15.000000,0.000000,0.608606,0.394287,-0.606750,0.325562,0.983518,0.075693,-0.042486,-77.429161,61.352661,26.868773
1732082106.662539,1732082106.665216,61.000000,0.000000,4289.743652,4302.563965,4312.948730,4308.717773,4297.563965,4305.384766,4324.743652,4334.871582,4323.589844,4298.846191,4414.358887,4432.692383,4334.358887,4350.512695,0.000000,0.000000,11.000000,,,,0.000000,2.000000,2.000000,0.000000,2.000000,2.000000,2.000000,0.000000,2.000000,4.000000,4.000000,4.000000,4.000000,2.000000,4.000000,16.666666,,,,,,,,,,,,,,,,,,,,,,,,,,,,
1732082106.670348,1732082106.673224,62.000000,0.000000,4286.025879,4300.897461,4313.974121,4305.384766,4311.410156,4299.487305,4324.102539,4336.025879,4323.461426,4300.769043,4413.333496,4437.820313,4333.846191,4350.641113,0.000000,0.000000,11.000000,,,,0.000000,2.000000,2.000000,0.000000,2.000000,2.000000,2.000000,0.000000,2.000000,4.000000,4.000000,4.000000,4.000000,2.000000,4.000000,16.666666,,,,,,,,,,,,,,,,,,,,,,,,,,,,
1732082106.678156,1732082106.681033,63.000000,0.000000,4285.897461,4299.871582,4313.461426,4303.333496,4313.717773,4302.051270,4319.102539,4333.589844,4323.461426,4301.153809,4413.589844,4445.000000,4333.974121,4352.307617,0.000000,0.000000,11.000000,,,,0.000000,2.000000,2.000000,0.000000,2.000000,2.000000,2.000000,0.000000,2.000000,4.000000,4.000000,4.000000,4.000000,2.000000,4.000000,16.666666,,,,,,,,,,,,,,,,,,,,,,,,,,,,
1732082106.685964,1732082106.688941,64.000000,0.000000,4286.025879,4302.179688,4312.692383,4305.000000,4297.307617,4306.666504,4321.025879,4330.512695,4323.589844,4301.794922,4415.128418,4442.563965,4330.256348,4351.922852,0.000000,0.000000,11.000000,,,,0.000000,2.000000,2.000000,0.000000,2.000000,2.000000,2.000000,0.000000,2.000000,4.000000,4.000000,4.000000,4.000000,2.000000,4.000000,16.666666,,,,,,,,,,,,,,,,,16.000000,0.000000,0.608679,0.394043,-0.606934,0.325378,0.984007,0.074228,-0.062996,-77.367622,61.317322,26.975372
1732082106.693772,1732082106.696749,65.000000,0.000000,4289.487305,4301.538574,4314.743652,4307.820313,4289.487305,4300.384766,4323.205078,4333.461426,4324.102539,4301.410156,4412.179688,4435.641113,4325.897461,4352.436035,1290.000000,0.000000,11.000000,,,,0.000000,2.000000,2.000000,0.000000,2.000000,2.000000,2.000000,0.000000,2.000000,4.000000,4.000000,4.000000,4.000000,2.000000,4.000000,16.666666,,,,,,,,,,,,,,,,,,,,,,,,,,,,
1732082106.701581,1732082106.704757,66.000000,0.000000,4290.897461,4296.153809,4317.179688,4307.179688,4296.153809,4298.077148,4321.153809,4332.948730,4320.769043,4298.974121,4411.025879,4432.820313,4326.538574,4352.563965,1214.000000,0.000000,11.000000,,,,0.000000,2.000000,2.000000,0.000000,2.000000,2.000000,2.000000,0.000000,2.000000,4.000000,4.000000,4.000000,4.000000,2.000000,4.000000,16.666666,,,,,,,,,,,,,,,,,,,,,,,,,,,,
1732082106.709389,1732082106.712565,67.000000,0.000000,4290.128418,4299.358887,4313.461426,4307.692383,4300.384766,4306.538574,4318.205078,4328.205078,4316.410156,4294.743652,4410.256348,4433.717773,4327.307617,4351.282227,1169.000000,0.000000,11.000000,,,,0.000000,2.000000,2.000000,0.000000,2.000000,2.000000,2.000000,0.000000,2.000000,4.000000,4.000000,4.000000,4.000000,2.000000,4.000000,16.666666,,,,,,,,,,,,,,,,,,,,,,,,,,,,
1732082106.717197,1732082106.720274,68.000000,0.000000,4293.333496,4305.256348,4314.102539,4309.487305,4296.282227,4306.922852,4321.025879,4328.717773,4315.128418,4291.153809,4405.256348,4439.102539,4326.922852,4354.358887,1189.000000,0.000000,11.000000,,,,0.000000,2.000000,2.000000,0.000000,2.000000,2.000000,2.000000,0.000000,2.000000,4.000000,4.000000,4.000000,4.000000,2.000000,4.000000,16.666666,,,,,,,,,,,,,,,,,17.000000,0.000000,0.608691,0.393982,-0.606995,0.325317,0.984007,0.074228,-0.062996,-77.412773,61.403698,26.925051
1732082106.725005,1732082106.728082,69.000000,0.000000,4293.205078,4297.436035,4316.282227,4306.538574,4296.025879,4302.307617,4323.077148,4329.743652,4316.922852,4292.051270,4406.794922,4440.128418,4327.948730,4356.666504,1072.000000,0.000000,11.000000,,,,0.000000,2.000000,2.000000,0.000000,2.000000,2.000000,2.000000,0.000000,2.000000,4.000000,4.000000,4.000000,4.000000,2.000000,4.000000,16.666666,,,,,,,,,,,,,,,,,,,,,,,,,,,,
