title:zero4, start timestamp:1732083786.283050, stop timestamp:1732083832.757836, headset type:EPOCX, headset serial:E5020C3A, headset firmware:730, channels:67, sampling rate:eeg_128;mot_32, samples:5953      , version:2.2, 
Timestamp,OriginalTimestamp,EEG.Counter,EEG.Interpolated,EEG.AF3,EEG.F7,EEG.F3,EEG.FC5,EEG.T7,EEG.P7,EEG.O1,EEG.O2,EEG.P8,EEG.T8,EEG.FC6,EEG.F4,EEG.F8,EEG.AF4,EEG.RawCq,EEG.Battery,EEG.BatteryPercent,MarkerIndex,MarkerType,MarkerValueInt,EEG.MarkerHardware,CQ.AF3,CQ.F7,CQ.F3,CQ.FC5,CQ.T7,CQ.P7,CQ.O1,CQ.O2,CQ.P8,CQ.T8,CQ.FC6,CQ.F4,CQ.F8,CQ.AF4,CQ.Overall,EQ.SampleRateQuality,EQ.OVERALL,EQ.AF3,EQ.F7,EQ.F3,EQ.FC5,EQ.T7,EQ.P7,EQ.O1,EQ.O2,EQ.P8,EQ.T8,EQ.FC6,EQ.F4,EQ.F8,EQ.AF4,MOT.CounterMems,MOT.InterpolatedMems,MOT.Q0,MOT.Q1,MOT.Q2,MOT.Q3,MOT.AccX,MOT.AccY,MOT.AccZ,MOT.MagX,MOT.MagY,MOT.MagZ
1732083786.283050,1732083786.285117,1.000000,0.000000,4318.846191,4300.128418,4323.461426,4316.666504,4299.102539,4301.153809,4324.230957,4321.153809,4314.487305,4306.025879,4460.769043,4489.358887,4338.461426,4417.179688,1329.000000,0.000000,5.000000,,,,0.000000,2.000000,2.000000,0.000000,2.000000,2.000000,2.000000,0.000000,2.000000,4.000000,4.000000,4.000000,4.000000,2.000000,4.000000,16.666666,,,,,,,,,,,,,,,,,,,,,,,,,,,,
1732083786.290859,1732083786.292726,2.000000,0.000000,4324.102539,4298.974121,4323.461426,4316.153809,4293.461426,4300.384766,4326.282227,4327.436035,4316.282227,4304.615234,4462.948730,4488.974121,4340.512695,4418.205078,1242.000000,0.000000,5.000000,,,,0.000000,2.000000,2.000000,0.000000,2.000000,2.000000,2.000000,0.000000,2.000000,4.000000,4.000000,4.000000,4.000000,2.000000,4.000000,16.666666,,,,,,,,,,,,,,,,,,,,,,,,,,,,
1732083786.298667,1732083786.300534,3.000000,0.000000,4325.512695,4302.692383,4323.461426,4321.794922,4296.922852,4298.077148,4326.538574,4323.589844,4315.000000,4305.641113,4466.025879,4492.179688,4344.230957,4420.384766,1200.000000,0.000000,5.000000,,,,0.000000,2.000000,2.000000,0.000000,2.000000,2.000000,2.000000,0.000000,2.000000,4.000000,4.000000,4.000000,4.000000,2.000000,4.000000,16.666666,,,,,,,,,,,,,,,,,,,,,,,,,,,,
1732083786.306475,1732083786.308242,4.000000,0.000000,4318.205078,4305.512695,4322.179688,4322.563965,4303.205078,4302.179688,4324.102539,4315.769043,4312.307617,4299.871582,4463.717773,4490.769043,4343.461426,4414.487305,1224.000000,0.000000,5.000000,,,,0.000000,2.000000,2.000000,0.000000,2.000000,2.000000,2.000000,0.000000,2.000000,4.000000,4.000000,4.000000,4.000000,2.000000,4.000000,16.666666,,,,,,,,,,,,,,,,,1.000000,0.000000,0.637668,0.390930,-0.604248,0.274658,0.953241,0.164083,-0.031742,-72.882271,64.733643,30.607992
1732083786.314283,1732083786.316050,5.000000,0.000000,4317.948730,4302.692383,4322.820313,4320.641113,4302.563965,4303.077148,4325.000000,4320.769043,4314.358887,4296.153809,4461.282227,4492.948730,4342.820313,4414.230957,1082.000000,0.000000,5.000000,,,,0.000000,2.000000,2.000000,0.000000,2.000000,2.000000,2.000000,0.000000,2.000000,4.000000,4.000000,4.000000,4.000000,2.000000,4.000000,16.666666,,,,,,,,,,,,,,,,,,,,,,,,,,,,
1732083786.322091,1732083786.323659,6.000000,0.000000,4322.820313,4301.153809,4319.487305,4322.948730,4302.692383,4299.358887,4326.025879,4325.897461,4316.153809,4297.307617,4462.820313,4496.282227,4344.615234,4421.410156,0.000000,0.000000,5.000000,,,,0.000000,2.000000,2.000000,0.000000,2.000000,2.000000,2.000000,0.000000,2.000000,4.000000,4.000000,4.000000,4.000000,2.000000,4.000000,16.666666,,,,,,,,,,,,,,,,,,,,,,,,,,,,
1732083786.329900,1732083786.331467,7.000000,0.000000,4318.077148,4299.871582,4320.897461,4323.077148,4302.563965,4303.333496,4329.358887,4322.307617,4314.358887,4295.512695,4464.743652,4496.666504,4341.922852,4419.871582,1172.000000,0.000000,5.000000,,,,0.000000,2.000000,2.000000,0.000000,2.000000,2.000000,2.000000,0.000000,2.000000,4.000000,4.000000,4.000000,4.000000,2.000000,4.000000,16.666666,,,,,,,,,,,,,,,,,,,,,,,,,,,,
1732083786.337708,1732083786.339175,8.000000,0.000000,4314.743652,4301.282227,4321.282227,4321.538574,4303.846191,4308.846191,4328.205078,4323.717773,4315.128418,4294.743652,4464.102539,4497.307617,4339.871582,4418.205078,1364.000000,0.000000,5.000000,,,,0.000000,2.000000,2.000000,0.000000,2.000000,2.000000,2.000000,0.000000,2.000000,4.000000,4.000000,4.000000,4.000000,2.000000,4.000000,16.666666,,,,,,,,,,,,,,,,,2.000000,0.000000,0.636699,0.389587,-0.605469,0.276123,1.011354,0.151386,-0.060066,-73.037979,64.719254,30.682474
1732083786.345516,1732083786.346983,9.000000,0.000000,4318.717773,4303.974121,4323.589844,4320.512695,4305.256348,4301.794922,4324.230957,4326.410156,4318.461426,4297.563965,4462.948730,4499.102539,4342.692383,4422.692383,1521.000000,0.000000,5.000000,,,,0.000000,2.000000,2.000000,0.000000,2.000000,2.000000,2.000000,0.000000,2.000000,4.000000,4.000000,4.000000,4.000000,2.000000,4.000000,16.666666,,,,,,,,,,,,,,,,,,,,,,,,,,,,
1732083786.353325,1732083786.354592,10.000000,0.000000,4319.871582,4300.897461,4323.589844,4317.692383,4302.820313,4292.051270,4321.025879,4322.692383,4319.102539,4301.666504,4464.102539,4498.077148,4343.846191,4423.846191,1389.000000,0.000000,5.000000,,,,0.000000,2.000000,2.000000,0.000000,2.000000,2.000000,2.000000,0.000000,2.000000,4.000000,4.000000,4.000000,4.000000,2.000000,4.000000,16.666666,,,,,,,,,,,,,,,,,,,,,,,,,,,,
1732083786.361133,1732083786.362400,11.000000,0.000000,4315.641113,4295.256348,4321.282227,4315.128418,4296.794922,4296.282227,4325.384766,4323.077148,4319.487305,4304.230957,4464.871582,4500.769043,4339.487305,4422.051270,1524.000000,0.000000,5.000000,,,,0.000000,2.000000,2.000000,0.000000,2.000000,2.000000,2.000000,0.000000,2.000000,4.000000,4.000000,4.000000,4.000000,2.000000,4.000000,16.666666,,,,,,,,,,,,,,,,,,,,,,,,,,,,
1732083786.368941,1732083786.370108,12.000000,0.000000,4314.615234,4295.384766,4319.230957,4315.897461,4305.256348,4300.641113,4326.666504,4326.666504,4322.051270,4306.794922,4467.051270,4504.743652,4340.000000,4423.846191,1753.000000,0.000000,5.000000,,,,0.000000,2.000000,2.000000,0.000000,2.000000,2.000000,2.000000,0.000000,2.000000,4.000000,4.000000,4.000000,4.000000,2.000000,4.000000,16.666666,,,,,,,,,,,,,,,,,3.000000,0.000000,0.636699,0.389587,-0.605469,0.276123,0.980100,0.159199,-0.045904,-73.344093,64.467590,30.727804
1732083786.376749,1732083786.377917,13.000000,0.000000,4315.512695,4294.358887,4323.717773,4313.846191,4314.230957,4296.282227,4325.769043,4326.666504,4320.512695,4306.025879,4470.128418,4501.410156,4342.820313,4422.563965,1536.000000,0.000000,5.000000,,,,0.000000,2.000000,2.000000,0.000000,2.000000,2.000000,2.000000,0.000000,2.000000,4.000000,4.000000,4.000000,4.000000,2.000000,4.000000,16.666666,,,,,,,,,,,,,,,,,,,,,,,,,,,,
1732083786.384558,1732083786.385525,14.000000,0.000000,4317.820313,4292.692383,4323.846191,4313.461426,4298.077148,4295.769043,4326.666504,4325.769043,4318.717773,4307.820313,4470.000000,4500.641113,4343.333496,4420.897461,1389.000000,0.000000,5.000000,,,,0.000000,2.000000,2.000000,0.000000,2.000000,2.000000,2.000000,0.000000,2.000000,4.000000,4.000000,4.000000,4.000000,2.000000,4.000000,16.666666,1.000000,16.666666,2.000000,2.000000,0.000000,2.000000,2.000000,2.000000,0.000000,2.000000,4.000000,4.000000,4.000000,4.000000,2.000000,4.000000,,,,,,,,,,,,
1732083786.392366,1732083786.393333,15.000000,0.000000,4321.794922,4298.461426,4320.897461,4317.820313,4284.487305,4299.102539,4328.077148,4326.153809,4320.128418,4318.333496,4474.743652,4503.589844,4348.717773,4425.897461,1524.000000,0.000000,5.000000,,,,0.000000,2.000000,2.000000,0.000000,2.000000,2.000000,2.000000,0.000000,2.000000,4.000000,4.000000,4.000000,4.000000,2.000000,4.000000,16.666666,,,,,,,,,,,,,,,,,,,,,,,,,,,,
1732083786.400174,1732083786.401042,16.000000,0.000000,4322.692383,4303.461426,4323.205078,4318.846191,4294.358887,4297.179688,4324.102539,4323.333496,4318.589844,4317.307617,4479.358887,4502.179688,4352.051270,4427.307617,0.000000,0.000000,5.000000,,,,0.000000,2.000000,2.000000,0.000000,2.000000,2.000000,2.000000,0.000000,2.000000,4.000000,4.000000,4.000000,4.000000,2.000000,4.000000,16.666666,,,,,,,,,,,,,,,,,4.000000,0.000000,0.635032,0.389832,-0.606140,0.278137,0.956171,0.153827,-0.030765,-73.563713,64.188751,30.494520
1732083786.407982,1732083786.408850,17.000000,0.000000,4321.153809,4302.692383,4324.102539,4317.948730,4301.410156,4297.948730,4322.307617,4319.871582,4313.846191,4303.589844,4469.743652,4498.077148,4347.948730,4423.461426,0.000000,0.000000,5.000000,,,,0.000000,2.000000,2.000000,0.000000,2.000000,2.000000,2.000000,0.000000,2.000000,4.000000,4.000000,4.000000,4.000000,2.000000,4.000000,16.666666,,,,,,,,,,,,,,,,,,,,,,,,,,,,
1732083786.415791,1732083786.416458,18.000000,0.000000,4321.922852,4305.128418,4320.512695,4320.769043,4301.153809,4303.461426,4325.384766,4321.153809,4311.922852,4298.077148,4461.025879,4495.512695,4346.153809,4418.589844,0.000000,0.000000,5.000000,,,,0.000000,2.000000,2.000000,0.000000,2.000000,2.000000,2.000000,0.000000,2.000000,4.000000,4.000000,4.000000,4.000000,2.000000,4.000000,16.666666,,,,,,,,,,,,,,,,,,,,,,,,,,,,
1732083786.423599,1732083786.424266,19.000000,0.000000,4321.922852,4310.384766,4317.948730,4324.102539,4305.384766,4299.871582,4325.512695,4319.871582,4311.538574,4301.538574,4465.000000,4492.051270,4345.897461,4414.871582,0.000000,0.000000,5.000000,,,,0.000000,2.000000,2.000000,0.000000,2.000000,2.000000,2.000000,0.000000,2.000000,4.000000,4.000000,4.000000,4.000000,2.000000,4.000000,16.666666,,,,,,,,,,,,,,,,,,,,,,,,,,,,
1732083786.431407,1732083786.431975,20.000000,0.000000,4314.230957,4302.436035,4318.077148,4321.794922,4299.615234,4299.871582,4325.641113,4321.025879,4311.153809,4297.436035,4461.666504,4486.153809,4336.025879,4408.717773,0.000000,0.000000,5.000000,,,,0.000000,2.000000,2.000000,0.000000,2.000000,2.000000,2.000000,0.000000,2.000000,4.000000,4.000000,4.000000,4.000000,2.000000,4.000000,16.666666,,,,,,,,,,,,,,,,,5.000000,0.000000,0.633952,0.391724,-0.604980,0.280457,0.947870,0.203638,-0.025394,-73.616608,64.329552,30.547228
1732083786.439216,1732083786.439783,21.000000,0.000000,4304.871582,4289.487305,4315.512695,4313.205078,4303.717773,4308.974121,4325.384766,4327.436035,4313.077148,4290.000000,4449.615234,4481.538574,4324.230957,4401.410156,0.000000,0.000000,5.000000,,,,0.000000,2.000000,2.000000,0.000000,2.000000,2.000000,2.000000,0.000000,2.000000,4.000000,4.000000,4.000000,4.000000,2.000000,4.000000,16.666666,,,,,,,,,,,,,,,,,,,,,,,,,,,,
1732083786.447024,1732083786.447791,22.000000,0.000000,4302.820313,4291.025879,4314.615234,4306.282227,4315.128418,4307.307617,4324.102539,4328.077148,4314.743652,4292.948730,4451.282227,4482.179688,4327.051270,4401.410156,0.000000,0.000000,5.000000,,,,0.000000,2.000000,2.000000,0.000000,2.000000,2.000000,2.000000,0.000000,2.000000,4.000000,4.000000,4.000000,4.000000,2.000000,4.000000,16.666666,,,,,,,,,,,,,,,,,,,,,,,,,,,,
1732083786.454832,1732083786.455599,23.000000,0.000000,4308.461426,4298.205078,4314.487305,4311.666504,4301.922852,4301.410156,4324.358887,4325.897461,4318.461426,4301.025879,4461.410156,4488.205078,4339.102539,4410.769043,0.000000,0.000000,5.000000,,,,0.000000,2.000000,2.000000,0.000000,2.000000,2.000000,2.000000,0.000000,2.000000,4.000000,4.000000,4.000000,4.000000,2.000000,4.000000,16.666666,,,,,,,,,,,,,,,,,,,,,,,,,,,,
1732083786.462640,1732083786.463507,24.000000,0.000000,4314.615234,4297.436035,4318.717773,4319.743652,4287.179688,4302.948730,4327.563965,4328.461426,4318.974121,4304.487305,4464.743652,4495.512695,4343.589844,4417.563965,0.000000,0.000000,5.000000,,,,0.000000,2.000000,2.000000,0.000000,2.000000,2.000000,2.000000,0.000000,2.000000,4.000000,4.000000,4.000000,4.000000,2.000000,4.000000,16.666666,,,,,,,,,,,,,,,,,6.000000,0.000000,0.633836,0.393311,-0.603760,0.281128,0.958125,0.240264,-0.038091,-73.756119,64.255272,30.598255
1732083786.470449,1732083786.471315,25.000000,0.000000,4315.384766,4296.922852,4319.487305,4318.205078,4294.871582,4299.871582,4323.461426,4325.000000,4311.538574,4302.563965,4466.282227,4496.410156,4342.436035,4415.128418,0.000000,0.000000,5.000000,,,,0.000000,2.000000,2.000000,0.000000,2.000000,2.000000,2.000000,0.000000,2.000000,4.000000,4.000000,4.000000,4.000000,2.000000,4.000000,16.666666,,,,,,,,,,,,,,,,,,,,,,,,,,,,
1732083786.478257,1732083786.479323,26.000000,0.000000,4313.077148,4300.384766,4319.230957,4313.846191,4300.512695,4296.025879,4322.948730,4314.743652,4308.205078,4299.615234,4465.769043,4493.589844,4343.333496,4412.692383,0.000000,0.000000,5.000000,,,,0.000000,2.000000,2.000000,0.000000,2.000000,2.000000,2.000000,0.000000,2.000000,4.000000,4.000000,4.000000,4.000000,2.000000,4.000000,16.666666,,,,,,,,,,,,,,,,,,,,,,,,,,,,
1732083786.486065,1732083786.487132,27.000000,0.000000,4316.922852,4299.871582,4318.589844,4317.307617,4296.538574,4302.051270,4326.666504,4315.769043,4311.666504,4301.282227,4460.128418,4493.846191,4344.487305,4417.820313,0.000000,0.000000,5.000000,,,,0.000000,2.000000,2.000000,0.000000,2.000000,2.000000,2.000000,0.000000,2.000000,4.000000,4.000000,4.000000,4.000000,2.000000,4.000000,16.666666,,,,,,,,,,,,,,,,,,,,,,,,,,,,
1732083786.493873,1732083786.495040,28.000000,0.000000,4323.461426,4298.846191,4325.000000,4320.512695,4296.538574,4306.666504,4328.974121,4320.769043,4308.846191,4301.153809,4456.282227,4499.871582,4343.461426,4421.282227,0.000000,0.000000,5.000000,,,,0.000000,2.000000,2.000000,0.000000,2.000000,2.000000,2.000000,0.000000,2.000000,4.000000,4.000000,4.000000,4.000000,2.000000,4.000000,16.666666,,,,,,,,,,,,,,,,,7.000000,0.000000,0.633567,0.394653,-0.602966,0.281555,0.958125,0.260286,-0.044439,-73.869125,64.285103,30.487921
1732083786.501682,1732083786.502848,29.000000,0.000000,4322.051270,4301.538574,4327.563965,4318.974121,4297.692383,4302.820313,4326.922852,4321.538574,4306.282227,4299.871582,4459.615234,4502.563965,4344.230957,4420.769043,0.000000,0.000000,5.000000,,,,0.000000,2.000000,2.000000,0.000000,2.000000,2.000000,2.000000,0.000000,2.000000,4.000000,4.000000,4.000000,4.000000,2.000000,4.000000,16.666666,,,,,,,,,,,,,,,,,,,,,,,,,,,,
1732083786.509490,1732083786.510456,30.000000,0.000000,4317.692383,4301.410156,4327.692383,4318.974121,4298.974121,4300.128418,4330.128418,4325.000000,4312.820313,4303.717773,4461.922852,4504.871582,4346.282227,4421.282227,0.000000,0.000000,5.000000,,,,0.000000,2.000000,2.000000,0.000000,2.000000,2.000000,2.000000,0.000000,2.000000,4.000000,4.000000,4.000000,4.000000,2.000000,4.000000,16.666666,,,,,,,,,,,,,,,,,,,,,,,,,,,,
1732083786.517298,1732083786.518265,31.000000,0.000000,4318.333496,4299.871582,4330.000000,4320.128418,4297.692383,4302.948730,4334.358887,4327.820313,4320.000000,4312.179688,4463.717773,4511.025879,4346.666504,4422.948730,0.000000,0.000000,5.000000,,,,0.000000,2.000000,2.000000,0.000000,2.000000,2.000000,2.000000,0.000000,2.000000,4.000000,4.000000,4.000000,4.000000,2.000000,4.000000,16.666666,,,,,,,,,,,,,,,,,,,,,,,,,,,,
1732083786.525106,1732083786.526173,32.000000,0.000000,4319.871582,4299.615234,4332.948730,4318.974121,4289.615234,4304.871582,4336.666504,4326.410156,4319.615234,4312.436035,4466.025879,4512.692383,4346.282227,4423.077148,0.000000,0.000000,5.000000,,,,0.000000,2.000000,2.000000,0.000000,2.000000,2.000000,2.000000,0.000000,2.000000,4.000000,4.000000,4.000000,4.000000,2.000000,4.000000,16.666666,,,,,,,,,,,,,,,,,8.000000,0.000000,0.632593,0.397888,-0.601318,0.282715,1.004029,0.216335,-0.057136,-73.747322,64.020935,30.300215
1732083786.532915,1732083786.533981,33.000000,0.000000,4319.743652,4299.487305,4330.384766,4318.974121,4288.717773,4302.051270,4334.743652,4326.025879,4314.743652,4303.333496,4461.922852,4507.820313,4346.794922,4423.974121,0.000000,0.000000,5.000000,,,,0.000000,2.000000,2.000000,0.000000,2.000000,2.000000,2.000000,0.000000,2.000000,4.000000,4.000000,4.000000,4.000000,2.000000,4.000000,16.666666,,,,,,,,,,,,,,,,,,,,,,,,,,,,
1732083786.540723,1732083786.541989,34.000000,0.000000,4317.948730,4299.358887,4326.922852,4320.256348,4290.128418,4299.358887,4332.307617,4326.794922,4313.333496,4305.000000,4459.358887,4505.128418,4346.538574,4424.615234,0.000000,0.000000,5.000000,,,,0.000000,2.000000,2.000000,0.000000,2.000000,2.000000,2.000000,0.000000,2.000000,4.000000,4.000000,4.000000,4.000000,2.000000,4.000000,16.666666,,,,,,,,,,,,,,,,,,,,,,,,,,,,
1732083786.548531,1732083786.549797,35.000000,0.000000,4317.692383,4297.179688,4330.384766,4316.922852,4284.487305,4297.820313,4334.102539,4323.974121,4313.717773,4311.538574,4460.128418,4504.358887,4345.000000,4422.692383,0.000000,0.000000,5.000000,,,,0.000000,2.000000,2.000000,0.000000,2.000000,2.000000,2.000000,0.000000,2.000000,4.000000,4.000000,4.000000,4.000000,2.000000,4.000000,16.666666,,,,,,,,,,,,,,,,,,,,,,,,,,,,
1732083786.556339,1732083786.557705,36.000000,0.000000,4319.358887,4295.000000,4329.230957,4314.743652,4281.410156,4298.846191,4331.282227,4323.717773,4312.692383,4306.794922,4460.256348,4500.384766,4344.743652,4424.743652,0.000000,0.000000,5.000000,,,,0.000000,2.000000,2.000000,0.000000,2.000000,2.000000,2.000000,0.000000,2.000000,4.000000,4.000000,4.000000,4.000000,2.000000,4.000000,16.666666,,,,,,,,,,,,,,,,,9.000000,0.000000,0.627871,0.400146,-0.601868,0.288818,0.971310,0.124527,-0.034184,-73.843666,63.976955,30.431507
1732083786.564148,1732083786.565513,37.000000,0.000000,4319.743652,4295.256348,4326.410156,4314.615234,4286.410156,4301.666504,4327.563965,4327.563965,4311.153809,4301.794922,4459.615234,4497.948730,4345.512695,4427.436035,0.000000,0.000000,5.000000,,,,0.000000,2.000000,2.000000,0.000000,2.000000,2.000000,2.000000,0.000000,2.000000,4.000000,4.000000,4.000000,4.000000,2.000000,4.000000,16.666666,,,,,,,,,,,,,,,,,,,,,,,,,,,,
1732083786.571956,1732083786.573521,38.000000,0.000000,4321.794922,4291.538574,4322.563965,4312.051270,4288.846191,4301.153809,4326.538574,4327.307617,4312.563965,4309.871582,4460.384766,4496.153809,4346.794922,4427.179688,0.000000,0.000000,5.000000,,,,0.000000,2.000000,2.000000,0.000000,2.000000,2.000000,2.000000,0.000000,2.000000,4.000000,4.000000,4.000000,4.000000,2.000000,4.000000,16.666666,,,,,,,,,,,,,,,,,,,,,,,,,,,,
1732083786.579764,1732083786.581330,39.000000,0.000000,4324.358887,4286.538574,4325.384766,4309.102539,4281.922852,4296.538574,4330.384766,4326.282227,4313.974121,4312.820313,4461.410156,4495.384766,4343.077148,4428.077148,0.000000,0.000000,5.000000,,,,0.000000,2.000000,2.000000,0.000000,2.000000,2.000000,2.000000,0.000000,2.000000,4.000000,4.000000,4.000000,4.000000,2.000000,4.000000,16.666666,,,,,,,,,,,,,,,,,,,,,,,,,,,,
1732083786.587572,1732083786.589238,40.000000,0.000000,4327.051270,4292.051270,4322.692383,4311.410156,4279.102539,4296.025879,4328.846191,4325.128418,4313.205078,4307.051270,4465.000000,4497.179688,4341.282227,4431.794922,0.000000,0.000000,5.000000,,,,0.000000,2.000000,2.000000,0.000000,2.000000,2.000000,2.000000,0.000000,2.000000,4.000000,4.000000,4.000000,4.000000,2.000000,4.000000,16.666666,,,,,,,,,,,,,,,,,10.000000,0.000000,0.626327,0.399414,-0.602844,0.291138,0.971310,0.124527,-0.034184,-73.935036,63.891335,30.274521
1732083786.595381,1732083786.597046,41.000000,0.000000,4331.025879,4295.256348,4319.615234,4312.820313,4281.538574,4293.205078,4327.436035,4319.871582,4311.538574,4306.025879,4469.358887,4498.974121,4349.871582,4435.641113,0.000000,0.000000,5.000000,,,,0.000000,2.000000,2.000000,0.000000,2.000000,2.000000,2.000000,0.000000,2.000000,4.000000,4.000000,4.000000,4.000000,2.000000,4.000000,16.666666,,,,,,,,,,,,,,,,,,,,,,,,,,,,
1732083786.603189,1732083786.605054,42.000000,0.000000,4338.205078,4292.436035,4316.538574,4313.974121,4282.692383,4291.153809,4326.538574,4319.230957,4310.512695,4306.922852,4471.794922,4496.153809,4356.025879,4437.692383,0.000000,0.000000,5.000000,,,,0.000000,2.000000,2.000000,0.000000,2.000000,2.000000,2.000000,0.000000,2.000000,4.000000,4.000000,4.000000,4.000000,2.000000,4.000000,16.666666,,,,,,,,,,,,,,,,,,,,,,,,,,,,
1732083786.610997,1732083786.612862,43.000000,0.000000,4348.205078,4299.102539,4316.922852,4318.333496,4281.922852,4296.282227,4324.358887,4324.230957,4312.051270,4306.538574,4473.461426,4497.179688,4353.974121,4439.487305,0.000000,0.000000,5.000000,,,,0.000000,2.000000,2.000000,0.000000,2.000000,2.000000,2.000000,0.000000,2.000000,4.000000,4.000000,4.000000,4.000000,2.000000,4.000000,16.666666,,,,,,,,,,,,,,,,,,,,,,,,,,,,
1732083786.618806,1732083786.620570,44.000000,0.000000,4356.153809,4307.563965,4312.820313,4322.051270,4281.666504,4295.384766,4318.589844,4319.743652,4315.641113,4307.692383,4473.717773,4501.153809,4355.000000,4444.230957,0.000000,0.000000,5.000000,,,,0.000000,2.000000,2.000000,0.000000,2.000000,2.000000,2.000000,0.000000,2.000000,4.000000,4.000000,4.000000,4.000000,2.000000,4.000000,16.666666,,,,,,,,,,,,,,,,,11.000000,0.000000,0.623070,0.397278,-0.604919,0.296692,0.961055,0.107435,-0.019534,-74.137383,63.480316,30.119028
1732083786.626614,1732083786.628379,45.000000,0.000000,4357.436035,4303.846191,4308.717773,4320.641113,4280.000000,4288.717773,4317.307617,4314.487305,4316.025879,4306.410156,4473.589844,4499.102539,4359.102539,4449.871582,0.000000,0.000000,5.000000,,,,0.000000,2.000000,2.000000,0.000000,2.000000,2.000000,2.000000,0.000000,2.000000,4.000000,4.000000,4.000000,4.000000,2.000000,4.000000,16.666666,,,,,,,,,,,,,,,,,,,,,,,,,,,,
1732083786.634422,1732083786.635987,46.000000,0.000000,4362.820313,4301.538574,4305.512695,4317.948730,4278.205078,4291.282227,4317.179688,4322.820313,4311.538574,4303.333496,4475.769043,4496.410156,4361.410156,4454.743652,0.000000,0.000000,5.000000,,,,0.000000,2.000000,2.000000,0.000000,2.000000,2.000000,2.000000,0.000000,2.000000,4.000000,4.000000,4.000000,4.000000,2.000000,4.000000,16.666666,,,,,,,,,,,,,,,,,,,,,,,,,,,,
1732083786.642230,1732083786.643795,47.000000,0.000000,4373.333496,4306.153809,4298.846191,4321.538574,4281.538574,4295.641113,4311.922852,4326.666504,4307.563965,4298.205078,4477.436035,4496.025879,4363.205078,4457.948730,0.000000,0.000000,5.000000,,,,0.000000,2.000000,2.000000,0.000000,2.000000,2.000000,2.000000,0.000000,2.000000,4.000000,4.000000,4.000000,4.000000,2.000000,4.000000,16.666666,,,,,,,,,,,,,,,,,,,,,,,,,,,,
1732083786.650039,1732083786.651504,48.000000,0.000000,4378.077148,4310.000000,4294.358887,4330.384766,4286.666504,4291.282227,4306.153809,4316.538574,4307.436035,4292.179688,4475.897461,4496.538574,4363.333496,4461.282227,0.000000,0.000000,5.000000,,,,0.000000,2.000000,2.000000,0.000000,2.000000,2.000000,2.000000,0.000000,2.000000,4.000000,4.000000,4.000000,4.000000,2.000000,4.000000,16.666666,,,,,,,,,,,,,,,,,12.000000,0.000000,0.617549,0.391541,-0.609314,0.306702,0.963497,0.100598,-0.012209,-74.517944,63.264053,29.876413
1732083786.657847,1732083786.659312,49.000000,0.000000,4379.102539,4309.871582,4293.589844,4332.051270,4288.974121,4290.897461,4306.153809,4314.615234,4307.692383,4291.025879,4474.871582,4497.563965,4361.410156,4462.179688,0.000000,0.000000,5.000000,,,,0.000000,2.000000,2.000000,0.000000,2.000000,2.000000,2.000000,0.000000,2.000000,4.000000,4.000000,4.000000,4.000000,2.000000,4.000000,16.666666,,,,,,,,,,,,,,,,,,,,,,,,,,,,
1732083786.665655,1732083786.666920,50.000000,0.000000,4381.666504,4308.333496,4300.512695,4326.025879,4290.128418,4296.538574,4307.051270,4325.256348,4307.436035,4292.179688,4477.820313,4500.769043,4361.153809,4462.307617,0.000000,0.000000,5.000000,,,,0.000000,2.000000,2.000000,0.000000,2.000000,2.000000,2.000000,0.000000,2.000000,4.000000,4.000000,4.000000,4.000000,2.000000,4.000000,16.666666,,,,,,,,,,,,,,,,,,,,,,,,,,,,
1732083786.673463,1732083786.674728,51.000000,0.000000,4384.615234,4311.794922,4302.563965,4327.948730,4291.153809,4292.436035,4309.358887,4327.563965,4309.615234,4292.436035,4481.666504,4503.589844,4364.615234,4470.512695,0.000000,0.000000,5.000000,,,,0.000000,2.000000,2.000000,0.000000,2.000000,2.000000,2.000000,0.000000,2.000000,4.000000,4.000000,4.000000,4.000000,2.000000,4.000000,16.666666,,,,,,,,,,,,,,,,,,,,,,,,,,,,
1732083786.681272,1732083786.682437,52.000000,0.000000,4384.358887,4313.333496,4302.307617,4331.410156,4292.820313,4285.128418,4312.051270,4317.179688,4309.230957,4293.589844,4481.410156,4505.512695,4366.794922,4476.153809,0.000000,0.000000,5.000000,,,,0.000000,2.000000,2.000000,0.000000,2.000000,2.000000,2.000000,0.000000,2.000000,4.000000,4.000000,4.000000,4.000000,2.000000,4.000000,16.666666,,,,,,,,,,,,,,,,,13.000000,0.000000,0.613364,0.388855,-0.612183,0.312744,0.965938,0.077646,-0.033207,-74.904533,63.068886,29.441561
1732083786.689080,1732083786.690245,53.000000,0.000000,4380.641113,4308.205078,4298.333496,4326.922852,4293.077148,4289.871582,4308.846191,4317.436035,4309.102539,4298.461426,4479.615234,4501.666504,4365.384766,4473.333496,0.000000,0.000000,5.000000,,,,0.000000,2.000000,2.000000,0.000000,2.000000,2.000000,2.000000,0.000000,2.000000,4.000000,4.000000,4.000000,4.000000,2.000000,4.000000,16.666666,,,,,,,,,,,,,,,,,,,,,,,,,,,,
1732083786.696888,1732083786.697853,54.000000,0.000000,4380.641113,4305.897461,4300.512695,4325.384766,4289.487305,4293.461426,4307.307617,4326.410156,4311.794922,4297.436035,4479.615234,4500.000000,4365.641113,4468.717773,0.000000,0.000000,5.000000,,,,0.000000,2.000000,2.000000,0.000000,2.000000,2.000000,2.000000,0.000000,2.000000,4.000000,4.000000,4.000000,4.000000,2.000000,4.000000,16.666666,,,,,,,,,,,,,,,,,,,,,,,,,,,,
1732083786.704697,1732083786.705662,55.000000,0.000000,4386.410156,4313.974121,4298.205078,4332.179688,4284.487305,4287.692383,4306.922852,4322.563965,4310.128418,4294.358887,4482.179688,4500.897461,4370.769043,4473.205078,0.000000,0.000000,5.000000,,,,0.000000,2.000000,2.000000,0.000000,2.000000,2.000000,2.000000,0.000000,2.000000,4.000000,4.000000,4.000000,4.000000,2.000000,4.000000,16.666666,,,,,,,,,,,,,,,,,,,,,,,,,,,,
1732083786.712505,1732083786.713370,56.000000,0.000000,4387.692383,4319.230957,4295.897461,4333.717773,4292.436035,4281.538574,4305.641113,4311.282227,4301.282227,4293.205078,4487.051270,4502.948730,4371.410156,4477.307617,0.000000,0.000000,5.000000,,,,0.000000,2.000000,2.000000,0.000000,2.000000,2.000000,2.000000,0.000000,2.000000,4.000000,4.000000,4.000000,4.000000,2.000000,4.000000,16.666666,,,,,,,,,,,,,,,,,14.000000,0.000000,0.611827,0.388062,-0.613159,0.314819,0.947870,0.078623,-0.037602,-75.049339,62.200798,29.009331
1732083786.720313,1732083786.721178,57.000000,0.000000,4389.615234,4321.922852,4295.769043,4333.333496,4303.461426,4278.589844,4303.205078,4309.487305,4297.436035,4291.794922,4487.563965,4505.641113,4371.794922,4473.077148,0.000000,0.000000,5.000000,,,,0.000000,2.000000,2.000000,0.000000,2.000000,2.000000,2.000000,0.000000,2.000000,4.000000,4.000000,4.000000,4.000000,2.000000,4.000000,16.666666,,,,,,,,,,,,,,,,,,,,,,,,,,,,
1732083786.728121,1732083786.728787,58.000000,0.000000,4395.512695,4325.000000,4302.179688,4336.794922,4292.948730,4283.205078,4306.282227,4314.615234,4304.230957,4295.000000,4489.487305,4506.025879,4376.794922,4474.615234,0.000000,0.000000,5.000000,,,,0.000000,2.000000,2.000000,0.000000,2.000000,2.000000,2.000000,0.000000,2.000000,4.000000,4.000000,4.000000,4.000000,2.000000,4.000000,16.666666,,,,,,,,,,,,,,,,,,,,,,,,,,,,
1732083786.735930,1732083786.736595,59.000000,0.000000,4399.871582,4326.025879,4305.897461,4344.102539,4285.384766,4293.077148,4307.436035,4318.077148,4306.794922,4300.512695,4495.384766,4506.794922,4378.974121,4485.256348,0.000000,0.000000,5.000000,,,,0.000000,2.000000,2.000000,0.000000,2.000000,2.000000,2.000000,0.000000,2.000000,4.000000,4.000000,4.000000,4.000000,2.000000,4.000000,16.666666,,,,,,,,,,,,,,,,,,,,,,,,,,,,
1732083786.743738,1732083786.744303,60.000000,0.000000,4403.077148,4327.179688,4304.743652,4350.256348,4295.641113,4290.897461,4307.179688,4320.128418,4305.512695,4300.769043,4497.563965,4511.922852,4380.769043,4489.358887,0.000000,0.000000,5.000000,,,,0.000000,2.000000,2.000000,0.000000,2.000000,2.000000,2.000000,0.000000,2.000000,4.000000,4.000000,4.000000,4.000000,2.000000,4.000000,16.666666,,,,,,,,,,,,,,,,,15.000000,0.000000,0.605973,0.385559,-0.615906,0.323730,0.946405,0.082530,-0.051764,-75.349968,61.709312,28.867559
1732083786.751546,1732083786.752111,61.000000,0.000000,4405.641113,4329.871582,4304.358887,4350.897461,4298.205078,4285.897461,4306.666504,4318.077148,4309.615234,4299.743652,4497.307617,4514.743652,4382.692383,4486.282227,0.000000,0.000000,5.000000,,,,0.000000,2.000000,2.000000,0.000000,2.000000,2.000000,2.000000,0.000000,2.000000,4.000000,4.000000,4.000000,4.000000,2.000000,4.000000,16.666666,,,,,,,,,,,,,,,,,,,,,,,,,,,,
1732083786.759354,1732083786.760119,62.000000,0.000000,4406.794922,4331.282227,4306.922852,4348.846191,4294.487305,4290.897461,4308.077148,4315.641113,4308.461426,4300.512695,4499.358887,4512.179688,4383.333496,4485.512695,0.000000,0.000000,5.000000,,,,0.000000,2.000000,2.000000,0.000000,2.000000,2.000000,2.000000,0.000000,2.000000,4.000000,4.000000,4.000000,4.000000,2.000000,4.000000,16.666666,,,,,,,,,,,,,,,,,,,,,,,,,,,,
1732083786.767163,1732083786.767927,63.000000,0.000000,4405.256348,4330.384766,4308.589844,4347.948730,4299.871582,4294.871582,4309.487305,4316.538574,4302.692383,4296.025879,4497.436035,4511.666504,4382.436035,4481.922852,0.000000,0.000000,5.000000,,,,0.000000,2.000000,2.000000,0.000000,2.000000,2.000000,2.000000,0.000000,2.000000,4.000000,4.000000,4.000000,4.000000,2.000000,4.000000,16.666666,,,,,,,,,,,,,,,,,,,,,,,,,,,,
1732083786.774971,1732083786.775636,64.000000,0.000000,4400.128418,4330.897461,4305.128418,4347.563965,4303.846191,4291.922852,4311.410156,4316.153809,4304.230957,4292.820313,4493.333496,4509.871582,4380.000000,4475.641113,0.000000,0.000000,5.000000,,,,0.000000,2.000000,2.000000,0.000000,2.000000,2.000000,2.000000,0.000000,2.000000,4.000000,4.000000,4.000000,4.000000,2.000000,4.000000,16.666666,,,,,,,,,,,,,,,,,16.000000,0.000000,0.602723,0.385742,-0.616394,0.328613,0.951776,0.097180,-0.077646,-75.540138,61.282875,28.564388
1732083786.782779,1732083786.783444,65.000000,0.000000,4397.436035,4332.179688,4306.153809,4346.922852,4296.153809,4293.589844,4312.948730,4317.051270,4310.641113,4300.512695,4498.333496,4509.743652,4380.256348,4478.589844,1327.000000,0.000000,5.000000,,,,0.000000,2.000000,2.000000,0.000000,2.000000,2.000000,2.000000,0.000000,2.000000,4.000000,4.000000,4.000000,4.000000,2.000000,4.000000,16.666666,,,,,,,,,,,,,,,,,,,,,,,,,,,,
1732083786.790587,1732083786.791052,66.000000,0.000000,4398.589844,4330.384766,4306.538574,4348.333496,4298.077148,4295.512695,4311.538574,4320.128418,4313.205078,4304.487305,4502.436035,4513.461426,4382.948730,4480.000000,1245.000000,0.000000,5.000000,,,,0.000000,2.000000,2.000000,0.000000,2.000000,2.000000,2.000000,0.000000,2.000000,4.000000,4.000000,4.000000,4.000000,2.000000,4.000000,16.666666,,,,,,,,,,,,,,,,,,,,,,,,,,,,
1732083786.798396,1732083786.798861,67.000000,0.000000,4396.153809,4328.717773,4309.871582,4347.436035,4310.000000,4290.384766,4311.410156,4320.384766,4312.563965,4301.410156,4495.641113,4513.333496,4378.205078,4473.717773,1200.000000,0.000000,5.000000,,,,0.000000,2.000000,2.000000,0.000000,2.000000,2.000000,2.000000,0.000000,2.000000,4.000000,4.000000,4.000000,4.000000,2.000000,4.000000,16.666666,,,,,,,,,,,,,,,,,,,,,,,,,,,,
1732083786.806204,1732083786.806769,68.000000,0.000000,4392.436035,4330.641113,4312.948730,4347.179688,4309.230957,4289.102539,4315.000000,4317.948730,4311.794922,4302.563965,4492.179688,4512.051270,4375.769043,4473.333496,1212.000000,0.000000,5.000000,,,,0.000000,2.000000,2.000000,0.000000,2.000000,2.000000,2.000000,0.000000,2.000000,4.000000,4.000000,4.000000,4.000000,2.000000,4.000000,16.666666,,,,,,,,,,,,,,,,,17.000000,0.000000,0.600851,0.386169,-0.616516,0.331299,0.968868,0.100110,-0.077646,-75.975845,60.795795,28.310488
1732083786.814012,1732083786.814577,69.000000,0.000000,4391.538574,4331.282227,4313.205078,4347.051270,4293.717773,4293.589844,4318.205078,4320.384766,4313.589844,4310.128418,4498.974121,4514.487305,4383.846191,4478.717773,1083.000000,0.000000,5.000000,,,,0.000000,2.000000,2.000000,0.000000,2.000000,2.000000,2.000000,0.000000,2.000000,4.000000,4.000000,4.000000,4.000000,2.000000,4.000000,16.666666,,,,,,,,,,,,,,,,,,,,,,,,,,,,
1732083786.821820,1732083786.822585,70.000000,0.000000,4388.974121,4326.794922,4309.358887,4343.717773,4289.358887,4297.820313,4315.769043,4326.282227,4317.307617,4313.717773,4502.948730,4515.128418,4383.589844,4476.410156,0.000000,0.000000,5.000000,,,,0.000000,2.000000,2.000000,0.000000,2.000000,2.000000,2.000000,0.000000,2.000000,4.000000,4.000000,4.000000,4.000000,2.000000,4.000000,16.666666,,,,,,,,,,,,,,,,,,,,,,,,,,,,
1732083786.829629,1732083786.830393,71.000000,0.000000,4385.256348,4324.743652,4313.717773,4340.769043,4296.794922,4295.128418,4315.384766,4326.410156,4315.641113,4308.461426,4495.897461,4515.128418,4378.333496,4467.563965,1172.000000,0.000000,5.000000,,,,0.000000,2.000000,2.000000,0.000000,2.000000,2.000000,2.000000,0.000000,2.000000,4.000000,4.000000,4.000000,4.000000,2.000000,4.000000,16.666666,,,,,,,,,,,,,,,,,,,,,,,,,,,,
1732083786.837437,1732083786.838301,72.000000,0.000000,4386.794922,4329.743652,4317.307617,4340.897461,4296.153809,4293.333496,4315.897461,4320.897461,4310.128418,4301.282227,4491.922852,4510.897461,4377.948730,4464.743652,1364.000000,0.000000,5.000000,,,,0.000000,2.000000,2.000000,0.000000,2.000000,2.000000,2.000000,0.000000,2.000000,4.000000,4.000000,4.000000,4.000000,2.000000,4.000000,16.666666,,,,,,,,,,,,,,,,,18.000000,0.000000,0.596982,0.387390,-0.616699,0.336487,0.974240,0.103040,-0.076670,-76.297104,60.327927,28.156496
1732083786.845245,1732083786.846109,73.000000,0.000000,4386.794922,4328.974121,4316.282227,4339.102539,4293.333496,4296.666504,4317.051270,4320.256348,4305.128418,4297.179688,4491.666504,4509.743652,4372.436035,4463.077148,1529.000000,0.000000,5.000000,,,,0.000000,2.000000,2.000000,0.000000,2.000000,2.000000,2.000000,0.000000,2.000000,4.000000,4.000000,4.000000,4.000000,2.000000,4.000000,16.666666,,,,,,,,,,,,,,,,,,,,,,,,,,,,
1732083786.853053,1732083786.854117,74.000000,0.000000,4385.256348,4323.974121,4317.436035,4337.051270,4296.410156,4298.333496,4318.205078,4325.000000,4305.641113,4297.436035,4491.410156,4517.820313,4370.769043,4460.000000,1389.000000,0.000000,5.000000,,,,0.000000,2.000000,2.000000,0.000000,2.000000,2.000000,2.000000,0.000000,2.000000,4.000000,4.000000,4.000000,4.000000,2.000000,4.000000,16.666666,,,,,,,,,,,,,,,,,,,,,,,,,,,,
1732083786.860862,1732083786.861926,75.000000,0.000000,4384.102539,4325.384766,4320.384766,4339.358887,4296.282227,4297.179688,4321.410156,4327.563965,4310.000000,4297.179688,4490.897461,4521.410156,4377.692383,4461.410156,1528.000000,0.000000,5.000000,,,,0.000000,2.000000,2.000000,0.000000,2.000000,2.000000,2.000000,0.000000,2.000000,4.000000,4.000000,4.000000,4.000000,2.000000,4.000000,16.666666,,,,,,,,,,,,,,,,,,,,,,,,,,,,
1732083786.868670,1732083786.869834,76.000000,0.000000,4379.871582,4328.205078,4319.743652,4338.461426,4297.948730,4295.641113,4319.102539,4325.384766,4311.153809,4296.410156,4489.487305,4516.538574,4373.717773,4462.179688,1755.000000,0.000000,5.000000,,,,0.000000,2.000000,2.000000,0.000000,2.000000,2.000000,2.000000,0.000000,2.000000,4.000000,4.000000,4.000000,4.000000,2.000000,4.000000,16.666666,,,,,,,,,,,,,,,,,19.000000,0.000000,0.589678,0.387390,-0.617737,0.347290,0.996215,0.022464,-0.049322,-76.457321,59.815620,27.898428
1732083786.876478,1732083786.877642,77.000000,0.000000,4374.743652,4326.282227,4323.461426,4335.769043,4300.512695,4294.743652,4318.846191,4321.538574,4311.538574,4298.974121,4490.128418,4516.153809,4368.205078,4459.743652,1539.000000,0.000000,5.000000,,,,0.000000,2.000000,2.000000,0.000000,2.000000,2.000000,2.000000,0.000000,2.000000,4.000000,4.000000,4.000000,4.000000,2.000000,4.000000,16.666666,,,,,,,,,,,,,,,,,,,,,,,,,,,,
1732083786.884287,1732083786.885250,78.000000,0.000000,4374.358887,4326.282227,4328.461426,4338.205078,4298.717773,4293.974121,4323.461426,4321.794922,4313.717773,4301.153809,4491.794922,4518.205078,4376.538574,4460.256348,1389.000000,0.000000,5.000000,,,,0.000000,2.000000,2.000000,0.000000,2.000000,2.000000,2.000000,0.000000,2.000000,4.000000,4.000000,4.000000,4.000000,2.000000,4.000000,16.666666,1.000000,8.333333,2.000000,2.000000,0.000000,2.000000,2.000000,2.000000,0.000000,2.000000,1.000000,4.000000,4.000000,4.000000,2.000000,4.000000,,,,,,,,,,,,
1732083786.892095,1732083786.893059,79.000000,0.000000,4373.846191,4329.230957,4327.692383,4340.256348,4301.282227,4296.282227,4326.153809,4325.641113,4316.025879,4302.051270,4491.153809,4515.256348,4376.538574,4459.358887,1528.000000,0.000000,5.000000,,,,0.000000,2.000000,2.000000,0.000000,2.000000,2.000000,2.000000,0.000000,2.000000,4.000000,4.000000,4.000000,4.000000,2.000000,4.000000,16.666666,,,,,,,,,,,,,,,,,,,,,,,,,,,,
1732083786.899903,1732083786.900967,80.000000,0.000000,4369.615234,4329.102539,4328.589844,4337.692383,4307.820313,4297.692383,4323.461426,4326.794922,4321.025879,4305.256348,4489.743652,4515.769043,4372.436035,4456.666504,1755.000000,0.000000,5.000000,,,,0.000000,2.000000,2.000000,0.000000,2.000000,2.000000,2.000000,0.000000,2.000000,4.000000,4.000000,4.000000,4.000000,2.000000,4.000000,16.666666,,,,,,,,,,,,,,,,,20.000000,0.000000,0.583558,0.385376,-0.620850,0.354248,1.027958,0.018069,-0.077158,-76.680428,59.080654,27.569393
1732083786.907711,1732083786.908775,81.000000,0.000000,4367.692383,4329.358887,4332.436035,4335.384766,4304.487305,4296.666504,4322.307617,4326.025879,4322.563965,4307.692383,4493.333496,4512.820313,4374.615234,4457.307617,1539.000000,0.000000,5.000000,,,,0.000000,2.000000,2.000000,0.000000,2.000000,2.000000,2.000000,0.000000,2.000000,4.000000,4.000000,4.000000,4.000000,2.000000,4.000000,16.666666,,,,,,,,,,,,,,,,,,,,,,,,,,,,
1732083786.915520,1732083786.916783,82.000000,0.000000,4368.461426,4329.871582,4333.461426,4335.641113,4297.948730,4297.563965,4325.384766,4326.666504,4316.666504,4306.282227,4492.179688,4507.307617,4371.666504,4457.051270,1389.000000,0.000000,5.000000,,,,0.000000,2.000000,2.000000,0.000000,2.000000,2.000000,2.000000,0.000000,2.000000,4.000000,4.000000,4.000000,4.000000,2.000000,4.000000,16.666666,,,,,,,,,,,,,,,,,,,,,,,,,,,,
1732083786.923328,1732083786.924591,83.000000,0.000000,4368.205078,4324.102539,4330.384766,4335.512695,4300.641113,4297.179688,4326.153809,4324.358887,4313.077148,4308.077148,4484.871582,4508.846191,4368.077148,4456.282227,1528.000000,0.000000,5.000000,,,,0.000000,2.000000,2.000000,0.000000,2.000000,2.000000,2.000000,0.000000,2.000000,4.000000,4.000000,4.000000,4.000000,2.000000,4.000000,16.666666,,,,,,,,,,,,,,,,,,,,,,,,,,,,
1732083786.931136,1732083786.932499,84.000000,0.000000,4363.974121,4317.563965,4332.948730,4334.102539,4300.384766,4295.128418,4323.974121,4321.922852,4316.538574,4311.282227,4485.512695,4519.743652,4370.512695,4459.615234,1755.000000,0.000000,5.000000,,,,0.000000,2.000000,2.000000,0.000000,2.000000,2.000000,2.000000,0.000000,2.000000,4.000000,4.000000,4.000000,4.000000,2.000000,4.000000,16.666666,,,,,,,,,,,,,,,,,21.000000,0.000000,0.581318,0.384399,-0.622437,0.356201,1.013796,-0.003907,-0.087413,-76.899483,58.431995,27.049541
1732083786.938944,1732083786.940307,85.000000,0.000000,4363.589844,4316.153809,4335.384766,4332.051270,4295.128418,4295.897461,4324.230957,4326.538574,4317.820313,4309.487305,4488.205078,4522.179688,4370.897461,4461.538574,1539.000000,0.000000,5.000000,,,,0.000000,2.000000,2.000000,0.000000,2.000000,2.000000,2.000000,0.000000,2.000000,4.000000,4.000000,4.000000,4.000000,2.000000,4.000000,16.666666,,,,,,,,,,,,,,,,,,,,,,,,,,,,
1732083786.946753,1732083786.948315,86.000000,0.000000,4368.077148,4316.922852,4333.461426,4331.794922,4296.666504,4296.282227,4325.512695,4326.922852,4313.974121,4305.512695,4485.128418,4512.692383,4367.436035,4457.692383,1389.000000,0.000000,5.000000,,,,0.000000,2.000000,2.000000,0.000000,2.000000,2.000000,2.000000,0.000000,2.000000,4.000000,4.000000,4.000000,4.000000,2.000000,4.000000,16.666666,,,,,,,,,,,,,,,,,,,,,,,,,,,,
1732083786.954561,1732083786.956124,87.000000,0.000000,4365.256348,4317.179688,4328.589844,4333.077148,4299.487305,4296.282227,4323.333496,4320.897461,4313.333496,4305.256348,4481.153809,4506.025879,4367.948730,4453.974121,1528.000000,0.000000,5.000000,,,,0.000000,2.000000,2.000000,0.000000,2.000000,2.000000,2.000000,0.000000,2.000000,4.000000,4.000000,4.000000,4.000000,2.000000,4.000000,16.666666,,,,,,,,,,,,,,,,,,,,,,,,,,,,
1732083786.962369,1732083786.964032,88.000000,0.000000,4361.282227,4318.974121,4330.641113,4332.436035,4297.692383,4298.461426,4323.846191,4320.769043,4316.922852,4307.820313,4482.051270,4507.948730,4371.153809,4452.563965,1755.000000,0.000000,5.000000,,,,0.000000,2.000000,2.000000,0.000000,2.000000,2.000000,2.000000,0.000000,2.000000,4.000000,4.000000,4.000000,4.000000,2.000000,4.000000,16.666666,,,,,,,,,,,,,,,,,22.000000,0.000000,0.573703,0.379517,-0.628906,0.362366,0.985472,-0.056648,-0.074716,-77.151909,57.939919,26.741796
1732083786.970178,1732083786.971840,89.000000,0.000000,4361.922852,4319.102539,4329.102539,4331.922852,4299.871582,4298.717773,4325.128418,4324.358887,4316.153809,4308.717773,4480.000000,4508.333496,4371.538574,4447.307617,1539.000000,0.000000,5.000000,,,,0.000000,2.000000,2.000000,0.000000,2.000000,2.000000,2.000000,0.000000,2.000000,4.000000,4.000000,4.000000,4.000000,2.000000,4.000000,16.666666,,,,,,,,,,,,,,,,,,,,,,,,,,,,
1732083786.977986,1732083786.979848,90.000000,0.000000,4354.871582,4315.384766,4325.128418,4327.692383,4305.256348,4297.179688,4323.461426,4321.922852,4313.333496,4308.589844,4477.179688,4504.230957,4368.077148,4443.205078,1389.000000,0.000000,5.000000,,,,0.000000,2.000000,2.000000,0.000000,2.000000,2.000000,2.000000,0.000000,2.000000,4.000000,4.000000,4.000000,4.000000,2.000000,4.000000,16.666666,,,,,,,,,,,,,,,,,,,,,,,,,,,,
1732083786.985794,1732083786.987656,91.000000,0.000000,4349.871582,4313.846191,4326.025879,4325.128418,4305.256348,4296.410156,4318.077148,4320.897461,4316.794922,4312.307617,4483.461426,4502.692383,4369.871582,4445.897461,1528.000000,0.000000,5.000000,,,,0.000000,2.000000,2.000000,0.000000,2.000000,2.000000,2.000000,0.000000,2.000000,4.000000,4.000000,4.000000,4.000000,2.000000,4.000000,16.666666,,,,,,,,,,,,,,,,,,,,,,,,,,,,
1732083786.993602,1732083786.995564,92.000000,0.000000,4355.641113,4319.358887,4326.282227,4332.563965,4304.230957,4296.025879,4319.487305,4326.794922,4322.820313,4318.077148,4487.820313,4503.717773,4373.589844,4448.077148,1755.000000,0.000000,5.000000,,,,0.000000,2.000000,2.000000,0.000000,2.000000,2.000000,2.000000,0.000000,2.000000,4.000000,4.000000,4.000000,4.000000,2.000000,4.000000,16.666666,,,,,,,,,,,,,,,,,23.000000,0.000000,0.565318,0.370483,-0.637634,0.369568,0.950800,-0.054206,-0.090343,-77.414719,57.237999,26.320854
1732083787.001411,1732083787.003372,93.000000,0.000000,4357.307617,4325.384766,4322.179688,4339.487305,4307.436035,4297.179688,4319.871582,4323.589844,4323.205078,4319.358887,4485.769043,4506.666504,4371.922852,4447.692383,1539.000000,0.000000,5.000000,,,,0.000000,2.000000,2.000000,0.000000,2.000000,2.000000,2.000000,0.000000,2.000000,4.000000,4.000000,4.000000,4.000000,2.000000,4.000000,16.666666,,,,,,,,,,,,,,,,,,,,,,,,,,,,
1732083787.009219,1732083787.010981,94.000000,0.000000,4353.589844,4322.051270,4322.692383,4333.333496,4307.563965,4297.820313,4316.922852,4313.717773,4316.282227,4316.153809,4487.179688,4509.230957,4377.563965,4454.358887,1389.000000,0.000000,5.000000,,,,0.000000,2.000000,2.000000,0.000000,2.000000,2.000000,2.000000,0.000000,2.000000,4.000000,4.000000,4.000000,4.000000,2.000000,4.000000,16.666666,,,,,,,,,,,,,,,,,,,,,,,,,,,,
1732083787.017027,1732083787.018789,95.000000,0.000000,4357.051270,4317.307617,4328.205078,4329.871582,4306.666504,4296.922852,4315.384766,4313.974121,4313.846191,4317.820313,4492.436035,4509.230957,4385.128418,4460.512695,1528.000000,0.000000,5.000000,,,,0.000000,2.000000,2.000000,0.000000,2.000000,2.000000,2.000000,0.000000,2.000000,4.000000,4.000000,4.000000,4.000000,2.000000,4.000000,16.666666,,,,,,,,,,,,,,,,,,,,,,,,,,,,
1732083787.024835,1732083787.026497,96.000000,0.000000,4355.000000,4317.179688,4325.000000,4333.717773,4311.410156,4302.820313,4322.563965,4335.000000,4328.333496,4319.743652,4487.307617,4508.974121,4377.563965,4451.666504,1755.000000,0.000000,5.000000,,,,0.000000,2.000000,2.000000,0.000000,2.000000,2.000000,2.000000,0.000000,2.000000,4.000000,4.000000,4.000000,4.000000,2.000000,4.000000,16.666666,,,,,,,,,,,,,,,,,24.000000,0.000000,0.562468,0.367249,-0.640564,0.372070,0.950800,-0.054206,-0.090343,-77.822586,56.647778,25.859892
1732083787.032644,1732083787.034306,97.000000,0.000000,4342.563965,4313.333496,4323.077148,4328.461426,4312.307617,4311.666504,4328.589844,4363.333496,4346.153809,4315.256348,4476.538574,4514.102539,4363.846191,4439.487305,1539.000000,0.000000,5.000000,,,,0.000000,2.000000,2.000000,0.000000,2.000000,2.000000,2.000000,0.000000,2.000000,4.000000,4.000000,4.000000,4.000000,2.000000,4.000000,16.666666,,,,,,,,,,,,,,,,,,,,,,,,,,,,
1732083787.040452,1732083787.041914,98.000000,0.000000,4340.128418,4311.538574,4326.025879,4327.307617,4310.769043,4310.897461,4325.256348,4349.102539,4335.897461,4314.230957,4479.615234,4514.230957,4366.666504,4439.743652,1389.000000,0.000000,5.000000,,,,0.000000,2.000000,2.000000,0.000000,2.000000,2.000000,2.000000,0.000000,2.000000,4.000000,4.000000,4.000000,4.000000,2.000000,4.000000,16.666666,,,,,,,,,,,,,,,,,,,,,,,,,,,,
1732083787.048260,1732083787.049722,99.000000,0.000000,4353.205078,4321.410156,4329.871582,4338.205078,4312.692383,4301.153809,4320.512695,4306.538574,4311.666504,4315.512695,4487.307617,4512.436035,4378.974121,4447.948730,1528.000000,0.000000,5.000000,,,,0.000000,2.000000,2.000000,0.000000,2.000000,2.000000,2.000000,0.000000,2.000000,4.000000,4.000000,4.000000,4.000000,2.000000,4.000000,16.666666,,,,,,,,,,,,,,,,,,,,,,,,,,,,
1732083787.056068,1732083787.057630,100.000000,0.000000,4362.820313,4327.307617,4326.666504,4339.871582,4307.820313,4288.974121,4318.333496,4308.077148,4314.743652,4311.538574,4489.871582,4514.871582,4382.692383,4455.897461,1755.000000,0.000000,5.000000,,,,0.000000,2.000000,2.000000,0.000000,2.000000,2.000000,2.000000,0.000000,2.000000,4.000000,4.000000,4.000000,4.000000,2.000000,4.000000,16.666666,,,,,,,,,,,,,,,,,25.000000,0.000000,0.559642,0.364441,-0.643250,0.374451,0.919546,-0.035649,-0.111342,-78.109627,55.923035,25.443180
1732083787.063877,1732083787.065439,101.000000,0.000000,4361.282227,4321.922852,4325.641113,4330.769043,4299.102539,4283.974121,4316.153809,4328.077148,4323.974121,4309.102539,4489.102539,4515.256348,4380.641113,4458.974121,1539.000000,0.000000,5.000000,,,,0.000000,2.000000,2.000000,0.000000,2.000000,2.000000,2.000000,0.000000,2.000000,4.000000,4.000000,4.000000,4.000000,2.000000,4.000000,16.666666,,,,,,,,,,,,,,,,,,,,,,,,,,,,
1732083787.071685,1732083787.073047,102.000000,0.000000,4363.077148,4322.307617,4326.666504,4333.717773,4303.461426,4287.948730,4315.512695,4304.871582,4313.205078,4310.000000,4489.487305,4509.871582,4383.205078,4461.153809,1389.000000,0.000000,5.000000,,,,0.000000,2.000000,2.000000,0.000000,2.000000,2.000000,2.000000,0.000000,2.000000,4.000000,4.000000,4.000000,4.000000,2.000000,4.000000,16.666666,,,,,,,,,,,,,,,,,,,,,,,,,,,,
1732083787.079493,1732083787.080855,103.000000,0.000000,4366.025879,4328.974121,4328.077148,4337.051270,4310.769043,4291.025879,4318.461426,4282.692383,4302.051270,4307.179688,4489.743652,4508.846191,4385.128418,4462.563965,1528.000000,0.000000,5.000000,,,,0.000000,2.000000,2.000000,0.000000,2.000000,2.000000,2.000000,0.000000,2.000000,4.000000,4.000000,4.000000,4.000000,2.000000,4.000000,16.666666,,,,,,,,,,,,,,,,,,,,,,,,,,,,
1732083787.087301,1732083787.088563,104.000000,0.000000,4359.743652,4328.974121,4324.743652,4333.846191,4311.794922,4295.000000,4321.282227,4302.820313,4308.461426,4305.512695,4489.743652,4510.769043,4381.794922,4458.589844,1755.000000,0.000000,5.000000,,,,0.000000,2.000000,2.000000,0.000000,2.000000,2.000000,2.000000,0.000000,2.000000,4.000000,4.000000,4.000000,4.000000,2.000000,4.000000,16.666666,,,,,,,,,,,,,,,,,26.000000,0.000000,0.551112,0.358337,-0.650208,0.380920,0.957636,-0.107435,-0.137224,-78.767136,54.934326,25.127308
1732083787.095110,1732083787.096372,105.000000,0.000000,4351.025879,4324.102539,4321.538574,4336.410156,4313.333496,4302.948730,4326.153809,4320.256348,4318.205078,4304.358887,4486.538574,4507.692383,4377.820313,4448.077148,1539.000000,0.000000,5.000000,,,,0.000000,2.000000,2.000000,0.000000,2.000000,2.000000,2.000000,0.000000,2.000000,4.000000,4.000000,4.000000,4.000000,2.000000,4.000000,16.666666,,,,,,,,,,,,,,,,,,,,,,,,,,,,
1732083787.102918,1732083787.103980,106.000000,0.000000,4347.820313,4320.641113,4320.384766,4337.436035,4313.461426,4305.769043,4324.102539,4319.743652,4319.871582,4301.538574,4477.563965,4505.769043,4377.307617,4441.153809,1389.000000,0.000000,5.000000,,,,0.000000,2.000000,2.000000,0.000000,2.000000,2.000000,2.000000,0.000000,2.000000,4.000000,4.000000,4.000000,4.000000,2.000000,4.000000,16.666666,,,,,,,,,,,,,,,,,,,,,,,,,,,,
1732083787.110726,1732083787.111788,107.000000,0.000000,4344.230957,4320.897461,4321.153809,4332.179688,4311.410156,4300.384766,4320.384766,4319.743652,4315.897461,4301.282227,4475.256348,4504.743652,4379.230957,4441.922852,1528.000000,0.000000,5.000000,,,,0.000000,2.000000,2.000000,0.000000,2.000000,2.000000,2.000000,0.000000,2.000000,4.000000,4.000000,4.000000,4.000000,2.000000,4.000000,16.666666,,,,,,,,,,,,,,,,,,,,,,,,,,,,
1732083787.118534,1732083787.119497,108.000000,0.000000,4342.820313,4324.487305,4320.384766,4334.102539,4311.025879,4296.666504,4319.230957,4316.794922,4311.794922,4301.922852,4483.717773,4503.717773,4381.282227,4445.128418,1755.000000,0.000000,5.000000,,,,0.000000,2.000000,2.000000,0.000000,2.000000,2.000000,2.000000,0.000000,2.000000,4.000000,4.000000,4.000000,4.000000,2.000000,4.000000,16.666666,,,,,,,,,,,,,,,,,27.000000,0.000000,0.549303,0.357605,-0.651245,0.382446,0.957636,-0.107435,-0.137224,-79.254707,53.978470,24.859787
1732083787.126343,1732083787.127305,109.000000,0.000000,4344.871582,4324.358887,4321.410156,4337.307617,4311.922852,4299.871582,4323.974121,4325.128418,4321.025879,4304.358887,4491.538574,4507.179688,4382.179688,4446.025879,1539.000000,0.000000,5.000000,,,,0.000000,2.000000,2.000000,0.000000,2.000000,2.000000,2.000000,0.000000,2.000000,4.000000,4.000000,4.000000,4.000000,2.000000,4.000000,16.666666,,,,,,,,,,,,,,,,,,,,,,,,,,,,
1732083787.134151,1732083787.134913,110.000000,0.000000,4342.051270,4322.179688,4325.512695,4328.333496,4314.358887,4307.179688,4324.743652,4340.128418,4331.410156,4310.897461,4488.974121,4509.230957,4382.436035,4444.102539,1389.000000,0.000000,5.000000,,,,0.000000,2.000000,2.000000,0.000000,2.000000,2.000000,2.000000,0.000000,2.000000,4.000000,4.000000,4.000000,4.000000,2.000000,4.000000,16.666666,,,,,,,,,,,,,,,,,,,,,,,,,,,,
1732083787.141959,1732083787.142721,111.000000,0.000000,4340.512695,4325.000000,4325.641113,4323.717773,4310.000000,4305.641113,4323.333496,4330.256348,4325.897461,4317.051270,4488.461426,4507.563965,4382.436035,4444.871582,1528.000000,0.000000,5.000000,,,,0.000000,2.000000,2.000000,0.000000,2.000000,2.000000,2.000000,0.000000,2.000000,4.000000,4.000000,4.000000,4.000000,2.000000,4.000000,16.666666,,,,,,,,,,,,,,,,,,,,,,,,,,,,
1732083787.149768,1732083787.150630,112.000000,0.000000,4346.153809,4325.897461,4326.922852,4330.512695,4307.179688,4294.743652,4322.692383,4308.589844,4316.922852,4314.743652,4493.461426,4512.436035,4383.461426,4448.974121,1755.000000,0.000000,5.000000,,,,0.000000,2.000000,2.000000,0.000000,2.000000,2.000000,2.000000,0.000000,2.000000,4.000000,4.000000,4.000000,4.000000,2.000000,4.000000,16.666666,,,,,,,,,,,,,,,,,28.000000,0.000000,0.544555,0.354248,-0.654175,0.387329,0.946893,-0.174338,-0.121597,-79.617981,52.874226,24.316427
1732083787.157576,1732083787.158438,113.000000,0.000000,4347.307617,4324.230957,4328.461426,4331.410156,4321.410156,4290.000000,4319.871582,4302.179688,4314.102539,4306.282227,4487.820313,4515.256348,4381.922852,4448.205078,1539.000000,0.000000,5.000000,,,,0.000000,2.000000,2.000000,0.000000,2.000000,2.000000,2.000000,0.000000,2.000000,4.000000,4.000000,4.000000,4.000000,2.000000,4.000000,16.666666,,,,,,,,,,,,,,,,,,,,,,,,,,,,
1732083787.165384,1732083787.166446,114.000000,0.000000,4342.692383,4326.538574,4331.025879,4328.333496,4325.000000,4293.846191,4321.666504,4306.666504,4313.589844,4305.512695,4477.948730,4511.153809,4378.205078,4445.384766,1389.000000,0.000000,5.000000,,,,0.000000,2.000000,2.000000,0.000000,2.000000,2.000000,2.000000,0.000000,2.000000,4.000000,4.000000,4.000000,4.000000,2.000000,4.000000,16.666666,,,,,,,,,,,,,,,,,,,,,,,,,,,,
1732083787.173192,1732083787.174254,115.000000,0.000000,4339.358887,4324.358887,4328.589844,4331.153809,4308.333496,4302.179688,4327.820313,4320.897461,4318.974121,4308.589844,4477.563965,4510.000000,4376.282227,4442.179688,1528.000000,0.000000,5.000000,,,,0.000000,2.000000,2.000000,0.000000,2.000000,2.000000,2.000000,0.000000,2.000000,4.000000,4.000000,4.000000,4.000000,2.000000,4.000000,16.666666,,,,,,,,,,,,,,,,,,,,,,,,,,,,
1732083787.181001,1732083787.181962,116.000000,0.000000,4336.922852,4316.538574,4328.846191,4333.461426,4308.077148,4309.743652,4329.615234,4336.538574,4330.384766,4302.692383,4478.461426,4512.436035,4375.897461,4436.410156,1755.000000,0.000000,5.000000,,,,0.000000,2.000000,2.000000,0.000000,2.000000,2.000000,2.000000,0.000000,2.000000,4.000000,4.000000,4.000000,4.000000,2.000000,4.000000,16.666666,,,,,,,,,,,,,,,,,29.000000,0.000000,0.540537,0.347717,-0.657288,0.393555,0.954218,-0.196313,-0.112807,-79.960564,51.848125,24.031305
1732083787.188809,1732083787.189771,117.000000,0.000000,4336.410156,4317.436035,4328.717773,4330.384766,4322.436035,4306.794922,4324.743652,4330.256348,4327.307617,4299.358887,4473.974121,4508.974121,4377.179688,4431.153809,1539.000000,0.000000,5.000000,,,,0.000000,2.000000,2.000000,0.000000,2.000000,2.000000,2.000000,0.000000,2.000000,4.000000,4.000000,4.000000,4.000000,2.000000,4.000000,16.666666,,,,,,,,,,,,,,,,,,,,,,,,,,,,
1732083787.196617,1732083787.197379,118.000000,0.000000,4335.769043,4321.538574,4330.128418,4327.820313,4317.307617,4297.179688,4324.102539,4319.871582,4315.769043,4303.333496,4475.256348,4504.743652,4380.000000,4430.256348,1389.000000,0.000000,5.000000,,,,0.000000,2.000000,2.000000,0.000000,2.000000,2.000000,2.000000,0.000000,2.000000,4.000000,4.000000,4.000000,4.000000,2.000000,4.000000,16.666666,,,,,,,,,,,,,,,,,,,,,,,,,,,,
1732083787.204425,1732083787.205187,119.000000,0.000000,4338.846191,4320.897461,4328.077148,4326.666504,4307.436035,4294.871582,4324.743652,4322.563965,4319.230957,4306.153809,4480.897461,4507.692383,4383.333496,4436.025879,1528.000000,0.000000,5.000000,,,,0.000000,2.000000,2.000000,0.000000,2.000000,2.000000,2.000000,0.000000,2.000000,4.000000,4.000000,4.000000,4.000000,2.000000,4.000000,16.666666,,,,,,,,,,,,,,,,,,,,,,,,,,,,
1732083787.212234,1732083787.212895,120.000000,0.000000,4345.256348,4321.410156,4326.153809,4326.282227,4313.974121,4298.974121,4322.436035,4315.897461,4322.307617,4306.153809,4478.205078,4509.230957,4385.000000,4443.974121,1755.000000,0.000000,5.000000,,,,0.000000,2.000000,2.000000,0.000000,2.000000,2.000000,2.000000,0.000000,2.000000,4.000000,4.000000,4.000000,4.000000,2.000000,4.000000,16.666666,,,,,,,,,,,,,,,,,30.000000,0.000000,0.538699,0.342102,-0.659058,0.398010,0.968380,-0.205103,-0.109877,-80.353058,50.876980,23.690357
1732083787.220042,1732083787.220704,121.000000,0.000000,4344.487305,4320.641113,4328.205078,4327.948730,4319.358887,4301.153809,4319.102539,4305.641113,4317.179688,4308.077148,4479.230957,4507.563965,4383.589844,4443.974121,1539.000000,0.000000,5.000000,,,,0.000000,2.000000,2.000000,0.000000,2.000000,2.000000,2.000000,0.000000,2.000000,4.000000,4.000000,4.000000,4.000000,2.000000,4.000000,16.666666,,,,,,,,,,,,,,,,,,,,,,,,,,,,
1732083787.227850,1732083787.228712,122.000000,0.000000,4338.589844,4314.743652,4328.589844,4323.974121,4317.179688,4297.307617,4319.230957,4320.769043,4321.282227,4308.333496,4488.205078,4507.563965,4381.538574,4437.179688,1389.000000,0.000000,5.000000,,,,0.000000,2.000000,2.000000,0.000000,2.000000,2.000000,2.000000,0.000000,2.000000,4.000000,4.000000,4.000000,4.000000,2.000000,4.000000,16.666666,,,,,,,,,,,,,,,,,,,,,,,,,,,,
1732083787.235659,1732083787.236520,123.000000,0.000000,4339.871582,4312.179688,4324.102539,4318.333496,4308.717773,4294.102539,4319.358887,4337.563965,4329.230957,4307.436035,4493.461426,4510.384766,4380.641113,4436.794922,1528.000000,0.000000,5.000000,,,,0.000000,2.000000,2.000000,0.000000,2.000000,2.000000,2.000000,0.000000,2.000000,4.000000,4.000000,4.000000,4.000000,2.000000,4.000000,16.666666,,,,,,,,,,,,,,,,,,,,,,,,,,,,
1732083787.243467,1732083787.244428,124.000000,0.000000,4337.051270,4312.692383,4320.641113,4318.846191,4311.538574,4300.384766,4320.128418,4326.153809,4322.436035,4306.025879,4486.922852,4507.563965,4376.794922,4437.307617,1755.000000,0.000000,5.000000,,,,0.000000,2.000000,2.000000,0.000000,2.000000,2.000000,2.000000,0.000000,2.000000,4.000000,4.000000,4.000000,4.000000,2.000000,4.000000,16.666666,,,,,,,,,,,,,,,,,31.000000,0.000000,0.538699,0.342102,-0.659058,0.398010,0.971310,-0.196313,-0.112318,-80.940979,49.910355,23.279190
1732083787.251275,1732083787.252236,125.000000,0.000000,4325.512695,4312.436035,4325.000000,4319.358887,4332.179688,4304.487305,4319.230957,4315.384766,4317.948730,4307.692383,4480.256348,4502.051270,4373.589844,4430.641113,1539.000000,0.000000,5.000000,,,,0.000000,2.000000,2.000000,0.000000,2.000000,2.000000,2.000000,0.000000,2.000000,4.000000,4.000000,4.000000,4.000000,2.000000,4.000000,16.666666,,,,,,,,,,,,,,,,,,,,,,,,,,,,
1732083787.259083,1732083787.260244,126.000000,0.000000,4323.333496,4311.153809,4326.410156,4317.436035,4331.666504,4302.179688,4321.025879,4327.692383,4328.846191,4318.461426,4482.692383,4506.153809,4378.846191,4428.846191,1389.000000,0.000000,5.000000,,,,0.000000,2.000000,2.000000,0.000000,2.000000,2.000000,2.000000,0.000000,2.000000,4.000000,4.000000,4.000000,4.000000,2.000000,4.000000,16.666666,,,,,,,,,,,,,,,,,,,,,,,,,,,,
1732083787.266891,1732083787.268052,127.000000,0.000000,4329.871582,4310.769043,4324.230957,4320.769043,4310.897461,4305.769043,4321.922852,4330.128418,4331.666504,4324.871582,4487.179688,4512.436035,4383.589844,4433.717773,5.000000,0.000000,5.000000,,,,0.000000,2.000000,2.000000,0.000000,2.000000,2.000000,2.000000,0.000000,2.000000,4.000000,4.000000,4.000000,4.000000,2.000000,4.000000,16.666666,,,,,,,,,,,,,,,,,,,,,,,,,,,,
1732083787.274700,1732083787.275960,0.000000,0.000000,4329.487305,4314.487305,4322.436035,4323.461426,4310.256348,4309.615234,4320.769043,4312.563965,4320.384766,4317.179688,4483.461426,4505.256348,4380.256348,4432.179688,0.000000,0.000000,5.000000,,,,0.000000,2.000000,2.000000,0.000000,2.000000,2.000000,2.000000,0.000000,2.000000,4.000000,4.000000,4.000000,4.000000,2.000000,4.000000,16.666666,,,,,,,,,,,,,,,,,0.000000,0.000000,0.537622,0.338928,-0.659912,0.400757,0.966915,-0.191918,-0.103528,-81.037193,49.404053,23.069477
1732083787.282508,1732083787.283769,1.000000,0.000000,4318.077148,4309.871582,4322.820313,4317.051270,4323.589844,4308.205078,4319.615234,4316.794922,4321.282227,4308.974121,4475.641113,4497.179688,4375.000000,4425.000000,1327.000000,0.000000,5.000000,,,,0.000000,2.000000,2.000000,0.000000,2.000000,2.000000,2.000000,0.000000,2.000000,4.000000,4.000000,4.000000,4.000000,2.000000,4.000000,16.666666,,,,,,,,,,,,,,,,,,,,,,,,,,,,
1732083787.290316,1732083787.291377,2.000000,0.000000,4310.769043,4298.974121,4318.974121,4312.179688,4323.077148,4308.333496,4319.743652,4331.538574,4333.077148,4313.205078,4471.922852,4495.769043,4372.051270,4418.717773,1244.000000,0.000000,5.000000,,,,0.000000,2.000000,2.000000,0.000000,2.000000,2.000000,2.000000,0.000000,2.000000,4.000000,4.000000,4.000000,4.000000,2.000000,4.000000,16.666666,,,,,,,,,,,,,,,,,,,,,,,,,,,,
1732083787.298124,1732083787.299185,3.000000,0.000000,4314.230957,4296.025879,4320.769043,4311.666504,4315.256348,4311.666504,4321.410156,4323.974121,4332.563965,4317.307617,4467.563965,4496.153809,4369.358887,4417.307617,1200.000000,0.000000,5.000000,,,,0.000000,2.000000,2.000000,0.000000,2.000000,2.000000,2.000000,0.000000,2.000000,4.000000,4.000000,4.000000,4.000000,2.000000,4.000000,16.666666,,,,,,,,,,,,,,,,,,,,,,,,,,,,
1732083787.305933,1732083787.307093,4.000000,0.000000,4316.538574,4298.717773,4324.102539,4310.000000,4320.256348,4312.692383,4322.563965,4323.461426,4331.410156,4313.717773,4466.794922,4493.461426,4367.692383,4418.717773,1219.000000,0.000000,5.000000,,,,0.000000,2.000000,2.000000,0.000000,2.000000,2.000000,2.000000,0.000000,2.000000,4.000000,4.000000,4.000000,4.000000,2.000000,4.000000,16.666666,,,,,,,,,,,,,,,,,1.000000,0.000000,0.536324,0.333679,-0.661072,0.404968,0.978635,-0.212428,-0.094250,-81.098457,48.458950,22.967943
1732083787.313741,1732083787.314902,5.000000,0.000000,4313.846191,4297.948730,4321.794922,4308.461426,4331.410156,4311.410156,4323.846191,4335.512695,4338.205078,4318.205078,4472.563965,4496.410156,4371.153809,4419.871582,1075.000000,0.000000,5.000000,,,,0.000000,2.000000,2.000000,0.000000,2.000000,2.000000,2.000000,0.000000,2.000000,4.000000,4.000000,4.000000,4.000000,2.000000,4.000000,16.666666,,,,,,,,,,,,,,,,,,,,,,,,,,,,
1732083787.321549,1732083787.322910,6.000000,0.000000,4314.743652,4299.487305,4321.025879,4310.128418,4327.051270,4311.282227,4323.589844,4333.974121,4340.128418,4328.205078,4476.794922,4506.025879,4374.615234,4422.692383,0.000000,0.000000,5.000000,,,,0.000000,2.000000,2.000000,0.000000,2.000000,2.000000,2.000000,0.000000,2.000000,4.000000,4.000000,4.000000,4.000000,2.000000,4.000000,16.666666,,,,,,,,,,,,,,,,,,,,,,,,,,,,
1732083787.329358,1732083787.330718,7.000000,0.000000,4318.333496,4305.897461,4325.256348,4312.563965,4312.179688,4311.922852,4324.102539,4326.153809,4334.230957,4326.794922,4475.641113,4508.589844,4373.333496,4424.358887,1152.000000,0.000000,5.000000,,,,0.000000,2.000000,2.000000,0.000000,2.000000,2.000000,2.000000,0.000000,2.000000,4.000000,4.000000,4.000000,4.000000,2.000000,4.000000,16.666666,,,,,,,,,,,,,,,,,,,,,,,,,,,,
1732083787.337166,1732083787.338626,8.000000,0.000000,4314.743652,4302.692383,4323.846191,4309.615234,4313.077148,4311.922852,4323.205078,4332.563965,4336.538574,4321.794922,4475.128418,4505.000000,4374.230957,4423.333496,1351.000000,0.000000,5.000000,,,,0.000000,2.000000,2.000000,0.000000,2.000000,2.000000,2.000000,0.000000,2.000000,4.000000,4.000000,4.000000,4.000000,2.000000,4.000000,16.666666,,,,,,,,,,,,,,,,,2.000000,0.000000,0.536151,0.332581,-0.661316,0.405701,0.964962,-0.203638,-0.083995,-81.458084,48.063416,23.055700
1732083787.344974,1732083787.346434,9.000000,0.000000,4308.974121,4296.666504,4320.000000,4306.153809,4317.692383,4307.948730,4321.666504,4338.717773,4344.615234,4325.384766,4476.922852,4505.769043,4380.128418,4423.717773,1516.000000,0.000000,5.000000,,,,0.000000,2.000000,2.000000,0.000000,2.000000,2.000000,2.000000,0.000000,2.000000,4.000000,4.000000,4.000000,4.000000,2.000000,4.000000,16.666666,,,,,,,,,,,,,,,,,,,,,,,,,,,,
1732083787.352782,1732083787.354442,10.000000,0.000000,4311.666504,4300.897461,4321.153809,4310.512695,4315.641113,4305.128418,4317.179688,4325.384766,4338.333496,4328.333496,4478.077148,4508.717773,4382.820313,4429.102539,1389.000000,0.000000,5.000000,,,,0.000000,2.000000,2.000000,0.000000,2.000000,2.000000,2.000000,0.000000,2.000000,4.000000,4.000000,4.000000,4.000000,2.000000,4.000000,16.666666,,,,,,,,,,,,,,,,,,,,,,,,,,,,
1732083787.360591,1732083787.362250,11.000000,0.000000,4313.589844,4303.461426,4322.436035,4313.333496,4326.922852,4306.025879,4316.922852,4309.102539,4323.077148,4319.487305,4476.025879,4502.436035,4378.333496,4430.256348,1528.000000,0.000000,5.000000,,,,0.000000,2.000000,2.000000,0.000000,2.000000,2.000000,2.000000,0.000000,2.000000,4.000000,4.000000,4.000000,4.000000,2.000000,4.000000,16.666666,,,,,,,,,,,,,,,,,,,,,,,,,,,,
1732083787.368399,1732083787.370158,12.000000,0.000000,4309.871582,4298.589844,4323.077148,4309.230957,4325.769043,4305.641113,4319.230957,4316.794922,4323.589844,4314.743652,4473.461426,4499.871582,4373.717773,4426.025879,1753.000000,0.000000,5.000000,,,,0.000000,2.000000,2.000000,0.000000,2.000000,2.000000,2.000000,0.000000,2.000000,4.000000,4.000000,4.000000,4.000000,2.000000,4.000000,16.666666,,,,,,,,,,,,,,,,,3.000000,0.000000,0.536151,0.332581,-0.661316,0.405701,0.954218,-0.199731,-0.088878,-81.809380,47.533035,23.066784
1732083787.376207,1732083787.377967,13.000000,0.000000,4310.512695,4295.897461,4324.358887,4308.717773,4308.205078,4310.769043,4324.358887,4332.436035,4335.769043,4319.358887,4477.179688,4506.538574,4374.615234,4422.179688,1528.000000,0.000000,5.000000,,,,0.000000,2.000000,2.000000,0.000000,2.000000,2.000000,2.000000,0.000000,2.000000,4.000000,4.000000,4.000000,4.000000,2.000000,4.000000,16.666666,,,,,,,,,,,,,,,,,,,,,,,,,,,,
1732083787.384015,1732083787.385975,14.000000,0.000000,4314.102539,4297.563965,4324.358887,4311.922852,4313.333496,4318.205078,4326.410156,4334.615234,4339.743652,4320.769043,4480.256348,4510.512695,4372.948730,4420.256348,1389.000000,0.000000,5.000000,,,,0.000000,2.000000,2.000000,0.000000,2.000000,2.000000,2.000000,0.000000,2.000000,4.000000,4.000000,4.000000,4.000000,2.000000,4.000000,16.666666,1.000000,16.666666,2.000000,2.000000,0.000000,2.000000,2.000000,2.000000,0.000000,2.000000,3.000000,4.000000,4.000000,4.000000,2.000000,4.000000,,,,,,,,,,,,
1732083787.391824,1732083787.393783,15.000000,0.000000,4315.512695,4297.563965,4323.333496,4311.410156,4319.358887,4318.077148,4327.179688,4339.102539,4338.589844,4317.692383,4478.589844,4512.692383,4371.538574,4425.128418,1528.000000,0.000000,5.000000,,,,0.000000,2.000000,2.000000,0.000000,2.000000,2.000000,2.000000,0.000000,2.000000,4.000000,4.000000,4.000000,4.000000,2.000000,4.000000,16.666666,,,,,,,,,,,,,,,,,,,,,,,,,,,,
1732083787.399632,1732083787.401691,16.000000,0.000000,4315.128418,4295.512695,4323.974121,4309.743652,4313.717773,4313.461426,4327.051270,4339.871582,4335.512695,4316.153809,4477.820313,4514.487305,4373.589844,4428.589844,0.000000,0.000000,5.000000,,,,0.000000,2.000000,2.000000,0.000000,2.000000,2.000000,2.000000,0.000000,2.000000,4.000000,4.000000,4.000000,4.000000,2.000000,4.000000,16.666666,,,,,,,,,,,,,,,,,4.000000,0.000000,0.535646,0.332642,-0.661133,0.406616,0.943475,-0.198755,-0.107923,-81.658936,47.278423,22.817429
1732083787.407440,1732083787.409499,17.000000,0.000000,4316.794922,4298.205078,4326.282227,4312.436035,4322.820313,4309.230957,4323.333496,4328.846191,4333.846191,4315.769043,4477.436035,4510.512695,4374.102539,4426.794922,0.000000,0.000000,5.000000,,,,0.000000,2.000000,2.000000,0.000000,2.000000,2.000000,2.000000,0.000000,2.000000,4.000000,4.000000,4.000000,4.000000,2.000000,4.000000,16.666666,,,,,,,,,,,,,,,,,,,,,,,,,,,,
1732083787.415249,1732083787.417507,18.000000,0.000000,4321.538574,4306.153809,4326.538574,4317.948730,4326.794922,4311.410156,4321.410156,4333.589844,4337.692383,4315.000000,4477.051270,4511.153809,4374.102539,4426.922852,0.000000,0.000000,5.000000,,,,0.000000,2.000000,2.000000,0.000000,2.000000,2.000000,2.000000,0.000000,2.000000,4.000000,4.000000,4.000000,4.000000,2.000000,4.000000,16.666666,,,,,,,,,,,,,,,,,,,,,,,,,,,,
1732083787.423057,1732083787.425315,19.000000,0.000000,4322.563965,4307.948730,4323.461426,4322.051270,4311.666504,4320.384766,4324.230957,4341.794922,4335.769043,4316.410156,4478.205078,4512.692383,4373.846191,4431.282227,0.000000,0.000000,5.000000,,,,0.000000,2.000000,2.000000,0.000000,2.000000,2.000000,2.000000,0.000000,2.000000,4.000000,4.000000,4.000000,4.000000,2.000000,4.000000,16.666666,,,,,,,,,,,,,,,,,,,,,,,,,,,,
1732083787.430865,1732083787.433024,20.000000,0.000000,4317.307617,4299.615234,4323.205078,4319.871582,4310.769043,4321.025879,4323.846191,4327.307617,4329.743652,4316.794922,4476.922852,4505.384766,4368.589844,4427.436035,0.000000,0.000000,5.000000,,,,0.000000,2.000000,2.000000,0.000000,2.000000,2.000000,2.000000,0.000000,2.000000,4.000000,4.000000,4.000000,4.000000,2.000000,4.000000,16.666666,,,,,,,,,,,,,,,,,5.000000,0.000000,0.535492,0.332581,-0.660950,0.407166,0.951288,-0.186058,-0.103528,-81.647072,46.962189,22.763784
1732083787.438673,1732083787.440832,21.000000,0.000000,4314.615234,4295.897461,4325.128418,4315.128418,4321.538574,4313.077148,4320.128418,4316.410156,4328.333496,4314.871582,4471.666504,4496.538574,4365.641113,4418.077148,0.000000,0.000000,5.000000,,,,0.000000,2.000000,2.000000,0.000000,2.000000,2.000000,2.000000,0.000000,2.000000,4.000000,4.000000,4.000000,4.000000,2.000000,4.000000,16.666666,,,,,,,,,,,,,,,,,,,,,,,,,,,,
1732083787.446482,1732083787.448440,22.000000,0.000000,4314.230957,4297.692383,4322.692383,4313.205078,4320.769043,4317.051270,4325.256348,4325.897461,4329.487305,4312.436035,4471.410156,4498.717773,4368.461426,4413.846191,0.000000,0.000000,5.000000,,,,0.000000,2.000000,2.000000,0.000000,2.000000,2.000000,2.000000,0.000000,2.000000,4.000000,4.000000,4.000000,4.000000,2.000000,4.000000,16.666666,,,,,,,,,,,,,,,,,,,,,,,,,,,,
1732083787.454290,1732083787.456249,23.000000,0.000000,4308.717773,4293.974121,4321.666504,4311.153809,4316.666504,4322.307617,4328.974121,4338.077148,4329.487305,4310.384766,4473.717773,4502.563965,4364.743652,4412.948730,0.000000,0.000000,5.000000,,,,0.000000,2.000000,2.000000,0.000000,2.000000,2.000000,2.000000,0.000000,2.000000,4.000000,4.000000,4.000000,4.000000,2.000000,4.000000,16.666666,,,,,,,,,,,,,,,,,,,,,,,,,,,,
1732083787.462098,1732083787.463957,24.000000,0.000000,4306.282227,4292.692383,4324.871582,4310.000000,4314.102539,4311.282227,4326.153809,4343.846191,4333.589844,4310.128418,4468.974121,4499.743652,4360.384766,4412.948730,0.000000,0.000000,5.000000,,,,0.000000,2.000000,2.000000,0.000000,2.000000,2.000000,2.000000,0.000000,2.000000,4.000000,4.000000,4.000000,4.000000,2.000000,4.000000,16.666666,,,,,,,,,,,,,,,,,6.000000,0.000000,0.535513,0.332397,-0.660950,0.407288,0.949335,-0.184593,-0.104505,-81.682457,46.684376,22.745331
1732083787.469906,1732083787.471765,25.000000,0.000000,4309.871582,4296.538574,4323.846191,4312.692383,4314.358887,4308.077148,4324.487305,4341.153809,4337.179688,4311.794922,4467.051270,4499.102539,4363.974121,4416.025879,0.000000,0.000000,5.000000,,,,0.000000,2.000000,2.000000,0.000000,2.000000,2.000000,2.000000,0.000000,2.000000,4.000000,4.000000,4.000000,4.000000,2.000000,4.000000,16.666666,,,,,,,,,,,,,,,,,,,,,,,,,,,,
1732083787.477715,1732083787.479773,26.000000,0.000000,4310.769043,4296.410156,4321.410156,4313.974121,4316.025879,4318.461426,4326.153809,4330.769043,4335.512695,4315.128418,4471.153809,4502.820313,4364.871582,4417.692383,0.000000,0.000000,5.000000,,,,0.000000,2.000000,2.000000,0.000000,2.000000,2.000000,2.000000,0.000000,2.000000,4.000000,4.000000,4.000000,4.000000,2.000000,4.000000,16.666666,,,,,,,,,,,,,,,,,,,,,,,,,,,,
1732083787.485523,1732083787.487581,27.000000,0.000000,4308.077148,4294.358887,4324.102539,4311.410156,4322.051270,4319.487305,4323.846191,4324.615234,4333.333496,4317.307617,4468.589844,4501.922852,4362.307617,4413.589844,0.000000,0.000000,5.000000,,,,0.000000,2.000000,2.000000,0.000000,2.000000,2.000000,2.000000,0.000000,2.000000,4.000000,4.000000,4.000000,4.000000,2.000000,4.000000,16.666666,,,,,,,,,,,,,,,,,,,,,,,,,,,,
1732083787.493331,1732083787.495290,28.000000,0.000000,4305.000000,4293.589844,4324.102539,4309.615234,4332.436035,4315.769043,4325.897461,4335.384766,4336.282227,4315.000000,4461.538574,4495.000000,4358.974121,4408.333496,0.000000,0.000000,5.000000,,,,0.000000,2.000000,2.000000,0.000000,2.000000,2.000000,2.000000,0.000000,2.000000,4.000000,4.000000,4.000000,4.000000,2.000000,4.000000,16.666666,,,,,,,,,,,,,,,,,7.000000,0.000000,0.535415,0.331909,-0.661011,0.407715,0.948358,-0.181174,-0.089855,-81.892792,46.302677,22.865385
1732083787.501139,1732083787.503098,29.000000,0.000000,4304.743652,4292.563965,4323.077148,4310.897461,4326.282227,4323.333496,4329.358887,4345.256348,4342.051270,4313.077148,4463.077148,4498.589844,4356.282227,4408.077148,0.000000,0.000000,5.000000,,,,0.000000,2.000000,2.000000,0.000000,2.000000,2.000000,2.000000,0.000000,2.000000,4.000000,4.000000,4.000000,4.000000,2.000000,4.000000,16.666666,,,,,,,,,,,,,,,,,,,,,,,,,,,,
1732083787.508948,1732083787.510706,30.000000,0.000000,4305.000000,4294.102539,4326.794922,4310.769043,4309.871582,4328.589844,4327.948730,4334.358887,4339.871582,4315.128418,4466.538574,4504.743652,4361.410156,4410.384766,0.000000,0.000000,5.000000,,,,0.000000,2.000000,2.000000,0.000000,2.000000,2.000000,2.000000,0.000000,2.000000,4.000000,4.000000,4.000000,4.000000,2.000000,4.000000,16.666666,,,,,,,,,,,,,,,,,,,,,,,,,,,,
1732083787.516756,1732083787.518514,31.000000,0.000000,4301.666504,4293.974121,4327.436035,4309.615234,4312.820313,4325.128418,4326.666504,4328.461426,4336.025879,4312.307617,4460.641113,4495.769043,4363.846191,4407.307617,0.000000,0.000000,5.000000,,,,0.000000,2.000000,2.000000,0.000000,2.000000,2.000000,2.000000,0.000000,2.000000,4.000000,4.000000,4.000000,4.000000,2.000000,4.000000,16.666666,,,,,,,,,,,,,,,,,,,,,,,,,,,,
1732083787.524564,1732083787.526223,32.000000,0.000000,4300.256348,4293.846191,4323.205078,4311.538574,4322.436035,4325.897461,4331.794922,4337.436035,4335.641113,4303.846191,4457.051270,4485.641113,4357.307617,4401.538574,0.000000,0.000000,5.000000,,,,0.000000,2.000000,2.000000,0.000000,2.000000,2.000000,2.000000,0.000000,2.000000,4.000000,4.000000,4.000000,4.000000,2.000000,4.000000,16.666666,,,,,,,,,,,,,,,,,8.000000,0.000000,0.535592,0.330261,-0.661316,0.408325,0.968380,-0.201196,-0.100110,-81.883163,46.085167,23.134295
1732083787.532372,1732083787.534031,33.000000,0.000000,4302.436035,4294.615234,4323.077148,4312.692383,4317.307617,4327.051270,4331.666504,4337.307617,4334.871582,4302.563965,4458.589844,4487.820313,4352.692383,4402.563965,0.000000,0.000000,5.000000,,,,0.000000,2.000000,2.000000,0.000000,2.000000,2.000000,2.000000,0.000000,2.000000,4.000000,4.000000,4.000000,4.000000,2.000000,4.000000,16.666666,,,,,,,,,,,,,,,,,,,,,,,,,,,,
1732083787.540181,1732083787.541639,34.000000,0.000000,4299.871582,4288.333496,4325.000000,4309.871582,4311.538574,4323.461426,4326.922852,4332.179688,4338.077148,4307.051270,4455.512695,4487.692383,4350.256348,4400.641113,0.000000,0.000000,5.000000,,,,0.000000,2.000000,2.000000,0.000000,2.000000,2.000000,2.000000,0.000000,2.000000,4.000000,4.000000,4.000000,4.000000,2.000000,4.000000,16.666666,,,,,,,,,,,,,,,,,,,,,,,,,,,,
1732083787.547989,1732083787.549448,35.000000,0.000000,4293.846191,4286.282227,4322.436035,4308.461426,4313.077148,4321.025879,4327.820313,4339.743652,4343.077148,4310.769043,4455.256348,4484.102539,4352.563965,4395.512695,0.000000,0.000000,5.000000,,,,0.000000,2.000000,2.000000,0.000000,2.000000,2.000000,2.000000,0.000000,2.000000,4.000000,4.000000,4.000000,4.000000,2.000000,4.000000,16.666666,,,,,,,,,,,,,,,,,,,,,,,,,,,,
1732083787.555797,1732083787.557156,36.000000,0.000000,4293.717773,4291.666504,4319.615234,4311.153809,4314.487305,4321.153809,4330.641113,4344.102539,4341.153809,4312.179688,4462.563965,4490.897461,4362.692383,4398.077148,0.000000,0.000000,5.000000,,,,0.000000,2.000000,2.000000,0.000000,2.000000,2.000000,2.000000,0.000000,2.000000,4.000000,4.000000,4.000000,4.000000,2.000000,4.000000,16.666666,,,,,,,,,,,,,,,,,9.000000,0.000000,0.535650,0.329895,-0.661377,0.408447,0.978147,-0.203638,-0.083018,-82.092026,45.825653,23.052113
1732083787.563605,1732083787.564964,37.000000,0.000000,4296.538574,4287.820313,4321.153809,4311.282227,4311.025879,4321.794922,4330.128418,4340.769043,4337.436035,4309.871582,4463.846191,4496.410156,4368.205078,4401.538574,0.000000,0.000000,5.000000,,,,0.000000,2.000000,2.000000,0.000000,2.000000,2.000000,2.000000,0.000000,2.000000,4.000000,4.000000,4.000000,4.000000,2.000000,4.000000,16.666666,,,,,,,,,,,,,,,,,,,,,,,,,,,,
1732083787.571414,1732083787.572972,38.000000,0.000000,4295.641113,4278.589844,4322.436035,4309.487305,4315.641113,4321.666504,4328.077148,4340.897461,4337.820313,4305.128418,4458.333496,4493.974121,4362.436035,4397.436035,0.000000,0.000000,5.000000,,,,0.000000,2.000000,2.000000,0.000000,2.000000,2.000000,2.000000,0.000000,2.000000,4.000000,4.000000,4.000000,4.000000,2.000000,4.000000,16.666666,,,,,,,,,,,,,,,,,,,,,,,,,,,,
1732083787.579222,1732083787.580780,39.000000,0.000000,4293.846191,4280.384766,4320.769043,4311.025879,4330.128418,4320.641113,4328.846191,4336.922852,4331.922852,4301.282227,4458.461426,4492.179688,4360.000000,4395.769043,0.000000,0.000000,5.000000,,,,0.000000,2.000000,2.000000,0.000000,2.000000,2.000000,2.000000,0.000000,2.000000,4.000000,4.000000,4.000000,4.000000,2.000000,4.000000,16.666666,,,,,,,,,,,,,,,,,,,,,,,,,,,,
1732083787.587030,1732083787.588688,40.000000,0.000000,4295.769043,4284.487305,4321.153809,4312.948730,4326.025879,4331.025879,4332.179688,4338.077148,4327.820313,4302.436035,4461.025879,4493.589844,4361.282227,4397.563965,0.000000,0.000000,5.000000,,,,0.000000,2.000000,2.000000,0.000000,2.000000,2.000000,2.000000,0.000000,2.000000,4.000000,4.000000,4.000000,4.000000,2.000000,4.000000,16.666666,,,,,,,,,,,,,,,,,10.000000,0.000000,0.535894,0.329224,-0.661438,0.408569,0.965450,-0.193383,-0.082530,-82.222878,45.727112,22.978878
1732083787.594839,1732083787.596497,41.000000,0.000000,4294.230957,4282.051270,4322.948730,4312.051270,4308.205078,4336.282227,4334.871582,4353.461426,4338.077148,4306.025879,4460.512695,4495.641113,4358.589844,4394.358887,0.000000,0.000000,5.000000,,,,0.000000,2.000000,2.000000,0.000000,2.000000,2.000000,2.000000,0.000000,2.000000,4.000000,4.000000,4.000000,4.000000,2.000000,4.000000,16.666666,,,,,,,,,,,,,,,,,,,,,,,,,,,,
1732083787.602647,1732083787.604105,42.000000,0.000000,4292.948730,4282.179688,4323.333496,4310.641113,4307.948730,4319.615234,4330.000000,4353.846191,4342.307617,4307.563965,4459.871582,4495.897461,4358.974121,4392.563965,0.000000,0.000000,5.000000,,,,0.000000,2.000000,2.000000,0.000000,2.000000,2.000000,2.000000,0.000000,2.000000,4.000000,4.000000,4.000000,4.000000,2.000000,4.000000,16.666666,,,,,,,,,,,,,,,,,,,,,,,,,,,,
1732083787.610455,1732083787.611913,43.000000,0.000000,4297.820313,4282.051270,4323.974121,4312.051270,4316.538574,4322.051270,4330.256348,4338.974121,4335.897461,4308.589844,4463.205078,4495.256348,4364.358887,4397.563965,0.000000,0.000000,5.000000,,,,0.000000,2.000000,2.000000,0.000000,2.000000,2.000000,2.000000,0.000000,2.000000,4.000000,4.000000,4.000000,4.000000,2.000000,4.000000,16.666666,,,,,,,,,,,,,,,,,,,,,,,,,,,,
1732083787.618263,1732083787.619821,44.000000,0.000000,4298.974121,4282.179688,4324.871582,4313.461426,4313.717773,4336.153809,4332.179688,4339.743652,4339.487305,4312.692383,4471.282227,4500.000000,4368.717773,4401.153809,0.000000,0.000000,5.000000,,,,0.000000,2.000000,2.000000,0.000000,2.000000,2.000000,2.000000,0.000000,2.000000,4.000000,4.000000,4.000000,4.000000,2.000000,4.000000,16.666666,,,,,,,,,,,,,,,,,11.000000,0.000000,0.536560,0.328979,-0.661133,0.408386,0.971310,-0.194360,-0.087901,-82.377197,45.555626,22.852892
1732083787.626072,1732083787.627630,45.000000,0.000000,4294.358887,4286.153809,4323.974121,4311.282227,4310.000000,4321.666504,4329.743652,4342.436035,4342.948730,4311.538574,4475.512695,4503.077148,4367.436035,4401.794922,0.000000,0.000000,5.000000,,,,0.000000,2.000000,2.000000,0.000000,2.000000,2.000000,2.000000,0.000000,2.000000,4.000000,4.000000,4.000000,4.000000,2.000000,4.000000,16.666666,,,,,,,,,,,,,,,,,,,,,,,,,,,,
1732083787.633880,1732083787.635238,46.000000,0.000000,4297.692383,4292.692383,4324.230957,4309.743652,4314.871582,4309.871582,4326.666504,4330.769043,4336.153809,4308.205078,4472.948730,4499.102539,4369.487305,4405.512695,0.000000,0.000000,5.000000,,,,0.000000,2.000000,2.000000,0.000000,2.000000,2.000000,2.000000,0.000000,2.000000,4.000000,4.000000,4.000000,4.000000,2.000000,4.000000,16.666666,,,,,,,,,,,,,,,,,,,,,,,,,,,,
1732083787.641688,1732083787.643046,47.000000,0.000000,4303.461426,4295.897461,4324.871582,4314.230957,4314.487305,4322.179688,4330.000000,4327.820313,4335.128418,4314.358887,4472.051270,4496.153809,4375.128418,4406.666504,0.000000,0.000000,5.000000,,,,0.000000,2.000000,2.000000,0.000000,2.000000,2.000000,2.000000,0.000000,2.000000,4.000000,4.000000,4.000000,4.000000,2.000000,4.000000,16.666666,,,,,,,,,,,,,,,,,,,,,,,,,,,,
1732083787.649496,1732083787.650954,48.000000,0.000000,4301.538574,4292.307617,4324.358887,4321.153809,4313.077148,4320.512695,4332.307617,4334.230957,4340.256348,4316.410156,4474.487305,4497.179688,4373.205078,4406.153809,0.000000,0.000000,5.000000,,,,0.000000,2.000000,2.000000,0.000000,2.000000,2.000000,2.000000,0.000000,2.000000,4.000000,4.000000,4.000000,4.000000,2.000000,4.000000,16.666666,,,,,,,,,,,,,,,,,12.000000,0.000000,0.537130,0.328918,-0.660889,0.408081,0.968380,-0.181174,-0.090831,-82.502197,45.450058,22.717508
1732083787.657305,1732083787.658763,49.000000,0.000000,4299.615234,4294.230957,4325.128418,4319.615234,4324.487305,4308.205078,4331.025879,4330.897461,4338.205078,4308.974121,4474.230957,4498.077148,4370.256348,4408.974121,0.000000,0.000000,5.000000,,,,0.000000,2.000000,2.000000,0.000000,2.000000,2.000000,2.000000,0.000000,2.000000,4.000000,4.000000,4.000000,4.000000,2.000000,4.000000,16.666666,,,,,,,,,,,,,,,,,,,,,,,,,,,,
1732083787.665113,1732083787.666771,50.000000,0.000000,4299.487305,4294.230957,4323.205078,4313.333496,4322.692383,4315.000000,4330.897461,4330.769043,4335.000000,4305.897461,4472.179688,4498.461426,4368.974121,4410.769043,0.000000,0.000000,5.000000,,,,0.000000,2.000000,2.000000,0.000000,2.000000,2.000000,2.000000,0.000000,2.000000,4.000000,4.000000,4.000000,4.000000,2.000000,4.000000,16.666666,,,,,,,,,,,,,,,,,,,,,,,,,,,,
1732083787.672921,1732083787.674579,51.000000,0.000000,4295.512695,4284.871582,4321.153809,4313.077148,4300.769043,4321.666504,4332.436035,4342.563965,4339.230957,4309.743652,4472.307617,4498.205078,4364.230957,4406.666504,0.000000,0.000000,5.000000,,,,0.000000,2.000000,2.000000,0.000000,2.000000,2.000000,2.000000,0.000000,2.000000,4.000000,4.000000,4.000000,4.000000,2.000000,4.000000,16.666666,,,,,,,,,,,,,,,,,,,,,,,,,,,,
1732083787.680730,1732083787.682487,52.000000,0.000000,4295.897461,4284.230957,4322.820313,4313.333496,4299.230957,4319.487305,4332.948730,4344.871582,4340.000000,4314.230957,4474.871582,4498.205078,4361.410156,4403.461426,0.000000,0.000000,5.000000,,,,0.000000,2.000000,2.000000,0.000000,2.000000,2.000000,2.000000,0.000000,2.000000,4.000000,4.000000,4.000000,4.000000,2.000000,4.000000,16.666666,,,,,,,,,,,,,,,,,13.000000,0.000000,0.537307,0.329102,-0.660767,0.407898,0.965450,-0.178244,-0.080088,-82.786781,45.364548,22.707848
1732083787.688538,1732083787.690295,53.000000,0.000000,4301.025879,4293.333496,4323.974121,4310.897461,4313.461426,4318.205078,4327.307617,4331.794922,4333.846191,4311.922852,4474.615234,4500.641113,4366.666504,4408.589844,0.000000,0.000000,5.000000,,,,0.000000,2.000000,2.000000,0.000000,2.000000,2.000000,2.000000,0.000000,2.000000,4.000000,4.000000,4.000000,4.000000,2.000000,4.000000,16.666666,,,,,,,,,,,,,,,,,,,,,,,,,,,,
1732083787.696346,1732083787.698303,54.000000,0.000000,4302.820313,4293.846191,4323.205078,4316.025879,4311.282227,4317.820313,4323.717773,4321.410156,4328.333496,4306.282227,4467.179688,4498.205078,4371.538574,4410.256348,0.000000,0.000000,5.000000,,,,0.000000,2.000000,2.000000,0.000000,2.000000,2.000000,2.000000,0.000000,2.000000,4.000000,4.000000,4.000000,4.000000,2.000000,4.000000,16.666666,,,,,,,,,,,,,,,,,,,,,,,,,,,,
1732083787.704154,1732083787.706111,55.000000,0.000000,4300.641113,4284.615234,4324.230957,4317.436035,4307.051270,4317.179688,4326.538574,4330.256348,4330.641113,4306.025879,4461.025879,4492.436035,4367.307617,4403.717773,0.000000,0.000000,5.000000,,,,0.000000,2.000000,2.000000,0.000000,2.000000,2.000000,2.000000,0.000000,2.000000,4.000000,4.000000,4.000000,4.000000,2.000000,4.000000,16.666666,,,,,,,,,,,,,,,,,,,,,,,,,,,,
1732083787.711963,1732083787.714019,56.000000,0.000000,4297.692383,4281.025879,4324.871582,4310.641113,4311.666504,4317.820313,4330.128418,4344.871582,4336.538574,4305.769043,4461.025879,4492.179688,4359.230957,4397.051270,0.000000,0.000000,5.000000,,,,0.000000,2.000000,2.000000,0.000000,2.000000,2.000000,2.000000,0.000000,2.000000,4.000000,4.000000,4.000000,4.000000,2.000000,4.000000,16.666666,,,,,,,,,,,,,,,,,14.000000,0.000000,0.538082,0.329468,-0.660217,0.407471,0.966915,-0.177268,-0.082530,-82.605621,45.390282,23.175024
1732083787.719771,1732083787.721828,57.000000,0.000000,4298.717773,4288.717773,4325.256348,4313.461426,4307.692383,4321.282227,4328.333496,4339.871582,4337.820313,4302.563965,4460.000000,4495.384766,4359.102539,4398.589844,0.000000,0.000000,5.000000,,,,0.000000,2.000000,2.000000,0.000000,2.000000,2.000000,2.000000,0.000000,2.000000,4.000000,4.000000,4.000000,4.000000,2.000000,4.000000,16.666666,,,,,,,,,,,,,,,,,,,,,,,,,,,,
1732083787.727579,1732083787.729836,58.000000,0.000000,4301.666504,4297.436035,4324.615234,4319.487305,4313.589844,4319.358887,4328.205078,4327.051270,4333.205078,4303.461426,4456.922852,4491.410156,4366.666504,4400.256348,0.000000,0.000000,5.000000,,,,0.000000,2.000000,2.000000,0.000000,2.000000,2.000000,2.000000,0.000000,2.000000,4.000000,4.000000,4.000000,4.000000,2.000000,4.000000,16.666666,,,,,,,,,,,,,,,,,,,,,,,,,,,,
1732083787.735387,1732083787.737644,59.000000,0.000000,4298.589844,4293.846191,4321.794922,4314.487305,4323.077148,4318.077148,4329.358887,4329.102539,4330.512695,4306.538574,4456.794922,4484.487305,4367.051270,4396.666504,0.000000,0.000000,5.000000,,,,0.000000,2.000000,2.000000,0.000000,2.000000,2.000000,2.000000,0.000000,2.000000,4.000000,4.000000,4.000000,4.000000,2.000000,4.000000,16.666666,,,,,,,,,,,,,,,,,,,,,,,,,,,,
1732083787.743196,1732083787.745452,60.000000,0.000000,4292.307617,4282.179688,4322.563965,4311.282227,4307.948730,4323.205078,4332.692383,4338.333496,4335.769043,4304.871582,4457.820313,4487.563965,4357.948730,4394.743652,0.000000,0.000000,5.000000,,,,0.000000,2.000000,2.000000,0.000000,2.000000,2.000000,2.000000,0.000000,2.000000,4.000000,4.000000,4.000000,4.000000,2.000000,4.000000,16.666666,,,,,,,,,,,,,,,,,15.000000,0.000000,0.539135,0.329712,-0.659424,0.407166,0.971310,-0.173849,-0.086925,-82.302223,45.319462,23.265102
1732083787.751004,1732083787.753260,61.000000,0.000000,4292.051270,4280.000000,4325.128418,4312.436035,4293.974121,4323.333496,4330.384766,4335.000000,4336.410156,4300.256348,4456.025879,4491.666504,4353.846191,4393.974121,0.000000,0.000000,5.000000,,,,0.000000,2.000000,2.000000,0.000000,2.000000,2.000000,2.000000,0.000000,2.000000,4.000000,4.000000,4.000000,4.000000,2.000000,4.000000,16.666666,,,,,,,,,,,,,,,,,,,,,,,,,,,,
1732083787.758812,1732083787.760869,62.000000,0.000000,4294.358887,4284.615234,4324.871582,4312.692383,4303.846191,4319.615234,4327.692383,4327.948730,4328.205078,4297.692383,4455.897461,4486.153809,4356.794922,4394.743652,0.000000,0.000000,5.000000,,,,0.000000,2.000000,2.000000,0.000000,2.000000,2.000000,2.000000,0.000000,2.000000,4.000000,4.000000,4.000000,4.000000,2.000000,4.000000,16.666666,,,,,,,,,,,,,,,,,,,,,,,,,,,,
1732083787.766620,1732083787.768677,63.000000,0.000000,4294.358887,4285.256348,4325.256348,4316.666504,4313.717773,4324.743652,4330.641113,4333.974121,4330.384766,4303.461426,4459.358887,4484.487305,4358.077148,4400.256348,0.000000,0.000000,5.000000,,,,0.000000,2.000000,2.000000,0.000000,2.000000,2.000000,2.000000,0.000000,2.000000,4.000000,4.000000,4.000000,4.000000,2.000000,4.000000,16.666666,,,,,,,,,,,,,,,,,,,,,,,,,,,,
1732083787.774429,1732083787.776385,64.000000,0.000000,4295.641113,4283.461426,4329.102539,4317.563965,4311.153809,4328.205078,4333.717773,4336.538574,4335.769043,4308.333496,4460.769043,4487.948730,4359.230957,4406.153809,0.000000,0.000000,5.000000,,,,0.000000,2.000000,2.000000,0.000000,2.000000,2.000000,2.000000,0.000000,2.000000,4.000000,4.000000,4.000000,4.000000,2.000000,4.000000,16.666666,,,,,,,,,,,,,,,,,16.000000,0.000000,0.539405,0.329956,-0.659119,0.407104,0.951288,-0.171408,-0.088390,-82.123131,45.228764,23.354733
1732083787.782237,1732083787.784193,65.000000,0.000000,4296.538574,4281.794922,4328.974121,4311.666504,4306.922852,4317.692383,4329.615234,4328.205078,4328.974121,4300.769043,4458.205078,4485.256348,4357.692383,4401.538574,1327.000000,0.000000,5.000000,,,,0.000000,2.000000,2.000000,0.000000,2.000000,2.000000,2.000000,0.000000,2.000000,4.000000,4.000000,4.000000,4.000000,2.000000,4.000000,16.666666,,,,,,,,,,,,,,,,,,,,,,,,,,,,
1732083787.790045,1732083787.791802,66.000000,0.000000,4295.384766,4281.794922,4324.230957,4310.384766,4303.589844,4315.897461,4330.256348,4329.615234,4328.589844,4298.846191,4458.589844,4488.846191,4355.128418,4395.769043,1245.000000,0.000000,5.000000,,,,0.000000,2.000000,2.000000,0.000000,2.000000,2.000000,2.000000,0.000000,2.000000,4.000000,4.000000,4.000000,4.000000,2.000000,4.000000,16.666666,,,,,,,,,,,,,,,,,,,,,,,,,,,,
1732083787.797853,1732083787.799610,67.000000,0.000000,4296.025879,4287.051270,4324.230957,4310.897461,4314.358887,4320.128418,4335.384766,4341.025879,4336.922852,4308.461426,4462.307617,4494.615234,4359.615234,4400.000000,1200.000000,0.000000,5.000000,,,,0.000000,2.000000,2.000000,0.000000,2.000000,2.000000,2.000000,0.000000,2.000000,4.000000,4.000000,4.000000,4.000000,2.000000,4.000000,16.666666,,,,,,,,,,,,,,,,,,,,,,,,,,,,
1732083787.805662,1732083787.807318,68.000000,0.000000,4299.358887,4294.743652,4327.307617,4308.333496,4321.922852,4314.102539,4332.179688,4338.205078,4335.897461,4312.179688,4462.563965,4491.538574,4364.358887,4402.051270,1219.000000,0.000000,5.000000,,,,0.000000,2.000000,2.000000,0.000000,2.000000,2.000000,2.000000,0.000000,2.000000,4.000000,4.000000,4.000000,4.000000,2.000000,4.000000,16.666666,,,,,,,,,,,,,,,,,17.000000,0.000000,0.539591,0.330017,-0.658936,0.407104,0.976193,-0.176779,-0.078135,-82.226402,45.438633,23.382334
1732083787.813470,1732083787.815126,69.000000,0.000000,4299.871582,4295.128418,4324.102539,4312.563965,4302.563965,4314.615234,4329.615234,4326.153809,4328.846191,4306.153809,4460.256348,4491.410156,4365.000000,4398.589844,1070.000000,0.000000,5.000000,,,,0.000000,2.000000,2.000000,0.000000,2.000000,2.000000,2.000000,0.000000,2.000000,4.000000,4.000000,4.000000,4.000000,2.000000,4.000000,16.666666,,,,,,,,,,,,,,,,,,,,,,,,,,,,
1732083787.821278,1732083787.822735,70.000000,0.000000,4296.153809,4286.410156,4320.512695,4316.025879,4293.205078,4318.974121,4330.769043,4322.563965,4326.153809,4298.717773,4458.333496,4495.641113,4362.051270,4398.461426,0.000000,0.000000,5.000000,,,,0.000000,2.000000,2.000000,0.000000,2.000000,2.000000,2.000000,0.000000,2.000000,4.000000,4.000000,4.000000,4.000000,2.000000,4.000000,16.666666,,,,,,,,,,,,,,,,,,,,,,,,,,,,
1732083787.829086,1732083787.830543,71.000000,0.000000,4294.358887,4283.589844,4322.307617,4312.563965,4309.871582,4313.846191,4328.205078,4320.897461,4325.128418,4295.641113,4456.922852,4491.666504,4359.615234,4400.641113,1150.000000,0.000000,5.000000,,,,0.000000,2.000000,2.000000,0.000000,2.000000,2.000000,2.000000,0.000000,2.000000,4.000000,4.000000,4.000000,4.000000,2.000000,4.000000,16.666666,,,,,,,,,,,,,,,,,,,,,,,,,,,,
1732083787.836895,1732083787.838251,72.000000,0.000000,4299.230957,4292.692383,4326.025879,4315.384766,4311.282227,4315.128418,4325.897461,4324.871582,4325.641113,4300.128418,4458.717773,4491.410156,4362.307617,4403.589844,1357.000000,0.000000,5.000000,,,,0.000000,2.000000,2.000000,0.000000,2.000000,2.000000,2.000000,0.000000,2.000000,4.000000,4.000000,4.000000,4.000000,2.000000,4.000000,16.666666,,,,,,,,,,,,,,,,,18.000000,0.000000,0.540473,0.330505,-0.658081,0.406921,0.959590,-0.180686,-0.080576,-82.245056,45.451958,23.389690
1732083787.844703,1732083787.846060,73.000000,0.000000,4303.461426,4296.025879,4326.025879,4322.563965,4306.794922,4322.820313,4330.256348,4334.743652,4329.743652,4304.487305,4460.897461,4494.743652,4363.974121,4404.871582,1516.000000,0.000000,5.000000,,,,0.000000,2.000000,2.000000,0.000000,2.000000,2.000000,2.000000,0.000000,2.000000,4.000000,4.000000,4.000000,4.000000,2.000000,4.000000,16.666666,,,,,,,,,,,,,,,,,,,,,,,,,,,,
1732083787.852511,1732083787.853668,74.000000,0.000000,4298.333496,4284.871582,4325.256348,4317.948730,4322.051270,4316.666504,4330.000000,4332.051270,4331.538574,4302.307617,4458.846191,4489.487305,4356.794922,4400.641113,1392.000000,0.000000,5.000000,,,,0.000000,2.000000,2.000000,0.000000,2.000000,2.000000,2.000000,0.000000,2.000000,4.000000,4.000000,4.000000,4.000000,2.000000,4.000000,16.666666,,,,,,,,,,,,,,,,,,,,,,,,,,,,
1732083787.860320,1732083787.861476,75.000000,0.000000,4292.692383,4279.871582,4325.000000,4311.153809,4318.077148,4312.692383,4329.230957,4327.307617,4331.025879,4302.179688,4456.794922,4487.307617,4354.358887,4397.948730,1528.000000,0.000000,5.000000,,,,0.000000,2.000000,2.000000,0.000000,2.000000,2.000000,2.000000,0.000000,2.000000,4.000000,4.000000,4.000000,4.000000,2.000000,4.000000,16.666666,,,,,,,,,,,,,,,,,,,,,,,,,,,,
1732083787.868128,1732083787.869185,76.000000,0.000000,4296.282227,4290.128418,4323.461426,4315.512695,4295.641113,4321.282227,4330.897461,4336.922852,4333.846191,4305.384766,4458.846191,4492.307617,4361.666504,4401.794922,1755.000000,0.000000,5.000000,,,,0.000000,2.000000,2.000000,0.000000,2.000000,2.000000,2.000000,0.000000,2.000000,4.000000,4.000000,4.000000,4.000000,2.000000,4.000000,16.666666,,,,,,,,,,,,,,,,,19.000000,0.000000,0.541082,0.330566,-0.657776,0.406555,0.977170,-0.159687,-0.080088,-82.176826,45.362755,23.687315
1732083787.875936,1732083787.876993,77.000000,0.000000,4299.102539,4294.871582,4322.179688,4316.282227,4298.333496,4322.948730,4332.820313,4337.436035,4335.384766,4305.128418,4458.846191,4491.025879,4360.384766,4401.025879,1528.000000,0.000000,5.000000,,,,0.000000,2.000000,2.000000,0.000000,2.000000,2.000000,2.000000,0.000000,2.000000,4.000000,4.000000,4.000000,4.000000,2.000000,4.000000,16.666666,,,,,,,,,,,,,,,,,,,,,,,,,,,,
1732083787.883744,1732083787.884601,78.000000,0.000000,4297.436035,4292.692383,4322.820313,4314.230957,4311.282227,4315.641113,4330.512695,4325.384766,4332.692383,4306.410156,4458.205078,4490.641113,4358.461426,4399.102539,1392.000000,0.000000,5.000000,,,,0.000000,2.000000,2.000000,0.000000,2.000000,2.000000,2.000000,0.000000,2.000000,4.000000,4.000000,4.000000,4.000000,2.000000,4.000000,16.666666,1.000000,16.666666,2.000000,2.000000,0.000000,2.000000,2.000000,2.000000,0.000000,2.000000,4.000000,4.000000,4.000000,4.000000,2.000000,4.000000,,,,,,,,,,,,
1732083787.891553,1732083787.892409,79.000000,0.000000,4298.077148,4295.641113,4324.102539,4318.333496,4310.000000,4314.743652,4332.307617,4327.563965,4332.051270,4309.102539,4460.897461,4496.153809,4360.384766,4401.153809,1528.000000,0.000000,5.000000,,,,0.000000,2.000000,2.000000,0.000000,2.000000,2.000000,2.000000,0.000000,2.000000,4.000000,4.000000,4.000000,4.000000,2.000000,4.000000,16.666666,,,,,,,,,,,,,,,,,,,,,,,,,,,,
1732083787.899361,1732083787.900118,80.000000,0.000000,4298.717773,4292.563965,4322.436035,4319.230957,4310.384766,4316.538574,4334.615234,4337.051270,4335.384766,4307.820313,4462.563965,4495.641113,4359.615234,4399.615234,1755.000000,0.000000,5.000000,,,,0.000000,2.000000,2.000000,0.000000,2.000000,2.000000,2.000000,0.000000,2.000000,4.000000,4.000000,4.000000,4.000000,2.000000,4.000000,16.666666,,,,,,,,,,,,,,,,,20.000000,0.000000,0.541082,0.330566,-0.657776,0.406555,0.971798,-0.164083,-0.079111,-82.016563,45.230495,24.063393
1732083787.907169,1732083787.907926,81.000000,0.000000,4292.563965,4283.077148,4322.948730,4313.205078,4307.563965,4315.512695,4331.025879,4329.743652,4332.563965,4305.384766,4461.025879,4486.153809,4361.922852,4396.794922,1528.000000,0.000000,5.000000,,,,0.000000,2.000000,2.000000,0.000000,2.000000,2.000000,2.000000,0.000000,2.000000,4.000000,4.000000,4.000000,4.000000,2.000000,4.000000,16.666666,,,,,,,,,,,,,,,,,,,,,,,,,,,,
1732083787.914977,1732083787.915534,82.000000,0.000000,4288.077148,4282.436035,4324.358887,4311.153809,4297.307617,4312.563965,4329.615234,4321.282227,4328.077148,4307.563965,4460.641113,4481.794922,4364.871582,4398.205078,1392.000000,0.000000,5.000000,,,,0.000000,2.000000,2.000000,0.000000,2.000000,2.000000,2.000000,0.000000,2.000000,4.000000,4.000000,4.000000,4.000000,2.000000,4.000000,16.666666,,,,,,,,,,,,,,,,,,,,,,,,,,,,
1732083787.922786,1732083787.923343,83.000000,0.000000,4290.641113,4285.897461,4323.461426,4310.512695,4309.871582,4312.307617,4332.692383,4331.538574,4331.538574,4308.077148,4460.641113,4485.128418,4360.256348,4397.820313,1528.000000,0.000000,5.000000,,,,0.000000,2.000000,2.000000,0.000000,2.000000,2.000000,2.000000,0.000000,2.000000,4.000000,4.000000,4.000000,4.000000,2.000000,4.000000,16.666666,,,,,,,,,,,,,,,,,,,,,,,,,,,,
1732083787.930594,1732083787.931051,84.000000,0.000000,4293.461426,4281.666504,4323.589844,4307.179688,4318.846191,4316.282227,4333.461426,4344.230957,4335.256348,4305.384766,4463.589844,4490.000000,4359.230957,4396.794922,1755.000000,0.000000,5.000000,,,,0.000000,2.000000,2.000000,0.000000,2.000000,2.000000,2.000000,0.000000,2.000000,4.000000,4.000000,4.000000,4.000000,2.000000,4.000000,16.666666,,,,,,,,,,,,,,,,,21.000000,0.000000,0.541738,0.330566,-0.657349,0.406372,0.963497,-0.169943,-0.075204,-82.080086,45.413368,23.916348
1732083787.938402,1732083787.938859,85.000000,0.000000,4295.384766,4282.179688,4323.717773,4309.487305,4296.666504,4316.666504,4329.871582,4336.153809,4332.692383,4308.461426,4472.051270,4495.000000,4365.128418,4404.102539,1528.000000,0.000000,5.000000,,,,0.000000,2.000000,2.000000,0.000000,2.000000,2.000000,2.000000,0.000000,2.000000,4.000000,4.000000,4.000000,4.000000,2.000000,4.000000,16.666666,,,,,,,,,,,,,,,,,,,,,,,,,,,,
1732083787.946211,1732083787.946467,86.000000,0.000000,4296.922852,4287.563965,4321.666504,4312.692383,4289.102539,4316.794922,4331.282227,4324.615234,4330.384766,4310.512695,4472.820313,4492.307617,4362.436035,4405.000000,1392.000000,0.000000,5.000000,,,,0.000000,2.000000,2.000000,0.000000,2.000000,2.000000,2.000000,0.000000,2.000000,4.000000,4.000000,4.000000,4.000000,2.000000,4.000000,16.666666,,,,,,,,,,,,,,,,,,,,,,,,,,,,
1732083787.954019,1732083787.954276,87.000000,0.000000,4295.512695,4284.230957,4321.410156,4310.897461,4304.102539,4317.179688,4331.538574,4331.282227,4331.153809,4306.538574,4464.615234,4487.436035,4356.282227,4396.666504,1528.000000,0.000000,5.000000,,,,0.000000,2.000000,2.000000,0.000000,2.000000,2.000000,2.000000,0.000000,2.000000,4.000000,4.000000,4.000000,4.000000,2.000000,4.000000,16.666666,,,,,,,,,,,,,,,,,,,,,,,,,,,,
1732083787.961827,1732083787.961984,88.000000,0.000000,4292.179688,4280.512695,4323.077148,4310.384766,4298.077148,4315.384766,4329.487305,4339.743652,4331.410156,4303.205078,4461.538574,4491.794922,4352.820313,4395.512695,1755.000000,0.000000,5.000000,,,,0.000000,2.000000,2.000000,0.000000,2.000000,2.000000,2.000000,0.000000,2.000000,4.000000,4.000000,4.000000,4.000000,2.000000,4.000000,16.666666,,,,,,,,,,,,,,,,,22.000000,0.000000,0.542236,0.330322,-0.657288,0.406006,0.966915,-0.173361,-0.076181,-82.174866,45.468163,23.948908
1732083787.969635,1732083787.969792,89.000000,0.000000,4290.641113,4280.256348,4323.205078,4310.897461,4294.743652,4310.641113,4328.205078,4335.384766,4331.666504,4301.922852,4462.307617,4497.692383,4350.256348,4398.846191,1528.000000,0.000000,5.000000,,,,0.000000,2.000000,2.000000,0.000000,2.000000,2.000000,2.000000,0.000000,2.000000,4.000000,4.000000,4.000000,4.000000,2.000000,4.000000,16.666666,,,,,,,,,,,,,,,,,,,,,,,,,,,,
1732083787.977444,1732083787.977800,90.000000,0.000000,4291.410156,4279.102539,4321.410156,4309.102539,4311.153809,4310.000000,4329.615234,4334.615234,4334.487305,4300.512695,4460.897461,4496.025879,4350.384766,4397.563965,1392.000000,0.000000,5.000000,,,,0.000000,2.000000,2.000000,0.000000,2.000000,2.000000,2.000000,0.000000,2.000000,4.000000,4.000000,4.000000,4.000000,2.000000,4.000000,16.666666,,,,,,,,,,,,,,,,,,,,,,,,,,,,
1732083787.985252,1732083787.985608,91.000000,0.000000,4293.461426,4283.461426,4322.820313,4313.333496,4307.179688,4318.077148,4330.641113,4338.846191,4335.512695,4303.205078,4461.153809,4493.205078,4351.025879,4396.282227,1528.000000,0.000000,5.000000,,,,0.000000,2.000000,2.000000,0.000000,2.000000,2.000000,2.000000,0.000000,2.000000,4.000000,4.000000,4.000000,4.000000,2.000000,4.000000,16.666666,,,,,,,,,,,,,,,,,,,,,,,,,,,,
1732083787.993060,1732083787.993516,92.000000,0.000000,4291.538574,4288.205078,4326.922852,4318.333496,4290.897461,4321.410156,4333.717773,4335.000000,4332.051270,4306.153809,4461.538574,4489.230957,4348.589844,4397.051270,1755.000000,0.000000,5.000000,,,,0.000000,2.000000,2.000000,0.000000,2.000000,2.000000,2.000000,0.000000,2.000000,4.000000,4.000000,4.000000,4.000000,2.000000,4.000000,16.666666,,,,,,,,,,,,,,,,,23.000000,0.000000,0.542594,0.330566,-0.656982,0.405823,0.952753,-0.165059,-0.077158,-82.053307,45.564213,23.940283
1732083788.000868,1732083788.001325,93.000000,0.000000,4287.563965,4283.333496,4326.538574,4314.230957,4294.230957,4316.410156,4332.948730,4331.922852,4333.205078,4303.333496,4463.205078,4483.974121,4346.538574,4394.615234,1528.000000,0.000000,5.000000,,,,0.000000,2.000000,2.000000,0.000000,2.000000,2.000000,2.000000,0.000000,2.000000,4.000000,4.000000,4.000000,4.000000,2.000000,4.000000,16.666666,,,,,,,,,,,,,,,,,,,,,,,,,,,,
1732083788.008676,1732083788.008933,94.000000,0.000000,4289.230957,4280.000000,4319.615234,4309.615234,4300.897461,4308.717773,4328.077148,4335.128418,4334.615234,4302.948730,4468.846191,4486.153809,4350.897461,4397.948730,1392.000000,0.000000,5.000000,,,,0.000000,2.000000,2.000000,0.000000,2.000000,2.000000,2.000000,0.000000,2.000000,4.000000,4.000000,4.000000,4.000000,2.000000,4.000000,16.666666,,,,,,,,,,,,,,,,,,,,,,,,,,,,
1732083788.016485,1732083788.016741,95.000000,0.000000,4293.461426,4288.205078,4320.128418,4312.179688,4296.153809,4311.282227,4327.820313,4333.461426,4328.205078,4306.410156,4470.897461,4491.666504,4355.256348,4403.717773,1528.000000,0.000000,5.000000,,,,0.000000,2.000000,2.000000,0.000000,2.000000,2.000000,2.000000,0.000000,2.000000,4.000000,4.000000,4.000000,4.000000,2.000000,4.000000,16.666666,,,,,,,,,,,,,,,,,,,,,,,,,,,,
1732083788.024293,1732083788.024649,96.000000,0.000000,4296.410156,4290.769043,4325.769043,4315.000000,4297.563965,4318.333496,4333.333496,4327.051270,4321.922852,4305.512695,4466.282227,4490.512695,4353.974121,4398.333496,1755.000000,0.000000,5.000000,,,,0.000000,2.000000,2.000000,0.000000,2.000000,2.000000,2.000000,0.000000,2.000000,4.000000,4.000000,4.000000,4.000000,2.000000,4.000000,16.666666,,,,,,,,,,,,,,,,,24.000000,0.000000,0.542630,0.330627,-0.656921,0.405823,0.952753,-0.165059,-0.077158,-82.011513,45.552010,23.856628
1732083788.032101,1732083788.032458,97.000000,0.000000,4295.769043,4287.692383,4322.051270,4312.563965,4309.871582,4311.794922,4329.615234,4328.461426,4325.641113,4302.563965,4466.410156,4488.077148,4350.000000,4391.794922,1528.000000,0.000000,5.000000,,,,0.000000,2.000000,2.000000,0.000000,2.000000,2.000000,2.000000,0.000000,2.000000,4.000000,4.000000,4.000000,4.000000,2.000000,4.000000,16.666666,,,,,,,,,,,,,,,,,,,,,,,,,,,,
1732083788.039909,1732083788.040466,98.000000,0.000000,4288.077148,4288.205078,4317.820313,4310.256348,4309.358887,4306.025879,4326.025879,4336.922852,4333.717773,4305.512695,4467.948730,4487.820313,4349.743652,4393.974121,1392.000000,0.000000,5.000000,,,,0.000000,2.000000,2.000000,0.000000,2.000000,2.000000,2.000000,0.000000,2.000000,4.000000,4.000000,4.000000,4.000000,2.000000,4.000000,16.666666,,,,,,,,,,,,,,,,,,,,,,,,,,,,
1732083788.047718,1732083788.048274,99.000000,0.000000,4281.538574,4287.307617,4321.025879,4310.512695,4295.384766,4314.615234,4332.307617,4337.948730,4332.436035,4311.153809,4461.410156,4484.230957,4352.051270,4395.256348,1528.000000,0.000000,5.000000,,,,0.000000,2.000000,2.000000,0.000000,2.000000,2.000000,2.000000,0.000000,2.000000,4.000000,4.000000,4.000000,4.000000,2.000000,4.000000,16.666666,,,,,,,,,,,,,,,,,,,,,,,,,,,,
1732083788.055526,1732083788.056182,100.000000,0.000000,4282.307617,4284.487305,4324.102539,4311.153809,4290.256348,4320.641113,4333.589844,4332.692383,4324.871582,4308.333496,4461.282227,4483.077148,4352.179688,4393.717773,1755.000000,0.000000,5.000000,,,,0.000000,2.000000,2.000000,0.000000,2.000000,2.000000,2.000000,0.000000,2.000000,4.000000,4.000000,4.000000,4.000000,2.000000,4.000000,16.666666,,,,,,,,,,,,,,,,,25.000000,0.000000,0.543016,0.330750,-0.656616,0.405701,0.954706,-0.164083,-0.070321,-81.919327,45.550461,23.917202
1732083788.063334,1732083788.063990,101.000000,0.000000,4285.512695,4286.025879,4323.205078,4310.256348,4299.615234,4317.820313,4328.461426,4331.538574,4323.205078,4301.153809,4472.307617,4492.179688,4355.000000,4404.358887,1528.000000,0.000000,5.000000,,,,0.000000,2.000000,2.000000,0.000000,2.000000,2.000000,2.000000,0.000000,2.000000,4.000000,4.000000,4.000000,4.000000,2.000000,4.000000,16.666666,,,,,,,,,,,,,,,,,,,,,,,,,,,,
1732083788.071143,1732083788.071998,102.000000,0.000000,4290.384766,4290.769043,4324.230957,4311.025879,4296.922852,4318.846191,4327.436035,4336.666504,4328.461426,4301.538574,4477.307617,4501.282227,4359.358887,4416.025879,1392.000000,0.000000,5.000000,,,,0.000000,2.000000,2.000000,0.000000,2.000000,2.000000,2.000000,0.000000,2.000000,4.000000,4.000000,4.000000,4.000000,2.000000,4.000000,16.666666,,,,,,,,,,,,,,,,,,,,,,,,,,,,
1732083788.078951,1732083788.079806,103.000000,0.000000,4292.820313,4287.307617,4323.333496,4311.666504,4291.666504,4318.333496,4330.897461,4337.051270,4330.769043,4306.922852,4472.820313,4495.897461,4356.922852,4410.769043,1528.000000,0.000000,5.000000,,,,0.000000,2.000000,2.000000,0.000000,2.000000,2.000000,2.000000,0.000000,2.000000,4.000000,4.000000,4.000000,4.000000,2.000000,4.000000,16.666666,,,,,,,,,,,,,,,,,,,,,,,,,,,,
1732083788.086759,1732083788.087714,104.000000,0.000000,4289.230957,4281.666504,4321.282227,4310.641113,4306.922852,4309.743652,4326.282227,4332.179688,4326.153809,4308.717773,4470.000000,4489.102539,4351.922852,4403.461426,1755.000000,0.000000,5.000000,,,,0.000000,2.000000,2.000000,0.000000,2.000000,2.000000,2.000000,0.000000,2.000000,4.000000,4.000000,4.000000,4.000000,2.000000,4.000000,16.666666,,,,,,,,,,,,,,,,,26.000000,0.000000,0.543016,0.330750,-0.656616,0.405701,0.971310,-0.171896,-0.079600,-81.806320,45.464207,23.752934
1732083788.094567,1732083788.095523,105.000000,0.000000,4289.358887,4285.512695,4322.948730,4311.794922,4311.153809,4308.205078,4325.256348,4334.102539,4326.025879,4304.615234,4470.641113,4493.077148,4351.153809,4403.717773,1528.000000,0.000000,5.000000,,,,0.000000,2.000000,2.000000,0.000000,2.000000,2.000000,2.000000,0.000000,2.000000,4.000000,4.000000,4.000000,4.000000,2.000000,4.000000,16.666666,,,,,,,,,,,,,,,,,,,,,,,,,,,,
1732083788.102376,1732083788.103531,106.000000,0.000000,4293.717773,4290.384766,4324.487305,4313.077148,4294.102539,4314.615234,4329.871582,4332.948730,4328.461426,4304.615234,4472.179688,4495.769043,4354.487305,4402.051270,1392.000000,0.000000,5.000000,,,,0.000000,2.000000,2.000000,0.000000,2.000000,2.000000,2.000000,0.000000,2.000000,4.000000,4.000000,4.000000,4.000000,2.000000,4.000000,16.666666,,,,,,,,,,,,,,,,,,,,,,,,,,,,
1732083788.110184,1732083788.111339,107.000000,0.000000,4289.615234,4286.410156,4323.846191,4311.025879,4287.179688,4318.589844,4333.589844,4330.128418,4327.820313,4305.256348,4469.487305,4487.307617,4353.205078,4397.820313,1528.000000,0.000000,5.000000,,,,0.000000,2.000000,2.000000,0.000000,2.000000,2.000000,2.000000,0.000000,2.000000,4.000000,4.000000,4.000000,4.000000,2.000000,4.000000,16.666666,,,,,,,,,,,,,,,,,,,,,,,,,,,,
1732083788.117992,1732083788.119247,108.000000,0.000000,4281.025879,4279.358887,4322.948730,4308.717773,4298.974121,4319.615234,4329.743652,4335.000000,4326.282227,4299.230957,4460.769043,4481.538574,4345.897461,4397.948730,1755.000000,0.000000,5.000000,,,,0.000000,2.000000,2.000000,0.000000,2.000000,2.000000,2.000000,0.000000,2.000000,4.000000,4.000000,4.000000,4.000000,2.000000,4.000000,16.666666,,,,,,,,,,,,,,,,,27.000000,0.000000,0.542925,0.330872,-0.656555,0.405823,0.971310,-0.171896,-0.079600,-81.714790,45.394341,23.619877
1732083788.125800,1732083788.127055,109.000000,0.000000,4282.436035,4281.922852,4325.128418,4308.717773,4299.230957,4319.487305,4327.563965,4330.256348,4319.487305,4293.333496,4457.820313,4485.256348,4340.384766,4395.769043,1528.000000,0.000000,5.000000,,,,0.000000,2.000000,2.000000,0.000000,2.000000,2.000000,2.000000,0.000000,2.000000,4.000000,4.000000,4.000000,4.000000,2.000000,4.000000,16.666666,,,,,,,,,,,,,,,,,,,,,,,,,,,,
1732083788.133609,1732083788.135063,110.000000,0.000000,4289.487305,4290.128418,4324.743652,4309.743652,4292.051270,4317.692383,4328.077148,4325.000000,4316.922852,4294.358887,4458.846191,4488.461426,4342.307617,4393.077148,1392.000000,0.000000,5.000000,,,,0.000000,2.000000,2.000000,0.000000,2.000000,2.000000,2.000000,0.000000,2.000000,4.000000,4.000000,4.000000,4.000000,2.000000,4.000000,16.666666,,,,,,,,,,,,,,,,,,,,,,,,,,,,
1732083788.141417,1732083788.142871,111.000000,0.000000,4288.461426,4293.077148,4321.410156,4308.205078,4303.205078,4312.820313,4327.692383,4337.436035,4328.589844,4299.743652,4459.615234,4486.153809,4347.563965,4394.871582,1528.000000,0.000000,5.000000,,,,0.000000,2.000000,2.000000,0.000000,2.000000,2.000000,2.000000,0.000000,2.000000,4.000000,4.000000,4.000000,4.000000,2.000000,4.000000,16.666666,,,,,,,,,,,,,,,,,,,,,,,,,,,,
1732083788.149225,1732083788.150580,112.000000,0.000000,4288.717773,4294.102539,4322.948730,4308.717773,4305.384766,4308.974121,4326.538574,4337.692383,4333.205078,4304.871582,4467.051270,4486.794922,4352.692383,4401.666504,1755.000000,0.000000,5.000000,,,,0.000000,2.000000,2.000000,0.000000,2.000000,2.000000,2.000000,0.000000,2.000000,4.000000,4.000000,4.000000,4.000000,2.000000,4.000000,16.666666,,,,,,,,,,,,,,,,,28.000000,0.000000,0.543108,0.330750,-0.656616,0.405579,0.972775,-0.162618,-0.075204,-81.627312,45.262749,23.587101
1732083788.157034,1732083788.158388,113.000000,0.000000,4297.179688,4298.333496,4325.641113,4315.128418,4291.794922,4310.897461,4327.307617,4320.512695,4321.025879,4305.769043,4470.128418,4488.846191,4355.384766,4407.820313,1528.000000,0.000000,5.000000,,,,0.000000,2.000000,2.000000,0.000000,2.000000,2.000000,2.000000,0.000000,2.000000,4.000000,4.000000,4.000000,4.000000,2.000000,4.000000,16.666666,,,,,,,,,,,,,,,,,,,,,,,,,,,,
1732083788.164842,1732083788.165996,114.000000,0.000000,4296.666504,4297.692383,4322.051270,4320.000000,4290.256348,4314.615234,4329.615234,4321.282227,4317.948730,4300.384766,4463.589844,4487.692383,4352.179688,4404.743652,1392.000000,0.000000,5.000000,,,,0.000000,2.000000,2.000000,0.000000,2.000000,2.000000,2.000000,0.000000,2.000000,4.000000,4.000000,4.000000,4.000000,2.000000,4.000000,16.666666,,,,,,,,,,,,,,,,,,,,,,,,,,,,
1732083788.172650,1732083788.173805,115.000000,0.000000,4290.897461,4293.205078,4320.769043,4319.358887,4301.794922,4315.512695,4327.820313,4331.282227,4324.230957,4298.717773,4459.871582,4483.589844,4348.717773,4397.436035,1528.000000,0.000000,5.000000,,,,0.000000,2.000000,2.000000,0.000000,2.000000,2.000000,2.000000,0.000000,2.000000,4.000000,4.000000,4.000000,4.000000,2.000000,4.000000,16.666666,,,,,,,,,,,,,,,,,,,,,,,,,,,,
1732083788.180458,1732083788.181513,116.000000,0.000000,4295.897461,4296.282227,4325.128418,4319.615234,4295.256348,4311.410156,4325.256348,4331.922852,4323.333496,4301.922852,4462.692383,4482.179688,4350.512695,4400.128418,1755.000000,0.000000,5.000000,,,,0.000000,2.000000,2.000000,0.000000,2.000000,2.000000,2.000000,0.000000,2.000000,4.000000,4.000000,4.000000,4.000000,2.000000,4.000000,16.666666,,,,,,,,,,,,,,,,,29.000000,0.000000,0.543172,0.330811,-0.656494,0.405640,0.951776,-0.167013,-0.065926,-81.771454,45.257828,23.682219
1732083788.188267,1732083788.189321,117.000000,0.000000,4297.179688,4298.717773,4325.512695,4319.102539,4290.000000,4309.871582,4325.384766,4330.897461,4322.307617,4301.025879,4462.948730,4482.436035,4351.666504,4403.974121,1528.000000,0.000000,5.000000,,,,0.000000,2.000000,2.000000,0.000000,2.000000,2.000000,2.000000,0.000000,2.000000,4.000000,4.000000,4.000000,4.000000,2.000000,4.000000,16.666666,,,,,,,,,,,,,,,,,,,,,,,,,,,,
1732083788.196075,1732083788.196930,118.000000,0.000000,4287.051270,4293.717773,4320.769043,4313.461426,4308.717773,4309.358887,4323.333496,4327.436035,4320.897461,4297.820313,4456.538574,4477.051270,4346.410156,4394.102539,1392.000000,0.000000,5.000000,,,,0.000000,2.000000,2.000000,0.000000,2.000000,2.000000,2.000000,0.000000,2.000000,4.000000,4.000000,4.000000,4.000000,2.000000,4.000000,16.666666,,,,,,,,,,,,,,,,,,,,,,,,,,,,
1732083788.203883,1732083788.204738,119.000000,0.000000,4285.384766,4293.461426,4321.025879,4308.461426,4309.615234,4307.692383,4320.897461,4326.538574,4318.974121,4297.436035,4453.077148,4471.538574,4340.897461,4389.871582,1528.000000,0.000000,5.000000,,,,0.000000,2.000000,2.000000,0.000000,2.000000,2.000000,2.000000,0.000000,2.000000,4.000000,4.000000,4.000000,4.000000,2.000000,4.000000,16.666666,,,,,,,,,,,,,,,,,,,,,,,,,,,,
1732083788.211691,1732083788.212446,120.000000,0.000000,4288.974121,4296.410156,4324.487305,4312.051270,4291.410156,4314.743652,4328.333496,4332.179688,4321.538574,4298.717773,4455.512695,4475.512695,4340.512695,4396.282227,1755.000000,0.000000,5.000000,,,,0.000000,2.000000,2.000000,0.000000,2.000000,2.000000,2.000000,0.000000,2.000000,4.000000,4.000000,4.000000,4.000000,2.000000,4.000000,16.666666,,,,,,,,,,,,,,,,,30.000000,0.000000,0.543172,0.330811,-0.656494,0.405640,0.961055,-0.166036,-0.071786,-82.068214,45.418842,23.729263
1732083788.219500,1732083788.220254,121.000000,0.000000,4289.230957,4294.743652,4324.487305,4316.794922,4290.769043,4321.410156,4330.384766,4335.641113,4324.743652,4299.358887,4459.230957,4482.563965,4340.769043,4396.410156,1528.000000,0.000000,5.000000,,,,0.000000,2.000000,2.000000,0.000000,2.000000,2.000000,2.000000,0.000000,2.000000,4.000000,4.000000,4.000000,4.000000,2.000000,4.000000,16.666666,,,,,,,,,,,,,,,,,,,,,,,,,,,,
1732083788.227308,1732083788.227863,122.000000,0.000000,4292.692383,4294.743652,4322.948730,4315.897461,4302.436035,4313.205078,4325.384766,4335.000000,4323.205078,4297.692383,4459.615234,4482.307617,4340.641113,4394.871582,1392.000000,0.000000,5.000000,,,,0.000000,2.000000,2.000000,0.000000,2.000000,2.000000,2.000000,0.000000,2.000000,4.000000,4.000000,4.000000,4.000000,2.000000,4.000000,16.666666,,,,,,,,,,,,,,,,,,,,,,,,,,,,
1732083788.235116,1732083788.235671,123.000000,0.000000,4296.794922,4296.922852,4324.102539,4312.692383,4297.179688,4304.358887,4323.077148,4332.436035,4322.307617,4296.410156,4459.358887,4481.153809,4341.794922,4399.487305,1528.000000,0.000000,5.000000,,,,0.000000,2.000000,2.000000,0.000000,2.000000,2.000000,2.000000,0.000000,2.000000,4.000000,4.000000,4.000000,4.000000,2.000000,4.000000,16.666666,,,,,,,,,,,,,,,,,,,,,,,,,,,,
1732083788.242924,1732083788.243379,124.000000,0.000000,4294.487305,4294.487305,4325.641113,4312.436035,4292.563965,4310.897461,4327.307617,4328.589844,4320.256348,4296.282227,4458.717773,4481.025879,4342.820313,4401.922852,1755.000000,0.000000,5.000000,,,,0.000000,2.000000,2.000000,0.000000,2.000000,2.000000,2.000000,0.000000,2.000000,4.000000,4.000000,4.000000,4.000000,2.000000,4.000000,16.666666,,,,,,,,,,,,,,,,,31.000000,0.000000,0.543301,0.330627,-0.656555,0.405518,0.967892,-0.175314,-0.081553,-82.023582,45.275928,23.464037
1732083788.250733,1732083788.251187,125.000000,0.000000,4294.358887,4292.692383,4324.615234,4315.000000,4309.230957,4313.974121,4327.436035,4324.743652,4312.948730,4295.769043,4457.307617,4478.974121,4342.179688,4400.256348,1528.000000,0.000000,5.000000,,,,0.000000,2.000000,2.000000,0.000000,2.000000,2.000000,2.000000,0.000000,2.000000,4.000000,4.000000,4.000000,4.000000,2.000000,4.000000,16.666666,,,,,,,,,,,,,,,,,,,,,,,,,,,,
1732083788.258541,1732083788.258796,126.000000,0.000000,4298.846191,4295.128418,4323.589844,4315.897461,4310.384766,4303.717773,4326.410156,4320.000000,4309.230957,4296.538574,4458.846191,4476.666504,4343.077148,4399.615234,1392.000000,0.000000,5.000000,,,,0.000000,2.000000,2.000000,0.000000,2.000000,2.000000,2.000000,0.000000,2.000000,4.000000,4.000000,4.000000,4.000000,2.000000,4.000000,16.666666,,,,,,,,,,,,,,,,,,,,,,,,,,,,
1732083788.266349,1732083788.266604,127.000000,0.000000,4298.205078,4294.871582,4322.563965,4313.205078,4292.820313,4303.205078,4325.384766,4321.794922,4313.589844,4296.922852,4458.974121,4473.205078,4343.589844,4397.051270,5.000000,0.000000,5.000000,,,,0.000000,2.000000,2.000000,0.000000,2.000000,2.000000,2.000000,0.000000,2.000000,4.000000,4.000000,4.000000,4.000000,2.000000,4.000000,16.666666,,,,,,,,,,,,,,,,,,,,,,,,,,,,
1732083788.274157,1732083788.274312,0.000000,0.000000,4292.436035,4293.205078,4322.692383,4311.410156,4288.589844,4313.589844,4324.871582,4331.282227,4320.000000,4295.641113,4458.077148,4473.205078,4343.205078,4394.230957,0.000000,0.000000,5.000000,,,,0.000000,2.000000,2.000000,0.000000,2.000000,2.000000,2.000000,0.000000,2.000000,4.000000,4.000000,4.000000,4.000000,2.000000,4.000000,16.666666,,,,,,,,,,,,,,,,,0.000000,0.000000,0.543255,0.330750,-0.656494,0.405579,0.964962,-0.161641,-0.089366,-81.997437,45.183502,23.505869
1732083788.281966,1732083788.282121,1.000000,0.000000,4288.205078,4294.102539,4323.333496,4311.282227,4298.589844,4312.436035,4324.871582,4333.333496,4321.153809,4295.897461,4457.179688,4477.051270,4340.769043,4394.487305,1325.000000,0.000000,5.000000,,,,0.000000,2.000000,2.000000,0.000000,2.000000,2.000000,2.000000,0.000000,2.000000,4.000000,4.000000,4.000000,4.000000,2.000000,4.000000,16.666666,,,,,,,,,,,,,,,,,,,,,,,,,,,,
1732083788.289774,1732083788.289729,2.000000,0.000000,4291.538574,4294.615234,4322.051270,4312.436035,4298.589844,4304.615234,4323.846191,4326.153809,4317.179688,4298.846191,4456.794922,4472.436035,4339.487305,4395.256348,1245.000000,0.000000,5.000000,,,,0.000000,2.000000,2.000000,0.000000,2.000000,2.000000,2.000000,0.000000,2.000000,4.000000,4.000000,4.000000,4.000000,2.000000,4.000000,16.666666,,,,,,,,,,,,,,,,,,,,,,,,,,,,
1732083788.297582,1732083788.297537,3.000000,0.000000,4296.025879,4293.205078,4321.794922,4314.615234,4288.717773,4308.461426,4324.487305,4325.000000,4314.487305,4298.589844,4458.974121,4468.205078,4345.897461,4398.205078,1199.000000,0.000000,5.000000,,,,0.000000,2.000000,2.000000,0.000000,2.000000,2.000000,2.000000,0.000000,2.000000,4.000000,4.000000,4.000000,4.000000,2.000000,4.000000,16.666666,,,,,,,,,,,,,,,,,,,,,,,,,,,,
1732083788.305390,1732083788.305445,4.000000,0.000000,4295.769043,4297.051270,4324.615234,4315.512695,4297.820313,4309.102539,4323.846191,4327.563965,4314.230957,4294.743652,4459.615234,4477.948730,4348.846191,4400.769043,1232.000000,0.000000,5.000000,,,,0.000000,2.000000,2.000000,0.000000,2.000000,2.000000,2.000000,0.000000,2.000000,4.000000,4.000000,4.000000,4.000000,2.000000,4.000000,16.666666,,,,,,,,,,,,,,,,,1.000000,0.000000,0.543256,0.330627,-0.656555,0.405579,0.966915,-0.164571,-0.082530,-81.937927,45.260303,23.566422
1732083788.313199,1732083788.313253,5.000000,0.000000,4294.615234,4299.487305,4325.512695,4313.077148,4307.820313,4300.256348,4324.230957,4325.128418,4315.897461,4294.615234,4458.333496,4481.794922,4344.743652,4398.461426,1070.000000,0.000000,5.000000,,,,0.000000,2.000000,2.000000,0.000000,2.000000,2.000000,2.000000,0.000000,2.000000,4.000000,4.000000,4.000000,4.000000,2.000000,4.000000,16.666666,,,,,,,,,,,,,,,,,,,,,,,,,,,,
