title:1right, start timestamp:1732156397.351640, stop timestamp:1732156435.268463, headset type:EPOCX, headset serial:E5020C3A, headset firmware:730, channels:67, sampling rate:eeg_128;mot_32, samples:4857      , version:2.2, 
Timestamp,OriginalTimestamp,EEG.Counter,EEG.Interpolated,EEG.AF3,EEG.F7,EEG.F3,EEG.FC5,EEG.T7,EEG.P7,EEG.O1,EEG.O2,EEG.P8,EEG.T8,EEG.FC6,EEG.F4,EEG.F8,EEG.AF4,EEG.RawCq,EEG.Battery,EEG.BatteryPercent,MarkerIndex,MarkerType,MarkerValueInt,EEG.MarkerHardware,CQ.AF3,CQ.F7,CQ.F3,CQ.FC5,CQ.T7,CQ.P7,CQ.O1,CQ.O2,CQ.P8,CQ.T8,CQ.FC6,CQ.F4,CQ.F8,CQ.AF4,CQ.Overall,EQ.SampleRateQuality,EQ.OVERALL,EQ.AF3,EQ.F7,EQ.F3,EQ.FC5,EQ.T7,EQ.P7,EQ.O1,EQ.O2,EQ.P8,EQ.T8,EQ.FC6,EQ.F4,EQ.F8,EQ.AF4,MOT.CounterMems,MOT.InterpolatedMems,MOT.Q0,MOT.Q1,MOT.Q2,MOT.Q3,MOT.AccX,MOT.AccY,MOT.AccZ,MOT.MagX,MOT.MagY,MOT.MagZ
1732156397.351640,1732156397.353840,97.000000,0.000000,4294.358887,4279.487305,4316.922852,4305.128418,4281.922852,4302.563965,4340.384766,4391.538574,4322.563965,4297.563965,4461.794922,4491.410156,4349.743652,4406.538574,1698.000000,1.000000,28.000000,,,,0.000000,2.000000,2.000000,0.000000,4.000000,2.000000,2.000000,0.000000,0.000000,4.000000,4.000000,4.000000,4.000000,4.000000,4.000000,0.000000,,,,,,,,,,,,,,,,,,,,,,,,,,,,
1732156397.359449,1732156397.361448,98.000000,0.000000,4293.717773,4278.333496,4317.307617,4303.846191,4278.846191,4297.692383,4338.717773,4392.563965,4323.333496,4295.769043,4460.769043,4492.692383,4350.897461,4406.410156,1528.000000,1.000000,28.000000,,,,0.000000,2.000000,2.000000,0.000000,4.000000,2.000000,2.000000,0.000000,0.000000,4.000000,4.000000,4.000000,4.000000,4.000000,4.000000,0.000000,,,,,,,,,,,,,,,,,,,,,,,,,,,,
1732156397.367257,1732156397.369257,99.000000,0.000000,4288.589844,4277.436035,4317.436035,4302.948730,4285.384766,4298.717773,4337.179688,4393.077148,4320.384766,4292.563965,4462.436035,4492.179688,4348.717773,4406.922852,1576.000000,1.000000,28.000000,,,,0.000000,2.000000,2.000000,0.000000,4.000000,2.000000,2.000000,0.000000,0.000000,4.000000,4.000000,4.000000,4.000000,4.000000,4.000000,0.000000,,,,,,,,,,,,,,,,,,,,,,,,,,,,
1732156397.375065,1732156397.376965,100.000000,0.000000,4283.846191,4277.179688,4316.025879,4304.487305,4286.025879,4303.974121,4339.743652,4392.307617,4320.641113,4293.333496,4463.717773,4492.051270,4347.436035,4402.051270,1703.000000,1.000000,28.000000,,,,0.000000,2.000000,2.000000,0.000000,4.000000,2.000000,2.000000,0.000000,0.000000,4.000000,4.000000,4.000000,4.000000,4.000000,4.000000,0.000000,,,,,,,,,,,,,,,,,25.000000,0.000000,0.671332,-0.083130,-0.728577,-0.107605,1.014284,-0.000977,-0.095226,-67.239670,33.829807,43.405209
1732156397.382873,1732156397.384773,101.000000,0.000000,4285.128418,4280.128418,4317.179688,4305.897461,4289.230957,4305.897461,4342.436035,4390.512695,4320.512695,4295.256348,4461.282227,4491.153809,4348.461426,4397.051270,1698.000000,1.000000,28.000000,,,,0.000000,2.000000,2.000000,0.000000,4.000000,2.000000,2.000000,0.000000,0.000000,4.000000,4.000000,4.000000,4.000000,4.000000,4.000000,0.000000,,,,,,,,,,,,,,,,,,,,,,,,,,,,
1732156397.390682,1732156397.392781,102.000000,0.000000,4285.128418,4280.256348,4319.743652,4300.384766,4286.922852,4301.410156,4341.153809,4391.410156,4317.563965,4296.538574,4458.846191,4490.641113,4345.897461,4398.717773,1528.000000,1.000000,28.000000,,,,0.000000,2.000000,2.000000,0.000000,4.000000,2.000000,2.000000,0.000000,0.000000,4.000000,4.000000,4.000000,4.000000,4.000000,4.000000,0.000000,,,,,,,,,,,,,,,,,,,,,,,,,,,,
1732156397.398490,1732156397.400589,103.000000,0.000000,4283.974121,4274.230957,4320.641113,4292.820313,4277.436035,4296.282227,4339.358887,4393.461426,4318.846191,4297.692383,4462.948730,4490.641113,4346.282227,4401.922852,1576.000000,1.000000,28.000000,,,,0.000000,2.000000,2.000000,0.000000,4.000000,2.000000,2.000000,0.000000,0.000000,4.000000,4.000000,4.000000,4.000000,4.000000,4.000000,0.000000,,,,,,,,,,,,,,,,,,,,,,,,,,,,
1732156397.406298,1732156397.408497,104.000000,0.000000,4284.230957,4269.871582,4318.846191,4290.256348,4278.589844,4296.153809,4340.512695,4392.179688,4323.205078,4298.589844,4466.153809,4490.256348,4350.384766,4400.897461,1703.000000,1.000000,28.000000,,,,0.000000,2.000000,2.000000,0.000000,4.000000,2.000000,2.000000,0.000000,0.000000,4.000000,4.000000,4.000000,4.000000,4.000000,4.000000,0.000000,,,,,,,,,,,,,,,,,26.000000,0.000000,0.671332,-0.083130,-0.728577,-0.107605,0.989867,-0.016115,-0.089366,-67.349129,33.890476,43.303219
1732156397.414106,1732156397.416306,105.000000,0.000000,4282.820313,4273.205078,4314.487305,4291.153809,4284.615234,4300.769043,4339.743652,4391.282227,4319.743652,4298.461426,4461.410156,4489.487305,4349.358887,4399.615234,1698.000000,1.000000,28.000000,,,,0.000000,2.000000,2.000000,0.000000,4.000000,2.000000,2.000000,0.000000,0.000000,4.000000,4.000000,4.000000,4.000000,4.000000,4.000000,0.000000,,,,,,,,,,,,,,,,,,,,,,,,,,,,
1732156397.421915,1732156397.423914,106.000000,0.000000,4281.666504,4279.743652,4316.538574,4293.717773,4285.000000,4302.307617,4339.230957,4396.410156,4312.563965,4296.794922,4465.000000,4488.974121,4349.102539,4400.384766,1528.000000,1.000000,28.000000,,,,0.000000,2.000000,2.000000,0.000000,4.000000,2.000000,2.000000,0.000000,0.000000,4.000000,4.000000,4.000000,4.000000,4.000000,4.000000,0.000000,,,,,,,,,,,,,,,,,,,,,,,,,,,,
1732156397.429723,1732156397.431722,107.000000,0.000000,4285.128418,4278.974121,4319.358887,4297.692383,4282.948730,4301.153809,4338.974121,4396.794922,4315.256348,4298.717773,4476.025879,4492.820313,4353.461426,4402.820313,1576.000000,1.000000,28.000000,,,,0.000000,2.000000,2.000000,0.000000,4.000000,2.000000,2.000000,0.000000,0.000000,4.000000,4.000000,4.000000,4.000000,4.000000,4.000000,0.000000,,,,,,,,,,,,,,,,,,,,,,,,,,,,
1732156397.437531,1732156397.439431,108.000000,0.000000,4284.615234,4272.179688,4320.384766,4294.615234,4285.897461,4298.333496,4341.538574,4393.077148,4314.487305,4298.461426,4471.666504,4492.179688,4351.666504,4404.230957,1703.000000,1.000000,28.000000,,,,0.000000,2.000000,2.000000,0.000000,4.000000,2.000000,2.000000,0.000000,0.000000,4.000000,4.000000,4.000000,4.000000,4.000000,4.000000,0.000000,,,,,,,,,,,,,,,,,27.000000,0.000000,0.671325,-0.083801,-0.728516,-0.107544,0.965938,0.001465,-0.103040,-67.592796,33.714619,43.283939
1732156397.445339,1732156397.447239,109.000000,0.000000,4279.871582,4271.025879,4317.563965,4290.000000,4295.128418,4294.871582,4344.230957,4395.128418,4310.128418,4293.589844,4461.794922,4486.025879,4349.743652,4407.051270,1698.000000,1.000000,28.000000,,,,0.000000,2.000000,2.000000,0.000000,4.000000,2.000000,2.000000,0.000000,0.000000,4.000000,4.000000,4.000000,4.000000,4.000000,4.000000,0.000000,,,,,,,,,,,,,,,,,,,,,,,,,,,,
1732156397.453148,1732156397.454847,110.000000,0.000000,4282.563965,4276.666504,4318.589844,4295.897461,4290.384766,4295.641113,4345.769043,4396.666504,4315.256348,4297.307617,4470.641113,4492.563965,4356.025879,4413.589844,1528.000000,1.000000,28.000000,,,,0.000000,2.000000,2.000000,0.000000,4.000000,2.000000,2.000000,0.000000,0.000000,4.000000,4.000000,4.000000,4.000000,4.000000,4.000000,0.000000,,,,,,,,,,,,,,,,,,,,,,,,,,,,
1732156397.460956,1732156397.462655,111.000000,0.000000,4289.615234,4282.051270,4316.666504,4304.871582,4275.128418,4299.230957,4345.384766,4393.205078,4320.897461,4306.922852,4479.487305,4503.717773,4360.000000,4416.666504,1576.000000,1.000000,28.000000,,,,0.000000,2.000000,2.000000,0.000000,4.000000,2.000000,2.000000,0.000000,0.000000,4.000000,4.000000,4.000000,4.000000,4.000000,4.000000,0.000000,,,,,,,,,,,,,,,,,,,,,,,,,,,,
1732156397.468764,1732156397.470364,112.000000,0.000000,4288.717773,4282.436035,4319.358887,4304.487305,4274.230957,4298.333496,4343.974121,4392.948730,4314.743652,4303.717773,4468.846191,4499.743652,4355.512695,4415.000000,1703.000000,1.000000,28.000000,,,,0.000000,2.000000,2.000000,0.000000,4.000000,2.000000,2.000000,0.000000,0.000000,4.000000,4.000000,4.000000,4.000000,4.000000,4.000000,0.000000,,,,,,,,,,,,,,,,,28.000000,0.000000,0.671206,-0.083862,-0.728271,-0.109863,0.969845,0.016604,-0.085460,-67.856834,33.722176,43.201656
1732156397.476572,1732156397.478172,113.000000,0.000000,4285.000000,4280.128418,4318.974121,4302.307617,4282.820313,4295.128418,4340.384766,4394.358887,4309.358887,4293.205078,4462.948730,4489.871582,4350.384766,4411.538574,1698.000000,1.000000,28.000000,,,,0.000000,2.000000,2.000000,0.000000,4.000000,2.000000,2.000000,0.000000,0.000000,4.000000,4.000000,4.000000,4.000000,4.000000,4.000000,0.000000,,,,,,,,,,,,,,,,,,,,,,,,,,,,
1732156397.484381,1732156397.486180,114.000000,0.000000,4285.384766,4280.128418,4316.282227,4301.153809,4283.205078,4294.871582,4337.563965,4393.717773,4312.820313,4293.205078,4468.077148,4492.436035,4352.436035,4410.000000,1528.000000,1.000000,28.000000,,,,0.000000,2.000000,2.000000,0.000000,4.000000,2.000000,2.000000,0.000000,0.000000,4.000000,4.000000,4.000000,4.000000,4.000000,4.000000,0.000000,,,,,,,,,,,,,,,,,,,,,,,,,,,,
1732156397.492189,1732156397.493988,115.000000,0.000000,4283.846191,4279.102539,4321.282227,4300.897461,4282.307617,4294.230957,4343.846191,4396.666504,4313.077148,4298.205078,4469.871582,4499.230957,4353.589844,4412.307617,1576.000000,1.000000,28.000000,,,,0.000000,2.000000,2.000000,0.000000,4.000000,2.000000,2.000000,0.000000,0.000000,4.000000,4.000000,4.000000,4.000000,4.000000,4.000000,0.000000,,,,,,,,,,,,,,,,,,,,,,,,,,,,
1732156397.499997,1732156397.501896,116.000000,0.000000,4282.948730,4277.820313,4328.461426,4301.410156,4282.179688,4292.179688,4349.743652,4398.461426,4309.615234,4293.333496,4466.794922,4497.436035,4347.436035,4412.820313,1703.000000,1.000000,28.000000,,,,0.000000,2.000000,2.000000,0.000000,4.000000,2.000000,2.000000,0.000000,0.000000,4.000000,4.000000,4.000000,4.000000,4.000000,4.000000,0.000000,,,,,,,,,,,,,,,,,29.000000,0.000000,0.671395,-0.084534,-0.727722,-0.111816,0.978147,-0.001953,-0.091808,-67.945702,33.743298,43.411678
1732156397.507805,1732156397.509704,117.000000,0.000000,4289.615234,4278.846191,4328.589844,4299.230957,4284.615234,4292.820313,4347.563965,4395.897461,4308.077148,4283.974121,4461.538574,4492.307617,4342.948730,4404.615234,1698.000000,1.000000,28.000000,,,,0.000000,2.000000,2.000000,0.000000,4.000000,2.000000,2.000000,0.000000,0.000000,4.000000,4.000000,4.000000,4.000000,4.000000,4.000000,0.000000,,,,,,,,,,,,,,,,,,,,,,,,,,,,
1732156397.515613,1732156397.517712,118.000000,0.000000,4295.897461,4278.333496,4326.922852,4296.922852,4298.717773,4291.922852,4345.256348,4399.615234,4306.666504,4279.615234,4458.589844,4491.282227,4339.615234,4400.256348,1528.000000,1.000000,28.000000,,,,0.000000,2.000000,2.000000,0.000000,4.000000,2.000000,2.000000,0.000000,0.000000,4.000000,4.000000,4.000000,4.000000,4.000000,4.000000,0.000000,,,,,,,,,,,,,,,,,,,,,,,,,,,,
1732156397.523422,1732156397.525521,119.000000,0.000000,4296.153809,4274.487305,4330.512695,4301.538574,4297.307617,4292.563965,4348.589844,4403.717773,4306.922852,4279.743652,4459.102539,4497.692383,4332.563965,4406.794922,1576.000000,1.000000,28.000000,,,,0.000000,2.000000,2.000000,0.000000,4.000000,2.000000,2.000000,0.000000,0.000000,4.000000,4.000000,4.000000,4.000000,4.000000,4.000000,0.000000,,,,,,,,,,,,,,,,,,,,,,,,,,,,
1732156397.531230,1732156397.533229,120.000000,0.000000,4300.000000,4276.794922,4327.051270,4308.333496,4278.077148,4294.487305,4347.820313,4398.974121,4308.205078,4284.358887,4459.615234,4504.358887,4338.333496,4413.589844,1703.000000,1.000000,28.000000,,,,0.000000,2.000000,2.000000,0.000000,4.000000,2.000000,2.000000,0.000000,0.000000,4.000000,4.000000,4.000000,4.000000,4.000000,4.000000,0.000000,,,,,,,,,,,,,,,,,30.000000,0.000000,0.671535,-0.084961,-0.727478,-0.112244,0.978147,-0.001953,-0.091808,-67.607681,33.918736,43.776791
1732156397.539038,1732156397.541037,121.000000,0.000000,4306.794922,4281.666504,4325.512695,4307.307617,4273.333496,4289.358887,4345.256348,4398.717773,4305.897461,4288.205078,4461.666504,4506.794922,4351.794922,4414.102539,1698.000000,1.000000,28.000000,,,,0.000000,2.000000,2.000000,0.000000,4.000000,2.000000,2.000000,0.000000,0.000000,4.000000,4.000000,4.000000,4.000000,4.000000,4.000000,0.000000,,,,,,,,,,,,,,,,,,,,,,,,,,,,
1732156397.546847,1732156397.549045,122.000000,0.000000,4309.102539,4278.846191,4325.769043,4305.897461,4281.282227,4283.077148,4346.666504,4401.153809,4304.487305,4288.589844,4466.666504,4506.922852,4352.436035,4412.820313,1528.000000,1.000000,28.000000,,,,0.000000,2.000000,2.000000,0.000000,4.000000,2.000000,2.000000,0.000000,0.000000,4.000000,4.000000,4.000000,4.000000,4.000000,4.000000,0.000000,,,,,,,,,,,,,,,,,,,,,,,,,,,,
1732156397.554655,1732156397.556853,123.000000,0.000000,4306.410156,4277.307617,4325.256348,4305.128418,4280.384766,4284.615234,4347.051270,4399.743652,4306.153809,4290.256348,4468.205078,4506.153809,4348.333496,4413.205078,1576.000000,1.000000,28.000000,,,,0.000000,2.000000,2.000000,0.000000,4.000000,2.000000,2.000000,0.000000,0.000000,4.000000,4.000000,4.000000,4.000000,4.000000,4.000000,0.000000,,,,,,,,,,,,,,,,,,,,,,,,,,,,
1732156397.562463,1732156397.564761,124.000000,0.000000,4306.666504,4282.436035,4322.051270,4306.922852,4278.333496,4287.307617,4344.871582,4397.436035,4309.102539,4294.358887,4469.743652,4509.102539,4349.615234,4415.512695,1703.000000,1.000000,28.000000,,,,0.000000,2.000000,2.000000,0.000000,4.000000,2.000000,2.000000,0.000000,0.000000,4.000000,4.000000,4.000000,4.000000,4.000000,4.000000,0.000000,,,,,,,,,,,,,,,,,31.000000,0.000000,0.672387,-0.087585,-0.726074,-0.114197,0.980588,0.006837,-0.078135,-67.550560,33.922508,43.680866
1732156397.570271,1732156397.572570,125.000000,0.000000,4313.333496,4286.794922,4321.794922,4309.871582,4282.820313,4283.461426,4345.897461,4396.282227,4310.512695,4293.589844,4473.974121,4508.589844,4351.666504,4416.153809,1698.000000,1.000000,28.000000,,,,0.000000,2.000000,2.000000,0.000000,4.000000,2.000000,2.000000,0.000000,0.000000,4.000000,4.000000,4.000000,4.000000,4.000000,4.000000,0.000000,,,,,,,,,,,,,,,,,,,,,,,,,,,,
1732156397.578079,1732156397.580578,126.000000,0.000000,4313.205078,4285.384766,4318.461426,4306.794922,4281.794922,4279.487305,4346.025879,4394.743652,4308.077148,4292.051270,4471.794922,4499.743652,4350.000000,4414.743652,1528.000000,1.000000,28.000000,,,,0.000000,2.000000,2.000000,0.000000,4.000000,2.000000,2.000000,0.000000,0.000000,4.000000,4.000000,4.000000,4.000000,4.000000,4.000000,0.000000,,,,,,,,,,,,,,,,,,,,,,,,,,,,
1732156397.585888,1732156397.588386,127.000000,0.000000,4302.820313,4283.717773,4317.948730,4303.974121,4281.538574,4279.615234,4346.025879,4397.051270,4307.051270,4295.897461,4470.897461,4497.179688,4349.615234,4413.717773,28.000000,1.000000,28.000000,,,,0.000000,2.000000,2.000000,0.000000,4.000000,2.000000,2.000000,0.000000,0.000000,4.000000,4.000000,4.000000,4.000000,4.000000,4.000000,0.000000,,,,,,,,,,,,,,,,,,,,,,,,,,,,
1732156397.593696,1732156397.596294,0.000000,0.000000,4300.769043,4289.358887,4317.436035,4309.102539,4285.897461,4282.948730,4347.307617,4400.000000,4310.769043,4297.436035,4474.615234,4501.410156,4354.358887,4414.102539,0.000000,1.000000,28.000000,,,,0.000000,2.000000,2.000000,0.000000,4.000000,2.000000,2.000000,0.000000,0.000000,4.000000,4.000000,4.000000,4.000000,4.000000,4.000000,0.000000,,,,,,,,,,,,,,,,,0.000000,0.000000,0.673209,-0.088623,-0.724915,-0.115906,0.974240,0.041997,-0.071298,-67.540955,33.863899,43.716503
1732156397.601504,1732156397.604102,1.000000,0.000000,4304.230957,4291.922852,4315.641113,4310.256348,4287.307617,4283.461426,4344.358887,4399.487305,4309.487305,4293.717773,4470.897461,4497.820313,4356.922852,4413.974121,1596.000000,1.000000,28.000000,,,,0.000000,2.000000,2.000000,0.000000,4.000000,2.000000,2.000000,0.000000,0.000000,4.000000,4.000000,4.000000,4.000000,4.000000,4.000000,0.000000,,,,,,,,,,,,,,,,,,,,,,,,,,,,
1732156397.609312,1732156397.612110,2.000000,0.000000,4301.025879,4289.615234,4313.717773,4307.948730,4286.282227,4280.000000,4340.512695,4397.692383,4302.563965,4289.743652,4465.641113,4490.256348,4352.436035,4412.179688,1417.000000,1.000000,28.000000,,,,0.000000,2.000000,2.000000,0.000000,4.000000,2.000000,2.000000,0.000000,0.000000,4.000000,4.000000,4.000000,4.000000,4.000000,4.000000,0.000000,,,,,,,,,,,,,,,,,,,,,,,,,,,,
1732156397.617121,1732156397.619918,3.000000,0.000000,4298.333496,4291.922852,4317.563965,4310.512695,4286.025879,4282.307617,4341.794922,4397.179688,4300.641113,4285.512695,4464.615234,4492.307617,4350.000000,4411.153809,1414.000000,1.000000,28.000000,,,,0.000000,2.000000,2.000000,0.000000,4.000000,2.000000,2.000000,0.000000,0.000000,4.000000,4.000000,4.000000,4.000000,4.000000,4.000000,0.000000,,,,,,,,,,,,,,,,,,,,,,,,,,,,
1732156397.624929,1732156397.627827,4.000000,0.000000,4300.384766,4296.922852,4319.487305,4311.922852,4290.256348,4284.102539,4343.974121,4399.743652,4301.410156,4282.051270,4465.512695,4495.384766,4352.436035,4413.077148,1401.000000,1.000000,28.000000,,,,0.000000,2.000000,2.000000,0.000000,4.000000,2.000000,2.000000,0.000000,0.000000,4.000000,4.000000,4.000000,4.000000,4.000000,4.000000,0.000000,,,,,,,,,,,,,,,,,1.000000,0.000000,0.673622,-0.089111,-0.724304,-0.116943,0.969845,0.039556,-0.061531,-67.531502,33.731426,43.852036
1732156397.632737,1732156397.635635,5.000000,0.000000,4298.717773,4294.230957,4316.922852,4310.384766,4288.589844,4280.512695,4343.333496,4399.871582,4299.487305,4281.538574,4465.256348,4495.000000,4351.025879,4414.615234,1242.000000,1.000000,28.000000,,,,0.000000,2.000000,2.000000,0.000000,4.000000,2.000000,2.000000,0.000000,0.000000,4.000000,4.000000,4.000000,4.000000,4.000000,4.000000,0.000000,,,,,,,,,,,,,,,,,,,,,,,,,,,,
1732156397.640545,1732156397.643243,6.000000,0.000000,4295.897461,4290.000000,4316.153809,4309.487305,4284.743652,4277.692383,4343.461426,4396.666504,4297.179688,4284.487305,4463.205078,4502.436035,4349.102539,4413.974121,0.000000,1.000000,28.000000,,,,0.000000,2.000000,2.000000,0.000000,4.000000,2.000000,2.000000,0.000000,0.000000,4.000000,4.000000,4.000000,4.000000,4.000000,4.000000,0.000000,,,,,,,,,,,,,,,,,,,,,,,,,,,,
1732156397.648354,1732156397.651051,7.000000,0.000000,4297.307617,4290.641113,4317.307617,4310.641113,4286.410156,4278.974121,4341.282227,4395.769043,4299.102539,4286.794922,4464.358887,4507.948730,4351.282227,4415.256348,0.000000,1.000000,28.000000,,,,0.000000,2.000000,2.000000,0.000000,4.000000,2.000000,2.000000,0.000000,0.000000,4.000000,4.000000,4.000000,4.000000,4.000000,4.000000,0.000000,,,,,,,,,,,,,,,,,,,,,,,,,,,,
1732156397.656162,1732156397.658959,8.000000,0.000000,4299.358887,4291.282227,4317.436035,4311.538574,4287.179688,4282.436035,4337.948730,4398.077148,4303.333496,4286.794922,4470.256348,4506.025879,4353.461426,4418.205078,1519.000000,1.000000,28.000000,,,,0.000000,2.000000,2.000000,0.000000,4.000000,2.000000,2.000000,0.000000,0.000000,4.000000,4.000000,4.000000,4.000000,4.000000,4.000000,0.000000,,,,,,,,,,,,,,,,,2.000000,0.000000,0.674559,-0.089600,-0.723022,-0.119080,0.981077,0.045904,-0.053717,-67.145515,33.719120,43.848480
1732156397.663970,1732156397.666768,9.000000,0.000000,4299.615234,4289.871582,4314.358887,4309.615234,4292.820313,4284.358887,4338.846191,4398.205078,4305.641113,4287.948730,4468.717773,4503.846191,4351.922852,4414.871582,1670.000000,1.000000,28.000000,,,,0.000000,2.000000,2.000000,0.000000,4.000000,2.000000,2.000000,0.000000,0.000000,4.000000,4.000000,4.000000,4.000000,4.000000,4.000000,0.000000,,,,,,,,,,,,,,,,,,,,,,,,,,,,
1732156397.671778,1732156397.674376,10.000000,0.000000,4301.025879,4287.948730,4314.615234,4306.153809,4304.358887,4283.077148,4339.871582,4397.820313,4305.769043,4289.102539,4461.666504,4505.512695,4348.846191,4414.743652,1528.000000,1.000000,28.000000,,,,0.000000,2.000000,2.000000,0.000000,4.000000,2.000000,2.000000,0.000000,0.000000,4.000000,4.000000,4.000000,4.000000,4.000000,4.000000,0.000000,,,,,,,,,,,,,,,,,,,,,,,,,,,,
1732156397.679587,1732156397.682184,11.000000,0.000000,4305.128418,4290.256348,4313.589844,4307.563965,4300.000000,4282.563965,4337.436035,4397.051270,4307.436035,4292.692383,4470.384766,4507.692383,4353.333496,4424.358887,1576.000000,1.000000,28.000000,,,,0.000000,2.000000,2.000000,0.000000,4.000000,2.000000,2.000000,0.000000,0.000000,4.000000,4.000000,4.000000,4.000000,4.000000,4.000000,0.000000,,,,,,,,,,,,,,,,,,,,,,,,,,,,
1732156397.687395,1732156397.689893,12.000000,0.000000,4306.153809,4290.769043,4313.205078,4311.025879,4281.794922,4287.820313,4337.820313,4395.384766,4307.820313,4297.692383,4477.820313,4507.820313,4353.974121,4427.948730,1703.000000,1.000000,28.000000,,,,0.000000,2.000000,2.000000,0.000000,4.000000,2.000000,2.000000,0.000000,0.000000,4.000000,4.000000,4.000000,4.000000,4.000000,4.000000,0.000000,,,,,,,,,,,,,,,,,3.000000,0.000000,0.676065,-0.089539,-0.720642,-0.124878,0.958125,0.068368,-0.011232,-66.959534,33.352489,44.085602
1732156397.695203,1732156397.697701,13.000000,0.000000,4302.563965,4289.743652,4310.512695,4312.948730,4282.436035,4290.641113,4340.128418,4394.871582,4302.692383,4296.153809,4464.743652,4507.051270,4341.794922,4419.871582,1698.000000,1.000000,28.000000,,,,0.000000,2.000000,2.000000,0.000000,4.000000,2.000000,2.000000,0.000000,0.000000,4.000000,4.000000,4.000000,4.000000,4.000000,4.000000,0.000000,,,,,,,,,,,,,,,,,,,,,,,,,,,,
1732156397.703011,1732156397.705309,14.000000,0.000000,4299.102539,4291.666504,4312.820313,4312.692383,4291.666504,4287.436035,4339.487305,4396.025879,4297.948730,4290.128418,4457.436035,4504.358887,4337.820313,4414.487305,1528.000000,1.000000,28.000000,,,,0.000000,2.000000,2.000000,0.000000,4.000000,2.000000,2.000000,0.000000,0.000000,4.000000,4.000000,4.000000,4.000000,4.000000,4.000000,0.000000,1.000000,0.000000,2.000000,2.000000,0.000000,4.000000,2.000000,2.000000,0.000000,0.000000,4.000000,4.000000,4.000000,3.000000,4.000000,4.000000,,,,,,,,,,,,
1732156397.710820,1732156397.713117,15.000000,0.000000,4298.717773,4293.717773,4316.282227,4311.025879,4289.487305,4285.897461,4336.025879,4397.563965,4298.205078,4292.820313,4467.307617,4503.589844,4348.205078,4414.871582,1576.000000,1.000000,28.000000,,,,0.000000,2.000000,2.000000,0.000000,4.000000,2.000000,2.000000,0.000000,0.000000,4.000000,4.000000,4.000000,4.000000,4.000000,4.000000,0.000000,,,,,,,,,,,,,,,,,,,,,,,,,,,,
1732156397.718628,1732156397.720826,16.000000,0.000000,4302.307617,4291.794922,4316.025879,4311.410156,4289.102539,4285.512695,4337.436035,4395.256348,4300.000000,4301.410156,4468.846191,4507.948730,4350.769043,4414.230957,0.000000,1.000000,28.000000,,,,0.000000,2.000000,2.000000,0.000000,4.000000,2.000000,2.000000,0.000000,0.000000,4.000000,4.000000,4.000000,4.000000,4.000000,4.000000,0.000000,,,,,,,,,,,,,,,,,4.000000,0.000000,0.676065,-0.089539,-0.720642,-0.124878,0.962031,0.093761,-0.035161,-66.853889,33.085514,44.172672
1732156397.726436,1732156397.728634,17.000000,0.000000,4305.769043,4291.410156,4310.641113,4315.000000,4293.974121,4284.102539,4338.846191,4392.307617,4301.666504,4299.743652,4464.358887,4511.538574,4346.025879,4415.512695,0.000000,1.000000,28.000000,,,,0.000000,2.000000,2.000000,0.000000,4.000000,2.000000,2.000000,0.000000,0.000000,4.000000,4.000000,4.000000,4.000000,4.000000,4.000000,0.000000,,,,,,,,,,,,,,,,,,,,,,,,,,,,
1732156397.734244,1732156397.736242,18.000000,0.000000,4302.179688,4293.461426,4311.282227,4315.512695,4296.794922,4283.461426,4336.922852,4391.922852,4301.538574,4293.974121,4467.307617,4512.307617,4345.000000,4415.128418,0.000000,1.000000,28.000000,,,,0.000000,2.000000,2.000000,0.000000,4.000000,2.000000,2.000000,0.000000,0.000000,4.000000,4.000000,4.000000,4.000000,4.000000,4.000000,0.000000,,,,,,,,,,,,,,,,,,,,,,,,,,,,
1732156397.742052,1732156397.744051,19.000000,0.000000,4294.230957,4291.666504,4313.205078,4312.307617,4300.512695,4283.589844,4336.410156,4393.589844,4298.717773,4292.820313,4468.461426,4510.512695,4345.256348,4410.128418,0.000000,1.000000,28.000000,,,,0.000000,2.000000,2.000000,0.000000,4.000000,2.000000,2.000000,0.000000,0.000000,4.000000,4.000000,4.000000,4.000000,4.000000,4.000000,0.000000,,,,,,,,,,,,,,,,,,,,,,,,,,,,
1732156397.749861,1732156397.751759,20.000000,0.000000,4294.102539,4292.692383,4310.512695,4313.717773,4302.436035,4282.948730,4337.307617,4393.205078,4296.922852,4294.871582,4464.487305,4510.384766,4344.230957,4409.230957,0.000000,1.000000,28.000000,,,,0.000000,2.000000,2.000000,0.000000,4.000000,2.000000,2.000000,0.000000,0.000000,4.000000,4.000000,4.000000,4.000000,4.000000,4.000000,0.000000,,,,,,,,,,,,,,,,,5.000000,0.000000,0.676875,-0.088379,-0.719116,-0.130005,0.986937,0.111830,-0.009278,-66.469986,33.069267,44.139866
1732156397.757669,1732156397.759567,21.000000,0.000000,4296.410156,4293.333496,4308.974121,4315.000000,4300.128418,4284.743652,4336.282227,4393.846191,4299.102539,4297.179688,4468.589844,4512.692383,4345.128418,4413.461426,0.000000,1.000000,28.000000,,,,0.000000,2.000000,2.000000,0.000000,4.000000,2.000000,2.000000,0.000000,0.000000,4.000000,4.000000,4.000000,4.000000,4.000000,4.000000,0.000000,,,,,,,,,,,,,,,,,,,,,,,,,,,,
1732156397.765477,1732156397.767175,22.000000,0.000000,4295.641113,4290.641113,4310.128418,4311.282227,4297.563965,4284.743652,4335.128418,4394.871582,4301.153809,4294.102539,4472.820313,4514.743652,4346.794922,4414.743652,0.000000,1.000000,28.000000,,,,0.000000,2.000000,2.000000,0.000000,4.000000,2.000000,2.000000,0.000000,0.000000,4.000000,4.000000,4.000000,4.000000,4.000000,4.000000,0.000000,,,,,,,,,,,,,,,,,,,,,,,,,,,,
1732156397.773286,1732156397.774984,23.000000,0.000000,4298.589844,4291.153809,4311.153809,4312.563965,4297.436035,4283.717773,4336.538574,4393.333496,4306.025879,4290.897461,4466.282227,4518.333496,4350.000000,4414.102539,0.000000,1.000000,28.000000,,,,0.000000,2.000000,2.000000,0.000000,4.000000,2.000000,2.000000,0.000000,0.000000,4.000000,4.000000,4.000000,4.000000,4.000000,4.000000,0.000000,,,,,,,,,,,,,,,,,,,,,,,,,,,,
1732156397.781094,1732156397.782692,24.000000,0.000000,4307.820313,4295.641113,4311.922852,4318.974121,4300.000000,4288.077148,4336.282227,4390.769043,4313.589844,4296.410156,4465.897461,4521.794922,4353.077148,4418.077148,0.000000,1.000000,28.000000,,,,0.000000,2.000000,2.000000,0.000000,4.000000,2.000000,2.000000,0.000000,0.000000,4.000000,4.000000,4.000000,4.000000,4.000000,4.000000,0.000000,,,,,,,,,,,,,,,,,6.000000,0.000000,0.677303,-0.086792,-0.718018,-0.134827,0.990355,0.127457,-0.021975,-66.330688,33.101109,44.283291
1732156397.788902,1732156397.790500,25.000000,0.000000,4313.077148,4294.743652,4311.538574,4318.461426,4300.897461,4288.717773,4334.230957,4392.179688,4309.487305,4293.333496,4473.205078,4521.282227,4353.589844,4421.282227,0.000000,1.000000,28.000000,,,,0.000000,2.000000,2.000000,0.000000,4.000000,2.000000,2.000000,0.000000,0.000000,4.000000,4.000000,4.000000,4.000000,4.000000,4.000000,0.000000,,,,,,,,,,,,,,,,,,,,,,,,,,,,
1732156397.796710,1732156397.798109,26.000000,0.000000,4310.769043,4290.641113,4307.563965,4315.897461,4296.922852,4285.641113,4331.666504,4393.974121,4302.820313,4278.461426,4475.000000,4520.128418,4355.000000,4420.512695,0.000000,1.000000,28.000000,,,,0.000000,2.000000,2.000000,0.000000,4.000000,2.000000,2.000000,0.000000,0.000000,4.000000,4.000000,4.000000,4.000000,4.000000,4.000000,0.000000,,,,,,,,,,,,,,,,,,,,,,,,,,,,
1732156397.804518,1732156397.805917,27.000000,0.000000,4310.769043,4292.563965,4312.051270,4315.512695,4289.487305,4284.358887,4332.436035,4393.077148,4309.230957,4277.692383,4475.128418,4522.051270,4355.897461,4419.102539,0.000000,1.000000,28.000000,,,,0.000000,2.000000,2.000000,0.000000,4.000000,2.000000,2.000000,0.000000,0.000000,4.000000,4.000000,4.000000,4.000000,4.000000,4.000000,0.000000,,,,,,,,,,,,,,,,,,,,,,,,,,,,
1732156397.812327,1732156397.813825,28.000000,0.000000,4310.512695,4291.410156,4313.717773,4313.717773,4286.794922,4281.153809,4334.871582,4392.307617,4317.307617,4283.717773,4472.820313,4523.589844,4357.820313,4421.922852,0.000000,1.000000,28.000000,,,,0.000000,2.000000,2.000000,0.000000,4.000000,2.000000,2.000000,0.000000,0.000000,4.000000,4.000000,4.000000,4.000000,4.000000,4.000000,0.000000,,,,,,,,,,,,,,,,,7.000000,0.000000,0.676964,-0.086792,-0.717957,-0.136841,0.963497,0.141131,-0.029789,-66.291191,33.048565,44.407799
1732156397.820135,1732156397.821633,29.000000,0.000000,4303.717773,4284.743652,4311.153809,4310.128418,4288.077148,4279.358887,4336.922852,4395.512695,4316.410156,4276.153809,4463.974121,4522.307617,4358.717773,4426.153809,0.000000,1.000000,28.000000,,,,0.000000,2.000000,2.000000,0.000000,4.000000,2.000000,2.000000,0.000000,0.000000,4.000000,4.000000,4.000000,4.000000,4.000000,4.000000,0.000000,,,,,,,,,,,,,,,,,,,,,,,,,,,,
1732156397.827943,1732156397.829242,30.000000,0.000000,4303.077148,4284.871582,4308.717773,4307.692383,4277.820313,4286.666504,4336.025879,4397.948730,4312.820313,4274.230957,4464.871582,4523.589844,4359.358887,4428.461426,0.000000,1.000000,28.000000,,,,0.000000,2.000000,2.000000,0.000000,4.000000,2.000000,2.000000,0.000000,0.000000,4.000000,4.000000,4.000000,4.000000,4.000000,4.000000,0.000000,,,,,,,,,,,,,,,,,,,,,,,,,,,,
1732156397.835751,1732156397.837050,31.000000,0.000000,4312.563965,4286.794922,4312.051270,4309.230957,4263.589844,4293.461426,4334.871582,4395.897461,4305.384766,4276.666504,4476.153809,4526.282227,4360.641113,4427.820313,0.000000,1.000000,28.000000,,,,0.000000,2.000000,2.000000,0.000000,4.000000,2.000000,2.000000,0.000000,0.000000,4.000000,4.000000,4.000000,4.000000,4.000000,4.000000,0.000000,,,,,,,,,,,,,,,,,,,,,,,,,,,,
1732156397.843560,1732156397.844958,32.000000,0.000000,4314.871582,4285.256348,4312.436035,4311.538574,4269.871582,4293.461426,4335.512695,4395.384766,4301.153809,4270.897461,4473.974121,4520.897461,4362.563965,4422.179688,0.000000,1.000000,28.000000,,,,0.000000,2.000000,2.000000,0.000000,4.000000,2.000000,2.000000,0.000000,0.000000,4.000000,4.000000,4.000000,4.000000,4.000000,4.000000,0.000000,,,,,,,,,,,,,,,,,8.000000,0.000000,0.676767,-0.086548,-0.718079,-0.137329,0.963497,0.141131,-0.029789,-66.235863,32.912670,44.520317
1732156397.851368,1732156397.852766,33.000000,0.000000,4303.333496,4287.307617,4312.820313,4305.256348,4290.256348,4291.666504,4337.051270,4397.051270,4306.666504,4273.333496,4470.128418,4511.794922,4361.025879,4415.897461,0.000000,1.000000,28.000000,,,,0.000000,2.000000,2.000000,0.000000,4.000000,2.000000,2.000000,0.000000,0.000000,4.000000,4.000000,4.000000,4.000000,4.000000,4.000000,0.000000,,,,,,,,,,,,,,,,,,,,,,,,,,,,
1732156397.859176,1732156397.860374,34.000000,0.000000,4298.974121,4293.589844,4314.102539,4303.974121,4295.000000,4291.153809,4338.846191,4395.128418,4304.487305,4272.051270,4474.871582,4510.128418,4359.487305,4414.615234,0.000000,1.000000,28.000000,,,,0.000000,2.000000,2.000000,0.000000,4.000000,2.000000,2.000000,0.000000,0.000000,4.000000,4.000000,4.000000,4.000000,4.000000,4.000000,0.000000,,,,,,,,,,,,,,,,,,,,,,,,,,,,
1732156397.866984,1732156397.868183,35.000000,0.000000,4302.948730,4295.769043,4314.743652,4311.794922,4292.948730,4289.743652,4339.230957,4391.282227,4293.717773,4257.436035,4474.102539,4513.846191,4362.436035,4410.897461,0.000000,1.000000,28.000000,,,,0.000000,2.000000,2.000000,0.000000,4.000000,2.000000,2.000000,0.000000,0.000000,4.000000,4.000000,4.000000,4.000000,4.000000,4.000000,0.000000,,,,,,,,,,,,,,,,,,,,,,,,,,,,
1732156397.874793,1732156397.875891,36.000000,0.000000,4299.743652,4295.000000,4311.922852,4307.948730,4312.307617,4283.077148,4336.922852,4392.948730,4293.717773,4265.769043,4474.102539,4513.974121,4367.051270,4407.820313,0.000000,1.000000,28.000000,,,,0.000000,2.000000,2.000000,0.000000,4.000000,2.000000,2.000000,0.000000,0.000000,4.000000,4.000000,4.000000,4.000000,4.000000,4.000000,0.000000,,,,,,,,,,,,,,,,,9.000000,0.000000,0.676509,-0.086365,-0.718262,-0.137756,0.974728,0.140154,-0.026859,-66.461052,32.835930,44.719791
1732156397.882601,1732156397.883699,37.000000,0.000000,4293.846191,4297.051270,4310.384766,4297.051270,4333.461426,4279.358887,4335.256348,4396.538574,4304.615234,4291.025879,4478.974121,4510.769043,4369.487305,4410.256348,0.000000,1.000000,28.000000,,,,0.000000,2.000000,2.000000,0.000000,4.000000,2.000000,2.000000,0.000000,0.000000,4.000000,4.000000,4.000000,4.000000,4.000000,4.000000,0.000000,,,,,,,,,,,,,,,,,,,,,,,,,,,,
1732156397.890409,1732156397.891707,38.000000,0.000000,4293.461426,4296.282227,4313.205078,4299.102539,4332.436035,4280.897461,4336.794922,4395.256348,4303.717773,4288.846191,4478.846191,4508.846191,4366.538574,4406.666504,0.000000,1.000000,28.000000,,,,0.000000,2.000000,2.000000,0.000000,4.000000,2.000000,2.000000,0.000000,0.000000,4.000000,4.000000,4.000000,4.000000,4.000000,4.000000,0.000000,,,,,,,,,,,,,,,,,,,,,,,,,,,,
1732156397.898217,1732156397.899515,39.000000,0.000000,4295.897461,4295.128418,4311.666504,4305.641113,4330.256348,4279.487305,4336.282227,4391.025879,4294.102539,4278.589844,4482.307617,4507.692383,4365.256348,4400.000000,0.000000,1.000000,28.000000,,,,0.000000,2.000000,2.000000,0.000000,4.000000,2.000000,2.000000,0.000000,0.000000,4.000000,4.000000,4.000000,4.000000,4.000000,4.000000,0.000000,,,,,,,,,,,,,,,,,,,,,,,,,,,,
1732156397.906026,1732156397.907424,40.000000,0.000000,4295.000000,4296.794922,4308.717773,4303.077148,4343.974121,4277.948730,4335.384766,4391.153809,4292.307617,4286.153809,4489.615234,4506.794922,4363.974121,4401.922852,0.000000,1.000000,28.000000,,,,0.000000,2.000000,2.000000,0.000000,4.000000,2.000000,2.000000,0.000000,0.000000,4.000000,4.000000,4.000000,4.000000,4.000000,4.000000,0.000000,,,,,,,,,,,,,,,,,10.000000,0.000000,0.675308,-0.086670,-0.719482,-0.137085,0.965938,0.125992,-0.041021,-66.510117,32.807102,44.831364
1732156397.913834,1732156397.915232,41.000000,0.000000,4293.461426,4294.615234,4309.487305,4298.077148,4354.102539,4278.461426,4335.641113,4392.692383,4297.948730,4291.666504,4490.897461,4509.615234,4360.128418,4404.358887,0.000000,1.000000,28.000000,,,,0.000000,2.000000,2.000000,0.000000,4.000000,2.000000,2.000000,0.000000,0.000000,4.000000,4.000000,4.000000,4.000000,4.000000,4.000000,0.000000,,,,,,,,,,,,,,,,,,,,,,,,,,,,
1732156397.921642,1732156397.923240,42.000000,0.000000,4293.589844,4291.666504,4311.794922,4299.230957,4354.358887,4275.641113,4334.871582,4393.205078,4297.820313,4292.307617,4489.743652,4516.153809,4364.487305,4401.794922,0.000000,1.000000,28.000000,,,,0.000000,2.000000,2.000000,0.000000,4.000000,2.000000,2.000000,0.000000,0.000000,4.000000,4.000000,4.000000,4.000000,4.000000,4.000000,0.000000,,,,,,,,,,,,,,,,,,,,,,,,,,,,
1732156397.929450,1732156397.931048,43.000000,0.000000,4294.743652,4297.179688,4309.615234,4304.102539,4358.974121,4273.205078,4331.794922,4393.205078,4291.794922,4290.256348,4492.307617,4516.666504,4367.051270,4402.948730,0.000000,1.000000,28.000000,,,,0.000000,2.000000,2.000000,0.000000,4.000000,2.000000,2.000000,0.000000,0.000000,4.000000,4.000000,4.000000,4.000000,4.000000,4.000000,0.000000,,,,,,,,,,,,,,,,,,,,,,,,,,,,
1732156397.937259,1732156397.938756,44.000000,0.000000,4294.358887,4298.589844,4311.538574,4302.563965,4360.128418,4274.358887,4331.282227,4392.179688,4291.153809,4285.128418,4491.538574,4508.333496,4358.717773,4402.820313,0.000000,1.000000,28.000000,,,,0.000000,2.000000,2.000000,0.000000,4.000000,2.000000,2.000000,0.000000,0.000000,4.000000,4.000000,4.000000,4.000000,4.000000,4.000000,0.000000,,,,,,,,,,,,,,,,,11.000000,0.000000,0.674956,-0.086853,-0.719849,-0.136780,0.965938,0.125992,-0.041021,-66.561531,32.743752,44.898403
1732156397.945067,1732156397.946564,45.000000,0.000000,4293.589844,4291.538574,4309.743652,4297.948730,4357.820313,4275.128418,4332.307617,4390.769043,4294.615234,4286.153809,4488.461426,4504.743652,4353.974121,4402.820313,0.000000,1.000000,28.000000,,,,0.000000,2.000000,2.000000,0.000000,4.000000,2.000000,2.000000,0.000000,0.000000,4.000000,4.000000,4.000000,4.000000,4.000000,4.000000,0.000000,,,,,,,,,,,,,,,,,,,,,,,,,,,,
1732156397.952875,1732156397.954572,46.000000,0.000000,4294.615234,4293.205078,4307.820313,4299.871582,4358.333496,4275.512695,4333.589844,4391.794922,4296.410156,4290.128418,4488.461426,4506.410156,4357.051270,4408.717773,0.000000,1.000000,28.000000,,,,0.000000,2.000000,2.000000,0.000000,4.000000,2.000000,2.000000,0.000000,0.000000,4.000000,4.000000,4.000000,4.000000,4.000000,4.000000,0.000000,,,,,,,,,,,,,,,,,,,,,,,,,,,,
1732156397.960683,1732156397.962381,47.000000,0.000000,4296.538574,4298.333496,4307.179688,4304.615234,4354.487305,4277.820313,4333.717773,4392.436035,4294.358887,4284.615234,4488.205078,4507.948730,4358.205078,4413.077148,0.000000,1.000000,28.000000,,,,0.000000,2.000000,2.000000,0.000000,4.000000,2.000000,2.000000,0.000000,0.000000,4.000000,4.000000,4.000000,4.000000,4.000000,4.000000,0.000000,,,,,,,,,,,,,,,,,,,,,,,,,,,,
1732156397.968491,1732156397.970289,48.000000,0.000000,4297.436035,4289.871582,4308.846191,4301.282227,4355.256348,4280.128418,4332.307617,4391.153809,4294.871582,4279.358887,4488.589844,4509.615234,4357.948730,4414.102539,0.000000,1.000000,28.000000,,,,0.000000,2.000000,2.000000,0.000000,4.000000,2.000000,2.000000,0.000000,0.000000,4.000000,4.000000,4.000000,4.000000,4.000000,4.000000,0.000000,,,,,,,,,,,,,,,,,12.000000,0.000000,0.674051,-0.086304,-0.720947,-0.135803,0.958613,0.121109,-0.055671,-66.454842,32.665771,44.759373
1732156397.976300,1732156397.978097,49.000000,0.000000,4296.282227,4284.743652,4308.077148,4295.512695,4360.512695,4281.410156,4332.436035,4391.282227,4299.358887,4286.922852,4488.589844,4509.487305,4359.487305,4413.461426,0.000000,1.000000,28.000000,,,,0.000000,2.000000,2.000000,0.000000,4.000000,2.000000,2.000000,0.000000,0.000000,4.000000,4.000000,4.000000,4.000000,4.000000,4.000000,0.000000,,,,,,,,,,,,,,,,,,,,,,,,,,,,
1732156397.984108,1732156397.986105,50.000000,0.000000,4299.487305,4293.589844,4308.846191,4299.871582,4346.153809,4281.025879,4331.922852,4392.436035,4299.230957,4291.282227,4490.128418,4509.102539,4361.922852,4412.692383,0.000000,1.000000,28.000000,,,,0.000000,2.000000,2.000000,0.000000,4.000000,2.000000,2.000000,0.000000,0.000000,4.000000,4.000000,4.000000,4.000000,4.000000,4.000000,0.000000,,,,,,,,,,,,,,,,,,,,,,,,,,,,
1732156397.991916,1732156397.993913,51.000000,0.000000,4305.897461,4301.025879,4311.025879,4306.922852,4321.025879,4278.205078,4331.025879,4394.358887,4295.000000,4283.974121,4492.436035,4512.563965,4361.282227,4413.333496,0.000000,1.000000,28.000000,,,,0.000000,2.000000,2.000000,0.000000,4.000000,2.000000,2.000000,0.000000,0.000000,4.000000,4.000000,4.000000,4.000000,4.000000,4.000000,0.000000,,,,,,,,,,,,,,,,,,,,,,,,,,,,
1732156397.999725,1732156398.001821,52.000000,0.000000,4302.436035,4298.717773,4313.461426,4307.436035,4315.256348,4279.615234,4333.717773,4393.077148,4293.205078,4277.692383,4484.743652,4512.436035,4356.153809,4412.307617,0.000000,1.000000,28.000000,,,,0.000000,2.000000,2.000000,0.000000,4.000000,2.000000,2.000000,0.000000,0.000000,4.000000,4.000000,4.000000,4.000000,4.000000,4.000000,0.000000,,,,,,,,,,,,,,,,,13.000000,0.000000,0.672903,-0.085693,-0.722229,-0.135071,0.983518,0.102063,-0.056159,-66.558418,32.570942,44.976761
1732156398.007533,1732156398.009630,53.000000,0.000000,4295.641113,4298.205078,4311.666504,4304.358887,4317.820313,4284.871582,4336.794922,4391.538574,4295.000000,4275.897461,4475.128418,4507.179688,4354.871582,4411.794922,0.000000,1.000000,28.000000,,,,0.000000,2.000000,2.000000,0.000000,4.000000,2.000000,2.000000,0.000000,0.000000,4.000000,4.000000,4.000000,4.000000,4.000000,4.000000,0.000000,,,,,,,,,,,,,,,,,,,,,,,,,,,,
1732156398.015341,1732156398.017638,54.000000,0.000000,4299.102539,4301.282227,4310.000000,4305.512695,4311.666504,4283.717773,4333.205078,4394.230957,4296.410156,4277.692383,4481.922852,4511.153809,4361.538574,4419.871582,0.000000,1.000000,28.000000,,,,0.000000,2.000000,2.000000,0.000000,4.000000,2.000000,2.000000,0.000000,0.000000,4.000000,4.000000,4.000000,4.000000,4.000000,4.000000,0.000000,,,,,,,,,,,,,,,,,,,,,,,,,,,,
1732156398.023149,1732156398.025446,55.000000,0.000000,4305.000000,4303.077148,4316.153809,4311.025879,4302.436035,4281.025879,4332.051270,4394.871582,4300.128418,4278.974121,4493.333496,4523.461426,4366.153809,4429.743652,0.000000,1.000000,28.000000,,,,0.000000,2.000000,2.000000,0.000000,4.000000,2.000000,2.000000,0.000000,0.000000,4.000000,4.000000,4.000000,4.000000,4.000000,4.000000,0.000000,,,,,,,,,,,,,,,,,,,,,,,,,,,,
1732156398.030958,1732156398.033154,56.000000,0.000000,4306.922852,4304.358887,4317.436035,4312.436035,4295.769043,4286.538574,4336.153809,4389.871582,4308.461426,4278.974121,4488.333496,4525.769043,4366.666504,4429.230957,0.000000,1.000000,28.000000,,,,0.000000,2.000000,2.000000,0.000000,4.000000,2.000000,2.000000,0.000000,0.000000,4.000000,4.000000,4.000000,4.000000,4.000000,4.000000,0.000000,,,,,,,,,,,,,,,,,14.000000,0.000000,0.672178,-0.085327,-0.723083,-0.134338,0.965450,0.087901,-0.053717,-66.692322,32.744129,45.074509
1732156398.038766,1732156398.040962,57.000000,0.000000,4311.538574,4303.461426,4314.487305,4307.436035,4292.051270,4289.102539,4335.128418,4388.846191,4313.461426,4278.205078,4479.487305,4521.666504,4366.025879,4426.538574,0.000000,1.000000,28.000000,,,,0.000000,2.000000,2.000000,0.000000,4.000000,2.000000,2.000000,0.000000,0.000000,4.000000,4.000000,4.000000,4.000000,4.000000,4.000000,0.000000,,,,,,,,,,,,,,,,,,,,,,,,,,,,
1732156398.046574,1732156398.048571,58.000000,0.000000,4315.897461,4301.538574,4314.615234,4307.179688,4291.025879,4284.102539,4330.897461,4391.666504,4312.563965,4276.153809,4479.358887,4521.922852,4365.000000,4429.358887,0.000000,1.000000,28.000000,,,,0.000000,2.000000,2.000000,0.000000,4.000000,2.000000,2.000000,0.000000,0.000000,4.000000,4.000000,4.000000,4.000000,4.000000,4.000000,0.000000,,,,,,,,,,,,,,,,,,,,,,,,,,,,
1732156398.054382,1732156398.056379,59.000000,0.000000,4313.846191,4300.512695,4316.794922,4311.025879,4286.666504,4287.563965,4333.461426,4392.179688,4311.538574,4271.794922,4478.205078,4521.666504,4366.794922,4429.871582,0.000000,1.000000,28.000000,,,,0.000000,2.000000,2.000000,0.000000,4.000000,2.000000,2.000000,0.000000,0.000000,4.000000,4.000000,4.000000,4.000000,4.000000,4.000000,0.000000,,,,,,,,,,,,,,,,,,,,,,,,,,,,
1732156398.062190,1732156398.064087,60.000000,0.000000,4309.487305,4299.102539,4315.769043,4309.230957,4282.692383,4292.307617,4335.512695,4392.051270,4310.384766,4273.461426,4476.410156,4519.615234,4367.179688,4428.717773,0.000000,1.000000,28.000000,,,,0.000000,2.000000,2.000000,0.000000,4.000000,2.000000,2.000000,0.000000,0.000000,4.000000,4.000000,4.000000,4.000000,4.000000,4.000000,0.000000,,,,,,,,,,,,,,,,,15.000000,0.000000,0.671846,-0.085083,-0.723511,-0.133850,0.970333,0.082530,-0.055183,-66.497444,32.792747,45.028687
1732156398.069999,1732156398.071895,61.000000,0.000000,4309.230957,4298.077148,4316.666504,4303.717773,4272.179688,4288.077148,4333.717773,4393.077148,4310.000000,4281.410156,4479.230957,4521.666504,4367.051270,4430.256348,0.000000,1.000000,28.000000,,,,0.000000,2.000000,2.000000,0.000000,4.000000,2.000000,2.000000,0.000000,0.000000,4.000000,4.000000,4.000000,4.000000,4.000000,4.000000,0.000000,,,,,,,,,,,,,,,,,,,,,,,,,,,,
1732156398.077807,1732156398.079504,62.000000,0.000000,4310.641113,4300.384766,4313.589844,4304.102539,4272.820313,4287.563965,4333.846191,4391.922852,4312.436035,4281.922852,4480.000000,4523.077148,4370.000000,4430.769043,0.000000,1.000000,28.000000,,,,0.000000,2.000000,2.000000,0.000000,4.000000,2.000000,2.000000,0.000000,0.000000,4.000000,4.000000,4.000000,4.000000,4.000000,4.000000,0.000000,,,,,,,,,,,,,,,,,,,,,,,,,,,,
1732156398.085615,1732156398.087312,63.000000,0.000000,4312.051270,4303.333496,4314.358887,4307.563965,4287.948730,4287.948730,4335.512695,4390.128418,4308.589844,4278.077148,4477.948730,4520.384766,4371.538574,4434.487305,0.000000,1.000000,28.000000,,,,0.000000,2.000000,2.000000,0.000000,4.000000,2.000000,2.000000,0.000000,0.000000,4.000000,4.000000,4.000000,4.000000,4.000000,4.000000,0.000000,,,,,,,,,,,,,,,,,,,,,,,,,,,,
1732156398.093423,1732156398.095020,64.000000,0.000000,4315.256348,4304.615234,4317.051270,4308.974121,4278.717773,4283.589844,4333.333496,4389.230957,4305.641113,4283.077148,4483.077148,4520.512695,4375.128418,4442.563965,0.000000,1.000000,28.000000,,,,0.000000,2.000000,2.000000,0.000000,4.000000,2.000000,2.000000,0.000000,0.000000,4.000000,4.000000,4.000000,4.000000,4.000000,4.000000,0.000000,,,,,,,,,,,,,,,,,16.000000,0.000000,0.671263,-0.084839,-0.724182,-0.133301,0.962520,0.085948,-0.062508,-66.307930,32.800457,44.864902
1732156398.101232,1732156398.102829,65.000000,0.000000,4317.820313,4306.410156,4317.307617,4309.615234,4255.512695,4282.563965,4332.307617,4390.384766,4311.282227,4286.153809,4486.538574,4523.461426,4379.871582,4449.102539,1601.000000,1.000000,28.000000,,,,0.000000,2.000000,2.000000,0.000000,4.000000,2.000000,2.000000,0.000000,0.000000,4.000000,4.000000,4.000000,4.000000,4.000000,4.000000,0.000000,,,,,,,,,,,,,,,,,,,,,,,,,,,,
1732156398.109040,1732156398.110437,66.000000,0.000000,4317.307617,4308.461426,4315.256348,4310.384766,4256.666504,4285.256348,4335.128418,4392.179688,4314.743652,4283.846191,4479.743652,4524.487305,4379.358887,4447.563965,1417.000000,1.000000,28.000000,,,,0.000000,2.000000,2.000000,0.000000,4.000000,2.000000,2.000000,0.000000,0.000000,4.000000,4.000000,4.000000,4.000000,4.000000,4.000000,0.000000,,,,,,,,,,,,,,,,,,,,,,,,,,,,
1732156398.116848,1732156398.118245,67.000000,0.000000,4314.487305,4309.487305,4317.436035,4310.256348,4266.410156,4285.641113,4334.615234,4391.282227,4312.563965,4286.794922,4476.410156,4521.538574,4378.461426,4443.333496,1416.000000,1.000000,28.000000,,,,0.000000,2.000000,2.000000,0.000000,4.000000,2.000000,2.000000,0.000000,0.000000,4.000000,4.000000,4.000000,4.000000,4.000000,4.000000,0.000000,,,,,,,,,,,,,,,,,,,,,,,,,,,,
1732156398.124656,1732156398.125953,68.000000,0.000000,4313.077148,4309.102539,4317.692383,4310.512695,4261.922852,4282.436035,4332.820313,4389.230957,4310.641113,4289.615234,4477.692383,4521.153809,4381.922852,4443.589844,1397.000000,1.000000,28.000000,,,,0.000000,2.000000,2.000000,0.000000,4.000000,2.000000,2.000000,0.000000,0.000000,4.000000,4.000000,4.000000,4.000000,4.000000,4.000000,0.000000,,,,,,,,,,,,,,,,,17.000000,0.000000,0.670272,-0.085327,-0.725098,-0.132996,0.975217,0.103040,-0.069833,-66.409424,32.775036,44.742237
1732156398.132465,1732156398.133762,69.000000,0.000000,4314.358887,4311.794922,4314.487305,4312.820313,4260.897461,4280.000000,4334.230957,4389.102539,4307.436035,4284.487305,4475.769043,4522.820313,4381.922852,4444.358887,1242.000000,1.000000,28.000000,,,,0.000000,2.000000,2.000000,0.000000,4.000000,2.000000,2.000000,0.000000,0.000000,4.000000,4.000000,4.000000,4.000000,4.000000,4.000000,0.000000,,,,,,,,,,,,,,,,,,,,,,,,,,,,
1732156398.140273,1732156398.141370,70.000000,0.000000,4319.102539,4316.025879,4314.615234,4317.692383,4267.179688,4282.179688,4334.358887,4393.205078,4308.333496,4286.282227,4476.025879,4522.307617,4380.897461,4445.000000,0.000000,1.000000,28.000000,,,,0.000000,2.000000,2.000000,0.000000,4.000000,2.000000,2.000000,0.000000,0.000000,4.000000,4.000000,4.000000,4.000000,4.000000,4.000000,0.000000,,,,,,,,,,,,,,,,,,,,,,,,,,,,
1732156398.148081,1732156398.149178,71.000000,0.000000,4320.128418,4315.897461,4315.897461,4320.256348,4269.743652,4287.948730,4332.948730,4394.358887,4311.666504,4294.358887,4479.743652,4522.179688,4384.358887,4441.153809,0.000000,1.000000,28.000000,,,,0.000000,2.000000,2.000000,0.000000,4.000000,2.000000,2.000000,0.000000,0.000000,4.000000,4.000000,4.000000,4.000000,4.000000,4.000000,0.000000,,,,,,,,,,,,,,,,,,,,,,,,,,,,
1732156398.155889,1732156398.156887,72.000000,0.000000,4316.153809,4313.205078,4317.307617,4317.436035,4265.384766,4285.128418,4336.410156,4390.897461,4307.307617,4292.307617,4476.410156,4521.153809,4384.615234,4433.077148,1521.000000,1.000000,28.000000,,,,0.000000,2.000000,2.000000,0.000000,4.000000,2.000000,2.000000,0.000000,0.000000,4.000000,4.000000,4.000000,4.000000,4.000000,4.000000,0.000000,,,,,,,,,,,,,,,,,18.000000,0.000000,0.670005,-0.085449,-0.725342,-0.132935,0.973263,0.096691,-0.067879,-66.671631,32.861115,44.677879
1732156398.163698,1732156398.164695,73.000000,0.000000,4315.256348,4310.256348,4316.282227,4316.410156,4266.282227,4280.256348,4337.307617,4390.897461,4303.846191,4288.077148,4472.820313,4520.769043,4381.538574,4434.230957,1666.000000,1.000000,28.000000,,,,0.000000,2.000000,2.000000,0.000000,4.000000,2.000000,2.000000,0.000000,0.000000,4.000000,4.000000,4.000000,4.000000,4.000000,4.000000,0.000000,,,,,,,,,,,,,,,,,,,,,,,,,,,,
1732156398.171506,1732156398.172303,74.000000,0.000000,4318.846191,4306.666504,4316.025879,4317.948730,4278.717773,4281.153809,4332.820313,4392.436035,4304.487305,4290.769043,4474.230957,4520.769043,4378.974121,4439.102539,1528.000000,1.000000,28.000000,,,,0.000000,2.000000,2.000000,0.000000,4.000000,2.000000,2.000000,0.000000,0.000000,4.000000,4.000000,4.000000,4.000000,4.000000,4.000000,0.000000,,,,,,,,,,,,,,,,,,,,,,,,,,,,
1732156398.179314,1732156398.180111,75.000000,0.000000,4322.179688,4305.128418,4313.974121,4312.692383,4272.436035,4281.538574,4333.077148,4390.256348,4303.846191,4292.692383,4473.846191,4516.025879,4376.794922,4433.717773,1576.000000,1.000000,28.000000,,,,0.000000,2.000000,2.000000,0.000000,4.000000,2.000000,2.000000,0.000000,0.000000,4.000000,4.000000,4.000000,4.000000,4.000000,4.000000,0.000000,,,,,,,,,,,,,,,,,,,,,,,,,,,,
1732156398.187122,1732156398.187820,76.000000,0.000000,4322.948730,4307.179688,4315.256348,4310.897461,4251.282227,4284.487305,4335.641113,4389.358887,4306.922852,4292.692383,4469.743652,4514.230957,4375.256348,4427.692383,1703.000000,1.000000,28.000000,,,,0.000000,2.000000,2.000000,0.000000,4.000000,2.000000,2.000000,0.000000,0.000000,4.000000,4.000000,4.000000,4.000000,4.000000,4.000000,0.000000,,,,,,,,,,,,,,,,,19.000000,0.000000,0.669258,-0.085693,-0.726013,-0.132874,0.965450,0.099133,-0.080576,-66.544022,33.014168,44.675747
1732156398.194930,1732156398.195628,77.000000,0.000000,4322.948730,4307.948730,4318.717773,4317.820313,4253.461426,4287.820313,4333.717773,4390.769043,4309.743652,4292.563965,4463.717773,4515.512695,4372.051270,4431.153809,1698.000000,1.000000,28.000000,,,,0.000000,2.000000,2.000000,0.000000,4.000000,2.000000,2.000000,0.000000,0.000000,4.000000,4.000000,4.000000,4.000000,4.000000,4.000000,0.000000,,,,,,,,,,,,,,,,,,,,,,,,,,,,
1732156398.202739,1732156398.203236,78.000000,0.000000,4320.128418,4305.256348,4319.102539,4319.230957,4266.922852,4287.820313,4334.615234,4390.128418,4303.974121,4290.128418,4462.051270,4510.769043,4367.692383,4432.051270,1528.000000,1.000000,28.000000,,,,0.000000,2.000000,2.000000,0.000000,4.000000,2.000000,2.000000,0.000000,0.000000,4.000000,4.000000,4.000000,4.000000,4.000000,4.000000,0.000000,1.000000,0.000000,2.000000,2.000000,0.000000,4.000000,2.000000,2.000000,0.000000,0.000000,4.000000,4.000000,4.000000,4.000000,4.000000,4.000000,,,,,,,,,,,,
1732156398.210547,1732156398.211045,79.000000,0.000000,4317.179688,4304.871582,4314.871582,4317.436035,4264.615234,4289.102539,4337.051270,4389.615234,4307.692383,4294.102539,4465.128418,4505.384766,4367.563965,4427.692383,1576.000000,1.000000,28.000000,,,,0.000000,2.000000,2.000000,0.000000,4.000000,2.000000,2.000000,0.000000,0.000000,4.000000,4.000000,4.000000,4.000000,4.000000,4.000000,0.000000,,,,,,,,,,,,,,,,,,,,,,,,,,,,
1732156398.218355,1732156398.218953,80.000000,0.000000,4315.897461,4305.128418,4315.641113,4317.948730,4263.846191,4290.897461,4335.512695,4390.512695,4315.000000,4297.436035,4463.589844,4507.563965,4365.897461,4426.153809,1703.000000,1.000000,28.000000,,,,0.000000,2.000000,2.000000,0.000000,4.000000,2.000000,2.000000,0.000000,0.000000,4.000000,4.000000,4.000000,4.000000,4.000000,4.000000,0.000000,,,,,,,,,,,,,,,,,20.000000,0.000000,0.667745,-0.087036,-0.727478,-0.131592,0.986449,0.084971,-0.084971,-66.440659,33.208141,44.599022
1732156398.226164,1732156398.226761,81.000000,0.000000,4311.922852,4302.563965,4316.538574,4319.358887,4271.025879,4290.128418,4333.717773,4392.051270,4304.102539,4290.641113,4459.487305,4508.974121,4359.230957,4426.410156,1698.000000,1.000000,28.000000,,,,0.000000,2.000000,2.000000,0.000000,4.000000,2.000000,2.000000,0.000000,0.000000,4.000000,4.000000,4.000000,4.000000,4.000000,4.000000,0.000000,,,,,,,,,,,,,,,,,,,,,,,,,,,,
1732156398.233972,1732156398.234769,82.000000,0.000000,4310.512695,4300.000000,4316.922852,4319.615234,4270.000000,4290.512695,4335.897461,4393.846191,4295.897461,4286.153809,4461.922852,4506.538574,4356.153809,4426.666504,1528.000000,1.000000,28.000000,,,,0.000000,2.000000,2.000000,0.000000,4.000000,2.000000,2.000000,0.000000,0.000000,4.000000,4.000000,4.000000,4.000000,4.000000,4.000000,0.000000,,,,,,,,,,,,,,,,,,,,,,,,,,,,
1732156398.241780,1732156398.242577,83.000000,0.000000,4313.717773,4298.846191,4317.563965,4315.897461,4270.000000,4292.820313,4336.282227,4392.307617,4305.769043,4290.256348,4463.461426,4506.666504,4354.871582,4424.615234,1576.000000,1.000000,28.000000,,,,0.000000,2.000000,2.000000,0.000000,4.000000,2.000000,2.000000,0.000000,0.000000,4.000000,4.000000,4.000000,4.000000,4.000000,4.000000,0.000000,,,,,,,,,,,,,,,,,,,,,,,,,,,,
1732156398.249588,1732156398.250285,84.000000,0.000000,4309.358887,4291.794922,4318.846191,4311.282227,4273.205078,4294.871582,4336.282227,4389.487305,4316.794922,4292.948730,4457.179688,4506.794922,4346.282227,4418.846191,1703.000000,1.000000,28.000000,,,,0.000000,2.000000,2.000000,0.000000,4.000000,2.000000,2.000000,0.000000,0.000000,4.000000,4.000000,4.000000,4.000000,4.000000,4.000000,0.000000,,,,,,,,,,,,,,,,,21.000000,0.000000,0.666779,-0.089111,-0.728333,-0.130371,0.963008,0.080576,-0.088878,-66.523598,33.083595,44.611874
1732156398.257397,1732156398.258094,85.000000,0.000000,4301.153809,4285.897461,4318.077148,4311.538574,4274.358887,4296.282227,4338.589844,4391.410156,4322.948730,4297.051270,4456.025879,4499.615234,4341.794922,4415.512695,1698.000000,1.000000,28.000000,,,,0.000000,2.000000,2.000000,0.000000,4.000000,2.000000,2.000000,0.000000,0.000000,4.000000,4.000000,4.000000,4.000000,4.000000,4.000000,0.000000,,,,,,,,,,,,,,,,,,,,,,,,,,,,
1732156398.265205,1732156398.266102,86.000000,0.000000,4307.051270,4287.051270,4317.948730,4309.230957,4269.487305,4293.974121,4336.410156,4392.307617,4325.000000,4303.974121,4466.922852,4495.512695,4351.666504,4419.615234,1528.000000,1.000000,28.000000,,,,0.000000,2.000000,2.000000,0.000000,4.000000,2.000000,2.000000,0.000000,0.000000,4.000000,4.000000,4.000000,4.000000,4.000000,4.000000,0.000000,,,,,,,,,,,,,,,,,,,,,,,,,,,,
1732156398.273013,1732156398.273910,87.000000,0.000000,4313.717773,4286.025879,4318.589844,4304.487305,4269.230957,4290.641113,4332.051270,4390.641113,4317.307617,4303.333496,4475.256348,4500.000000,4360.512695,4428.333496,1576.000000,1.000000,28.000000,,,,0.000000,2.000000,2.000000,0.000000,4.000000,2.000000,2.000000,0.000000,0.000000,4.000000,4.000000,4.000000,4.000000,4.000000,4.000000,0.000000,,,,,,,,,,,,,,,,,,,,,,,,,,,,
1732156398.280821,1732156398.281818,88.000000,0.000000,4309.487305,4285.769043,4316.922852,4307.948730,4274.102539,4292.179688,4333.846191,4390.256348,4309.871582,4300.256348,4475.128418,4497.051270,4357.692383,4430.897461,1703.000000,1.000000,28.000000,,,,0.000000,2.000000,2.000000,0.000000,4.000000,2.000000,2.000000,0.000000,0.000000,4.000000,4.000000,4.000000,4.000000,4.000000,4.000000,0.000000,,,,,,,,,,,,,,,,,22.000000,0.000000,0.666592,-0.089722,-0.728516,-0.129883,0.967403,0.081065,-0.099622,-66.487450,33.099380,44.527287
1732156398.288629,1732156398.289626,89.000000,0.000000,4309.487305,4283.974121,4316.153809,4308.846191,4272.820313,4295.897461,4336.538574,4391.153809,4313.205078,4302.307617,4473.846191,4492.563965,4354.358887,4429.743652,1698.000000,1.000000,28.000000,,,,0.000000,2.000000,2.000000,0.000000,4.000000,2.000000,2.000000,0.000000,0.000000,4.000000,4.000000,4.000000,4.000000,4.000000,4.000000,0.000000,,,,,,,,,,,,,,,,,,,,,,,,,,,,
1732156398.296438,1732156398.297634,90.000000,0.000000,4312.051270,4279.230957,4315.641113,4304.358887,4272.436035,4295.641113,4332.820313,4390.000000,4317.051270,4306.025879,4474.871582,4501.794922,4354.615234,4432.051270,1528.000000,1.000000,28.000000,,,,0.000000,2.000000,2.000000,0.000000,4.000000,2.000000,2.000000,0.000000,0.000000,4.000000,4.000000,4.000000,4.000000,4.000000,4.000000,0.000000,,,,,,,,,,,,,,,,,,,,,,,,,,,,
1732156398.304246,1732156398.305442,91.000000,0.000000,4306.153809,4277.563965,4315.512695,4303.333496,4272.179688,4288.461426,4333.461426,4389.102539,4316.922852,4308.205078,4475.384766,4509.102539,4350.897461,4433.333496,1576.000000,1.000000,28.000000,,,,0.000000,2.000000,2.000000,0.000000,4.000000,2.000000,2.000000,0.000000,0.000000,4.000000,4.000000,4.000000,4.000000,4.000000,4.000000,0.000000,,,,,,,,,,,,,,,,,,,,,,,,,,,,
1732156398.312054,1732156398.313350,92.000000,0.000000,4302.563965,4277.820313,4313.717773,4305.769043,4274.487305,4286.153809,4337.307617,4390.256348,4317.307617,4308.461426,4476.153809,4506.666504,4347.692383,4434.358887,1703.000000,1.000000,28.000000,,,,0.000000,2.000000,2.000000,0.000000,4.000000,2.000000,2.000000,0.000000,0.000000,4.000000,4.000000,4.000000,4.000000,4.000000,4.000000,0.000000,,,,,,,,,,,,,,,,,23.000000,0.000000,0.666400,-0.091064,-0.728699,-0.128906,0.967403,0.063973,-0.081553,-66.614838,32.937164,44.387100
1732156398.319862,1732156398.321159,93.000000,0.000000,4307.692383,4277.179688,4316.666504,4307.563965,4285.512695,4289.487305,4335.256348,4392.948730,4315.897461,4307.820313,4477.051270,4506.922852,4345.512695,4435.769043,1698.000000,1.000000,28.000000,,,,0.000000,2.000000,2.000000,0.000000,4.000000,2.000000,2.000000,0.000000,0.000000,4.000000,4.000000,4.000000,4.000000,4.000000,4.000000,0.000000,,,,,,,,,,,,,,,,,,,,,,,,,,,,
1732156398.327671,1732156398.329167,94.000000,0.000000,4313.717773,4280.000000,4318.717773,4312.436035,4287.563965,4284.358887,4332.692383,4393.333496,4313.461426,4308.717773,4478.589844,4509.487305,4345.000000,4441.922852,1528.000000,1.000000,28.000000,,,,0.000000,2.000000,2.000000,0.000000,4.000000,2.000000,2.000000,0.000000,0.000000,4.000000,4.000000,4.000000,4.000000,4.000000,4.000000,0.000000,,,,,,,,,,,,,,,,,,,,,,,,,,,,
1732156398.335479,1732156398.336975,95.000000,0.000000,4318.205078,4284.743652,4320.256348,4321.538574,4274.871582,4279.871582,4334.230957,4391.025879,4314.615234,4307.948730,4480.769043,4510.897461,4345.384766,4451.153809,1576.000000,1.000000,28.000000,,,,0.000000,2.000000,2.000000,0.000000,4.000000,2.000000,2.000000,0.000000,0.000000,4.000000,4.000000,4.000000,4.000000,4.000000,4.000000,0.000000,,,,,,,,,,,,,,,,,,,,,,,,,,,,
1732156398.343287,1732156398.344883,96.000000,0.000000,4323.717773,4288.717773,4318.589844,4327.307617,4271.410156,4284.871582,4335.641113,4391.153809,4318.333496,4302.820313,4476.922852,4510.512695,4342.692383,4448.846191,1703.000000,1.000000,28.000000,,,,0.000000,2.000000,2.000000,0.000000,4.000000,2.000000,2.000000,0.000000,0.000000,4.000000,4.000000,4.000000,4.000000,4.000000,4.000000,0.000000,,,,,,,,,,,,,,,,,24.000000,0.000000,0.666403,-0.094116,-0.728577,-0.127380,0.971798,0.040044,-0.091320,-66.868019,32.822437,44.156887
1732156398.351095,1732156398.352691,97.000000,0.000000,4327.563965,4288.461426,4317.179688,4322.051270,4275.512695,4285.769043,4336.153809,4393.846191,4319.615234,4308.461426,4477.051270,4510.000000,4344.615234,4446.666504,1698.000000,1.000000,28.000000,,,,0.000000,2.000000,2.000000,0.000000,4.000000,2.000000,2.000000,0.000000,0.000000,4.000000,4.000000,4.000000,4.000000,4.000000,4.000000,0.000000,,,,,,,,,,,,,,,,,,,,,,,,,,,,
1732156398.358904,1732156398.360699,98.000000,0.000000,4328.333496,4280.384766,4315.897461,4313.205078,4265.641113,4280.384766,4335.512695,4395.384766,4312.307617,4315.000000,4488.205078,4519.358887,4352.051270,4458.205078,1528.000000,1.000000,28.000000,,,,0.000000,2.000000,2.000000,0.000000,4.000000,2.000000,2.000000,0.000000,0.000000,4.000000,4.000000,4.000000,4.000000,4.000000,4.000000,0.000000,,,,,,,,,,,,,,,,,,,,,,,,,,,,
1732156398.366712,1732156398.368507,99.000000,0.000000,4328.077148,4278.077148,4317.563965,4313.333496,4263.205078,4281.922852,4336.025879,4393.333496,4303.974121,4305.000000,4490.128418,4526.282227,4352.820313,4466.282227,1576.000000,1.000000,28.000000,,,,0.000000,2.000000,2.000000,0.000000,4.000000,2.000000,2.000000,0.000000,0.000000,4.000000,4.000000,4.000000,4.000000,4.000000,4.000000,0.000000,,,,,,,,,,,,,,,,,,,,,,,,,,,,
1732156398.374520,1732156398.376416,100.000000,0.000000,4323.333496,4281.410156,4317.436035,4312.563965,4274.871582,4288.333496,4337.307617,4391.666504,4309.358887,4302.179688,4479.871582,4517.307617,4344.487305,4456.282227,1703.000000,1.000000,28.000000,,,,0.000000,2.000000,2.000000,0.000000,4.000000,2.000000,2.000000,0.000000,0.000000,4.000000,4.000000,4.000000,4.000000,4.000000,4.000000,0.000000,,,,,,,,,,,,,,,,,25.000000,0.000000,0.666554,-0.095032,-0.728394,-0.126953,0.991332,0.026859,-0.079111,-66.733093,32.749508,43.962078
1732156398.382328,1732156398.384224,101.000000,0.000000,4315.769043,4275.897461,4316.025879,4302.436035,4278.589844,4290.769043,4334.743652,4392.948730,4318.846191,4310.384766,4475.256348,4507.692383,4340.641113,4444.230957,1698.000000,1.000000,28.000000,,,,0.000000,2.000000,2.000000,0.000000,4.000000,2.000000,2.000000,0.000000,0.000000,4.000000,4.000000,4.000000,4.000000,4.000000,4.000000,0.000000,,,,,,,,,,,,,,,,,,,,,,,,,,,,
1732156398.390137,1732156398.392232,102.000000,0.000000,4309.871582,4271.410156,4317.179688,4298.589844,4276.666504,4293.333496,4334.615234,4395.384766,4316.282227,4306.282227,4475.897461,4501.410156,4342.692383,4438.717773,1528.000000,1.000000,28.000000,,,,0.000000,2.000000,2.000000,0.000000,4.000000,2.000000,2.000000,0.000000,0.000000,4.000000,4.000000,4.000000,4.000000,4.000000,4.000000,0.000000,,,,,,,,,,,,,,,,,,,,,,,,,,,,
1732156398.397945,1732156398.400040,103.000000,0.000000,4307.307617,4276.282227,4317.436035,4303.205078,4277.563965,4292.436035,4337.820313,4394.615234,4317.179688,4302.436035,4470.897461,4493.846191,4343.333496,4433.333496,1576.000000,1.000000,28.000000,,,,0.000000,2.000000,2.000000,0.000000,4.000000,2.000000,2.000000,0.000000,0.000000,4.000000,4.000000,4.000000,4.000000,4.000000,4.000000,0.000000,,,,,,,,,,,,,,,,,,,,,,,,,,,,
1732156398.405753,1732156398.407848,104.000000,0.000000,4307.948730,4278.077148,4316.282227,4302.692383,4275.769043,4287.563965,4336.922852,4393.461426,4321.922852,4307.436035,4467.820313,4490.897461,4344.871582,4430.384766,1703.000000,1.000000,28.000000,,,,0.000000,2.000000,2.000000,0.000000,4.000000,2.000000,2.000000,0.000000,0.000000,4.000000,4.000000,4.000000,4.000000,4.000000,4.000000,0.000000,,,,,,,,,,,,,,,,,26.000000,0.000000,0.666850,-0.096741,-0.728088,-0.125854,0.967892,0.027835,-0.083018,-66.827141,32.662102,43.879284
1732156398.413561,1732156398.415656,105.000000,0.000000,4308.846191,4276.922852,4312.820313,4299.230957,4268.717773,4290.256348,4333.846191,4392.820313,4319.743652,4310.769043,4468.717773,4490.897461,4349.230957,4430.256348,1698.000000,1.000000,28.000000,,,,0.000000,2.000000,2.000000,0.000000,4.000000,2.000000,2.000000,0.000000,0.000000,4.000000,4.000000,4.000000,4.000000,4.000000,4.000000,0.000000,,,,,,,,,,,,,,,,,,,,,,,,,,,,
1732156398.421370,1732156398.423265,106.000000,0.000000,4303.333496,4281.922852,4313.846191,4300.128418,4274.615234,4293.077148,4334.871582,4390.769043,4315.000000,4311.410156,4471.538574,4489.615234,4354.230957,4430.384766,1528.000000,1.000000,28.000000,,,,0.000000,2.000000,2.000000,0.000000,4.000000,2.000000,2.000000,0.000000,0.000000,4.000000,4.000000,4.000000,4.000000,4.000000,4.000000,0.000000,,,,,,,,,,,,,,,,,,,,,,,,,,,,
1732156398.429178,1732156398.431073,107.000000,0.000000,4297.820313,4289.487305,4317.692383,4301.666504,4290.641113,4291.410156,4334.102539,4389.743652,4313.333496,4311.282227,4468.717773,4489.743652,4352.307617,4428.205078,1576.000000,1.000000,28.000000,,,,0.000000,2.000000,2.000000,0.000000,4.000000,2.000000,2.000000,0.000000,0.000000,4.000000,4.000000,4.000000,4.000000,4.000000,4.000000,0.000000,,,,,,,,,,,,,,,,,,,,,,,,,,,,
1732156398.436986,1732156398.438781,108.000000,0.000000,4299.230957,4288.589844,4320.512695,4297.563965,4280.897461,4293.589844,4333.974121,4391.410156,4310.769043,4310.384766,4462.820313,4490.769043,4353.461426,4428.077148,1703.000000,1.000000,28.000000,,,,0.000000,2.000000,2.000000,0.000000,4.000000,2.000000,2.000000,0.000000,0.000000,4.000000,4.000000,4.000000,4.000000,4.000000,4.000000,0.000000,,,,,,,,,,,,,,,,,27.000000,0.000000,0.667114,-0.101135,-0.727417,-0.124878,0.963497,0.008790,-0.086436,-66.753319,32.491302,43.912220
1732156398.444794,1732156398.446590,109.000000,0.000000,4300.384766,4281.922852,4316.922852,4292.692383,4259.358887,4297.948730,4335.128418,4392.948730,4306.922852,4309.743652,4466.410156,4489.358887,4360.256348,4428.717773,1698.000000,1.000000,28.000000,,,,0.000000,2.000000,2.000000,0.000000,4.000000,2.000000,2.000000,0.000000,0.000000,4.000000,4.000000,4.000000,4.000000,4.000000,4.000000,0.000000,,,,,,,,,,,,,,,,,,,,,,,,,,,,
1732156398.452603,1732156398.454198,110.000000,0.000000,4297.563965,4279.871582,4315.256348,4290.769043,4261.025879,4296.025879,4334.102539,4392.692383,4310.512695,4311.538574,4475.769043,4494.743652,4361.538574,4428.333496,1528.000000,1.000000,28.000000,,,,0.000000,2.000000,2.000000,0.000000,4.000000,2.000000,2.000000,0.000000,0.000000,4.000000,4.000000,4.000000,4.000000,4.000000,4.000000,0.000000,,,,,,,,,,,,,,,,,,,,,,,,,,,,
1732156398.460411,1732156398.462006,111.000000,0.000000,4295.769043,4282.948730,4314.358887,4289.743652,4269.743652,4298.589844,4334.487305,4392.179688,4317.179688,4315.769043,4477.563965,4500.256348,4360.384766,4428.589844,1576.000000,1.000000,28.000000,,,,0.000000,2.000000,2.000000,0.000000,4.000000,2.000000,2.000000,0.000000,0.000000,4.000000,4.000000,4.000000,4.000000,4.000000,4.000000,0.000000,,,,,,,,,,,,,,,,,,,,,,,,,,,,
1732156398.468219,1732156398.469714,112.000000,0.000000,4295.512695,4283.205078,4314.230957,4290.512695,4268.461426,4307.051270,4335.384766,4392.563965,4318.974121,4318.077148,4469.487305,4494.358887,4360.128418,4423.205078,1703.000000,1.000000,28.000000,,,,0.000000,2.000000,2.000000,0.000000,4.000000,2.000000,2.000000,0.000000,0.000000,4.000000,4.000000,4.000000,4.000000,4.000000,4.000000,0.000000,,,,,,,,,,,,,,,,,28.000000,0.000000,0.667217,-0.103088,-0.727112,-0.124512,0.975705,0.022464,-0.080576,-66.793518,32.369621,43.755566
1732156398.476027,1732156398.477523,113.000000,0.000000,4295.641113,4281.025879,4312.692383,4292.692383,4271.538574,4313.461426,4334.230957,4392.820313,4322.692383,4316.153809,4462.179688,4487.948730,4361.282227,4413.589844,1698.000000,1.000000,28.000000,,,,0.000000,2.000000,2.000000,0.000000,4.000000,2.000000,2.000000,0.000000,0.000000,4.000000,4.000000,4.000000,4.000000,4.000000,4.000000,0.000000,,,,,,,,,,,,,,,,,,,,,,,,,,,,
1732156398.483836,1732156398.485131,114.000000,0.000000,4297.051270,4280.512695,4315.000000,4291.025879,4278.077148,4315.000000,4334.615234,4392.436035,4324.743652,4317.051270,4460.897461,4490.000000,4363.333496,4412.436035,1528.000000,1.000000,28.000000,,,,0.000000,2.000000,2.000000,0.000000,4.000000,2.000000,2.000000,0.000000,0.000000,4.000000,4.000000,4.000000,4.000000,4.000000,4.000000,0.000000,,,,,,,,,,,,,,,,,,,,,,,,,,,,
1732156398.491644,1732156398.492939,115.000000,0.000000,4295.000000,4281.410156,4317.948730,4289.358887,4278.974121,4311.153809,4336.538574,4389.487305,4316.025879,4314.230957,4459.871582,4491.794922,4358.589844,4415.512695,1576.000000,1.000000,28.000000,,,,0.000000,2.000000,2.000000,0.000000,4.000000,2.000000,2.000000,0.000000,0.000000,4.000000,4.000000,4.000000,4.000000,4.000000,4.000000,0.000000,,,,,,,,,,,,,,,,,,,,,,,,,,,,
1732156398.499452,1732156398.500648,116.000000,0.000000,4293.846191,4281.538574,4319.743652,4290.897461,4278.077148,4311.922852,4336.025879,4388.077148,4319.743652,4310.641113,4458.974121,4490.384766,4352.307617,4413.333496,1703.000000,1.000000,28.000000,,,,0.000000,2.000000,2.000000,0.000000,4.000000,2.000000,2.000000,0.000000,0.000000,4.000000,4.000000,4.000000,4.000000,4.000000,4.000000,0.000000,,,,,,,,,,,,,,,,,29.000000,0.000000,0.667337,-0.103821,-0.726929,-0.124329,0.975705,0.022464,-0.080576,-66.832748,32.331059,43.897007
1732156398.507260,1732156398.508456,117.000000,0.000000,4294.743652,4278.333496,4318.077148,4290.256348,4281.922852,4316.282227,4333.974121,4390.769043,4337.436035,4317.820313,4460.256348,4492.563965,4358.717773,4412.692383,1698.000000,1.000000,28.000000,,,,0.000000,2.000000,2.000000,0.000000,4.000000,2.000000,2.000000,0.000000,0.000000,4.000000,4.000000,4.000000,4.000000,4.000000,4.000000,0.000000,,,,,,,,,,,,,,,,,,,,,,,,,,,,
1732156398.515068,1732156398.516064,118.000000,0.000000,4288.077148,4275.641113,4315.897461,4285.897461,4292.179688,4313.589844,4335.128418,4390.512695,4333.077148,4318.205078,4461.666504,4492.436035,4364.358887,4412.307617,1528.000000,1.000000,28.000000,,,,0.000000,2.000000,2.000000,0.000000,4.000000,2.000000,2.000000,0.000000,0.000000,4.000000,4.000000,4.000000,4.000000,4.000000,4.000000,0.000000,,,,,,,,,,,,,,,,,,,,,,,,,,,,
1732156398.522877,1732156398.523872,119.000000,0.000000,4281.538574,4275.256348,4316.153809,4283.205078,4289.871582,4311.794922,4337.563965,4390.384766,4325.512695,4316.794922,4460.897461,4494.358887,4361.538574,4415.384766,1576.000000,1.000000,28.000000,,,,0.000000,2.000000,2.000000,0.000000,4.000000,2.000000,2.000000,0.000000,0.000000,4.000000,4.000000,4.000000,4.000000,4.000000,4.000000,0.000000,,,,,,,,,,,,,,,,,,,,,,,,,,,,
1732156398.530685,1732156398.531581,120.000000,0.000000,4288.589844,4277.948730,4315.512695,4287.307617,4275.384766,4312.179688,4335.769043,4392.563965,4329.358887,4322.051270,4463.589844,4502.948730,4367.820313,4422.820313,1703.000000,1.000000,28.000000,,,,0.000000,2.000000,2.000000,0.000000,4.000000,2.000000,2.000000,0.000000,0.000000,4.000000,4.000000,4.000000,4.000000,4.000000,4.000000,0.000000,,,,,,,,,,,,,,,,,30.000000,0.000000,0.667683,-0.105713,-0.726379,-0.124084,0.988402,0.019534,-0.076670,-66.831192,32.161491,43.916576
1732156398.538493,1732156398.539389,121.000000,0.000000,4297.948730,4280.384766,4315.769043,4294.743652,4268.974121,4307.563965,4332.820313,4393.461426,4323.974121,4317.307617,4465.641113,4507.051270,4372.563965,4426.282227,1698.000000,1.000000,28.000000,,,,0.000000,2.000000,2.000000,0.000000,4.000000,2.000000,2.000000,0.000000,0.000000,4.000000,4.000000,4.000000,4.000000,4.000000,4.000000,0.000000,,,,,,,,,,,,,,,,,,,,,,,,,,,,
1732156398.546301,1732156398.546997,122.000000,0.000000,4296.153809,4279.871582,4315.512695,4295.897461,4275.512695,4303.461426,4333.205078,4391.153809,4320.256348,4309.487305,4460.641113,4502.692383,4365.512695,4424.230957,1528.000000,1.000000,28.000000,,,,0.000000,2.000000,2.000000,0.000000,4.000000,2.000000,2.000000,0.000000,0.000000,4.000000,4.000000,4.000000,4.000000,4.000000,4.000000,0.000000,,,,,,,,,,,,,,,,,,,,,,,,,,,,
1732156398.554110,1732156398.554806,123.000000,0.000000,4291.794922,4280.641113,4315.000000,4291.538574,4280.641113,4306.025879,4333.974121,4391.025879,4324.487305,4311.666504,4460.897461,4501.025879,4363.717773,4420.000000,1576.000000,1.000000,28.000000,,,,0.000000,2.000000,2.000000,0.000000,4.000000,2.000000,2.000000,0.000000,0.000000,4.000000,4.000000,4.000000,4.000000,4.000000,4.000000,0.000000,,,,,,,,,,,,,,,,,,,,,,,,,,,,
1732156398.561918,1732156398.562514,124.000000,0.000000,4293.333496,4281.538574,4315.000000,4291.410156,4281.025879,4306.538574,4332.563965,4392.820313,4319.871582,4314.487305,4467.948730,4505.641113,4369.230957,4418.974121,1703.000000,1.000000,28.000000,,,,0.000000,2.000000,2.000000,0.000000,4.000000,2.000000,2.000000,0.000000,0.000000,4.000000,4.000000,4.000000,4.000000,4.000000,4.000000,0.000000,,,,,,,,,,,,,,,,,31.000000,0.000000,0.667887,-0.105896,-0.726196,-0.123901,0.995239,0.033207,-0.079600,-66.966599,32.182476,43.932426
1732156398.569726,1732156398.570322,125.000000,0.000000,4293.846191,4283.077148,4318.717773,4293.077148,4279.743652,4299.487305,4335.641113,4392.948730,4315.897461,4310.897461,4467.563965,4505.897461,4369.615234,4421.666504,1698.000000,1.000000,28.000000,,,,0.000000,2.000000,2.000000,0.000000,4.000000,2.000000,2.000000,0.000000,0.000000,4.000000,4.000000,4.000000,4.000000,4.000000,4.000000,0.000000,,,,,,,,,,,,,,,,,,,,,,,,,,,,
1732156398.577534,1732156398.577930,126.000000,0.000000,4293.589844,4286.794922,4316.025879,4295.384766,4273.461426,4298.589844,4337.436035,4394.102539,4322.179688,4309.743652,4463.717773,4503.974121,4367.179688,4422.820313,1528.000000,1.000000,28.000000,,,,0.000000,2.000000,2.000000,0.000000,4.000000,2.000000,2.000000,0.000000,0.000000,4.000000,4.000000,4.000000,4.000000,4.000000,4.000000,0.000000,,,,,,,,,,,,,,,,,,,,,,,,,,,,
1732156398.585343,1732156398.585739,127.000000,0.000000,4294.743652,4286.025879,4315.769043,4292.948730,4277.051270,4302.692383,4334.358887,4394.230957,4320.641113,4308.205078,4462.692383,4506.410156,4366.282227,4416.794922,28.000000,1.000000,28.000000,,,,0.000000,2.000000,2.000000,0.000000,4.000000,2.000000,2.000000,0.000000,0.000000,4.000000,4.000000,4.000000,4.000000,4.000000,4.000000,0.000000,,,,,,,,,,,,,,,,,,,,,,,,,,,,
1732156398.593151,1732156398.593447,0.000000,0.000000,4295.000000,4280.128418,4317.436035,4289.358887,4291.922852,4296.794922,4333.846191,4391.666504,4312.051270,4308.333496,4464.743652,4506.538574,4370.641113,4416.153809,0.000000,1.000000,28.000000,,,,0.000000,2.000000,2.000000,0.000000,4.000000,2.000000,2.000000,0.000000,0.000000,4.000000,4.000000,4.000000,4.000000,4.000000,4.000000,0.000000,,,,,,,,,,,,,,,,,0.000000,0.000000,0.668046,-0.106140,-0.725952,-0.124268,0.975705,0.021975,-0.063973,-67.116280,32.372803,43.960266
1732156398.600959,1732156398.601255,1.000000,0.000000,4295.641113,4281.153809,4316.538574,4295.256348,4288.846191,4289.615234,4335.000000,4391.153809,4314.230957,4312.820313,4470.000000,4508.205078,4376.666504,4424.615234,1596.000000,1.000000,28.000000,,,,0.000000,2.000000,2.000000,0.000000,4.000000,2.000000,2.000000,0.000000,0.000000,4.000000,4.000000,4.000000,4.000000,4.000000,4.000000,0.000000,,,,,,,,,,,,,,,,,,,,,,,,,,,,
1732156398.608767,1732156398.608864,2.000000,0.000000,4299.358887,4288.589844,4313.717773,4300.384766,4273.205078,4294.487305,4333.717773,4393.974121,4323.589844,4316.282227,4478.461426,4516.666504,4376.666504,4428.589844,1417.000000,1.000000,28.000000,,,,0.000000,2.000000,2.000000,0.000000,4.000000,2.000000,2.000000,0.000000,0.000000,4.000000,4.000000,4.000000,4.000000,4.000000,4.000000,0.000000,,,,,,,,,,,,,,,,,,,,,,,,,,,,
1732156398.616576,1732156398.616672,3.000000,0.000000,4302.692383,4289.230957,4316.794922,4298.461426,4275.641113,4300.128418,4333.717773,4393.589844,4324.615234,4316.410156,4478.205078,4517.307617,4373.846191,4428.461426,1414.000000,1.000000,28.000000,,,,0.000000,2.000000,2.000000,0.000000,4.000000,2.000000,2.000000,0.000000,0.000000,4.000000,4.000000,4.000000,4.000000,4.000000,4.000000,0.000000,,,,,,,,,,,,,,,,,,,,,,,,,,,,
1732156398.624384,1732156398.624580,4.000000,0.000000,4301.794922,4286.153809,4317.948730,4298.461426,4287.307617,4296.666504,4333.589844,4392.692383,4322.436035,4316.153809,4469.743652,4507.948730,4373.589844,4425.128418,1399.000000,1.000000,28.000000,,,,0.000000,2.000000,2.000000,0.000000,4.000000,2.000000,2.000000,0.000000,0.000000,4.000000,4.000000,4.000000,4.000000,4.000000,4.000000,0.000000,,,,,,,,,,,,,,,,,1.000000,0.000000,0.668125,-0.106262,-0.725830,-0.124451,0.984007,0.030277,-0.064461,-67.252518,32.175304,43.967815
1732156398.632192,1732156398.632388,5.000000,0.000000,4298.717773,4284.743652,4315.256348,4299.743652,4287.051270,4294.615234,4332.948730,4395.769043,4329.615234,4317.436035,4470.128418,4505.128418,4370.769043,4417.820313,1242.000000,1.000000,28.000000,,,,0.000000,2.000000,2.000000,0.000000,4.000000,2.000000,2.000000,0.000000,0.000000,4.000000,4.000000,4.000000,4.000000,4.000000,4.000000,0.000000,,,,,,,,,,,,,,,,,,,,,,,,,,,,
1732156398.640000,1732156398.640396,6.000000,0.000000,4298.461426,4280.641113,4314.615234,4296.410156,4291.410156,4295.897461,4335.769043,4396.666504,4332.692383,4316.025879,4473.333496,4507.820313,4366.794922,4414.102539,0.000000,1.000000,28.000000,,,,0.000000,2.000000,2.000000,0.000000,4.000000,2.000000,2.000000,0.000000,0.000000,4.000000,4.000000,4.000000,4.000000,4.000000,4.000000,0.000000,,,,,,,,,,,,,,,,,,,,,,,,,,,,
1732156398.647809,1732156398.648204,7.000000,0.000000,4300.641113,4278.717773,4314.615234,4295.512695,4295.256348,4296.666504,4334.743652,4392.820313,4320.384766,4313.333496,4474.487305,4509.230957,4369.871582,4419.102539,0.000000,1.000000,28.000000,,,,0.000000,2.000000,2.000000,0.000000,4.000000,2.000000,2.000000,0.000000,0.000000,4.000000,4.000000,4.000000,4.000000,4.000000,4.000000,0.000000,,,,,,,,,,,,,,,,,,,,,,,,,,,,
1732156398.655617,1732156398.656112,8.000000,0.000000,4302.179688,4279.487305,4317.563965,4299.487305,4291.794922,4297.948730,4332.051270,4392.436035,4312.051270,4313.461426,4473.333496,4508.333496,4372.179688,4421.538574,1529.000000,1.000000,28.000000,,,,0.000000,2.000000,2.000000,0.000000,4.000000,2.000000,2.000000,0.000000,0.000000,4.000000,4.000000,4.000000,4.000000,4.000000,4.000000,0.000000,,,,,,,,,,,,,,,,,2.000000,0.000000,0.668466,-0.106628,-0.725220,-0.125854,0.980100,0.041509,-0.063484,-67.321205,32.081997,43.957264
1732156398.663425,1732156398.663921,9.000000,0.000000,4299.102539,4279.230957,4318.077148,4302.692383,4305.897461,4293.846191,4332.820313,4391.922852,4316.410156,4312.179688,4472.436035,4508.846191,4369.230957,4421.153809,1671.000000,1.000000,28.000000,,,,0.000000,2.000000,2.000000,0.000000,4.000000,2.000000,2.000000,0.000000,0.000000,4.000000,4.000000,4.000000,4.000000,4.000000,4.000000,0.000000,,,,,,,,,,,,,,,,,,,,,,,,,,,,
1732156398.671233,1732156398.671929,10.000000,0.000000,4297.563965,4279.743652,4318.974121,4303.846191,4307.563965,4287.051270,4333.461426,4390.000000,4323.846191,4314.230957,4475.128418,4516.666504,4370.512695,4427.051270,1538.000000,1.000000,28.000000,,,,0.000000,2.000000,2.000000,0.000000,4.000000,2.000000,2.000000,0.000000,0.000000,4.000000,4.000000,4.000000,4.000000,4.000000,4.000000,0.000000,,,,,,,,,,,,,,,,,,,,,,,,,,,,
1732156398.679042,1732156398.679737,11.000000,0.000000,4300.384766,4285.000000,4318.589844,4303.461426,4280.512695,4287.692383,4333.077148,4390.512695,4325.512695,4319.871582,4478.717773,4523.974121,4378.846191,4432.179688,1579.000000,1.000000,28.000000,,,,0.000000,2.000000,2.000000,0.000000,4.000000,2.000000,2.000000,0.000000,0.000000,4.000000,4.000000,4.000000,4.000000,4.000000,4.000000,0.000000,,,,,,,,,,,,,,,,,,,,,,,,,,,,
1732156398.686850,1732156398.687645,12.000000,0.000000,4303.589844,4286.025879,4316.666504,4303.974121,4273.077148,4292.179688,4334.615234,4392.436035,4318.333496,4318.077148,4477.692383,4520.384766,4382.563965,4431.282227,1706.000000,1.000000,28.000000,,,,0.000000,2.000000,2.000000,0.000000,4.000000,2.000000,2.000000,0.000000,0.000000,4.000000,4.000000,4.000000,4.000000,4.000000,4.000000,0.000000,,,,,,,,,,,,,,,,,3.000000,0.000000,0.668583,-0.106689,-0.724976,-0.126587,0.982542,0.039067,-0.060554,-67.323509,32.141418,43.922050
1732156398.694658,1732156398.695453,13.000000,0.000000,4307.051270,4280.256348,4314.487305,4306.282227,4288.846191,4293.205078,4333.205078,4392.563965,4315.128418,4310.256348,4474.358887,4513.461426,4372.436035,4427.692383,1705.000000,1.000000,28.000000,,,,0.000000,2.000000,2.000000,0.000000,4.000000,2.000000,2.000000,0.000000,0.000000,4.000000,4.000000,4.000000,4.000000,4.000000,4.000000,0.000000,,,,,,,,,,,,,,,,,,,,,,,,,,,,
1732156398.702466,1732156398.703461,14.000000,0.000000,4307.563965,4276.922852,4318.205078,4308.846191,4290.384766,4293.077148,4330.897461,4393.717773,4315.512695,4309.358887,4477.179688,4513.717773,4366.282227,4428.333496,1538.000000,1.000000,28.000000,,,,0.000000,2.000000,2.000000,0.000000,4.000000,2.000000,2.000000,0.000000,0.000000,4.000000,4.000000,4.000000,4.000000,4.000000,4.000000,0.000000,1.000000,0.000000,2.000000,2.000000,0.000000,4.000000,2.000000,2.000000,0.000000,0.000000,4.000000,4.000000,4.000000,4.000000,4.000000,4.000000,,,,,,,,,,,,
1732156398.710275,1732156398.711269,15.000000,0.000000,4307.948730,4280.512695,4318.846191,4309.358887,4283.333496,4297.948730,4333.717773,4394.615234,4313.974121,4312.436035,4477.948730,4514.487305,4372.563965,4430.384766,1579.000000,1.000000,28.000000,,,,0.000000,2.000000,2.000000,0.000000,4.000000,2.000000,2.000000,0.000000,0.000000,4.000000,4.000000,4.000000,4.000000,4.000000,4.000000,0.000000,,,,,,,,,,,,,,,,,,,,,,,,,,,,
1732156398.718083,1732156398.719178,16.000000,0.000000,4305.256348,4280.128418,4317.563965,4304.358887,4284.871582,4300.384766,4335.000000,4391.410156,4315.000000,4310.769043,4475.128418,4510.897461,4371.282227,4424.102539,0.000000,1.000000,28.000000,,,,0.000000,2.000000,2.000000,0.000000,4.000000,2.000000,2.000000,0.000000,0.000000,4.000000,4.000000,4.000000,4.000000,4.000000,4.000000,0.000000,,,,,,,,,,,,,,,,,4.000000,0.000000,0.668583,-0.106689,-0.724976,-0.126587,0.966915,0.037602,-0.068856,-67.325378,32.114548,43.863525
1732156398.725891,1732156398.726986,17.000000,0.000000,4296.282227,4273.846191,4315.769043,4301.410156,4293.333496,4299.102539,4331.666504,4391.538574,4319.743652,4309.102539,4476.025879,4500.384766,4358.974121,4413.333496,0.000000,1.000000,28.000000,,,,0.000000,2.000000,2.000000,0.000000,4.000000,2.000000,2.000000,0.000000,0.000000,4.000000,4.000000,4.000000,4.000000,4.000000,4.000000,0.000000,,,,,,,,,,,,,,,,,,,,,,,,,,,,
1732156398.733699,1732156398.734994,18.000000,0.000000,4295.641113,4275.769043,4317.436035,4305.897461,4298.333496,4297.436035,4331.282227,4394.743652,4321.282227,4311.538574,4475.512695,4494.102539,4353.846191,4411.282227,0.000000,1.000000,28.000000,,,,0.000000,2.000000,2.000000,0.000000,4.000000,2.000000,2.000000,0.000000,0.000000,4.000000,4.000000,4.000000,4.000000,4.000000,4.000000,0.000000,,,,,,,,,,,,,,,,,,,,,,,,,,,,
1732156398.741507,1732156398.742802,19.000000,0.000000,4306.282227,4282.692383,4318.333496,4311.025879,4284.743652,4298.205078,4334.487305,4392.436035,4325.256348,4313.077148,4472.820313,4502.307617,4355.000000,4416.666504,0.000000,1.000000,28.000000,,,,0.000000,2.000000,2.000000,0.000000,4.000000,2.000000,2.000000,0.000000,0.000000,4.000000,4.000000,4.000000,4.000000,4.000000,4.000000,0.000000,,,,,,,,,,,,,,,,,,,,,,,,,,,,
1732156398.749316,1732156398.750710,20.000000,0.000000,4311.410156,4279.615234,4318.717773,4310.769043,4270.128418,4300.769043,4334.358887,4389.102539,4329.358887,4312.692383,4473.846191,4508.717773,4350.897461,4418.589844,0.000000,1.000000,28.000000,,,,0.000000,2.000000,2.000000,0.000000,4.000000,2.000000,2.000000,0.000000,0.000000,4.000000,4.000000,4.000000,4.000000,4.000000,4.000000,0.000000,,,,,,,,,,,,,,,,,5.000000,0.000000,0.668800,-0.106628,-0.724548,-0.127930,0.962520,0.030277,-0.066414,-67.265221,31.942783,43.979458
1732156398.757124,1732156398.758518,21.000000,0.000000,4309.102539,4273.974121,4316.410156,4309.487305,4275.641113,4300.256348,4332.692383,4390.897461,4317.563965,4311.153809,4474.743652,4501.666504,4344.871582,4416.794922,0.000000,1.000000,28.000000,,,,0.000000,2.000000,2.000000,0.000000,4.000000,2.000000,2.000000,0.000000,0.000000,4.000000,4.000000,4.000000,4.000000,4.000000,4.000000,0.000000,,,,,,,,,,,,,,,,,,,,,,,,,,,,
1732156398.764932,1732156398.766526,22.000000,0.000000,4310.897461,4277.692383,4315.256348,4313.077148,4282.436035,4300.256348,4331.922852,4391.538574,4307.948730,4306.666504,4471.153809,4496.538574,4340.128418,4417.179688,0.000000,1.000000,28.000000,,,,0.000000,2.000000,2.000000,0.000000,4.000000,2.000000,2.000000,0.000000,0.000000,4.000000,4.000000,4.000000,4.000000,4.000000,4.000000,0.000000,,,,,,,,,,,,,,,,,,,,,,,,,,,,
1732156398.772740,1732156398.774334,23.000000,0.000000,4314.743652,4277.948730,4318.077148,4314.358887,4281.282227,4300.384766,4331.538574,4390.641113,4310.384766,4301.922852,4470.512695,4503.333496,4335.128418,4415.897461,0.000000,1.000000,28.000000,,,,0.000000,2.000000,2.000000,0.000000,4.000000,2.000000,2.000000,0.000000,0.000000,4.000000,4.000000,4.000000,4.000000,4.000000,4.000000,0.000000,,,,,,,,,,,,,,,,,,,,,,,,,,,,
1732156398.780549,1732156398.782143,24.000000,0.000000,4316.153809,4274.871582,4317.948730,4312.563965,4280.128418,4300.000000,4331.538574,4392.436035,4314.230957,4303.077148,4475.769043,4508.333496,4335.000000,4418.974121,0.000000,1.000000,28.000000,,,,0.000000,2.000000,2.000000,0.000000,4.000000,2.000000,2.000000,0.000000,0.000000,4.000000,4.000000,4.000000,4.000000,4.000000,4.000000,0.000000,,,,,,,,,,,,,,,,,6.000000,0.000000,0.668907,-0.106445,-0.724304,-0.128906,0.988402,0.031742,-0.063484,-67.128166,31.818655,44.000027
1732156398.788357,1732156398.789951,25.000000,0.000000,4315.384766,4278.846191,4318.205078,4313.333496,4278.461426,4302.179688,4332.436035,4392.436035,4319.743652,4304.230957,4477.436035,4506.282227,4334.358887,4427.307617,0.000000,1.000000,28.000000,,,,0.000000,2.000000,2.000000,0.000000,4.000000,2.000000,2.000000,0.000000,0.000000,4.000000,4.000000,4.000000,4.000000,4.000000,4.000000,0.000000,,,,,,,,,,,,,,,,,,,,,,,,,,,,
1732156398.796165,1732156398.797959,26.000000,0.000000,4310.128418,4281.025879,4317.436035,4313.717773,4291.282227,4303.205078,4332.820313,4389.102539,4322.436035,4302.948730,4472.051270,4506.666504,4328.077148,4426.282227,0.000000,1.000000,28.000000,,,,0.000000,2.000000,2.000000,0.000000,4.000000,2.000000,2.000000,0.000000,0.000000,4.000000,4.000000,4.000000,4.000000,4.000000,4.000000,0.000000,,,,,,,,,,,,,,,,,,,,,,,,,,,,
1732156398.803973,1732156398.805767,27.000000,0.000000,4305.641113,4278.077148,4318.461426,4314.615234,4301.922852,4299.743652,4335.000000,4389.487305,4321.025879,4307.307617,4472.692383,4508.717773,4325.256348,4416.922852,0.000000,1.000000,28.000000,,,,0.000000,2.000000,2.000000,0.000000,4.000000,2.000000,2.000000,0.000000,0.000000,4.000000,4.000000,4.000000,4.000000,4.000000,4.000000,0.000000,,,,,,,,,,,,,,,,,,,,,,,,,,,,
1732156398.811782,1732156398.813475,28.000000,0.000000,4306.282227,4277.563965,4318.589844,4317.307617,4282.820313,4297.307617,4334.871582,4392.948730,4321.282227,4310.128418,4475.897461,4503.205078,4324.871582,4413.333496,0.000000,1.000000,28.000000,,,,0.000000,2.000000,2.000000,0.000000,4.000000,2.000000,2.000000,0.000000,0.000000,4.000000,4.000000,4.000000,4.000000,4.000000,4.000000,0.000000,,,,,,,,,,,,,,,,,7.000000,0.000000,0.668950,-0.106262,-0.724182,-0.129517,0.983030,0.043951,-0.070321,-67.200478,31.686443,44.081688
1732156398.819590,1732156398.821284,29.000000,0.000000,4309.358887,4278.205078,4318.461426,4316.282227,4266.666504,4300.128418,4333.846191,4393.205078,4319.871582,4302.436035,4470.641113,4498.461426,4322.307617,4415.000000,0.000000,1.000000,28.000000,,,,0.000000,2.000000,2.000000,0.000000,4.000000,2.000000,2.000000,0.000000,0.000000,4.000000,4.000000,4.000000,4.000000,4.000000,4.000000,0.000000,,,,,,,,,,,,,,,,,,,,,,,,,,,,
1732156398.827398,1732156398.828892,30.000000,0.000000,4313.589844,4276.794922,4317.436035,4314.102539,4276.410156,4302.563965,4334.743652,4391.025879,4312.692383,4298.205078,4466.666504,4499.615234,4322.051270,4413.846191,0.000000,1.000000,28.000000,,,,0.000000,2.000000,2.000000,0.000000,4.000000,2.000000,2.000000,0.000000,0.000000,4.000000,4.000000,4.000000,4.000000,4.000000,4.000000,0.000000,,,,,,,,,,,,,,,,,,,,,,,,,,,,
1732156398.835206,1732156398.836700,31.000000,0.000000,4316.282227,4275.769043,4320.256348,4315.128418,4285.128418,4305.128418,4335.256348,4391.282227,4311.922852,4300.000000,4466.538574,4498.461426,4318.974121,4412.307617,0.000000,1.000000,28.000000,,,,0.000000,2.000000,2.000000,0.000000,4.000000,2.000000,2.000000,0.000000,0.000000,4.000000,4.000000,4.000000,4.000000,4.000000,4.000000,0.000000,,,,,,,,,,,,,,,,,,,,,,,,,,,,
1732156398.843015,1732156398.844409,32.000000,0.000000,4318.205078,4278.974121,4319.358887,4317.948730,4282.179688,4305.256348,4333.077148,4392.436035,4320.769043,4302.179688,4470.641113,4502.563965,4315.384766,4413.589844,0.000000,1.000000,28.000000,,,,0.000000,2.000000,2.000000,0.000000,4.000000,2.000000,2.000000,0.000000,0.000000,4.000000,4.000000,4.000000,4.000000,4.000000,4.000000,0.000000,,,,,,,,,,,,,,,,,8.000000,0.000000,0.668950,-0.106262,-0.724182,-0.129517,0.983030,0.043951,-0.070321,-67.274055,31.519354,44.102833
1732156398.850823,1732156398.852217,33.000000,0.000000,4315.384766,4282.436035,4318.333496,4316.410156,4284.743652,4302.563965,4332.179688,4392.307617,4320.897461,4301.025879,4470.769043,4508.205078,4316.153809,4411.666504,0.000000,1.000000,28.000000,,,,0.000000,2.000000,2.000000,0.000000,4.000000,2.000000,2.000000,0.000000,0.000000,4.000000,4.000000,4.000000,4.000000,4.000000,4.000000,0.000000,,,,,,,,,,,,,,,,,,,,,,,,,,,,
1732156398.858631,1732156398.859825,34.000000,0.000000,4307.820313,4281.922852,4318.333496,4313.333496,4286.794922,4304.871582,4333.846191,4392.179688,4313.461426,4294.487305,4462.563965,4498.333496,4311.410156,4406.025879,0.000000,1.000000,28.000000,,,,0.000000,2.000000,2.000000,0.000000,4.000000,2.000000,2.000000,0.000000,0.000000,4.000000,4.000000,4.000000,4.000000,4.000000,4.000000,0.000000,,,,,,,,,,,,,,,,,,,,,,,,,,,,
1732156398.866439,1732156398.867633,35.000000,0.000000,4311.025879,4275.384766,4317.436035,4313.974121,4282.436035,4305.769043,4333.974121,4391.666504,4309.615234,4291.666504,4463.846191,4490.897461,4307.436035,4406.410156,0.000000,1.000000,28.000000,,,,0.000000,2.000000,2.000000,0.000000,4.000000,2.000000,2.000000,0.000000,0.000000,4.000000,4.000000,4.000000,4.000000,4.000000,4.000000,0.000000,,,,,,,,,,,,,,,,,,,,,,,,,,,,
1732156398.874248,1732156398.875342,36.000000,0.000000,4321.025879,4272.179688,4315.512695,4314.743652,4292.179688,4301.538574,4332.948730,4392.436035,4316.538574,4299.871582,4476.538574,4503.333496,4317.051270,4413.461426,0.000000,1.000000,28.000000,,,,0.000000,2.000000,2.000000,0.000000,4.000000,2.000000,2.000000,0.000000,0.000000,4.000000,4.000000,4.000000,4.000000,4.000000,4.000000,0.000000,,,,,,,,,,,,,,,,,9.000000,0.000000,0.668926,-0.106262,-0.724182,-0.129639,0.981565,0.041021,-0.067391,-67.218651,31.619009,44.026630
1732156398.882056,1732156398.883150,37.000000,0.000000,4318.333496,4277.179688,4317.051270,4312.820313,4299.871582,4302.436035,4333.077148,4392.436035,4324.615234,4306.922852,4476.153809,4507.563965,4319.487305,4411.410156,0.000000,1.000000,28.000000,,,,0.000000,2.000000,2.000000,0.000000,4.000000,2.000000,2.000000,0.000000,0.000000,4.000000,4.000000,4.000000,4.000000,4.000000,4.000000,0.000000,,,,,,,,,,,,,,,,,,,,,,,,,,,,
1732156398.889864,1732156398.891158,38.000000,0.000000,4311.025879,4280.256348,4319.230957,4316.282227,4284.102539,4303.846191,4334.487305,4391.666504,4320.384766,4302.179688,4471.282227,4501.794922,4312.948730,4410.384766,0.000000,1.000000,28.000000,,,,0.000000,2.000000,2.000000,0.000000,4.000000,2.000000,2.000000,0.000000,0.000000,4.000000,4.000000,4.000000,4.000000,4.000000,4.000000,0.000000,,,,,,,,,,,,,,,,,,,,,,,,,,,,
1732156398.897672,1732156398.898966,39.000000,0.000000,4314.230957,4277.948730,4317.820313,4321.282227,4271.282227,4301.153809,4334.230957,4391.794922,4315.128418,4299.487305,4478.077148,4507.692383,4317.179688,4417.307617,0.000000,1.000000,28.000000,,,,0.000000,2.000000,2.000000,0.000000,4.000000,2.000000,2.000000,0.000000,0.000000,4.000000,4.000000,4.000000,4.000000,4.000000,4.000000,0.000000,,,,,,,,,,,,,,,,,,,,,,,,,,,,
1732156398.905481,1732156398.906674,40.000000,0.000000,4314.230957,4278.589844,4318.333496,4315.897461,4280.384766,4303.205078,4333.461426,4393.205078,4313.846191,4298.846191,4470.641113,4504.743652,4314.871582,4410.641113,0.000000,1.000000,28.000000,,,,0.000000,2.000000,2.000000,0.000000,4.000000,2.000000,2.000000,0.000000,0.000000,4.000000,4.000000,4.000000,4.000000,4.000000,4.000000,0.000000,,,,,,,,,,,,,,,,,10.000000,0.000000,0.668951,-0.106567,-0.724060,-0.129944,0.988402,0.024905,-0.069344,-67.280441,31.698065,43.883236
1732156398.913289,1732156398.914483,41.000000,0.000000,4306.922852,4277.948730,4319.615234,4313.077148,4287.563965,4304.102539,4334.871582,4391.410156,4315.897461,4295.384766,4461.282227,4491.410156,4306.794922,4402.051270,0.000000,1.000000,28.000000,,,,0.000000,2.000000,2.000000,0.000000,4.000000,2.000000,2.000000,0.000000,0.000000,4.000000,4.000000,4.000000,4.000000,4.000000,4.000000,0.000000,,,,,,,,,,,,,,,,,,,,,,,,,,,,
1732156398.921097,1732156398.922091,42.000000,0.000000,4307.563965,4273.589844,4320.256348,4315.512695,4284.230957,4294.358887,4336.282227,4391.282227,4318.077148,4294.871582,4472.436035,4495.256348,4309.102539,4410.897461,0.000000,1.000000,28.000000,,,,0.000000,2.000000,2.000000,0.000000,4.000000,2.000000,2.000000,0.000000,0.000000,4.000000,4.000000,4.000000,4.000000,4.000000,4.000000,0.000000,,,,,,,,,,,,,,,,,,,,,,,,,,,,
1732156398.928905,1732156398.929899,43.000000,0.000000,4315.897461,4272.179688,4315.000000,4313.461426,4284.358887,4295.000000,4336.025879,4395.641113,4319.358887,4296.538574,4476.282227,4503.205078,4312.307617,4416.153809,0.000000,1.000000,28.000000,,,,0.000000,2.000000,2.000000,0.000000,4.000000,2.000000,2.000000,0.000000,0.000000,4.000000,4.000000,4.000000,4.000000,4.000000,4.000000,0.000000,,,,,,,,,,,,,,,,,,,,,,,,,,,,
1732156398.936714,1732156398.937608,44.000000,0.000000,4317.692383,4273.589844,4313.589844,4312.563965,4281.025879,4304.615234,4334.358887,4396.794922,4317.820313,4295.256348,4463.974121,4494.743652,4311.153809,4405.000000,0.000000,1.000000,28.000000,,,,0.000000,2.000000,2.000000,0.000000,4.000000,2.000000,2.000000,0.000000,0.000000,4.000000,4.000000,4.000000,4.000000,4.000000,4.000000,0.000000,,,,,,,,,,,,,,,,,11.000000,0.000000,0.668929,-0.106628,-0.724060,-0.130005,0.988402,0.024905,-0.069344,-67.448822,31.660433,43.778755
1732156398.944522,1732156398.945416,45.000000,0.000000,4310.897461,4272.307617,4317.820313,4313.205078,4290.512695,4301.153809,4331.153809,4391.538574,4311.922852,4287.692383,4455.897461,4485.384766,4302.563965,4395.897461,0.000000,1.000000,28.000000,,,,0.000000,2.000000,2.000000,0.000000,4.000000,2.000000,2.000000,0.000000,0.000000,4.000000,4.000000,4.000000,4.000000,4.000000,4.000000,0.000000,,,,,,,,,,,,,,,,,,,,,,,,,,,,
1732156398.952330,1732156398.953424,46.000000,0.000000,4308.589844,4273.461426,4321.538574,4312.307617,4303.333496,4296.794922,4332.820313,4389.487305,4306.666504,4281.410156,4457.563965,4489.487305,4295.641113,4400.512695,0.000000,1.000000,28.000000,,,,0.000000,2.000000,2.000000,0.000000,4.000000,2.000000,2.000000,0.000000,0.000000,4.000000,4.000000,4.000000,4.000000,4.000000,4.000000,0.000000,,,,,,,,,,,,,,,,,,,,,,,,,,,,
1732156398.960138,1732156398.961232,47.000000,0.000000,4315.641113,4277.307617,4316.666504,4316.025879,4290.384766,4307.948730,4336.666504,4394.743652,4312.948730,4285.512695,4458.974121,4496.025879,4301.538574,4403.717773,0.000000,1.000000,28.000000,,,,0.000000,2.000000,2.000000,0.000000,4.000000,2.000000,2.000000,0.000000,0.000000,4.000000,4.000000,4.000000,4.000000,4.000000,4.000000,0.000000,,,,,,,,,,,,,,,,,,,,,,,,,,,,
1732156398.967946,1732156398.968940,48.000000,0.000000,4319.615234,4273.461426,4317.179688,4319.230957,4274.615234,4311.922852,4337.820313,4395.384766,4325.641113,4294.102539,4457.820313,4492.820313,4305.512695,4398.205078,0.000000,1.000000,28.000000,,,,0.000000,2.000000,2.000000,0.000000,4.000000,2.000000,2.000000,0.000000,0.000000,4.000000,4.000000,4.000000,4.000000,4.000000,4.000000,0.000000,,,,,,,,,,,,,,,,,12.000000,0.000000,0.668844,-0.107056,-0.723999,-0.130432,1.000610,0.036137,-0.070321,-67.353546,31.783283,43.805790
1732156398.975755,1732156398.976749,49.000000,0.000000,4318.717773,4271.410156,4320.897461,4318.077148,4280.000000,4298.717773,4336.410156,4394.102539,4320.897461,4293.846191,4457.307617,4490.256348,4301.282227,4399.358887,0.000000,1.000000,28.000000,,,,0.000000,2.000000,2.000000,0.000000,4.000000,2.000000,2.000000,0.000000,0.000000,4.000000,4.000000,4.000000,4.000000,4.000000,4.000000,0.000000,,,,,,,,,,,,,,,,,,,,,,,,,,,,
1732156398.983563,1732156398.984757,50.000000,0.000000,4321.282227,4280.384766,4320.641113,4319.102539,4287.692383,4291.666504,4336.153809,4396.153809,4308.717773,4288.205078,4459.102539,4498.589844,4305.641113,4411.025879,0.000000,1.000000,28.000000,,,,0.000000,2.000000,2.000000,0.000000,4.000000,2.000000,2.000000,0.000000,0.000000,4.000000,4.000000,4.000000,4.000000,4.000000,4.000000,0.000000,,,,,,,,,,,,,,,,,,,,,,,,,,,,
1732156398.991371,1732156398.992565,51.000000,0.000000,4322.436035,4285.256348,4315.641113,4323.205078,4288.974121,4297.436035,4337.051270,4394.102539,4311.025879,4290.897461,4461.410156,4509.358887,4313.205078,4414.358887,0.000000,1.000000,28.000000,,,,0.000000,2.000000,2.000000,0.000000,4.000000,2.000000,2.000000,0.000000,0.000000,4.000000,4.000000,4.000000,4.000000,4.000000,4.000000,0.000000,,,,,,,,,,,,,,,,,,,,,,,,,,,,
1732156398.999179,1732156399.000473,52.000000,0.000000,4315.512695,4279.230957,4316.666504,4321.410156,4294.871582,4299.358887,4335.256348,4390.512695,4313.589844,4293.589844,4461.922852,4509.230957,4309.871582,4404.230957,0.000000,1.000000,28.000000,,,,0.000000,2.000000,2.000000,0.000000,4.000000,2.000000,2.000000,0.000000,0.000000,4.000000,4.000000,4.000000,4.000000,4.000000,4.000000,0.000000,,,,,,,,,,,,,,,,,13.000000,0.000000,0.668782,-0.107178,-0.724060,-0.130310,0.980100,0.044439,-0.065926,-67.226372,31.882793,43.794357
1732156399.006988,1732156399.008281,53.000000,0.000000,4310.512695,4275.641113,4322.051270,4318.717773,4294.487305,4295.512695,4334.487305,4394.230957,4311.922852,4290.641113,4461.282227,4499.230957,4305.769043,4397.692383,0.000000,1.000000,28.000000,,,,0.000000,2.000000,2.000000,0.000000,4.000000,2.000000,2.000000,0.000000,0.000000,4.000000,4.000000,4.000000,4.000000,4.000000,4.000000,0.000000,,,,,,,,,,,,,,,,,,,,,,,,,,,,
1732156399.014796,1732156399.015889,54.000000,0.000000,4312.948730,4278.717773,4320.384766,4318.589844,4293.846191,4298.333496,4336.025879,4395.641113,4316.025879,4293.205078,4460.512695,4492.820313,4307.179688,4397.179688,0.000000,1.000000,28.000000,,,,0.000000,2.000000,2.000000,0.000000,4.000000,2.000000,2.000000,0.000000,0.000000,4.000000,4.000000,4.000000,4.000000,4.000000,4.000000,0.000000,,,,,,,,,,,,,,,,,,,,,,,,,,,,
1732156399.022604,1732156399.023698,55.000000,0.000000,4315.256348,4278.077148,4316.538574,4317.563965,4302.692383,4301.922852,4335.256348,4391.922852,4317.051270,4296.025879,4461.410156,4497.307617,4310.512695,4397.436035,0.000000,1.000000,28.000000,,,,0.000000,2.000000,2.000000,0.000000,4.000000,2.000000,2.000000,0.000000,0.000000,4.000000,4.000000,4.000000,4.000000,4.000000,4.000000,0.000000,,,,,,,,,,,,,,,,,,,,,,,,,,,,
1732156399.030412,1732156399.031606,56.000000,0.000000,4314.487305,4274.487305,4317.436035,4316.922852,4298.077148,4298.974121,4334.358887,4391.282227,4316.410156,4295.641113,4467.948730,4504.743652,4313.461426,4404.230957,0.000000,1.000000,28.000000,,,,0.000000,2.000000,2.000000,0.000000,4.000000,2.000000,2.000000,0.000000,0.000000,4.000000,4.000000,4.000000,4.000000,4.000000,4.000000,0.000000,,,,,,,,,,,,,,,,,14.000000,0.000000,0.668708,-0.107300,-0.724121,-0.130249,0.976682,0.063484,-0.077158,-67.468361,31.968395,43.706764
1732156399.038221,1732156399.039414,57.000000,0.000000,4314.487305,4272.179688,4322.051270,4318.205078,4281.025879,4299.743652,4336.922852,4392.692383,4319.102539,4294.230957,4475.384766,4507.179688,4314.871582,4409.615234,0.000000,1.000000,28.000000,,,,0.000000,2.000000,2.000000,0.000000,4.000000,2.000000,2.000000,0.000000,0.000000,4.000000,4.000000,4.000000,4.000000,4.000000,4.000000,0.000000,,,,,,,,,,,,,,,,,,,,,,,,,,,,
1732156399.046029,1732156399.047422,58.000000,0.000000,4312.051270,4272.692383,4320.128418,4319.358887,4277.436035,4307.179688,4337.051270,4392.692383,4317.692383,4295.128418,4471.025879,4502.692383,4315.256348,4403.205078,0.000000,1.000000,28.000000,,,,0.000000,2.000000,2.000000,0.000000,4.000000,2.000000,2.000000,0.000000,0.000000,4.000000,4.000000,4.000000,4.000000,4.000000,4.000000,0.000000,,,,,,,,,,,,,,,,,,,,,,,,,,,,
1732156399.053837,1732156399.055230,59.000000,0.000000,4308.077148,4272.051270,4318.974121,4315.000000,4293.461426,4306.666504,4335.000000,4393.717773,4315.128418,4295.384766,4461.025879,4492.179688,4315.000000,4395.128418,0.000000,1.000000,28.000000,,,,0.000000,2.000000,2.000000,0.000000,4.000000,2.000000,2.000000,0.000000,0.000000,4.000000,4.000000,4.000000,4.000000,4.000000,4.000000,0.000000,,,,,,,,,,,,,,,,,,,,,,,,,,,,
1732156399.061645,1732156399.063138,60.000000,0.000000,4310.641113,4272.692383,4318.846191,4311.282227,4298.589844,4297.436035,4334.871582,4393.461426,4316.922852,4292.948730,4464.615234,4488.333496,4319.615234,4397.051270,0.000000,1.000000,28.000000,,,,0.000000,2.000000,2.000000,0.000000,4.000000,2.000000,2.000000,0.000000,0.000000,4.000000,4.000000,4.000000,4.000000,4.000000,4.000000,0.000000,,,,,,,,,,,,,,,,,15.000000,0.000000,0.668580,-0.107117,-0.724365,-0.129700,0.995239,0.041997,-0.065438,-67.632706,32.259399,43.604145
1732156399.069454,1732156399.070947,61.000000,0.000000,4316.153809,4276.666504,4318.974121,4314.871582,4283.077148,4297.307617,4335.000000,4393.461426,4318.205078,4295.641113,4474.871582,4499.358887,4326.282227,4400.000000,0.000000,1.000000,28.000000,,,,0.000000,2.000000,2.000000,0.000000,4.000000,2.000000,2.000000,0.000000,0.000000,4.000000,4.000000,4.000000,4.000000,4.000000,4.000000,0.000000,,,,,,,,,,,,,,,,,,,,,,,,,,,,
1732156399.077262,1732156399.078955,62.000000,0.000000,4317.436035,4278.077148,4317.307617,4320.384766,4277.179688,4304.230957,4334.102539,4393.333496,4317.436035,4303.077148,4473.846191,4507.307617,4326.922852,4398.333496,0.000000,1.000000,28.000000,,,,0.000000,2.000000,2.000000,0.000000,4.000000,2.000000,2.000000,0.000000,0.000000,4.000000,4.000000,4.000000,4.000000,4.000000,4.000000,0.000000,,,,,,,,,,,,,,,,,,,,,,,,,,,,
1732156399.085070,1732156399.086763,63.000000,0.000000,4313.333496,4275.897461,4317.948730,4317.820313,4284.102539,4303.205078,4334.102539,4392.563965,4315.769043,4301.794922,4471.922852,4505.512695,4325.641113,4398.974121,0.000000,1.000000,28.000000,,,,0.000000,2.000000,2.000000,0.000000,4.000000,2.000000,2.000000,0.000000,0.000000,4.000000,4.000000,4.000000,4.000000,4.000000,4.000000,0.000000,,,,,,,,,,,,,,,,,,,,,,,,,,,,
1732156399.092878,1732156399.094671,64.000000,0.000000,4309.230957,4279.102539,4316.666504,4313.077148,4283.333496,4296.153809,4332.563965,4394.743652,4313.205078,4296.153809,4476.666504,4501.282227,4327.051270,4399.743652,0.000000,1.000000,28.000000,,,,0.000000,2.000000,2.000000,0.000000,4.000000,2.000000,2.000000,0.000000,0.000000,4.000000,4.000000,4.000000,4.000000,4.000000,4.000000,0.000000,,,,,,,,,,,,,,,,,16.000000,0.000000,0.668662,-0.107178,-0.724487,-0.128540,0.981565,0.043462,-0.073251,-67.374161,32.051781,43.806023
1732156399.100687,1732156399.102479,65.000000,0.000000,4310.384766,4283.717773,4316.410156,4314.487305,4278.461426,4294.871582,4335.000000,4396.538574,4315.000000,4298.077148,4470.897461,4494.871582,4326.666504,4398.205078,1586.000000,1.000000,28.000000,,,,0.000000,2.000000,2.000000,0.000000,4.000000,2.000000,2.000000,0.000000,0.000000,4.000000,4.000000,4.000000,4.000000,4.000000,4.000000,0.000000,,,,,,,,,,,,,,,,,,,,,,,,,,,,
1732156399.108495,1732156399.110487,66.000000,0.000000,4315.769043,4279.615234,4316.538574,4314.871582,4279.615234,4297.179688,4338.461426,4392.179688,4313.461426,4296.666504,4461.666504,4488.205078,4324.102539,4397.948730,1419.000000,1.000000,28.000000,,,,0.000000,2.000000,2.000000,0.000000,4.000000,2.000000,2.000000,0.000000,0.000000,4.000000,4.000000,4.000000,4.000000,4.000000,4.000000,0.000000,,,,,,,,,,,,,,,,,,,,,,,,,,,,
1732156399.116303,1732156399.118295,67.000000,0.000000,4318.589844,4276.282227,4318.461426,4314.743652,4279.487305,4294.102539,4335.128418,4391.153809,4309.230957,4294.487305,4467.948730,4490.128418,4325.897461,4401.025879,1412.000000,1.000000,28.000000,,,,0.000000,2.000000,2.000000,0.000000,4.000000,2.000000,2.000000,0.000000,0.000000,4.000000,4.000000,4.000000,4.000000,4.000000,4.000000,0.000000,,,,,,,,,,,,,,,,,,,,,,,,,,,,
1732156399.124111,1732156399.126203,68.000000,0.000000,4314.487305,4278.589844,4316.282227,4314.230957,4280.512695,4292.051270,4333.205078,4395.897461,4315.897461,4306.025879,4476.282227,4499.230957,4328.333496,4402.948730,1394.000000,1.000000,28.000000,,,,0.000000,2.000000,2.000000,0.000000,4.000000,2.000000,2.000000,0.000000,0.000000,4.000000,4.000000,4.000000,4.000000,4.000000,4.000000,0.000000,,,,,,,,,,,,,,,,,17.000000,0.000000,0.668550,-0.107605,-0.724548,-0.128418,0.972287,0.027835,-0.077158,-67.558067,31.916943,43.886211
1732156399.131920,1732156399.134012,69.000000,0.000000,4310.256348,4276.153809,4313.205078,4312.179688,4282.307617,4297.692383,4336.025879,4395.000000,4320.641113,4309.743652,4471.025879,4500.256348,4323.717773,4395.769043,1249.000000,1.000000,28.000000,,,,0.000000,2.000000,2.000000,0.000000,4.000000,2.000000,2.000000,0.000000,0.000000,4.000000,4.000000,4.000000,4.000000,4.000000,4.000000,0.000000,,,,,,,,,,,,,,,,,,,,,,,,,,,,
1732156399.139728,1732156399.142020,70.000000,0.000000,4309.487305,4271.025879,4315.256348,4310.897461,4278.461426,4301.922852,4336.666504,4392.051270,4313.333496,4302.563965,4462.948730,4493.846191,4320.512695,4385.769043,0.000000,1.000000,28.000000,,,,0.000000,2.000000,2.000000,0.000000,4.000000,2.000000,2.000000,0.000000,0.000000,4.000000,4.000000,4.000000,4.000000,4.000000,4.000000,0.000000,,,,,,,,,,,,,,,,,,,,,,,,,,,,
1732156399.147536,1732156399.149828,71.000000,0.000000,4310.128418,4273.077148,4316.538574,4309.230957,4287.051270,4299.487305,4335.000000,4392.948730,4308.717773,4302.179688,4459.743652,4489.230957,4321.922852,4383.846191,0.000000,1.000000,28.000000,,,,0.000000,2.000000,2.000000,0.000000,4.000000,2.000000,2.000000,0.000000,0.000000,4.000000,4.000000,4.000000,4.000000,4.000000,4.000000,0.000000,,,,,,,,,,,,,,,,,,,,,,,,,,,,
1732156399.155344,1732156399.157736,72.000000,0.000000,4309.230957,4278.974121,4315.000000,4308.077148,4296.153809,4295.641113,4336.922852,4392.820313,4307.563965,4302.563965,4460.128418,4488.589844,4317.563965,4389.230957,1539.000000,1.000000,28.000000,,,,0.000000,2.000000,2.000000,0.000000,4.000000,2.000000,2.000000,0.000000,0.000000,4.000000,4.000000,4.000000,4.000000,4.000000,4.000000,0.000000,,,,,,,,,,,,,,,,,18.000000,0.000000,0.668457,-0.107849,-0.724609,-0.128357,0.958125,0.031742,-0.082530,-67.467033,31.762724,44.026165
1732156399.163153,1732156399.165544,73.000000,0.000000,4308.461426,4280.641113,4313.974121,4312.051270,4283.205078,4295.128418,4336.538574,4390.256348,4306.282227,4302.051270,4462.820313,4490.512695,4316.922852,4394.102539,1686.000000,1.000000,28.000000,,,,0.000000,2.000000,2.000000,0.000000,4.000000,2.000000,2.000000,0.000000,0.000000,4.000000,4.000000,4.000000,4.000000,4.000000,4.000000,0.000000,,,,,,,,,,,,,,,,,,,,,,,,,,,,
1732156399.170961,1732156399.173152,74.000000,0.000000,4310.384766,4280.000000,4316.282227,4316.922852,4273.333496,4296.666504,4333.974121,4391.666504,4308.846191,4308.205078,4467.436035,4494.358887,4327.051270,4396.410156,1546.000000,1.000000,28.000000,,,,0.000000,2.000000,2.000000,0.000000,4.000000,2.000000,2.000000,0.000000,0.000000,4.000000,4.000000,4.000000,4.000000,4.000000,4.000000,0.000000,,,,,,,,,,,,,,,,,,,,,,,,,,,,
1732156399.178769,1732156399.180961,75.000000,0.000000,4312.948730,4282.051270,4315.128418,4317.820313,4280.769043,4298.333496,4334.743652,4391.794922,4310.897461,4309.487305,4470.128418,4493.205078,4330.128418,4397.307617,1581.000000,1.000000,28.000000,,,,0.000000,2.000000,2.000000,0.000000,4.000000,2.000000,2.000000,0.000000,0.000000,4.000000,4.000000,4.000000,4.000000,4.000000,4.000000,0.000000,,,,,,,,,,,,,,,,,,,,,,,,,,,,
1732156399.186577,1732156399.188669,76.000000,0.000000,4311.282227,4283.589844,4313.589844,4317.563965,4286.410156,4299.743652,4336.025879,4389.743652,4310.128418,4303.846191,4469.615234,4489.743652,4325.000000,4398.461426,1711.000000,1.000000,28.000000,,,,0.000000,2.000000,2.000000,0.000000,4.000000,2.000000,2.000000,0.000000,0.000000,4.000000,4.000000,4.000000,4.000000,4.000000,4.000000,0.000000,,,,,,,,,,,,,,,,,19.000000,0.000000,0.668188,-0.108643,-0.724792,-0.128052,0.980588,0.048834,-0.063484,-67.264969,31.851139,43.937862
1732156399.194385,1732156399.196477,77.000000,0.000000,4307.820313,4280.641113,4312.436035,4315.641113,4286.666504,4302.436035,4333.717773,4390.641113,4310.256348,4305.000000,4469.487305,4493.461426,4327.051270,4399.871582,1698.000000,1.000000,28.000000,,,,0.000000,2.000000,2.000000,0.000000,4.000000,2.000000,2.000000,0.000000,0.000000,4.000000,4.000000,4.000000,4.000000,4.000000,4.000000,0.000000,,,,,,,,,,,,,,,,,,,,,,,,,,,,
1732156399.202194,1732156399.204086,78.000000,0.000000,4309.358887,4278.846191,4315.897461,4310.384766,4285.128418,4302.179688,4333.077148,4391.410156,4308.846191,4306.538574,4467.692383,4495.256348,4331.666504,4398.846191,1546.000000,1.000000,28.000000,,,,0.000000,2.000000,2.000000,0.000000,4.000000,2.000000,2.000000,0.000000,0.000000,4.000000,4.000000,4.000000,4.000000,4.000000,4.000000,0.000000,1.000000,0.000000,2.000000,2.000000,0.000000,4.000000,2.000000,2.000000,0.000000,0.000000,4.000000,4.000000,4.000000,4.000000,4.000000,4.000000,,,,,,,,,,,,
1732156399.210002,1732156399.211894,79.000000,0.000000,4312.563965,4284.487305,4316.025879,4307.179688,4281.666504,4295.128418,4335.512695,4390.769043,4306.666504,4304.615234,4465.512695,4492.307617,4334.230957,4398.974121,1581.000000,1.000000,28.000000,,,,0.000000,2.000000,2.000000,0.000000,4.000000,2.000000,2.000000,0.000000,0.000000,4.000000,4.000000,4.000000,4.000000,4.000000,4.000000,0.000000,,,,,,,,,,,,,,,,,,,,,,,,,,,,
1732156399.217810,1732156399.219602,80.000000,0.000000,4311.794922,4287.307617,4315.769043,4306.025879,4282.820313,4289.743652,4335.256348,4391.666504,4306.282227,4307.051270,4470.000000,4495.769043,4335.897461,4403.846191,1711.000000,1.000000,28.000000,,,,0.000000,2.000000,2.000000,0.000000,4.000000,2.000000,2.000000,0.000000,0.000000,4.000000,4.000000,4.000000,4.000000,4.000000,4.000000,0.000000,,,,,,,,,,,,,,,,,20.000000,0.000000,0.668157,-0.108643,-0.724854,-0.127869,0.973752,0.048346,-0.078135,-67.161285,31.946089,44.014668
1732156399.225618,1732156399.227410,81.000000,0.000000,4310.512695,4281.794922,4316.666504,4306.025879,4279.230957,4293.205078,4334.615234,4392.948730,4308.846191,4310.512695,4476.282227,4500.897461,4333.974121,4403.846191,1698.000000,1.000000,28.000000,,,,0.000000,2.000000,2.000000,0.000000,4.000000,2.000000,2.000000,0.000000,0.000000,4.000000,4.000000,4.000000,4.000000,4.000000,4.000000,0.000000,,,,,,,,,,,,,,,,,,,,,,,,,,,,
1732156399.233427,1732156399.235019,82.000000,0.000000,4311.153809,4277.307617,4318.589844,4303.846191,4278.589844,4295.512695,4334.871582,4391.666504,4308.846191,4304.230957,4468.333496,4497.820313,4329.358887,4397.563965,1546.000000,1.000000,28.000000,,,,0.000000,2.000000,2.000000,0.000000,4.000000,2.000000,2.000000,0.000000,0.000000,4.000000,4.000000,4.000000,4.000000,4.000000,4.000000,0.000000,,,,,,,,,,,,,,,,,,,,,,,,,,,,
1732156399.241235,1732156399.242827,83.000000,0.000000,4312.563965,4277.948730,4315.128418,4302.563965,4293.846191,4291.410156,4334.102539,4390.128418,4304.871582,4295.256348,4460.641113,4496.410156,4327.051270,4397.563965,1581.000000,1.000000,28.000000,,,,0.000000,2.000000,2.000000,0.000000,4.000000,2.000000,2.000000,0.000000,0.000000,4.000000,4.000000,4.000000,4.000000,4.000000,4.000000,0.000000,,,,,,,,,,,,,,,,,,,,,,,,,,,,
1732156399.249043,1732156399.250535,84.000000,0.000000,4313.333496,4281.282227,4312.820313,4305.512695,4289.743652,4291.666504,4335.897461,4391.025879,4305.641113,4297.179688,4470.384766,4504.871582,4328.589844,4403.461426,1711.000000,1.000000,28.000000,,,,0.000000,2.000000,2.000000,0.000000,4.000000,2.000000,2.000000,0.000000,0.000000,4.000000,4.000000,4.000000,4.000000,4.000000,4.000000,0.000000,,,,,,,,,,,,,,,,,21.000000,0.000000,0.668102,-0.108643,-0.724915,-0.127808,0.971798,0.025882,-0.078135,-67.130646,31.924665,43.948547
1732156399.256852,1732156399.258344,85.000000,0.000000,4309.102539,4281.410156,4315.128418,4308.461426,4267.436035,4296.410156,4338.717773,4392.692383,4310.641113,4301.410156,4472.692383,4505.256348,4330.769043,4403.077148,1698.000000,1.000000,28.000000,,,,0.000000,2.000000,2.000000,0.000000,4.000000,2.000000,2.000000,0.000000,0.000000,4.000000,4.000000,4.000000,4.000000,4.000000,4.000000,0.000000,,,,,,,,,,,,,,,,,,,,,,,,,,,,
1732156399.264660,1732156399.265952,86.000000,0.000000,4300.000000,4277.563965,4315.128418,4305.256348,4270.512695,4298.461426,4336.538574,4392.051270,4310.128418,4297.692383,4461.410156,4492.948730,4328.461426,4394.230957,1546.000000,1.000000,28.000000,,,,0.000000,2.000000,2.000000,0.000000,4.000000,2.000000,2.000000,0.000000,0.000000,4.000000,4.000000,4.000000,4.000000,4.000000,4.000000,0.000000,,,,,,,,,,,,,,,,,,,,,,,,,,,,
1732156399.272468,1732156399.273760,87.000000,0.000000,4294.743652,4276.666504,4314.871582,4302.436035,4286.153809,4298.205078,4335.384766,4390.512695,4307.307617,4294.102539,4455.897461,4488.461426,4322.179688,4389.358887,1581.000000,1.000000,28.000000,,,,0.000000,2.000000,2.000000,0.000000,4.000000,2.000000,2.000000,0.000000,0.000000,4.000000,4.000000,4.000000,4.000000,4.000000,4.000000,0.000000,,,,,,,,,,,,,,,,,,,,,,,,,,,,
1732156399.280276,1732156399.281468,88.000000,0.000000,4294.871582,4278.974121,4315.512695,4305.128418,4279.743652,4298.589844,4338.589844,4390.256348,4310.256348,4299.358887,4461.410156,4492.948730,4322.563965,4393.846191,1711.000000,1.000000,28.000000,,,,0.000000,2.000000,2.000000,0.000000,4.000000,2.000000,2.000000,0.000000,0.000000,4.000000,4.000000,4.000000,4.000000,4.000000,4.000000,0.000000,,,,,,,,,,,,,,,,,22.000000,0.000000,0.668093,-0.108704,-0.724915,-0.127808,0.974728,0.053229,-0.063484,-66.897491,31.962313,43.958324
1732156399.288084,1732156399.289277,89.000000,0.000000,4297.179688,4279.743652,4315.256348,4305.641113,4273.974121,4296.282227,4338.205078,4391.410156,4310.897461,4300.512695,4463.717773,4494.615234,4328.974121,4398.205078,1698.000000,1.000000,28.000000,,,,0.000000,2.000000,2.000000,0.000000,4.000000,2.000000,2.000000,0.000000,0.000000,4.000000,4.000000,4.000000,4.000000,4.000000,4.000000,0.000000,,,,,,,,,,,,,,,,,,,,,,,,,,,,
1732156399.295893,1732156399.296885,90.000000,0.000000,4300.384766,4281.666504,4312.307617,4304.230957,4290.256348,4294.230957,4333.974121,4390.897461,4309.487305,4295.641113,4461.282227,4492.307617,4328.717773,4395.641113,1546.000000,1.000000,28.000000,,,,0.000000,2.000000,2.000000,0.000000,4.000000,2.000000,2.000000,0.000000,0.000000,4.000000,4.000000,4.000000,4.000000,4.000000,4.000000,0.000000,,,,,,,,,,,,,,,,,,,,,,,,,,,,
1732156399.303701,1732156399.304693,91.000000,0.000000,4300.384766,4284.102539,4316.794922,4305.512695,4294.230957,4294.743652,4335.128418,4390.769043,4310.641113,4295.512695,4460.897461,4490.641113,4325.128418,4393.717773,1581.000000,1.000000,28.000000,,,,0.000000,2.000000,2.000000,0.000000,4.000000,2.000000,2.000000,0.000000,0.000000,4.000000,4.000000,4.000000,4.000000,4.000000,4.000000,0.000000,,,,,,,,,,,,,,,,,,,,,,,,,,,,
1732156399.311509,1732156399.312601,92.000000,0.000000,4297.820313,4281.922852,4318.974121,4307.051270,4278.333496,4293.589844,4335.897461,4392.179688,4312.179688,4297.948730,4463.205078,4490.769043,4328.461426,4395.256348,1711.000000,1.000000,28.000000,,,,0.000000,2.000000,2.000000,0.000000,4.000000,2.000000,2.000000,0.000000,0.000000,4.000000,4.000000,4.000000,4.000000,4.000000,4.000000,0.000000,,,,,,,,,,,,,,,,,23.000000,0.000000,0.668191,-0.108459,-0.724915,-0.127502,0.977658,0.026370,-0.079111,-66.775299,32.142807,43.982910
1732156399.319317,1732156399.320410,93.000000,0.000000,4296.410156,4277.692383,4316.282227,4304.615234,4271.153809,4294.102539,4336.282227,4394.487305,4313.461426,4296.666504,4464.615234,4491.922852,4330.512695,4392.820313,1698.000000,1.000000,28.000000,,,,0.000000,2.000000,2.000000,0.000000,4.000000,2.000000,2.000000,0.000000,0.000000,4.000000,4.000000,4.000000,4.000000,4.000000,4.000000,0.000000,,,,,,,,,,,,,,,,,,,,,,,,,,,,
1732156399.327126,1732156399.328418,94.000000,0.000000,4295.769043,4276.153809,4313.717773,4302.692383,4279.230957,4298.461426,4337.692383,4393.717773,4310.769043,4294.230957,4462.563965,4491.538574,4329.102539,4391.410156,1546.000000,1.000000,28.000000,,,,0.000000,2.000000,2.000000,0.000000,4.000000,2.000000,2.000000,0.000000,0.000000,4.000000,4.000000,4.000000,4.000000,4.000000,4.000000,0.000000,,,,,,,,,,,,,,,,,,,,,,,,,,,,
1732156399.334934,1732156399.336226,95.000000,0.000000,4296.794922,4275.256348,4315.897461,4302.051270,4278.461426,4300.128418,4336.410156,4389.230957,4308.205078,4294.615234,4461.666504,4490.000000,4331.282227,4395.384766,1581.000000,1.000000,28.000000,,,,0.000000,2.000000,2.000000,0.000000,4.000000,2.000000,2.000000,0.000000,0.000000,4.000000,4.000000,4.000000,4.000000,4.000000,4.000000,0.000000,,,,,,,,,,,,,,,,,,,,,,,,,,,,
1732156399.342742,1732156399.344134,96.000000,0.000000,4298.461426,4273.205078,4315.641113,4297.948730,4280.641113,4296.410156,4335.000000,4389.358887,4309.615234,4292.820313,4461.025879,4491.025879,4329.358887,4397.051270,1711.000000,1.000000,28.000000,,,,0.000000,2.000000,2.000000,0.000000,4.000000,2.000000,2.000000,0.000000,0.000000,4.000000,4.000000,4.000000,4.000000,4.000000,4.000000,0.000000,,,,,,,,,,,,,,,,,24.000000,0.000000,0.668224,-0.108398,-0.724915,-0.127380,0.977170,0.036137,-0.068368,-66.624657,32.124008,44.084488
1732156399.350550,1732156399.351942,97.000000,0.000000,4296.282227,4271.538574,4316.025879,4294.615234,4293.333496,4292.179688,4336.538574,4392.051270,4306.410156,4288.974121,4458.589844,4490.256348,4323.846191,4393.974121,1698.000000,1.000000,28.000000,,,,0.000000,2.000000,2.000000,0.000000,4.000000,2.000000,2.000000,0.000000,0.000000,4.000000,4.000000,4.000000,4.000000,4.000000,4.000000,0.000000,,,,,,,,,,,,,,,,,,,,,,,,,,,,
1732156399.358359,1732156399.359950,98.000000,0.000000,4293.589844,4274.615234,4314.615234,4295.128418,4288.333496,4293.846191,4337.692383,4391.153809,4302.436035,4289.230957,4457.692383,4488.974121,4327.307617,4393.333496,1546.000000,1.000000,28.000000,,,,0.000000,2.000000,2.000000,0.000000,4.000000,2.000000,2.000000,0.000000,0.000000,4.000000,4.000000,4.000000,4.000000,4.000000,4.000000,0.000000,,,,,,,,,,,,,,,,,,,,,,,,,,,,
1732156399.366167,1732156399.367758,99.000000,0.000000,4294.615234,4277.820313,4314.102539,4298.205078,4273.461426,4295.897461,4335.897461,4388.846191,4306.282227,4293.461426,4458.974121,4490.256348,4332.692383,4396.538574,1581.000000,1.000000,28.000000,,,,0.000000,2.000000,2.000000,0.000000,4.000000,2.000000,2.000000,0.000000,0.000000,4.000000,4.000000,4.000000,4.000000,4.000000,4.000000,0.000000,,,,,,,,,,,,,,,,,,,,,,,,,,,,
1732156399.373975,1732156399.375467,100.000000,0.000000,4295.256348,4276.410156,4316.538574,4301.410156,4275.512695,4296.282227,4335.000000,4391.025879,4314.230957,4295.512695,4459.358887,4491.538574,4330.128418,4396.153809,1711.000000,1.000000,28.000000,,,,0.000000,2.000000,2.000000,0.000000,4.000000,2.000000,2.000000,0.000000,0.000000,4.000000,4.000000,4.000000,4.000000,4.000000,4.000000,0.000000,,,,,,,,,,,,,,,,,25.000000,0.000000,0.668149,-0.108643,-0.724915,-0.127563,0.977170,0.036137,-0.068368,-66.442642,31.815445,44.068436
1732156399.381783,1732156399.383275,101.000000,0.000000,4295.384766,4277.820313,4317.307617,4305.769043,4286.025879,4299.102539,4336.153809,4392.820313,4313.974121,4293.589844,4458.974121,4489.230957,4330.000000,4393.205078,1698.000000,1.000000,28.000000,,,,0.000000,2.000000,2.000000,0.000000,4.000000,2.000000,2.000000,0.000000,0.000000,4.000000,4.000000,4.000000,4.000000,4.000000,4.000000,0.000000,,,,,,,,,,,,,,,,,,,,,,,,,,,,
