title:right, start timestamp:1732155951.095065, stop timestamp:1732155976.424999, headset type:EPOCX, headset serial:E5020C3A, headset firmware:730, channels:67, sampling rate:eeg_128;mot_32, samples:3245      , version:2.2, 
Timestamp,OriginalTimestamp,EEG.Counter,EEG.Interpolated,EEG.AF3,EEG.F7,EEG.F3,EEG.FC5,EEG.T7,EEG.P7,EEG.O1,EEG.O2,EEG.P8,EEG.T8,EEG.FC6,EEG.F4,EEG.F8,EEG.AF4,EEG.RawCq,EEG.Battery,EEG.BatteryPercent,MarkerIndex,MarkerType,MarkerValueInt,EEG.MarkerHardware,CQ.AF3,CQ.F7,CQ.F3,CQ.FC5,CQ.T7,CQ.P7,CQ.O1,CQ.O2,CQ.P8,CQ.T8,CQ.FC6,CQ.F4,CQ.F8,CQ.AF4,CQ.Overall,EQ.SampleRateQuality,EQ.OVERALL,EQ.AF3,EQ.F7,EQ.F3,EQ.FC5,EQ.T7,EQ.P7,EQ.O1,EQ.O2,EQ.P8,EQ.T8,EQ.FC6,EQ.F4,EQ.F8,EQ.AF4,MOT.CounterMems,MOT.InterpolatedMems,MOT.Q0,MOT.Q1,MOT.Q2,MOT.Q3,MOT.AccX,MOT.AccY,MOT.AccZ,MOT.MagX,MOT.MagY,MOT.MagZ
1732155951.095065,1732155951.096750,33.000000,0.000000,4295.512695,4296.025879,4312.051270,4299.743652,4279.230957,4293.461426,4337.179688,4392.179688,4314.230957,4291.794922,4460.000000,4485.256348,4341.282227,4387.436035,0.000000,1.000000,30.000000,,,,0.000000,2.000000,2.000000,0.000000,4.000000,2.000000,2.000000,0.000000,0.000000,4.000000,4.000000,4.000000,4.000000,4.000000,4.000000,0.000000,,,,,,,,,,,,,,,,,,,,,,,,,,,,
1732155951.102873,1732155951.104758,34.000000,0.000000,4295.256348,4293.077148,4312.051270,4303.077148,4271.538574,4291.538574,4335.641113,4391.538574,4314.487305,4295.000000,4461.282227,4488.717773,4339.871582,4386.922852,0.000000,1.000000,30.000000,,,,0.000000,2.000000,2.000000,0.000000,4.000000,2.000000,2.000000,0.000000,0.000000,4.000000,4.000000,4.000000,4.000000,4.000000,4.000000,0.000000,,,,,,,,,,,,,,,,,,,,,,,,,,,,
1732155951.110681,1732155951.112567,35.000000,0.000000,4300.128418,4295.897461,4311.282227,4303.717773,4283.077148,4284.743652,4336.025879,4393.589844,4314.487305,4295.128418,4461.153809,4494.358887,4339.871582,4394.487305,0.000000,1.000000,30.000000,,,,0.000000,2.000000,2.000000,0.000000,4.000000,2.000000,2.000000,0.000000,0.000000,4.000000,4.000000,4.000000,4.000000,4.000000,4.000000,0.000000,,,,,,,,,,,,,,,,,,,,,,,,,,,,
1732155951.118490,1732155951.120475,36.000000,0.000000,4301.538574,4299.615234,4309.871582,4306.153809,4287.948730,4279.615234,4339.743652,4395.641113,4315.000000,4293.077148,4460.641113,4494.102539,4343.333496,4400.000000,0.000000,1.000000,30.000000,,,,0.000000,2.000000,2.000000,0.000000,4.000000,2.000000,2.000000,0.000000,0.000000,4.000000,4.000000,4.000000,4.000000,4.000000,4.000000,0.000000,,,,,,,,,,,,,,,,,9.000000,0.000000,0.669911,-0.078308,-0.718567,-0.169556,0.968868,0.125015,-0.043462,-66.873032,37.852039,43.778786
1732155951.126298,1732155951.128283,37.000000,0.000000,4299.871582,4301.922852,4309.102539,4309.230957,4286.538574,4281.282227,4339.230957,4393.461426,4319.230957,4293.717773,4462.436035,4490.256348,4345.897461,4398.077148,0.000000,1.000000,30.000000,,,,0.000000,2.000000,2.000000,0.000000,4.000000,2.000000,2.000000,0.000000,0.000000,4.000000,4.000000,4.000000,4.000000,4.000000,4.000000,0.000000,,,,,,,,,,,,,,,,,,,,,,,,,,,,
1732155951.134106,1732155951.136291,38.000000,0.000000,4299.615234,4300.512695,4313.589844,4307.820313,4294.230957,4284.743652,4337.051270,4389.615234,4320.000000,4294.102539,4462.179688,4488.974121,4346.153809,4396.153809,0.000000,1.000000,30.000000,,,,0.000000,2.000000,2.000000,0.000000,4.000000,2.000000,2.000000,0.000000,0.000000,4.000000,4.000000,4.000000,4.000000,4.000000,4.000000,0.000000,,,,,,,,,,,,,,,,,,,,,,,,,,,,
1732155951.141914,1732155951.144099,39.000000,0.000000,4299.871582,4298.333496,4315.512695,4305.897461,4301.794922,4280.641113,4337.563965,4392.307617,4313.846191,4287.436035,4459.358887,4489.615234,4344.358887,4398.589844,0.000000,1.000000,30.000000,,,,0.000000,2.000000,2.000000,0.000000,4.000000,2.000000,2.000000,0.000000,0.000000,4.000000,4.000000,4.000000,4.000000,4.000000,4.000000,0.000000,,,,,,,,,,,,,,,,,,,,,,,,,,,,
1732155951.149722,1732155951.152007,40.000000,0.000000,4299.230957,4299.358887,4312.820313,4305.769043,4292.820313,4275.769043,4338.589844,4395.256348,4308.077148,4281.153809,4457.948730,4487.436035,4340.256348,4397.051270,0.000000,1.000000,30.000000,,,,0.000000,2.000000,2.000000,0.000000,4.000000,2.000000,2.000000,0.000000,0.000000,4.000000,4.000000,4.000000,4.000000,4.000000,4.000000,0.000000,,,,,,,,,,,,,,,,,10.000000,0.000000,0.669911,-0.078308,-0.718567,-0.169556,0.980100,0.133805,-0.049322,-66.870491,37.921818,43.610817
1732155951.157531,1732155951.159815,41.000000,0.000000,4299.615234,4298.589844,4310.769043,4305.512695,4276.410156,4280.512695,4338.589844,4391.410156,4308.846191,4285.384766,4457.948730,4489.358887,4342.820313,4393.077148,0.000000,1.000000,30.000000,,,,0.000000,2.000000,2.000000,0.000000,4.000000,2.000000,2.000000,0.000000,0.000000,4.000000,4.000000,4.000000,4.000000,4.000000,4.000000,0.000000,,,,,,,,,,,,,,,,,,,,,,,,,,,,
1732155951.165339,1732155951.167823,42.000000,0.000000,4300.897461,4295.769043,4312.179688,4304.358887,4275.384766,4288.077148,4338.077148,4387.692383,4315.384766,4292.948730,4458.589844,4491.410156,4348.205078,4395.769043,0.000000,1.000000,30.000000,,,,0.000000,2.000000,2.000000,0.000000,4.000000,2.000000,2.000000,0.000000,0.000000,4.000000,4.000000,4.000000,4.000000,4.000000,4.000000,0.000000,,,,,,,,,,,,,,,,,,,,,,,,,,,,
1732155951.173147,1732155951.175632,43.000000,0.000000,4299.230957,4296.153809,4314.102539,4303.461426,4287.051270,4287.948730,4338.461426,4391.025879,4316.794922,4292.820313,4460.256348,4490.256348,4347.436035,4399.358887,0.000000,1.000000,30.000000,,,,0.000000,2.000000,2.000000,0.000000,4.000000,2.000000,2.000000,0.000000,0.000000,4.000000,4.000000,4.000000,4.000000,4.000000,4.000000,0.000000,,,,,,,,,,,,,,,,,,,,,,,,,,,,
1732155951.180956,1732155951.183340,44.000000,0.000000,4296.922852,4297.051270,4312.307617,4303.077148,4290.384766,4283.717773,4339.615234,4392.563965,4311.025879,4289.743652,4461.282227,4491.025879,4345.384766,4396.666504,0.000000,1.000000,30.000000,,,,0.000000,2.000000,2.000000,0.000000,4.000000,2.000000,2.000000,0.000000,0.000000,4.000000,4.000000,4.000000,4.000000,4.000000,4.000000,0.000000,,,,,,,,,,,,,,,,,11.000000,0.000000,0.670172,-0.079041,-0.717896,-0.171021,0.983030,0.138200,-0.032230,-66.831764,37.810005,43.843094
1732155951.188764,1732155951.191148,45.000000,0.000000,4296.282227,4294.358887,4312.179688,4299.871582,4288.077148,4285.256348,4340.128418,4389.871582,4309.102539,4288.077148,4460.897461,4490.128418,4345.897461,4394.615234,0.000000,1.000000,30.000000,,,,0.000000,2.000000,2.000000,0.000000,4.000000,2.000000,2.000000,0.000000,0.000000,4.000000,4.000000,4.000000,4.000000,4.000000,4.000000,0.000000,,,,,,,,,,,,,,,,,,,,,,,,,,,,
1732155951.196572,1732155951.198757,46.000000,0.000000,4298.717773,4294.487305,4311.538574,4298.461426,4287.948730,4289.358887,4338.333496,4391.922852,4311.922852,4289.358887,4459.358887,4489.871582,4347.948730,4398.717773,0.000000,1.000000,30.000000,,,,0.000000,2.000000,2.000000,0.000000,4.000000,2.000000,2.000000,0.000000,0.000000,4.000000,4.000000,4.000000,4.000000,4.000000,4.000000,0.000000,,,,,,,,,,,,,,,,,,,,,,,,,,,,
1732155951.204380,1732155951.206565,47.000000,0.000000,4298.717773,4295.256348,4312.179688,4300.641113,4289.615234,4288.333496,4337.820313,4394.615234,4313.205078,4292.820313,4461.666504,4496.410156,4350.897461,4399.230957,0.000000,1.000000,30.000000,,,,0.000000,2.000000,2.000000,0.000000,4.000000,2.000000,2.000000,0.000000,0.000000,4.000000,4.000000,4.000000,4.000000,4.000000,4.000000,0.000000,,,,,,,,,,,,,,,,,,,,,,,,,,,,
1732155951.212188,1732155951.214273,48.000000,0.000000,4296.025879,4295.128418,4311.025879,4302.692383,4294.743652,4290.641113,4337.051270,4391.922852,4319.358887,4296.153809,4466.794922,4497.436035,4353.333496,4395.256348,0.000000,1.000000,30.000000,,,,0.000000,2.000000,2.000000,0.000000,4.000000,2.000000,2.000000,0.000000,0.000000,4.000000,4.000000,4.000000,4.000000,4.000000,4.000000,0.000000,,,,,,,,,,,,,,,,,12.000000,0.000000,0.670532,-0.078613,-0.717285,-0.172363,0.965938,0.144549,-0.036626,-66.855392,37.827770,43.917908
1732155951.219997,1732155951.222081,49.000000,0.000000,4296.794922,4295.641113,4311.538574,4300.897461,4289.615234,4296.922852,4336.922852,4390.641113,4322.307617,4297.307617,4465.641113,4495.512695,4352.051270,4395.128418,0.000000,1.000000,30.000000,,,,0.000000,2.000000,2.000000,0.000000,4.000000,2.000000,2.000000,0.000000,0.000000,4.000000,4.000000,4.000000,4.000000,4.000000,4.000000,0.000000,,,,,,,,,,,,,,,,,,,,,,,,,,,,
1732155951.227805,1732155951.229690,50.000000,0.000000,4295.897461,4294.871582,4308.589844,4300.769043,4291.153809,4295.256348,4338.846191,4392.563965,4316.794922,4296.282227,4460.641113,4497.051270,4348.589844,4396.025879,0.000000,1.000000,30.000000,,,,0.000000,2.000000,2.000000,0.000000,4.000000,2.000000,2.000000,0.000000,0.000000,4.000000,4.000000,4.000000,4.000000,4.000000,4.000000,0.000000,,,,,,,,,,,,,,,,,,,,,,,,,,,,
1732155951.235613,1732155951.237498,51.000000,0.000000,4294.615234,4295.769043,4312.948730,4302.692383,4305.641113,4287.307617,4338.461426,4391.922852,4313.333496,4295.641113,4460.897461,4496.025879,4349.487305,4396.025879,0.000000,1.000000,30.000000,,,,0.000000,2.000000,2.000000,0.000000,4.000000,2.000000,2.000000,0.000000,0.000000,4.000000,4.000000,4.000000,4.000000,4.000000,4.000000,0.000000,,,,,,,,,,,,,,,,,,,,,,,,,,,,
1732155951.243421,1732155951.245406,52.000000,0.000000,4297.948730,4301.025879,4316.153809,4305.000000,4297.307617,4285.897461,4336.538574,4389.487305,4315.641113,4296.794922,4463.333496,4491.410156,4351.922852,4397.948730,0.000000,1.000000,30.000000,,,,0.000000,2.000000,2.000000,0.000000,4.000000,2.000000,2.000000,0.000000,0.000000,4.000000,4.000000,4.000000,4.000000,4.000000,4.000000,0.000000,,,,,,,,,,,,,,,,,13.000000,0.000000,0.670977,-0.077637,-0.716858,-0.172852,0.977658,0.145037,-0.035649,-66.807869,37.963829,43.933506
1732155951.251230,1732155951.253214,53.000000,0.000000,4301.538574,4300.769043,4314.358887,4306.410156,4272.307617,4286.153809,4336.922852,4389.615234,4317.051270,4296.410156,4461.282227,4492.436035,4350.897461,4399.230957,0.000000,1.000000,30.000000,,,,0.000000,2.000000,2.000000,0.000000,4.000000,2.000000,2.000000,0.000000,0.000000,4.000000,4.000000,4.000000,4.000000,4.000000,4.000000,0.000000,,,,,,,,,,,,,,,,,,,,,,,,,,,,
1732155951.259038,1732155951.260823,54.000000,0.000000,4301.025879,4295.769043,4310.897461,4305.897461,4269.871582,4280.128418,4337.692383,4390.512695,4314.743652,4294.871582,4460.000000,4497.179688,4351.282227,4398.846191,0.000000,1.000000,30.000000,,,,0.000000,2.000000,2.000000,0.000000,4.000000,2.000000,2.000000,0.000000,0.000000,4.000000,4.000000,4.000000,4.000000,4.000000,4.000000,0.000000,,,,,,,,,,,,,,,,,,,,,,,,,,,,
1732155951.266846,1732155951.268631,55.000000,0.000000,4298.589844,4296.282227,4313.205078,4305.128418,4283.333496,4278.974121,4336.410156,4390.512695,4310.384766,4293.077148,4461.410156,4495.256348,4351.538574,4399.358887,0.000000,1.000000,30.000000,,,,0.000000,2.000000,2.000000,0.000000,4.000000,2.000000,2.000000,0.000000,0.000000,4.000000,4.000000,4.000000,4.000000,4.000000,4.000000,0.000000,,,,,,,,,,,,,,,,,,,,,,,,,,,,
1732155951.274655,1732155951.276339,56.000000,0.000000,4302.051270,4298.846191,4314.871582,4306.410156,4282.820313,4283.589844,4337.948730,4391.410156,4306.282227,4288.461426,4460.256348,4491.922852,4346.282227,4401.025879,0.000000,1.000000,30.000000,,,,0.000000,2.000000,2.000000,0.000000,4.000000,2.000000,2.000000,0.000000,0.000000,4.000000,4.000000,4.000000,4.000000,4.000000,4.000000,0.000000,,,,,,,,,,,,,,,,,14.000000,0.000000,0.670977,-0.077637,-0.716858,-0.172852,0.977658,0.145037,-0.035649,-66.709373,38.164036,43.811138
1732155951.282463,1732155951.284147,57.000000,0.000000,4304.871582,4297.948730,4312.179688,4309.487305,4282.692383,4284.358887,4338.077148,4390.641113,4308.589844,4289.743652,4459.487305,4492.692383,4345.897461,4401.410156,0.000000,1.000000,30.000000,,,,0.000000,2.000000,2.000000,0.000000,4.000000,2.000000,2.000000,0.000000,0.000000,4.000000,4.000000,4.000000,4.000000,4.000000,4.000000,0.000000,,,,,,,,,,,,,,,,,,,,,,,,,,,,
1732155951.290271,1732155951.291756,58.000000,0.000000,4301.922852,4297.563965,4312.820313,4308.974121,4300.128418,4284.871582,4337.563965,4390.384766,4311.922852,4294.102539,4460.897461,4493.461426,4349.615234,4400.897461,0.000000,1.000000,30.000000,,,,0.000000,2.000000,2.000000,0.000000,4.000000,2.000000,2.000000,0.000000,0.000000,4.000000,4.000000,4.000000,4.000000,4.000000,4.000000,0.000000,,,,,,,,,,,,,,,,,,,,,,,,,,,,
1732155951.298079,1732155951.299564,59.000000,0.000000,4299.358887,4301.666504,4312.563965,4305.512695,4306.794922,4287.948730,4337.692383,4392.179688,4311.410156,4293.846191,4462.051270,4493.205078,4350.000000,4399.230957,0.000000,1.000000,30.000000,,,,0.000000,2.000000,2.000000,0.000000,4.000000,2.000000,2.000000,0.000000,0.000000,4.000000,4.000000,4.000000,4.000000,4.000000,4.000000,0.000000,,,,,,,,,,,,,,,,,,,,,,,,,,,,
1732155951.305887,1732155951.307272,60.000000,0.000000,4301.025879,4302.692383,4311.025879,4304.743652,4287.179688,4285.384766,4337.692383,4392.307617,4312.563965,4295.128418,4461.282227,4493.333496,4349.871582,4398.333496,0.000000,1.000000,30.000000,,,,0.000000,2.000000,2.000000,0.000000,4.000000,2.000000,2.000000,0.000000,0.000000,4.000000,4.000000,4.000000,4.000000,4.000000,4.000000,0.000000,,,,,,,,,,,,,,,,,15.000000,0.000000,0.671349,-0.076843,-0.716492,-0.173279,0.954218,0.153339,-0.028812,-66.606262,38.239532,43.930355
1732155951.313696,1732155951.315080,61.000000,0.000000,4299.487305,4298.333496,4309.358887,4307.692383,4272.948730,4280.384766,4336.282227,4389.615234,4315.128418,4298.077148,4460.000000,4493.077148,4349.871582,4399.487305,0.000000,1.000000,30.000000,,,,0.000000,2.000000,2.000000,0.000000,4.000000,2.000000,2.000000,0.000000,0.000000,4.000000,4.000000,4.000000,4.000000,4.000000,4.000000,0.000000,,,,,,,,,,,,,,,,,,,,,,,,,,,,
1732155951.321504,1732155951.322689,62.000000,0.000000,4295.897461,4298.205078,4314.743652,4308.846191,4283.461426,4281.666504,4336.922852,4390.000000,4313.333496,4295.384766,4460.512695,4494.871582,4349.358887,4400.384766,0.000000,1.000000,30.000000,,,,0.000000,2.000000,2.000000,0.000000,4.000000,2.000000,2.000000,0.000000,0.000000,4.000000,4.000000,4.000000,4.000000,4.000000,4.000000,0.000000,,,,,,,,,,,,,,,,,,,,,,,,,,,,
1732155951.329312,1732155951.330497,63.000000,0.000000,4300.256348,4303.589844,4311.153809,4313.333496,4295.128418,4286.538574,4336.666504,4389.102539,4312.307617,4293.974121,4461.538574,4499.615234,4351.538574,4402.563965,0.000000,1.000000,30.000000,,,,0.000000,2.000000,2.000000,0.000000,4.000000,2.000000,2.000000,0.000000,0.000000,4.000000,4.000000,4.000000,4.000000,4.000000,4.000000,0.000000,,,,,,,,,,,,,,,,,,,,,,,,,,,,
1732155951.337120,1732155951.338405,64.000000,0.000000,4300.384766,4304.487305,4310.769043,4315.000000,4293.333496,4287.820313,4337.692383,4388.846191,4313.846191,4295.384766,4458.461426,4495.897461,4349.102539,4401.153809,0.000000,1.000000,30.000000,,,,0.000000,2.000000,2.000000,0.000000,4.000000,2.000000,2.000000,0.000000,0.000000,4.000000,4.000000,4.000000,4.000000,4.000000,4.000000,0.000000,,,,,,,,,,,,,,,,,16.000000,0.000000,0.671785,-0.074646,-0.716003,-0.174561,0.974240,0.172873,-0.029789,-66.557739,38.324024,44.211922
1732155951.344929,1732155951.346213,65.000000,0.000000,4294.102539,4301.282227,4313.077148,4308.589844,4293.846191,4287.051270,4338.589844,4390.512695,4310.897461,4293.846191,4456.538574,4488.846191,4344.230957,4396.666504,1619.000000,1.000000,30.000000,,,,0.000000,2.000000,2.000000,0.000000,4.000000,2.000000,2.000000,0.000000,0.000000,4.000000,4.000000,4.000000,4.000000,4.000000,4.000000,0.000000,,,,,,,,,,,,,,,,,,,,,,,,,,,,
1732155951.352737,1732155951.354221,66.000000,0.000000,4293.077148,4299.358887,4310.641113,4305.128418,4297.051270,4288.717773,4338.077148,4389.102539,4308.333496,4294.615234,4461.794922,4491.922852,4347.563965,4395.256348,1436.000000,1.000000,30.000000,,,,0.000000,2.000000,2.000000,0.000000,4.000000,2.000000,2.000000,0.000000,0.000000,4.000000,4.000000,4.000000,4.000000,4.000000,4.000000,0.000000,,,,,,,,,,,,,,,,,,,,,,,,,,,,
1732155951.360545,1732155951.362030,67.000000,0.000000,4295.769043,4298.333496,4306.922852,4308.333496,4297.820313,4288.589844,4336.922852,4388.589844,4312.051270,4299.358887,4464.487305,4495.000000,4352.563965,4397.820313,1434.000000,1.000000,30.000000,,,,0.000000,2.000000,2.000000,0.000000,4.000000,2.000000,2.000000,0.000000,0.000000,4.000000,4.000000,4.000000,4.000000,4.000000,4.000000,0.000000,,,,,,,,,,,,,,,,,,,,,,,,,,,,
1732155951.368353,1732155951.369738,68.000000,0.000000,4294.871582,4297.051270,4311.794922,4309.358887,4297.948730,4286.153809,4337.436035,4390.897461,4316.025879,4301.025879,4462.179688,4491.153809,4351.410156,4396.410156,1412.000000,1.000000,30.000000,,,,0.000000,2.000000,2.000000,0.000000,4.000000,2.000000,2.000000,0.000000,0.000000,4.000000,4.000000,4.000000,4.000000,4.000000,4.000000,0.000000,,,,,,,,,,,,,,,,,17.000000,0.000000,0.671855,-0.074036,-0.715942,-0.174805,0.974240,0.172873,-0.029789,-66.478432,38.369125,44.341656
1732155951.376161,1732155951.377546,69.000000,0.000000,4293.333496,4298.077148,4314.615234,4309.743652,4292.179688,4288.077148,4336.794922,4390.256348,4318.461426,4300.641113,4462.563965,4490.128418,4349.102539,4391.922852,1255.000000,1.000000,30.000000,,,,0.000000,2.000000,2.000000,0.000000,4.000000,2.000000,2.000000,0.000000,0.000000,4.000000,4.000000,4.000000,4.000000,4.000000,4.000000,0.000000,,,,,,,,,,,,,,,,,,,,,,,,,,,,
1732155951.383970,1732155951.385155,70.000000,0.000000,4295.000000,4299.487305,4310.512695,4312.692383,4298.846191,4287.948730,4335.256348,4388.717773,4317.307617,4298.717773,4462.179688,4490.128418,4349.230957,4391.410156,0.000000,1.000000,30.000000,,,,0.000000,2.000000,2.000000,0.000000,4.000000,2.000000,2.000000,0.000000,0.000000,4.000000,4.000000,4.000000,4.000000,4.000000,4.000000,0.000000,,,,,,,,,,,,,,,,,,,,,,,,,,,,
1732155951.391778,1732155951.392963,71.000000,0.000000,4295.384766,4297.820313,4310.128418,4311.538574,4315.384766,4286.410156,4336.025879,4391.666504,4311.666504,4295.897461,4459.615234,4489.615234,4349.230957,4392.692383,0.000000,1.000000,30.000000,,,,0.000000,2.000000,2.000000,0.000000,4.000000,2.000000,2.000000,0.000000,0.000000,4.000000,4.000000,4.000000,4.000000,4.000000,4.000000,0.000000,,,,,,,,,,,,,,,,,,,,,,,,,,,,
1732155951.399586,1732155951.400671,72.000000,0.000000,4295.512695,4298.589844,4310.256348,4311.025879,4305.897461,4288.461426,4336.666504,4389.615234,4311.025879,4295.897461,4460.897461,4490.128418,4349.615234,4393.333496,1544.000000,1.000000,30.000000,,,,0.000000,2.000000,2.000000,0.000000,4.000000,2.000000,2.000000,0.000000,0.000000,4.000000,4.000000,4.000000,4.000000,4.000000,4.000000,0.000000,,,,,,,,,,,,,,,,,18.000000,0.000000,0.672098,-0.073303,-0.715759,-0.174927,0.979612,0.126969,-0.038091,-66.514198,38.488991,44.371742
1732155951.407395,1732155951.408479,73.000000,0.000000,4295.769043,4298.974121,4309.871582,4311.794922,4280.128418,4286.538574,4336.538574,4388.717773,4316.794922,4298.205078,4461.922852,4491.538574,4350.769043,4391.153809,1706.000000,1.000000,30.000000,,,,0.000000,2.000000,2.000000,0.000000,4.000000,2.000000,2.000000,0.000000,0.000000,4.000000,4.000000,4.000000,4.000000,4.000000,4.000000,0.000000,,,,,,,,,,,,,,,,,,,,,,,,,,,,
1732155951.415203,1732155951.416487,74.000000,0.000000,4295.897461,4296.666504,4309.487305,4309.871582,4289.487305,4287.307617,4336.666504,4391.666504,4319.615234,4298.205078,4459.871582,4491.410156,4348.205078,4387.948730,1548.000000,1.000000,30.000000,,,,0.000000,2.000000,2.000000,0.000000,4.000000,2.000000,2.000000,0.000000,0.000000,4.000000,4.000000,4.000000,4.000000,4.000000,4.000000,0.000000,,,,,,,,,,,,,,,,,,,,,,,,,,,,
1732155951.423011,1732155951.424295,75.000000,0.000000,4295.128418,4295.000000,4312.179688,4310.512695,4311.538574,4293.333496,4337.179688,4393.205078,4316.025879,4296.153809,4458.077148,4490.256348,4344.358887,4386.794922,1591.000000,1.000000,30.000000,,,,0.000000,2.000000,2.000000,0.000000,4.000000,2.000000,2.000000,0.000000,0.000000,4.000000,4.000000,4.000000,4.000000,4.000000,4.000000,0.000000,,,,,,,,,,,,,,,,,,,,,,,,,,,,
1732155951.430819,1732155951.432204,76.000000,0.000000,4295.512695,4295.897461,4312.051270,4313.846191,4297.820313,4294.871582,4335.256348,4391.410156,4313.717773,4294.358887,4458.077148,4490.384766,4341.922852,4389.743652,1726.000000,1.000000,30.000000,,,,0.000000,2.000000,2.000000,0.000000,4.000000,2.000000,2.000000,0.000000,0.000000,4.000000,4.000000,4.000000,4.000000,4.000000,4.000000,0.000000,,,,,,,,,,,,,,,,,19.000000,0.000000,0.673002,-0.074829,-0.714722,-0.175049,0.963497,0.110365,-0.009767,-66.336502,38.519417,44.404446
1732155951.438627,1732155951.440012,77.000000,0.000000,4294.102539,4292.179688,4313.589844,4310.000000,4285.128418,4295.256348,4337.051270,4391.282227,4318.846191,4297.436035,4459.743652,4491.666504,4341.922852,4393.589844,1706.000000,1.000000,30.000000,,,,0.000000,2.000000,2.000000,0.000000,4.000000,2.000000,2.000000,0.000000,0.000000,4.000000,4.000000,4.000000,4.000000,4.000000,4.000000,0.000000,,,,,,,,,,,,,,,,,,,,,,,,,,,,
1732155951.446436,1732155951.448020,78.000000,0.000000,4292.948730,4290.897461,4315.000000,4307.307617,4296.538574,4298.461426,4342.436035,4391.410156,4324.230957,4302.820313,4461.666504,4491.410156,4342.820313,4394.743652,1548.000000,1.000000,30.000000,,,,0.000000,2.000000,2.000000,0.000000,4.000000,2.000000,2.000000,0.000000,0.000000,4.000000,4.000000,4.000000,4.000000,4.000000,4.000000,0.000000,1.000000,0.000000,2.000000,2.000000,0.000000,4.000000,2.000000,2.000000,0.000000,0.000000,4.000000,4.000000,4.000000,4.000000,4.000000,4.000000,,,,,,,,,,,,
1732155951.454244,1732155951.455828,79.000000,0.000000,4299.230957,4300.641113,4314.871582,4312.563965,4299.358887,4289.743652,4343.205078,4389.615234,4319.615234,4295.897461,4459.102539,4490.256348,4341.538574,4396.538574,1591.000000,1.000000,30.000000,,,,0.000000,2.000000,2.000000,0.000000,4.000000,2.000000,2.000000,0.000000,0.000000,4.000000,4.000000,4.000000,4.000000,4.000000,4.000000,0.000000,,,,,,,,,,,,,,,,,,,,,,,,,,,,
1732155951.462052,1732155951.463736,80.000000,0.000000,4307.436035,4306.410156,4312.692383,4316.538574,4295.000000,4279.615234,4338.333496,4390.384766,4309.102539,4282.563965,4450.769043,4491.282227,4339.230957,4399.102539,1726.000000,1.000000,30.000000,,,,0.000000,2.000000,2.000000,0.000000,4.000000,2.000000,2.000000,0.000000,0.000000,4.000000,4.000000,4.000000,4.000000,4.000000,4.000000,0.000000,,,,,,,,,,,,,,,,,20.000000,0.000000,0.673352,-0.075928,-0.714111,-0.175720,0.966915,0.137224,-0.023929,-66.227562,38.650726,44.329266
1732155951.469860,1732155951.471544,81.000000,0.000000,4310.897461,4303.717773,4313.717773,4316.922852,4297.820313,4280.897461,4338.461426,4392.307617,4306.153809,4285.000000,4448.077148,4493.461426,4340.641113,4402.692383,1706.000000,1.000000,30.000000,,,,0.000000,2.000000,2.000000,0.000000,4.000000,2.000000,2.000000,0.000000,0.000000,4.000000,4.000000,4.000000,4.000000,4.000000,4.000000,0.000000,,,,,,,,,,,,,,,,,,,,,,,,,,,,
1732155951.477669,1732155951.479152,82.000000,0.000000,4313.205078,4304.743652,4310.256348,4318.205078,4298.077148,4280.384766,4340.897461,4392.820313,4308.974121,4293.589844,4455.128418,4493.589844,4345.897461,4407.179688,1548.000000,1.000000,30.000000,,,,0.000000,2.000000,2.000000,0.000000,4.000000,2.000000,2.000000,0.000000,0.000000,4.000000,4.000000,4.000000,4.000000,4.000000,4.000000,0.000000,,,,,,,,,,,,,,,,,,,,,,,,,,,,
1732155951.485477,1732155951.486960,83.000000,0.000000,4319.487305,4308.717773,4310.256348,4317.820313,4290.000000,4276.666504,4339.230957,4392.692383,4307.179688,4288.846191,4460.641113,4494.743652,4347.179688,4412.563965,1591.000000,1.000000,30.000000,,,,0.000000,2.000000,2.000000,0.000000,4.000000,2.000000,2.000000,0.000000,0.000000,4.000000,4.000000,4.000000,4.000000,4.000000,4.000000,0.000000,,,,,,,,,,,,,,,,,,,,,,,,,,,,
1732155951.493285,1732155951.494869,84.000000,0.000000,4326.025879,4311.025879,4313.333496,4318.461426,4299.358887,4275.769043,4336.794922,4393.077148,4303.589844,4283.717773,4459.487305,4497.692383,4347.051270,4415.512695,1726.000000,1.000000,30.000000,,,,0.000000,2.000000,2.000000,0.000000,4.000000,2.000000,2.000000,0.000000,0.000000,4.000000,4.000000,4.000000,4.000000,4.000000,4.000000,0.000000,,,,,,,,,,,,,,,,,21.000000,0.000000,0.673515,-0.076355,-0.713806,-0.176147,0.975705,0.131852,-0.025882,-65.994331,38.495422,44.615040
1732155951.501094,1732155951.502677,85.000000,0.000000,4325.256348,4313.461426,4314.871582,4321.153809,4311.025879,4276.922852,4338.205078,4392.692383,4305.769043,4285.000000,4458.974121,4496.794922,4346.410156,4414.102539,1706.000000,1.000000,30.000000,,,,0.000000,2.000000,2.000000,0.000000,4.000000,2.000000,2.000000,0.000000,0.000000,4.000000,4.000000,4.000000,4.000000,4.000000,4.000000,0.000000,,,,,,,,,,,,,,,,,,,,,,,,,,,,
1732155951.508902,1732155951.510685,86.000000,0.000000,4323.974121,4314.230957,4312.436035,4322.307617,4294.871582,4280.128418,4339.358887,4391.538574,4308.205078,4284.615234,4461.025879,4490.512695,4347.179688,4413.077148,1548.000000,1.000000,30.000000,,,,0.000000,2.000000,2.000000,0.000000,4.000000,2.000000,2.000000,0.000000,0.000000,4.000000,4.000000,4.000000,4.000000,4.000000,4.000000,0.000000,,,,,,,,,,,,,,,,,,,,,,,,,,,,
1732155951.516710,1732155951.518493,87.000000,0.000000,4324.487305,4312.307617,4311.922852,4323.846191,4278.589844,4283.589844,4338.717773,4390.769043,4308.717773,4286.282227,4460.897461,4495.000000,4348.974121,4415.769043,1591.000000,1.000000,30.000000,,,,0.000000,2.000000,2.000000,0.000000,4.000000,2.000000,2.000000,0.000000,0.000000,4.000000,4.000000,4.000000,4.000000,4.000000,4.000000,0.000000,,,,,,,,,,,,,,,,,,,,,,,,,,,,
1732155951.524518,1732155951.526401,88.000000,0.000000,4320.000000,4312.436035,4313.077148,4327.436035,4289.102539,4281.410156,4338.461426,4390.000000,4312.436035,4292.563965,4461.922852,4504.743652,4347.820313,4415.897461,1726.000000,1.000000,30.000000,,,,0.000000,2.000000,2.000000,0.000000,4.000000,2.000000,2.000000,0.000000,0.000000,4.000000,4.000000,4.000000,4.000000,4.000000,4.000000,0.000000,,,,,,,,,,,,,,,,,22.000000,0.000000,0.673230,-0.076904,-0.713440,-0.178467,0.975217,0.147967,-0.022464,-66.108742,38.464626,44.466515
1732155951.532326,1732155951.534209,89.000000,0.000000,4315.769043,4312.820313,4314.615234,4325.769043,4296.410156,4278.205078,4338.077148,4390.769043,4312.820313,4295.897461,4463.974121,4501.538574,4346.794922,4412.051270,1706.000000,1.000000,30.000000,,,,0.000000,2.000000,2.000000,0.000000,4.000000,2.000000,2.000000,0.000000,0.000000,4.000000,4.000000,4.000000,4.000000,4.000000,4.000000,0.000000,,,,,,,,,,,,,,,,,,,,,,,,,,,,
1732155951.540135,1732155951.542217,90.000000,0.000000,4319.615234,4312.307617,4314.871582,4321.282227,4289.102539,4280.384766,4337.820313,4393.205078,4306.410156,4288.846191,4464.487305,4496.410156,4348.846191,4413.717773,1548.000000,1.000000,30.000000,,,,0.000000,2.000000,2.000000,0.000000,4.000000,2.000000,2.000000,0.000000,0.000000,4.000000,4.000000,4.000000,4.000000,4.000000,4.000000,0.000000,,,,,,,,,,,,,,,,,,,,,,,,,,,,
1732155951.547943,1732155951.550026,91.000000,0.000000,4319.102539,4309.358887,4313.077148,4320.897461,4289.487305,4283.974121,4337.307617,4392.179688,4301.025879,4280.128418,4460.641113,4497.307617,4344.871582,4411.282227,1591.000000,1.000000,30.000000,,,,0.000000,2.000000,2.000000,0.000000,4.000000,2.000000,2.000000,0.000000,0.000000,4.000000,4.000000,4.000000,4.000000,4.000000,4.000000,0.000000,,,,,,,,,,,,,,,,,,,,,,,,,,,,
1732155951.555751,1732155951.557934,92.000000,0.000000,4311.794922,4303.461426,4314.358887,4321.282227,4292.307617,4285.769043,4337.051270,4389.615234,4301.922852,4278.461426,4451.025879,4492.179688,4333.461426,4398.717773,1726.000000,1.000000,30.000000,,,,0.000000,2.000000,2.000000,0.000000,4.000000,2.000000,2.000000,0.000000,0.000000,4.000000,4.000000,4.000000,4.000000,4.000000,4.000000,0.000000,,,,,,,,,,,,,,,,,23.000000,0.000000,0.672848,-0.076843,-0.713562,-0.179443,0.969845,0.158222,-0.028324,-66.129745,38.423012,44.196209
1732155951.563559,1732155951.565742,93.000000,0.000000,4308.589844,4301.794922,4311.794922,4317.692383,4288.589844,4285.512695,4337.948730,4389.487305,4305.769043,4280.128418,4449.102539,4486.282227,4333.974121,4398.333496,1706.000000,1.000000,30.000000,,,,0.000000,2.000000,2.000000,0.000000,4.000000,2.000000,2.000000,0.000000,0.000000,4.000000,4.000000,4.000000,4.000000,4.000000,4.000000,0.000000,,,,,,,,,,,,,,,,,,,,,,,,,,,,
1732155951.571368,1732155951.573750,94.000000,0.000000,4312.051270,4305.384766,4310.128418,4313.205078,4288.589844,4282.820313,4341.410156,4391.025879,4307.179688,4281.666504,4456.282227,4488.077148,4347.692383,4410.000000,1548.000000,1.000000,30.000000,,,,0.000000,2.000000,2.000000,0.000000,4.000000,2.000000,2.000000,0.000000,0.000000,4.000000,4.000000,4.000000,4.000000,4.000000,4.000000,0.000000,,,,,,,,,,,,,,,,,,,,,,,,,,,,
1732155951.579176,1732155951.581558,95.000000,0.000000,4319.743652,4307.948730,4311.282227,4316.282227,4289.487305,4280.769043,4340.384766,4390.256348,4306.794922,4286.153809,4459.743652,4491.922852,4355.641113,4417.692383,1591.000000,1.000000,30.000000,,,,0.000000,2.000000,2.000000,0.000000,4.000000,2.000000,2.000000,0.000000,0.000000,4.000000,4.000000,4.000000,4.000000,4.000000,4.000000,0.000000,,,,,,,,,,,,,,,,,,,,,,,,,,,,
1732155951.586984,1732155951.589266,96.000000,0.000000,4326.153809,4309.230957,4316.025879,4321.282227,4288.846191,4280.000000,4337.692383,4389.615234,4305.256348,4287.179688,4462.307617,4499.102539,4355.384766,4424.743652,1726.000000,1.000000,30.000000,,,,0.000000,2.000000,2.000000,0.000000,4.000000,2.000000,2.000000,0.000000,0.000000,4.000000,4.000000,4.000000,4.000000,4.000000,4.000000,0.000000,,,,,,,,,,,,,,,,,24.000000,0.000000,0.672588,-0.076843,-0.713684,-0.179932,0.963497,0.164083,-0.027347,-66.236763,38.329308,43.992264
1732155951.594792,1732155951.597075,97.000000,0.000000,4329.743652,4311.410156,4315.641113,4321.025879,4288.846191,4279.487305,4338.589844,4393.205078,4305.512695,4285.641113,4470.128418,4506.666504,4358.333496,4430.769043,1706.000000,1.000000,30.000000,,,,0.000000,2.000000,2.000000,0.000000,4.000000,2.000000,2.000000,0.000000,0.000000,4.000000,4.000000,4.000000,4.000000,4.000000,4.000000,0.000000,,,,,,,,,,,,,,,,,,,,,,,,,,,,
1732155951.602600,1732155951.604683,98.000000,0.000000,4334.358887,4311.794922,4315.256348,4318.461426,4288.846191,4278.846191,4339.615234,4394.743652,4308.974121,4288.333496,4470.384766,4504.743652,4362.307617,4430.641113,1548.000000,1.000000,30.000000,,,,0.000000,2.000000,2.000000,0.000000,4.000000,2.000000,2.000000,0.000000,0.000000,4.000000,4.000000,4.000000,4.000000,4.000000,4.000000,0.000000,,,,,,,,,,,,,,,,,,,,,,,,,,,,
1732155951.610409,1732155951.612491,99.000000,0.000000,4335.641113,4312.692383,4314.615234,4318.589844,4288.974121,4279.230957,4337.307617,4390.384766,4309.358887,4290.256348,4465.641113,4503.461426,4360.897461,4435.512695,1591.000000,1.000000,30.000000,,,,0.000000,2.000000,2.000000,0.000000,4.000000,2.000000,2.000000,0.000000,0.000000,4.000000,4.000000,4.000000,4.000000,4.000000,4.000000,0.000000,,,,,,,,,,,,,,,,,,,,,,,,,,,,
1732155951.618217,1732155951.620199,100.000000,0.000000,4334.743652,4313.846191,4313.974121,4319.358887,4286.025879,4279.615234,4336.666504,4387.948730,4305.897461,4285.641113,4468.205078,4506.794922,4358.974121,4444.871582,1726.000000,1.000000,30.000000,,,,0.000000,2.000000,2.000000,0.000000,4.000000,2.000000,2.000000,0.000000,0.000000,4.000000,4.000000,4.000000,4.000000,4.000000,4.000000,0.000000,,,,,,,,,,,,,,,,,25.000000,0.000000,0.671981,-0.076599,-0.713989,-0.181091,0.971798,0.175314,-0.016115,-66.223442,38.140072,44.152065
1732155951.626025,1732155951.628008,101.000000,0.000000,4340.000000,4314.487305,4311.794922,4319.871582,4282.948730,4278.974121,4338.077148,4391.025879,4305.897461,4282.051270,4472.563965,4506.410156,4360.769043,4444.743652,1706.000000,1.000000,30.000000,,,,0.000000,2.000000,2.000000,0.000000,4.000000,2.000000,2.000000,0.000000,0.000000,4.000000,4.000000,4.000000,4.000000,4.000000,4.000000,0.000000,,,,,,,,,,,,,,,,,,,,,,,,,,,,
1732155951.633834,1732155951.635616,102.000000,0.000000,4341.025879,4315.641113,4312.179688,4319.102539,4285.769043,4278.846191,4336.794922,4391.153809,4306.794922,4283.717773,4472.051270,4505.384766,4364.102539,4438.589844,1548.000000,1.000000,30.000000,,,,0.000000,2.000000,2.000000,0.000000,4.000000,2.000000,2.000000,0.000000,0.000000,4.000000,4.000000,4.000000,4.000000,4.000000,4.000000,0.000000,,,,,,,,,,,,,,,,,,,,,,,,,,,,
1732155951.641642,1732155951.643424,103.000000,0.000000,4333.333496,4316.025879,4312.563965,4319.230957,4283.846191,4279.615234,4336.410156,4390.384766,4307.179688,4284.743652,4467.948730,4507.563965,4361.282227,4434.487305,1591.000000,1.000000,30.000000,,,,0.000000,2.000000,2.000000,0.000000,4.000000,2.000000,2.000000,0.000000,0.000000,4.000000,4.000000,4.000000,4.000000,4.000000,4.000000,0.000000,,,,,,,,,,,,,,,,,,,,,,,,,,,,
1732155951.649450,1732155951.651332,104.000000,0.000000,4328.974121,4316.666504,4311.794922,4320.000000,4282.948730,4280.641113,4336.922852,4390.000000,4308.846191,4282.051270,4463.974121,4503.333496,4353.461426,4429.743652,1726.000000,1.000000,30.000000,,,,0.000000,2.000000,2.000000,0.000000,4.000000,2.000000,2.000000,0.000000,0.000000,4.000000,4.000000,4.000000,4.000000,4.000000,4.000000,0.000000,,,,,,,,,,,,,,,,,26.000000,0.000000,0.670373,-0.076843,-0.715271,-0.181885,0.969357,0.149432,-0.041021,-66.147652,38.168457,44.104839
1732155951.657258,1732155951.659141,105.000000,0.000000,4327.307617,4313.717773,4312.948730,4317.436035,4294.743652,4277.692383,4336.538574,4391.025879,4305.128418,4281.410156,4462.179688,4499.102539,4351.153809,4422.820313,1706.000000,1.000000,30.000000,,,,0.000000,2.000000,2.000000,0.000000,4.000000,2.000000,2.000000,0.000000,0.000000,4.000000,4.000000,4.000000,4.000000,4.000000,4.000000,0.000000,,,,,,,,,,,,,,,,,,,,,,,,,,,,
1732155951.665066,1732155951.667149,106.000000,0.000000,4325.641113,4309.358887,4314.743652,4316.153809,4297.436035,4276.794922,4336.410156,4394.743652,4304.358887,4289.102539,4461.922852,4503.974121,4353.717773,4420.256348,1548.000000,1.000000,30.000000,,,,0.000000,2.000000,2.000000,0.000000,4.000000,2.000000,2.000000,0.000000,0.000000,4.000000,4.000000,4.000000,4.000000,4.000000,4.000000,0.000000,,,,,,,,,,,,,,,,,,,,,,,,,,,,
1732155951.672875,1732155951.674957,107.000000,0.000000,4326.794922,4310.641113,4317.179688,4318.846191,4279.615234,4282.307617,4338.589844,4397.051270,4311.025879,4295.769043,4462.307617,4507.307617,4352.820313,4425.000000,1591.000000,1.000000,30.000000,,,,0.000000,2.000000,2.000000,0.000000,4.000000,2.000000,2.000000,0.000000,0.000000,4.000000,4.000000,4.000000,4.000000,4.000000,4.000000,0.000000,,,,,,,,,,,,,,,,,,,,,,,,,,,,
1732155951.680683,1732155951.682665,108.000000,0.000000,4326.666504,4310.512695,4316.794922,4319.487305,4271.922852,4283.589844,4339.743652,4395.000000,4313.205078,4295.000000,4465.384766,4506.282227,4350.769043,4428.077148,1726.000000,1.000000,30.000000,,,,0.000000,2.000000,2.000000,0.000000,4.000000,2.000000,2.000000,0.000000,0.000000,4.000000,4.000000,4.000000,4.000000,4.000000,4.000000,0.000000,,,,,,,,,,,,,,,,,27.000000,0.000000,0.670020,-0.079224,-0.715698,-0.180481,0.977170,0.142596,-0.054206,-66.089600,38.176453,44.154922
1732155951.688491,1732155951.690473,109.000000,0.000000,4322.179688,4305.128418,4315.769043,4317.563965,4282.563965,4282.563965,4339.358887,4393.205078,4310.897461,4292.436035,4463.846191,4506.153809,4348.846191,4423.205078,1706.000000,1.000000,30.000000,,,,0.000000,2.000000,2.000000,0.000000,4.000000,2.000000,2.000000,0.000000,0.000000,4.000000,4.000000,4.000000,4.000000,4.000000,4.000000,0.000000,,,,,,,,,,,,,,,,,,,,,,,,,,,,
1732155951.696299,1732155951.698082,110.000000,0.000000,4321.666504,4305.000000,4315.000000,4319.358887,4291.666504,4284.743652,4337.820313,4391.922852,4313.077148,4291.666504,4460.256348,4503.589844,4348.077148,4417.563965,1548.000000,1.000000,30.000000,,,,0.000000,2.000000,2.000000,0.000000,4.000000,2.000000,2.000000,0.000000,0.000000,4.000000,4.000000,4.000000,4.000000,4.000000,4.000000,0.000000,,,,,,,,,,,,,,,,,,,,,,,,,,,,
1732155951.704108,1732155951.705890,111.000000,0.000000,4321.538574,4307.563965,4319.230957,4322.307617,4290.000000,4288.717773,4337.563965,4391.922852,4313.589844,4292.051270,4461.666504,4502.692383,4347.436035,4415.384766,1591.000000,1.000000,30.000000,,,,0.000000,2.000000,2.000000,0.000000,4.000000,2.000000,2.000000,0.000000,0.000000,4.000000,4.000000,4.000000,4.000000,4.000000,4.000000,0.000000,,,,,,,,,,,,,,,,,,,,,,,,,,,,
1732155951.711916,1732155951.713598,112.000000,0.000000,4317.948730,4304.871582,4315.769043,4320.512695,4291.538574,4287.820313,4339.102539,4393.717773,4310.256348,4288.589844,4462.051270,4501.794922,4344.871582,4413.846191,1726.000000,1.000000,30.000000,,,,0.000000,2.000000,2.000000,0.000000,4.000000,2.000000,2.000000,0.000000,0.000000,4.000000,4.000000,4.000000,4.000000,4.000000,4.000000,0.000000,,,,,,,,,,,,,,,,,28.000000,0.000000,0.670040,-0.080566,-0.715759,-0.179565,0.966427,0.139177,-0.047369,-66.104240,38.079594,44.062153
1732155951.719724,1732155951.721407,113.000000,0.000000,4314.358887,4300.384766,4313.077148,4314.230957,4303.333496,4283.846191,4339.871582,4393.589844,4310.769043,4284.230957,4458.974121,4492.307617,4341.794922,4410.128418,1706.000000,1.000000,30.000000,,,,0.000000,2.000000,2.000000,0.000000,4.000000,2.000000,2.000000,0.000000,0.000000,4.000000,4.000000,4.000000,4.000000,4.000000,4.000000,0.000000,,,,,,,,,,,,,,,,,,,,,,,,,,,,
1732155951.727532,1732155951.729015,114.000000,0.000000,4311.794922,4299.102539,4315.897461,4313.205078,4299.871582,4286.666504,4339.615234,4390.384766,4313.077148,4286.538574,4455.897461,4486.410156,4341.538574,4406.410156,1548.000000,1.000000,30.000000,,,,0.000000,2.000000,2.000000,0.000000,4.000000,2.000000,2.000000,0.000000,0.000000,4.000000,4.000000,4.000000,4.000000,4.000000,4.000000,0.000000,,,,,,,,,,,,,,,,,,,,,,,,,,,,
1732155951.735341,1732155951.736823,115.000000,0.000000,4311.794922,4299.102539,4318.974121,4316.666504,4278.846191,4291.538574,4341.025879,4390.256348,4316.538574,4288.717773,4456.666504,4491.538574,4343.461426,4403.846191,1591.000000,1.000000,30.000000,,,,0.000000,2.000000,2.000000,0.000000,4.000000,2.000000,2.000000,0.000000,0.000000,4.000000,4.000000,4.000000,4.000000,4.000000,4.000000,0.000000,,,,,,,,,,,,,,,,,,,,,,,,,,,,
1732155951.743149,1732155951.744731,116.000000,0.000000,4310.769043,4297.563965,4315.641113,4312.563965,4281.025879,4292.948730,4342.051270,4392.307617,4319.358887,4287.948730,4457.948730,4492.307617,4341.666504,4401.794922,1726.000000,1.000000,30.000000,,,,0.000000,2.000000,2.000000,0.000000,4.000000,2.000000,2.000000,0.000000,0.000000,4.000000,4.000000,4.000000,4.000000,4.000000,4.000000,0.000000,,,,,,,,,,,,,,,,,29.000000,0.000000,0.670282,-0.083496,-0.715881,-0.176819,0.961055,0.143572,-0.064949,-66.191101,38.012802,43.975346
1732155951.750957,1732155951.752539,117.000000,0.000000,4307.051270,4295.384766,4317.436035,4307.436035,4292.692383,4294.487305,4341.794922,4393.077148,4316.922852,4286.922852,4456.666504,4488.205078,4339.743652,4402.436035,1706.000000,1.000000,30.000000,,,,0.000000,2.000000,2.000000,0.000000,4.000000,2.000000,2.000000,0.000000,0.000000,4.000000,4.000000,4.000000,4.000000,4.000000,4.000000,0.000000,,,,,,,,,,,,,,,,,,,,,,,,,,,,
1732155951.758765,1732155951.760547,118.000000,0.000000,4305.512695,4293.846191,4321.922852,4308.333496,4286.538574,4297.436035,4341.538574,4391.538574,4315.000000,4285.000000,4455.512695,4489.230957,4339.615234,4402.948730,1548.000000,1.000000,30.000000,,,,0.000000,2.000000,2.000000,0.000000,4.000000,2.000000,2.000000,0.000000,0.000000,4.000000,4.000000,4.000000,4.000000,4.000000,4.000000,0.000000,,,,,,,,,,,,,,,,,,,,,,,,,,,,
1732155951.766574,1732155951.768356,119.000000,0.000000,4304.230957,4293.333496,4322.179688,4304.615234,4294.358887,4296.794922,4340.000000,4391.538574,4312.436035,4280.128418,4452.051270,4488.974121,4337.820313,4398.333496,1591.000000,1.000000,30.000000,,,,0.000000,2.000000,2.000000,0.000000,4.000000,2.000000,2.000000,0.000000,0.000000,4.000000,4.000000,4.000000,4.000000,4.000000,4.000000,0.000000,,,,,,,,,,,,,,,,,,,,,,,,,,,,
1732155951.774382,1732155951.776064,120.000000,0.000000,4302.307617,4294.358887,4320.769043,4302.051270,4308.205078,4299.743652,4337.948730,4394.743652,4311.025879,4281.025879,4451.025879,4487.307617,4336.538574,4397.436035,1726.000000,1.000000,30.000000,,,,0.000000,2.000000,2.000000,0.000000,4.000000,2.000000,2.000000,0.000000,0.000000,4.000000,4.000000,4.000000,4.000000,4.000000,4.000000,0.000000,,,,,,,,,,,,,,,,,30.000000,0.000000,0.672091,-0.089600,-0.715088,-0.170044,0.965938,0.125504,-0.039067,-66.411461,37.975372,43.805027
1732155951.782190,1732155951.783872,121.000000,0.000000,4307.051270,4298.205078,4319.615234,4308.461426,4290.641113,4305.384766,4338.846191,4393.077148,4317.179688,4287.820313,4455.769043,4491.410156,4337.820313,4403.846191,1706.000000,1.000000,30.000000,,,,0.000000,2.000000,2.000000,0.000000,4.000000,2.000000,2.000000,0.000000,0.000000,4.000000,4.000000,4.000000,4.000000,4.000000,4.000000,0.000000,,,,,,,,,,,,,,,,,,,,,,,,,,,,
1732155951.789998,1732155951.791480,122.000000,0.000000,4312.563965,4298.077148,4319.358887,4310.769043,4275.384766,4299.487305,4341.922852,4390.384766,4321.538574,4289.102539,4458.077148,4494.743652,4339.230957,4405.897461,1548.000000,1.000000,30.000000,,,,0.000000,2.000000,2.000000,0.000000,4.000000,2.000000,2.000000,0.000000,0.000000,4.000000,4.000000,4.000000,4.000000,4.000000,4.000000,0.000000,,,,,,,,,,,,,,,,,,,,,,,,,,,,
1732155951.797807,1732155951.799288,123.000000,0.000000,4311.666504,4296.025879,4319.358887,4309.230957,4290.897461,4294.487305,4341.025879,4390.769043,4314.743652,4287.692383,4454.358887,4493.589844,4337.692383,4404.358887,1591.000000,1.000000,30.000000,,,,0.000000,2.000000,2.000000,0.000000,4.000000,2.000000,2.000000,0.000000,0.000000,4.000000,4.000000,4.000000,4.000000,4.000000,4.000000,0.000000,,,,,,,,,,,,,,,,,,,,,,,,,,,,
1732155951.805615,1732155951.806996,124.000000,0.000000,4311.025879,4298.333496,4321.282227,4310.128418,4299.743652,4297.948730,4340.000000,4391.794922,4311.282227,4286.666504,4455.384766,4495.128418,4337.820313,4408.974121,1726.000000,1.000000,30.000000,,,,0.000000,2.000000,2.000000,0.000000,4.000000,2.000000,2.000000,0.000000,0.000000,4.000000,4.000000,4.000000,4.000000,4.000000,4.000000,0.000000,,,,,,,,,,,,,,,,,31.000000,0.000000,0.672728,-0.091187,-0.714722,-0.168213,0.965938,0.125504,-0.039067,-66.783279,37.835049,43.768742
1732155951.813423,1732155951.814804,125.000000,0.000000,4312.051270,4301.794922,4318.461426,4310.000000,4288.461426,4298.205078,4342.051270,4393.077148,4316.922852,4288.077148,4460.769043,4499.102539,4339.615234,4412.436035,1706.000000,1.000000,30.000000,,,,0.000000,2.000000,2.000000,0.000000,4.000000,2.000000,2.000000,0.000000,0.000000,4.000000,4.000000,4.000000,4.000000,4.000000,4.000000,0.000000,,,,,,,,,,,,,,,,,,,,,,,,,,,,
1732155951.821231,1732155951.822812,126.000000,0.000000,4310.128418,4299.358887,4317.436035,4306.410156,4296.794922,4293.974121,4342.692383,4395.256348,4316.538574,4289.230957,4455.641113,4495.000000,4337.307617,4403.846191,1548.000000,1.000000,30.000000,,,,0.000000,2.000000,2.000000,0.000000,4.000000,2.000000,2.000000,0.000000,0.000000,4.000000,4.000000,4.000000,4.000000,4.000000,4.000000,0.000000,,,,,,,,,,,,,,,,,,,,,,,,,,,,
1732155951.829039,1732155951.830620,127.000000,0.000000,4308.589844,4293.589844,4318.077148,4305.897461,4313.846191,4293.461426,4339.743652,4393.717773,4313.589844,4287.051270,4449.871582,4487.820313,4335.512695,4398.589844,30.000000,1.000000,30.000000,,,,0.000000,2.000000,2.000000,0.000000,4.000000,2.000000,2.000000,0.000000,0.000000,4.000000,4.000000,4.000000,4.000000,4.000000,4.000000,0.000000,,,,,,,,,,,,,,,,,,,,,,,,,,,,
1732155951.836848,1732155951.838528,0.000000,0.000000,4308.846191,4294.102539,4319.487305,4308.589844,4303.461426,4298.717773,4340.641113,4390.769043,4316.538574,4285.769043,4455.769043,4494.615234,4339.871582,4408.333496,0.000000,1.000000,30.000000,,,,0.000000,2.000000,2.000000,0.000000,4.000000,2.000000,2.000000,0.000000,0.000000,4.000000,4.000000,4.000000,4.000000,4.000000,4.000000,0.000000,,,,,,,,,,,,,,,,,0.000000,0.000000,0.673330,-0.092590,-0.714417,-0.166321,0.979612,0.098645,-0.035649,-66.667793,37.571392,43.889347
1732155951.844656,1732155951.846336,1.000000,0.000000,4310.384766,4299.487305,4315.512695,4309.230957,4284.615234,4305.128418,4341.153809,4393.205078,4318.974121,4288.589844,4461.153809,4501.794922,4343.461426,4415.000000,1613.000000,1.000000,30.000000,,,,0.000000,2.000000,2.000000,0.000000,4.000000,2.000000,2.000000,0.000000,0.000000,4.000000,4.000000,4.000000,4.000000,4.000000,4.000000,0.000000,,,,,,,,,,,,,,,,,,,,,,,,,,,,
1732155951.852464,1732155951.854344,2.000000,0.000000,4311.025879,4297.051270,4316.538574,4305.769043,4286.282227,4303.974121,4339.102539,4395.128418,4315.512695,4288.589844,4456.538574,4498.205078,4340.128418,4412.051270,1436.000000,1.000000,30.000000,,,,0.000000,2.000000,2.000000,0.000000,4.000000,2.000000,2.000000,0.000000,0.000000,4.000000,4.000000,4.000000,4.000000,4.000000,4.000000,0.000000,,,,,,,,,,,,,,,,,,,,,,,,,,,,
1732155951.860273,1732155951.862153,3.000000,0.000000,4308.589844,4291.410156,4318.333496,4302.948730,4303.589844,4296.153809,4338.333496,4392.307617,4312.692383,4285.512695,4451.922852,4493.589844,4338.205078,4412.820313,1434.000000,1.000000,30.000000,,,,0.000000,2.000000,2.000000,0.000000,4.000000,2.000000,2.000000,0.000000,0.000000,4.000000,4.000000,4.000000,4.000000,4.000000,4.000000,0.000000,,,,,,,,,,,,,,,,,,,,,,,,,,,,
1732155951.868081,1732155951.870061,4.000000,0.000000,4305.769043,4290.897461,4320.000000,4302.051270,4305.256348,4293.077148,4338.589844,4389.615234,4314.615234,4290.000000,4455.384766,4500.641113,4343.205078,4412.948730,1402.000000,1.000000,30.000000,,,,0.000000,2.000000,2.000000,0.000000,4.000000,2.000000,2.000000,0.000000,0.000000,4.000000,4.000000,4.000000,4.000000,4.000000,4.000000,0.000000,,,,,,,,,,,,,,,,,1.000000,0.000000,0.675327,-0.097473,-0.713440,-0.159485,0.981077,0.090343,-0.040044,-66.514244,37.484493,43.885368
1732155951.875889,1732155951.877869,5.000000,0.000000,4307.820313,4296.410156,4320.128418,4307.051270,4290.256348,4294.102539,4340.769043,4391.025879,4316.666504,4295.128418,4458.717773,4507.179688,4346.025879,4405.000000,1255.000000,1.000000,30.000000,,,,0.000000,2.000000,2.000000,0.000000,4.000000,2.000000,2.000000,0.000000,0.000000,4.000000,4.000000,4.000000,4.000000,4.000000,4.000000,0.000000,,,,,,,,,,,,,,,,,,,,,,,,,,,,
1732155951.883697,1732155951.885477,6.000000,0.000000,4309.358887,4298.974121,4319.230957,4312.307617,4283.717773,4294.615234,4343.846191,4391.025879,4314.871582,4292.051270,4456.025879,4500.512695,4341.666504,4406.282227,0.000000,1.000000,30.000000,,,,0.000000,2.000000,2.000000,0.000000,4.000000,2.000000,2.000000,0.000000,0.000000,4.000000,4.000000,4.000000,4.000000,4.000000,4.000000,0.000000,,,,,,,,,,,,,,,,,,,,,,,,,,,,
1732155951.891505,1732155951.893285,7.000000,0.000000,4306.538574,4293.333496,4318.333496,4308.846191,4297.051270,4296.282227,4342.307617,4389.871582,4313.974121,4291.282227,4452.820313,4500.128418,4338.333496,4413.974121,0.000000,1.000000,30.000000,,,,0.000000,2.000000,2.000000,0.000000,4.000000,2.000000,2.000000,0.000000,0.000000,4.000000,4.000000,4.000000,4.000000,4.000000,4.000000,0.000000,,,,,,,,,,,,,,,,,,,,,,,,,,,,
1732155951.899314,1732155951.901193,8.000000,0.000000,4311.025879,4292.820313,4320.897461,4307.436035,4306.282227,4293.717773,4339.487305,4393.333496,4315.769043,4291.666504,4452.820313,4507.307617,4339.487305,4411.410156,1543.000000,1.000000,30.000000,,,,0.000000,2.000000,2.000000,0.000000,4.000000,2.000000,2.000000,0.000000,0.000000,4.000000,4.000000,4.000000,4.000000,4.000000,4.000000,0.000000,,,,,,,,,,,,,,,,,2.000000,0.000000,0.676268,-0.100403,-0.712952,-0.155823,0.981077,0.056648,-0.034184,-66.413208,37.217438,43.867149
1732155951.907122,1732155951.909001,9.000000,0.000000,4319.743652,4306.025879,4321.666504,4313.846191,4296.025879,4290.897461,4341.666504,4396.922852,4314.487305,4284.102539,4450.897461,4504.743652,4337.436035,4409.358887,1703.000000,1.000000,30.000000,,,,0.000000,2.000000,2.000000,0.000000,4.000000,2.000000,2.000000,0.000000,0.000000,4.000000,4.000000,4.000000,4.000000,4.000000,4.000000,0.000000,,,,,,,,,,,,,,,,,,,,,,,,,,,,
1732155951.914930,1732155951.917009,10.000000,0.000000,4319.230957,4311.025879,4316.922852,4315.641113,4300.256348,4294.102539,4341.538574,4394.743652,4311.153809,4281.282227,4446.025879,4495.641113,4332.948730,4411.666504,1546.000000,1.000000,30.000000,,,,0.000000,2.000000,2.000000,0.000000,4.000000,2.000000,2.000000,0.000000,0.000000,4.000000,4.000000,4.000000,4.000000,4.000000,4.000000,0.000000,,,,,,,,,,,,,,,,,,,,,,,,,,,,
1732155951.922738,1732155951.924818,11.000000,0.000000,4313.717773,4303.077148,4316.538574,4311.794922,4317.179688,4292.820313,4338.205078,4392.051270,4310.512695,4280.641113,4442.051270,4492.307617,4331.922852,4405.256348,1588.000000,1.000000,30.000000,,,,0.000000,2.000000,2.000000,0.000000,4.000000,2.000000,2.000000,0.000000,0.000000,4.000000,4.000000,4.000000,4.000000,4.000000,4.000000,0.000000,,,,,,,,,,,,,,,,,,,,,,,,,,,,
1732155951.930547,1732155951.932726,12.000000,0.000000,4312.307617,4300.897461,4317.820313,4311.666504,4307.563965,4290.769043,4338.077148,4392.051270,4314.358887,4278.717773,4442.436035,4495.897461,4330.384766,4402.051270,1726.000000,1.000000,30.000000,,,,0.000000,2.000000,2.000000,0.000000,4.000000,2.000000,2.000000,0.000000,0.000000,4.000000,4.000000,4.000000,4.000000,4.000000,4.000000,0.000000,,,,,,,,,,,,,,,,,3.000000,0.000000,0.676512,-0.101318,-0.712830,-0.154724,0.981077,0.056648,-0.034184,-66.334694,37.017792,43.765724
1732155951.938355,1732155951.940534,13.000000,0.000000,4314.230957,4301.922852,4318.589844,4311.025879,4284.871582,4295.384766,4339.230957,4392.051270,4320.641113,4285.897461,4445.897461,4502.051270,4328.846191,4410.512695,1706.000000,1.000000,30.000000,,,,0.000000,2.000000,2.000000,0.000000,4.000000,2.000000,2.000000,0.000000,0.000000,4.000000,4.000000,4.000000,4.000000,4.000000,4.000000,0.000000,,,,,,,,,,,,,,,,,,,,,,,,,,,,
1732155951.946163,1732155951.948142,14.000000,0.000000,4312.051270,4300.512695,4318.077148,4309.743652,4288.589844,4297.692383,4339.871582,4391.153809,4321.922852,4292.563965,4448.333496,4501.794922,4333.974121,4415.256348,1546.000000,1.000000,30.000000,,,,0.000000,2.000000,2.000000,0.000000,4.000000,2.000000,2.000000,0.000000,0.000000,4.000000,4.000000,4.000000,4.000000,4.000000,4.000000,0.000000,1.000000,0.000000,2.000000,2.000000,0.000000,4.000000,2.000000,2.000000,0.000000,0.000000,1.000000,3.000000,4.000000,4.000000,4.000000,4.000000,,,,,,,,,,,,
1732155951.953971,1732155951.955951,15.000000,0.000000,4307.307617,4301.794922,4316.794922,4309.871582,4297.307617,4295.769043,4342.179688,4391.025879,4319.358887,4287.692383,4447.307617,4492.692383,4334.743652,4412.948730,1588.000000,1.000000,30.000000,,,,0.000000,2.000000,2.000000,0.000000,4.000000,2.000000,2.000000,0.000000,0.000000,4.000000,4.000000,4.000000,4.000000,4.000000,4.000000,0.000000,,,,,,,,,,,,,,,,,,,,,,,,,,,,
1732155951.961780,1732155951.963659,16.000000,0.000000,4305.256348,4301.025879,4312.948730,4308.461426,4298.333496,4294.102539,4341.538574,4391.538574,4320.128418,4285.897461,4446.538574,4490.641113,4329.230957,4409.615234,0.000000,1.000000,30.000000,,,,0.000000,2.000000,2.000000,0.000000,4.000000,2.000000,2.000000,0.000000,0.000000,4.000000,4.000000,4.000000,4.000000,4.000000,4.000000,0.000000,,,,,,,,,,,,,,,,,4.000000,0.000000,0.677652,-0.104248,-0.712097,-0.151123,0.996215,0.065438,-0.021975,-66.506104,36.987747,43.960236
1732155951.969588,1732155951.971467,17.000000,0.000000,4303.077148,4293.205078,4316.025879,4304.358887,4307.179688,4289.743652,4339.358887,4391.410156,4321.538574,4288.846191,4447.179688,4491.794922,4329.615234,4403.205078,0.000000,1.000000,30.000000,,,,0.000000,2.000000,2.000000,0.000000,4.000000,2.000000,2.000000,0.000000,0.000000,4.000000,4.000000,4.000000,4.000000,4.000000,4.000000,0.000000,,,,,,,,,,,,,,,,,,,,,,,,,,,,
1732155951.977396,1732155951.979075,18.000000,0.000000,4300.512695,4290.384766,4317.436035,4303.461426,4301.153809,4288.333496,4340.000000,4390.769043,4317.820313,4286.410156,4448.461426,4488.077148,4333.333496,4400.000000,0.000000,1.000000,30.000000,,,,0.000000,2.000000,2.000000,0.000000,4.000000,2.000000,2.000000,0.000000,0.000000,4.000000,4.000000,4.000000,4.000000,4.000000,4.000000,0.000000,,,,,,,,,,,,,,,,,,,,,,,,,,,,
1732155951.985204,1732155951.986884,19.000000,0.000000,4302.051270,4295.897461,4316.794922,4310.256348,4282.820313,4291.410156,4341.282227,4391.025879,4314.230957,4287.692383,4450.897461,4489.358887,4335.384766,4407.051270,0.000000,1.000000,30.000000,,,,0.000000,2.000000,2.000000,0.000000,4.000000,2.000000,2.000000,0.000000,0.000000,4.000000,4.000000,4.000000,4.000000,4.000000,4.000000,0.000000,,,,,,,,,,,,,,,,,,,,,,,,,,,,
1732155951.993013,1732155951.994592,20.000000,0.000000,4302.179688,4296.025879,4313.846191,4313.589844,4286.025879,4293.846191,4338.333496,4391.410156,4315.769043,4291.794922,4452.948730,4493.205078,4335.897461,4413.589844,0.000000,1.000000,30.000000,,,,0.000000,2.000000,2.000000,0.000000,4.000000,2.000000,2.000000,0.000000,0.000000,4.000000,4.000000,4.000000,4.000000,4.000000,4.000000,0.000000,,,,,,,,,,,,,,,,,5.000000,0.000000,0.678308,-0.105591,-0.711609,-0.149536,0.973752,0.067879,-0.029300,-66.516609,36.870075,44.051125
1732155952.000821,1732155952.002400,21.000000,0.000000,4296.025879,4291.025879,4314.743652,4305.512695,4295.384766,4295.641113,4335.769043,4390.000000,4314.743652,4287.436035,4452.563965,4489.102539,4335.000000,4408.461426,0.000000,1.000000,30.000000,,,,0.000000,2.000000,2.000000,0.000000,4.000000,2.000000,2.000000,0.000000,0.000000,4.000000,4.000000,4.000000,4.000000,4.000000,4.000000,0.000000,,,,,,,,,,,,,,,,,,,,,,,,,,,,
1732155952.008629,1732155952.010009,22.000000,0.000000,4295.512695,4291.410156,4317.307617,4303.333496,4294.487305,4298.717773,4336.794922,4390.512695,4311.282227,4285.769043,4453.461426,4486.666504,4334.615234,4403.205078,0.000000,1.000000,30.000000,,,,0.000000,2.000000,2.000000,0.000000,4.000000,2.000000,2.000000,0.000000,0.000000,4.000000,4.000000,4.000000,4.000000,4.000000,4.000000,0.000000,,,,,,,,,,,,,,,,,,,,,,,,,,,,
1732155952.016437,1732155952.017817,23.000000,0.000000,4298.974121,4297.179688,4317.563965,4311.025879,4293.461426,4300.512695,4338.205078,4392.436035,4314.615234,4292.948730,4457.948730,4493.205078,4338.717773,4407.948730,0.000000,1.000000,30.000000,,,,0.000000,2.000000,2.000000,0.000000,4.000000,2.000000,2.000000,0.000000,0.000000,4.000000,4.000000,4.000000,4.000000,4.000000,4.000000,0.000000,,,,,,,,,,,,,,,,,,,,,,,,,,,,
1732155952.024246,1732155952.025525,24.000000,0.000000,4298.717773,4295.256348,4317.051270,4310.000000,4301.282227,4300.000000,4338.974121,4392.051270,4319.230957,4295.256348,4459.487305,4497.307617,4339.102539,4408.717773,0.000000,1.000000,30.000000,,,,0.000000,2.000000,2.000000,0.000000,4.000000,2.000000,2.000000,0.000000,0.000000,4.000000,4.000000,4.000000,4.000000,4.000000,4.000000,0.000000,,,,,,,,,,,,,,,,,6.000000,0.000000,0.678308,-0.105591,-0.711609,-0.149536,0.979123,0.050299,-0.023440,-66.510124,36.594761,44.214745
1732155952.032054,1732155952.033333,25.000000,0.000000,4298.589844,4291.666504,4317.563965,4304.358887,4314.358887,4294.230957,4338.846191,4390.256348,4316.666504,4291.922852,4455.512695,4493.205078,4335.769043,4401.666504,0.000000,1.000000,30.000000,,,,0.000000,2.000000,2.000000,0.000000,4.000000,2.000000,2.000000,0.000000,0.000000,4.000000,4.000000,4.000000,4.000000,4.000000,4.000000,0.000000,,,,,,,,,,,,,,,,,,,,,,,,,,,,
1732155952.039862,1732155952.040942,26.000000,0.000000,4302.563965,4296.282227,4316.538574,4308.461426,4307.820313,4294.102539,4338.846191,4391.153809,4316.666504,4294.615234,4457.307617,4494.743652,4339.358887,4404.358887,0.000000,1.000000,30.000000,,,,0.000000,2.000000,2.000000,0.000000,4.000000,2.000000,2.000000,0.000000,0.000000,4.000000,4.000000,4.000000,4.000000,4.000000,4.000000,0.000000,,,,,,,,,,,,,,,,,,,,,,,,,,,,
1732155952.047670,1732155952.048750,27.000000,0.000000,4306.025879,4298.461426,4313.974121,4313.717773,4291.666504,4303.974121,4339.487305,4394.358887,4324.743652,4298.589844,4463.077148,4502.051270,4344.615234,4414.487305,0.000000,1.000000,30.000000,,,,0.000000,2.000000,2.000000,0.000000,4.000000,2.000000,2.000000,0.000000,0.000000,4.000000,4.000000,4.000000,4.000000,4.000000,4.000000,0.000000,,,,,,,,,,,,,,,,,,,,,,,,,,,,
1732155952.055478,1732155952.056458,28.000000,0.000000,4306.794922,4296.666504,4317.307617,4314.230957,4291.666504,4306.538574,4339.871582,4393.333496,4320.769043,4294.743652,4458.333496,4503.333496,4342.436035,4416.794922,0.000000,1.000000,30.000000,,,,0.000000,2.000000,2.000000,0.000000,4.000000,2.000000,2.000000,0.000000,0.000000,4.000000,4.000000,4.000000,4.000000,4.000000,4.000000,0.000000,,,,,,,,,,,,,,,,,7.000000,0.000000,0.678500,-0.106262,-0.711365,-0.149353,0.973263,0.063484,-0.032719,-66.666534,36.396755,44.067276
1732155952.063287,1732155952.064266,29.000000,0.000000,4308.846191,4298.974121,4316.538574,4315.897461,4301.410156,4298.077148,4337.820313,4389.102539,4309.230957,4292.307617,4454.102539,4497.563965,4339.487305,4414.871582,0.000000,1.000000,30.000000,,,,0.000000,2.000000,2.000000,0.000000,4.000000,2.000000,2.000000,0.000000,0.000000,4.000000,4.000000,4.000000,4.000000,4.000000,4.000000,0.000000,,,,,,,,,,,,,,,,,,,,,,,,,,,,
1732155952.071095,1732155952.071875,30.000000,0.000000,4313.205078,4302.563965,4313.717773,4315.512695,4310.641113,4291.666504,4337.692383,4389.230957,4308.333496,4290.256348,4457.179688,4496.025879,4340.769043,4415.000000,0.000000,1.000000,30.000000,,,,0.000000,2.000000,2.000000,0.000000,4.000000,2.000000,2.000000,0.000000,0.000000,4.000000,4.000000,4.000000,4.000000,4.000000,4.000000,0.000000,,,,,,,,,,,,,,,,,,,,,,,,,,,,
1732155952.078903,1732155952.079683,31.000000,0.000000,4312.563965,4304.102539,4313.461426,4314.615234,4305.256348,4296.282227,4339.487305,4390.641113,4313.589844,4291.922852,4458.974121,4505.512695,4343.846191,4417.436035,0.000000,1.000000,30.000000,,,,0.000000,2.000000,2.000000,0.000000,4.000000,2.000000,2.000000,0.000000,0.000000,4.000000,4.000000,4.000000,4.000000,4.000000,4.000000,0.000000,,,,,,,,,,,,,,,,,,,,,,,,,,,,
1732155952.086712,1732155952.087391,32.000000,0.000000,4309.102539,4301.153809,4316.153809,4312.179688,4287.563965,4299.743652,4338.717773,4391.666504,4313.205078,4298.589844,4460.897461,4513.717773,4346.794922,4419.230957,0.000000,1.000000,30.000000,,,,0.000000,2.000000,2.000000,0.000000,4.000000,2.000000,2.000000,0.000000,0.000000,4.000000,4.000000,4.000000,4.000000,4.000000,4.000000,0.000000,,,,,,,,,,,,,,,,,8.000000,0.000000,0.678571,-0.105896,-0.711365,-0.149292,0.984984,0.072763,-0.038579,-66.893227,36.098038,44.156162
1732155952.094520,1732155952.095200,33.000000,0.000000,4309.743652,4295.384766,4315.128418,4309.743652,4282.948730,4297.051270,4335.256348,4392.051270,4311.666504,4298.077148,4461.794922,4505.256348,4343.589844,4416.282227,0.000000,1.000000,30.000000,,,,0.000000,2.000000,2.000000,0.000000,4.000000,2.000000,2.000000,0.000000,0.000000,4.000000,4.000000,4.000000,4.000000,4.000000,4.000000,0.000000,,,,,,,,,,,,,,,,,,,,,,,,,,,,
1732155952.102328,1732155952.102808,34.000000,0.000000,4307.051270,4292.692383,4317.563965,4310.384766,4289.743652,4296.538574,4336.666504,4390.384766,4311.666504,4290.512695,4452.948730,4494.871582,4333.846191,4412.436035,0.000000,1.000000,30.000000,,,,0.000000,2.000000,2.000000,0.000000,4.000000,2.000000,2.000000,0.000000,0.000000,4.000000,4.000000,4.000000,4.000000,4.000000,4.000000,0.000000,,,,,,,,,,,,,,,,,,,,,,,,,,,,
1732155952.110136,1732155952.110616,35.000000,0.000000,4305.512695,4297.179688,4316.666504,4312.436035,4300.128418,4296.538574,4338.974121,4388.205078,4312.563965,4291.025879,4447.692383,4498.461426,4331.282227,4411.794922,0.000000,1.000000,30.000000,,,,0.000000,2.000000,2.000000,0.000000,4.000000,2.000000,2.000000,0.000000,0.000000,4.000000,4.000000,4.000000,4.000000,4.000000,4.000000,0.000000,,,,,,,,,,,,,,,,,,,,,,,,,,,,
1732155952.117944,1732155952.118325,36.000000,0.000000,4308.717773,4300.128418,4314.615234,4312.820313,4309.487305,4293.974121,4336.538574,4389.487305,4314.743652,4298.077148,4453.846191,4498.205078,4337.563965,4412.307617,0.000000,1.000000,30.000000,,,,0.000000,2.000000,2.000000,0.000000,4.000000,2.000000,2.000000,0.000000,0.000000,4.000000,4.000000,4.000000,4.000000,4.000000,4.000000,0.000000,,,,,,,,,,,,,,,,,9.000000,0.000000,0.678581,-0.105591,-0.711426,-0.149170,0.977170,0.074716,-0.037602,-66.911842,36.014412,44.186489
1732155952.125753,1732155952.126133,37.000000,0.000000,4308.589844,4297.051270,4312.692383,4314.358887,4299.358887,4295.256348,4335.128418,4391.410156,4314.487305,4296.794922,4454.871582,4490.641113,4338.077148,4411.538574,0.000000,1.000000,30.000000,,,,0.000000,2.000000,2.000000,0.000000,4.000000,2.000000,2.000000,0.000000,0.000000,4.000000,4.000000,4.000000,4.000000,4.000000,4.000000,0.000000,,,,,,,,,,,,,,,,,,,,,,,,,,,,
1732155952.133561,1732155952.134141,38.000000,0.000000,4305.000000,4294.615234,4313.846191,4315.769043,4285.128418,4301.282227,4338.333496,4389.615234,4313.077148,4292.436035,4447.179688,4489.230957,4332.179688,4410.128418,0.000000,1.000000,30.000000,,,,0.000000,2.000000,2.000000,0.000000,4.000000,2.000000,2.000000,0.000000,0.000000,4.000000,4.000000,4.000000,4.000000,4.000000,4.000000,0.000000,,,,,,,,,,,,,,,,,,,,,,,,,,,,
1732155952.141369,1732155952.141949,39.000000,0.000000,4305.000000,4296.282227,4314.230957,4314.871582,4294.615234,4300.512695,4339.358887,4389.743652,4316.666504,4291.410156,4446.922852,4491.922852,4333.205078,4410.000000,0.000000,1.000000,30.000000,,,,0.000000,2.000000,2.000000,0.000000,4.000000,2.000000,2.000000,0.000000,0.000000,4.000000,4.000000,4.000000,4.000000,4.000000,4.000000,0.000000,,,,,,,,,,,,,,,,,,,,,,,,,,,,
1732155952.149177,1732155952.149657,40.000000,0.000000,4306.538574,4299.230957,4312.179688,4317.307617,4298.333496,4297.563965,4337.051270,4390.641113,4317.948730,4294.230957,4450.897461,4491.025879,4339.358887,4411.538574,0.000000,1.000000,30.000000,,,,0.000000,2.000000,2.000000,0.000000,4.000000,2.000000,2.000000,0.000000,0.000000,4.000000,4.000000,4.000000,4.000000,4.000000,4.000000,0.000000,,,,,,,,,,,,,,,,,10.000000,0.000000,0.678581,-0.105591,-0.711426,-0.149170,0.981565,0.070809,-0.022952,-67.181931,35.991673,44.196056
1732155952.156986,1732155952.157465,41.000000,0.000000,4306.538574,4299.230957,4310.769043,4316.538574,4296.538574,4296.410156,4337.179688,4390.641113,4312.820313,4294.230957,4447.307617,4489.358887,4339.743652,4412.179688,0.000000,1.000000,30.000000,,,,0.000000,2.000000,2.000000,0.000000,4.000000,2.000000,2.000000,0.000000,0.000000,4.000000,4.000000,4.000000,4.000000,4.000000,4.000000,0.000000,,,,,,,,,,,,,,,,,,,,,,,,,,,,
1732155952.164794,1732155952.165473,42.000000,0.000000,4309.358887,4299.487305,4311.794922,4313.205078,4309.487305,4297.436035,4338.333496,4390.128418,4312.692383,4292.948730,4447.563965,4490.000000,4337.948730,4412.051270,0.000000,1.000000,30.000000,,,,0.000000,2.000000,2.000000,0.000000,4.000000,2.000000,2.000000,0.000000,0.000000,4.000000,4.000000,4.000000,4.000000,4.000000,4.000000,0.000000,,,,,,,,,,,,,,,,,,,,,,,,,,,,
1732155952.172602,1732155952.173281,43.000000,0.000000,4312.948730,4302.051270,4314.871582,4313.333496,4307.436035,4301.153809,4340.000000,4390.256348,4319.615234,4296.282227,4456.153809,4493.461426,4342.307617,4413.461426,0.000000,1.000000,30.000000,,,,0.000000,2.000000,2.000000,0.000000,4.000000,2.000000,2.000000,0.000000,0.000000,4.000000,4.000000,4.000000,4.000000,4.000000,4.000000,0.000000,,,,,,,,,,,,,,,,,,,,,,,,,,,,
1732155952.180410,1732155952.181189,44.000000,0.000000,4311.794922,4302.051270,4313.077148,4313.974121,4291.410156,4300.000000,4340.384766,4390.384766,4322.563965,4298.461426,4460.641113,4495.128418,4348.333496,4414.871582,0.000000,1.000000,30.000000,,,,0.000000,2.000000,2.000000,0.000000,4.000000,2.000000,2.000000,0.000000,0.000000,4.000000,4.000000,4.000000,4.000000,4.000000,4.000000,0.000000,,,,,,,,,,,,,,,,,11.000000,0.000000,0.678469,-0.104736,-0.711914,-0.147949,0.972775,0.041021,-0.034672,-66.845695,35.849922,44.373806
1732155952.188219,1732155952.188998,45.000000,0.000000,4308.461426,4301.153809,4313.077148,4314.615234,4284.487305,4296.025879,4338.333496,4388.717773,4316.794922,4296.666504,4457.948730,4492.692383,4346.153809,4414.743652,0.000000,1.000000,30.000000,,,,0.000000,2.000000,2.000000,0.000000,4.000000,2.000000,2.000000,0.000000,0.000000,4.000000,4.000000,4.000000,4.000000,4.000000,4.000000,0.000000,,,,,,,,,,,,,,,,,,,,,,,,,,,,
1732155952.196027,1732155952.196606,46.000000,0.000000,4306.922852,4301.538574,4312.948730,4313.077148,4291.538574,4294.230957,4336.538574,4386.794922,4312.179688,4294.871582,4456.538574,4490.641113,4343.589844,4413.461426,0.000000,1.000000,30.000000,,,,0.000000,2.000000,2.000000,0.000000,4.000000,2.000000,2.000000,0.000000,0.000000,4.000000,4.000000,4.000000,4.000000,4.000000,4.000000,0.000000,,,,,,,,,,,,,,,,,,,,,,,,,,,,
1732155952.203835,1732155952.204414,47.000000,0.000000,4305.769043,4299.487305,4316.538574,4307.051270,4305.256348,4292.307617,4337.307617,4388.974121,4315.769043,4297.820313,4457.307617,4491.153809,4348.846191,4412.563965,0.000000,1.000000,30.000000,,,,0.000000,2.000000,2.000000,0.000000,4.000000,2.000000,2.000000,0.000000,0.000000,4.000000,4.000000,4.000000,4.000000,4.000000,4.000000,0.000000,,,,,,,,,,,,,,,,,,,,,,,,,,,,
1732155952.211643,1732155952.212122,48.000000,0.000000,4304.615234,4296.666504,4315.512695,4305.256348,4301.922852,4291.666504,4337.692383,4390.512695,4317.948730,4302.307617,4458.333496,4490.256348,4351.922852,4413.589844,0.000000,1.000000,30.000000,,,,0.000000,2.000000,2.000000,0.000000,4.000000,2.000000,2.000000,0.000000,0.000000,4.000000,4.000000,4.000000,4.000000,4.000000,4.000000,0.000000,,,,,,,,,,,,,,,,,12.000000,0.000000,0.678255,-0.104004,-0.712402,-0.147095,0.980588,0.057136,-0.033696,-66.558350,35.670105,44.431118
1732155952.219452,1732155952.219930,49.000000,0.000000,4305.769043,4297.563965,4313.333496,4309.615234,4286.538574,4294.358887,4337.179688,4387.820313,4314.230957,4301.666504,4461.666504,4491.025879,4350.000000,4416.153809,0.000000,1.000000,30.000000,,,,0.000000,2.000000,2.000000,0.000000,4.000000,2.000000,2.000000,0.000000,0.000000,4.000000,4.000000,4.000000,4.000000,4.000000,4.000000,0.000000,,,,,,,,,,,,,,,,,,,,,,,,,,,,
1732155952.227260,1732155952.227938,50.000000,0.000000,4309.358887,4302.179688,4312.948730,4312.820313,4284.358887,4296.794922,4336.922852,4387.692383,4314.230957,4298.974121,4462.307617,4494.743652,4350.641113,4417.692383,0.000000,1.000000,30.000000,,,,0.000000,2.000000,2.000000,0.000000,4.000000,2.000000,2.000000,0.000000,0.000000,4.000000,4.000000,4.000000,4.000000,4.000000,4.000000,0.000000,,,,,,,,,,,,,,,,,,,,,,,,,,,,
1732155952.235068,1732155952.235746,51.000000,0.000000,4306.025879,4301.410156,4317.563965,4310.256348,4294.230957,4294.487305,4338.589844,4391.282227,4315.641113,4298.589844,4460.000000,4493.461426,4348.974121,4414.102539,0.000000,1.000000,30.000000,,,,0.000000,2.000000,2.000000,0.000000,4.000000,2.000000,2.000000,0.000000,0.000000,4.000000,4.000000,4.000000,4.000000,4.000000,4.000000,0.000000,,,,,,,,,,,,,,,,,,,,,,,,,,,,
1732155952.242876,1732155952.243654,52.000000,0.000000,4298.205078,4297.051270,4315.897461,4306.666504,4305.384766,4291.794922,4340.256348,4390.897461,4312.692383,4296.794922,4457.179688,4487.307617,4344.230957,4408.717773,0.000000,1.000000,30.000000,,,,0.000000,2.000000,2.000000,0.000000,4.000000,2.000000,2.000000,0.000000,0.000000,4.000000,4.000000,4.000000,4.000000,4.000000,4.000000,0.000000,,,,,,,,,,,,,,,,,13.000000,0.000000,0.678248,-0.103638,-0.712524,-0.146790,0.980588,0.057136,-0.033696,-66.542259,35.696117,44.474205
1732155952.250685,1732155952.251462,53.000000,0.000000,4300.128418,4296.153809,4312.820313,4308.205078,4305.256348,4293.846191,4338.333496,4388.846191,4312.179688,4294.102539,4458.717773,4490.000000,4345.512695,4410.384766,0.000000,1.000000,30.000000,,,,0.000000,2.000000,2.000000,0.000000,4.000000,2.000000,2.000000,0.000000,0.000000,4.000000,4.000000,4.000000,4.000000,4.000000,4.000000,0.000000,,,,,,,,,,,,,,,,,,,,,,,,,,,,
1732155952.258493,1732155952.259470,54.000000,0.000000,4306.025879,4294.871582,4312.436035,4311.538574,4292.051270,4300.128418,4338.589844,4390.641113,4316.410156,4296.794922,4460.897461,4493.846191,4346.922852,4412.179688,0.000000,1.000000,30.000000,,,,0.000000,2.000000,2.000000,0.000000,4.000000,2.000000,2.000000,0.000000,0.000000,4.000000,4.000000,4.000000,4.000000,4.000000,4.000000,0.000000,,,,,,,,,,,,,,,,,,,,,,,,,,,,
1732155952.266301,1732155952.267278,55.000000,0.000000,4300.256348,4292.179688,4314.230957,4308.846191,4285.000000,4303.333496,4342.436035,4390.641113,4317.563965,4298.077148,4455.512695,4484.230957,4340.769043,4403.589844,0.000000,1.000000,30.000000,,,,0.000000,2.000000,2.000000,0.000000,4.000000,2.000000,2.000000,0.000000,0.000000,4.000000,4.000000,4.000000,4.000000,4.000000,4.000000,0.000000,,,,,,,,,,,,,,,,,,,,,,,,,,,,
1732155952.274109,1732155952.275187,56.000000,0.000000,4296.282227,4293.589844,4316.922852,4305.769043,4291.922852,4299.230957,4341.922852,4389.743652,4316.282227,4297.692383,4451.538574,4479.487305,4340.000000,4399.102539,0.000000,1.000000,30.000000,,,,0.000000,2.000000,2.000000,0.000000,4.000000,2.000000,2.000000,0.000000,0.000000,4.000000,4.000000,4.000000,4.000000,4.000000,4.000000,0.000000,,,,,,,,,,,,,,,,,14.000000,0.000000,0.678059,-0.103210,-0.712830,-0.146484,0.978635,0.066414,-0.034184,-66.659233,35.755520,44.310772
1732155952.281917,1732155952.282995,57.000000,0.000000,4303.717773,4299.487305,4316.666504,4309.743652,4303.461426,4295.256348,4338.077148,4389.615234,4315.256348,4299.871582,4457.051270,4488.205078,4346.666504,4405.641113,0.000000,1.000000,30.000000,,,,0.000000,2.000000,2.000000,0.000000,4.000000,2.000000,2.000000,0.000000,0.000000,4.000000,4.000000,4.000000,4.000000,4.000000,4.000000,0.000000,,,,,,,,,,,,,,,,,,,,,,,,,,,,
1732155952.289726,1732155952.291003,58.000000,0.000000,4306.153809,4299.871582,4316.153809,4313.461426,4310.128418,4295.256348,4339.487305,4390.000000,4318.589844,4303.461426,4461.153809,4491.538574,4348.077148,4408.205078,0.000000,1.000000,30.000000,,,,0.000000,2.000000,2.000000,0.000000,4.000000,2.000000,2.000000,0.000000,0.000000,4.000000,4.000000,4.000000,4.000000,4.000000,4.000000,0.000000,,,,,,,,,,,,,,,,,,,,,,,,,,,,
1732155952.297534,1732155952.298811,59.000000,0.000000,4302.436035,4297.563965,4314.487305,4315.128418,4298.974121,4297.820313,4340.512695,4390.512695,4321.922852,4304.358887,4458.077148,4487.051270,4346.922852,4407.692383,0.000000,1.000000,30.000000,,,,0.000000,2.000000,2.000000,0.000000,4.000000,2.000000,2.000000,0.000000,0.000000,4.000000,4.000000,4.000000,4.000000,4.000000,4.000000,0.000000,,,,,,,,,,,,,,,,,,,,,,,,,,,,
1732155952.305342,1732155952.306719,60.000000,0.000000,4305.384766,4298.846191,4312.692383,4316.666504,4285.256348,4299.487305,4338.461426,4391.922852,4318.974121,4302.563965,4458.461426,4488.077148,4349.615234,4411.282227,0.000000,1.000000,30.000000,,,,0.000000,2.000000,2.000000,0.000000,4.000000,2.000000,2.000000,0.000000,0.000000,4.000000,4.000000,4.000000,4.000000,4.000000,4.000000,0.000000,,,,,,,,,,,,,,,,,15.000000,0.000000,0.677572,-0.102295,-0.713562,-0.145813,0.968380,0.053229,-0.062019,-66.580643,35.850307,44.266724
1732155952.313151,1732155952.314527,61.000000,0.000000,4308.589844,4299.230957,4310.641113,4314.358887,4289.487305,4297.051270,4337.820313,4391.538574,4320.512695,4303.846191,4462.307617,4491.666504,4351.794922,4413.205078,0.000000,1.000000,30.000000,,,,0.000000,2.000000,2.000000,0.000000,4.000000,2.000000,2.000000,0.000000,0.000000,4.000000,4.000000,4.000000,4.000000,4.000000,4.000000,0.000000,,,,,,,,,,,,,,,,,,,,,,,,,,,,
1732155952.320959,1732155952.322535,62.000000,0.000000,4303.589844,4294.743652,4314.871582,4308.205078,4290.000000,4293.077148,4339.743652,4389.871582,4322.436035,4304.230957,4461.410156,4491.025879,4347.307617,4413.077148,0.000000,1.000000,30.000000,,,,0.000000,2.000000,2.000000,0.000000,4.000000,2.000000,2.000000,0.000000,0.000000,4.000000,4.000000,4.000000,4.000000,4.000000,4.000000,0.000000,,,,,,,,,,,,,,,,,,,,,,,,,,,,
1732155952.328767,1732155952.330344,63.000000,0.000000,4303.205078,4290.128418,4315.897461,4302.436035,4295.897461,4294.871582,4340.000000,4389.871582,4315.769043,4297.692383,4458.205078,4489.743652,4344.487305,4412.820313,0.000000,1.000000,30.000000,,,,0.000000,2.000000,2.000000,0.000000,4.000000,2.000000,2.000000,0.000000,0.000000,4.000000,4.000000,4.000000,4.000000,4.000000,4.000000,0.000000,,,,,,,,,,,,,,,,,,,,,,,,,,,,
1732155952.336575,1732155952.338052,64.000000,0.000000,4310.256348,4290.641113,4315.769043,4306.025879,4309.230957,4297.692383,4338.846191,4391.410156,4311.794922,4293.974121,4459.102539,4489.487305,4348.717773,4412.436035,0.000000,1.000000,30.000000,,,,0.000000,2.000000,2.000000,0.000000,4.000000,2.000000,2.000000,0.000000,0.000000,4.000000,4.000000,4.000000,4.000000,4.000000,4.000000,0.000000,,,,,,,,,,,,,,,,,16.000000,0.000000,0.677409,-0.101501,-0.713867,-0.145630,0.972775,0.070321,-0.041021,-66.585320,35.908749,44.182713
1732155952.344383,1732155952.345860,65.000000,0.000000,4311.794922,4295.256348,4315.000000,4315.000000,4289.358887,4295.512695,4338.205078,4391.282227,4318.077148,4302.051270,4462.563965,4493.205078,4352.051270,4415.000000,1613.000000,1.000000,30.000000,,,,0.000000,2.000000,2.000000,0.000000,4.000000,2.000000,2.000000,0.000000,0.000000,4.000000,4.000000,4.000000,4.000000,4.000000,4.000000,0.000000,,,,,,,,,,,,,,,,,,,,,,,,,,,,
1732155952.352192,1732155952.353468,66.000000,0.000000,4307.820313,4297.820313,4315.384766,4313.974121,4269.230957,4295.384766,4338.846191,4389.487305,4321.025879,4304.230957,4462.563965,4494.615234,4351.282227,4417.179688,1436.000000,1.000000,30.000000,,,,0.000000,2.000000,2.000000,0.000000,4.000000,2.000000,2.000000,0.000000,0.000000,4.000000,4.000000,4.000000,4.000000,4.000000,4.000000,0.000000,,,,,,,,,,,,,,,,,,,,,,,,,,,,
1732155952.360000,1732155952.361277,67.000000,0.000000,4307.436035,4296.282227,4312.820313,4308.974121,4295.256348,4297.948730,4338.077148,4388.974121,4314.230957,4295.256348,4459.615234,4485.769043,4346.153809,4413.205078,1434.000000,1.000000,30.000000,,,,0.000000,2.000000,2.000000,0.000000,4.000000,2.000000,2.000000,0.000000,0.000000,4.000000,4.000000,4.000000,4.000000,4.000000,4.000000,0.000000,,,,,,,,,,,,,,,,,,,,,,,,,,,,
1732155952.367808,1732155952.368985,68.000000,0.000000,4304.358887,4292.563965,4314.102539,4311.538574,4310.769043,4296.538574,4338.205078,4389.743652,4310.000000,4293.974121,4458.077148,4481.538574,4341.666504,4410.256348,1411.000000,1.000000,30.000000,,,,0.000000,2.000000,2.000000,0.000000,4.000000,2.000000,2.000000,0.000000,0.000000,4.000000,4.000000,4.000000,4.000000,4.000000,4.000000,0.000000,,,,,,,,,,,,,,,,,17.000000,0.000000,0.677313,-0.101196,-0.713989,-0.145691,0.972775,0.070321,-0.041021,-66.610779,35.777752,44.137997
1732155952.375616,1732155952.376793,69.000000,0.000000,4298.205078,4293.205078,4316.410156,4312.307617,4285.256348,4295.512695,4338.589844,4390.897461,4311.666504,4297.179688,4460.000000,4487.692383,4342.692383,4409.871582,1255.000000,1.000000,30.000000,,,,0.000000,2.000000,2.000000,0.000000,4.000000,2.000000,2.000000,0.000000,0.000000,4.000000,4.000000,4.000000,4.000000,4.000000,4.000000,0.000000,,,,,,,,,,,,,,,,,,,,,,,,,,,,
1732155952.383425,1732155952.384402,70.000000,0.000000,4299.871582,4298.717773,4317.051270,4306.794922,4270.128418,4292.948730,4337.692383,4390.256348,4314.358887,4296.538574,4461.922852,4490.769043,4349.230957,4410.769043,0.000000,1.000000,30.000000,,,,0.000000,2.000000,2.000000,0.000000,4.000000,2.000000,2.000000,0.000000,0.000000,4.000000,4.000000,4.000000,4.000000,4.000000,4.000000,0.000000,,,,,,,,,,,,,,,,,,,,,,,,,,,,
1732155952.391233,1732155952.392210,71.000000,0.000000,4302.820313,4297.051270,4314.871582,4306.794922,4287.307617,4287.307617,4337.179688,4390.128418,4312.563965,4296.666504,4460.769043,4485.000000,4354.358887,4413.205078,0.000000,1.000000,30.000000,,,,0.000000,2.000000,2.000000,0.000000,4.000000,2.000000,2.000000,0.000000,0.000000,4.000000,4.000000,4.000000,4.000000,4.000000,4.000000,0.000000,,,,,,,,,,,,,,,,,,,,,,,,,,,,
1732155952.399041,1732155952.399918,72.000000,0.000000,4300.128418,4293.077148,4314.615234,4307.307617,4307.307617,4287.307617,4337.948730,4390.512695,4310.897461,4297.179688,4458.717773,4481.282227,4351.794922,4406.666504,1543.000000,1.000000,30.000000,,,,0.000000,2.000000,2.000000,0.000000,4.000000,2.000000,2.000000,0.000000,0.000000,4.000000,4.000000,4.000000,4.000000,4.000000,4.000000,0.000000,,,,,,,,,,,,,,,,,18.000000,0.000000,0.677001,-0.099915,-0.714478,-0.145630,0.984984,0.062996,-0.038579,-66.609726,35.819981,44.165112
1732155952.406849,1732155952.407726,73.000000,0.000000,4297.948730,4295.256348,4315.512695,4304.230957,4299.358887,4292.692383,4339.358887,4390.512695,4312.563965,4296.410156,4459.358887,4483.589844,4349.615234,4396.410156,1705.000000,1.000000,30.000000,,,,0.000000,2.000000,2.000000,0.000000,4.000000,2.000000,2.000000,0.000000,0.000000,4.000000,4.000000,4.000000,4.000000,4.000000,4.000000,0.000000,,,,,,,,,,,,,,,,,,,,,,,,,,,,
1732155952.414658,1732155952.415335,74.000000,0.000000,4301.282227,4296.025879,4312.563965,4307.820313,4276.666504,4295.256348,4339.358887,4391.538574,4314.102539,4299.615234,4460.641113,4488.846191,4354.615234,4403.974121,1546.000000,1.000000,30.000000,,,,0.000000,2.000000,2.000000,0.000000,4.000000,2.000000,2.000000,0.000000,0.000000,4.000000,4.000000,4.000000,4.000000,4.000000,4.000000,0.000000,,,,,,,,,,,,,,,,,,,,,,,,,,,,
1732155952.422466,1732155952.423143,75.000000,0.000000,4301.666504,4292.436035,4312.563965,4310.512695,4274.487305,4296.922852,4339.487305,4391.410156,4314.615234,4301.922852,4460.897461,4491.153809,4356.153809,4414.230957,1588.000000,1.000000,30.000000,,,,0.000000,2.000000,2.000000,0.000000,4.000000,2.000000,2.000000,0.000000,0.000000,4.000000,4.000000,4.000000,4.000000,4.000000,4.000000,0.000000,,,,,,,,,,,,,,,,,,,,,,,,,,,,
1732155952.430274,1732155952.430851,76.000000,0.000000,4299.871582,4293.333496,4313.333496,4305.897461,4296.794922,4295.769043,4338.333496,4390.128418,4314.615234,4298.717773,4460.512695,4484.102539,4351.153809,4408.333496,1726.000000,1.000000,30.000000,,,,0.000000,2.000000,2.000000,0.000000,4.000000,2.000000,2.000000,0.000000,0.000000,4.000000,4.000000,4.000000,4.000000,4.000000,4.000000,0.000000,,,,,,,,,,,,,,,,,19.000000,0.000000,0.677039,-0.099670,-0.714539,-0.145325,0.975217,0.062508,-0.052252,-66.692215,35.854183,44.187073
1732155952.438082,1732155952.438659,77.000000,0.000000,4304.871582,4295.641113,4315.384766,4305.384766,4302.820313,4294.615234,4337.307617,4391.922852,4314.102539,4297.436035,4460.128418,4479.743652,4348.717773,4403.461426,1706.000000,1.000000,30.000000,,,,0.000000,2.000000,2.000000,0.000000,4.000000,2.000000,2.000000,0.000000,0.000000,4.000000,4.000000,4.000000,4.000000,4.000000,4.000000,0.000000,,,,,,,,,,,,,,,,,,,,,,,,,,,,
1732155952.445891,1732155952.446268,78.000000,0.000000,4307.563965,4293.974121,4313.974121,4311.410156,4281.922852,4301.282227,4336.922852,4391.025879,4311.666504,4296.666504,4460.000000,4482.179688,4346.538574,4404.871582,1546.000000,1.000000,30.000000,,,,0.000000,2.000000,2.000000,0.000000,4.000000,2.000000,2.000000,0.000000,0.000000,4.000000,4.000000,4.000000,4.000000,4.000000,4.000000,0.000000,1.000000,0.000000,2.000000,2.000000,0.000000,4.000000,2.000000,2.000000,0.000000,0.000000,1.000000,4.000000,4.000000,4.000000,4.000000,4.000000,,,,,,,,,,,,
1732155952.453699,1732155952.454076,79.000000,0.000000,4302.692383,4293.974121,4316.666504,4310.256348,4272.307617,4305.000000,4337.948730,4388.461426,4307.948730,4289.743652,4455.256348,4485.128418,4340.897461,4400.000000,1588.000000,1.000000,30.000000,,,,0.000000,2.000000,2.000000,0.000000,4.000000,2.000000,2.000000,0.000000,0.000000,4.000000,4.000000,4.000000,4.000000,4.000000,4.000000,0.000000,,,,,,,,,,,,,,,,,,,,,,,,,,,,
1732155952.461507,1732155952.461784,80.000000,0.000000,4302.179688,4292.692383,4314.871582,4304.487305,4289.358887,4296.410156,4336.410156,4390.384766,4305.641113,4283.974121,4446.922852,4483.333496,4339.743652,4396.153809,1726.000000,1.000000,30.000000,,,,0.000000,2.000000,2.000000,0.000000,4.000000,2.000000,2.000000,0.000000,0.000000,4.000000,4.000000,4.000000,4.000000,4.000000,4.000000,0.000000,,,,,,,,,,,,,,,,,20.000000,0.000000,0.676974,-0.099670,-0.714600,-0.145325,0.974728,0.065438,-0.033207,-66.719025,35.691887,44.183197
1732155952.469315,1732155952.469593,81.000000,0.000000,4306.922852,4289.358887,4313.461426,4304.487305,4296.282227,4293.205078,4335.769043,4392.307617,4306.666504,4283.974121,4443.974121,4478.717773,4341.922852,4398.461426,1706.000000,1.000000,30.000000,,,,0.000000,2.000000,2.000000,0.000000,4.000000,2.000000,2.000000,0.000000,0.000000,4.000000,4.000000,4.000000,4.000000,4.000000,4.000000,0.000000,,,,,,,,,,,,,,,,,,,,,,,,,,,,
1732155952.477124,1732155952.477201,82.000000,0.000000,4306.666504,4290.384766,4312.820313,4307.692383,4277.948730,4303.717773,4340.128418,4390.128418,4309.871582,4287.051270,4450.000000,4478.717773,4340.128418,4397.179688,1546.000000,1.000000,30.000000,,,,0.000000,2.000000,2.000000,0.000000,4.000000,2.000000,2.000000,0.000000,0.000000,4.000000,4.000000,4.000000,4.000000,4.000000,4.000000,0.000000,,,,,,,,,,,,,,,,,,,,,,,,,,,,
1732155952.484932,1732155952.485009,83.000000,0.000000,4303.974121,4290.128418,4315.256348,4305.641113,4275.000000,4305.897461,4342.179688,4388.974121,4313.205078,4291.538574,4452.307617,4484.615234,4339.871582,4395.641113,1588.000000,1.000000,30.000000,,,,0.000000,2.000000,2.000000,0.000000,4.000000,2.000000,2.000000,0.000000,0.000000,4.000000,4.000000,4.000000,4.000000,4.000000,4.000000,0.000000,,,,,,,,,,,,,,,,,,,,,,,,,,,,
1732155952.492740,1732155952.492718,84.000000,0.000000,4301.666504,4288.589844,4314.615234,4303.333496,4285.000000,4298.461426,4340.769043,4390.128418,4312.436035,4293.461426,4452.820313,4484.615234,4343.333496,4397.820313,1726.000000,1.000000,30.000000,,,,0.000000,2.000000,2.000000,0.000000,4.000000,2.000000,2.000000,0.000000,0.000000,4.000000,4.000000,4.000000,4.000000,4.000000,4.000000,0.000000,,,,,,,,,,,,,,,,,21.000000,0.000000,0.676869,-0.099426,-0.714783,-0.145081,0.963008,0.072274,-0.041509,-66.772415,35.813763,44.148388
1732155952.500548,1732155952.500526,85.000000,0.000000,4298.077148,4286.153809,4314.358887,4303.077148,4289.358887,4297.563965,4341.153809,4390.256348,4307.179688,4288.846191,4452.051270,4477.051270,4341.410156,4394.615234,1706.000000,1.000000,30.000000,,,,0.000000,2.000000,2.000000,0.000000,4.000000,2.000000,2.000000,0.000000,0.000000,4.000000,4.000000,4.000000,4.000000,4.000000,4.000000,0.000000,,,,,,,,,,,,,,,,,,,,,,,,,,,,
1732155952.508356,1732155952.508134,86.000000,0.000000,4296.282227,4287.563965,4314.615234,4303.077148,4302.692383,4301.922852,4341.794922,4390.769043,4307.051270,4286.282227,4448.333496,4480.128418,4338.974121,4390.256348,1546.000000,1.000000,30.000000,,,,0.000000,2.000000,2.000000,0.000000,4.000000,2.000000,2.000000,0.000000,0.000000,4.000000,4.000000,4.000000,4.000000,4.000000,4.000000,0.000000,,,,,,,,,,,,,,,,,,,,,,,,,,,,
1732155952.516165,1732155952.515942,87.000000,0.000000,4297.948730,4289.487305,4313.717773,4306.922852,4305.128418,4301.153809,4339.743652,4390.512695,4312.436035,4292.179688,4452.051270,4489.230957,4342.051270,4393.974121,1588.000000,1.000000,30.000000,,,,0.000000,2.000000,2.000000,0.000000,4.000000,2.000000,2.000000,0.000000,0.000000,4.000000,4.000000,4.000000,4.000000,4.000000,4.000000,0.000000,,,,,,,,,,,,,,,,,,,,,,,,,,,,
1732155952.523973,1732155952.523650,88.000000,0.000000,4301.282227,4291.666504,4315.641113,4312.436035,4285.128418,4299.615234,4339.743652,4391.538574,4315.000000,4297.179688,4459.358887,4489.743652,4346.410156,4398.974121,1726.000000,1.000000,30.000000,,,,0.000000,2.000000,2.000000,0.000000,4.000000,2.000000,2.000000,0.000000,0.000000,4.000000,4.000000,4.000000,4.000000,4.000000,4.000000,0.000000,,,,,,,,,,,,,,,,,22.000000,0.000000,0.676767,-0.098450,-0.715027,-0.145020,0.974240,0.080088,-0.042486,-66.962318,35.850815,44.338528
1732155952.531781,1732155952.531458,89.000000,0.000000,4302.563965,4291.794922,4317.307617,4309.230957,4275.000000,4305.641113,4340.512695,4392.436035,4315.000000,4299.230957,4458.461426,4487.436035,4346.666504,4397.307617,1706.000000,1.000000,30.000000,,,,0.000000,2.000000,2.000000,0.000000,4.000000,2.000000,2.000000,0.000000,0.000000,4.000000,4.000000,4.000000,4.000000,4.000000,4.000000,0.000000,,,,,,,,,,,,,,,,,,,,,,,,,,,,
1732155952.539590,1732155952.539466,90.000000,0.000000,4299.487305,4288.846191,4317.179688,4301.153809,4289.102539,4307.563965,4339.487305,4392.179688,4313.461426,4297.179688,4456.666504,4489.743652,4348.589844,4394.743652,1546.000000,1.000000,30.000000,,,,0.000000,2.000000,2.000000,0.000000,4.000000,2.000000,2.000000,0.000000,0.000000,4.000000,4.000000,4.000000,4.000000,4.000000,4.000000,0.000000,,,,,,,,,,,,,,,,,,,,,,,,,,,,
1732155952.547398,1732155952.547275,91.000000,0.000000,4296.538574,4289.358887,4315.128418,4299.358887,4303.077148,4300.256348,4339.871582,4392.436035,4310.641113,4293.717773,4458.205078,4488.077148,4350.128418,4394.743652,1588.000000,1.000000,30.000000,,,,0.000000,2.000000,2.000000,0.000000,4.000000,2.000000,2.000000,0.000000,0.000000,4.000000,4.000000,4.000000,4.000000,4.000000,4.000000,0.000000,,,,,,,,,,,,,,,,,,,,,,,,,,,,
1732155952.555206,1732155952.555183,92.000000,0.000000,4298.205078,4290.769043,4317.563965,4300.641113,4297.563965,4297.563965,4342.307617,4391.538574,4309.615234,4293.589844,4455.000000,4484.102539,4347.436035,4395.512695,1726.000000,1.000000,30.000000,,,,0.000000,2.000000,2.000000,0.000000,4.000000,2.000000,2.000000,0.000000,0.000000,4.000000,4.000000,4.000000,4.000000,4.000000,4.000000,0.000000,,,,,,,,,,,,,,,,,23.000000,0.000000,0.676783,-0.097717,-0.715149,-0.144836,0.959590,0.057136,-0.043951,-67.141144,35.877495,44.500874
1732155952.563014,1732155952.562991,93.000000,0.000000,4303.589844,4290.128418,4317.051270,4304.230957,4277.948730,4302.436035,4340.897461,4388.461426,4311.410156,4295.256348,4454.743652,4487.563965,4347.179688,4398.077148,1706.000000,1.000000,30.000000,,,,0.000000,2.000000,2.000000,0.000000,4.000000,2.000000,2.000000,0.000000,0.000000,4.000000,4.000000,4.000000,4.000000,4.000000,4.000000,0.000000,,,,,,,,,,,,,,,,,,,,,,,,,,,,
1732155952.570822,1732155952.570999,94.000000,0.000000,4305.769043,4289.615234,4315.769043,4305.769043,4271.282227,4303.717773,4339.487305,4389.743652,4312.051270,4292.563965,4458.846191,4490.641113,4347.563965,4399.871582,1546.000000,1.000000,30.000000,,,,0.000000,2.000000,2.000000,0.000000,4.000000,2.000000,2.000000,0.000000,0.000000,4.000000,4.000000,4.000000,4.000000,4.000000,4.000000,0.000000,,,,,,,,,,,,,,,,,,,,,,,,,,,,
1732155952.578631,1732155952.578807,95.000000,0.000000,4306.410156,4290.384766,4315.512695,4304.102539,4293.974121,4301.538574,4339.871582,4392.563965,4310.256348,4291.538574,4457.563965,4490.256348,4346.025879,4398.461426,1588.000000,1.000000,30.000000,,,,0.000000,2.000000,2.000000,0.000000,4.000000,2.000000,2.000000,0.000000,0.000000,4.000000,4.000000,4.000000,4.000000,4.000000,4.000000,0.000000,,,,,,,,,,,,,,,,,,,,,,,,,,,,
1732155952.586439,1732155952.586715,96.000000,0.000000,4310.000000,4289.615234,4317.692383,4305.000000,4303.333496,4301.794922,4338.461426,4391.410156,4308.333496,4293.717773,4456.538574,4489.615234,4346.153809,4399.358887,1726.000000,1.000000,30.000000,,,,0.000000,2.000000,2.000000,0.000000,4.000000,2.000000,2.000000,0.000000,0.000000,4.000000,4.000000,4.000000,4.000000,4.000000,4.000000,0.000000,,,,,,,,,,,,,,,,,24.000000,0.000000,0.676750,-0.097412,-0.715210,-0.144897,0.984984,0.073251,-0.043951,-66.927658,36.000771,44.555710
1732155952.594247,1732155952.594523,97.000000,0.000000,4312.179688,4290.512695,4315.128418,4309.615234,4281.794922,4300.000000,4336.538574,4391.025879,4311.410156,4293.717773,4459.102539,4491.794922,4349.102539,4401.666504,1706.000000,1.000000,30.000000,,,,0.000000,2.000000,2.000000,0.000000,4.000000,2.000000,2.000000,0.000000,0.000000,4.000000,4.000000,4.000000,4.000000,4.000000,4.000000,0.000000,,,,,,,,,,,,,,,,,,,,,,,,,,,,
1732155952.602055,1732155952.602531,98.000000,0.000000,4310.512695,4292.307617,4313.974121,4310.000000,4268.717773,4298.846191,4338.461426,4392.307617,4315.641113,4294.743652,4460.641113,4494.743652,4350.897461,4401.794922,1546.000000,1.000000,30.000000,,,,0.000000,2.000000,2.000000,0.000000,4.000000,2.000000,2.000000,0.000000,0.000000,4.000000,4.000000,4.000000,4.000000,4.000000,4.000000,0.000000,,,,,,,,,,,,,,,,,,,,,,,,,,,,
1732155952.609864,1732155952.610340,99.000000,0.000000,4306.794922,4288.333496,4313.974121,4304.615234,4288.974121,4302.563965,4338.846191,4390.000000,4310.384766,4294.102539,4457.820313,4491.538574,4347.307617,4397.563965,1588.000000,1.000000,30.000000,,,,0.000000,2.000000,2.000000,0.000000,4.000000,2.000000,2.000000,0.000000,0.000000,4.000000,4.000000,4.000000,4.000000,4.000000,4.000000,0.000000,,,,,,,,,,,,,,,,,,,,,,,,,,,,
1732155952.617672,1732155952.618048,100.000000,0.000000,4301.282227,4285.641113,4314.615234,4300.641113,4306.153809,4301.666504,4338.846191,4388.461426,4304.487305,4290.641113,4454.871582,4485.128418,4343.205078,4394.102539,1726.000000,1.000000,30.000000,,,,0.000000,2.000000,2.000000,0.000000,4.000000,2.000000,2.000000,0.000000,0.000000,4.000000,4.000000,4.000000,4.000000,4.000000,4.000000,0.000000,,,,,,,,,,,,,,,,,25.000000,0.000000,0.676648,-0.096863,-0.715393,-0.144836,0.974240,0.082530,-0.052741,-67.059738,35.935623,44.431789
1732155952.625480,1732155952.625856,101.000000,0.000000,4301.153809,4289.615234,4315.256348,4305.000000,4283.461426,4298.461426,4339.487305,4391.538574,4308.589844,4292.820313,4455.641113,4488.333496,4346.666504,4397.692383,1706.000000,1.000000,30.000000,,,,0.000000,2.000000,2.000000,0.000000,4.000000,2.000000,2.000000,0.000000,0.000000,4.000000,4.000000,4.000000,4.000000,4.000000,4.000000,0.000000,,,,,,,,,,,,,,,,,,,,,,,,,,,,
1732155952.633288,1732155952.633864,102.000000,0.000000,4304.230957,4292.179688,4316.153809,4308.846191,4268.717773,4299.615234,4336.922852,4391.666504,4310.000000,4295.256348,4456.922852,4492.051270,4350.641113,4399.743652,1546.000000,1.000000,30.000000,,,,0.000000,2.000000,2.000000,0.000000,4.000000,2.000000,2.000000,0.000000,0.000000,4.000000,4.000000,4.000000,4.000000,4.000000,4.000000,0.000000,,,,,,,,,,,,,,,,,,,,,,,,,,,,
1732155952.641097,1732155952.641672,103.000000,0.000000,4300.512695,4289.743652,4315.641113,4304.871582,4292.051270,4301.025879,4338.717773,4390.897461,4307.051270,4293.333496,4456.282227,4487.051270,4348.077148,4396.410156,1588.000000,1.000000,30.000000,,,,0.000000,2.000000,2.000000,0.000000,4.000000,2.000000,2.000000,0.000000,0.000000,4.000000,4.000000,4.000000,4.000000,4.000000,4.000000,0.000000,,,,,,,,,,,,,,,,,,,,,,,,,,,,
1732155952.648905,1732155952.649580,104.000000,0.000000,4298.974121,4290.000000,4317.436035,4304.102539,4299.871582,4300.897461,4341.410156,4391.025879,4311.794922,4296.538574,4458.717773,4488.461426,4349.102539,4397.179688,1726.000000,1.000000,30.000000,,,,0.000000,2.000000,2.000000,0.000000,4.000000,2.000000,2.000000,0.000000,0.000000,4.000000,4.000000,4.000000,4.000000,4.000000,4.000000,0.000000,,,,,,,,,,,,,,,,,26.000000,0.000000,0.676645,-0.096619,-0.715454,-0.144714,0.976193,0.080088,-0.047369,-67.135056,35.902855,44.286419
1732155952.656713,1732155952.657388,105.000000,0.000000,4307.563965,4292.563965,4317.692383,4306.922852,4277.692383,4299.871582,4339.230957,4390.384766,4315.000000,4300.256348,4460.769043,4492.307617,4350.769043,4399.358887,1706.000000,1.000000,30.000000,,,,0.000000,2.000000,2.000000,0.000000,4.000000,2.000000,2.000000,0.000000,0.000000,4.000000,4.000000,4.000000,4.000000,4.000000,4.000000,0.000000,,,,,,,,,,,,,,,,,,,,,,,,,,,,
1732155952.664521,1732155952.665396,106.000000,0.000000,4309.743652,4293.205078,4312.051270,4305.897461,4274.615234,4301.410156,4337.692383,4390.897461,4310.512695,4295.897461,4457.948730,4487.436035,4349.871582,4397.179688,1546.000000,1.000000,30.000000,,,,0.000000,2.000000,2.000000,0.000000,4.000000,2.000000,2.000000,0.000000,0.000000,4.000000,4.000000,4.000000,4.000000,4.000000,4.000000,0.000000,,,,,,,,,,,,,,,,,,,,,,,,,,,,
1732155952.672330,1732155952.673204,107.000000,0.000000,4303.205078,4290.256348,4314.743652,4305.512695,4290.641113,4303.077148,4340.384766,4392.436035,4310.000000,4293.846191,4455.512695,4485.000000,4349.487305,4395.641113,1588.000000,1.000000,30.000000,,,,0.000000,2.000000,2.000000,0.000000,4.000000,2.000000,2.000000,0.000000,0.000000,4.000000,4.000000,4.000000,4.000000,4.000000,4.000000,0.000000,,,,,,,,,,,,,,,,,,,,,,,,,,,,
1732155952.680138,1732155952.681113,108.000000,0.000000,4303.846191,4291.666504,4318.717773,4308.974121,4287.436035,4303.205078,4340.641113,4390.641113,4311.794922,4294.102539,4456.922852,4485.512695,4350.128418,4395.641113,1726.000000,1.000000,30.000000,,,,0.000000,2.000000,2.000000,0.000000,4.000000,2.000000,2.000000,0.000000,0.000000,4.000000,4.000000,4.000000,4.000000,4.000000,4.000000,0.000000,,,,,,,,,,,,,,,,,27.000000,0.000000,0.676645,-0.096619,-0.715454,-0.144714,0.981565,0.076670,-0.040532,-67.076065,35.876312,44.198666
1732155952.687946,1732155952.688921,109.000000,0.000000,4305.128418,4295.000000,4317.179688,4306.922852,4286.794922,4298.974121,4338.717773,4388.205078,4306.538574,4289.102539,4457.948730,4483.846191,4349.743652,4395.641113,1706.000000,1.000000,30.000000,,,,0.000000,2.000000,2.000000,0.000000,4.000000,2.000000,2.000000,0.000000,0.000000,4.000000,4.000000,4.000000,4.000000,4.000000,4.000000,0.000000,,,,,,,,,,,,,,,,,,,,,,,,,,,,
1732155952.695754,1732155952.696929,110.000000,0.000000,4304.358887,4295.384766,4313.589844,4305.128418,4303.589844,4294.615234,4337.436035,4388.333496,4304.487305,4288.461426,4457.307617,4483.974121,4350.000000,4396.922852,1546.000000,1.000000,30.000000,,,,0.000000,2.000000,2.000000,0.000000,4.000000,2.000000,2.000000,0.000000,0.000000,4.000000,4.000000,4.000000,4.000000,4.000000,4.000000,0.000000,,,,,,,,,,,,,,,,,,,,,,,,,,,,
1732155952.703563,1732155952.704737,111.000000,0.000000,4309.102539,4294.230957,4315.641113,4306.922852,4299.102539,4295.000000,4338.461426,4391.282227,4310.384766,4293.846191,4457.179688,4488.205078,4350.897461,4398.974121,1588.000000,1.000000,30.000000,,,,0.000000,2.000000,2.000000,0.000000,4.000000,2.000000,2.000000,0.000000,0.000000,4.000000,4.000000,4.000000,4.000000,4.000000,4.000000,0.000000,,,,,,,,,,,,,,,,,,,,,,,,,,,,
1732155952.711371,1732155952.712645,112.000000,0.000000,4311.794922,4293.205078,4314.743652,4306.538574,4276.025879,4294.487305,4341.153809,4393.589844,4313.461426,4296.538574,4459.615234,4492.563965,4352.051270,4402.563965,1726.000000,1.000000,30.000000,,,,0.000000,2.000000,2.000000,0.000000,4.000000,2.000000,2.000000,0.000000,0.000000,4.000000,4.000000,4.000000,4.000000,4.000000,4.000000,0.000000,,,,,,,,,,,,,,,,,28.000000,0.000000,0.676688,-0.096497,-0.715454,-0.144592,0.979612,0.066414,-0.039556,-67.029945,35.784813,44.342587
1732155952.719179,1732155952.720453,113.000000,0.000000,4309.615234,4294.230957,4316.666504,4308.717773,4271.794922,4295.256348,4341.538574,4391.538574,4311.410156,4298.846191,4462.692383,4495.000000,4353.846191,4404.487305,1706.000000,1.000000,30.000000,,,,0.000000,2.000000,2.000000,0.000000,4.000000,2.000000,2.000000,0.000000,0.000000,4.000000,4.000000,4.000000,4.000000,4.000000,4.000000,0.000000,,,,,,,,,,,,,,,,,,,,,,,,,,,,
1732155952.726987,1732155952.728062,114.000000,0.000000,4306.538574,4293.461426,4316.538574,4310.128418,4291.666504,4297.692383,4340.256348,4389.358887,4309.615234,4298.717773,4461.538574,4493.717773,4352.436035,4400.384766,1546.000000,1.000000,30.000000,,,,0.000000,2.000000,2.000000,0.000000,4.000000,2.000000,2.000000,0.000000,0.000000,4.000000,4.000000,4.000000,4.000000,4.000000,4.000000,0.000000,,,,,,,,,,,,,,,,,,,,,,,,,,,,
1732155952.734795,1732155952.735870,115.000000,0.000000,4301.666504,4288.333496,4314.102539,4303.846191,4302.820313,4302.436035,4340.769043,4390.641113,4305.897461,4291.282227,4456.410156,4489.230957,4347.820313,4396.666504,1588.000000,1.000000,30.000000,,,,0.000000,2.000000,2.000000,0.000000,4.000000,2.000000,2.000000,0.000000,0.000000,4.000000,4.000000,4.000000,4.000000,4.000000,4.000000,0.000000,,,,,,,,,,,,,,,,,,,,,,,,,,,,
1732155952.742604,1732155952.743578,116.000000,0.000000,4300.000000,4287.436035,4311.410156,4302.563965,4291.282227,4308.461426,4341.025879,4391.922852,4307.051270,4290.897461,4454.358887,4490.128418,4344.743652,4398.077148,1726.000000,1.000000,30.000000,,,,0.000000,2.000000,2.000000,0.000000,4.000000,2.000000,2.000000,0.000000,0.000000,4.000000,4.000000,4.000000,4.000000,4.000000,4.000000,0.000000,,,,,,,,,,,,,,,,,29.000000,0.000000,0.676724,-0.096252,-0.715515,-0.144287,0.967892,0.083018,-0.045904,-66.992584,36.002365,44.142494
1732155952.750412,1732155952.751386,117.000000,0.000000,4306.538574,4291.794922,4313.333496,4311.538574,4276.282227,4307.563965,4341.538574,4390.769043,4314.358887,4299.358887,4456.922852,4492.692383,4347.307617,4398.333496,1706.000000,1.000000,30.000000,,,,0.000000,2.000000,2.000000,0.000000,4.000000,2.000000,2.000000,0.000000,0.000000,4.000000,4.000000,4.000000,4.000000,4.000000,4.000000,0.000000,,,,,,,,,,,,,,,,,,,,,,,,,,,,
1732155952.758220,1732155952.758995,118.000000,0.000000,4309.487305,4294.230957,4315.769043,4314.358887,4278.333496,4303.077148,4341.025879,4389.871582,4316.794922,4299.871582,4459.230957,4491.666504,4351.025879,4399.230957,1546.000000,1.000000,30.000000,,,,0.000000,2.000000,2.000000,0.000000,4.000000,2.000000,2.000000,0.000000,0.000000,4.000000,4.000000,4.000000,4.000000,4.000000,4.000000,0.000000,,,,,,,,,,,,,,,,,,,,,,,,,,,,
1732155952.766029,1732155952.766803,119.000000,0.000000,4308.205078,4290.769043,4317.051270,4307.692383,4300.897461,4297.307617,4339.102539,4389.102539,4313.461426,4296.282227,4460.000000,4488.717773,4349.871582,4402.948730,1588.000000,1.000000,30.000000,,,,0.000000,2.000000,2.000000,0.000000,4.000000,2.000000,2.000000,0.000000,0.000000,4.000000,4.000000,4.000000,4.000000,4.000000,4.000000,0.000000,,,,,,,,,,,,,,,,,,,,,,,,,,,,
1732155952.773837,1732155952.774711,120.000000,0.000000,4310.512695,4288.717773,4317.948730,4306.666504,4306.153809,4295.641113,4340.512695,4391.922852,4313.589844,4298.717773,4459.358887,4489.743652,4350.000000,4401.922852,1726.000000,1.000000,30.000000,,,,0.000000,2.000000,2.000000,0.000000,4.000000,2.000000,2.000000,0.000000,0.000000,4.000000,4.000000,4.000000,4.000000,4.000000,4.000000,0.000000,,,,,,,,,,,,,,,,,30.000000,0.000000,0.676841,-0.095703,-0.715576,-0.143799,0.988402,0.056159,-0.037602,-66.945663,36.191917,43.813755
1732155952.781645,1732155952.782519,121.000000,0.000000,4308.717773,4289.871582,4316.153809,4309.487305,4282.307617,4302.948730,4341.025879,4394.358887,4315.000000,4298.589844,4458.717773,4492.692383,4350.512695,4398.461426,1706.000000,1.000000,30.000000,,,,0.000000,2.000000,2.000000,0.000000,4.000000,2.000000,2.000000,0.000000,0.000000,4.000000,4.000000,4.000000,4.000000,4.000000,4.000000,0.000000,,,,,,,,,,,,,,,,,,,,,,,,,,,,
1732155952.789453,1732155952.790128,122.000000,0.000000,4303.077148,4289.615234,4318.205078,4307.820313,4272.948730,4305.256348,4341.153809,4391.538574,4315.769043,4296.666504,4460.000000,4491.794922,4348.717773,4397.948730,1546.000000,1.000000,30.000000,,,,0.000000,2.000000,2.000000,0.000000,4.000000,2.000000,2.000000,0.000000,0.000000,4.000000,4.000000,4.000000,4.000000,4.000000,4.000000,0.000000,,,,,,,,,,,,,,,,,,,,,,,,,,,,
1732155952.797261,1732155952.797936,123.000000,0.000000,4301.282227,4286.666504,4319.230957,4303.717773,4294.743652,4295.769043,4342.563965,4388.333496,4321.794922,4301.538574,4459.615234,4489.871582,4346.794922,4398.205078,1588.000000,1.000000,30.000000,,,,0.000000,2.000000,2.000000,0.000000,4.000000,2.000000,2.000000,0.000000,0.000000,4.000000,4.000000,4.000000,4.000000,4.000000,4.000000,0.000000,,,,,,,,,,,,,,,,,,,,,,,,,,,,
1732155952.805070,1732155952.805644,124.000000,0.000000,4300.641113,4285.512695,4319.487305,4302.692383,4302.563965,4292.307617,4341.922852,4389.743652,4323.333496,4304.615234,4458.333496,4490.769043,4344.615234,4400.000000,1726.000000,1.000000,30.000000,,,,0.000000,2.000000,2.000000,0.000000,4.000000,2.000000,2.000000,0.000000,0.000000,4.000000,4.000000,4.000000,4.000000,4.000000,4.000000,0.000000,,,,,,,,,,,,,,,,,31.000000,0.000000,0.676845,-0.095764,-0.715576,-0.143738,0.988402,0.056159,-0.037602,-67.430984,36.345451,43.975807
1732155952.812878,1732155952.813453,125.000000,0.000000,4298.974121,4288.461426,4316.538574,4307.307617,4283.333496,4301.538574,4339.102539,4392.692383,4313.077148,4297.692383,4461.025879,4494.615234,4345.512695,4403.461426,1706.000000,1.000000,30.000000,,,,0.000000,2.000000,2.000000,0.000000,4.000000,2.000000,2.000000,0.000000,0.000000,4.000000,4.000000,4.000000,4.000000,4.000000,4.000000,0.000000,,,,,,,,,,,,,,,,,,,,,,,,,,,,
1732155952.820686,1732155952.821061,126.000000,0.000000,4297.179688,4288.205078,4316.922852,4309.871582,4277.948730,4301.282227,4339.743652,4393.205078,4307.436035,4295.256348,4462.179688,4497.051270,4350.000000,4402.307617,1546.000000,1.000000,30.000000,,,,0.000000,2.000000,2.000000,0.000000,4.000000,2.000000,2.000000,0.000000,0.000000,4.000000,4.000000,4.000000,4.000000,4.000000,4.000000,0.000000,,,,,,,,,,,,,,,,,,,,,,,,,,,,
1732155952.828494,1732155952.828869,127.000000,0.000000,4298.461426,4287.948730,4317.051270,4309.230957,4290.128418,4294.871582,4340.128418,4391.666504,4314.871582,4305.000000,4460.256348,4493.461426,4352.820313,4396.922852,30.000000,1.000000,30.000000,,,,0.000000,2.000000,2.000000,0.000000,4.000000,2.000000,2.000000,0.000000,0.000000,4.000000,4.000000,4.000000,4.000000,4.000000,4.000000,0.000000,,,,,,,,,,,,,,,,,,,,,,,,,,,,
1732155952.836303,1732155952.836577,0.000000,0.000000,4299.743652,4290.769043,4319.102539,4308.461426,4293.205078,4295.128418,4338.974121,4389.871582,4319.358887,4308.846191,4459.871582,4489.487305,4349.487305,4397.948730,0.000000,1.000000,30.000000,,,,0.000000,2.000000,2.000000,0.000000,4.000000,2.000000,2.000000,0.000000,0.000000,4.000000,4.000000,4.000000,4.000000,4.000000,4.000000,0.000000,,,,,,,,,,,,,,,,,0.000000,0.000000,0.676875,-0.096008,-0.715515,-0.143738,0.984007,0.050299,-0.039067,-67.429100,36.211483,44.015404
1732155952.844111,1732155952.844386,1.000000,0.000000,4301.666504,4292.051270,4316.794922,4309.615234,4292.563965,4296.922852,4338.461426,4392.179688,4311.922852,4298.205078,4458.333496,4491.410156,4344.487305,4400.384766,1614.000000,1.000000,30.000000,,,,0.000000,2.000000,2.000000,0.000000,4.000000,2.000000,2.000000,0.000000,0.000000,4.000000,4.000000,4.000000,4.000000,4.000000,4.000000,0.000000,,,,,,,,,,,,,,,,,,,,,,,,,,,,
1732155952.851919,1732155952.851994,2.000000,0.000000,4301.025879,4290.512695,4314.102539,4308.205078,4302.820313,4295.641113,4338.461426,4395.641113,4303.461426,4289.487305,4455.512695,4492.051270,4344.743652,4397.051270,1436.000000,1.000000,30.000000,,,,0.000000,2.000000,2.000000,0.000000,4.000000,2.000000,2.000000,0.000000,0.000000,4.000000,4.000000,4.000000,4.000000,4.000000,4.000000,0.000000,,,,,,,,,,,,,,,,,,,,,,,,,,,,
1732155952.859727,1732155952.859802,3.000000,0.000000,4296.794922,4287.307617,4314.615234,4303.077148,4305.256348,4293.589844,4340.769043,4394.615234,4305.641113,4297.563965,4458.589844,4488.077148,4352.563965,4400.128418,1434.000000,1.000000,30.000000,,,,0.000000,2.000000,2.000000,0.000000,4.000000,2.000000,2.000000,0.000000,0.000000,4.000000,4.000000,4.000000,4.000000,4.000000,4.000000,0.000000,,,,,,,,,,,,,,,,,,,,,,,,,,,,
1732155952.867536,1732155952.867511,4.000000,0.000000,4297.692383,4286.666504,4318.846191,4300.384766,4287.692383,4295.512695,4343.205078,4391.282227,4313.589844,4306.538574,4463.717773,4488.974121,4358.205078,4408.589844,1421.000000,1.000000,30.000000,,,,0.000000,2.000000,2.000000,0.000000,4.000000,2.000000,2.000000,0.000000,0.000000,4.000000,4.000000,4.000000,4.000000,4.000000,4.000000,0.000000,,,,,,,,,,,,,,,,,1.000000,0.000000,0.676780,-0.096130,-0.715576,-0.143799,0.982542,0.061043,-0.047857,-67.294235,36.136299,44.047478
1732155952.875344,1732155952.875319,5.000000,0.000000,4302.436035,4289.615234,4316.538574,4303.461426,4274.102539,4297.051270,4340.512695,4390.769043,4314.487305,4302.948730,4463.077148,4490.384766,4354.871582,4407.307617,1254.000000,1.000000,30.000000,,,,0.000000,2.000000,2.000000,0.000000,4.000000,2.000000,2.000000,0.000000,0.000000,4.000000,4.000000,4.000000,4.000000,4.000000,4.000000,0.000000,,,,,,,,,,,,,,,,,,,,,,,,,,,,
1732155952.883152,1732155952.882927,6.000000,0.000000,4300.512695,4288.846191,4314.358887,4305.256348,4283.589844,4294.358887,4338.461426,4389.487305,4309.743652,4296.666504,4458.333496,4486.025879,4349.230957,4399.102539,0.000000,1.000000,30.000000,,,,0.000000,2.000000,2.000000,0.000000,4.000000,2.000000,2.000000,0.000000,0.000000,4.000000,4.000000,4.000000,4.000000,4.000000,4.000000,0.000000,,,,,,,,,,,,,,,,,,,,,,,,,,,,
1732155952.890960,1732155952.890735,7.000000,0.000000,4294.871582,4283.205078,4318.205078,4300.512695,4299.358887,4291.410156,4339.871582,4387.820313,4309.230957,4296.410156,4457.051270,4484.615234,4348.846191,4397.179688,0.000000,1.000000,30.000000,,,,0.000000,2.000000,2.000000,0.000000,4.000000,2.000000,2.000000,0.000000,0.000000,4.000000,4.000000,4.000000,4.000000,4.000000,4.000000,0.000000,,,,,,,,,,,,,,,,,,,,,,,,,,,,
1732155952.898769,1732155952.898644,8.000000,0.000000,4296.153809,4284.230957,4319.230957,4297.563965,4295.769043,4292.820313,4339.487305,4390.256348,4312.436035,4300.384766,4461.538574,4491.794922,4353.077148,4402.692383,1544.000000,1.000000,30.000000,,,,0.000000,2.000000,2.000000,0.000000,4.000000,2.000000,2.000000,0.000000,0.000000,4.000000,4.000000,4.000000,4.000000,4.000000,4.000000,0.000000,,,,,,,,,,,,,,,,,2.000000,0.000000,0.676776,-0.096069,-0.715576,-0.143860,0.974240,0.087901,-0.038579,-67.426666,36.075405,44.211788
1732155952.906577,1732155952.906452,9.000000,0.000000,4301.666504,4291.153809,4316.025879,4303.846191,4277.307617,4296.922852,4339.615234,4393.589844,4315.384766,4305.256348,4467.563965,4499.487305,4355.641113,4410.256348,1708.000000,1.000000,30.000000,,,,0.000000,2.000000,2.000000,0.000000,4.000000,2.000000,2.000000,0.000000,0.000000,4.000000,4.000000,4.000000,4.000000,4.000000,4.000000,0.000000,,,,,,,,,,,,,,,,,,,,,,,,,,,,
1732155952.914385,1732155952.914460,10.000000,0.000000,4303.461426,4292.563965,4315.000000,4308.461426,4280.128418,4293.077148,4340.769043,4391.666504,4317.820313,4307.051270,4467.307617,4498.333496,4353.846191,4412.820313,1546.000000,1.000000,30.000000,,,,0.000000,2.000000,2.000000,0.000000,4.000000,2.000000,2.000000,0.000000,0.000000,4.000000,4.000000,4.000000,4.000000,4.000000,4.000000,0.000000,,,,,,,,,,,,,,,,,,,,,,,,,,,,
1732155952.922193,1732155952.922268,11.000000,0.000000,4298.333496,4287.051270,4317.948730,4303.205078,4301.153809,4289.743652,4341.153809,4390.641113,4315.256348,4301.794922,4459.743652,4492.436035,4353.205078,4406.282227,1588.000000,1.000000,30.000000,,,,0.000000,2.000000,2.000000,0.000000,4.000000,2.000000,2.000000,0.000000,0.000000,4.000000,4.000000,4.000000,4.000000,4.000000,4.000000,0.000000,,,,,,,,,,,,,,,,,,,,,,,,,,,,
1732155952.930002,1732155952.930176,12.000000,0.000000,4294.487305,4285.769043,4317.563965,4298.717773,4294.871582,4297.436035,4339.102539,4392.179688,4312.820313,4300.897461,4457.436035,4492.179688,4352.563965,4404.743652,1726.000000,1.000000,30.000000,,,,0.000000,2.000000,2.000000,0.000000,4.000000,2.000000,2.000000,0.000000,0.000000,4.000000,4.000000,4.000000,4.000000,4.000000,4.000000,0.000000,,,,,,,,,,,,,,,,,3.000000,0.000000,0.676793,-0.095947,-0.715576,-0.143860,0.976682,0.089855,-0.048346,-67.567268,35.871078,44.361549
1732155952.937810,1732155952.937984,13.000000,0.000000,4297.692383,4287.948730,4318.589844,4302.179688,4274.487305,4303.974121,4339.743652,4392.948730,4318.589844,4308.589844,4463.717773,4494.871582,4352.436035,4406.666504,1706.000000,1.000000,30.000000,,,,0.000000,2.000000,2.000000,0.000000,4.000000,2.000000,2.000000,0.000000,0.000000,4.000000,4.000000,4.000000,4.000000,4.000000,4.000000,0.000000,,,,,,,,,,,,,,,,,,,,,,,,,,,,
1732155952.945618,1732155952.945992,14.000000,0.000000,4300.512695,4290.000000,4315.000000,4304.358887,4278.974121,4302.179688,4341.410156,4392.179688,4323.077148,4312.179688,4464.487305,4494.743652,4354.871582,4402.179688,1546.000000,1.000000,30.000000,,,,0.000000,2.000000,2.000000,0.000000,4.000000,2.000000,2.000000,0.000000,0.000000,4.000000,4.000000,4.000000,4.000000,4.000000,4.000000,0.000000,1.000000,0.000000,2.000000,2.000000,0.000000,4.000000,2.000000,2.000000,0.000000,0.000000,1.000000,4.000000,1.000000,4.000000,3.000000,4.000000,,,,,,,,,,,,
1732155952.953426,1732155952.953800,15.000000,0.000000,4297.820313,4286.666504,4312.820313,4298.333496,4288.461426,4299.743652,4341.922852,4392.692383,4317.179688,4302.820313,4457.820313,4491.153809,4351.410156,4396.538574,1588.000000,1.000000,30.000000,,,,0.000000,2.000000,2.000000,0.000000,4.000000,2.000000,2.000000,0.000000,0.000000,4.000000,4.000000,4.000000,4.000000,4.000000,4.000000,0.000000,,,,,,,,,,,,,,,,,,,,,,,,,,,,
1732155952.961234,1732155952.961709,16.000000,0.000000,4295.384766,4280.000000,4314.487305,4294.487305,4282.563965,4298.717773,4340.128418,4391.794922,4314.102539,4295.256348,4455.769043,4484.743652,4342.436035,4395.641113,0.000000,1.000000,30.000000,,,,0.000000,2.000000,2.000000,0.000000,4.000000,2.000000,2.000000,0.000000,0.000000,4.000000,4.000000,4.000000,4.000000,4.000000,4.000000,0.000000,,,,,,,,,,,,,,,,,4.000000,0.000000,0.676673,-0.096069,-0.715698,-0.143738,0.983030,0.078623,-0.044439,-67.236153,35.597240,44.057854
1732155952.969043,1732155952.969517,17.000000,0.000000,4292.179688,4276.922852,4317.563965,4294.615234,4285.384766,4294.871582,4339.358887,4391.153809,4316.666504,4298.077148,4458.077148,4481.025879,4340.641113,4396.666504,0.000000,1.000000,30.000000,,,,0.000000,2.000000,2.000000,0.000000,4.000000,2.000000,2.000000,0.000000,0.000000,4.000000,4.000000,4.000000,4.000000,4.000000,4.000000,0.000000,,,,,,,,,,,,,,,,,,,,,,,,,,,,
1732155952.976851,1732155952.977525,18.000000,0.000000,4289.743652,4279.743652,4313.589844,4293.974121,4299.102539,4293.077148,4339.487305,4391.922852,4313.333496,4298.846191,4457.307617,4478.846191,4345.512695,4395.256348,0.000000,1.000000,30.000000,,,,0.000000,2.000000,2.000000,0.000000,4.000000,2.000000,2.000000,0.000000,0.000000,4.000000,4.000000,4.000000,4.000000,4.000000,4.000000,0.000000,,,,,,,,,,,,,,,,,,,,,,,,,,,,
1732155952.984659,1732155952.985333,19.000000,0.000000,4293.205078,4284.487305,4314.230957,4294.615234,4287.436035,4294.487305,4339.615234,4391.538574,4308.461426,4297.307617,4457.436035,4481.153809,4350.384766,4395.769043,0.000000,1.000000,30.000000,,,,0.000000,2.000000,2.000000,0.000000,4.000000,2.000000,2.000000,0.000000,0.000000,4.000000,4.000000,4.000000,4.000000,4.000000,4.000000,0.000000,,,,,,,,,,,,,,,,,,,,,,,,,,,,
1732155952.992468,1732155952.993241,20.000000,0.000000,4295.384766,4284.743652,4317.436035,4295.897461,4272.563965,4295.512695,4339.230957,4390.512695,4308.974121,4297.692383,4460.000000,4484.743652,4352.051270,4401.025879,0.000000,1.000000,30.000000,,,,0.000000,2.000000,2.000000,0.000000,4.000000,2.000000,2.000000,0.000000,0.000000,4.000000,4.000000,4.000000,4.000000,4.000000,4.000000,0.000000,,,,,,,,,,,,,,,,,5.000000,0.000000,0.676673,-0.096069,-0.715698,-0.143738,0.982053,0.069833,-0.047369,-67.132950,35.570431,43.796864
1732155953.000276,1732155953.001049,21.000000,0.000000,4292.179688,4284.102539,4317.692383,4296.153809,4285.769043,4295.256348,4338.461426,4390.256348,4310.769043,4299.615234,4460.256348,4483.589844,4351.410156,4405.128418,0.000000,1.000000,30.000000,,,,0.000000,2.000000,2.000000,0.000000,4.000000,2.000000,2.000000,0.000000,0.000000,4.000000,4.000000,4.000000,4.000000,4.000000,4.000000,0.000000,,,,,,,,,,,,,,,,,,,,,,,,,,,,
1732155953.008084,1732155953.009057,22.000000,0.000000,4291.794922,4283.589844,4316.153809,4298.974121,4292.307617,4293.077148,4340.897461,4390.769043,4310.769043,4297.307617,4459.230957,4481.794922,4349.743652,4400.641113,0.000000,1.000000,30.000000,,,,0.000000,2.000000,2.000000,0.000000,4.000000,2.000000,2.000000,0.000000,0.000000,4.000000,4.000000,4.000000,4.000000,4.000000,4.000000,0.000000,,,,,,,,,,,,,,,,,,,,,,,,,,,,
1732155953.015892,1732155953.016866,23.000000,0.000000,4293.717773,4282.692383,4317.179688,4302.948730,4272.948730,4292.563965,4342.307617,4391.538574,4313.974121,4294.615234,4457.179688,4483.333496,4348.974121,4396.794922,0.000000,1.000000,30.000000,,,,0.000000,2.000000,2.000000,0.000000,4.000000,2.000000,2.000000,0.000000,0.000000,4.000000,4.000000,4.000000,4.000000,4.000000,4.000000,0.000000,,,,,,,,,,,,,,,,,,,,,,,,,,,,
1732155953.023700,1732155953.024774,24.000000,0.000000,4293.077148,4284.358887,4318.589844,4300.897461,4269.743652,4294.487305,4339.487305,4392.692383,4314.358887,4294.102539,4451.410156,4477.948730,4343.461426,4399.358887,0.000000,1.000000,30.000000,,,,0.000000,2.000000,2.000000,0.000000,4.000000,2.000000,2.000000,0.000000,0.000000,4.000000,4.000000,4.000000,4.000000,4.000000,4.000000,0.000000,,,,,,,,,,,,,,,,,6.000000,0.000000,0.676617,-0.096191,-0.715759,-0.143616,0.980100,0.062019,-0.037602,-66.791023,35.557049,43.835461
1732155953.031509,1732155953.032582,25.000000,0.000000,4293.205078,4285.000000,4314.743652,4297.692383,4292.051270,4293.333496,4337.820313,4390.897461,4310.256348,4293.589844,4443.974121,4470.897461,4337.179688,4398.461426,0.000000,1.000000,30.000000,,,,0.000000,2.000000,2.000000,0.000000,4.000000,2.000000,2.000000,0.000000,0.000000,4.000000,4.000000,4.000000,4.000000,4.000000,4.000000,0.000000,,,,,,,,,,,,,,,,,,,,,,,,,,,,
1732155953.039317,1732155953.040590,26.000000,0.000000,4295.384766,4282.307617,4315.512695,4297.179688,4293.974121,4288.461426,4341.666504,4390.000000,4307.820313,4293.974121,4447.436035,4481.153809,4342.563965,4396.410156,0.000000,1.000000,30.000000,,,,0.000000,2.000000,2.000000,0.000000,4.000000,2.000000,2.000000,0.000000,0.000000,4.000000,4.000000,4.000000,4.000000,4.000000,4.000000,0.000000,,,,,,,,,,,,,,,,,,,,,,,,,,,,
1732155953.047125,1732155953.048398,27.000000,0.000000,4296.282227,4284.230957,4317.179688,4296.410156,4275.897461,4290.000000,4343.333496,4393.333496,4308.333496,4295.000000,4457.436035,4488.846191,4348.077148,4398.846191,0.000000,1.000000,30.000000,,,,0.000000,2.000000,2.000000,0.000000,4.000000,2.000000,2.000000,0.000000,0.000000,4.000000,4.000000,4.000000,4.000000,4.000000,4.000000,0.000000,,,,,,,,,,,,,,,,,,,,,,,,,,,,
1732155953.054933,1732155953.056306,28.000000,0.000000,4295.128418,4288.205078,4316.794922,4296.794922,4269.871582,4297.692383,4341.153809,4395.384766,4310.256348,4296.666504,4457.820313,4482.436035,4344.743652,4400.000000,0.000000,1.000000,30.000000,,,,0.000000,2.000000,2.000000,0.000000,4.000000,2.000000,2.000000,0.000000,0.000000,4.000000,4.000000,4.000000,4.000000,4.000000,4.000000,0.000000,,,,,,,,,,,,,,,,,7.000000,0.000000,0.676583,-0.095886,-0.715881,-0.143372,0.995239,0.072274,-0.049811,-66.882393,35.597878,43.856720
1732155953.062742,1732155953.064114,29.000000,0.000000,4293.846191,4282.948730,4315.256348,4298.717773,4276.153809,4298.717773,4338.205078,4392.820313,4311.666504,4297.179688,4453.974121,4479.487305,4345.256348,4397.563965,0.000000,1.000000,30.000000,,,,0.000000,2.000000,2.000000,0.000000,4.000000,2.000000,2.000000,0.000000,0.000000,4.000000,4.000000,4.000000,4.000000,4.000000,4.000000,0.000000,,,,,,,,,,,,,,,,,,,,,,,,,,,,
1732155953.070550,1732155953.072122,30.000000,0.000000,4294.487305,4279.358887,4318.717773,4297.051270,4291.153809,4293.846191,4338.077148,4391.666504,4310.641113,4293.333496,4456.410156,4483.461426,4346.666504,4398.077148,0.000000,1.000000,30.000000,,,,0.000000,2.000000,2.000000,0.000000,4.000000,2.000000,2.000000,0.000000,0.000000,4.000000,4.000000,4.000000,4.000000,4.000000,4.000000,0.000000,,,,,,,,,,,,,,,,,,,,,,,,,,,,
1732155953.078358,1732155953.079931,31.000000,0.000000,4295.256348,4283.974121,4317.563965,4295.128418,4296.410156,4294.102539,4338.846191,4393.974121,4308.205078,4290.128418,4457.948730,4489.743652,4345.384766,4400.256348,0.000000,1.000000,30.000000,,,,0.000000,2.000000,2.000000,0.000000,4.000000,2.000000,2.000000,0.000000,0.000000,4.000000,4.000000,4.000000,4.000000,4.000000,4.000000,0.000000,,,,,,,,,,,,,,,,,,,,,,,,,,,,
1732155953.086166,1732155953.087639,32.000000,0.000000,4294.102539,4284.871582,4316.282227,4296.538574,4277.436035,4296.794922,4337.436035,4394.230957,4309.102539,4294.487305,4456.538574,4491.922852,4347.692383,4398.205078,0.000000,1.000000,30.000000,,,,0.000000,2.000000,2.000000,0.000000,4.000000,2.000000,2.000000,0.000000,0.000000,4.000000,4.000000,4.000000,4.000000,4.000000,4.000000,0.000000,,,,,,,,,,,,,,,,,8.000000,0.000000,0.676531,-0.096069,-0.715881,-0.143494,0.974728,0.079111,-0.046392,-67.031410,35.589279,43.893944
1732155953.093975,1732155953.095447,33.000000,0.000000,4293.077148,4284.230957,4315.897461,4300.641113,4272.820313,4297.436035,4335.769043,4394.615234,4313.717773,4299.615234,4458.205078,4484.615234,4347.563965,4396.410156,0.000000,1.000000,30.000000,,,,0.000000,2.000000,2.000000,0.000000,4.000000,2.000000,2.000000,0.000000,0.000000,4.000000,4.000000,4.000000,4.000000,4.000000,4.000000,0.000000,,,,,,,,,,,,,,,,,,,,,,,,,,,,
1732155953.101783,1732155953.103455,34.000000,0.000000,4295.384766,4285.641113,4316.025879,4301.153809,4291.025879,4297.307617,4338.717773,4396.794922,4312.948730,4295.512695,4455.256348,4477.436035,4342.436035,4398.974121,0.000000,1.000000,30.000000,,,,0.000000,2.000000,2.000000,0.000000,4.000000,2.000000,2.000000,0.000000,0.000000,4.000000,4.000000,4.000000,4.000000,4.000000,4.000000,0.000000,,,,,,,,,,,,,,,,,,,,,,,,,,,,
1732155953.109591,1732155953.111263,35.000000,0.000000,4294.743652,4284.743652,4314.102539,4295.384766,4286.666504,4298.077148,4341.794922,4393.974121,4312.051270,4293.974121,4449.358887,4480.256348,4341.922852,4401.025879,0.000000,1.000000,30.000000,,,,0.000000,2.000000,2.000000,0.000000,4.000000,2.000000,2.000000,0.000000,0.000000,4.000000,4.000000,4.000000,4.000000,4.000000,4.000000,0.000000,,,,,,,,,,,,,,,,,,,,,,,,,,,,
1732155953.117399,1732155953.118972,36.000000,0.000000,4288.077148,4282.948730,4317.051270,4292.051270,4263.717773,4298.589844,4339.743652,4388.461426,4316.153809,4300.384766,4451.410156,4484.487305,4343.589844,4397.820313,0.000000,1.000000,30.000000,,,,0.000000,2.000000,2.000000,0.000000,4.000000,2.000000,2.000000,0.000000,0.000000,4.000000,4.000000,4.000000,4.000000,4.000000,4.000000,0.000000,,,,,,,,,,,,,,,,,9.000000,0.000000,0.676566,-0.096008,-0.715881,-0.143372,0.974728,0.079111,-0.046392,-66.993774,35.793983,43.724094
1732155953.125208,1732155953.126780,37.000000,0.000000,4286.794922,4283.333496,4317.692383,4293.846191,4269.358887,4297.436035,4337.563965,4388.461426,4316.410156,4301.410156,4456.025879,4483.846191,4342.051270,4392.051270,0.000000,1.000000,30.000000,,,,0.000000,2.000000,2.000000,0.000000,4.000000,2.000000,2.000000,0.000000,0.000000,4.000000,4.000000,4.000000,4.000000,4.000000,4.000000,0.000000,,,,,,,,,,,,,,,,,,,,,,,,,,,,
