title:1up, start timestamp:1732156334.104894, stop timestamp:1732156389.637112, headset type:EPOCX, headset serial:E5020C3A, headset firmware:730, channels:67, sampling rate:eeg_128;mot_32, samples:7113      , version:2.2, 
Timestamp,OriginalTimestamp,EEG.Counter,EEG.Interpolated,EEG.AF3,EEG.F7,EEG.F3,EEG.FC5,EEG.T7,EEG.P7,EEG.O1,EEG.O2,EEG.P8,EEG.T8,EEG.FC6,EEG.F4,EEG.F8,EEG.AF4,EEG.RawCq,EEG.Battery,EEG.BatteryPercent,MarkerIndex,MarkerType,MarkerValueInt,EEG.MarkerHardware,CQ.AF3,CQ.F7,CQ.F3,CQ.FC5,CQ.T7,CQ.P7,CQ.O1,CQ.O2,CQ.P8,CQ.T8,CQ.FC6,CQ.F4,CQ.F8,CQ.AF4,CQ.Overall,EQ.SampleRateQuality,EQ.OVERALL,EQ.AF3,EQ.F7,EQ.F3,EQ.FC5,EQ.T7,EQ.P7,EQ.O1,EQ.O2,EQ.P8,EQ.T8,EQ.FC6,EQ.F4,EQ.F8,EQ.AF4,MOT.CounterMems,MOT.InterpolatedMems,MOT.Q0,MOT.Q1,MOT.Q2,MOT.Q3,MOT.AccX,MOT.AccY,MOT.AccZ,MOT.MagX,MOT.MagY,MOT.MagZ
1732156334.104894,1732156334.106251,61.000000,0.000000,4282.051270,4297.692383,4315.384766,4305.641113,4289.230957,4281.794922,4337.563965,4392.307617,4308.333496,4285.769043,4459.871582,4490.769043,4340.128418,4396.410156,0.000000,1.000000,28.000000,,,,0.000000,2.000000,2.000000,0.000000,4.000000,2.000000,2.000000,0.000000,0.000000,4.000000,4.000000,4.000000,4.000000,4.000000,4.000000,0.000000,,,,,,,,,,,,,,,,,,,,,,,,,,,,
1732156334.112702,1732156334.113859,62.000000,0.000000,4281.410156,4296.410156,4314.615234,4301.410156,4288.974121,4285.384766,4336.153809,4393.974121,4307.307617,4286.922852,4459.487305,4489.102539,4339.230957,4397.948730,0.000000,1.000000,28.000000,,,,0.000000,2.000000,2.000000,0.000000,4.000000,2.000000,2.000000,0.000000,0.000000,4.000000,4.000000,4.000000,4.000000,4.000000,4.000000,0.000000,,,,,,,,,,,,,,,,,,,,,,,,,,,,
1732156334.120510,1732156334.121667,63.000000,0.000000,4282.179688,4295.256348,4313.461426,4298.717773,4285.769043,4291.153809,4335.000000,4393.333496,4309.487305,4290.641113,4459.487305,4490.897461,4340.769043,4401.922852,0.000000,1.000000,28.000000,,,,0.000000,2.000000,2.000000,0.000000,4.000000,2.000000,2.000000,0.000000,0.000000,4.000000,4.000000,4.000000,4.000000,4.000000,4.000000,0.000000,,,,,,,,,,,,,,,,,,,,,,,,,,,,
1732156334.128318,1732156334.129575,64.000000,0.000000,4280.897461,4293.589844,4314.230957,4299.102539,4286.666504,4291.410156,4337.692383,4393.846191,4307.051270,4294.871582,4459.615234,4492.307617,4343.461426,4400.769043,0.000000,1.000000,28.000000,,,,0.000000,2.000000,2.000000,0.000000,4.000000,2.000000,2.000000,0.000000,0.000000,4.000000,4.000000,4.000000,4.000000,4.000000,4.000000,0.000000,,,,,,,,,,,,,,,,,16.000000,0.000000,0.671806,-0.086060,-0.724243,-0.129395,0.980100,0.065438,-0.049322,-66.688187,33.515064,44.719017
1732156334.136127,1732156334.137384,65.000000,0.000000,4279.743652,4291.538574,4311.025879,4299.743652,4287.948730,4286.153809,4337.692383,4395.128418,4301.025879,4294.615234,4459.102539,4492.692383,4342.948730,4396.153809,1594.000000,1.000000,28.000000,,,,0.000000,2.000000,2.000000,0.000000,4.000000,2.000000,2.000000,0.000000,0.000000,4.000000,4.000000,4.000000,4.000000,4.000000,4.000000,0.000000,,,,,,,,,,,,,,,,,,,,,,,,,,,,
1732156334.143935,1732156334.145392,66.000000,0.000000,4280.897461,4292.051270,4311.922852,4302.563965,4283.205078,4286.025879,4336.410156,4394.487305,4300.128418,4294.102539,4458.589844,4492.692383,4339.487305,4398.077148,1421.000000,1.000000,28.000000,,,,0.000000,2.000000,2.000000,0.000000,4.000000,2.000000,2.000000,0.000000,0.000000,4.000000,4.000000,4.000000,4.000000,4.000000,4.000000,0.000000,,,,,,,,,,,,,,,,,,,,,,,,,,,,
1732156334.151743,1732156334.153200,67.000000,0.000000,4282.051270,4293.205078,4313.589844,4305.897461,4283.205078,4290.512695,4337.692383,4395.128418,4305.000000,4296.538574,4457.820313,4492.563965,4338.589844,4398.846191,1416.000000,1.000000,28.000000,,,,0.000000,2.000000,2.000000,0.000000,4.000000,2.000000,2.000000,0.000000,0.000000,4.000000,4.000000,4.000000,4.000000,4.000000,4.000000,0.000000,,,,,,,,,,,,,,,,,,,,,,,,,,,,
1732156334.159551,1732156334.161108,68.000000,0.000000,4280.128418,4293.461426,4313.205078,4303.333496,4296.794922,4287.179688,4336.025879,4397.051270,4305.769043,4297.307617,4456.666504,4490.641113,4336.794922,4390.897461,1401.000000,1.000000,28.000000,,,,0.000000,2.000000,2.000000,0.000000,4.000000,2.000000,2.000000,0.000000,0.000000,4.000000,4.000000,4.000000,4.000000,4.000000,4.000000,0.000000,,,,,,,,,,,,,,,,,17.000000,0.000000,0.671900,-0.086548,-0.723999,-0.129944,0.980100,0.065438,-0.049322,-66.557434,33.290535,44.297405
1732156334.167359,1732156334.168916,69.000000,0.000000,4277.692383,4294.102539,4311.410156,4301.794922,4297.563965,4285.641113,4333.974121,4395.769043,4306.153809,4297.051270,4458.205078,4488.846191,4334.230957,4390.000000,1245.000000,1.000000,28.000000,,,,0.000000,2.000000,2.000000,0.000000,4.000000,2.000000,2.000000,0.000000,0.000000,4.000000,4.000000,4.000000,4.000000,4.000000,4.000000,0.000000,,,,,,,,,,,,,,,,,,,,,,,,,,,,
1732156334.175168,1732156334.176924,70.000000,0.000000,4278.717773,4294.615234,4313.974121,4305.128418,4280.256348,4293.333496,4336.153809,4392.179688,4310.384766,4300.128418,4460.128418,4492.692383,4339.615234,4395.128418,0.000000,1.000000,28.000000,,,,0.000000,2.000000,2.000000,0.000000,4.000000,2.000000,2.000000,0.000000,0.000000,4.000000,4.000000,4.000000,4.000000,4.000000,4.000000,0.000000,,,,,,,,,,,,,,,,,,,,,,,,,,,,
1732156334.182976,1732156334.184732,71.000000,0.000000,4283.333496,4295.128418,4314.230957,4305.128418,4273.333496,4297.179688,4336.153809,4392.820313,4306.794922,4298.589844,4457.692383,4496.153809,4343.205078,4392.436035,0.000000,1.000000,28.000000,,,,0.000000,2.000000,2.000000,0.000000,4.000000,2.000000,2.000000,0.000000,0.000000,4.000000,4.000000,4.000000,4.000000,4.000000,4.000000,0.000000,,,,,,,,,,,,,,,,,,,,,,,,,,,,
1732156334.190784,1732156334.192640,72.000000,0.000000,4286.410156,4297.820313,4313.589844,4300.897461,4283.717773,4295.384766,4334.743652,4393.077148,4299.487305,4295.384766,4457.436035,4496.025879,4340.256348,4387.692383,1531.000000,1.000000,28.000000,,,,0.000000,2.000000,2.000000,0.000000,4.000000,2.000000,2.000000,0.000000,0.000000,4.000000,4.000000,4.000000,4.000000,4.000000,4.000000,0.000000,,,,,,,,,,,,,,,,,18.000000,0.000000,0.672007,-0.086792,-0.723816,-0.130249,0.979612,0.076670,-0.057624,-66.724854,33.338669,44.365898
1732156334.198593,1732156334.200449,73.000000,0.000000,4289.102539,4297.948730,4313.974121,4302.179688,4287.820313,4293.717773,4336.153809,4392.436035,4300.256348,4294.743652,4460.897461,4499.102539,4340.769043,4392.179688,1681.000000,1.000000,28.000000,,,,0.000000,2.000000,2.000000,0.000000,4.000000,2.000000,2.000000,0.000000,0.000000,4.000000,4.000000,4.000000,4.000000,4.000000,4.000000,0.000000,,,,,,,,,,,,,,,,,,,,,,,,,,,,
1732156334.206401,1732156334.208457,74.000000,0.000000,4289.871582,4293.974121,4311.794922,4304.102539,4283.974121,4291.538574,4335.641113,4394.615234,4301.794922,4294.358887,4461.794922,4504.871582,4343.205078,4396.282227,1529.000000,1.000000,28.000000,,,,0.000000,2.000000,2.000000,0.000000,4.000000,2.000000,2.000000,0.000000,0.000000,4.000000,4.000000,4.000000,4.000000,4.000000,4.000000,0.000000,,,,,,,,,,,,,,,,,,,,,,,,,,,,
1732156334.214209,1732156334.216265,75.000000,0.000000,4288.077148,4292.563965,4311.153809,4300.000000,4281.922852,4289.615234,4334.230957,4396.282227,4300.256348,4296.153809,4460.769043,4506.282227,4342.051270,4397.820313,1579.000000,1.000000,28.000000,,,,0.000000,2.000000,2.000000,0.000000,4.000000,2.000000,2.000000,0.000000,0.000000,4.000000,4.000000,4.000000,4.000000,4.000000,4.000000,0.000000,,,,,,,,,,,,,,,,,,,,,,,,,,,,
1732156334.222017,1732156334.223973,76.000000,0.000000,4289.743652,4294.615234,4313.717773,4299.871582,4282.948730,4293.974121,4334.102539,4394.102539,4303.205078,4298.333496,4461.538574,4505.897461,4342.307617,4406.282227,1705.000000,1.000000,28.000000,,,,0.000000,2.000000,2.000000,0.000000,4.000000,2.000000,2.000000,0.000000,0.000000,4.000000,4.000000,4.000000,4.000000,4.000000,4.000000,0.000000,,,,,,,,,,,,,,,,,19.000000,0.000000,0.672233,-0.087219,-0.723267,-0.131836,0.966427,0.084971,-0.049322,-66.855461,33.207653,44.358044
1732156334.229825,1732156334.231781,77.000000,0.000000,4295.512695,4295.512695,4316.153809,4302.820313,4293.461426,4293.333496,4336.410156,4394.743652,4305.000000,4297.307617,4462.051270,4507.179688,4341.794922,4410.641113,1700.000000,1.000000,28.000000,,,,0.000000,2.000000,2.000000,0.000000,4.000000,2.000000,2.000000,0.000000,0.000000,4.000000,4.000000,4.000000,4.000000,4.000000,4.000000,0.000000,,,,,,,,,,,,,,,,,,,,,,,,,,,,
1732156334.237634,1732156334.239390,78.000000,0.000000,4300.641113,4297.307617,4313.333496,4305.128418,4301.794922,4289.487305,4338.077148,4397.436035,4303.974121,4294.871582,4459.358887,4507.051270,4341.282227,4407.307617,1529.000000,1.000000,28.000000,,,,0.000000,2.000000,2.000000,0.000000,4.000000,2.000000,2.000000,0.000000,0.000000,4.000000,4.000000,4.000000,4.000000,4.000000,4.000000,0.000000,1.000000,0.000000,2.000000,2.000000,0.000000,4.000000,2.000000,2.000000,0.000000,0.000000,4.000000,4.000000,1.000000,4.000000,4.000000,3.000000,,,,,,,,,,,,
1732156334.245442,1732156334.247198,79.000000,0.000000,4300.384766,4298.333496,4314.102539,4305.512695,4290.769043,4290.512695,4335.384766,4396.922852,4305.512695,4298.333496,4461.922852,4505.000000,4343.077148,4405.897461,1579.000000,1.000000,28.000000,,,,0.000000,2.000000,2.000000,0.000000,4.000000,2.000000,2.000000,0.000000,0.000000,4.000000,4.000000,4.000000,4.000000,4.000000,4.000000,0.000000,,,,,,,,,,,,,,,,,,,,,,,,,,,,
1732156334.253250,1732156334.254906,80.000000,0.000000,4296.538574,4295.897461,4312.948730,4306.538574,4276.538574,4292.820313,4332.051270,4394.743652,4306.922852,4300.512695,4465.641113,4503.974121,4345.128418,4407.051270,1705.000000,1.000000,28.000000,,,,0.000000,2.000000,2.000000,0.000000,4.000000,2.000000,2.000000,0.000000,0.000000,4.000000,4.000000,4.000000,4.000000,4.000000,4.000000,0.000000,,,,,,,,,,,,,,,,,20.000000,0.000000,0.672233,-0.087219,-0.723145,-0.132507,0.966427,0.084971,-0.049322,-66.846260,33.124866,44.238350
1732156334.261058,1732156334.262714,81.000000,0.000000,4294.871582,4294.743652,4310.512695,4305.897461,4278.974121,4295.512695,4336.538574,4393.461426,4305.641113,4298.461426,4464.871582,4505.769043,4345.512695,4407.051270,1700.000000,1.000000,28.000000,,,,0.000000,2.000000,2.000000,0.000000,4.000000,2.000000,2.000000,0.000000,0.000000,4.000000,4.000000,4.000000,4.000000,4.000000,4.000000,0.000000,,,,,,,,,,,,,,,,,,,,,,,,,,,,
1732156334.268867,1732156334.270323,82.000000,0.000000,4295.641113,4296.410156,4310.256348,4303.974121,4286.025879,4294.358887,4338.205078,4394.102539,4308.461426,4300.128418,4467.436035,4508.846191,4346.794922,4407.436035,1529.000000,1.000000,28.000000,,,,0.000000,2.000000,2.000000,0.000000,4.000000,2.000000,2.000000,0.000000,0.000000,4.000000,4.000000,4.000000,4.000000,4.000000,4.000000,0.000000,,,,,,,,,,,,,,,,,,,,,,,,,,,,
1732156334.276675,1732156334.278131,83.000000,0.000000,4294.871582,4298.205078,4314.743652,4302.436035,4282.051270,4291.153809,4333.205078,4396.025879,4310.256348,4300.128418,4470.897461,4509.102539,4350.512695,4408.077148,1579.000000,1.000000,28.000000,,,,0.000000,2.000000,2.000000,0.000000,4.000000,2.000000,2.000000,0.000000,0.000000,4.000000,4.000000,4.000000,4.000000,4.000000,4.000000,0.000000,,,,,,,,,,,,,,,,,,,,,,,,,,,,
1732156334.284483,1732156334.285839,84.000000,0.000000,4296.794922,4299.230957,4312.563965,4300.769043,4279.358887,4291.666504,4332.563965,4397.436035,4301.666504,4295.641113,4471.282227,4507.436035,4352.051270,4409.102539,1705.000000,1.000000,28.000000,,,,0.000000,2.000000,2.000000,0.000000,4.000000,2.000000,2.000000,0.000000,0.000000,4.000000,4.000000,4.000000,4.000000,4.000000,4.000000,0.000000,,,,,,,,,,,,,,,,,21.000000,0.000000,0.671886,-0.086731,-0.723267,-0.133911,0.993774,0.088390,-0.061043,-66.685471,33.069477,44.224728
1732156334.292291,1732156334.293648,85.000000,0.000000,4302.948730,4298.846191,4312.692383,4300.769043,4280.641113,4288.461426,4335.897461,4396.666504,4297.307617,4293.846191,4469.487305,4511.025879,4348.589844,4412.307617,1700.000000,1.000000,28.000000,,,,0.000000,2.000000,2.000000,0.000000,4.000000,2.000000,2.000000,0.000000,0.000000,4.000000,4.000000,4.000000,4.000000,4.000000,4.000000,0.000000,,,,,,,,,,,,,,,,,,,,,,,,,,,,
1732156334.300099,1732156334.301256,86.000000,0.000000,4301.153809,4300.641113,4315.641113,4303.589844,4281.666504,4284.743652,4335.128418,4394.102539,4306.153809,4298.077148,4470.897461,4516.538574,4348.461426,4411.794922,1529.000000,1.000000,28.000000,,,,0.000000,2.000000,2.000000,0.000000,4.000000,2.000000,2.000000,0.000000,0.000000,4.000000,4.000000,4.000000,4.000000,4.000000,4.000000,0.000000,,,,,,,,,,,,,,,,,,,,,,,,,,,,
1732156334.307908,1732156334.309064,87.000000,0.000000,4295.128418,4301.922852,4316.282227,4304.871582,4283.974121,4285.897461,4332.563965,4392.820313,4310.769043,4301.410156,4474.487305,4515.000000,4352.948730,4411.922852,1579.000000,1.000000,28.000000,,,,0.000000,2.000000,2.000000,0.000000,4.000000,2.000000,2.000000,0.000000,0.000000,4.000000,4.000000,4.000000,4.000000,4.000000,4.000000,0.000000,,,,,,,,,,,,,,,,,,,,,,,,,,,,
1732156334.315716,1732156334.316773,88.000000,0.000000,4297.436035,4295.512695,4314.358887,4301.153809,4284.230957,4287.692383,4333.461426,4394.743652,4306.282227,4298.333496,4471.538574,4509.487305,4348.205078,4413.717773,1705.000000,1.000000,28.000000,,,,0.000000,2.000000,2.000000,0.000000,4.000000,2.000000,2.000000,0.000000,0.000000,4.000000,4.000000,4.000000,4.000000,4.000000,4.000000,0.000000,,,,,,,,,,,,,,,,,22.000000,0.000000,0.670497,-0.086914,-0.724487,-0.134155,0.965450,0.054694,-0.070321,-66.558563,33.031277,44.273697
1732156334.323524,1732156334.324581,89.000000,0.000000,4299.743652,4291.153809,4313.717773,4297.563965,4281.410156,4288.205078,4333.846191,4396.794922,4304.615234,4295.512695,4462.948730,4506.153809,4340.769043,4408.077148,1700.000000,1.000000,28.000000,,,,0.000000,2.000000,2.000000,0.000000,4.000000,2.000000,2.000000,0.000000,0.000000,4.000000,4.000000,4.000000,4.000000,4.000000,4.000000,0.000000,,,,,,,,,,,,,,,,,,,,,,,,,,,,
1732156334.331333,1732156334.332189,90.000000,0.000000,4296.794922,4297.051270,4313.077148,4294.102539,4279.871582,4290.128418,4332.948730,4398.589844,4305.641113,4296.282227,4457.948730,4504.358887,4342.307617,4399.487305,1529.000000,1.000000,28.000000,,,,0.000000,2.000000,2.000000,0.000000,4.000000,2.000000,2.000000,0.000000,0.000000,4.000000,4.000000,4.000000,4.000000,4.000000,4.000000,0.000000,,,,,,,,,,,,,,,,,,,,,,,,,,,,
1732156334.339141,1732156334.339997,91.000000,0.000000,4290.384766,4295.897461,4314.102539,4293.974121,4282.563965,4293.077148,4333.461426,4398.205078,4304.358887,4293.717773,4459.615234,4505.000000,4335.256348,4396.282227,1579.000000,1.000000,28.000000,,,,0.000000,2.000000,2.000000,0.000000,4.000000,2.000000,2.000000,0.000000,0.000000,4.000000,4.000000,4.000000,4.000000,4.000000,4.000000,0.000000,,,,,,,,,,,,,,,,,,,,,,,,,,,,
1732156334.346949,1732156334.347706,92.000000,0.000000,4283.589844,4287.307617,4317.051270,4297.051270,4284.102539,4295.769043,4335.641113,4396.410156,4305.641113,4291.025879,4457.051270,4505.512695,4325.128418,4395.000000,1705.000000,1.000000,28.000000,,,,0.000000,2.000000,2.000000,0.000000,4.000000,2.000000,2.000000,0.000000,0.000000,4.000000,4.000000,4.000000,4.000000,4.000000,4.000000,0.000000,,,,,,,,,,,,,,,,,23.000000,0.000000,0.669669,-0.088013,-0.725098,-0.134277,0.960078,0.050299,-0.080088,-66.499100,32.852001,44.236694
1732156334.354757,1732156334.355514,93.000000,0.000000,4285.384766,4288.846191,4314.102539,4293.846191,4281.922852,4293.717773,4335.769043,4395.512695,4307.436035,4295.000000,4456.410156,4501.538574,4336.410156,4396.025879,1700.000000,1.000000,28.000000,,,,0.000000,2.000000,2.000000,0.000000,4.000000,2.000000,2.000000,0.000000,0.000000,4.000000,4.000000,4.000000,4.000000,4.000000,4.000000,0.000000,,,,,,,,,,,,,,,,,,,,,,,,,,,,
1732156334.362566,1732156334.363122,94.000000,0.000000,4289.871582,4293.589844,4313.846191,4286.410156,4279.358887,4286.538574,4335.512695,4396.410156,4305.769043,4299.871582,4464.871582,4501.025879,4353.205078,4399.487305,1529.000000,1.000000,28.000000,,,,0.000000,2.000000,2.000000,0.000000,4.000000,2.000000,2.000000,0.000000,0.000000,4.000000,4.000000,4.000000,4.000000,4.000000,4.000000,0.000000,,,,,,,,,,,,,,,,,,,,,,,,,,,,
1732156334.370374,1732156334.370930,95.000000,0.000000,4282.307617,4292.692383,4312.948730,4287.051270,4280.641113,4289.358887,4335.641113,4395.897461,4307.563965,4301.538574,4472.948730,4505.769043,4355.512695,4401.282227,1579.000000,1.000000,28.000000,,,,0.000000,2.000000,2.000000,0.000000,4.000000,2.000000,2.000000,0.000000,0.000000,4.000000,4.000000,4.000000,4.000000,4.000000,4.000000,0.000000,,,,,,,,,,,,,,,,,,,,,,,,,,,,
1732156334.378182,1732156334.378839,96.000000,0.000000,4278.461426,4287.948730,4312.307617,4289.230957,4281.794922,4297.307617,4334.871582,4396.153809,4311.153809,4303.461426,4475.512695,4506.922852,4357.563965,4403.205078,1705.000000,1.000000,28.000000,,,,0.000000,2.000000,2.000000,0.000000,4.000000,2.000000,2.000000,0.000000,0.000000,4.000000,4.000000,4.000000,4.000000,4.000000,4.000000,0.000000,,,,,,,,,,,,,,,,,24.000000,0.000000,0.669308,-0.088745,-0.725342,-0.134277,0.960566,0.055183,-0.088878,-66.467606,32.911785,44.160057
1732156334.385990,1732156334.386647,97.000000,0.000000,4289.871582,4283.717773,4313.077148,4286.538574,4278.077148,4294.743652,4334.230957,4396.794922,4310.897461,4304.230957,4474.743652,4506.922852,4361.794922,4408.461426,1700.000000,1.000000,28.000000,,,,0.000000,2.000000,2.000000,0.000000,4.000000,2.000000,2.000000,0.000000,0.000000,4.000000,4.000000,4.000000,4.000000,4.000000,4.000000,0.000000,,,,,,,,,,,,,,,,,,,,,,,,,,,,
1732156334.393798,1732156334.394655,98.000000,0.000000,4294.358887,4280.641113,4315.256348,4286.282227,4275.384766,4290.641113,4337.179688,4395.384766,4308.077148,4304.358887,4474.102539,4508.205078,4356.153809,4412.307617,1529.000000,1.000000,28.000000,,,,0.000000,2.000000,2.000000,0.000000,4.000000,2.000000,2.000000,0.000000,0.000000,4.000000,4.000000,4.000000,4.000000,4.000000,4.000000,0.000000,,,,,,,,,,,,,,,,,,,,,,,,,,,,
1732156334.401607,1732156334.402463,99.000000,0.000000,4288.974121,4279.615234,4313.974121,4286.922852,4276.794922,4292.051270,4337.436035,4393.461426,4307.051270,4305.897461,4474.487305,4506.410156,4352.820313,4413.461426,1579.000000,1.000000,28.000000,,,,0.000000,2.000000,2.000000,0.000000,4.000000,2.000000,2.000000,0.000000,0.000000,4.000000,4.000000,4.000000,4.000000,4.000000,4.000000,0.000000,,,,,,,,,,,,,,,,,,,,,,,,,,,,
1732156334.409415,1732156334.410371,100.000000,0.000000,4288.717773,4278.717773,4313.589844,4286.153809,4273.846191,4289.743652,4334.487305,4395.256348,4307.948730,4303.205078,4475.256348,4509.102539,4356.410156,4415.256348,1705.000000,1.000000,28.000000,,,,0.000000,2.000000,2.000000,0.000000,4.000000,2.000000,2.000000,0.000000,0.000000,4.000000,4.000000,4.000000,4.000000,4.000000,4.000000,0.000000,,,,,,,,,,,,,,,,,25.000000,0.000000,0.668782,-0.090637,-0.725525,-0.134644,0.951288,0.049811,-0.083995,-66.508759,32.830212,44.256313
1732156334.417223,1732156334.418179,101.000000,0.000000,4293.077148,4277.051270,4312.051270,4288.589844,4273.333496,4285.641113,4334.102539,4399.487305,4309.871582,4303.846191,4477.051270,4516.922852,4358.077148,4416.025879,1700.000000,1.000000,28.000000,,,,0.000000,2.000000,2.000000,0.000000,4.000000,2.000000,2.000000,0.000000,0.000000,4.000000,4.000000,4.000000,4.000000,4.000000,4.000000,0.000000,,,,,,,,,,,,,,,,,,,,,,,,,,,,
1732156334.425032,1732156334.426187,102.000000,0.000000,4295.512695,4277.820313,4313.205078,4286.538574,4275.641113,4291.410156,4335.128418,4397.948730,4310.641113,4306.282227,4478.333496,4513.589844,4356.282227,4414.230957,1529.000000,1.000000,28.000000,,,,0.000000,2.000000,2.000000,0.000000,4.000000,2.000000,2.000000,0.000000,0.000000,4.000000,4.000000,4.000000,4.000000,4.000000,4.000000,0.000000,,,,,,,,,,,,,,,,,,,,,,,,,,,,
1732156334.432840,1732156334.433996,103.000000,0.000000,4293.846191,4278.974121,4316.025879,4284.358887,4278.589844,4297.436035,4335.512695,4394.743652,4306.282227,4302.179688,4477.307617,4503.461426,4353.589844,4412.051270,1579.000000,1.000000,28.000000,,,,0.000000,2.000000,2.000000,0.000000,4.000000,2.000000,2.000000,0.000000,0.000000,4.000000,4.000000,4.000000,4.000000,4.000000,4.000000,0.000000,,,,,,,,,,,,,,,,,,,,,,,,,,,,
1732156334.440648,1732156334.441904,104.000000,0.000000,4297.307617,4281.794922,4316.794922,4292.563965,4291.025879,4291.922852,4336.922852,4396.922852,4306.538574,4299.871582,4475.384766,4507.179688,4355.384766,4413.077148,1705.000000,1.000000,28.000000,,,,0.000000,2.000000,2.000000,0.000000,4.000000,2.000000,2.000000,0.000000,0.000000,4.000000,4.000000,4.000000,4.000000,4.000000,4.000000,0.000000,,,,,,,,,,,,,,,,,26.000000,0.000000,0.668931,-0.094299,-0.724670,-0.135986,0.984984,0.053717,-0.071786,-66.685432,32.749138,44.494278
1732156334.448456,1732156334.449712,105.000000,0.000000,4305.641113,4288.974121,4315.897461,4300.384766,4295.256348,4287.692383,4338.333496,4398.077148,4311.410156,4302.820313,4474.615234,4510.512695,4355.641113,4415.256348,1700.000000,1.000000,28.000000,,,,0.000000,2.000000,2.000000,0.000000,4.000000,2.000000,2.000000,0.000000,0.000000,4.000000,4.000000,4.000000,4.000000,4.000000,4.000000,0.000000,,,,,,,,,,,,,,,,,,,,,,,,,,,,
1732156334.456264,1732156334.457720,106.000000,0.000000,4304.102539,4290.128418,4316.922852,4297.436035,4277.436035,4293.205078,4338.077148,4394.743652,4311.538574,4301.666504,4475.256348,4501.794922,4350.769043,4411.794922,1529.000000,1.000000,28.000000,,,,0.000000,2.000000,2.000000,0.000000,4.000000,2.000000,2.000000,0.000000,0.000000,4.000000,4.000000,4.000000,4.000000,4.000000,4.000000,0.000000,,,,,,,,,,,,,,,,,,,,,,,,,,,,
1732156334.464073,1732156334.465528,107.000000,0.000000,4295.128418,4283.461426,4319.487305,4291.410156,4268.717773,4298.077148,4338.333496,4393.589844,4309.743652,4297.820313,4474.615234,4498.461426,4347.820313,4407.436035,1579.000000,1.000000,28.000000,,,,0.000000,2.000000,2.000000,0.000000,4.000000,2.000000,2.000000,0.000000,0.000000,4.000000,4.000000,4.000000,4.000000,4.000000,4.000000,0.000000,,,,,,,,,,,,,,,,,,,,,,,,,,,,
1732156334.471881,1732156334.473436,108.000000,0.000000,4294.871582,4281.922852,4317.307617,4296.410156,4278.717773,4298.589844,4338.333496,4393.333496,4311.922852,4301.282227,4473.717773,4499.743652,4349.358887,4407.179688,1705.000000,1.000000,28.000000,,,,0.000000,2.000000,2.000000,0.000000,4.000000,2.000000,2.000000,0.000000,0.000000,4.000000,4.000000,4.000000,4.000000,4.000000,4.000000,0.000000,,,,,,,,,,,,,,,,,27.000000,0.000000,0.669082,-0.095154,-0.724304,-0.136597,0.963497,0.074228,-0.076181,-66.796867,32.948471,44.473701
1732156334.479689,1732156334.481244,109.000000,0.000000,4298.846191,4288.333496,4314.487305,4299.358887,4282.563965,4298.974121,4338.077148,4395.000000,4314.871582,4302.179688,4475.256348,4498.974121,4350.641113,4407.563965,1700.000000,1.000000,28.000000,,,,0.000000,2.000000,2.000000,0.000000,4.000000,2.000000,2.000000,0.000000,0.000000,4.000000,4.000000,4.000000,4.000000,4.000000,4.000000,0.000000,,,,,,,,,,,,,,,,,,,,,,,,,,,,
1732156334.487497,1732156334.489252,110.000000,0.000000,4298.077148,4291.538574,4314.102539,4294.102539,4281.794922,4298.846191,4338.205078,4395.897461,4314.615234,4300.384766,4473.717773,4498.333496,4350.128418,4405.256348,1529.000000,1.000000,28.000000,,,,0.000000,2.000000,2.000000,0.000000,4.000000,2.000000,2.000000,0.000000,0.000000,4.000000,4.000000,4.000000,4.000000,4.000000,4.000000,0.000000,,,,,,,,,,,,,,,,,,,,,,,,,,,,
1732156334.495306,1732156334.497061,111.000000,0.000000,4297.563965,4291.282227,4317.179688,4291.410156,4286.666504,4296.538574,4337.948730,4393.077148,4312.563965,4300.000000,4469.102539,4498.846191,4349.487305,4405.256348,1579.000000,1.000000,28.000000,,,,0.000000,2.000000,2.000000,0.000000,4.000000,2.000000,2.000000,0.000000,0.000000,4.000000,4.000000,4.000000,4.000000,4.000000,4.000000,0.000000,,,,,,,,,,,,,,,,,,,,,,,,,,,,
1732156334.503114,1732156334.504969,112.000000,0.000000,4300.256348,4290.256348,4314.102539,4295.769043,4288.974121,4297.692383,4336.025879,4392.307617,4310.641113,4297.820313,4469.615234,4498.077148,4350.000000,4409.871582,1705.000000,1.000000,28.000000,,,,0.000000,2.000000,2.000000,0.000000,4.000000,2.000000,2.000000,0.000000,0.000000,4.000000,4.000000,4.000000,4.000000,4.000000,4.000000,0.000000,,,,,,,,,,,,,,,,,28.000000,0.000000,0.669580,-0.096558,-0.723450,-0.137695,0.964473,0.070809,-0.063973,-66.708794,32.989925,44.510365
1732156334.510922,1732156334.512777,113.000000,0.000000,4302.436035,4287.051270,4313.589844,4300.000000,4287.692383,4299.487305,4337.307617,4397.179688,4309.487305,4294.487305,4470.384766,4499.615234,4348.974121,4410.256348,1700.000000,1.000000,28.000000,,,,0.000000,2.000000,2.000000,0.000000,4.000000,2.000000,2.000000,0.000000,0.000000,4.000000,4.000000,4.000000,4.000000,4.000000,4.000000,0.000000,,,,,,,,,,,,,,,,,,,,,,,,,,,,
1732156334.518730,1732156334.520785,114.000000,0.000000,4297.692383,4288.846191,4315.512695,4300.512695,4287.563965,4296.666504,4338.974121,4397.563965,4312.179688,4293.461426,4468.717773,4504.102539,4345.641113,4407.820313,1529.000000,1.000000,28.000000,,,,0.000000,2.000000,2.000000,0.000000,4.000000,2.000000,2.000000,0.000000,0.000000,4.000000,4.000000,4.000000,4.000000,4.000000,4.000000,0.000000,,,,,,,,,,,,,,,,,,,,,,,,,,,,
1732156334.526539,1732156334.528593,115.000000,0.000000,4294.230957,4292.692383,4317.692383,4301.153809,4290.512695,4292.820313,4337.051270,4392.692383,4315.000000,4295.512695,4472.563965,4506.153809,4347.051270,4409.871582,1579.000000,1.000000,28.000000,,,,0.000000,2.000000,2.000000,0.000000,4.000000,2.000000,2.000000,0.000000,0.000000,4.000000,4.000000,4.000000,4.000000,4.000000,4.000000,0.000000,,,,,,,,,,,,,,,,,,,,,,,,,,,,
1732156334.534347,1732156334.536501,116.000000,0.000000,4303.717773,4291.025879,4315.384766,4302.820313,4294.358887,4292.563965,4335.128418,4392.051270,4314.487305,4296.153809,4476.153809,4507.307617,4352.692383,4413.205078,1705.000000,1.000000,28.000000,,,,0.000000,2.000000,2.000000,0.000000,4.000000,2.000000,2.000000,0.000000,0.000000,4.000000,4.000000,4.000000,4.000000,4.000000,4.000000,0.000000,,,,,,,,,,,,,,,,,29.000000,0.000000,0.670905,-0.099304,-0.721497,-0.139526,0.980100,0.059578,-0.053717,-66.797455,32.970173,44.558395
1732156334.542155,1732156334.544309,117.000000,0.000000,4308.846191,4291.794922,4314.358887,4302.692383,4293.717773,4292.051270,4337.563965,4395.128418,4312.436035,4295.256348,4468.205078,4505.769043,4349.358887,4410.384766,1700.000000,1.000000,28.000000,,,,0.000000,2.000000,2.000000,0.000000,4.000000,2.000000,2.000000,0.000000,0.000000,4.000000,4.000000,4.000000,4.000000,4.000000,4.000000,0.000000,,,,,,,,,,,,,,,,,,,,,,,,,,,,
1732156334.549963,1732156334.552317,118.000000,0.000000,4302.436035,4294.102539,4314.358887,4296.922852,4291.153809,4293.717773,4338.717773,4397.179688,4313.717773,4295.384766,4463.333496,4507.179688,4343.974121,4406.794922,1529.000000,1.000000,28.000000,,,,0.000000,2.000000,2.000000,0.000000,4.000000,2.000000,2.000000,0.000000,0.000000,4.000000,4.000000,4.000000,4.000000,4.000000,4.000000,0.000000,,,,,,,,,,,,,,,,,,,,,,,,,,,,
1732156334.557772,1732156334.560126,119.000000,0.000000,4299.871582,4286.922852,4317.692383,4292.692383,4288.846191,4293.589844,4336.666504,4396.025879,4314.615234,4295.256348,4467.307617,4508.589844,4344.615234,4407.948730,1579.000000,1.000000,28.000000,,,,0.000000,2.000000,2.000000,0.000000,4.000000,2.000000,2.000000,0.000000,0.000000,4.000000,4.000000,4.000000,4.000000,4.000000,4.000000,0.000000,,,,,,,,,,,,,,,,,,,,,,,,,,,,
1732156334.565580,1732156334.567834,120.000000,0.000000,4300.256348,4283.205078,4320.000000,4295.897461,4288.717773,4288.589844,4336.410156,4394.743652,4311.153809,4289.487305,4465.512695,4507.179688,4344.230957,4406.282227,1705.000000,1.000000,28.000000,,,,0.000000,2.000000,2.000000,0.000000,4.000000,2.000000,2.000000,0.000000,0.000000,4.000000,4.000000,4.000000,4.000000,4.000000,4.000000,0.000000,,,,,,,,,,,,,,,,,30.000000,0.000000,0.671764,-0.101135,-0.720276,-0.140381,0.982053,0.080576,-0.049811,-66.832603,32.882507,44.508965
1732156334.573388,1732156334.575642,121.000000,0.000000,4296.153809,4291.153809,4317.820313,4296.794922,4291.410156,4288.461426,4336.410156,4394.102539,4307.436035,4284.743652,4458.461426,4503.846191,4340.128418,4399.615234,1700.000000,1.000000,28.000000,,,,0.000000,2.000000,2.000000,0.000000,4.000000,2.000000,2.000000,0.000000,0.000000,4.000000,4.000000,4.000000,4.000000,4.000000,4.000000,0.000000,,,,,,,,,,,,,,,,,,,,,,,,,,,,
1732156334.581196,1732156334.583251,122.000000,0.000000,4295.897461,4292.436035,4315.256348,4293.589844,4291.153809,4293.717773,4336.153809,4394.230957,4310.897461,4289.358887,4459.743652,4503.205078,4337.436035,4396.922852,1529.000000,1.000000,28.000000,,,,0.000000,2.000000,2.000000,0.000000,4.000000,2.000000,2.000000,0.000000,0.000000,4.000000,4.000000,4.000000,4.000000,4.000000,4.000000,0.000000,,,,,,,,,,,,,,,,,,,,,,,,,,,,
1732156334.589005,1732156334.591059,123.000000,0.000000,4300.128418,4286.666504,4316.666504,4293.846191,4292.307617,4295.000000,4335.641113,4395.512695,4316.410156,4292.051270,4466.153809,4507.436035,4340.000000,4404.230957,1579.000000,1.000000,28.000000,,,,0.000000,2.000000,2.000000,0.000000,4.000000,2.000000,2.000000,0.000000,0.000000,4.000000,4.000000,4.000000,4.000000,4.000000,4.000000,0.000000,,,,,,,,,,,,,,,,,,,,,,,,,,,,
1732156334.596813,1732156334.598767,124.000000,0.000000,4297.820313,4287.692383,4320.384766,4296.794922,4296.922852,4294.102539,4336.282227,4397.436035,4317.563965,4290.128418,4466.025879,4508.717773,4341.666504,4407.692383,1705.000000,1.000000,28.000000,,,,0.000000,2.000000,2.000000,0.000000,4.000000,2.000000,2.000000,0.000000,0.000000,4.000000,4.000000,4.000000,4.000000,4.000000,4.000000,0.000000,,,,,,,,,,,,,,,,,31.000000,0.000000,0.672071,-0.101440,-0.719971,-0.140259,0.978635,0.081553,-0.042974,-66.579414,33.031498,44.602264
1732156334.604621,1732156334.606575,125.000000,0.000000,4294.615234,4291.666504,4317.692383,4299.230957,4297.051270,4295.769043,4336.282227,4395.641113,4320.641113,4290.256348,4463.077148,4507.563965,4339.871582,4400.256348,1700.000000,1.000000,28.000000,,,,0.000000,2.000000,2.000000,0.000000,4.000000,2.000000,2.000000,0.000000,0.000000,4.000000,4.000000,4.000000,4.000000,4.000000,4.000000,0.000000,,,,,,,,,,,,,,,,,,,,,,,,,,,,
1732156334.612429,1732156334.614184,126.000000,0.000000,4294.487305,4292.563965,4315.769043,4302.563965,4296.153809,4295.128418,4337.692383,4393.461426,4323.461426,4292.820313,4463.589844,4507.051270,4340.512695,4396.666504,1529.000000,1.000000,28.000000,,,,0.000000,2.000000,2.000000,0.000000,4.000000,2.000000,2.000000,0.000000,0.000000,4.000000,4.000000,4.000000,4.000000,4.000000,4.000000,0.000000,,,,,,,,,,,,,,,,,,,,,,,,,,,,
1732156334.620237,1732156334.621992,127.000000,0.000000,4294.230957,4294.102539,4315.897461,4305.384766,4304.871582,4294.358887,4337.436035,4396.025879,4317.436035,4292.307617,4463.717773,4505.641113,4342.948730,4400.641113,28.000000,1.000000,28.000000,,,,0.000000,2.000000,2.000000,0.000000,4.000000,2.000000,2.000000,0.000000,0.000000,4.000000,4.000000,4.000000,4.000000,4.000000,4.000000,0.000000,,,,,,,,,,,,,,,,,,,,,,,,,,,,
1732156334.628046,1732156334.629700,0.000000,0.000000,4293.333496,4293.205078,4317.563965,4303.974121,4305.128418,4296.922852,4336.282227,4396.666504,4315.512695,4288.974121,4461.794922,4504.743652,4342.307617,4399.871582,0.000000,1.000000,28.000000,,,,0.000000,2.000000,2.000000,0.000000,4.000000,2.000000,2.000000,0.000000,0.000000,4.000000,4.000000,4.000000,4.000000,4.000000,4.000000,0.000000,,,,,,,,,,,,,,,,,0.000000,0.000000,0.672483,-0.102173,-0.719482,-0.140259,0.971310,0.084483,-0.040044,-66.895988,32.617180,44.821167
1732156334.635854,1732156334.637508,1.000000,0.000000,4293.461426,4291.922852,4314.743652,4302.948730,4291.410156,4296.666504,4335.769043,4393.589844,4321.666504,4290.000000,4466.153809,4505.641113,4341.410156,4394.230957,1593.000000,1.000000,28.000000,,,,0.000000,2.000000,2.000000,0.000000,4.000000,2.000000,2.000000,0.000000,0.000000,4.000000,4.000000,4.000000,4.000000,4.000000,4.000000,0.000000,,,,,,,,,,,,,,,,,,,,,,,,,,,,
1732156334.643662,1732156334.645117,2.000000,0.000000,4294.230957,4292.307617,4315.000000,4302.436035,4298.461426,4290.897461,4335.769043,4393.974121,4318.589844,4290.384766,4468.077148,4505.641113,4343.205078,4394.358887,1421.000000,1.000000,28.000000,,,,0.000000,2.000000,2.000000,0.000000,4.000000,2.000000,2.000000,0.000000,0.000000,4.000000,4.000000,4.000000,4.000000,4.000000,4.000000,0.000000,,,,,,,,,,,,,,,,,,,,,,,,,,,,
1732156334.651471,1732156334.652925,3.000000,0.000000,4293.846191,4292.436035,4316.922852,4300.897461,4313.846191,4288.974121,4335.769043,4395.641113,4315.641113,4287.948730,4462.307617,4505.897461,4341.922852,4398.974121,1411.000000,1.000000,28.000000,,,,0.000000,2.000000,2.000000,0.000000,4.000000,2.000000,2.000000,0.000000,0.000000,4.000000,4.000000,4.000000,4.000000,4.000000,4.000000,0.000000,,,,,,,,,,,,,,,,,,,,,,,,,,,,
1732156334.659279,1732156334.660633,4.000000,0.000000,4295.000000,4291.794922,4316.410156,4300.256348,4297.307617,4292.820313,4336.666504,4394.487305,4318.461426,4288.333496,4461.153809,4508.077148,4338.077148,4399.487305,1401.000000,1.000000,28.000000,,,,0.000000,2.000000,2.000000,0.000000,4.000000,2.000000,2.000000,0.000000,0.000000,4.000000,4.000000,4.000000,4.000000,4.000000,4.000000,0.000000,,,,,,,,,,,,,,,,,1.000000,0.000000,0.673214,-0.102905,-0.718872,-0.139343,0.971798,0.048346,-0.046881,-67.019089,32.398251,44.831810
1732156334.667087,1732156334.668442,5.000000,0.000000,4299.615234,4290.769043,4312.692383,4303.717773,4280.641113,4294.358887,4336.922852,4392.692383,4316.410156,4291.282227,4463.974121,4507.179688,4338.974121,4398.205078,1245.000000,1.000000,28.000000,,,,0.000000,2.000000,2.000000,0.000000,4.000000,2.000000,2.000000,0.000000,0.000000,4.000000,4.000000,4.000000,4.000000,4.000000,4.000000,0.000000,,,,,,,,,,,,,,,,,,,,,,,,,,,,
1732156334.674895,1732156334.676050,6.000000,0.000000,4301.153809,4292.820313,4317.436035,4305.256348,4292.051270,4292.948730,4337.051270,4392.563965,4312.692383,4288.205078,4462.436035,4507.948730,4341.794922,4405.512695,0.000000,1.000000,28.000000,,,,0.000000,2.000000,2.000000,0.000000,4.000000,2.000000,2.000000,0.000000,0.000000,4.000000,4.000000,4.000000,4.000000,4.000000,4.000000,0.000000,,,,,,,,,,,,,,,,,,,,,,,,,,,,
1732156334.682703,1732156334.683858,7.000000,0.000000,4297.179688,4295.256348,4320.512695,4302.051270,4297.051270,4293.589844,4339.102539,4394.871582,4313.205078,4284.743652,4461.666504,4509.615234,4338.333496,4412.436035,0.000000,1.000000,28.000000,,,,0.000000,2.000000,2.000000,0.000000,4.000000,2.000000,2.000000,0.000000,0.000000,4.000000,4.000000,4.000000,4.000000,4.000000,4.000000,0.000000,,,,,,,,,,,,,,,,,,,,,,,,,,,,
1732156334.690512,1732156334.691567,8.000000,0.000000,4294.102539,4293.589844,4315.641113,4298.589844,4289.102539,4290.128418,4339.358887,4396.922852,4311.282227,4286.538574,4466.153809,4513.077148,4333.205078,4412.563965,1531.000000,1.000000,28.000000,,,,0.000000,2.000000,2.000000,0.000000,4.000000,2.000000,2.000000,0.000000,0.000000,4.000000,4.000000,4.000000,4.000000,4.000000,4.000000,0.000000,,,,,,,,,,,,,,,,,2.000000,0.000000,0.673398,-0.102966,-0.718750,-0.139038,0.971798,0.048346,-0.046881,-66.907127,32.215916,44.927101
1732156334.698320,1732156334.699375,9.000000,0.000000,4295.384766,4291.538574,4314.871582,4300.128418,4290.128418,4287.948730,4336.666504,4396.282227,4303.589844,4286.025879,4469.230957,4517.563965,4335.384766,4414.102539,1680.000000,1.000000,28.000000,,,,0.000000,2.000000,2.000000,0.000000,4.000000,2.000000,2.000000,0.000000,0.000000,4.000000,4.000000,4.000000,4.000000,4.000000,4.000000,0.000000,,,,,,,,,,,,,,,,,,,,,,,,,,,,
1732156334.706128,1732156334.706983,10.000000,0.000000,4295.641113,4295.769043,4316.794922,4303.717773,4295.256348,4290.000000,4336.153809,4392.436035,4299.615234,4285.256348,4468.333496,4514.487305,4339.615234,4415.512695,1529.000000,1.000000,28.000000,,,,0.000000,2.000000,2.000000,0.000000,4.000000,2.000000,2.000000,0.000000,0.000000,4.000000,4.000000,4.000000,4.000000,4.000000,4.000000,0.000000,,,,,,,,,,,,,,,,,,,,,,,,,,,,
1732156334.713936,1732156334.714791,11.000000,0.000000,4295.641113,4298.717773,4315.256348,4303.717773,4296.666504,4289.487305,4337.307617,4391.794922,4296.153809,4284.871582,4462.563965,4507.563965,4338.974121,4414.743652,1579.000000,1.000000,28.000000,,,,0.000000,2.000000,2.000000,0.000000,4.000000,2.000000,2.000000,0.000000,0.000000,4.000000,4.000000,4.000000,4.000000,4.000000,4.000000,0.000000,,,,,,,,,,,,,,,,,,,,,,,,,,,,
1732156334.721745,1732156334.722500,12.000000,0.000000,4297.948730,4297.307617,4313.846191,4303.461426,4293.461426,4287.692383,4335.769043,4392.820313,4297.307617,4281.025879,4457.692383,4505.897461,4335.641113,4412.563965,1705.000000,1.000000,28.000000,,,,0.000000,2.000000,2.000000,0.000000,4.000000,2.000000,2.000000,0.000000,0.000000,4.000000,4.000000,4.000000,4.000000,4.000000,4.000000,0.000000,,,,,,,,,,,,,,,,,3.000000,0.000000,0.673616,-0.102966,-0.718628,-0.138611,0.976193,0.050299,-0.043462,-66.804771,32.421558,44.832619
1732156334.729553,1732156334.730308,13.000000,0.000000,4299.615234,4297.436035,4317.692383,4303.205078,4293.974121,4288.846191,4336.282227,4393.974121,4303.461426,4272.051270,4458.333496,4505.641113,4332.051270,4406.410156,1700.000000,1.000000,28.000000,,,,0.000000,2.000000,2.000000,0.000000,4.000000,2.000000,2.000000,0.000000,0.000000,4.000000,4.000000,4.000000,4.000000,4.000000,4.000000,0.000000,,,,,,,,,,,,,,,,,,,,,,,,,,,,
1732156334.737361,1732156334.737916,14.000000,0.000000,4300.000000,4294.743652,4317.692383,4303.205078,4307.307617,4288.717773,4338.333496,4395.641113,4304.871582,4267.820313,4457.307617,4503.974121,4331.538574,4404.615234,1529.000000,1.000000,28.000000,,,,0.000000,2.000000,2.000000,0.000000,4.000000,2.000000,2.000000,0.000000,0.000000,4.000000,4.000000,4.000000,4.000000,4.000000,4.000000,0.000000,1.000000,0.000000,2.000000,2.000000,0.000000,4.000000,2.000000,2.000000,0.000000,0.000000,4.000000,4.000000,4.000000,4.000000,4.000000,3.000000,,,,,,,,,,,,
1732156334.745170,1732156334.745724,15.000000,0.000000,4304.487305,4293.333496,4317.820313,4305.897461,4306.410156,4288.205078,4338.333496,4396.922852,4303.846191,4277.820313,4457.307617,4505.000000,4334.487305,4411.666504,1579.000000,1.000000,28.000000,,,,0.000000,2.000000,2.000000,0.000000,4.000000,2.000000,2.000000,0.000000,0.000000,4.000000,4.000000,4.000000,4.000000,4.000000,4.000000,0.000000,,,,,,,,,,,,,,,,,,,,,,,,,,,,
1732156334.752978,1732156334.753433,16.000000,0.000000,4310.384766,4302.179688,4316.410156,4310.512695,4290.000000,4289.871582,4335.897461,4395.641113,4306.538574,4289.487305,4466.025879,4506.794922,4337.692383,4414.615234,0.000000,1.000000,28.000000,,,,0.000000,2.000000,2.000000,0.000000,4.000000,2.000000,2.000000,0.000000,0.000000,4.000000,4.000000,4.000000,4.000000,4.000000,4.000000,0.000000,,,,,,,,,,,,,,,,,4.000000,0.000000,0.674061,-0.103210,-0.718445,-0.137207,0.986937,0.047369,-0.043951,-66.838531,32.554794,44.822754
1732156334.760786,1732156334.761241,17.000000,0.000000,4308.717773,4307.179688,4318.589844,4312.051270,4290.256348,4289.615234,4335.641113,4394.230957,4313.333496,4289.102539,4473.846191,4506.282227,4341.538574,4412.820313,0.000000,1.000000,28.000000,,,,0.000000,2.000000,2.000000,0.000000,4.000000,2.000000,2.000000,0.000000,0.000000,4.000000,4.000000,4.000000,4.000000,4.000000,4.000000,0.000000,,,,,,,,,,,,,,,,,,,,,,,,,,,,
1732156334.768594,1732156334.768849,18.000000,0.000000,4306.794922,4301.282227,4318.077148,4310.769043,4295.512695,4288.333496,4335.897461,4395.384766,4313.077148,4287.436035,4475.256348,4507.948730,4346.538574,4413.205078,0.000000,1.000000,28.000000,,,,0.000000,2.000000,2.000000,0.000000,4.000000,2.000000,2.000000,0.000000,0.000000,4.000000,4.000000,4.000000,4.000000,4.000000,4.000000,0.000000,,,,,,,,,,,,,,,,,,,,,,,,,,,,
1732156334.776402,1732156334.776658,19.000000,0.000000,4307.179688,4297.820313,4315.384766,4307.051270,4288.205078,4286.794922,4336.025879,4397.051270,4304.487305,4290.641113,4472.436035,4508.077148,4344.487305,4408.717773,0.000000,1.000000,28.000000,,,,0.000000,2.000000,2.000000,0.000000,4.000000,2.000000,2.000000,0.000000,0.000000,4.000000,4.000000,4.000000,4.000000,4.000000,4.000000,0.000000,,,,,,,,,,,,,,,,,,,,,,,,,,,,
1732156334.784211,1732156334.784566,20.000000,0.000000,4302.948730,4299.102539,4312.948730,4306.410156,4299.615234,4286.794922,4336.538574,4399.358887,4301.410156,4287.179688,4464.871582,4501.282227,4340.256348,4403.333496,0.000000,1.000000,28.000000,,,,0.000000,2.000000,2.000000,0.000000,4.000000,2.000000,2.000000,0.000000,0.000000,4.000000,4.000000,4.000000,4.000000,4.000000,4.000000,0.000000,,,,,,,,,,,,,,,,,5.000000,0.000000,0.674234,-0.103699,-0.718201,-0.137268,0.959101,0.064461,-0.038091,-66.805878,32.681049,44.786430
1732156334.792019,1732156334.792374,21.000000,0.000000,4300.769043,4297.948730,4315.769043,4310.769043,4308.974121,4289.230957,4337.051270,4398.846191,4304.743652,4282.948730,4461.025879,4498.717773,4344.358887,4407.179688,0.000000,1.000000,28.000000,,,,0.000000,2.000000,2.000000,0.000000,4.000000,2.000000,2.000000,0.000000,0.000000,4.000000,4.000000,4.000000,4.000000,4.000000,4.000000,0.000000,,,,,,,,,,,,,,,,,,,,,,,,,,,,
1732156334.799827,1732156334.800382,22.000000,0.000000,4304.743652,4297.692383,4316.282227,4309.871582,4289.871582,4287.179688,4336.794922,4395.897461,4304.230957,4281.410156,4462.563965,4501.153809,4348.717773,4412.179688,0.000000,1.000000,28.000000,,,,0.000000,2.000000,2.000000,0.000000,4.000000,2.000000,2.000000,0.000000,0.000000,4.000000,4.000000,4.000000,4.000000,4.000000,4.000000,0.000000,,,,,,,,,,,,,,,,,,,,,,,,,,,,
1732156334.807635,1732156334.808190,23.000000,0.000000,4303.717773,4298.205078,4315.641113,4304.743652,4280.769043,4283.974121,4334.615234,4392.948730,4298.077148,4278.333496,4461.794922,4499.487305,4345.897461,4409.487305,0.000000,1.000000,28.000000,,,,0.000000,2.000000,2.000000,0.000000,4.000000,2.000000,2.000000,0.000000,0.000000,4.000000,4.000000,4.000000,4.000000,4.000000,4.000000,0.000000,,,,,,,,,,,,,,,,,,,,,,,,,,,,
1732156334.815444,1732156334.815898,24.000000,0.000000,4296.794922,4298.717773,4316.025879,4304.358887,4290.256348,4283.589844,4334.871582,4392.051270,4301.025879,4279.230957,4459.358887,4497.436035,4344.487305,4403.589844,0.000000,1.000000,28.000000,,,,0.000000,2.000000,2.000000,0.000000,4.000000,2.000000,2.000000,0.000000,0.000000,4.000000,4.000000,4.000000,4.000000,4.000000,4.000000,0.000000,,,,,,,,,,,,,,,,,6.000000,0.000000,0.674286,-0.103882,-0.718079,-0.137512,0.959101,0.064461,-0.038091,-66.811096,32.551651,44.447010
1732156334.823252,1732156334.823707,25.000000,0.000000,4295.641113,4297.692383,4315.256348,4302.948730,4298.974121,4283.205078,4335.769043,4393.846191,4304.871582,4280.128418,4461.153809,4497.820313,4346.538574,4399.871582,0.000000,1.000000,28.000000,,,,0.000000,2.000000,2.000000,0.000000,4.000000,2.000000,2.000000,0.000000,0.000000,4.000000,4.000000,4.000000,4.000000,4.000000,4.000000,0.000000,,,,,,,,,,,,,,,,,,,,,,,,,,,,
1732156334.831060,1732156334.831315,26.000000,0.000000,4297.692383,4293.205078,4315.641113,4299.358887,4302.563965,4280.512695,4334.615234,4396.153809,4301.538574,4271.410156,4462.051270,4492.948730,4344.871582,4400.384766,0.000000,1.000000,28.000000,,,,0.000000,2.000000,2.000000,0.000000,4.000000,2.000000,2.000000,0.000000,0.000000,4.000000,4.000000,4.000000,4.000000,4.000000,4.000000,0.000000,,,,,,,,,,,,,,,,,,,,,,,,,,,,
1732156334.838868,1732156334.839123,27.000000,0.000000,4296.666504,4295.897461,4317.051270,4303.846191,4293.077148,4282.820313,4333.974121,4394.102539,4301.282227,4271.282227,4459.743652,4490.256348,4344.487305,4406.282227,0.000000,1.000000,28.000000,,,,0.000000,2.000000,2.000000,0.000000,4.000000,2.000000,2.000000,0.000000,0.000000,4.000000,4.000000,4.000000,4.000000,4.000000,4.000000,0.000000,,,,,,,,,,,,,,,,,,,,,,,,,,,,
1732156334.846676,1732156334.847031,28.000000,0.000000,4294.615234,4301.025879,4317.436035,4308.589844,4279.487305,4284.102539,4337.436035,4393.974121,4303.589844,4281.025879,4461.410156,4500.384766,4347.820313,4412.436035,0.000000,1.000000,28.000000,,,,0.000000,2.000000,2.000000,0.000000,4.000000,2.000000,2.000000,0.000000,0.000000,4.000000,4.000000,4.000000,4.000000,4.000000,4.000000,0.000000,,,,,,,,,,,,,,,,,7.000000,0.000000,0.674342,-0.104492,-0.717773,-0.138367,0.970822,0.056159,-0.041509,-66.905319,32.356838,44.473743
1732156334.854485,1732156334.854840,29.000000,0.000000,4295.384766,4296.922852,4313.205078,4303.333496,4280.641113,4284.358887,4338.461426,4397.436035,4306.666504,4282.692383,4465.128418,4506.282227,4351.282227,4411.025879,0.000000,1.000000,28.000000,,,,0.000000,2.000000,2.000000,0.000000,4.000000,2.000000,2.000000,0.000000,0.000000,4.000000,4.000000,4.000000,4.000000,4.000000,4.000000,0.000000,,,,,,,,,,,,,,,,,,,,,,,,,,,,
1732156334.862293,1732156334.862848,30.000000,0.000000,4296.282227,4291.538574,4314.487305,4297.948730,4289.743652,4284.615234,4335.256348,4397.692383,4308.077148,4281.153809,4463.717773,4503.205078,4350.641113,4405.384766,0.000000,1.000000,28.000000,,,,0.000000,2.000000,2.000000,0.000000,4.000000,2.000000,2.000000,0.000000,0.000000,4.000000,4.000000,4.000000,4.000000,4.000000,4.000000,0.000000,,,,,,,,,,,,,,,,,,,,,,,,,,,,
1732156334.870101,1732156334.870656,31.000000,0.000000,4295.384766,4290.897461,4317.436035,4300.000000,4297.307617,4279.743652,4332.948730,4396.025879,4307.692383,4284.743652,4461.410156,4503.205078,4345.256348,4403.333496,0.000000,1.000000,28.000000,,,,0.000000,2.000000,2.000000,0.000000,4.000000,2.000000,2.000000,0.000000,0.000000,4.000000,4.000000,4.000000,4.000000,4.000000,4.000000,0.000000,,,,,,,,,,,,,,,,,,,,,,,,,,,,
1732156334.877910,1732156334.878564,32.000000,0.000000,4293.974121,4290.384766,4317.051270,4302.692383,4294.615234,4280.897461,4333.974121,4396.922852,4309.871582,4288.846191,4469.230957,4506.153809,4347.563965,4404.102539,0.000000,1.000000,28.000000,,,,0.000000,2.000000,2.000000,0.000000,4.000000,2.000000,2.000000,0.000000,0.000000,4.000000,4.000000,4.000000,4.000000,4.000000,4.000000,0.000000,,,,,,,,,,,,,,,,,8.000000,0.000000,0.674234,-0.105591,-0.717773,-0.138062,0.996215,0.045416,-0.059578,-66.824974,32.222370,44.493732
1732156334.885718,1732156334.886372,33.000000,0.000000,4294.615234,4287.692383,4312.179688,4303.077148,4277.179688,4287.179688,4335.384766,4395.384766,4314.102539,4293.974121,4477.948730,4507.051270,4356.025879,4404.487305,0.000000,1.000000,28.000000,,,,0.000000,2.000000,2.000000,0.000000,4.000000,2.000000,2.000000,0.000000,0.000000,4.000000,4.000000,4.000000,4.000000,4.000000,4.000000,0.000000,,,,,,,,,,,,,,,,,,,,,,,,,,,,
1732156334.893526,1732156334.894380,34.000000,0.000000,4296.282227,4284.743652,4311.410156,4300.641113,4274.615234,4286.025879,4335.256348,4392.948730,4310.256348,4297.179688,4470.641113,4505.512695,4352.820313,4405.384766,0.000000,1.000000,28.000000,,,,0.000000,2.000000,2.000000,0.000000,4.000000,2.000000,2.000000,0.000000,0.000000,4.000000,4.000000,4.000000,4.000000,4.000000,4.000000,0.000000,,,,,,,,,,,,,,,,,,,,,,,,,,,,
1732156334.901334,1732156334.902188,35.000000,0.000000,4295.384766,4286.282227,4312.179688,4299.487305,4287.692383,4286.794922,4334.487305,4393.077148,4303.589844,4295.256348,4462.948730,4506.410156,4344.615234,4404.358887,0.000000,1.000000,28.000000,,,,0.000000,2.000000,2.000000,0.000000,4.000000,2.000000,2.000000,0.000000,0.000000,4.000000,4.000000,4.000000,4.000000,4.000000,4.000000,0.000000,,,,,,,,,,,,,,,,,,,,,,,,,,,,
1732156334.909143,1732156334.910096,36.000000,0.000000,4293.333496,4291.153809,4313.974121,4302.307617,4287.051270,4295.000000,4333.974121,4393.077148,4304.743652,4297.179688,4470.769043,4507.051270,4348.333496,4401.153809,0.000000,1.000000,28.000000,,,,0.000000,2.000000,2.000000,0.000000,4.000000,2.000000,2.000000,0.000000,0.000000,4.000000,4.000000,4.000000,4.000000,4.000000,4.000000,0.000000,,,,,,,,,,,,,,,,,9.000000,0.000000,0.674234,-0.105591,-0.717773,-0.138062,0.991820,0.062508,-0.050787,-66.714897,32.113453,44.464924
1732156334.916951,1732156334.917905,37.000000,0.000000,4294.230957,4294.871582,4313.589844,4303.717773,4294.102539,4297.051270,4333.077148,4392.948730,4304.358887,4298.974121,4476.666504,4506.666504,4352.051270,4402.948730,0.000000,1.000000,28.000000,,,,0.000000,2.000000,2.000000,0.000000,4.000000,2.000000,2.000000,0.000000,0.000000,4.000000,4.000000,4.000000,4.000000,4.000000,4.000000,0.000000,,,,,,,,,,,,,,,,,,,,,,,,,,,,
1732156334.924759,1732156334.925913,38.000000,0.000000,4297.436035,4292.051270,4313.077148,4302.948730,4305.641113,4295.641113,4333.205078,4392.820313,4299.615234,4295.000000,4472.307617,4505.512695,4351.794922,4408.846191,0.000000,1.000000,28.000000,,,,0.000000,2.000000,2.000000,0.000000,4.000000,2.000000,2.000000,0.000000,0.000000,4.000000,4.000000,4.000000,4.000000,4.000000,4.000000,0.000000,,,,,,,,,,,,,,,,,,,,,,,,,,,,
1732156334.932567,1732156334.933721,39.000000,0.000000,4296.153809,4288.205078,4312.563965,4302.436035,4290.128418,4301.410156,4335.512695,4394.743652,4298.461426,4294.871582,4472.436035,4506.922852,4353.589844,4411.794922,0.000000,1.000000,28.000000,,,,0.000000,2.000000,2.000000,0.000000,4.000000,2.000000,2.000000,0.000000,0.000000,4.000000,4.000000,4.000000,4.000000,4.000000,4.000000,0.000000,,,,,,,,,,,,,,,,,,,,,,,,,,,,
1732156334.940375,1732156334.941629,40.000000,0.000000,4293.461426,4287.692383,4312.563965,4300.769043,4273.589844,4301.922852,4335.641113,4396.282227,4299.230957,4299.487305,4476.153809,4507.436035,4348.846191,4408.974121,0.000000,1.000000,28.000000,,,,0.000000,2.000000,2.000000,0.000000,4.000000,2.000000,2.000000,0.000000,0.000000,4.000000,4.000000,4.000000,4.000000,4.000000,4.000000,0.000000,,,,,,,,,,,,,,,,,10.000000,0.000000,0.673977,-0.106262,-0.718079,-0.137207,0.978635,0.053229,-0.053229,-66.642403,32.155231,44.249920
1732156334.948184,1732156334.949437,41.000000,0.000000,4294.102539,4289.487305,4313.589844,4300.897461,4280.769043,4296.538574,4334.487305,4397.563965,4301.538574,4297.563965,4472.051270,4504.871582,4344.102539,4406.153809,0.000000,1.000000,28.000000,,,,0.000000,2.000000,2.000000,0.000000,4.000000,2.000000,2.000000,0.000000,0.000000,4.000000,4.000000,4.000000,4.000000,4.000000,4.000000,0.000000,,,,,,,,,,,,,,,,,,,,,,,,,,,,
1732156334.955992,1732156334.957445,42.000000,0.000000,4295.641113,4294.358887,4314.871582,4302.179688,4288.589844,4298.717773,4335.512695,4397.436035,4302.948730,4295.512695,4468.846191,4504.743652,4348.717773,4406.794922,0.000000,1.000000,28.000000,,,,0.000000,2.000000,2.000000,0.000000,4.000000,2.000000,2.000000,0.000000,0.000000,4.000000,4.000000,4.000000,4.000000,4.000000,4.000000,0.000000,,,,,,,,,,,,,,,,,,,,,,,,,,,,
1732156334.963800,1732156334.965253,43.000000,0.000000,4296.153809,4296.025879,4316.794922,4301.538574,4287.051270,4300.512695,4335.384766,4396.410156,4300.897461,4297.051270,4472.436035,4506.282227,4347.692383,4407.692383,0.000000,1.000000,28.000000,,,,0.000000,2.000000,2.000000,0.000000,4.000000,2.000000,2.000000,0.000000,0.000000,4.000000,4.000000,4.000000,4.000000,4.000000,4.000000,0.000000,,,,,,,,,,,,,,,,,,,,,,,,,,,,
1732156334.971609,1732156334.972962,44.000000,0.000000,4296.538574,4295.512695,4315.769043,4302.051270,4288.205078,4296.153809,4331.794922,4394.743652,4301.666504,4295.769043,4474.358887,4507.820313,4343.974121,4408.589844,0.000000,1.000000,28.000000,,,,0.000000,2.000000,2.000000,0.000000,4.000000,2.000000,2.000000,0.000000,0.000000,4.000000,4.000000,4.000000,4.000000,4.000000,4.000000,0.000000,,,,,,,,,,,,,,,,,11.000000,0.000000,0.673235,-0.106689,-0.719116,-0.135071,0.985960,0.042974,-0.049811,-66.683678,32.284069,44.467438
1732156334.979417,1732156334.980770,45.000000,0.000000,4297.307617,4293.717773,4315.641113,4302.436035,4288.974121,4296.410156,4331.282227,4392.820313,4303.461426,4295.256348,4472.692383,4507.563965,4348.846191,4410.256348,0.000000,1.000000,28.000000,,,,0.000000,2.000000,2.000000,0.000000,4.000000,2.000000,2.000000,0.000000,0.000000,4.000000,4.000000,4.000000,4.000000,4.000000,4.000000,0.000000,,,,,,,,,,,,,,,,,,,,,,,,,,,,
1732156334.987225,1732156334.988378,46.000000,0.000000,4294.743652,4292.179688,4314.615234,4300.256348,4288.717773,4297.948730,4333.333496,4392.179688,4299.487305,4298.589844,4471.922852,4504.230957,4351.794922,4411.025879,0.000000,1.000000,28.000000,,,,0.000000,2.000000,2.000000,0.000000,4.000000,2.000000,2.000000,0.000000,0.000000,4.000000,4.000000,4.000000,4.000000,4.000000,4.000000,0.000000,,,,,,,,,,,,,,,,,,,,,,,,,,,,
1732156334.995033,1732156334.996187,47.000000,0.000000,4295.384766,4293.077148,4315.000000,4300.000000,4284.615234,4291.922852,4334.358887,4393.333496,4298.205078,4300.897461,4475.256348,4509.743652,4350.256348,4411.538574,0.000000,1.000000,28.000000,,,,0.000000,2.000000,2.000000,0.000000,4.000000,2.000000,2.000000,0.000000,0.000000,4.000000,4.000000,4.000000,4.000000,4.000000,4.000000,0.000000,,,,,,,,,,,,,,,,,,,,,,,,,,,,
1732156335.002841,1732156335.003895,48.000000,0.000000,4296.538574,4293.205078,4313.589844,4300.769043,4287.436035,4287.948730,4333.205078,4394.358887,4302.436035,4300.256348,4477.307617,4518.461426,4350.897461,4413.717773,0.000000,1.000000,28.000000,,,,0.000000,2.000000,2.000000,0.000000,4.000000,2.000000,2.000000,0.000000,0.000000,4.000000,4.000000,4.000000,4.000000,4.000000,4.000000,0.000000,,,,,,,,,,,,,,,,,12.000000,0.000000,0.672890,-0.106934,-0.719482,-0.134644,0.986449,0.040044,-0.055671,-66.762115,32.263432,44.530289
1732156335.010650,1732156335.011703,49.000000,0.000000,4293.205078,4289.487305,4315.897461,4294.615234,4298.589844,4288.589844,4333.077148,4393.333496,4303.461426,4297.436035,4470.769043,4512.820313,4350.897461,4414.615234,0.000000,1.000000,28.000000,,,,0.000000,2.000000,2.000000,0.000000,4.000000,2.000000,2.000000,0.000000,0.000000,4.000000,4.000000,4.000000,4.000000,4.000000,4.000000,0.000000,,,,,,,,,,,,,,,,,,,,,,,,,,,,
1732156335.018458,1732156335.019311,50.000000,0.000000,4290.512695,4289.871582,4316.282227,4295.128418,4290.128418,4289.230957,4335.384766,4394.743652,4303.205078,4297.051270,4467.179688,4505.000000,4352.051270,4413.589844,0.000000,1.000000,28.000000,,,,0.000000,2.000000,2.000000,0.000000,4.000000,2.000000,2.000000,0.000000,0.000000,4.000000,4.000000,4.000000,4.000000,4.000000,4.000000,0.000000,,,,,,,,,,,,,,,,,,,,,,,,,,,,
1732156335.026266,1732156335.027120,51.000000,0.000000,4285.641113,4295.384766,4315.000000,4302.179688,4273.589844,4292.820313,4337.051270,4397.307617,4306.410156,4299.230957,4472.436035,4509.102539,4353.717773,4414.871582,0.000000,1.000000,28.000000,,,,0.000000,2.000000,2.000000,0.000000,4.000000,2.000000,2.000000,0.000000,0.000000,4.000000,4.000000,4.000000,4.000000,4.000000,4.000000,0.000000,,,,,,,,,,,,,,,,,,,,,,,,,,,,
1732156335.034074,1732156335.034828,52.000000,0.000000,4283.846191,4295.384766,4310.641113,4299.230957,4276.153809,4295.769043,4333.205078,4395.128418,4306.025879,4299.487305,4474.871582,4510.641113,4353.205078,4414.487305,0.000000,1.000000,28.000000,,,,0.000000,2.000000,2.000000,0.000000,4.000000,2.000000,2.000000,0.000000,0.000000,4.000000,4.000000,4.000000,4.000000,4.000000,4.000000,0.000000,,,,,,,,,,,,,,,,,13.000000,0.000000,0.672890,-0.106934,-0.719482,-0.134644,0.974240,0.031742,-0.066903,-66.780647,32.096714,44.461201
1732156335.041883,1732156335.042636,53.000000,0.000000,4290.000000,4292.051270,4312.436035,4293.717773,4280.128418,4295.128418,4332.051270,4392.563965,4304.743652,4297.563965,4473.205078,4506.794922,4356.410156,4414.230957,0.000000,1.000000,28.000000,,,,0.000000,2.000000,2.000000,0.000000,4.000000,2.000000,2.000000,0.000000,0.000000,4.000000,4.000000,4.000000,4.000000,4.000000,4.000000,0.000000,,,,,,,,,,,,,,,,,,,,,,,,,,,,
1732156335.049691,1732156335.050245,54.000000,0.000000,4296.922852,4291.922852,4316.282227,4291.794922,4281.794922,4295.256348,4337.179688,4394.230957,4306.922852,4298.846191,4474.102539,4507.820313,4357.820313,4415.641113,0.000000,1.000000,28.000000,,,,0.000000,2.000000,2.000000,0.000000,4.000000,2.000000,2.000000,0.000000,0.000000,4.000000,4.000000,4.000000,4.000000,4.000000,4.000000,0.000000,,,,,,,,,,,,,,,,,,,,,,,,,,,,
1732156335.057499,1732156335.058053,55.000000,0.000000,4298.461426,4291.025879,4315.897461,4291.666504,4292.051270,4294.102539,4337.563965,4394.871582,4308.974121,4299.487305,4475.641113,4507.692383,4353.717773,4415.897461,0.000000,1.000000,28.000000,,,,0.000000,2.000000,2.000000,0.000000,4.000000,2.000000,2.000000,0.000000,0.000000,4.000000,4.000000,4.000000,4.000000,4.000000,4.000000,0.000000,,,,,,,,,,,,,,,,,,,,,,,,,,,,
1732156335.065307,1732156335.065761,56.000000,0.000000,4300.000000,4291.153809,4314.615234,4295.769043,4286.025879,4292.179688,4333.205078,4394.743652,4308.461426,4300.128418,4475.256348,4506.153809,4358.974121,4417.820313,0.000000,1.000000,28.000000,,,,0.000000,2.000000,2.000000,0.000000,4.000000,2.000000,2.000000,0.000000,0.000000,4.000000,4.000000,4.000000,4.000000,4.000000,4.000000,0.000000,,,,,,,,,,,,,,,,,14.000000,0.000000,0.672015,-0.107117,-0.720398,-0.133972,0.970333,0.044439,-0.052252,-66.728989,32.216671,44.441906
1732156335.073115,1732156335.073569,57.000000,0.000000,4298.205078,4294.102539,4315.641113,4295.897461,4271.410156,4294.743652,4332.820313,4395.641113,4311.410156,4303.077148,4476.282227,4508.205078,4366.666504,4421.025879,0.000000,1.000000,28.000000,,,,0.000000,2.000000,2.000000,0.000000,4.000000,2.000000,2.000000,0.000000,0.000000,4.000000,4.000000,4.000000,4.000000,4.000000,4.000000,0.000000,,,,,,,,,,,,,,,,,,,,,,,,,,,,
1732156335.080924,1732156335.081178,58.000000,0.000000,4290.384766,4295.897461,4314.487305,4286.794922,4276.922852,4295.769043,4334.358887,4395.641113,4313.717773,4302.563965,4476.794922,4510.512695,4362.179688,4418.461426,0.000000,1.000000,28.000000,,,,0.000000,2.000000,2.000000,0.000000,4.000000,2.000000,2.000000,0.000000,0.000000,4.000000,4.000000,4.000000,4.000000,4.000000,4.000000,0.000000,,,,,,,,,,,,,,,,,,,,,,,,,,,,
1732156335.088732,1732156335.088986,59.000000,0.000000,4290.384766,4294.358887,4311.282227,4286.922852,4285.256348,4297.692383,4334.743652,4392.179688,4311.922852,4300.384766,4471.666504,4504.358887,4355.897461,4412.692383,0.000000,1.000000,28.000000,,,,0.000000,2.000000,2.000000,0.000000,4.000000,2.000000,2.000000,0.000000,0.000000,4.000000,4.000000,4.000000,4.000000,4.000000,4.000000,0.000000,,,,,,,,,,,,,,,,,,,,,,,,,,,,
1732156335.096540,1732156335.096694,60.000000,0.000000,4293.846191,4289.871582,4315.384766,4295.128418,4280.384766,4300.384766,4336.282227,4392.692383,4310.256348,4300.000000,4466.922852,4496.794922,4356.410156,4411.538574,0.000000,1.000000,28.000000,,,,0.000000,2.000000,2.000000,0.000000,4.000000,2.000000,2.000000,0.000000,0.000000,4.000000,4.000000,4.000000,4.000000,4.000000,4.000000,0.000000,,,,,,,,,,,,,,,,,15.000000,0.000000,0.671584,-0.106628,-0.721008,-0.133240,0.973752,0.042486,-0.066903,-66.933815,32.407169,44.316277
1732156335.104349,1732156335.104502,61.000000,0.000000,4294.871582,4288.589844,4316.794922,4295.256348,4277.051270,4297.563965,4335.897461,4396.794922,4309.615234,4297.051270,4467.436035,4501.282227,4357.179688,4413.717773,0.000000,1.000000,28.000000,,,,0.000000,2.000000,2.000000,0.000000,4.000000,2.000000,2.000000,0.000000,0.000000,4.000000,4.000000,4.000000,4.000000,4.000000,4.000000,0.000000,,,,,,,,,,,,,,,,,,,,,,,,,,,,
1732156335.112157,1732156335.112111,62.000000,0.000000,4295.128418,4290.384766,4314.743652,4294.102539,4282.948730,4294.230957,4336.282227,4396.282227,4306.282227,4292.051270,4468.589844,4507.436035,4354.615234,4411.922852,0.000000,1.000000,28.000000,,,,0.000000,2.000000,2.000000,0.000000,4.000000,2.000000,2.000000,0.000000,0.000000,4.000000,4.000000,4.000000,4.000000,4.000000,4.000000,0.000000,,,,,,,,,,,,,,,,,,,,,,,,,,,,
1732156335.119965,1732156335.119919,63.000000,0.000000,4295.512695,4291.666504,4312.436035,4296.794922,4283.717773,4293.589844,4337.179688,4392.948730,4305.512695,4293.333496,4466.922852,4506.025879,4353.077148,4409.615234,0.000000,1.000000,28.000000,,,,0.000000,2.000000,2.000000,0.000000,4.000000,2.000000,2.000000,0.000000,0.000000,4.000000,4.000000,4.000000,4.000000,4.000000,4.000000,0.000000,,,,,,,,,,,,,,,,,,,,,,,,,,,,
1732156335.127773,1732156335.127827,64.000000,0.000000,4295.128418,4292.051270,4314.615234,4294.230957,4279.871582,4294.358887,4335.384766,4393.333496,4308.461426,4296.794922,4464.871582,4503.846191,4354.230957,4410.384766,0.000000,1.000000,28.000000,,,,0.000000,2.000000,2.000000,0.000000,4.000000,2.000000,2.000000,0.000000,0.000000,4.000000,4.000000,4.000000,4.000000,4.000000,4.000000,0.000000,,,,,,,,,,,,,,,,,16.000000,0.000000,0.671129,-0.106567,-0.721497,-0.132935,0.977170,0.031742,-0.060554,-67.078056,32.406475,44.034519
1732156335.135582,1732156335.135635,65.000000,0.000000,4292.563965,4293.461426,4314.358887,4290.641113,4289.871582,4294.102539,4333.205078,4392.820313,4310.128418,4295.512695,4463.717773,4503.846191,4356.410156,4410.384766,1594.000000,1.000000,28.000000,,,,0.000000,2.000000,2.000000,0.000000,4.000000,2.000000,2.000000,0.000000,0.000000,4.000000,4.000000,4.000000,4.000000,4.000000,4.000000,0.000000,,,,,,,,,,,,,,,,,,,,,,,,,,,,
1732156335.143390,1732156335.143643,66.000000,0.000000,4292.436035,4291.922852,4315.897461,4291.538574,4293.333496,4292.307617,4334.871582,4391.282227,4307.051270,4294.230957,4463.205078,4503.846191,4356.410156,4410.000000,1419.000000,1.000000,28.000000,,,,0.000000,2.000000,2.000000,0.000000,4.000000,2.000000,2.000000,0.000000,0.000000,4.000000,4.000000,4.000000,4.000000,4.000000,4.000000,0.000000,,,,,,,,,,,,,,,,,,,,,,,,,,,,
1732156335.151198,1732156335.151452,67.000000,0.000000,4295.128418,4291.794922,4317.307617,4295.128418,4272.179688,4290.512695,4334.230957,4395.897461,4303.589844,4294.230957,4464.230957,4505.769043,4355.641113,4411.666504,1409.000000,1.000000,28.000000,,,,0.000000,2.000000,2.000000,0.000000,4.000000,2.000000,2.000000,0.000000,0.000000,4.000000,4.000000,4.000000,4.000000,4.000000,4.000000,0.000000,,,,,,,,,,,,,,,,,,,,,,,,,,,,
1732156335.159006,1732156335.159160,68.000000,0.000000,4296.794922,4295.897461,4317.948730,4298.205078,4262.051270,4289.230957,4333.205078,4397.179688,4302.307617,4291.922852,4462.563965,4506.666504,4356.025879,4413.589844,1397.000000,1.000000,28.000000,,,,0.000000,2.000000,2.000000,0.000000,4.000000,2.000000,2.000000,0.000000,0.000000,4.000000,4.000000,4.000000,4.000000,4.000000,4.000000,0.000000,,,,,,,,,,,,,,,,,17.000000,0.000000,0.671129,-0.106567,-0.721497,-0.132935,0.977170,0.031742,-0.060554,-66.939896,32.300911,44.001293
1732156335.166814,1732156335.166968,69.000000,0.000000,4297.051270,4296.153809,4316.153809,4299.487305,4272.179688,4290.512695,4337.179688,4393.589844,4302.948730,4291.922852,4461.025879,4506.922852,4356.922852,4412.820313,1244.000000,1.000000,28.000000,,,,0.000000,2.000000,2.000000,0.000000,4.000000,2.000000,2.000000,0.000000,0.000000,4.000000,4.000000,4.000000,4.000000,4.000000,4.000000,0.000000,,,,,,,,,,,,,,,,,,,,,,,,,,,,
1732156335.174623,1732156335.174577,70.000000,0.000000,4297.948730,4295.769043,4316.410156,4299.230957,4285.000000,4290.256348,4336.410156,4394.871582,4301.666504,4290.897461,4462.563965,4508.333496,4354.615234,4412.948730,0.000000,1.000000,28.000000,,,,0.000000,2.000000,2.000000,0.000000,4.000000,2.000000,2.000000,0.000000,0.000000,4.000000,4.000000,4.000000,4.000000,4.000000,4.000000,0.000000,,,,,,,,,,,,,,,,,,,,,,,,,,,,
1732156335.182431,1732156335.182385,71.000000,0.000000,4300.641113,4295.512695,4318.205078,4300.512695,4294.102539,4290.769043,4332.179688,4396.282227,4300.769043,4286.153809,4461.410156,4508.077148,4348.333496,4413.846191,0.000000,1.000000,28.000000,,,,0.000000,2.000000,2.000000,0.000000,4.000000,2.000000,2.000000,0.000000,0.000000,4.000000,4.000000,4.000000,4.000000,4.000000,4.000000,0.000000,,,,,,,,,,,,,,,,,,,,,,,,,,,,
1732156335.190239,1732156335.190293,72.000000,0.000000,4300.512695,4293.974121,4316.794922,4302.820313,4290.000000,4295.512695,4334.615234,4392.307617,4304.871582,4284.743652,4460.256348,4506.410156,4347.179688,4412.436035,1531.000000,1.000000,28.000000,,,,0.000000,2.000000,2.000000,0.000000,4.000000,2.000000,2.000000,0.000000,0.000000,4.000000,4.000000,4.000000,4.000000,4.000000,4.000000,0.000000,,,,,,,,,,,,,,,,,18.000000,0.000000,0.670567,-0.106873,-0.721985,-0.132874,0.972775,0.033207,-0.071786,-67.004646,32.100403,43.854382
1732156335.198048,1732156335.198101,73.000000,0.000000,4298.333496,4296.410156,4314.871582,4301.153809,4276.794922,4299.615234,4340.128418,4393.333496,4312.436035,4289.487305,4460.897461,4506.025879,4350.384766,4413.461426,1680.000000,1.000000,28.000000,,,,0.000000,2.000000,2.000000,0.000000,4.000000,2.000000,2.000000,0.000000,0.000000,4.000000,4.000000,4.000000,4.000000,4.000000,4.000000,0.000000,,,,,,,,,,,,,,,,,,,,,,,,,,,,
1732156335.205856,1732156335.206109,74.000000,0.000000,4295.256348,4297.307617,4316.153809,4299.102539,4276.025879,4295.384766,4337.948730,4394.615234,4310.384766,4289.487305,4461.410156,4505.384766,4350.769043,4413.846191,1529.000000,1.000000,28.000000,,,,0.000000,2.000000,2.000000,0.000000,4.000000,2.000000,2.000000,0.000000,0.000000,4.000000,4.000000,4.000000,4.000000,4.000000,4.000000,0.000000,,,,,,,,,,,,,,,,,,,,,,,,,,,,
1732156335.213664,1732156335.213917,75.000000,0.000000,4294.615234,4292.051270,4319.102539,4298.974121,4282.820313,4291.025879,4333.461426,4392.051270,4299.871582,4283.589844,4460.256348,4505.000000,4348.333496,4408.461426,1579.000000,1.000000,28.000000,,,,0.000000,2.000000,2.000000,0.000000,4.000000,2.000000,2.000000,0.000000,0.000000,4.000000,4.000000,4.000000,4.000000,4.000000,4.000000,0.000000,,,,,,,,,,,,,,,,,,,,,,,,,,,,
1732156335.221472,1732156335.221825,76.000000,0.000000,4299.102539,4288.589844,4317.820313,4298.205078,4281.538574,4290.897461,4334.615234,4391.538574,4299.615234,4285.384766,4460.384766,4504.230957,4349.230957,4402.692383,1705.000000,1.000000,28.000000,,,,0.000000,2.000000,2.000000,0.000000,4.000000,2.000000,2.000000,0.000000,0.000000,4.000000,4.000000,4.000000,4.000000,4.000000,4.000000,0.000000,,,,,,,,,,,,,,,,,19.000000,0.000000,0.670399,-0.106689,-0.722168,-0.132874,0.975705,0.051276,-0.075693,-66.977097,32.089661,43.625381
1732156335.229280,1732156335.229634,77.000000,0.000000,4303.461426,4291.794922,4317.307617,4298.333496,4278.333496,4287.563965,4337.563965,4394.102539,4305.769043,4288.589844,4462.179688,4502.948730,4351.538574,4402.820313,1700.000000,1.000000,28.000000,,,,0.000000,2.000000,2.000000,0.000000,4.000000,2.000000,2.000000,0.000000,0.000000,4.000000,4.000000,4.000000,4.000000,4.000000,4.000000,0.000000,,,,,,,,,,,,,,,,,,,,,,,,,,,,
1732156335.237089,1732156335.237642,78.000000,0.000000,4302.307617,4291.794922,4316.282227,4297.820313,4286.538574,4286.794922,4335.256348,4395.256348,4305.256348,4282.179688,4463.333496,4503.205078,4350.769043,4403.333496,1529.000000,1.000000,28.000000,,,,0.000000,2.000000,2.000000,0.000000,4.000000,2.000000,2.000000,0.000000,0.000000,4.000000,4.000000,4.000000,4.000000,4.000000,4.000000,0.000000,1.000000,0.000000,2.000000,2.000000,0.000000,4.000000,2.000000,2.000000,0.000000,0.000000,4.000000,4.000000,4.000000,4.000000,4.000000,4.000000,,,,,,,,,,,,
1732156335.244897,1732156335.245450,79.000000,0.000000,4300.641113,4288.974121,4316.153809,4296.410156,4296.025879,4289.102539,4332.179688,4395.897461,4300.897461,4278.846191,4462.948730,4504.871582,4350.128418,4403.846191,1579.000000,1.000000,28.000000,,,,0.000000,2.000000,2.000000,0.000000,4.000000,2.000000,2.000000,0.000000,0.000000,4.000000,4.000000,4.000000,4.000000,4.000000,4.000000,0.000000,,,,,,,,,,,,,,,,,,,,,,,,,,,,
1732156335.252705,1732156335.253358,80.000000,0.000000,4304.615234,4293.974121,4315.384766,4301.410156,4287.051270,4291.666504,4333.846191,4396.410156,4299.743652,4283.589844,4462.563965,4506.666504,4352.820313,4409.871582,1705.000000,1.000000,28.000000,,,,0.000000,2.000000,2.000000,0.000000,4.000000,2.000000,2.000000,0.000000,0.000000,4.000000,4.000000,4.000000,4.000000,4.000000,4.000000,0.000000,,,,,,,,,,,,,,,,,20.000000,0.000000,0.670331,-0.106628,-0.722229,-0.132935,0.975705,0.051276,-0.075693,-66.873116,31.995958,43.824894
1732156335.260513,1732156335.261166,81.000000,0.000000,4308.974121,4299.230957,4318.974121,4304.358887,4272.820313,4293.205078,4334.615234,4395.256348,4300.769043,4285.000000,4461.538574,4507.179688,4350.769043,4411.282227,1700.000000,1.000000,28.000000,,,,0.000000,2.000000,2.000000,0.000000,4.000000,2.000000,2.000000,0.000000,0.000000,4.000000,4.000000,4.000000,4.000000,4.000000,4.000000,0.000000,,,,,,,,,,,,,,,,,,,,,,,,,,,,
1732156335.268322,1732156335.269174,82.000000,0.000000,4310.000000,4296.794922,4319.615234,4298.205078,4279.102539,4291.666504,4333.717773,4396.538574,4305.897461,4284.358887,4461.538574,4507.051270,4345.641113,4405.384766,1529.000000,1.000000,28.000000,,,,0.000000,2.000000,2.000000,0.000000,4.000000,2.000000,2.000000,0.000000,0.000000,4.000000,4.000000,4.000000,4.000000,4.000000,4.000000,0.000000,,,,,,,,,,,,,,,,,,,,,,,,,,,,
1732156335.276130,1732156335.276982,83.000000,0.000000,4305.256348,4292.436035,4318.846191,4296.666504,4282.692383,4292.692383,4336.025879,4396.282227,4313.846191,4290.384766,4463.077148,4508.205078,4347.307617,4403.205078,1579.000000,1.000000,28.000000,,,,0.000000,2.000000,2.000000,0.000000,4.000000,2.000000,2.000000,0.000000,0.000000,4.000000,4.000000,4.000000,4.000000,4.000000,4.000000,0.000000,,,,,,,,,,,,,,,,,,,,,,,,,,,,
1732156335.283938,1732156335.284890,84.000000,0.000000,4295.512695,4292.436035,4315.769043,4298.077148,4284.487305,4295.256348,4337.051270,4391.666504,4314.615234,4292.051270,4462.179688,4508.077148,4351.538574,4404.871582,1705.000000,1.000000,28.000000,,,,0.000000,2.000000,2.000000,0.000000,4.000000,2.000000,2.000000,0.000000,0.000000,4.000000,4.000000,4.000000,4.000000,4.000000,4.000000,0.000000,,,,,,,,,,,,,,,,,21.000000,0.000000,0.670331,-0.106628,-0.722229,-0.132935,0.963985,0.040044,-0.054206,-66.747223,32.078392,44.016495
1732156335.291746,1732156335.292699,85.000000,0.000000,4293.077148,4293.333496,4315.769043,4293.333496,4294.743652,4290.512695,4338.205078,4391.922852,4310.512695,4289.743652,4460.384766,4506.922852,4351.794922,4404.743652,1700.000000,1.000000,28.000000,,,,0.000000,2.000000,2.000000,0.000000,4.000000,2.000000,2.000000,0.000000,0.000000,4.000000,4.000000,4.000000,4.000000,4.000000,4.000000,0.000000,,,,,,,,,,,,,,,,,,,,,,,,,,,,
1732156335.299555,1732156335.300707,86.000000,0.000000,4298.333496,4293.077148,4316.922852,4293.846191,4286.922852,4287.307617,4340.256348,4396.025879,4311.153809,4294.102539,4464.487305,4507.692383,4352.948730,4404.871582,1529.000000,1.000000,28.000000,,,,0.000000,2.000000,2.000000,0.000000,4.000000,2.000000,2.000000,0.000000,0.000000,4.000000,4.000000,4.000000,4.000000,4.000000,4.000000,0.000000,,,,,,,,,,,,,,,,,,,,,,,,,,,,
1732156335.307363,1732156335.308515,87.000000,0.000000,4300.128418,4294.743652,4317.179688,4299.871582,4272.179688,4295.897461,4338.077148,4395.512695,4316.282227,4293.717773,4467.692383,4507.948730,4353.846191,4403.717773,1579.000000,1.000000,28.000000,,,,0.000000,2.000000,2.000000,0.000000,4.000000,2.000000,2.000000,0.000000,0.000000,4.000000,4.000000,4.000000,4.000000,4.000000,4.000000,0.000000,,,,,,,,,,,,,,,,,,,,,,,,,,,,
1732156335.315171,1732156335.316423,88.000000,0.000000,4296.282227,4294.615234,4316.666504,4299.615234,4278.333496,4299.230957,4335.000000,4392.820313,4315.128418,4289.871582,4466.153809,4506.410156,4350.769043,4398.077148,1705.000000,1.000000,28.000000,,,,0.000000,2.000000,2.000000,0.000000,4.000000,2.000000,2.000000,0.000000,0.000000,4.000000,4.000000,4.000000,4.000000,4.000000,4.000000,0.000000,,,,,,,,,,,,,,,,,22.000000,0.000000,0.670220,-0.106873,-0.722229,-0.133301,0.962520,0.059089,-0.068856,-66.578583,32.111832,44.155029
1732156335.322979,1732156335.324231,89.000000,0.000000,4295.641113,4296.794922,4317.051270,4298.205078,4286.794922,4292.436035,4335.256348,4392.563965,4312.820313,4292.948730,4465.128418,4503.461426,4350.641113,4396.922852,1700.000000,1.000000,28.000000,,,,0.000000,2.000000,2.000000,0.000000,4.000000,2.000000,2.000000,0.000000,0.000000,4.000000,4.000000,4.000000,4.000000,4.000000,4.000000,0.000000,,,,,,,,,,,,,,,,,,,,,,,,,,,,
1732156335.330788,1732156335.332239,90.000000,0.000000,4296.794922,4298.333496,4318.205078,4300.000000,4290.769043,4289.871582,4335.897461,4392.692383,4312.307617,4287.051270,4463.589844,4496.922852,4353.717773,4399.487305,1529.000000,1.000000,28.000000,,,,0.000000,2.000000,2.000000,0.000000,4.000000,2.000000,2.000000,0.000000,0.000000,4.000000,4.000000,4.000000,4.000000,4.000000,4.000000,0.000000,,,,,,,,,,,,,,,,,,,,,,,,,,,,
1732156335.338596,1732156335.340047,91.000000,0.000000,4295.897461,4294.487305,4315.897461,4299.487305,4298.974121,4290.128418,4335.128418,4391.666504,4310.000000,4277.948730,4460.512695,4491.666504,4348.717773,4397.436035,1579.000000,1.000000,28.000000,,,,0.000000,2.000000,2.000000,0.000000,4.000000,2.000000,2.000000,0.000000,0.000000,4.000000,4.000000,4.000000,4.000000,4.000000,4.000000,0.000000,,,,,,,,,,,,,,,,,,,,,,,,,,,,
1732156335.346404,1732156335.347956,92.000000,0.000000,4295.897461,4293.846191,4316.153809,4300.256348,4290.256348,4290.769043,4335.256348,4393.205078,4309.487305,4286.153809,4458.589844,4492.051270,4341.666504,4395.256348,1705.000000,1.000000,28.000000,,,,0.000000,2.000000,2.000000,0.000000,4.000000,2.000000,2.000000,0.000000,0.000000,4.000000,4.000000,4.000000,4.000000,4.000000,4.000000,0.000000,,,,,,,,,,,,,,,,,23.000000,0.000000,0.670247,-0.106812,-0.722168,-0.133545,0.983030,0.053717,-0.067391,-66.816986,32.058918,44.125572
1732156335.354212,1732156335.355764,93.000000,0.000000,4292.820313,4297.948730,4316.922852,4303.461426,4274.743652,4292.948730,4336.153809,4395.384766,4311.538574,4293.205078,4458.589844,4492.051270,4345.897461,4397.051270,1700.000000,1.000000,28.000000,,,,0.000000,2.000000,2.000000,0.000000,4.000000,2.000000,2.000000,0.000000,0.000000,4.000000,4.000000,4.000000,4.000000,4.000000,4.000000,0.000000,,,,,,,,,,,,,,,,,,,,,,,,,,,,
1732156335.362021,1732156335.363772,94.000000,0.000000,4288.846191,4296.153809,4317.820313,4300.769043,4285.128418,4291.666504,4339.615234,4397.307617,4311.538574,4282.563965,4459.487305,4495.384766,4351.025879,4398.717773,1529.000000,1.000000,28.000000,,,,0.000000,2.000000,2.000000,0.000000,4.000000,2.000000,2.000000,0.000000,0.000000,4.000000,4.000000,4.000000,4.000000,4.000000,4.000000,0.000000,,,,,,,,,,,,,,,,,,,,,,,,,,,,
1732156335.369829,1732156335.371580,95.000000,0.000000,4286.922852,4291.025879,4317.051270,4298.461426,4296.410156,4291.025879,4338.333496,4397.307617,4313.589844,4282.948730,4459.487305,4499.743652,4344.743652,4397.179688,1579.000000,1.000000,28.000000,,,,0.000000,2.000000,2.000000,0.000000,4.000000,2.000000,2.000000,0.000000,0.000000,4.000000,4.000000,4.000000,4.000000,4.000000,4.000000,0.000000,,,,,,,,,,,,,,,,,,,,,,,,,,,,
1732156335.377637,1732156335.379288,96.000000,0.000000,4284.743652,4294.358887,4318.205078,4300.769043,4285.000000,4292.307617,4334.358887,4395.641113,4315.769043,4290.641113,4457.436035,4494.487305,4339.743652,4393.333496,1705.000000,1.000000,28.000000,,,,0.000000,2.000000,2.000000,0.000000,4.000000,2.000000,2.000000,0.000000,0.000000,4.000000,4.000000,4.000000,4.000000,4.000000,4.000000,0.000000,,,,,,,,,,,,,,,,,24.000000,0.000000,0.670171,-0.106934,-0.722107,-0.134155,0.970822,0.040044,-0.067391,-66.788429,32.079388,44.260048
1732156335.385445,1732156335.387096,97.000000,0.000000,4288.333496,4298.461426,4315.512695,4303.333496,4286.666504,4292.820313,4334.230957,4395.769043,4312.307617,4283.077148,4457.307617,4488.077148,4343.589844,4387.051270,1700.000000,1.000000,28.000000,,,,0.000000,2.000000,2.000000,0.000000,4.000000,2.000000,2.000000,0.000000,0.000000,4.000000,4.000000,4.000000,4.000000,4.000000,4.000000,0.000000,,,,,,,,,,,,,,,,,,,,,,,,,,,,
1732156335.393253,1732156335.394705,98.000000,0.000000,4295.641113,4292.563965,4316.153809,4300.512695,4303.205078,4288.461426,4337.307617,4394.871582,4310.512695,4276.922852,4459.102539,4490.512695,4346.794922,4386.025879,1529.000000,1.000000,28.000000,,,,0.000000,2.000000,2.000000,0.000000,4.000000,2.000000,2.000000,0.000000,0.000000,4.000000,4.000000,4.000000,4.000000,4.000000,4.000000,0.000000,,,,,,,,,,,,,,,,,,,,,,,,,,,,
1732156335.401062,1732156335.402513,99.000000,0.000000,4295.256348,4287.948730,4317.179688,4295.384766,4291.025879,4284.358887,4337.051270,4393.589844,4312.307617,4282.179688,4459.230957,4493.077148,4348.077148,4392.948730,1579.000000,1.000000,28.000000,,,,0.000000,2.000000,2.000000,0.000000,4.000000,2.000000,2.000000,0.000000,0.000000,4.000000,4.000000,4.000000,4.000000,4.000000,4.000000,0.000000,,,,,,,,,,,,,,,,,,,,,,,,,,,,
1732156335.408870,1732156335.410221,100.000000,0.000000,4290.128418,4292.820313,4317.436035,4294.358887,4266.922852,4283.974121,4336.666504,4395.128418,4311.794922,4285.641113,4461.025879,4492.948730,4347.051270,4397.179688,1705.000000,1.000000,28.000000,,,,0.000000,2.000000,2.000000,0.000000,4.000000,2.000000,2.000000,0.000000,0.000000,4.000000,4.000000,4.000000,4.000000,4.000000,4.000000,0.000000,,,,,,,,,,,,,,,,,25.000000,0.000000,0.670185,-0.106873,-0.722046,-0.134460,0.977658,0.049811,-0.060066,-66.775291,32.085972,44.183971
1732156335.416678,1732156335.418030,101.000000,0.000000,4293.077148,4296.538574,4316.538574,4296.282227,4272.307617,4281.282227,4337.307617,4395.384766,4309.871582,4282.436035,4461.282227,4493.077148,4345.897461,4394.743652,1700.000000,1.000000,28.000000,,,,0.000000,2.000000,2.000000,0.000000,4.000000,2.000000,2.000000,0.000000,0.000000,4.000000,4.000000,4.000000,4.000000,4.000000,4.000000,0.000000,,,,,,,,,,,,,,,,,,,,,,,,,,,,
1732156335.424487,1732156335.425638,102.000000,0.000000,4291.666504,4293.846191,4318.333496,4297.563965,4284.487305,4278.077148,4337.051270,4394.358887,4309.871582,4277.179688,4459.615234,4489.615234,4346.922852,4392.307617,1529.000000,1.000000,28.000000,,,,0.000000,2.000000,2.000000,0.000000,4.000000,2.000000,2.000000,0.000000,0.000000,4.000000,4.000000,4.000000,4.000000,4.000000,4.000000,0.000000,,,,,,,,,,,,,,,,,,,,,,,,,,,,
1732156335.432295,1732156335.433446,103.000000,0.000000,4282.051270,4293.717773,4317.692383,4295.256348,4274.871582,4276.410156,4338.077148,4396.025879,4311.794922,4280.641113,4460.641113,4489.230957,4347.051270,4394.230957,1579.000000,1.000000,28.000000,,,,0.000000,2.000000,2.000000,0.000000,4.000000,2.000000,2.000000,0.000000,0.000000,4.000000,4.000000,4.000000,4.000000,4.000000,4.000000,0.000000,,,,,,,,,,,,,,,,,,,,,,,,,,,,
1732156335.440103,1732156335.441155,104.000000,0.000000,4283.077148,4292.179688,4314.615234,4291.538574,4276.922852,4273.589844,4337.307617,4395.000000,4312.051270,4289.743652,4460.769043,4495.384766,4347.179688,4396.922852,1705.000000,1.000000,28.000000,,,,0.000000,2.000000,2.000000,0.000000,4.000000,2.000000,2.000000,0.000000,0.000000,4.000000,4.000000,4.000000,4.000000,4.000000,4.000000,0.000000,,,,,,,,,,,,,,,,,26.000000,0.000000,0.670195,-0.106995,-0.721985,-0.134644,0.965450,0.053229,-0.067879,-66.459656,32.379639,44.027351
1732156335.447911,1732156335.448963,105.000000,0.000000,4286.922852,4291.025879,4314.358887,4292.436035,4294.487305,4270.897461,4336.025879,4391.410156,4311.538574,4292.563965,4460.897461,4496.666504,4352.563965,4396.538574,1700.000000,1.000000,28.000000,,,,0.000000,2.000000,2.000000,0.000000,4.000000,2.000000,2.000000,0.000000,0.000000,4.000000,4.000000,4.000000,4.000000,4.000000,4.000000,0.000000,,,,,,,,,,,,,,,,,,,,,,,,,,,,
1732156335.455719,1732156335.456971,106.000000,0.000000,4281.153809,4290.128418,4314.358887,4293.846191,4286.153809,4277.179688,4336.282227,4392.820313,4312.820313,4290.384766,4465.128418,4490.769043,4355.256348,4395.000000,1529.000000,1.000000,28.000000,,,,0.000000,2.000000,2.000000,0.000000,4.000000,2.000000,2.000000,0.000000,0.000000,4.000000,4.000000,4.000000,4.000000,4.000000,4.000000,0.000000,,,,,,,,,,,,,,,,,,,,,,,,,,,,
1732156335.463528,1732156335.464779,107.000000,0.000000,4276.153809,4287.563965,4316.794922,4290.000000,4262.563965,4283.077148,4336.794922,4395.897461,4312.436035,4289.743652,4464.358887,4488.461426,4348.333496,4395.384766,1579.000000,1.000000,28.000000,,,,0.000000,2.000000,2.000000,0.000000,4.000000,2.000000,2.000000,0.000000,0.000000,4.000000,4.000000,4.000000,4.000000,4.000000,4.000000,0.000000,,,,,,,,,,,,,,,,,,,,,,,,,,,,
1732156335.471336,1732156335.472687,108.000000,0.000000,4283.077148,4287.436035,4318.077148,4287.820313,4268.717773,4280.256348,4333.461426,4393.846191,4309.358887,4289.358887,4460.256348,4492.563965,4345.256348,4398.205078,1705.000000,1.000000,28.000000,,,,0.000000,2.000000,2.000000,0.000000,4.000000,2.000000,2.000000,0.000000,0.000000,4.000000,4.000000,4.000000,4.000000,4.000000,4.000000,0.000000,,,,,,,,,,,,,,,,,27.000000,0.000000,0.670163,-0.106934,-0.722046,-0.134521,0.970822,0.045416,-0.069833,-66.493988,32.382507,44.262154
1732156335.479144,1732156335.480495,109.000000,0.000000,4286.794922,4288.974121,4318.077148,4289.871582,4294.743652,4278.205078,4332.948730,4393.717773,4310.384766,4289.743652,4461.025879,4493.077148,4349.871582,4398.589844,1700.000000,1.000000,28.000000,,,,0.000000,2.000000,2.000000,0.000000,4.000000,2.000000,2.000000,0.000000,0.000000,4.000000,4.000000,4.000000,4.000000,4.000000,4.000000,0.000000,,,,,,,,,,,,,,,,,,,,,,,,,,,,
1732156335.486952,1732156335.488104,110.000000,0.000000,4280.641113,4288.333496,4315.512695,4290.897461,4290.897461,4281.538574,4336.025879,4394.615234,4312.051270,4289.487305,4461.025879,4490.769043,4350.897461,4396.153809,1529.000000,1.000000,28.000000,,,,0.000000,2.000000,2.000000,0.000000,4.000000,2.000000,2.000000,0.000000,0.000000,4.000000,4.000000,4.000000,4.000000,4.000000,4.000000,0.000000,,,,,,,,,,,,,,,,,,,,,,,,,,,,
1732156335.494761,1732156335.495912,111.000000,0.000000,4278.589844,4285.769043,4316.153809,4291.538574,4268.461426,4284.358887,4336.410156,4393.077148,4309.230957,4286.410156,4458.461426,4489.358887,4346.410156,4394.102539,1579.000000,1.000000,28.000000,,,,0.000000,2.000000,2.000000,0.000000,4.000000,2.000000,2.000000,0.000000,0.000000,4.000000,4.000000,4.000000,4.000000,4.000000,4.000000,0.000000,,,,,,,,,,,,,,,,,,,,,,,,,,,,
1732156335.502569,1732156335.503620,112.000000,0.000000,4282.179688,4283.205078,4314.615234,4291.410156,4271.153809,4284.230957,4334.871582,4393.589844,4312.051270,4287.692383,4460.384766,4489.358887,4346.922852,4395.256348,1705.000000,1.000000,28.000000,,,,0.000000,2.000000,2.000000,0.000000,4.000000,2.000000,2.000000,0.000000,0.000000,4.000000,4.000000,4.000000,4.000000,4.000000,4.000000,0.000000,,,,,,,,,,,,,,,,,28.000000,0.000000,0.670288,-0.106873,-0.721985,-0.134277,0.981077,0.051764,-0.059089,-66.668465,32.483162,44.112343
1732156335.510377,1732156335.511428,113.000000,0.000000,4281.410156,4282.436035,4315.128418,4288.974121,4280.897461,4282.948730,4335.769043,4394.615234,4317.563965,4289.358887,4458.461426,4489.871582,4347.948730,4394.743652,1700.000000,1.000000,28.000000,,,,0.000000,2.000000,2.000000,0.000000,4.000000,2.000000,2.000000,0.000000,0.000000,4.000000,4.000000,4.000000,4.000000,4.000000,4.000000,0.000000,,,,,,,,,,,,,,,,,,,,,,,,,,,,
1732156335.518186,1732156335.519436,114.000000,0.000000,4279.615234,4286.410156,4315.000000,4290.256348,4282.307617,4281.794922,4336.538574,4392.692383,4312.563965,4281.282227,4451.410156,4483.846191,4344.743652,4392.307617,1529.000000,1.000000,28.000000,,,,0.000000,2.000000,2.000000,0.000000,4.000000,2.000000,2.000000,0.000000,0.000000,4.000000,4.000000,4.000000,4.000000,4.000000,4.000000,0.000000,,,,,,,,,,,,,,,,,,,,,,,,,,,,
1732156335.525994,1732156335.527245,115.000000,0.000000,4282.051270,4289.102539,4314.743652,4291.025879,4293.205078,4279.871582,4334.615234,4391.410156,4304.743652,4275.897461,4451.410156,4479.358887,4345.769043,4391.666504,1579.000000,1.000000,28.000000,,,,0.000000,2.000000,2.000000,0.000000,4.000000,2.000000,2.000000,0.000000,0.000000,4.000000,4.000000,4.000000,4.000000,4.000000,4.000000,0.000000,,,,,,,,,,,,,,,,,,,,,,,,,,,,
1732156335.533802,1732156335.534953,116.000000,0.000000,4284.615234,4289.102539,4313.077148,4291.282227,4295.128418,4277.692383,4333.846191,4393.846191,4307.692383,4285.512695,4460.769043,4487.563965,4351.666504,4397.820313,1705.000000,1.000000,28.000000,,,,0.000000,2.000000,2.000000,0.000000,4.000000,2.000000,2.000000,0.000000,0.000000,4.000000,4.000000,4.000000,4.000000,4.000000,4.000000,0.000000,,,,,,,,,,,,,,,,,29.000000,0.000000,0.670297,-0.106995,-0.721924,-0.134460,0.962520,0.047369,-0.060554,-66.776451,32.498028,44.082664
1732156335.541610,1732156335.542761,117.000000,0.000000,4285.384766,4293.333496,4315.641113,4297.563965,4275.384766,4276.666504,4335.641113,4394.743652,4312.563965,4295.897461,4468.461426,4495.769043,4357.179688,4406.922852,1700.000000,1.000000,28.000000,,,,0.000000,2.000000,2.000000,0.000000,4.000000,2.000000,2.000000,0.000000,0.000000,4.000000,4.000000,4.000000,4.000000,4.000000,4.000000,0.000000,,,,,,,,,,,,,,,,,,,,,,,,,,,,
1732156335.549418,1732156335.550769,118.000000,0.000000,4282.948730,4294.487305,4318.077148,4298.077148,4272.051270,4276.794922,4336.538574,4395.384766,4312.563965,4291.153809,4465.000000,4492.051270,4354.871582,4405.512695,1529.000000,1.000000,28.000000,,,,0.000000,2.000000,2.000000,0.000000,4.000000,2.000000,2.000000,0.000000,0.000000,4.000000,4.000000,4.000000,4.000000,4.000000,4.000000,0.000000,,,,,,,,,,,,,,,,,,,,,,,,,,,,
1732156335.557227,1732156335.558577,119.000000,0.000000,4278.461426,4290.000000,4318.077148,4294.615234,4283.461426,4278.717773,4336.666504,4397.820313,4312.307617,4286.794922,4459.358887,4490.000000,4347.948730,4396.282227,1579.000000,1.000000,28.000000,,,,0.000000,2.000000,2.000000,0.000000,4.000000,2.000000,2.000000,0.000000,0.000000,4.000000,4.000000,4.000000,4.000000,4.000000,4.000000,0.000000,,,,,,,,,,,,,,,,,,,,,,,,,,,,
1732156335.565035,1732156335.566485,120.000000,0.000000,4278.461426,4288.589844,4316.538574,4295.641113,4285.641113,4280.256348,4336.538574,4398.205078,4313.461426,4293.846191,4462.051270,4493.717773,4349.102539,4395.897461,1705.000000,1.000000,28.000000,,,,0.000000,2.000000,2.000000,0.000000,4.000000,2.000000,2.000000,0.000000,0.000000,4.000000,4.000000,4.000000,4.000000,4.000000,4.000000,0.000000,,,,,,,,,,,,,,,,,30.000000,0.000000,0.670297,-0.106995,-0.721924,-0.134460,0.970333,0.055183,-0.062019,-66.758926,32.420071,43.998627
1732156335.572843,1732156335.574294,121.000000,0.000000,4281.410156,4292.563965,4315.512695,4298.846191,4282.563965,4281.410156,4335.000000,4395.128418,4315.641113,4295.384766,4465.128418,4492.692383,4357.436035,4402.948730,1700.000000,1.000000,28.000000,,,,0.000000,2.000000,2.000000,0.000000,4.000000,2.000000,2.000000,0.000000,0.000000,4.000000,4.000000,4.000000,4.000000,4.000000,4.000000,0.000000,,,,,,,,,,,,,,,,,,,,,,,,,,,,
1732156335.580651,1732156335.582302,122.000000,0.000000,4281.922852,4293.461426,4315.641113,4299.358887,4283.333496,4281.282227,4334.487305,4396.922852,4317.051270,4288.589844,4462.436035,4491.538574,4357.179688,4402.692383,1529.000000,1.000000,28.000000,,,,0.000000,2.000000,2.000000,0.000000,4.000000,2.000000,2.000000,0.000000,0.000000,4.000000,4.000000,4.000000,4.000000,4.000000,4.000000,0.000000,,,,,,,,,,,,,,,,,,,,,,,,,,,,
1732156335.588460,1732156335.590110,123.000000,0.000000,4283.205078,4290.128418,4313.333496,4298.205078,4297.436035,4278.717773,4334.358887,4398.205078,4315.128418,4286.153809,4463.205078,4491.922852,4349.871582,4397.948730,1579.000000,1.000000,28.000000,,,,0.000000,2.000000,2.000000,0.000000,4.000000,2.000000,2.000000,0.000000,0.000000,4.000000,4.000000,4.000000,4.000000,4.000000,4.000000,0.000000,,,,,,,,,,,,,,,,,,,,,,,,,,,,
1732156335.596268,1732156335.598018,124.000000,0.000000,4284.743652,4289.615234,4316.025879,4297.820313,4303.205078,4278.717773,4334.487305,4393.974121,4313.461426,4287.563965,4465.512695,4491.922852,4351.538574,4398.205078,1705.000000,1.000000,28.000000,,,,0.000000,2.000000,2.000000,0.000000,4.000000,2.000000,2.000000,0.000000,0.000000,4.000000,4.000000,4.000000,4.000000,4.000000,4.000000,0.000000,,,,,,,,,,,,,,,,,31.000000,0.000000,0.670287,-0.106934,-0.721863,-0.134888,0.982053,0.061043,-0.062019,-66.704735,32.483589,44.268887
1732156335.604076,1732156335.605826,125.000000,0.000000,4280.769043,4291.153809,4317.307617,4299.102539,4279.358887,4280.384766,4335.128418,4392.051270,4315.641113,4288.589844,4463.077148,4493.974121,4355.512695,4399.102539,1700.000000,1.000000,28.000000,,,,0.000000,2.000000,2.000000,0.000000,4.000000,2.000000,2.000000,0.000000,0.000000,4.000000,4.000000,4.000000,4.000000,4.000000,4.000000,0.000000,,,,,,,,,,,,,,,,,,,,,,,,,,,,
1732156335.611884,1732156335.613834,126.000000,0.000000,4274.615234,4288.333496,4317.563965,4296.922852,4274.743652,4276.538574,4336.153809,4396.282227,4314.615234,4288.974121,4462.436035,4494.487305,4352.179688,4396.282227,1529.000000,1.000000,28.000000,,,,0.000000,2.000000,2.000000,0.000000,4.000000,2.000000,2.000000,0.000000,0.000000,4.000000,4.000000,4.000000,4.000000,4.000000,4.000000,0.000000,,,,,,,,,,,,,,,,,,,,,,,,,,,,
1732156335.619692,1732156335.621642,127.000000,0.000000,4276.153809,4287.436035,4316.794922,4295.512695,4298.589844,4275.000000,4336.025879,4397.436035,4309.871582,4288.589844,4464.743652,4489.615234,4349.230957,4394.871582,28.000000,1.000000,28.000000,,,,0.000000,2.000000,2.000000,0.000000,4.000000,2.000000,2.000000,0.000000,0.000000,4.000000,4.000000,4.000000,4.000000,4.000000,4.000000,0.000000,,,,,,,,,,,,,,,,,,,,,,,,,,,,
1732156335.627501,1732156335.629551,0.000000,0.000000,4281.666504,4291.410156,4320.000000,4300.256348,4291.538574,4279.358887,4336.922852,4394.358887,4310.256348,4286.666504,4463.846191,4486.025879,4351.794922,4397.948730,0.000000,1.000000,28.000000,,,,0.000000,2.000000,2.000000,0.000000,4.000000,2.000000,2.000000,0.000000,0.000000,4.000000,4.000000,4.000000,4.000000,4.000000,4.000000,0.000000,,,,,,,,,,,,,,,,,0.000000,0.000000,0.670326,-0.106873,-0.721802,-0.135071,0.984007,0.043951,-0.063973,-66.844162,32.551708,44.387798
1732156335.635309,1732156335.637359,1.000000,0.000000,4280.128418,4292.179688,4319.487305,4300.641113,4271.410156,4281.666504,4337.179688,4393.333496,4311.025879,4285.000000,4460.384766,4488.077148,4351.410156,4399.615234,1599.000000,1.000000,28.000000,,,,0.000000,2.000000,2.000000,0.000000,4.000000,2.000000,2.000000,0.000000,0.000000,4.000000,4.000000,4.000000,4.000000,4.000000,4.000000,0.000000,,,,,,,,,,,,,,,,,,,,,,,,,,,,
1732156335.643117,1732156335.645367,2.000000,0.000000,4276.282227,4288.461426,4318.205078,4294.615234,4277.563965,4281.794922,4336.666504,4394.230957,4308.589844,4282.436035,4459.487305,4489.615234,4348.333496,4400.512695,1421.000000,1.000000,28.000000,,,,0.000000,2.000000,2.000000,0.000000,4.000000,2.000000,2.000000,0.000000,0.000000,4.000000,4.000000,4.000000,4.000000,4.000000,4.000000,0.000000,,,,,,,,,,,,,,,,,,,,,,,,,,,,
1732156335.650926,1732156335.653175,3.000000,0.000000,4278.589844,4291.282227,4317.820313,4297.948730,4282.307617,4285.641113,4336.666504,4393.333496,4307.051270,4278.589844,4461.153809,4486.025879,4350.641113,4401.794922,1412.000000,1.000000,28.000000,,,,0.000000,2.000000,2.000000,0.000000,4.000000,2.000000,2.000000,0.000000,0.000000,4.000000,4.000000,4.000000,4.000000,4.000000,4.000000,0.000000,,,,,,,,,,,,,,,,,,,,,,,,,,,,
1732156335.658734,1732156335.661083,4.000000,0.000000,4281.666504,4295.641113,4318.717773,4304.102539,4287.436035,4286.282227,4335.897461,4392.948730,4305.897461,4277.692383,4461.282227,4482.051270,4350.384766,4399.615234,1394.000000,1.000000,28.000000,,,,0.000000,2.000000,2.000000,0.000000,4.000000,2.000000,2.000000,0.000000,0.000000,4.000000,4.000000,4.000000,4.000000,4.000000,4.000000,0.000000,,,,,,,,,,,,,,,,,1.000000,0.000000,0.670408,-0.107178,-0.721680,-0.135071,0.981565,0.047857,-0.055671,-67.132111,32.636883,44.492451
1732156335.666542,1732156335.668891,5.000000,0.000000,4280.512695,4294.743652,4316.922852,4302.563965,4301.282227,4281.282227,4333.846191,4395.128418,4304.871582,4279.230957,4459.358887,4483.205078,4345.769043,4397.563965,1247.000000,1.000000,28.000000,,,,0.000000,2.000000,2.000000,0.000000,4.000000,2.000000,2.000000,0.000000,0.000000,4.000000,4.000000,4.000000,4.000000,4.000000,4.000000,0.000000,,,,,,,,,,,,,,,,,,,,,,,,,,,,
1732156335.674350,1732156335.676899,6.000000,0.000000,4281.153809,4293.333496,4316.538574,4297.948730,4291.922852,4277.948730,4334.102539,4395.384766,4306.410156,4287.179688,4458.333496,4489.615234,4348.205078,4398.974121,0.000000,1.000000,28.000000,,,,0.000000,2.000000,2.000000,0.000000,4.000000,2.000000,2.000000,0.000000,0.000000,4.000000,4.000000,4.000000,4.000000,4.000000,4.000000,0.000000,,,,,,,,,,,,,,,,,,,,,,,,,,,,
1732156335.682159,1732156335.684707,7.000000,0.000000,4282.307617,4288.846191,4316.666504,4294.871582,4267.820313,4278.077148,4336.410156,4395.128418,4308.717773,4294.871582,4460.512695,4494.102539,4352.820313,4400.897461,0.000000,1.000000,28.000000,,,,0.000000,2.000000,2.000000,0.000000,4.000000,2.000000,2.000000,0.000000,0.000000,4.000000,4.000000,4.000000,4.000000,4.000000,4.000000,0.000000,,,,,,,,,,,,,,,,,,,,,,,,,,,,
1732156335.689967,1732156335.692416,8.000000,0.000000,4279.487305,4281.794922,4314.230957,4294.487305,4270.256348,4279.230957,4337.692383,4394.743652,4306.666504,4296.025879,4462.563965,4494.358887,4347.563965,4399.487305,1531.000000,1.000000,28.000000,,,,0.000000,2.000000,2.000000,0.000000,4.000000,2.000000,2.000000,0.000000,0.000000,4.000000,4.000000,4.000000,4.000000,4.000000,4.000000,0.000000,,,,,,,,,,,,,,,,,2.000000,0.000000,0.670499,-0.107178,-0.721619,-0.134949,0.981565,0.047857,-0.055671,-66.980339,32.737541,44.367218
1732156335.697775,1732156335.700224,9.000000,0.000000,4276.794922,4281.282227,4315.512695,4293.846191,4295.128418,4281.025879,4337.563965,4392.436035,4305.128418,4295.512695,4460.000000,4497.436035,4342.436035,4398.205078,1681.000000,1.000000,28.000000,,,,0.000000,2.000000,2.000000,0.000000,4.000000,2.000000,2.000000,0.000000,0.000000,4.000000,4.000000,4.000000,4.000000,4.000000,4.000000,0.000000,,,,,,,,,,,,,,,,,,,,,,,,,,,,
1732156335.705583,1732156335.708232,10.000000,0.000000,4280.512695,4288.846191,4317.436035,4294.615234,4297.563965,4281.025879,4336.025879,4390.769043,4305.512695,4298.974121,4459.102539,4505.641113,4347.051270,4404.102539,1529.000000,1.000000,28.000000,,,,0.000000,2.000000,2.000000,0.000000,4.000000,2.000000,2.000000,0.000000,0.000000,4.000000,4.000000,4.000000,4.000000,4.000000,4.000000,0.000000,,,,,,,,,,,,,,,,,,,,,,,,,,,,
1732156335.713391,1732156335.716040,11.000000,0.000000,4284.358887,4287.820313,4316.922852,4297.563965,4275.512695,4282.436035,4337.051270,4394.615234,4302.948730,4299.743652,4462.692383,4510.384766,4349.615234,4408.589844,1579.000000,1.000000,28.000000,,,,0.000000,2.000000,2.000000,0.000000,4.000000,2.000000,2.000000,0.000000,0.000000,4.000000,4.000000,4.000000,4.000000,4.000000,4.000000,0.000000,,,,,,,,,,,,,,,,,,,,,,,,,,,,
1732156335.721200,1732156335.723848,12.000000,0.000000,4280.641113,4279.871582,4314.102539,4297.820313,4267.692383,4287.948730,4337.820313,4397.692383,4303.461426,4297.948730,4463.461426,4504.102539,4346.282227,4401.282227,1705.000000,1.000000,28.000000,,,,0.000000,2.000000,2.000000,0.000000,4.000000,2.000000,2.000000,0.000000,0.000000,4.000000,4.000000,4.000000,4.000000,4.000000,4.000000,0.000000,,,,,,,,,,,,,,,,,3.000000,0.000000,0.670488,-0.107422,-0.721558,-0.135132,0.981077,0.039556,-0.064949,-66.920746,32.670742,44.264114
1732156335.729008,1732156335.731657,13.000000,0.000000,4277.307617,4281.794922,4316.025879,4295.128418,4279.358887,4291.538574,4337.820313,4395.897461,4308.333496,4297.820313,4465.384766,4498.589844,4344.615234,4395.384766,1700.000000,1.000000,28.000000,,,,0.000000,2.000000,2.000000,0.000000,4.000000,2.000000,2.000000,0.000000,0.000000,4.000000,4.000000,4.000000,4.000000,4.000000,4.000000,0.000000,,,,,,,,,,,,,,,,,,,,,,,,,,,,
1732156335.736816,1732156335.739265,14.000000,0.000000,4279.230957,4288.205078,4316.666504,4292.436035,4290.769043,4287.692383,4336.153809,4393.589844,4306.794922,4296.282227,4467.692383,4503.333496,4348.205078,4399.743652,1529.000000,1.000000,28.000000,,,,0.000000,2.000000,2.000000,0.000000,4.000000,2.000000,2.000000,0.000000,0.000000,4.000000,4.000000,4.000000,4.000000,4.000000,4.000000,0.000000,1.000000,0.000000,2.000000,2.000000,0.000000,4.000000,2.000000,2.000000,0.000000,0.000000,4.000000,4.000000,4.000000,4.000000,4.000000,4.000000,,,,,,,,,,,,
1732156335.744625,1732156335.747073,15.000000,0.000000,4278.846191,4287.820313,4318.333496,4292.179688,4292.051270,4286.794922,4335.384766,4392.563965,4302.307617,4294.743652,4465.384766,4508.205078,4346.666504,4403.589844,1579.000000,1.000000,28.000000,,,,0.000000,2.000000,2.000000,0.000000,4.000000,2.000000,2.000000,0.000000,0.000000,4.000000,4.000000,4.000000,4.000000,4.000000,4.000000,0.000000,,,,,,,,,,,,,,,,,,,,,,,,,,,,
1732156335.752433,1732156335.754782,16.000000,0.000000,4277.179688,4285.769043,4319.615234,4296.794922,4283.333496,4291.922852,4335.000000,4393.974121,4305.769043,4296.538574,4465.384766,4501.922852,4342.820313,4398.717773,0.000000,1.000000,28.000000,,,,0.000000,2.000000,2.000000,0.000000,4.000000,2.000000,2.000000,0.000000,0.000000,4.000000,4.000000,4.000000,4.000000,4.000000,4.000000,0.000000,,,,,,,,,,,,,,,,,4.000000,0.000000,0.670520,-0.107483,-0.721497,-0.135254,0.978147,0.055183,-0.060066,-66.634132,32.589970,44.273933
1732156335.760241,1732156335.762590,17.000000,0.000000,4279.230957,4287.948730,4320.512695,4300.512695,4269.487305,4293.333496,4333.974121,4394.487305,4305.384766,4295.769043,4468.333496,4496.922852,4347.051270,4395.769043,0.000000,1.000000,28.000000,,,,0.000000,2.000000,2.000000,0.000000,4.000000,2.000000,2.000000,0.000000,0.000000,4.000000,4.000000,4.000000,4.000000,4.000000,4.000000,0.000000,,,,,,,,,,,,,,,,,,,,,,,,,,,,
1732156335.768049,1732156335.770198,18.000000,0.000000,4280.897461,4289.743652,4317.820313,4298.077148,4272.948730,4288.205078,4333.717773,4392.692383,4298.846191,4295.897461,4468.974121,4503.974121,4352.179688,4399.230957,0.000000,1.000000,28.000000,,,,0.000000,2.000000,2.000000,0.000000,4.000000,2.000000,2.000000,0.000000,0.000000,4.000000,4.000000,4.000000,4.000000,4.000000,4.000000,0.000000,,,,,,,,,,,,,,,,,,,,,,,,,,,,
1732156335.775857,1732156335.778006,19.000000,0.000000,4280.256348,4289.743652,4316.922852,4295.128418,4284.230957,4286.538574,4337.051270,4391.025879,4303.205078,4299.871582,4467.692383,4507.692383,4351.153809,4402.051270,0.000000,1.000000,28.000000,,,,0.000000,2.000000,2.000000,0.000000,4.000000,2.000000,2.000000,0.000000,0.000000,4.000000,4.000000,4.000000,4.000000,4.000000,4.000000,0.000000,,,,,,,,,,,,,,,,,,,,,,,,,,,,
1732156335.783666,1732156335.785715,20.000000,0.000000,4281.922852,4290.384766,4316.794922,4297.820313,4279.358887,4290.897461,4339.358887,4392.563965,4310.384766,4298.333496,4470.641113,4505.512695,4348.589844,4399.615234,0.000000,1.000000,28.000000,,,,0.000000,2.000000,2.000000,0.000000,4.000000,2.000000,2.000000,0.000000,0.000000,4.000000,4.000000,4.000000,4.000000,4.000000,4.000000,0.000000,,,,,,,,,,,,,,,,,5.000000,0.000000,0.670439,-0.107422,-0.721558,-0.135376,0.987914,0.052252,-0.061531,-66.566986,32.599541,44.131886
1732156335.791474,1732156335.793523,21.000000,0.000000,4283.205078,4290.641113,4318.846191,4299.487305,4285.641113,4290.384766,4335.128418,4393.333496,4305.897461,4293.077148,4470.256348,4505.769043,4350.128418,4396.794922,0.000000,1.000000,28.000000,,,,0.000000,2.000000,2.000000,0.000000,4.000000,2.000000,2.000000,0.000000,0.000000,4.000000,4.000000,4.000000,4.000000,4.000000,4.000000,0.000000,,,,,,,,,,,,,,,,,,,,,,,,,,,,
1732156335.799282,1732156335.801531,22.000000,0.000000,4285.641113,4291.666504,4317.563965,4298.333496,4301.025879,4284.358887,4332.436035,4391.922852,4300.769043,4294.487305,4463.846191,4502.051270,4350.512695,4396.282227,0.000000,1.000000,28.000000,,,,0.000000,2.000000,2.000000,0.000000,4.000000,2.000000,2.000000,0.000000,0.000000,4.000000,4.000000,4.000000,4.000000,4.000000,4.000000,0.000000,,,,,,,,,,,,,,,,,,,,,,,,,,,,
1732156335.807090,1732156335.809339,23.000000,0.000000,4286.282227,4290.128418,4315.128418,4297.179688,4287.563965,4285.256348,4335.384766,4392.051270,4302.563965,4293.717773,4461.153809,4498.846191,4349.230957,4396.666504,0.000000,1.000000,28.000000,,,,0.000000,2.000000,2.000000,0.000000,4.000000,2.000000,2.000000,0.000000,0.000000,4.000000,4.000000,4.000000,4.000000,4.000000,4.000000,0.000000,,,,,,,,,,,,,,,,,,,,,,,,,,,,
1732156335.814899,1732156335.817047,24.000000,0.000000,4285.897461,4289.102539,4316.025879,4298.461426,4269.230957,4293.461426,4336.666504,4393.589844,4301.922852,4287.820313,4461.794922,4501.922852,4348.589844,4399.230957,0.000000,1.000000,28.000000,,,,0.000000,2.000000,2.000000,0.000000,4.000000,2.000000,2.000000,0.000000,0.000000,4.000000,4.000000,4.000000,4.000000,4.000000,4.000000,0.000000,,,,,,,,,,,,,,,,,6.000000,0.000000,0.670394,-0.107727,-0.721497,-0.135681,0.984984,0.051764,-0.066903,-66.269257,32.485626,44.233494
1732156335.822707,1732156335.824856,25.000000,0.000000,4289.487305,4291.153809,4318.461426,4300.512695,4273.846191,4295.000000,4334.487305,4393.717773,4297.948730,4285.512695,4460.128418,4496.922852,4345.897461,4395.897461,0.000000,1.000000,28.000000,,,,0.000000,2.000000,2.000000,0.000000,4.000000,2.000000,2.000000,0.000000,0.000000,4.000000,4.000000,4.000000,4.000000,4.000000,4.000000,0.000000,,,,,,,,,,,,,,,,,,,,,,,,,,,,
1732156335.830515,1732156335.832464,26.000000,0.000000,4293.461426,4288.589844,4320.512695,4299.102539,4282.179688,4291.025879,4333.205078,4395.641113,4298.974121,4288.717773,4456.794922,4488.205078,4346.153809,4389.487305,0.000000,1.000000,28.000000,,,,0.000000,2.000000,2.000000,0.000000,4.000000,2.000000,2.000000,0.000000,0.000000,4.000000,4.000000,4.000000,4.000000,4.000000,4.000000,0.000000,,,,,,,,,,,,,,,,,,,,,,,,,,,,
1732156335.838323,1732156335.840272,27.000000,0.000000,4292.820313,4287.820313,4317.820313,4297.948730,4291.410156,4290.769043,4333.589844,4395.512695,4303.717773,4288.205078,4459.743652,4490.000000,4347.563965,4392.948730,0.000000,1.000000,28.000000,,,,0.000000,2.000000,2.000000,0.000000,4.000000,2.000000,2.000000,0.000000,0.000000,4.000000,4.000000,4.000000,4.000000,4.000000,4.000000,0.000000,,,,,,,,,,,,,,,,,,,,,,,,,,,,
1732156335.846131,1732156335.847981,28.000000,0.000000,4285.769043,4290.641113,4316.538574,4300.641113,4294.102539,4290.000000,4336.282227,4393.205078,4305.256348,4287.820313,4462.307617,4492.051270,4345.128418,4397.820313,0.000000,1.000000,28.000000,,,,0.000000,2.000000,2.000000,0.000000,4.000000,2.000000,2.000000,0.000000,0.000000,4.000000,4.000000,4.000000,4.000000,4.000000,4.000000,0.000000,,,,,,,,,,,,,,,,,7.000000,0.000000,0.670243,-0.107544,-0.721619,-0.135925,0.967892,0.054694,-0.047857,-66.374763,32.113358,44.475796
1732156335.853940,1732156335.855789,29.000000,0.000000,4280.000000,4290.897461,4316.025879,4302.436035,4279.230957,4291.538574,4338.461426,4393.205078,4308.333496,4293.846191,4459.615234,4490.769043,4343.333496,4396.153809,0.000000,1.000000,28.000000,,,,0.000000,2.000000,2.000000,0.000000,4.000000,2.000000,2.000000,0.000000,0.000000,4.000000,4.000000,4.000000,4.000000,4.000000,4.000000,0.000000,,,,,,,,,,,,,,,,,,,,,,,,,,,,
1732156335.861748,1732156335.863397,30.000000,0.000000,4280.256348,4289.358887,4318.333496,4300.769043,4274.615234,4295.769043,4336.666504,4393.974121,4310.000000,4297.436035,4464.487305,4499.230957,4351.153809,4396.922852,0.000000,1.000000,28.000000,,,,0.000000,2.000000,2.000000,0.000000,4.000000,2.000000,2.000000,0.000000,0.000000,4.000000,4.000000,4.000000,4.000000,4.000000,4.000000,0.000000,,,,,,,,,,,,,,,,,,,,,,,,,,,,
1732156335.869556,1732156335.871205,31.000000,0.000000,4281.410156,4288.205078,4316.153809,4300.641113,4283.461426,4296.538574,4333.461426,4392.179688,4308.077148,4295.769043,4473.205078,4507.820313,4357.948730,4402.692383,0.000000,1.000000,28.000000,,,,0.000000,2.000000,2.000000,0.000000,4.000000,2.000000,2.000000,0.000000,0.000000,4.000000,4.000000,4.000000,4.000000,4.000000,4.000000,0.000000,,,,,,,,,,,,,,,,,,,,,,,,,,,,
1732156335.877365,1732156335.878914,32.000000,0.000000,4279.615234,4285.769043,4317.179688,4300.256348,4286.282227,4290.769043,4335.128418,4392.051270,4305.512695,4290.384766,4470.256348,4506.410156,4352.051270,4401.666504,0.000000,1.000000,28.000000,,,,0.000000,2.000000,2.000000,0.000000,4.000000,2.000000,2.000000,0.000000,0.000000,4.000000,4.000000,4.000000,4.000000,4.000000,4.000000,0.000000,,,,,,,,,,,,,,,,,8.000000,0.000000,0.670243,-0.107544,-0.721619,-0.135925,0.987914,0.052741,-0.074228,-66.310226,32.081821,44.702061
1732156335.885173,1732156335.886722,33.000000,0.000000,4282.307617,4283.846191,4317.948730,4296.538574,4292.307617,4282.948730,4336.538574,4394.230957,4298.974121,4283.717773,4460.512695,4503.846191,4344.358887,4395.897461,0.000000,1.000000,28.000000,,,,0.000000,2.000000,2.000000,0.000000,4.000000,2.000000,2.000000,0.000000,0.000000,4.000000,4.000000,4.000000,4.000000,4.000000,4.000000,0.000000,,,,,,,,,,,,,,,,,,,,,,,,,,,,
1732156335.892981,1732156335.894730,34.000000,0.000000,4289.102539,4286.153809,4317.820313,4296.794922,4285.641113,4282.307617,4335.512695,4392.307617,4293.205078,4281.538574,4459.871582,4504.871582,4344.871582,4396.410156,0.000000,1.000000,28.000000,,,,0.000000,2.000000,2.000000,0.000000,4.000000,2.000000,2.000000,0.000000,0.000000,4.000000,4.000000,4.000000,4.000000,4.000000,4.000000,0.000000,,,,,,,,,,,,,,,,,,,,,,,,,,,,
1732156335.900789,1732156335.902538,35.000000,0.000000,4285.384766,4289.358887,4317.051270,4302.563965,4267.051270,4288.205078,4335.384766,4388.974121,4296.538574,4283.846191,4463.846191,4506.153809,4344.358887,4398.717773,0.000000,1.000000,28.000000,,,,0.000000,2.000000,2.000000,0.000000,4.000000,2.000000,2.000000,0.000000,0.000000,4.000000,4.000000,4.000000,4.000000,4.000000,4.000000,0.000000,,,,,,,,,,,,,,,,,,,,,,,,,,,,
1732156335.908598,1732156335.910446,36.000000,0.000000,4280.256348,4289.615234,4317.948730,4303.717773,4274.487305,4286.794922,4335.512695,4390.769043,4301.538574,4287.179688,4460.512695,4504.871582,4339.615234,4397.051270,0.000000,1.000000,28.000000,,,,0.000000,2.000000,2.000000,0.000000,4.000000,2.000000,2.000000,0.000000,0.000000,4.000000,4.000000,4.000000,4.000000,4.000000,4.000000,0.000000,,,,,,,,,,,,,,,,,9.000000,0.000000,0.670305,-0.107666,-0.721497,-0.136169,0.989379,0.056648,-0.055183,-66.377953,32.256275,44.663670
1732156335.916406,1732156335.918254,37.000000,0.000000,4282.692383,4290.128418,4316.025879,4302.692383,4286.794922,4280.000000,4336.153809,4393.974121,4300.897461,4289.615234,4461.025879,4506.282227,4341.794922,4396.666504,0.000000,1.000000,28.000000,,,,0.000000,2.000000,2.000000,0.000000,4.000000,2.000000,2.000000,0.000000,0.000000,4.000000,4.000000,4.000000,4.000000,4.000000,4.000000,0.000000,,,,,,,,,,,,,,,,,,,,,,,,,,,,
1732156335.924214,1732156335.926262,38.000000,0.000000,4286.794922,4291.538574,4317.179688,4305.256348,4277.307617,4283.205078,4337.563965,4392.179688,4301.282227,4292.820313,4469.358887,4509.230957,4347.179688,4400.512695,0.000000,1.000000,28.000000,,,,0.000000,2.000000,2.000000,0.000000,4.000000,2.000000,2.000000,0.000000,0.000000,4.000000,4.000000,4.000000,4.000000,4.000000,4.000000,0.000000,,,,,,,,,,,,,,,,,,,,,,,,,,,,
1732156335.932022,1732156335.934071,39.000000,0.000000,4290.384766,4290.512695,4318.077148,4306.282227,4284.230957,4287.563965,4337.051270,4391.666504,4302.563965,4291.666504,4470.512695,4509.358887,4346.025879,4400.641113,0.000000,1.000000,28.000000,,,,0.000000,2.000000,2.000000,0.000000,4.000000,2.000000,2.000000,0.000000,0.000000,4.000000,4.000000,4.000000,4.000000,4.000000,4.000000,0.000000,,,,,,,,,,,,,,,,,,,,,,,,,,,,
1732156335.939830,1732156335.941779,40.000000,0.000000,4288.077148,4287.692383,4316.025879,4303.974121,4301.025879,4283.589844,4334.615234,4393.846191,4302.563965,4291.666504,4463.589844,4507.692383,4344.871582,4398.589844,0.000000,1.000000,28.000000,,,,0.000000,2.000000,2.000000,0.000000,4.000000,2.000000,2.000000,0.000000,0.000000,4.000000,4.000000,4.000000,4.000000,4.000000,4.000000,0.000000,,,,,,,,,,,,,,,,,10.000000,0.000000,0.670291,-0.107849,-0.721436,-0.136414,0.983030,0.039067,-0.062019,-66.337807,32.364250,44.454239
1732156335.947639,1732156335.949587,41.000000,0.000000,4285.128418,4288.589844,4318.846191,4302.179688,4289.102539,4283.077148,4334.615234,4393.077148,4301.794922,4295.000000,4464.487305,4507.436035,4346.794922,4400.384766,0.000000,1.000000,28.000000,,,,0.000000,2.000000,2.000000,0.000000,4.000000,2.000000,2.000000,0.000000,0.000000,4.000000,4.000000,4.000000,4.000000,4.000000,4.000000,0.000000,,,,,,,,,,,,,,,,,,,,,,,,,,,,
1732156335.955447,1732156335.957196,42.000000,0.000000,4286.666504,4289.230957,4320.512695,4303.205078,4272.948730,4286.922852,4334.487305,4390.000000,4300.512695,4294.871582,4468.846191,4507.563965,4347.820313,4401.538574,0.000000,1.000000,28.000000,,,,0.000000,2.000000,2.000000,0.000000,4.000000,2.000000,2.000000,0.000000,0.000000,4.000000,4.000000,4.000000,4.000000,4.000000,4.000000,0.000000,,,,,,,,,,,,,,,,,,,,,,,,,,,,
1732156335.963255,1732156335.965004,43.000000,0.000000,4286.153809,4283.974121,4315.769043,4300.512695,4273.333496,4290.384766,4335.897461,4391.282227,4303.333496,4295.641113,4464.487305,4507.051270,4349.743652,4401.922852,0.000000,1.000000,28.000000,,,,0.000000,2.000000,2.000000,0.000000,4.000000,2.000000,2.000000,0.000000,0.000000,4.000000,4.000000,4.000000,4.000000,4.000000,4.000000,0.000000,,,,,,,,,,,,,,,,,,,,,,,,,,,,
1732156335.971064,1732156335.972912,44.000000,0.000000,4279.358887,4282.051270,4311.025879,4293.333496,4285.769043,4291.922852,4337.692383,4393.205078,4305.769043,4295.384766,4460.000000,4505.897461,4351.922852,4401.794922,0.000000,1.000000,28.000000,,,,0.000000,2.000000,2.000000,0.000000,4.000000,2.000000,2.000000,0.000000,0.000000,4.000000,4.000000,4.000000,4.000000,4.000000,4.000000,0.000000,,,,,,,,,,,,,,,,,11.000000,0.000000,0.670215,-0.108093,-0.721436,-0.136597,0.966427,0.052741,-0.053717,-66.371956,32.388374,44.276268
1732156335.978872,1732156335.980720,45.000000,0.000000,4280.384766,4284.487305,4316.025879,4291.922852,4298.333496,4286.666504,4335.769043,4391.538574,4302.436035,4289.358887,4462.179688,4504.230957,4346.666504,4399.615234,0.000000,1.000000,28.000000,,,,0.000000,2.000000,2.000000,0.000000,4.000000,2.000000,2.000000,0.000000,0.000000,4.000000,4.000000,4.000000,4.000000,4.000000,4.000000,0.000000,,,,,,,,,,,,,,,,,,,,,,,,,,,,
1732156335.986680,1732156335.988728,46.000000,0.000000,4286.794922,4287.307617,4319.102539,4300.000000,4291.666504,4281.538574,4332.307617,4388.205078,4303.333496,4287.948730,4464.615234,4505.128418,4344.743652,4404.102539,0.000000,1.000000,28.000000,,,,0.000000,2.000000,2.000000,0.000000,4.000000,2.000000,2.000000,0.000000,0.000000,4.000000,4.000000,4.000000,4.000000,4.000000,4.000000,0.000000,,,,,,,,,,,,,,,,,,,,,,,,,,,,
1732156335.994488,1732156335.996536,47.000000,0.000000,4285.897461,4287.692383,4317.436035,4303.205078,4272.051270,4284.102539,4335.000000,4388.717773,4306.153809,4292.179688,4463.974121,4506.282227,4348.974121,4409.487305,0.000000,1.000000,28.000000,,,,0.000000,2.000000,2.000000,0.000000,4.000000,2.000000,2.000000,0.000000,0.000000,4.000000,4.000000,4.000000,4.000000,4.000000,4.000000,0.000000,,,,,,,,,,,,,,,,,,,,,,,,,,,,
1732156336.002296,1732156336.004444,48.000000,0.000000,4283.077148,4289.615234,4313.205078,4301.282227,4272.563965,4287.051270,4338.589844,4392.692383,4301.410156,4290.128418,4462.307617,4504.871582,4347.948730,4405.769043,0.000000,1.000000,28.000000,,,,0.000000,2.000000,2.000000,0.000000,4.000000,2.000000,2.000000,0.000000,0.000000,4.000000,4.000000,4.000000,4.000000,4.000000,4.000000,0.000000,,,,,,,,,,,,,,,,,12.000000,0.000000,0.670170,-0.108215,-0.721436,-0.136719,0.966427,0.052741,-0.053717,-66.649620,32.282917,44.318775
1732156336.010105,1732156336.012253,49.000000,0.000000,4282.948730,4290.641113,4315.000000,4300.897461,4285.000000,4286.153809,4336.282227,4392.436035,4297.820313,4284.358887,4460.512695,4505.384766,4341.666504,4401.538574,0.000000,1.000000,28.000000,,,,0.000000,2.000000,2.000000,0.000000,4.000000,2.000000,2.000000,0.000000,0.000000,4.000000,4.000000,4.000000,4.000000,4.000000,4.000000,0.000000,,,,,,,,,,,,,,,,,,,,,,,,,,,,
1732156336.017913,1732156336.020261,50.000000,0.000000,4282.179688,4289.358887,4317.051270,4299.358887,4285.897461,4288.846191,4333.461426,4389.743652,4302.051270,4286.666504,4459.743652,4506.538574,4337.948730,4404.615234,0.000000,1.000000,28.000000,,,,0.000000,2.000000,2.000000,0.000000,4.000000,2.000000,2.000000,0.000000,0.000000,4.000000,4.000000,4.000000,4.000000,4.000000,4.000000,0.000000,,,,,,,,,,,,,,,,,,,,,,,,,,,,
1732156336.025721,1732156336.028069,51.000000,0.000000,4282.051270,4292.436035,4317.563965,4299.615234,4286.025879,4291.666504,4335.897461,4392.563965,4304.871582,4288.717773,4460.384766,4505.128418,4339.487305,4404.102539,0.000000,1.000000,28.000000,,,,0.000000,2.000000,2.000000,0.000000,4.000000,2.000000,2.000000,0.000000,0.000000,4.000000,4.000000,4.000000,4.000000,4.000000,4.000000,0.000000,,,,,,,,,,,,,,,,,,,,,,,,,,,,
1732156336.033529,1732156336.035977,52.000000,0.000000,4287.179688,4295.897461,4316.922852,4305.897461,4285.769043,4293.589844,4337.436035,4397.948730,4305.769043,4290.769043,4463.333496,4506.794922,4343.589844,4403.717773,0.000000,1.000000,28.000000,,,,0.000000,2.000000,2.000000,0.000000,4.000000,2.000000,2.000000,0.000000,0.000000,4.000000,4.000000,4.000000,4.000000,4.000000,4.000000,0.000000,,,,,,,,,,,,,,,,,13.000000,0.000000,0.670193,-0.108154,-0.721436,-0.136658,0.987425,0.062508,-0.064461,-66.562859,32.310829,44.386543
1732156336.041338,1732156336.043785,53.000000,0.000000,4286.538574,4292.051270,4317.692383,4305.897461,4290.641113,4295.384766,4336.153809,4395.000000,4305.256348,4290.256348,4461.025879,4510.641113,4343.205078,4403.974121,0.000000,1.000000,28.000000,,,,0.000000,2.000000,2.000000,0.000000,4.000000,2.000000,2.000000,0.000000,0.000000,4.000000,4.000000,4.000000,4.000000,4.000000,4.000000,0.000000,,,,,,,,,,,,,,,,,,,,,,,,,,,,
1732156336.049146,1732156336.051793,54.000000,0.000000,4282.948730,4288.333496,4316.794922,4297.563965,4301.794922,4289.487305,4335.641113,4391.538574,4302.051270,4284.871582,4458.846191,4508.077148,4336.666504,4399.487305,0.000000,1.000000,28.000000,,,,0.000000,2.000000,2.000000,0.000000,4.000000,2.000000,2.000000,0.000000,0.000000,4.000000,4.000000,4.000000,4.000000,4.000000,4.000000,0.000000,,,,,,,,,,,,,,,,,,,,,,,,,,,,
1732156336.056954,1732156336.059601,55.000000,0.000000,4286.410156,4289.615234,4316.794922,4296.538574,4288.333496,4282.948730,4336.282227,4394.743652,4307.051270,4287.820313,4467.307617,4509.230957,4337.051270,4404.487305,0.000000,1.000000,28.000000,,,,0.000000,2.000000,2.000000,0.000000,4.000000,2.000000,2.000000,0.000000,0.000000,4.000000,4.000000,4.000000,4.000000,4.000000,4.000000,0.000000,,,,,,,,,,,,,,,,,,,,,,,,,,,,
1732156336.064762,1732156336.067310,56.000000,0.000000,4289.743652,4288.846191,4318.589844,4301.922852,4271.794922,4283.205078,4337.051270,4395.384766,4312.820313,4294.615234,4470.384766,4514.743652,4341.282227,4412.820313,0.000000,1.000000,28.000000,,,,0.000000,2.000000,2.000000,0.000000,4.000000,2.000000,2.000000,0.000000,0.000000,4.000000,4.000000,4.000000,4.000000,4.000000,4.000000,0.000000,,,,,,,,,,,,,,,,,14.000000,0.000000,0.670148,-0.108704,-0.721313,-0.137085,0.978635,0.047857,-0.061043,-66.717583,32.140106,44.328098
1732156336.072571,1732156336.075118,57.000000,0.000000,4289.871582,4289.102539,4317.051270,4303.846191,4288.077148,4284.230957,4335.128418,4390.384766,4308.205078,4293.077148,4462.820313,4511.922852,4338.077148,4406.025879,0.000000,1.000000,28.000000,,,,0.000000,2.000000,2.000000,0.000000,4.000000,2.000000,2.000000,0.000000,0.000000,4.000000,4.000000,4.000000,4.000000,4.000000,4.000000,0.000000,,,,,,,,,,,,,,,,,,,,,,,,,,,,
1732156336.080379,1732156336.082726,58.000000,0.000000,4288.589844,4291.794922,4315.128418,4303.974121,4296.410156,4284.743652,4334.358887,4390.512695,4307.179688,4285.897461,4458.589844,4506.666504,4335.769043,4397.051270,0.000000,1.000000,28.000000,,,,0.000000,2.000000,2.000000,0.000000,4.000000,2.000000,2.000000,0.000000,0.000000,4.000000,4.000000,4.000000,4.000000,4.000000,4.000000,0.000000,,,,,,,,,,,,,,,,,,,,,,,,,,,,
1732156336.088187,1732156336.090534,59.000000,0.000000,4282.692383,4289.230957,4314.487305,4303.077148,4278.077148,4291.025879,4334.230957,4392.563965,4309.102539,4281.025879,4459.102539,4501.153809,4334.615234,4398.589844,0.000000,1.000000,28.000000,,,,0.000000,2.000000,2.000000,0.000000,4.000000,2.000000,2.000000,0.000000,0.000000,4.000000,4.000000,4.000000,4.000000,4.000000,4.000000,0.000000,,,,,,,,,,,,,,,,,,,,,,,,,,,,
1732156336.095995,1732156336.098243,60.000000,0.000000,4276.922852,4285.512695,4318.077148,4300.641113,4272.307617,4295.641113,4334.487305,4391.410156,4302.948730,4280.641113,4457.307617,4495.769043,4333.717773,4399.743652,0.000000,1.000000,28.000000,,,,0.000000,2.000000,2.000000,0.000000,4.000000,2.000000,2.000000,0.000000,0.000000,4.000000,4.000000,4.000000,4.000000,4.000000,4.000000,0.000000,,,,,,,,,,,,,,,,,15.000000,0.000000,0.670214,-0.108704,-0.721252,-0.137085,0.978635,0.047857,-0.061043,-66.674576,32.270153,44.199093
1732156336.103804,1732156336.106051,61.000000,0.000000,4285.384766,4292.436035,4318.077148,4303.717773,4289.102539,4293.333496,4335.384766,4391.025879,4303.205078,4285.897461,4457.436035,4501.282227,4341.153809,4397.563965,0.000000,1.000000,28.000000,,,,0.000000,2.000000,2.000000,0.000000,4.000000,2.000000,2.000000,0.000000,0.000000,4.000000,4.000000,4.000000,4.000000,4.000000,4.000000,0.000000,,,,,,,,,,,,,,,,,,,,,,,,,,,,
1732156336.111612,1732156336.113659,62.000000,0.000000,4289.743652,4298.717773,4317.179688,4307.436035,4300.897461,4290.384766,4336.153809,4392.692383,4310.256348,4288.974121,4458.717773,4509.102539,4347.948730,4399.358887,0.000000,1.000000,28.000000,,,,0.000000,2.000000,2.000000,0.000000,4.000000,2.000000,2.000000,0.000000,0.000000,4.000000,4.000000,4.000000,4.000000,4.000000,4.000000,0.000000,,,,,,,,,,,,,,,,,,,,,,,,,,,,
1732156336.119420,1732156336.121468,63.000000,0.000000,4280.769043,4294.615234,4315.512695,4304.102539,4290.897461,4291.794922,4335.897461,4392.179688,4307.948730,4286.410156,4456.794922,4499.871582,4343.589844,4399.487305,0.000000,1.000000,28.000000,,,,0.000000,2.000000,2.000000,0.000000,4.000000,2.000000,2.000000,0.000000,0.000000,4.000000,4.000000,4.000000,4.000000,4.000000,4.000000,0.000000,,,,,,,,,,,,,,,,,,,,,,,,,,,,
1732156336.127228,1732156336.129176,64.000000,0.000000,4278.205078,4292.179688,4318.717773,4301.794922,4274.358887,4294.871582,4337.179688,4390.641113,4306.410156,4286.282227,4457.307617,4494.358887,4340.512695,4398.846191,0.000000,1.000000,28.000000,,,,0.000000,2.000000,2.000000,0.000000,4.000000,2.000000,2.000000,0.000000,0.000000,4.000000,4.000000,4.000000,4.000000,4.000000,4.000000,0.000000,,,,,,,,,,,,,,,,,16.000000,0.000000,0.670272,-0.108398,-0.721313,-0.136719,0.972287,0.042486,-0.069833,-66.989738,32.187157,44.161266
1732156336.135037,1732156336.136984,65.000000,0.000000,4279.743652,4294.358887,4318.333496,4303.846191,4272.179688,4296.410156,4337.563965,4391.153809,4311.666504,4286.153809,4458.717773,4499.615234,4343.077148,4399.871582,1601.000000,1.000000,28.000000,,,,0.000000,2.000000,2.000000,0.000000,4.000000,2.000000,2.000000,0.000000,0.000000,4.000000,4.000000,4.000000,4.000000,4.000000,4.000000,0.000000,,,,,,,,,,,,,,,,,,,,,,,,,,,,
