title:up, start timestamp:1732155861.612625, stop timestamp:1732155901.809448, headset type:EPOCX, headset serial:E5020C3A, headset firmware:730, channels:67, sampling rate:eeg_128;mot_32, samples:5149      , version:2.2, 
Timestamp,OriginalTimestamp,EEG.Counter,EEG.Interpolated,EEG.AF3,EEG.F7,EEG.F3,EEG.FC5,EEG.T7,EEG.P7,EEG.O1,EEG.O2,EEG.P8,EEG.T8,EEG.FC6,EEG.F4,EEG.F8,EEG.AF4,EEG.RawCq,EEG.Battery,EEG.BatteryPercent,MarkerIndex,MarkerType,MarkerValueInt,EEG.MarkerHardware,CQ.AF3,CQ.F7,CQ.F3,CQ.FC5,CQ.T7,CQ.P7,CQ.O1,CQ.O2,CQ.P8,CQ.T8,CQ.FC6,CQ.F4,CQ.F8,CQ.AF4,CQ.Overall,EQ.SampleRateQuality,EQ.OVERALL,EQ.AF3,EQ.F7,EQ.F3,EQ.FC5,EQ.T7,EQ.P7,EQ.O1,EQ.O2,EQ.P8,EQ.T8,EQ.FC6,EQ.F4,EQ.F8,EQ.AF4,MOT.CounterMems,MOT.InterpolatedMems,MOT.Q0,MOT.Q1,MOT.Q2,MOT.Q3,MOT.AccX,MOT.AccY,MOT.AccZ,MOT.MagX,MOT.MagY,MOT.MagZ
1732155861.612625,1732155861.615054,93.000000,0.000000,4315.897461,4303.717773,4315.256348,4306.666504,4291.538574,4284.358887,4340.256348,4389.358887,4308.461426,4301.794922,4458.589844,4489.358887,4346.666504,4409.487305,1706.000000,1.000000,30.000000,,,,0.000000,2.000000,2.000000,0.000000,4.000000,2.000000,2.000000,0.000000,0.000000,4.000000,4.000000,4.000000,4.000000,4.000000,4.000000,0.000000,,,,,,,,,,,,,,,,,,,,,,,,,,,,
1732155861.620433,1732155861.622663,94.000000,0.000000,4317.051270,4303.589844,4320.256348,4304.871582,4269.487305,4282.692383,4341.410156,4391.922852,4304.230957,4301.282227,4457.563965,4487.948730,4347.051270,4412.436035,1544.000000,1.000000,30.000000,,,,0.000000,2.000000,2.000000,0.000000,4.000000,2.000000,2.000000,0.000000,0.000000,4.000000,4.000000,4.000000,4.000000,4.000000,4.000000,0.000000,,,,,,,,,,,,,,,,,,,,,,,,,,,,
1732155861.628241,1732155861.630471,95.000000,0.000000,4314.871582,4298.461426,4319.358887,4304.358887,4264.487305,4288.589844,4345.256348,4392.692383,4305.512695,4298.846191,4456.153809,4493.205078,4342.820313,4413.333496,1586.000000,1.000000,30.000000,,,,0.000000,2.000000,2.000000,0.000000,4.000000,2.000000,2.000000,0.000000,0.000000,4.000000,4.000000,4.000000,4.000000,4.000000,4.000000,0.000000,,,,,,,,,,,,,,,,,,,,,,,,,,,,
1732155861.636049,1732155861.638179,96.000000,0.000000,4312.563965,4296.410156,4317.179688,4301.538574,4278.589844,4290.000000,4347.563965,4389.102539,4304.743652,4293.205078,4452.179688,4491.794922,4337.307617,4408.589844,1730.000000,1.000000,30.000000,,,,0.000000,2.000000,2.000000,0.000000,4.000000,2.000000,2.000000,0.000000,0.000000,4.000000,4.000000,4.000000,4.000000,4.000000,4.000000,0.000000,,,,,,,,,,,,,,,,,24.000000,0.000000,0.666388,-0.069214,-0.714661,-0.200989,0.950800,0.191918,-0.019534,-65.882553,39.409458,44.902660
1732155861.643857,1732155861.645987,97.000000,0.000000,4310.128418,4297.179688,4317.051270,4301.282227,4278.077148,4288.846191,4344.487305,4387.563965,4302.563965,4292.179688,4450.897461,4483.974121,4340.000000,4404.615234,1706.000000,1.000000,30.000000,,,,0.000000,2.000000,2.000000,0.000000,4.000000,2.000000,2.000000,0.000000,0.000000,4.000000,4.000000,4.000000,4.000000,4.000000,4.000000,0.000000,,,,,,,,,,,,,,,,,,,,,,,,,,,,
1732155861.651666,1732155861.653995,98.000000,0.000000,4309.743652,4298.717773,4318.974121,4303.589844,4288.205078,4292.051270,4341.794922,4388.974121,4307.307617,4298.077148,4451.282227,4481.153809,4340.384766,4403.589844,1544.000000,1.000000,30.000000,,,,0.000000,2.000000,2.000000,0.000000,4.000000,2.000000,2.000000,0.000000,0.000000,4.000000,4.000000,4.000000,4.000000,4.000000,4.000000,0.000000,,,,,,,,,,,,,,,,,,,,,,,,,,,,
1732155861.659474,1732155861.661804,99.000000,0.000000,4312.179688,4298.461426,4318.717773,4304.102539,4301.538574,4293.717773,4345.384766,4391.282227,4310.769043,4297.051270,4447.948730,4480.128418,4331.666504,4399.102539,1586.000000,1.000000,30.000000,,,,0.000000,2.000000,2.000000,0.000000,4.000000,2.000000,2.000000,0.000000,0.000000,4.000000,4.000000,4.000000,4.000000,4.000000,4.000000,0.000000,,,,,,,,,,,,,,,,,,,,,,,,,,,,
1732155861.667282,1732155861.669512,100.000000,0.000000,4307.179688,4297.820313,4320.512695,4302.051270,4279.871582,4292.051270,4347.179688,4392.179688,4307.563965,4293.589844,4444.743652,4479.871582,4330.384766,4397.051270,1730.000000,1.000000,30.000000,,,,0.000000,2.000000,2.000000,0.000000,4.000000,2.000000,2.000000,0.000000,0.000000,4.000000,4.000000,4.000000,4.000000,4.000000,4.000000,0.000000,,,,,,,,,,,,,,,,,25.000000,0.000000,0.666201,-0.070374,-0.714722,-0.200989,0.957148,0.194848,-0.017092,-65.778206,39.394993,44.667824
1732155861.675090,1732155861.677320,101.000000,0.000000,4298.717773,4296.410156,4321.922852,4302.820313,4263.974121,4293.077148,4345.641113,4391.410156,4308.461426,4297.051270,4446.794922,4482.051270,4335.641113,4398.846191,1706.000000,1.000000,30.000000,,,,0.000000,2.000000,2.000000,0.000000,4.000000,2.000000,2.000000,0.000000,0.000000,4.000000,4.000000,4.000000,4.000000,4.000000,4.000000,0.000000,,,,,,,,,,,,,,,,,,,,,,,,,,,,
1732155861.682899,1732155861.685328,102.000000,0.000000,4300.769043,4294.487305,4318.846191,4304.230957,4281.410156,4294.743652,4344.615234,4389.102539,4310.512695,4301.282227,4447.436035,4482.563965,4334.615234,4396.538574,1544.000000,1.000000,30.000000,,,,0.000000,2.000000,2.000000,0.000000,4.000000,2.000000,2.000000,0.000000,0.000000,4.000000,4.000000,4.000000,4.000000,4.000000,4.000000,0.000000,,,,,,,,,,,,,,,,,,,,,,,,,,,,
1732155861.690707,1732155861.693136,103.000000,0.000000,4307.692383,4295.897461,4319.743652,4302.051270,4283.846191,4291.538574,4344.615234,4389.230957,4304.102539,4298.717773,4445.384766,4483.333496,4334.230957,4396.794922,1586.000000,1.000000,30.000000,,,,0.000000,2.000000,2.000000,0.000000,4.000000,2.000000,2.000000,0.000000,0.000000,4.000000,4.000000,4.000000,4.000000,4.000000,4.000000,0.000000,,,,,,,,,,,,,,,,,,,,,,,,,,,,
1732155861.698515,1732155861.701044,104.000000,0.000000,4305.641113,4295.641113,4320.641113,4300.128418,4276.794922,4290.128418,4342.692383,4391.025879,4296.538574,4293.974121,4446.025879,4483.846191,4333.461426,4398.333496,1730.000000,1.000000,30.000000,,,,0.000000,2.000000,2.000000,0.000000,4.000000,2.000000,2.000000,0.000000,0.000000,4.000000,4.000000,4.000000,4.000000,4.000000,4.000000,0.000000,,,,,,,,,,,,,,,,,26.000000,0.000000,0.666675,-0.070923,-0.714294,-0.200745,0.968868,0.205103,-0.026370,-65.575348,39.609947,44.525936
1732155861.706324,1732155861.708852,105.000000,0.000000,4299.615234,4288.846191,4320.256348,4299.358887,4291.538574,4292.051270,4343.974121,4390.641113,4296.025879,4288.461426,4440.641113,4478.333496,4326.538574,4391.282227,1706.000000,1.000000,30.000000,,,,0.000000,2.000000,2.000000,0.000000,4.000000,2.000000,2.000000,0.000000,0.000000,4.000000,4.000000,4.000000,4.000000,4.000000,4.000000,0.000000,,,,,,,,,,,,,,,,,,,,,,,,,,,,
1732155861.714132,1732155861.716460,106.000000,0.000000,4295.641113,4286.025879,4320.641113,4298.846191,4291.922852,4295.000000,4346.538574,4389.871582,4300.641113,4286.794922,4436.282227,4473.333496,4323.077148,4388.077148,1544.000000,1.000000,30.000000,,,,0.000000,2.000000,2.000000,0.000000,4.000000,2.000000,2.000000,0.000000,0.000000,4.000000,4.000000,4.000000,4.000000,4.000000,4.000000,0.000000,,,,,,,,,,,,,,,,,,,,,,,,,,,,
1732155861.721940,1732155861.724268,107.000000,0.000000,4299.487305,4293.205078,4324.230957,4301.153809,4269.615234,4298.589844,4345.769043,4390.256348,4303.717773,4292.563965,4440.641113,4478.461426,4325.000000,4394.871582,1586.000000,1.000000,30.000000,,,,0.000000,2.000000,2.000000,0.000000,4.000000,2.000000,2.000000,0.000000,0.000000,4.000000,4.000000,4.000000,4.000000,4.000000,4.000000,0.000000,,,,,,,,,,,,,,,,,,,,,,,,,,,,
1732155861.729748,1732155861.731976,108.000000,0.000000,4308.205078,4295.128418,4318.077148,4305.512695,4269.743652,4297.307617,4342.179688,4389.358887,4303.333496,4295.000000,4443.589844,4481.794922,4329.230957,4399.230957,1730.000000,1.000000,30.000000,,,,0.000000,2.000000,2.000000,0.000000,4.000000,2.000000,2.000000,0.000000,0.000000,4.000000,4.000000,4.000000,4.000000,4.000000,4.000000,0.000000,,,,,,,,,,,,,,,,,27.000000,0.000000,0.666863,-0.071167,-0.714111,-0.200684,0.973752,0.199243,-0.021975,-65.476028,39.640724,44.442677
1732155861.737556,1732155861.739784,109.000000,0.000000,4306.410156,4290.000000,4320.512695,4303.589844,4283.205078,4288.589844,4343.333496,4389.615234,4302.436035,4292.051270,4442.563965,4477.307617,4330.384766,4397.307617,1706.000000,1.000000,30.000000,,,,0.000000,2.000000,2.000000,0.000000,4.000000,2.000000,2.000000,0.000000,0.000000,4.000000,4.000000,4.000000,4.000000,4.000000,4.000000,0.000000,,,,,,,,,,,,,,,,,,,,,,,,,,,,
1732155861.745365,1732155861.747392,110.000000,0.000000,4298.974121,4292.307617,4324.230957,4302.179688,4277.948730,4287.436035,4344.615234,4390.000000,4304.743652,4293.589844,4443.077148,4478.589844,4329.871582,4396.538574,1544.000000,1.000000,30.000000,,,,0.000000,2.000000,2.000000,0.000000,4.000000,2.000000,2.000000,0.000000,0.000000,4.000000,4.000000,4.000000,4.000000,4.000000,4.000000,0.000000,,,,,,,,,,,,,,,,,,,,,,,,,,,,
1732155861.753173,1732155861.755200,111.000000,0.000000,4297.692383,4290.128418,4317.948730,4301.410156,4284.230957,4296.025879,4342.179688,4388.589844,4305.000000,4293.589844,4443.846191,4478.589844,4329.615234,4395.641113,1586.000000,1.000000,30.000000,,,,0.000000,2.000000,2.000000,0.000000,4.000000,2.000000,2.000000,0.000000,0.000000,4.000000,4.000000,4.000000,4.000000,4.000000,4.000000,0.000000,,,,,,,,,,,,,,,,,,,,,,,,,,,,
1732155861.760981,1732155861.763109,112.000000,0.000000,4298.205078,4282.563965,4313.589844,4295.641113,4300.641113,4296.410156,4342.436035,4387.948730,4303.205078,4292.179688,4441.794922,4476.922852,4329.615234,4396.025879,1730.000000,1.000000,30.000000,,,,0.000000,2.000000,2.000000,0.000000,4.000000,2.000000,2.000000,0.000000,0.000000,4.000000,4.000000,4.000000,4.000000,4.000000,4.000000,0.000000,,,,,,,,,,,,,,,,,28.000000,0.000000,0.666744,-0.071228,-0.714233,-0.200623,0.970822,0.201685,-0.033207,-65.638916,39.550652,44.390232
1732155861.768789,1732155861.770917,113.000000,0.000000,4297.179688,4286.666504,4317.436035,4297.051270,4286.794922,4292.948730,4344.487305,4387.179688,4303.333496,4293.205078,4444.358887,4478.461426,4331.282227,4399.487305,1706.000000,1.000000,30.000000,,,,0.000000,2.000000,2.000000,0.000000,4.000000,2.000000,2.000000,0.000000,0.000000,4.000000,4.000000,4.000000,4.000000,4.000000,4.000000,0.000000,,,,,,,,,,,,,,,,,,,,,,,,,,,,
1732155861.776598,1732155861.778925,114.000000,0.000000,4297.179688,4291.666504,4317.436035,4300.128418,4265.000000,4294.743652,4343.077148,4386.922852,4298.461426,4289.102539,4445.512695,4478.461426,4332.051270,4398.077148,1544.000000,1.000000,30.000000,,,,0.000000,2.000000,2.000000,0.000000,4.000000,2.000000,2.000000,0.000000,0.000000,4.000000,4.000000,4.000000,4.000000,4.000000,4.000000,0.000000,,,,,,,,,,,,,,,,,,,,,,,,,,,,
1732155861.784406,1732155861.786733,115.000000,0.000000,4296.025879,4285.000000,4316.025879,4293.461426,4266.538574,4289.615234,4340.641113,4386.410156,4293.717773,4282.436035,4435.256348,4473.589844,4327.307617,4394.102539,1586.000000,1.000000,30.000000,,,,0.000000,2.000000,2.000000,0.000000,4.000000,2.000000,2.000000,0.000000,0.000000,4.000000,4.000000,4.000000,4.000000,4.000000,4.000000,0.000000,,,,,,,,,,,,,,,,,,,,,,,,,,,,
1732155861.792214,1732155861.794641,116.000000,0.000000,4294.358887,4279.487305,4317.563965,4288.077148,4274.487305,4283.333496,4343.717773,4387.179688,4294.743652,4285.000000,4427.948730,4474.102539,4321.538574,4395.128418,1730.000000,1.000000,30.000000,,,,0.000000,2.000000,2.000000,0.000000,4.000000,2.000000,2.000000,0.000000,0.000000,4.000000,4.000000,4.000000,4.000000,4.000000,4.000000,0.000000,,,,,,,,,,,,,,,,,29.000000,0.000000,0.666490,-0.070862,-0.714661,-0.200073,0.964962,0.209987,-0.025394,-65.365852,39.562695,44.611088
1732155861.800022,1732155861.802449,117.000000,0.000000,4293.717773,4284.102539,4313.077148,4296.282227,4270.384766,4286.794922,4342.692383,4386.922852,4298.461426,4291.666504,4433.077148,4478.974121,4325.000000,4396.282227,1706.000000,1.000000,30.000000,,,,0.000000,2.000000,2.000000,0.000000,4.000000,2.000000,2.000000,0.000000,0.000000,4.000000,4.000000,4.000000,4.000000,4.000000,4.000000,0.000000,,,,,,,,,,,,,,,,,,,,,,,,,,,,
1732155861.807830,1732155861.810457,118.000000,0.000000,4289.871582,4283.205078,4314.743652,4297.436035,4278.461426,4288.846191,4341.282227,4389.615234,4297.692383,4288.077148,4434.230957,4477.307617,4328.205078,4389.743652,1544.000000,1.000000,30.000000,,,,0.000000,2.000000,2.000000,0.000000,4.000000,2.000000,2.000000,0.000000,0.000000,4.000000,4.000000,4.000000,4.000000,4.000000,4.000000,0.000000,,,,,,,,,,,,,,,,,,,,,,,,,,,,
1732155861.815639,1732155861.818265,119.000000,0.000000,4288.589844,4280.000000,4319.102539,4291.153809,4294.102539,4287.179688,4342.948730,4391.025879,4296.666504,4284.615234,4430.641113,4473.846191,4325.000000,4384.487305,1586.000000,1.000000,30.000000,,,,0.000000,2.000000,2.000000,0.000000,4.000000,2.000000,2.000000,0.000000,0.000000,4.000000,4.000000,4.000000,4.000000,4.000000,4.000000,0.000000,,,,,,,,,,,,,,,,,,,,,,,,,,,,
1732155861.823447,1732155861.826174,120.000000,0.000000,4287.820313,4280.384766,4316.666504,4293.589844,4279.615234,4291.282227,4343.589844,4389.230957,4298.974121,4286.666504,4430.769043,4474.871582,4321.410156,4384.487305,1730.000000,1.000000,30.000000,,,,0.000000,2.000000,2.000000,0.000000,4.000000,2.000000,2.000000,0.000000,0.000000,4.000000,4.000000,4.000000,4.000000,4.000000,4.000000,0.000000,,,,,,,,,,,,,,,,,30.000000,0.000000,0.665327,-0.070435,-0.716431,-0.197754,0.963497,0.175803,-0.028812,-65.451340,39.505783,44.806648
1732155861.831255,1732155861.833982,121.000000,0.000000,4281.153809,4279.230957,4312.051270,4295.769043,4263.846191,4293.205078,4340.128418,4388.589844,4297.692383,4281.794922,4428.205078,4471.666504,4316.922852,4380.384766,1706.000000,1.000000,30.000000,,,,0.000000,2.000000,2.000000,0.000000,4.000000,2.000000,2.000000,0.000000,0.000000,4.000000,4.000000,4.000000,4.000000,4.000000,4.000000,0.000000,,,,,,,,,,,,,,,,,,,,,,,,,,,,
1732155861.839064,1732155861.841990,122.000000,0.000000,4282.436035,4280.641113,4317.179688,4290.512695,4271.922852,4288.589844,4338.717773,4391.666504,4296.794922,4276.538574,4426.922852,4467.563965,4318.077148,4378.846191,1544.000000,1.000000,30.000000,,,,0.000000,2.000000,2.000000,0.000000,4.000000,2.000000,2.000000,0.000000,0.000000,4.000000,4.000000,4.000000,4.000000,4.000000,4.000000,0.000000,,,,,,,,,,,,,,,,,,,,,,,,,,,,
1732155861.846872,1732155861.849798,123.000000,0.000000,4293.589844,4283.974121,4320.128418,4292.563965,4269.871582,4288.846191,4344.743652,4393.077148,4303.077148,4283.077148,4433.205078,4473.589844,4323.974121,4385.897461,1586.000000,1.000000,30.000000,,,,0.000000,2.000000,2.000000,0.000000,4.000000,2.000000,2.000000,0.000000,0.000000,4.000000,4.000000,4.000000,4.000000,4.000000,4.000000,0.000000,,,,,,,,,,,,,,,,,,,,,,,,,,,,
1732155861.854680,1732155861.857706,124.000000,0.000000,4294.871582,4285.256348,4320.256348,4298.717773,4256.666504,4292.563965,4348.717773,4391.410156,4306.410156,4289.358887,4434.102539,4479.102539,4326.410156,4387.820313,1730.000000,1.000000,30.000000,,,,0.000000,2.000000,2.000000,0.000000,4.000000,2.000000,2.000000,0.000000,0.000000,4.000000,4.000000,4.000000,4.000000,4.000000,4.000000,0.000000,,,,,,,,,,,,,,,,,31.000000,0.000000,0.665183,-0.070740,-0.716736,-0.197021,0.962520,0.161641,-0.035649,-65.558922,39.576351,44.848385
1732155861.862488,1732155861.865514,125.000000,0.000000,4288.333496,4285.128418,4317.563965,4297.692383,4266.153809,4294.102539,4342.051270,4390.897461,4301.538574,4281.922852,4428.717773,4471.153809,4323.333496,4381.922852,1706.000000,1.000000,30.000000,,,,0.000000,2.000000,2.000000,0.000000,4.000000,2.000000,2.000000,0.000000,0.000000,4.000000,4.000000,4.000000,4.000000,4.000000,4.000000,0.000000,,,,,,,,,,,,,,,,,,,,,,,,,,,,
1732155861.870296,1732155861.873123,126.000000,0.000000,4290.641113,4286.538574,4317.948730,4297.179688,4274.871582,4293.333496,4341.025879,4390.641113,4295.769043,4270.384766,4427.820313,4459.743652,4321.666504,4381.025879,1544.000000,1.000000,30.000000,,,,0.000000,2.000000,2.000000,0.000000,4.000000,2.000000,2.000000,0.000000,0.000000,4.000000,4.000000,4.000000,4.000000,4.000000,4.000000,0.000000,,,,,,,,,,,,,,,,,,,,,,,,,,,,
1732155861.878105,1732155861.880931,127.000000,0.000000,4296.794922,4288.589844,4318.717773,4297.692383,4272.179688,4292.436035,4347.563965,4389.358887,4297.436035,4269.230957,4427.948730,4456.410156,4320.000000,4382.692383,30.000000,1.000000,30.000000,,,,0.000000,2.000000,2.000000,0.000000,4.000000,2.000000,2.000000,0.000000,0.000000,4.000000,4.000000,4.000000,4.000000,4.000000,4.000000,0.000000,,,,,,,,,,,,,,,,,,,,,,,,,,,,
1732155861.885913,1732155861.888839,0.000000,0.000000,4292.307617,4283.205078,4321.025879,4291.025879,4278.461426,4296.538574,4346.922852,4390.128418,4300.897461,4277.563965,4426.922852,4464.487305,4316.282227,4380.000000,0.000000,1.000000,30.000000,,,,0.000000,2.000000,2.000000,0.000000,4.000000,2.000000,2.000000,0.000000,0.000000,4.000000,4.000000,4.000000,4.000000,4.000000,4.000000,0.000000,,,,,,,,,,,,,,,,,0.000000,0.000000,0.664606,-0.071777,-0.717468,-0.195923,0.958613,0.147479,-0.043951,-65.421059,39.530178,44.782192
1732155861.893721,1732155861.896647,1.000000,0.000000,4288.974121,4277.948730,4322.692383,4288.846191,4273.205078,4296.282227,4340.769043,4394.230957,4300.256348,4279.102539,4426.922852,4469.358887,4319.102539,4383.846191,1623.000000,1.000000,30.000000,,,,0.000000,2.000000,2.000000,0.000000,4.000000,2.000000,2.000000,0.000000,0.000000,4.000000,4.000000,4.000000,4.000000,4.000000,4.000000,0.000000,,,,,,,,,,,,,,,,,,,,,,,,,,,,
1732155861.901529,1732155861.904356,2.000000,0.000000,4299.102539,4281.153809,4323.077148,4293.333496,4261.794922,4287.307617,4341.282227,4395.512695,4297.563965,4269.487305,4425.769043,4464.871582,4323.333496,4393.077148,1434.000000,1.000000,30.000000,,,,0.000000,2.000000,2.000000,0.000000,4.000000,2.000000,2.000000,0.000000,0.000000,4.000000,4.000000,4.000000,4.000000,4.000000,4.000000,0.000000,,,,,,,,,,,,,,,,,,,,,,,,,,,,
1732155861.909338,1732155861.912164,3.000000,0.000000,4310.897461,4288.205078,4321.538574,4296.025879,4266.922852,4279.487305,4344.871582,4393.333496,4296.922852,4267.436035,4428.717773,4467.436035,4322.436035,4399.487305,1444.000000,1.000000,30.000000,,,,0.000000,2.000000,2.000000,0.000000,4.000000,2.000000,2.000000,0.000000,0.000000,4.000000,4.000000,4.000000,4.000000,4.000000,4.000000,0.000000,,,,,,,,,,,,,,,,,,,,,,,,,,,,
1732155861.917146,1732155861.919872,4.000000,0.000000,4316.153809,4288.846191,4320.384766,4295.769043,4263.717773,4279.358887,4346.282227,4389.871582,4298.717773,4274.743652,4435.256348,4480.128418,4325.641113,4408.205078,1412.000000,1.000000,30.000000,,,,0.000000,2.000000,2.000000,0.000000,4.000000,2.000000,2.000000,0.000000,0.000000,4.000000,4.000000,4.000000,4.000000,4.000000,4.000000,0.000000,,,,,,,,,,,,,,,,,1.000000,0.000000,0.663469,-0.074951,-0.718445,-0.195007,0.963985,0.157734,-0.044439,-65.494392,39.574444,44.873577
1732155861.924954,1732155861.927680,5.000000,0.000000,4322.692383,4287.307617,4321.025879,4295.128418,4252.820313,4280.128418,4346.410156,4390.641113,4296.025879,4272.948730,4436.794922,4483.717773,4329.487305,4415.256348,1259.000000,1.000000,30.000000,,,,0.000000,2.000000,2.000000,0.000000,4.000000,2.000000,2.000000,0.000000,0.000000,4.000000,4.000000,4.000000,4.000000,4.000000,4.000000,0.000000,,,,,,,,,,,,,,,,,,,,,,,,,,,,
1732155861.932762,1732155861.935289,6.000000,0.000000,4332.436035,4292.436035,4319.743652,4296.153809,4262.179688,4274.743652,4346.282227,4392.820313,4293.589844,4262.820313,4437.307617,4479.358887,4326.666504,4417.948730,0.000000,1.000000,30.000000,,,,0.000000,2.000000,2.000000,0.000000,4.000000,2.000000,2.000000,0.000000,0.000000,4.000000,4.000000,4.000000,4.000000,4.000000,4.000000,0.000000,,,,,,,,,,,,,,,,,,,,,,,,,,,,
1732155861.940571,1732155861.943097,7.000000,0.000000,4339.871582,4297.051270,4318.846191,4299.102539,4265.512695,4270.897461,4347.563965,4393.205078,4294.102539,4262.307617,4442.051270,4481.922852,4330.128418,4424.871582,0.000000,1.000000,30.000000,,,,0.000000,2.000000,2.000000,0.000000,4.000000,2.000000,2.000000,0.000000,0.000000,4.000000,4.000000,4.000000,4.000000,4.000000,4.000000,0.000000,,,,,,,,,,,,,,,,,,,,,,,,,,,,
1732155861.948379,1732155861.950805,8.000000,0.000000,4343.077148,4298.589844,4319.102539,4299.743652,4244.230957,4272.436035,4346.410156,4391.538574,4295.512695,4270.897461,4445.897461,4486.410156,4341.025879,4431.666504,1546.000000,1.000000,30.000000,,,,0.000000,2.000000,2.000000,0.000000,4.000000,2.000000,2.000000,0.000000,0.000000,4.000000,4.000000,4.000000,4.000000,4.000000,4.000000,0.000000,,,,,,,,,,,,,,,,,2.000000,0.000000,0.662817,-0.076660,-0.718750,-0.195435,0.946405,0.189476,-0.049322,-65.765457,39.638634,45.009262
1732155861.956187,1732155861.958613,9.000000,0.000000,4339.487305,4295.641113,4320.769043,4299.358887,4236.538574,4274.871582,4345.641113,4391.153809,4295.897461,4273.461426,4445.512695,4489.871582,4340.128418,4429.358887,1715.000000,1.000000,30.000000,,,,0.000000,2.000000,2.000000,0.000000,4.000000,2.000000,2.000000,0.000000,0.000000,4.000000,4.000000,4.000000,4.000000,4.000000,4.000000,0.000000,,,,,,,,,,,,,,,,,,,,,,,,,,,,
1732155861.963995,1732155861.966222,10.000000,0.000000,4335.384766,4295.897461,4321.153809,4302.051270,4250.641113,4275.384766,4348.589844,4392.820313,4294.230957,4269.358887,4444.230957,4487.307617,4334.102539,4428.717773,1546.000000,1.000000,30.000000,,,,0.000000,2.000000,2.000000,0.000000,4.000000,2.000000,2.000000,0.000000,0.000000,4.000000,4.000000,4.000000,4.000000,4.000000,4.000000,0.000000,,,,,,,,,,,,,,,,,,,,,,,,,,,,
1732155861.971804,1732155861.974030,11.000000,0.000000,4335.384766,4298.589844,4323.205078,4302.436035,4256.025879,4273.717773,4349.615234,4394.487305,4293.077148,4267.307617,4442.307617,4482.307617,4331.794922,4426.282227,1586.000000,1.000000,30.000000,,,,0.000000,2.000000,2.000000,0.000000,4.000000,2.000000,2.000000,0.000000,0.000000,4.000000,4.000000,4.000000,4.000000,4.000000,4.000000,0.000000,,,,,,,,,,,,,,,,,,,,,,,,,,,,
1732155861.979612,1732155861.981738,12.000000,0.000000,4329.102539,4295.128418,4321.538574,4300.897461,4251.282227,4276.794922,4346.410156,4394.230957,4294.487305,4271.025879,4440.256348,4481.794922,4329.102539,4414.615234,1733.000000,1.000000,30.000000,,,,0.000000,2.000000,2.000000,0.000000,4.000000,2.000000,2.000000,0.000000,0.000000,4.000000,4.000000,4.000000,4.000000,4.000000,4.000000,0.000000,,,,,,,,,,,,,,,,,3.000000,0.000000,0.662571,-0.077026,-0.718872,-0.195679,0.964962,0.185081,-0.056648,-65.461685,39.612293,44.849171
1732155861.987420,1732155861.989547,13.000000,0.000000,4318.717773,4293.717773,4321.410156,4300.256348,4257.179688,4281.922852,4346.922852,4394.230957,4295.897461,4273.205078,4440.641113,4479.230957,4326.922852,4408.589844,1706.000000,1.000000,30.000000,,,,0.000000,2.000000,2.000000,0.000000,4.000000,2.000000,2.000000,0.000000,0.000000,4.000000,4.000000,4.000000,4.000000,4.000000,4.000000,0.000000,,,,,,,,,,,,,,,,,,,,,,,,,,,,
1732155861.995228,1732155861.997155,14.000000,0.000000,4318.589844,4294.487305,4319.487305,4300.897461,4273.461426,4280.000000,4347.692383,4393.205078,4295.897461,4273.205078,4440.128418,4475.641113,4326.410156,4407.436035,1546.000000,1.000000,30.000000,,,,0.000000,2.000000,2.000000,0.000000,4.000000,2.000000,2.000000,0.000000,0.000000,4.000000,4.000000,4.000000,4.000000,4.000000,4.000000,0.000000,1.000000,0.000000,2.000000,2.000000,0.000000,4.000000,2.000000,2.000000,0.000000,0.000000,4.000000,4.000000,4.000000,4.000000,4.000000,4.000000,,,,,,,,,,,,
1732155862.003037,1732155862.004963,15.000000,0.000000,4320.256348,4290.384766,4317.948730,4300.769043,4273.846191,4277.948730,4345.256348,4388.846191,4301.794922,4277.563965,4438.846191,4476.794922,4326.794922,4401.153809,1586.000000,1.000000,30.000000,,,,0.000000,2.000000,2.000000,0.000000,4.000000,2.000000,2.000000,0.000000,0.000000,4.000000,4.000000,4.000000,4.000000,4.000000,4.000000,0.000000,,,,,,,,,,,,,,,,,,,,,,,,,,,,
1732155862.010845,1732155862.012672,16.000000,0.000000,4312.051270,4289.230957,4314.102539,4298.077148,4251.410156,4286.666504,4345.000000,4386.666504,4307.692383,4282.948730,4440.000000,4478.205078,4327.820313,4395.384766,0.000000,1.000000,30.000000,,,,0.000000,2.000000,2.000000,0.000000,4.000000,2.000000,2.000000,0.000000,0.000000,4.000000,4.000000,4.000000,4.000000,4.000000,4.000000,0.000000,,,,,,,,,,,,,,,,,4.000000,0.000000,0.662030,-0.077271,-0.719177,-0.196289,0.970822,0.222683,-0.051276,-65.717300,39.274292,44.711163
1732155862.018653,1732155862.020480,17.000000,0.000000,4304.102539,4288.846191,4314.615234,4295.256348,4242.436035,4291.666504,4344.743652,4387.948730,4302.436035,4282.692383,4442.051270,4476.153809,4326.025879,4396.410156,0.000000,1.000000,30.000000,,,,0.000000,2.000000,2.000000,0.000000,4.000000,2.000000,2.000000,0.000000,0.000000,4.000000,4.000000,4.000000,4.000000,4.000000,4.000000,0.000000,,,,,,,,,,,,,,,,,,,,,,,,,,,,
1732155862.026461,1732155862.028088,18.000000,0.000000,4306.538574,4282.436035,4313.974121,4294.230957,4258.974121,4284.102539,4340.256348,4386.025879,4301.410156,4280.256348,4441.794922,4478.461426,4324.358887,4398.974121,0.000000,1.000000,30.000000,,,,0.000000,2.000000,2.000000,0.000000,4.000000,2.000000,2.000000,0.000000,0.000000,4.000000,4.000000,4.000000,4.000000,4.000000,4.000000,0.000000,,,,,,,,,,,,,,,,,,,,,,,,,,,,
1732155862.034269,1732155862.035896,19.000000,0.000000,4308.846191,4281.153809,4314.102539,4295.641113,4262.948730,4282.307617,4338.077148,4385.256348,4307.948730,4282.948730,4441.666504,4482.820313,4327.051270,4398.461426,0.000000,1.000000,30.000000,,,,0.000000,2.000000,2.000000,0.000000,4.000000,2.000000,2.000000,0.000000,0.000000,4.000000,4.000000,4.000000,4.000000,4.000000,4.000000,0.000000,,,,,,,,,,,,,,,,,,,,,,,,,,,,
1732155862.042078,1732155862.043605,20.000000,0.000000,4300.769043,4283.974121,4318.717773,4295.769043,4259.358887,4286.282227,4341.282227,4388.333496,4306.794922,4283.333496,4443.205078,4482.436035,4326.794922,4397.692383,0.000000,1.000000,30.000000,,,,0.000000,2.000000,2.000000,0.000000,4.000000,2.000000,2.000000,0.000000,0.000000,4.000000,4.000000,4.000000,4.000000,4.000000,4.000000,0.000000,,,,,,,,,,,,,,,,,5.000000,0.000000,0.661372,-0.076599,-0.719971,-0.195862,0.952265,0.185570,-0.053229,-65.724350,39.200508,44.882706
1732155862.049886,1732155862.051413,21.000000,0.000000,4294.871582,4278.589844,4321.410156,4294.743652,4275.256348,4287.563965,4342.563965,4387.563965,4301.794922,4279.358887,4441.794922,4478.717773,4323.717773,4394.615234,0.000000,1.000000,30.000000,,,,0.000000,2.000000,2.000000,0.000000,4.000000,2.000000,2.000000,0.000000,0.000000,4.000000,4.000000,4.000000,4.000000,4.000000,4.000000,0.000000,,,,,,,,,,,,,,,,,,,,,,,,,,,,
1732155862.057694,1732155862.059021,22.000000,0.000000,4298.717773,4278.205078,4318.974121,4296.153809,4277.692383,4290.769043,4341.410156,4386.282227,4306.153809,4279.102539,4441.410156,4476.282227,4325.512695,4391.666504,0.000000,1.000000,30.000000,,,,0.000000,2.000000,2.000000,0.000000,4.000000,2.000000,2.000000,0.000000,0.000000,4.000000,4.000000,4.000000,4.000000,4.000000,4.000000,0.000000,,,,,,,,,,,,,,,,,,,,,,,,,,,,
1732155862.065503,1732155862.066829,23.000000,0.000000,4300.000000,4287.563965,4317.051270,4299.743652,4260.769043,4296.410156,4340.769043,4388.461426,4310.128418,4287.051270,4442.692383,4476.794922,4327.051270,4391.794922,0.000000,1.000000,30.000000,,,,0.000000,2.000000,2.000000,0.000000,4.000000,2.000000,2.000000,0.000000,0.000000,4.000000,4.000000,4.000000,4.000000,4.000000,4.000000,0.000000,,,,,,,,,,,,,,,,,,,,,,,,,,,,
1732155862.073311,1732155862.074538,24.000000,0.000000,4295.512695,4286.922852,4319.487305,4298.717773,4259.743652,4298.846191,4340.512695,4389.615234,4307.692383,4288.333496,4440.897461,4476.153809,4324.487305,4389.615234,0.000000,1.000000,30.000000,,,,0.000000,2.000000,2.000000,0.000000,4.000000,2.000000,2.000000,0.000000,0.000000,4.000000,4.000000,4.000000,4.000000,4.000000,4.000000,0.000000,,,,,,,,,,,,,,,,,6.000000,0.000000,0.661377,-0.076233,-0.720154,-0.195313,0.952265,0.185570,-0.053229,-65.795052,39.270744,44.768326
1732155862.081119,1732155862.082346,25.000000,0.000000,4294.615234,4281.025879,4315.512695,4293.589844,4269.230957,4295.897461,4338.974121,4387.307617,4304.487305,4279.230957,4438.974121,4474.102539,4322.563965,4383.589844,0.000000,1.000000,30.000000,,,,0.000000,2.000000,2.000000,0.000000,4.000000,2.000000,2.000000,0.000000,0.000000,4.000000,4.000000,4.000000,4.000000,4.000000,4.000000,0.000000,,,,,,,,,,,,,,,,,,,,,,,,,,,,
1732155862.088927,1732155862.089954,26.000000,0.000000,4293.461426,4278.333496,4312.563965,4290.256348,4267.563965,4290.512695,4338.846191,4386.666504,4303.717773,4277.307617,4436.153809,4473.333496,4322.692383,4382.563965,0.000000,1.000000,30.000000,,,,0.000000,2.000000,2.000000,0.000000,4.000000,2.000000,2.000000,0.000000,0.000000,4.000000,4.000000,4.000000,4.000000,4.000000,4.000000,0.000000,,,,,,,,,,,,,,,,,,,,,,,,,,,,
1732155862.096735,1732155862.097762,27.000000,0.000000,4291.282227,4275.769043,4311.666504,4289.743652,4266.538574,4290.256348,4339.487305,4387.692383,4306.025879,4285.384766,4432.692383,4473.589844,4323.589844,4387.436035,0.000000,1.000000,30.000000,,,,0.000000,2.000000,2.000000,0.000000,4.000000,2.000000,2.000000,0.000000,0.000000,4.000000,4.000000,4.000000,4.000000,4.000000,4.000000,0.000000,,,,,,,,,,,,,,,,,,,,,,,,,,,,
1732155862.104544,1732155862.105670,28.000000,0.000000,4291.922852,4278.846191,4313.846191,4292.051270,4273.461426,4292.051270,4340.384766,4388.077148,4305.000000,4286.666504,4432.179688,4473.461426,4322.820313,4387.820313,0.000000,1.000000,30.000000,,,,0.000000,2.000000,2.000000,0.000000,4.000000,2.000000,2.000000,0.000000,0.000000,4.000000,4.000000,4.000000,4.000000,4.000000,4.000000,0.000000,,,,,,,,,,,,,,,,,7.000000,0.000000,0.661483,-0.075989,-0.720215,-0.194824,0.950311,0.177756,-0.052741,-65.942329,39.230968,44.674011
1732155862.112352,1732155862.113478,29.000000,0.000000,4293.077148,4286.153809,4313.846191,4298.461426,4276.538574,4291.794922,4339.102539,4387.307617,4300.641113,4281.538574,4431.922852,4474.743652,4321.794922,4384.615234,0.000000,1.000000,30.000000,,,,0.000000,2.000000,2.000000,0.000000,4.000000,2.000000,2.000000,0.000000,0.000000,4.000000,4.000000,4.000000,4.000000,4.000000,4.000000,0.000000,,,,,,,,,,,,,,,,,,,,,,,,,,,,
1732155862.120160,1732155862.121087,30.000000,0.000000,4293.589844,4287.948730,4314.615234,4302.436035,4273.974121,4294.358887,4339.102539,4387.307617,4301.666504,4280.769043,4430.769043,4475.128418,4322.948730,4388.717773,0.000000,1.000000,30.000000,,,,0.000000,2.000000,2.000000,0.000000,4.000000,2.000000,2.000000,0.000000,0.000000,4.000000,4.000000,4.000000,4.000000,4.000000,4.000000,0.000000,,,,,,,,,,,,,,,,,,,,,,,,,,,,
1732155862.127968,1732155862.128895,31.000000,0.000000,4295.897461,4286.025879,4312.692383,4303.974121,4280.128418,4296.025879,4339.358887,4387.820313,4305.384766,4282.692383,4433.077148,4474.871582,4325.128418,4395.128418,0.000000,1.000000,30.000000,,,,0.000000,2.000000,2.000000,0.000000,4.000000,2.000000,2.000000,0.000000,0.000000,4.000000,4.000000,4.000000,4.000000,4.000000,4.000000,0.000000,,,,,,,,,,,,,,,,,,,,,,,,,,,,
1732155862.135777,1732155862.136603,32.000000,0.000000,4296.538574,4286.282227,4313.974121,4303.205078,4294.743652,4290.512695,4338.589844,4386.282227,4303.717773,4281.922852,4432.948730,4474.743652,4324.230957,4393.077148,0.000000,1.000000,30.000000,,,,0.000000,2.000000,2.000000,0.000000,4.000000,2.000000,2.000000,0.000000,0.000000,4.000000,4.000000,4.000000,4.000000,4.000000,4.000000,0.000000,,,,,,,,,,,,,,,,,8.000000,0.000000,0.662124,-0.076660,-0.720032,-0.193054,0.982053,0.160176,-0.048346,-66.044952,39.232086,44.580948
1732155862.143585,1732155862.144411,33.000000,0.000000,4294.743652,4288.974121,4313.974121,4305.128418,4289.102539,4289.358887,4338.077148,4387.051270,4302.563965,4278.589844,4427.563965,4471.153809,4322.692383,4388.333496,0.000000,1.000000,30.000000,,,,0.000000,2.000000,2.000000,0.000000,4.000000,2.000000,2.000000,0.000000,0.000000,4.000000,4.000000,4.000000,4.000000,4.000000,4.000000,0.000000,,,,,,,,,,,,,,,,,,,,,,,,,,,,
1732155862.151393,1732155862.152019,34.000000,0.000000,4294.102539,4287.436035,4313.077148,4308.205078,4268.846191,4294.358887,4340.769043,4388.717773,4303.589844,4279.102539,4427.692383,4469.102539,4323.333496,4388.717773,0.000000,1.000000,30.000000,,,,0.000000,2.000000,2.000000,0.000000,4.000000,2.000000,2.000000,0.000000,0.000000,4.000000,4.000000,4.000000,4.000000,4.000000,4.000000,0.000000,,,,,,,,,,,,,,,,,,,,,,,,,,,,
1732155862.159201,1732155862.159827,35.000000,0.000000,4294.487305,4281.153809,4316.410156,4304.102539,4266.922852,4294.102539,4344.871582,4388.717773,4301.922852,4282.436035,4430.641113,4472.692383,4322.692383,4386.153809,0.000000,1.000000,30.000000,,,,0.000000,2.000000,2.000000,0.000000,4.000000,2.000000,2.000000,0.000000,0.000000,4.000000,4.000000,4.000000,4.000000,4.000000,4.000000,0.000000,,,,,,,,,,,,,,,,,,,,,,,,,,,,
1732155862.167010,1732155862.167735,36.000000,0.000000,4292.307617,4277.948730,4321.922852,4297.436035,4276.794922,4294.358887,4345.641113,4389.871582,4302.692383,4280.512695,4429.743652,4470.512695,4318.717773,4382.436035,0.000000,1.000000,30.000000,,,,0.000000,2.000000,2.000000,0.000000,4.000000,2.000000,2.000000,0.000000,0.000000,4.000000,4.000000,4.000000,4.000000,4.000000,4.000000,0.000000,,,,,,,,,,,,,,,,,9.000000,0.000000,0.662672,-0.079285,-0.719910,-0.190552,0.961543,0.145526,-0.054694,-66.001411,39.287991,44.582233
1732155862.174818,1732155862.175543,37.000000,0.000000,4286.794922,4277.179688,4325.769043,4294.615234,4282.820313,4296.538574,4346.282227,4391.666504,4304.871582,4275.897461,4426.794922,4466.025879,4313.846191,4380.641113,0.000000,1.000000,30.000000,,,,0.000000,2.000000,2.000000,0.000000,4.000000,2.000000,2.000000,0.000000,0.000000,4.000000,4.000000,4.000000,4.000000,4.000000,4.000000,0.000000,,,,,,,,,,,,,,,,,,,,,,,,,,,,
1732155862.182626,1732155862.183551,38.000000,0.000000,4285.128418,4277.820313,4329.230957,4293.589844,4281.153809,4295.256348,4347.307617,4390.512695,4305.641113,4280.128418,4428.205078,4471.538574,4312.563965,4378.974121,0.000000,1.000000,30.000000,,,,0.000000,2.000000,2.000000,0.000000,4.000000,2.000000,2.000000,0.000000,0.000000,4.000000,4.000000,4.000000,4.000000,4.000000,4.000000,0.000000,,,,,,,,,,,,,,,,,,,,,,,,,,,,
1732155862.190434,1732155862.191359,39.000000,0.000000,4289.871582,4279.743652,4332.307617,4296.282227,4266.922852,4295.000000,4348.461426,4390.256348,4308.589844,4286.666504,4429.871582,4476.025879,4318.589844,4381.666504,0.000000,1.000000,30.000000,,,,0.000000,2.000000,2.000000,0.000000,4.000000,2.000000,2.000000,0.000000,0.000000,4.000000,4.000000,4.000000,4.000000,4.000000,4.000000,0.000000,,,,,,,,,,,,,,,,,,,,,,,,,,,,
1732155862.198243,1732155862.199267,40.000000,0.000000,4291.282227,4282.436035,4330.384766,4302.436035,4258.846191,4296.922852,4348.333496,4390.897461,4309.871582,4283.589844,4427.820313,4473.846191,4324.615234,4385.384766,0.000000,1.000000,30.000000,,,,0.000000,2.000000,2.000000,0.000000,4.000000,2.000000,2.000000,0.000000,0.000000,4.000000,4.000000,4.000000,4.000000,4.000000,4.000000,0.000000,,,,,,,,,,,,,,,,,10.000000,0.000000,0.662883,-0.080261,-0.719849,-0.189636,0.961543,0.145526,-0.054694,-66.001144,39.328270,44.439945
1732155862.206051,1732155862.207076,41.000000,0.000000,4290.128418,4281.538574,4329.743652,4302.436035,4268.589844,4296.025879,4347.436035,4390.641113,4303.717773,4278.846191,4428.205078,4473.974121,4323.077148,4383.077148,0.000000,1.000000,30.000000,,,,0.000000,2.000000,2.000000,0.000000,4.000000,2.000000,2.000000,0.000000,0.000000,4.000000,4.000000,4.000000,4.000000,4.000000,4.000000,0.000000,,,,,,,,,,,,,,,,,,,,,,,,,,,,
1732155862.213859,1732155862.215084,42.000000,0.000000,4292.051270,4282.051270,4326.922852,4300.512695,4271.410156,4294.615234,4344.871582,4390.769043,4302.820313,4279.615234,4432.436035,4473.717773,4320.128418,4383.333496,0.000000,1.000000,30.000000,,,,0.000000,2.000000,2.000000,0.000000,4.000000,2.000000,2.000000,0.000000,0.000000,4.000000,4.000000,4.000000,4.000000,4.000000,4.000000,0.000000,,,,,,,,,,,,,,,,,,,,,,,,,,,,
1732155862.221667,1732155862.222892,43.000000,0.000000,4292.436035,4281.538574,4325.000000,4301.025879,4269.230957,4293.333496,4346.410156,4390.512695,4305.641113,4279.615234,4431.922852,4470.256348,4320.897461,4383.846191,0.000000,1.000000,30.000000,,,,0.000000,2.000000,2.000000,0.000000,4.000000,2.000000,2.000000,0.000000,0.000000,4.000000,4.000000,4.000000,4.000000,4.000000,4.000000,0.000000,,,,,,,,,,,,,,,,,,,,,,,,,,,,
1732155862.229476,1732155862.230800,44.000000,0.000000,4289.102539,4278.717773,4322.948730,4299.102539,4275.000000,4290.256348,4347.436035,4391.794922,4305.000000,4278.589844,4428.077148,4468.461426,4320.897461,4382.563965,0.000000,1.000000,30.000000,,,,0.000000,2.000000,2.000000,0.000000,4.000000,2.000000,2.000000,0.000000,0.000000,4.000000,4.000000,4.000000,4.000000,4.000000,4.000000,0.000000,,,,,,,,,,,,,,,,,11.000000,0.000000,0.664067,-0.084290,-0.718872,-0.187439,0.963008,0.145526,-0.045904,-66.060928,39.040901,44.381355
1732155862.237284,1732155862.238608,45.000000,0.000000,4289.743652,4279.871582,4321.025879,4299.358887,4272.820313,4290.897461,4344.230957,4392.179688,4302.179688,4278.717773,4429.230957,4472.179688,4320.256348,4385.128418,0.000000,1.000000,30.000000,,,,0.000000,2.000000,2.000000,0.000000,4.000000,2.000000,2.000000,0.000000,0.000000,4.000000,4.000000,4.000000,4.000000,4.000000,4.000000,0.000000,,,,,,,,,,,,,,,,,,,,,,,,,,,,
1732155862.245092,1732155862.246616,46.000000,0.000000,4291.794922,4282.436035,4315.769043,4303.077148,4279.615234,4290.384766,4343.974121,4388.205078,4296.794922,4277.948730,4430.512695,4472.692383,4322.051270,4386.025879,0.000000,1.000000,30.000000,,,,0.000000,2.000000,2.000000,0.000000,4.000000,2.000000,2.000000,0.000000,0.000000,4.000000,4.000000,4.000000,4.000000,4.000000,4.000000,0.000000,,,,,,,,,,,,,,,,,,,,,,,,,,,,
1732155862.252900,1732155862.254424,47.000000,0.000000,4290.128418,4282.563965,4315.384766,4302.563965,4293.589844,4284.871582,4344.743652,4386.794922,4294.358887,4275.897461,4427.436035,4467.307617,4321.794922,4384.487305,0.000000,1.000000,30.000000,,,,0.000000,2.000000,2.000000,0.000000,4.000000,2.000000,2.000000,0.000000,0.000000,4.000000,4.000000,4.000000,4.000000,4.000000,4.000000,0.000000,,,,,,,,,,,,,,,,,,,,,,,,,,,,
1732155862.260708,1732155862.262332,48.000000,0.000000,4291.794922,4283.461426,4315.128418,4302.436035,4277.307617,4285.897461,4341.282227,4391.025879,4296.538574,4276.538574,4427.563965,4468.333496,4324.102539,4389.615234,0.000000,1.000000,30.000000,,,,0.000000,2.000000,2.000000,0.000000,4.000000,2.000000,2.000000,0.000000,0.000000,4.000000,4.000000,4.000000,4.000000,4.000000,4.000000,0.000000,,,,,,,,,,,,,,,,,12.000000,0.000000,0.664731,-0.086731,-0.718079,-0.187012,0.969845,0.134782,-0.053229,-66.016014,38.931461,44.398895
1732155862.268517,1732155862.270141,49.000000,0.000000,4291.922852,4279.615234,4313.717773,4300.512695,4255.897461,4294.230957,4339.358887,4391.666504,4302.179688,4280.641113,4429.102539,4476.153809,4324.230957,4388.846191,0.000000,1.000000,30.000000,,,,0.000000,2.000000,2.000000,0.000000,4.000000,2.000000,2.000000,0.000000,0.000000,4.000000,4.000000,4.000000,4.000000,4.000000,4.000000,0.000000,,,,,,,,,,,,,,,,,,,,,,,,,,,,
1732155862.276325,1732155862.277749,50.000000,0.000000,4285.512695,4274.615234,4312.820313,4295.512695,4268.333496,4296.282227,4341.922852,4389.358887,4307.820313,4282.692383,4427.307617,4478.205078,4317.179688,4381.410156,0.000000,1.000000,30.000000,,,,0.000000,2.000000,2.000000,0.000000,4.000000,2.000000,2.000000,0.000000,0.000000,4.000000,4.000000,4.000000,4.000000,4.000000,4.000000,0.000000,,,,,,,,,,,,,,,,,,,,,,,,,,,,
1732155862.284133,1732155862.285557,51.000000,0.000000,4286.794922,4279.230957,4312.820313,4297.692383,4277.948730,4286.666504,4342.179688,4389.487305,4307.051270,4280.256348,4426.538574,4472.307617,4316.282227,4383.205078,0.000000,1.000000,30.000000,,,,0.000000,2.000000,2.000000,0.000000,4.000000,2.000000,2.000000,0.000000,0.000000,4.000000,4.000000,4.000000,4.000000,4.000000,4.000000,0.000000,,,,,,,,,,,,,,,,,,,,,,,,,,,,
1732155862.291942,1732155862.293465,52.000000,0.000000,4292.692383,4289.102539,4311.794922,4304.615234,4271.282227,4284.358887,4341.538574,4388.717773,4298.846191,4277.179688,4427.051270,4469.871582,4319.487305,4386.666504,0.000000,1.000000,30.000000,,,,0.000000,2.000000,2.000000,0.000000,4.000000,2.000000,2.000000,0.000000,0.000000,4.000000,4.000000,4.000000,4.000000,4.000000,4.000000,0.000000,,,,,,,,,,,,,,,,,13.000000,0.000000,0.665113,-0.087769,-0.717773,-0.186340,0.967403,0.132340,-0.038091,-65.949638,38.744484,44.531441
1732155862.299750,1732155862.301274,53.000000,0.000000,4293.205078,4286.153809,4312.948730,4303.846191,4274.487305,4288.461426,4344.615234,4385.512695,4297.692383,4276.282227,4425.897461,4472.436035,4317.307617,4385.256348,0.000000,1.000000,30.000000,,,,0.000000,2.000000,2.000000,0.000000,4.000000,2.000000,2.000000,0.000000,0.000000,4.000000,4.000000,4.000000,4.000000,4.000000,4.000000,0.000000,,,,,,,,,,,,,,,,,,,,,,,,,,,,
1732155862.307558,1732155862.308882,54.000000,0.000000,4293.333496,4285.512695,4318.974121,4302.051270,4273.205078,4288.717773,4347.307617,4387.563965,4302.051270,4279.743652,4427.948730,4477.948730,4314.358887,4389.615234,0.000000,1.000000,30.000000,,,,0.000000,2.000000,2.000000,0.000000,4.000000,2.000000,2.000000,0.000000,0.000000,4.000000,4.000000,4.000000,4.000000,4.000000,4.000000,0.000000,,,,,,,,,,,,,,,,,,,,,,,,,,,,
1732155862.315366,1732155862.316690,55.000000,0.000000,4295.769043,4293.717773,4320.384766,4306.153809,4276.794922,4287.436035,4346.794922,4392.179688,4298.461426,4279.487305,4427.692383,4475.512695,4315.512695,4392.820313,0.000000,1.000000,30.000000,,,,0.000000,2.000000,2.000000,0.000000,4.000000,2.000000,2.000000,0.000000,0.000000,4.000000,4.000000,4.000000,4.000000,4.000000,4.000000,0.000000,,,,,,,,,,,,,,,,,,,,,,,,,,,,
1732155862.323174,1732155862.324399,56.000000,0.000000,4295.769043,4294.230957,4319.487305,4306.025879,4290.641113,4285.897461,4346.666504,4393.333496,4295.384766,4273.589844,4421.794922,4468.077148,4311.666504,4386.794922,0.000000,1.000000,30.000000,,,,0.000000,2.000000,2.000000,0.000000,4.000000,2.000000,2.000000,0.000000,0.000000,4.000000,4.000000,4.000000,4.000000,4.000000,4.000000,0.000000,,,,,,,,,,,,,,,,,14.000000,0.000000,0.665113,-0.087769,-0.717773,-0.186340,0.967403,0.132340,-0.038091,-65.895874,38.698032,44.683800
1732155862.330983,1732155862.332207,57.000000,0.000000,4291.666504,4289.487305,4319.487305,4305.000000,4279.743652,4286.025879,4346.282227,4391.025879,4298.205078,4272.820313,4419.102539,4469.230957,4308.077148,4381.153809,0.000000,1.000000,30.000000,,,,0.000000,2.000000,2.000000,0.000000,4.000000,2.000000,2.000000,0.000000,0.000000,4.000000,4.000000,4.000000,4.000000,4.000000,4.000000,0.000000,,,,,,,,,,,,,,,,,,,,,,,,,,,,
1732155862.338791,1732155862.339815,58.000000,0.000000,4285.000000,4289.743652,4322.436035,4306.410156,4258.589844,4289.102539,4346.922852,4391.025879,4300.256348,4274.487305,4418.461426,4471.538574,4310.769043,4380.897461,0.000000,1.000000,30.000000,,,,0.000000,2.000000,2.000000,0.000000,4.000000,2.000000,2.000000,0.000000,0.000000,4.000000,4.000000,4.000000,4.000000,4.000000,4.000000,0.000000,,,,,,,,,,,,,,,,,,,,,,,,,,,,
1732155862.346599,1732155862.347623,59.000000,0.000000,4283.846191,4290.256348,4320.769043,4305.769043,4260.384766,4291.794922,4346.666504,4391.153809,4298.333496,4273.717773,4420.128418,4471.794922,4313.461426,4383.717773,0.000000,1.000000,30.000000,,,,0.000000,2.000000,2.000000,0.000000,4.000000,2.000000,2.000000,0.000000,0.000000,4.000000,4.000000,4.000000,4.000000,4.000000,4.000000,0.000000,,,,,,,,,,,,,,,,,,,,,,,,,,,,
1732155862.354407,1732155862.355332,60.000000,0.000000,4290.897461,4287.692383,4318.589844,4305.384766,4268.974121,4287.820313,4347.051270,4387.948730,4297.179688,4276.410156,4425.512695,4474.615234,4315.897461,4389.358887,0.000000,1.000000,30.000000,,,,0.000000,2.000000,2.000000,0.000000,4.000000,2.000000,2.000000,0.000000,0.000000,4.000000,4.000000,4.000000,4.000000,4.000000,4.000000,0.000000,,,,,,,,,,,,,,,,,15.000000,0.000000,0.666983,-0.089539,-0.716370,-0.184204,0.965450,0.148944,-0.029789,-66.015656,38.808739,44.747211
1732155862.362216,1732155862.363140,61.000000,0.000000,4292.692383,4288.589844,4312.948730,4306.282227,4268.205078,4285.256348,4345.128418,4385.897461,4301.538574,4281.666504,4428.333496,4476.410156,4318.461426,4390.641113,0.000000,1.000000,30.000000,,,,0.000000,2.000000,2.000000,0.000000,4.000000,2.000000,2.000000,0.000000,0.000000,4.000000,4.000000,4.000000,4.000000,4.000000,4.000000,0.000000,,,,,,,,,,,,,,,,,,,,,,,,,,,,
1732155862.370024,1732155862.370748,62.000000,0.000000,4289.487305,4287.563965,4313.205078,4302.179688,4267.436035,4285.897461,4341.153809,4388.077148,4302.179688,4280.384766,4427.307617,4474.743652,4318.589844,4388.974121,0.000000,1.000000,30.000000,,,,0.000000,2.000000,2.000000,0.000000,4.000000,2.000000,2.000000,0.000000,0.000000,4.000000,4.000000,4.000000,4.000000,4.000000,4.000000,0.000000,,,,,,,,,,,,,,,,,,,,,,,,,,,,
1732155862.377832,1732155862.378557,63.000000,0.000000,4291.922852,4280.000000,4315.769043,4300.769043,4269.487305,4287.051270,4340.000000,4388.077148,4297.563965,4276.922852,4426.922852,4475.641113,4316.025879,4390.512695,0.000000,1.000000,30.000000,,,,0.000000,2.000000,2.000000,0.000000,4.000000,2.000000,2.000000,0.000000,0.000000,4.000000,4.000000,4.000000,4.000000,4.000000,4.000000,0.000000,,,,,,,,,,,,,,,,,,,,,,,,,,,,
1732155862.385640,1732155862.386265,64.000000,0.000000,4291.153809,4278.974121,4314.358887,4303.974121,4275.512695,4288.589844,4343.205078,4385.512695,4297.051270,4278.846191,4427.820313,4477.179688,4314.487305,4390.000000,0.000000,1.000000,30.000000,,,,0.000000,2.000000,2.000000,0.000000,4.000000,2.000000,2.000000,0.000000,0.000000,4.000000,4.000000,4.000000,4.000000,4.000000,4.000000,0.000000,,,,,,,,,,,,,,,,,16.000000,0.000000,0.667763,-0.090332,-0.715637,-0.183838,0.981077,0.144549,-0.034184,-65.934349,38.651745,44.673573
1732155862.393448,1732155862.394073,65.000000,0.000000,4285.897461,4281.794922,4310.512695,4302.051270,4276.666504,4288.974121,4346.538574,4386.794922,4299.102539,4281.538574,4427.563965,4477.051270,4313.077148,4387.307617,1624.000000,1.000000,30.000000,,,,0.000000,2.000000,2.000000,0.000000,4.000000,2.000000,2.000000,0.000000,0.000000,4.000000,4.000000,4.000000,4.000000,4.000000,4.000000,0.000000,,,,,,,,,,,,,,,,,,,,,,,,,,,,
1732155862.401257,1732155862.402081,66.000000,0.000000,4285.128418,4281.282227,4314.487305,4297.948730,4274.102539,4289.487305,4344.358887,4389.102539,4296.666504,4277.692383,4426.025879,4476.410156,4311.922852,4387.051270,1434.000000,1.000000,30.000000,,,,0.000000,2.000000,2.000000,0.000000,4.000000,2.000000,2.000000,0.000000,0.000000,4.000000,4.000000,4.000000,4.000000,4.000000,4.000000,0.000000,,,,,,,,,,,,,,,,,,,,,,,,,,,,
1732155862.409065,1732155862.409889,67.000000,0.000000,4283.974121,4277.948730,4317.948730,4295.512695,4287.051270,4289.487305,4340.769043,4388.333496,4294.230957,4270.769043,4420.897461,4475.384766,4310.897461,4384.615234,1444.000000,1.000000,30.000000,,,,0.000000,2.000000,2.000000,0.000000,4.000000,2.000000,2.000000,0.000000,0.000000,4.000000,4.000000,4.000000,4.000000,4.000000,4.000000,0.000000,,,,,,,,,,,,,,,,,,,,,,,,,,,,
1732155862.416873,1732155862.417598,68.000000,0.000000,4279.871582,4277.436035,4316.025879,4293.205078,4287.692383,4292.563965,4342.436035,4388.846191,4296.410156,4272.307617,4416.410156,4473.205078,4307.948730,4380.256348,1414.000000,1.000000,30.000000,,,,0.000000,2.000000,2.000000,0.000000,4.000000,2.000000,2.000000,0.000000,0.000000,4.000000,4.000000,4.000000,4.000000,4.000000,4.000000,0.000000,,,,,,,,,,,,,,,,,17.000000,0.000000,0.667763,-0.090332,-0.715637,-0.183838,0.971798,0.132340,-0.031742,-65.883492,38.584579,44.748928
1732155862.424682,1732155862.425406,69.000000,0.000000,4280.897461,4280.384766,4314.871582,4294.358887,4268.846191,4297.948730,4344.102539,4389.487305,4302.051270,4282.436035,4418.589844,4472.436035,4310.641113,4380.641113,1259.000000,1.000000,30.000000,,,,0.000000,2.000000,2.000000,0.000000,4.000000,2.000000,2.000000,0.000000,0.000000,4.000000,4.000000,4.000000,4.000000,4.000000,4.000000,0.000000,,,,,,,,,,,,,,,,,,,,,,,,,,,,
1732155862.432490,1732155862.433014,70.000000,0.000000,4285.384766,4286.025879,4313.974121,4299.358887,4265.384766,4297.692383,4341.410156,4385.128418,4307.820313,4287.563965,4425.641113,4474.230957,4317.436035,4381.922852,0.000000,1.000000,30.000000,,,,0.000000,2.000000,2.000000,0.000000,4.000000,2.000000,2.000000,0.000000,0.000000,4.000000,4.000000,4.000000,4.000000,4.000000,4.000000,0.000000,,,,,,,,,,,,,,,,,,,,,,,,,,,,
1732155862.440298,1732155862.440822,71.000000,0.000000,4283.205078,4286.794922,4315.000000,4298.333496,4273.461426,4289.871582,4341.410156,4383.589844,4304.487305,4284.615234,4428.717773,4474.871582,4319.102539,4382.179688,0.000000,1.000000,30.000000,,,,0.000000,2.000000,2.000000,0.000000,4.000000,2.000000,2.000000,0.000000,0.000000,4.000000,4.000000,4.000000,4.000000,4.000000,4.000000,0.000000,,,,,,,,,,,,,,,,,,,,,,,,,,,,
1732155862.448106,1732155862.448530,72.000000,0.000000,4279.871582,4281.025879,4315.512695,4295.384766,4271.282227,4287.692383,4342.692383,4387.307617,4298.205078,4280.897461,4426.153809,4471.282227,4319.102539,4382.948730,1546.000000,1.000000,30.000000,,,,0.000000,2.000000,2.000000,0.000000,4.000000,2.000000,2.000000,0.000000,0.000000,4.000000,4.000000,4.000000,4.000000,4.000000,4.000000,0.000000,,,,,,,,,,,,,,,,,18.000000,0.000000,0.668900,-0.091370,-0.714600,-0.183228,0.974240,0.146014,-0.020999,-66.048958,38.318512,44.593300
1732155862.455915,1732155862.456338,73.000000,0.000000,4284.615234,4282.563965,4317.179688,4297.820313,4270.769043,4287.179688,4343.589844,4388.846191,4299.102539,4282.307617,4427.307617,4469.230957,4322.692383,4384.358887,1710.000000,1.000000,30.000000,,,,0.000000,2.000000,2.000000,0.000000,4.000000,2.000000,2.000000,0.000000,0.000000,4.000000,4.000000,4.000000,4.000000,4.000000,4.000000,0.000000,,,,,,,,,,,,,,,,,,,,,,,,,,,,
1732155862.463723,1732155862.463947,74.000000,0.000000,4289.487305,4290.000000,4314.487305,4299.487305,4274.615234,4283.205078,4344.743652,4385.384766,4302.820313,4287.051270,4431.922852,4473.077148,4323.717773,4385.256348,1546.000000,1.000000,30.000000,,,,0.000000,2.000000,2.000000,0.000000,4.000000,2.000000,2.000000,0.000000,0.000000,4.000000,4.000000,4.000000,4.000000,4.000000,4.000000,0.000000,,,,,,,,,,,,,,,,,,,,,,,,,,,,
1732155862.471531,1732155862.471755,75.000000,0.000000,4287.563965,4289.230957,4314.871582,4298.077148,4273.589844,4281.794922,4344.871582,4383.846191,4300.128418,4284.487305,4430.512695,4474.871582,4319.230957,4382.692383,1586.000000,1.000000,30.000000,,,,0.000000,2.000000,2.000000,0.000000,4.000000,2.000000,2.000000,0.000000,0.000000,4.000000,4.000000,4.000000,4.000000,4.000000,4.000000,0.000000,,,,,,,,,,,,,,,,,,,,,,,,,,,,
1732155862.479339,1732155862.479463,76.000000,0.000000,4286.666504,4281.922852,4312.948730,4298.205078,4285.384766,4281.666504,4342.692383,4386.282227,4294.743652,4279.487305,4427.948730,4471.794922,4316.410156,4384.102539,1733.000000,1.000000,30.000000,,,,0.000000,2.000000,2.000000,0.000000,4.000000,2.000000,2.000000,0.000000,0.000000,4.000000,4.000000,4.000000,4.000000,4.000000,4.000000,0.000000,,,,,,,,,,,,,,,,,19.000000,0.000000,0.669497,-0.092224,-0.713867,-0.183472,0.982053,0.147967,-0.019534,-65.997993,38.046326,44.578907
1732155862.487147,1732155862.487271,77.000000,0.000000,4287.820313,4280.641113,4311.410156,4300.897461,4285.256348,4282.692383,4346.153809,4388.717773,4294.102539,4279.487305,4428.589844,4472.307617,4319.230957,4392.436035,1708.000000,1.000000,30.000000,,,,0.000000,2.000000,2.000000,0.000000,4.000000,2.000000,2.000000,0.000000,0.000000,4.000000,4.000000,4.000000,4.000000,4.000000,4.000000,0.000000,,,,,,,,,,,,,,,,,,,,,,,,,,,,
1732155862.494956,1732155862.495279,78.000000,0.000000,4288.589844,4286.282227,4313.077148,4302.820313,4265.769043,4288.077148,4349.102539,4386.922852,4295.384766,4281.025879,4428.717773,4474.358887,4322.436035,4391.410156,1546.000000,1.000000,30.000000,,,,0.000000,2.000000,2.000000,0.000000,4.000000,2.000000,2.000000,0.000000,0.000000,4.000000,4.000000,4.000000,4.000000,4.000000,4.000000,0.000000,1.000000,0.000000,2.000000,2.000000,0.000000,4.000000,2.000000,2.000000,0.000000,0.000000,4.000000,3.000000,4.000000,4.000000,4.000000,4.000000,,,,,,,,,,,,
1732155862.502764,1732155862.503087,79.000000,0.000000,4292.051270,4287.307617,4317.692383,4303.333496,4264.487305,4289.743652,4343.846191,4383.461426,4296.025879,4279.615234,4428.461426,4474.743652,4321.025879,4385.897461,1586.000000,1.000000,30.000000,,,,0.000000,2.000000,2.000000,0.000000,4.000000,2.000000,2.000000,0.000000,0.000000,4.000000,4.000000,4.000000,4.000000,4.000000,4.000000,0.000000,,,,,,,,,,,,,,,,,,,,,,,,,,,,
1732155862.510572,1732155862.510995,80.000000,0.000000,4295.512695,4288.077148,4315.256348,4303.974121,4278.461426,4287.179688,4341.666504,4386.666504,4294.743652,4279.871582,4429.358887,4476.666504,4322.051270,4392.563965,1733.000000,1.000000,30.000000,,,,0.000000,2.000000,2.000000,0.000000,4.000000,2.000000,2.000000,0.000000,0.000000,4.000000,4.000000,4.000000,4.000000,4.000000,4.000000,0.000000,,,,,,,,,,,,,,,,,20.000000,0.000000,0.669850,-0.092590,-0.713379,-0.183899,0.969357,0.136735,-0.023440,-65.926704,37.837524,44.610580
1732155862.518381,1732155862.518803,81.000000,0.000000,4292.820313,4291.666504,4313.589844,4302.563965,4281.025879,4287.692383,4343.717773,4390.512695,4295.256348,4284.743652,4431.025879,4476.666504,4327.948730,4398.333496,1708.000000,1.000000,30.000000,,,,0.000000,2.000000,2.000000,0.000000,4.000000,2.000000,2.000000,0.000000,0.000000,4.000000,4.000000,4.000000,4.000000,4.000000,4.000000,0.000000,,,,,,,,,,,,,,,,,,,,,,,,,,,,
1732155862.526189,1732155862.526811,82.000000,0.000000,4290.000000,4288.589844,4314.487305,4302.820313,4275.512695,4286.666504,4343.077148,4387.563965,4295.384766,4283.974121,4431.153809,4473.077148,4328.974121,4393.077148,1546.000000,1.000000,30.000000,,,,0.000000,2.000000,2.000000,0.000000,4.000000,2.000000,2.000000,0.000000,0.000000,4.000000,4.000000,4.000000,4.000000,4.000000,4.000000,0.000000,,,,,,,,,,,,,,,,,,,,,,,,,,,,
1732155862.533997,1732155862.534619,83.000000,0.000000,4290.128418,4281.922852,4314.358887,4302.179688,4283.205078,4281.666504,4340.128418,4382.820313,4291.282227,4279.358887,4428.717773,4470.512695,4326.410156,4388.077148,1586.000000,1.000000,30.000000,,,,0.000000,2.000000,2.000000,0.000000,4.000000,2.000000,2.000000,0.000000,0.000000,4.000000,4.000000,4.000000,4.000000,4.000000,4.000000,0.000000,,,,,,,,,,,,,,,,,,,,,,,,,,,,
1732155862.541805,1732155862.542327,84.000000,0.000000,4289.102539,4284.102539,4315.256348,4301.794922,4290.769043,4283.717773,4341.025879,4387.179688,4289.358887,4279.358887,4426.153809,4471.410156,4322.051270,4386.666504,1733.000000,1.000000,30.000000,,,,0.000000,2.000000,2.000000,0.000000,4.000000,2.000000,2.000000,0.000000,0.000000,4.000000,4.000000,4.000000,4.000000,4.000000,4.000000,0.000000,,,,,,,,,,,,,,,,,21.000000,0.000000,0.669850,-0.092590,-0.713379,-0.183899,0.969357,0.136735,-0.023440,-65.988968,37.713394,44.606236
1732155862.549613,1732155862.550135,85.000000,0.000000,4292.307617,4290.256348,4315.256348,4305.128418,4280.000000,4289.487305,4341.153809,4391.922852,4294.743652,4282.051270,4427.692383,4473.846191,4320.769043,4387.179688,1708.000000,1.000000,30.000000,,,,0.000000,2.000000,2.000000,0.000000,4.000000,2.000000,2.000000,0.000000,0.000000,4.000000,4.000000,4.000000,4.000000,4.000000,4.000000,0.000000,,,,,,,,,,,,,,,,,,,,,,,,,,,,
1732155862.557422,1732155862.557744,86.000000,0.000000,4295.384766,4289.487305,4313.974121,4307.179688,4265.128418,4288.974121,4339.743652,4387.948730,4299.487305,4284.102539,4431.922852,4475.897461,4327.307617,4390.897461,1546.000000,1.000000,30.000000,,,,0.000000,2.000000,2.000000,0.000000,4.000000,2.000000,2.000000,0.000000,0.000000,4.000000,4.000000,4.000000,4.000000,4.000000,4.000000,0.000000,,,,,,,,,,,,,,,,,,,,,,,,,,,,
1732155862.565230,1732155862.565552,87.000000,0.000000,4292.563965,4287.179688,4312.307617,4304.358887,4271.025879,4287.179688,4343.461426,4384.871582,4296.922852,4286.282227,4430.641113,4475.769043,4329.102539,4391.153809,1586.000000,1.000000,30.000000,,,,0.000000,2.000000,2.000000,0.000000,4.000000,2.000000,2.000000,0.000000,0.000000,4.000000,4.000000,4.000000,4.000000,4.000000,4.000000,0.000000,,,,,,,,,,,,,,,,,,,,,,,,,,,,
1732155862.573038,1732155862.573460,88.000000,0.000000,4292.563965,4288.974121,4314.102539,4303.205078,4279.487305,4291.666504,4347.179688,4388.589844,4297.692383,4287.692383,4428.333496,4475.384766,4322.563965,4385.128418,1733.000000,1.000000,30.000000,,,,0.000000,2.000000,2.000000,0.000000,4.000000,2.000000,2.000000,0.000000,0.000000,4.000000,4.000000,4.000000,4.000000,4.000000,4.000000,0.000000,,,,,,,,,,,,,,,,,22.000000,0.000000,0.670486,-0.093933,-0.712463,-0.184448,0.981565,0.125992,-0.015139,-65.891060,37.544518,44.551052
1732155862.580846,1732155862.581268,89.000000,0.000000,4293.974121,4288.846191,4314.358887,4304.102539,4279.487305,4293.461426,4341.282227,4388.974121,4298.846191,4282.820313,4426.666504,4469.230957,4321.410156,4382.051270,1708.000000,1.000000,30.000000,,,,0.000000,2.000000,2.000000,0.000000,4.000000,2.000000,2.000000,0.000000,0.000000,4.000000,4.000000,4.000000,4.000000,4.000000,4.000000,0.000000,,,,,,,,,,,,,,,,,,,,,,,,,,,,
1732155862.588655,1732155862.589276,90.000000,0.000000,4288.333496,4284.615234,4316.025879,4297.307617,4289.102539,4286.410156,4336.666504,4386.282227,4290.512695,4274.871582,4423.461426,4458.717773,4318.974121,4382.179688,1546.000000,1.000000,30.000000,,,,0.000000,2.000000,2.000000,0.000000,4.000000,2.000000,2.000000,0.000000,0.000000,4.000000,4.000000,4.000000,4.000000,4.000000,4.000000,0.000000,,,,,,,,,,,,,,,,,,,,,,,,,,,,
1732155862.596463,1732155862.597084,91.000000,0.000000,4288.589844,4284.615234,4313.461426,4297.692383,4286.025879,4283.333496,4341.922852,4386.794922,4289.230957,4273.589844,4423.333496,4459.230957,4314.615234,4381.794922,1586.000000,1.000000,30.000000,,,,0.000000,2.000000,2.000000,0.000000,4.000000,2.000000,2.000000,0.000000,0.000000,4.000000,4.000000,4.000000,4.000000,4.000000,4.000000,0.000000,,,,,,,,,,,,,,,,,,,,,,,,,,,,
1732155862.604271,1732155862.604992,92.000000,0.000000,4296.410156,4288.461426,4314.102539,4303.717773,4265.769043,4286.922852,4348.077148,4386.538574,4295.000000,4277.051270,4423.717773,4463.974121,4318.077148,4382.051270,1733.000000,1.000000,30.000000,,,,0.000000,2.000000,2.000000,0.000000,4.000000,2.000000,2.000000,0.000000,0.000000,4.000000,4.000000,4.000000,4.000000,4.000000,4.000000,0.000000,,,,,,,,,,,,,,,,,23.000000,0.000000,0.670612,-0.094421,-0.712280,-0.184448,0.970333,0.130875,-0.017092,-65.855095,37.544392,44.564686
1732155862.612079,1732155862.612800,93.000000,0.000000,4296.153809,4286.153809,4316.922852,4300.000000,4265.256348,4289.743652,4344.615234,4382.948730,4294.230957,4275.512695,4420.000000,4458.077148,4317.436035,4382.692383,1708.000000,1.000000,30.000000,,,,0.000000,2.000000,2.000000,0.000000,4.000000,2.000000,2.000000,0.000000,0.000000,4.000000,4.000000,4.000000,4.000000,4.000000,4.000000,0.000000,,,,,,,,,,,,,,,,,,,,,,,,,,,,
1732155862.619887,1732155862.620808,94.000000,0.000000,4292.179688,4282.436035,4319.102539,4296.794922,4273.333496,4289.615234,4339.230957,4382.948730,4294.102539,4273.846191,4418.717773,4458.846191,4312.179688,4381.025879,1546.000000,1.000000,30.000000,,,,0.000000,2.000000,2.000000,0.000000,4.000000,2.000000,2.000000,0.000000,0.000000,4.000000,4.000000,4.000000,4.000000,4.000000,4.000000,0.000000,,,,,,,,,,,,,,,,,,,,,,,,,,,,
1732155862.627696,1732155862.628617,95.000000,0.000000,4295.128418,4284.230957,4315.256348,4303.717773,4272.436035,4285.897461,4338.974121,4385.641113,4298.077148,4276.922852,4425.128418,4467.436035,4312.820313,4380.256348,1586.000000,1.000000,30.000000,,,,0.000000,2.000000,2.000000,0.000000,4.000000,2.000000,2.000000,0.000000,0.000000,4.000000,4.000000,4.000000,4.000000,4.000000,4.000000,0.000000,,,,,,,,,,,,,,,,,,,,,,,,,,,,
1732155862.635504,1732155862.636525,96.000000,0.000000,4294.487305,4285.769043,4315.128418,4299.487305,4280.512695,4281.794922,4341.538574,4386.666504,4291.922852,4273.974121,4423.974121,4464.743652,4313.077148,4382.051270,1733.000000,1.000000,30.000000,,,,0.000000,2.000000,2.000000,0.000000,4.000000,2.000000,2.000000,0.000000,0.000000,4.000000,4.000000,4.000000,4.000000,4.000000,4.000000,0.000000,,,,,,,,,,,,,,,,,24.000000,0.000000,0.670634,-0.094604,-0.712219,-0.184509,0.970333,0.130875,-0.017092,-66.014290,37.567623,44.615726
1732155862.643312,1732155862.644333,97.000000,0.000000,4290.641113,4282.948730,4316.025879,4289.487305,4286.922852,4284.487305,4340.641113,4385.641113,4286.153809,4269.615234,4420.256348,4465.128418,4313.205078,4380.897461,1708.000000,1.000000,30.000000,,,,0.000000,2.000000,2.000000,0.000000,4.000000,2.000000,2.000000,0.000000,0.000000,4.000000,4.000000,4.000000,4.000000,4.000000,4.000000,0.000000,,,,,,,,,,,,,,,,,,,,,,,,,,,,
1732155862.651121,1732155862.652341,98.000000,0.000000,4291.922852,4282.948730,4314.102539,4297.692383,4270.897461,4288.333496,4340.128418,4383.205078,4293.589844,4277.436035,4426.794922,4473.461426,4323.461426,4379.358887,1546.000000,1.000000,30.000000,,,,0.000000,2.000000,2.000000,0.000000,4.000000,2.000000,2.000000,0.000000,0.000000,4.000000,4.000000,4.000000,4.000000,4.000000,4.000000,0.000000,,,,,,,,,,,,,,,,,,,,,,,,,,,,
1732155862.658929,1732155862.660149,99.000000,0.000000,4292.692383,4284.743652,4312.692383,4305.000000,4259.102539,4284.615234,4341.794922,4382.820313,4295.769043,4283.846191,4431.922852,4475.769043,4328.846191,4385.128418,1586.000000,1.000000,30.000000,,,,0.000000,2.000000,2.000000,0.000000,4.000000,2.000000,2.000000,0.000000,0.000000,4.000000,4.000000,4.000000,4.000000,4.000000,4.000000,0.000000,,,,,,,,,,,,,,,,,,,,,,,,,,,,
1732155862.666737,1732155862.668057,100.000000,0.000000,4293.717773,4283.461426,4314.358887,4297.563965,4275.256348,4280.384766,4342.051270,4385.128418,4293.077148,4280.384766,4431.025879,4476.153809,4325.769043,4391.025879,1733.000000,1.000000,30.000000,,,,0.000000,2.000000,2.000000,0.000000,4.000000,2.000000,2.000000,0.000000,0.000000,4.000000,4.000000,4.000000,4.000000,4.000000,4.000000,0.000000,,,,,,,,,,,,,,,,,25.000000,0.000000,0.670448,-0.094971,-0.712219,-0.184998,0.974240,0.150897,-0.018557,-65.971581,37.528111,44.718739
1732155862.674545,1732155862.675865,101.000000,0.000000,4293.461426,4283.333496,4314.487305,4293.846191,4288.717773,4282.436035,4342.307617,4387.563965,4294.487305,4278.333496,4431.282227,4478.717773,4325.897461,4387.563965,1708.000000,1.000000,30.000000,,,,0.000000,2.000000,2.000000,0.000000,4.000000,2.000000,2.000000,0.000000,0.000000,4.000000,4.000000,4.000000,4.000000,4.000000,4.000000,0.000000,,,,,,,,,,,,,,,,,,,,,,,,,,,,
1732155862.682353,1732155862.683474,102.000000,0.000000,4292.051270,4286.666504,4311.666504,4298.974121,4274.743652,4288.461426,4343.717773,4385.256348,4294.230957,4281.282227,4433.077148,4476.410156,4329.358887,4387.820313,1546.000000,1.000000,30.000000,,,,0.000000,2.000000,2.000000,0.000000,4.000000,2.000000,2.000000,0.000000,0.000000,4.000000,4.000000,4.000000,4.000000,4.000000,4.000000,0.000000,,,,,,,,,,,,,,,,,,,,,,,,,,,,
1732155862.690162,1732155862.691282,103.000000,0.000000,4293.974121,4287.820313,4311.922852,4302.692383,4262.179688,4290.128418,4344.743652,4384.102539,4296.025879,4286.153809,4435.256348,4474.102539,4331.282227,4394.358887,1586.000000,1.000000,30.000000,,,,0.000000,2.000000,2.000000,0.000000,4.000000,2.000000,2.000000,0.000000,0.000000,4.000000,4.000000,4.000000,4.000000,4.000000,4.000000,0.000000,,,,,,,,,,,,,,,,,,,,,,,,,,,,
1732155862.697970,1732155862.699190,104.000000,0.000000,4296.922852,4286.282227,4311.025879,4303.717773,4270.897461,4286.538574,4342.051270,4387.307617,4300.641113,4289.487305,4439.743652,4477.948730,4329.358887,4392.307617,1733.000000,1.000000,30.000000,,,,0.000000,2.000000,2.000000,0.000000,4.000000,2.000000,2.000000,0.000000,0.000000,4.000000,4.000000,4.000000,4.000000,4.000000,4.000000,0.000000,,,,,,,,,,,,,,,,,26.000000,0.000000,0.670352,-0.094849,-0.712341,-0.184937,0.973263,0.141131,-0.032230,-66.120308,37.462769,44.602180
1732155862.705778,1732155862.706998,105.000000,0.000000,4295.769043,4285.256348,4313.205078,4300.769043,4279.102539,4283.846191,4340.128418,4388.974121,4300.256348,4285.769043,4436.538574,4478.717773,4326.410156,4387.563965,1708.000000,1.000000,30.000000,,,,0.000000,2.000000,2.000000,0.000000,4.000000,2.000000,2.000000,0.000000,0.000000,4.000000,4.000000,4.000000,4.000000,4.000000,4.000000,0.000000,,,,,,,,,,,,,,,,,,,,,,,,,,,,
1732155862.713586,1732155862.714607,106.000000,0.000000,4295.384766,4286.153809,4312.563965,4296.153809,4271.538574,4286.410156,4341.794922,4385.000000,4300.000000,4284.615234,4431.666504,4472.820313,4326.922852,4388.846191,1546.000000,1.000000,30.000000,,,,0.000000,2.000000,2.000000,0.000000,4.000000,2.000000,2.000000,0.000000,0.000000,4.000000,4.000000,4.000000,4.000000,4.000000,4.000000,0.000000,,,,,,,,,,,,,,,,,,,,,,,,,,,,
1732155862.721395,1732155862.722415,107.000000,0.000000,4295.256348,4286.282227,4312.436035,4295.384766,4270.256348,4287.436035,4342.436035,4381.025879,4300.256348,4286.025879,4433.205078,4467.179688,4327.051270,4385.384766,1586.000000,1.000000,30.000000,,,,0.000000,2.000000,2.000000,0.000000,4.000000,2.000000,2.000000,0.000000,0.000000,4.000000,4.000000,4.000000,4.000000,4.000000,4.000000,0.000000,,,,,,,,,,,,,,,,,,,,,,,,,,,,
1732155862.729203,1732155862.730123,108.000000,0.000000,4293.717773,4286.153809,4312.563965,4296.025879,4286.794922,4282.948730,4339.358887,4382.436035,4293.846191,4280.641113,4430.641113,4464.102539,4325.000000,4380.128418,1733.000000,1.000000,30.000000,,,,0.000000,2.000000,2.000000,0.000000,4.000000,2.000000,2.000000,0.000000,0.000000,4.000000,4.000000,4.000000,4.000000,4.000000,4.000000,0.000000,,,,,,,,,,,,,,,,,27.000000,0.000000,0.670355,-0.094727,-0.712402,-0.184753,0.968380,0.139665,-0.027835,-66.160782,37.628174,44.994431
1732155862.737011,1732155862.737932,109.000000,0.000000,4295.769043,4285.897461,4315.256348,4297.692383,4288.077148,4281.922852,4338.333496,4382.692383,4292.307617,4277.179688,4426.282227,4466.922852,4323.461426,4383.461426,1708.000000,1.000000,30.000000,,,,0.000000,2.000000,2.000000,0.000000,4.000000,2.000000,2.000000,0.000000,0.000000,4.000000,4.000000,4.000000,4.000000,4.000000,4.000000,0.000000,,,,,,,,,,,,,,,,,,,,,,,,,,,,
1732155862.744820,1732155862.745540,110.000000,0.000000,4297.051270,4287.563965,4314.102539,4300.897461,4270.641113,4290.000000,4340.641113,4381.666504,4297.948730,4280.897461,4429.615234,4471.666504,4324.358887,4387.307617,1546.000000,1.000000,30.000000,,,,0.000000,2.000000,2.000000,0.000000,4.000000,2.000000,2.000000,0.000000,0.000000,4.000000,4.000000,4.000000,4.000000,4.000000,4.000000,0.000000,,,,,,,,,,,,,,,,,,,,,,,,,,,,
1732155862.752628,1732155862.753348,111.000000,0.000000,4295.128418,4285.641113,4313.974121,4300.256348,4262.820313,4292.948730,4343.589844,4384.230957,4296.282227,4282.051270,4432.051270,4470.641113,4326.666504,4385.769043,1586.000000,1.000000,30.000000,,,,0.000000,2.000000,2.000000,0.000000,4.000000,2.000000,2.000000,0.000000,0.000000,4.000000,4.000000,4.000000,4.000000,4.000000,4.000000,0.000000,,,,,,,,,,,,,,,,,,,,,,,,,,,,
1732155862.760436,1732155862.761056,112.000000,0.000000,4295.384766,4280.512695,4313.077148,4297.436035,4269.871582,4284.615234,4343.846191,4387.179688,4291.666504,4279.358887,4426.922852,4462.820313,4328.077148,4383.077148,1733.000000,1.000000,30.000000,,,,0.000000,2.000000,2.000000,0.000000,4.000000,2.000000,2.000000,0.000000,0.000000,4.000000,4.000000,4.000000,4.000000,4.000000,4.000000,0.000000,,,,,,,,,,,,,,,,,28.000000,0.000000,0.670216,-0.094482,-0.712708,-0.184204,0.963008,0.134782,-0.030277,-66.130234,37.508823,44.678822
1732155862.768244,1732155862.768865,113.000000,0.000000,4296.538574,4281.282227,4313.077148,4298.077148,4281.282227,4281.538574,4341.410156,4386.025879,4292.692383,4277.563965,4425.384766,4464.230957,4324.358887,4381.410156,1708.000000,1.000000,30.000000,,,,0.000000,2.000000,2.000000,0.000000,4.000000,2.000000,2.000000,0.000000,0.000000,4.000000,4.000000,4.000000,4.000000,4.000000,4.000000,0.000000,,,,,,,,,,,,,,,,,,,,,,,,,,,,
1732155862.776052,1732155862.776473,114.000000,0.000000,4295.641113,4282.820313,4314.615234,4299.615234,4285.512695,4289.487305,4340.641113,4384.615234,4292.692383,4275.512695,4426.922852,4469.871582,4321.025879,4381.410156,1546.000000,1.000000,30.000000,,,,0.000000,2.000000,2.000000,0.000000,4.000000,2.000000,2.000000,0.000000,0.000000,4.000000,4.000000,4.000000,4.000000,4.000000,4.000000,0.000000,,,,,,,,,,,,,,,,,,,,,,,,,,,,
1732155862.783861,1732155862.784281,115.000000,0.000000,4293.077148,4282.692383,4316.025879,4298.205078,4274.230957,4295.769043,4341.538574,4383.974121,4292.692383,4277.820313,4427.307617,4465.128418,4322.436035,4380.641113,1586.000000,1.000000,30.000000,,,,0.000000,2.000000,2.000000,0.000000,4.000000,2.000000,2.000000,0.000000,0.000000,4.000000,4.000000,4.000000,4.000000,4.000000,4.000000,0.000000,,,,,,,,,,,,,,,,,,,,,,,,,,,,
1732155862.791669,1732155862.791989,116.000000,0.000000,4292.179688,4279.871582,4314.871582,4294.102539,4259.743652,4293.589844,4340.512695,4384.230957,4296.282227,4280.512695,4426.666504,4463.205078,4323.333496,4378.717773,1733.000000,1.000000,30.000000,,,,0.000000,2.000000,2.000000,0.000000,4.000000,2.000000,2.000000,0.000000,0.000000,4.000000,4.000000,4.000000,4.000000,4.000000,4.000000,0.000000,,,,,,,,,,,,,,,,,29.000000,0.000000,0.670151,-0.094055,-0.712952,-0.183716,0.978635,0.130875,-0.031254,-66.053825,37.550480,44.561512
1732155862.799477,1732155862.799797,117.000000,0.000000,4290.256348,4277.051270,4310.256348,4293.846191,4265.897461,4291.666504,4339.615234,4383.333496,4298.974121,4280.000000,4427.051270,4466.794922,4323.077148,4382.948730,1708.000000,1.000000,30.000000,,,,0.000000,2.000000,2.000000,0.000000,4.000000,2.000000,2.000000,0.000000,0.000000,4.000000,4.000000,4.000000,4.000000,4.000000,4.000000,0.000000,,,,,,,,,,,,,,,,,,,,,,,,,,,,
1732155862.807285,1732155862.807805,118.000000,0.000000,4287.436035,4280.000000,4310.641113,4297.436035,4285.384766,4292.948730,4340.769043,4381.922852,4296.922852,4280.000000,4427.179688,4462.436035,4323.717773,4383.589844,1546.000000,1.000000,30.000000,,,,0.000000,2.000000,2.000000,0.000000,4.000000,2.000000,2.000000,0.000000,0.000000,4.000000,4.000000,4.000000,4.000000,4.000000,4.000000,0.000000,,,,,,,,,,,,,,,,,,,,,,,,,,,,
1732155862.815094,1732155862.815614,119.000000,0.000000,4287.436035,4287.051270,4312.436035,4299.487305,4291.922852,4291.922852,4339.871582,4384.230957,4294.102539,4279.102539,4425.128418,4460.000000,4321.538574,4375.384766,1586.000000,1.000000,30.000000,,,,0.000000,2.000000,2.000000,0.000000,4.000000,2.000000,2.000000,0.000000,0.000000,4.000000,4.000000,4.000000,4.000000,4.000000,4.000000,0.000000,,,,,,,,,,,,,,,,,,,,,,,,,,,,
1732155862.822902,1732155862.823522,120.000000,0.000000,4294.358887,4285.384766,4314.487305,4300.384766,4276.153809,4287.051270,4340.128418,4389.102539,4295.128418,4279.102539,4426.666504,4470.128418,4320.769043,4375.641113,1733.000000,1.000000,30.000000,,,,0.000000,2.000000,2.000000,0.000000,4.000000,2.000000,2.000000,0.000000,0.000000,4.000000,4.000000,4.000000,4.000000,4.000000,4.000000,0.000000,,,,,,,,,,,,,,,,,30.000000,0.000000,0.669910,-0.093933,-0.713257,-0.183472,0.970822,0.140154,-0.043462,-65.916931,37.625889,44.474827
1732155862.830710,1732155862.831330,121.000000,0.000000,4295.897461,4281.666504,4313.717773,4300.384766,4260.128418,4286.153809,4340.128418,4386.794922,4296.410156,4280.256348,4429.743652,4473.205078,4322.948730,4384.615234,1708.000000,1.000000,30.000000,,,,0.000000,2.000000,2.000000,0.000000,4.000000,2.000000,2.000000,0.000000,0.000000,4.000000,4.000000,4.000000,4.000000,4.000000,4.000000,0.000000,,,,,,,,,,,,,,,,,,,,,,,,,,,,
1732155862.838518,1732155862.838938,122.000000,0.000000,4287.563965,4282.948730,4313.333496,4297.179688,4275.769043,4289.615234,4340.128418,4384.615234,4291.410156,4275.256348,4423.974121,4461.666504,4317.436035,4382.051270,1546.000000,1.000000,30.000000,,,,0.000000,2.000000,2.000000,0.000000,4.000000,2.000000,2.000000,0.000000,0.000000,4.000000,4.000000,4.000000,4.000000,4.000000,4.000000,0.000000,,,,,,,,,,,,,,,,,,,,,,,,,,,,
1732155862.846326,1732155862.846746,123.000000,0.000000,4288.333496,4283.205078,4309.487305,4297.051270,4292.820313,4287.692383,4340.128418,4386.666504,4290.512695,4271.538574,4417.051270,4457.051270,4312.179688,4374.871582,1586.000000,1.000000,30.000000,,,,0.000000,2.000000,2.000000,0.000000,4.000000,2.000000,2.000000,0.000000,0.000000,4.000000,4.000000,4.000000,4.000000,4.000000,4.000000,0.000000,,,,,,,,,,,,,,,,,,,,,,,,,,,,
1732155862.854135,1732155862.854654,124.000000,0.000000,4296.410156,4281.922852,4311.410156,4301.538574,4274.871582,4284.358887,4339.487305,4385.128418,4297.436035,4277.307617,4421.922852,4463.974121,4316.025879,4379.358887,1733.000000,1.000000,30.000000,,,,0.000000,2.000000,2.000000,0.000000,4.000000,2.000000,2.000000,0.000000,0.000000,4.000000,4.000000,4.000000,4.000000,4.000000,4.000000,0.000000,,,,,,,,,,,,,,,,,31.000000,0.000000,0.669839,-0.093872,-0.713379,-0.183289,0.963008,0.136247,-0.029789,-66.066048,37.631969,44.541275
1732155862.861943,1732155862.862462,125.000000,0.000000,4298.333496,4281.410156,4314.102539,4302.563965,4257.563965,4285.897461,4340.128418,4382.563965,4299.487305,4280.128418,4427.307617,4466.025879,4316.410156,4383.077148,1708.000000,1.000000,30.000000,,,,0.000000,2.000000,2.000000,0.000000,4.000000,2.000000,2.000000,0.000000,0.000000,4.000000,4.000000,4.000000,4.000000,4.000000,4.000000,0.000000,,,,,,,,,,,,,,,,,,,,,,,,,,,,
1732155862.869751,1732155862.870071,126.000000,0.000000,4294.871582,4279.358887,4314.615234,4299.102539,4266.025879,4287.563965,4341.410156,4385.256348,4293.846191,4275.384766,4421.922852,4465.769043,4312.948730,4380.128418,1546.000000,1.000000,30.000000,,,,0.000000,2.000000,2.000000,0.000000,4.000000,2.000000,2.000000,0.000000,0.000000,4.000000,4.000000,4.000000,4.000000,4.000000,4.000000,0.000000,,,,,,,,,,,,,,,,,,,,,,,,,,,,
1732155862.877560,1732155862.877878,127.000000,0.000000,4294.358887,4277.948730,4312.179688,4299.615234,4278.077148,4288.205078,4340.256348,4385.897461,4290.512695,4273.974121,4418.589844,4471.922852,4313.846191,4380.769043,30.000000,1.000000,30.000000,,,,0.000000,2.000000,2.000000,0.000000,4.000000,2.000000,2.000000,0.000000,0.000000,4.000000,4.000000,4.000000,4.000000,4.000000,4.000000,0.000000,,,,,,,,,,,,,,,,,,,,,,,,,,,,
1732155862.885368,1732155862.885587,0.000000,0.000000,4295.512695,4278.589844,4314.358887,4302.179688,4271.794922,4288.717773,4340.256348,4383.846191,4293.333496,4274.615234,4419.230957,4472.179688,4314.358887,4383.333496,0.000000,1.000000,30.000000,,,,0.000000,2.000000,2.000000,0.000000,4.000000,2.000000,2.000000,0.000000,0.000000,4.000000,4.000000,4.000000,4.000000,4.000000,4.000000,0.000000,,,,,,,,,,,,,,,,,0.000000,0.000000,0.669450,-0.093872,-0.713806,-0.183044,0.952753,0.143572,-0.033696,-66.246834,37.463562,44.491768
1732155862.893176,1732155862.893395,1.000000,0.000000,4295.256348,4277.820313,4314.487305,4299.615234,4275.897461,4288.717773,4342.436035,4385.128418,4296.666504,4274.615234,4420.256348,4462.307617,4314.743652,4382.820313,1621.000000,1.000000,30.000000,,,,0.000000,2.000000,2.000000,0.000000,4.000000,2.000000,2.000000,0.000000,0.000000,4.000000,4.000000,4.000000,4.000000,4.000000,4.000000,0.000000,,,,,,,,,,,,,,,,,,,,,,,,,,,,
1732155862.900984,1732155862.901403,2.000000,0.000000,4292.563965,4279.487305,4312.692383,4296.282227,4296.282227,4287.051270,4340.641113,4385.897461,4294.102539,4278.461426,4421.794922,4459.487305,4316.666504,4381.922852,1434.000000,1.000000,30.000000,,,,0.000000,2.000000,2.000000,0.000000,4.000000,2.000000,2.000000,0.000000,0.000000,4.000000,4.000000,4.000000,4.000000,4.000000,4.000000,0.000000,,,,,,,,,,,,,,,,,,,,,,,,,,,,
1732155862.908792,1732155862.909211,3.000000,0.000000,4286.410156,4281.282227,4313.846191,4297.179688,4282.436035,4288.333496,4339.102539,4385.897461,4291.794922,4281.282227,4424.102539,4470.256348,4315.256348,4382.692383,1441.000000,1.000000,30.000000,,,,0.000000,2.000000,2.000000,0.000000,4.000000,2.000000,2.000000,0.000000,0.000000,4.000000,4.000000,4.000000,4.000000,4.000000,4.000000,0.000000,,,,,,,,,,,,,,,,,,,,,,,,,,,,
1732155862.916601,1732155862.917119,4.000000,0.000000,4282.692383,4278.974121,4315.000000,4297.179688,4255.000000,4288.717773,4340.512695,4384.871582,4293.846191,4279.615234,4424.487305,4476.153809,4315.512695,4382.307617,1417.000000,1.000000,30.000000,,,,0.000000,2.000000,2.000000,0.000000,4.000000,2.000000,2.000000,0.000000,0.000000,4.000000,4.000000,4.000000,4.000000,4.000000,4.000000,0.000000,,,,,,,,,,,,,,,,,1.000000,0.000000,0.669257,-0.093750,-0.714050,-0.182861,0.980100,0.136247,-0.041509,-66.253265,37.572151,44.509998
1732155862.924409,1732155862.924927,5.000000,0.000000,4284.743652,4276.666504,4313.461426,4293.846191,4269.102539,4286.794922,4341.922852,4385.769043,4292.436035,4278.461426,4424.743652,4474.743652,4319.102539,4382.051270,1260.000000,1.000000,30.000000,,,,0.000000,2.000000,2.000000,0.000000,4.000000,2.000000,2.000000,0.000000,0.000000,4.000000,4.000000,4.000000,4.000000,4.000000,4.000000,0.000000,,,,,,,,,,,,,,,,,,,,,,,,,,,,
1732155862.932217,1732155862.932935,6.000000,0.000000,4290.256348,4277.179688,4311.153809,4294.615234,4285.512695,4287.436035,4342.179688,4387.692383,4290.641113,4281.794922,4425.897461,4472.563965,4318.717773,4382.948730,0.000000,1.000000,30.000000,,,,0.000000,2.000000,2.000000,0.000000,4.000000,2.000000,2.000000,0.000000,0.000000,4.000000,4.000000,4.000000,4.000000,4.000000,4.000000,0.000000,,,,,,,,,,,,,,,,,,,,,,,,,,,,
1732155862.940025,1732155862.940743,7.000000,0.000000,4288.589844,4279.230957,4311.538574,4297.179688,4266.538574,4287.179688,4343.333496,4387.563965,4293.974121,4283.846191,4426.794922,4469.230957,4317.563965,4380.897461,0.000000,1.000000,30.000000,,,,0.000000,2.000000,2.000000,0.000000,4.000000,2.000000,2.000000,0.000000,0.000000,4.000000,4.000000,4.000000,4.000000,4.000000,4.000000,0.000000,,,,,,,,,,,,,,,,,,,,,,,,,,,,
1732155862.947834,1732155862.948651,8.000000,0.000000,4279.871582,4278.077148,4311.153809,4300.256348,4257.692383,4290.897461,4344.871582,4385.512695,4295.512695,4283.333496,4427.436035,4470.512695,4314.487305,4375.128418,1546.000000,1.000000,30.000000,,,,0.000000,2.000000,2.000000,0.000000,4.000000,2.000000,2.000000,0.000000,0.000000,4.000000,4.000000,4.000000,4.000000,4.000000,4.000000,0.000000,,,,,,,,,,,,,,,,,2.000000,0.000000,0.669257,-0.093750,-0.714050,-0.182861,0.973752,0.121597,-0.039067,-66.288483,37.525108,44.614765
1732155862.955642,1732155862.956460,9.000000,0.000000,4280.128418,4276.922852,4315.000000,4303.205078,4276.922852,4295.769043,4346.025879,4383.205078,4294.871582,4281.666504,4423.077148,4474.487305,4305.769043,4371.666504,1706.000000,1.000000,30.000000,,,,0.000000,2.000000,2.000000,0.000000,4.000000,2.000000,2.000000,0.000000,0.000000,4.000000,4.000000,4.000000,4.000000,4.000000,4.000000,0.000000,,,,,,,,,,,,,,,,,,,,,,,,,,,,
1732155862.963450,1732155862.964468,10.000000,0.000000,4283.461426,4275.641113,4312.820313,4298.717773,4290.256348,4293.205078,4342.948730,4382.307617,4295.128418,4281.153809,4422.051270,4474.102539,4306.025879,4373.974121,1546.000000,1.000000,30.000000,,,,0.000000,2.000000,2.000000,0.000000,4.000000,2.000000,2.000000,0.000000,0.000000,4.000000,4.000000,4.000000,4.000000,4.000000,4.000000,0.000000,,,,,,,,,,,,,,,,,,,,,,,,,,,,
1732155862.971258,1732155862.972276,11.000000,0.000000,4282.307617,4271.538574,4310.384766,4291.538574,4279.871582,4285.384766,4340.641113,4384.487305,4293.846191,4280.897461,4429.230957,4472.820313,4319.487305,4380.641113,1586.000000,1.000000,30.000000,,,,0.000000,2.000000,2.000000,0.000000,4.000000,2.000000,2.000000,0.000000,0.000000,4.000000,4.000000,4.000000,4.000000,4.000000,4.000000,0.000000,,,,,,,,,,,,,,,,,,,,,,,,,,,,
1732155862.979067,1732155862.980184,12.000000,0.000000,4282.948730,4272.820313,4311.025879,4296.025879,4259.871582,4286.666504,4341.538574,4387.692383,4293.717773,4282.948730,4431.922852,4476.153809,4323.205078,4383.333496,1733.000000,1.000000,30.000000,,,,0.000000,2.000000,2.000000,0.000000,4.000000,2.000000,2.000000,0.000000,0.000000,4.000000,4.000000,4.000000,4.000000,4.000000,4.000000,0.000000,,,,,,,,,,,,,,,,,3.000000,0.000000,0.668973,-0.093689,-0.714355,-0.182739,0.981077,0.127457,-0.051764,-66.347000,37.400337,44.541294
1732155862.986875,1732155862.987992,13.000000,0.000000,4285.897461,4275.512695,4314.102539,4302.307617,4260.384766,4292.948730,4342.179688,4384.743652,4295.512695,4284.615234,4428.205078,4475.256348,4313.717773,4377.948730,1710.000000,1.000000,30.000000,,,,0.000000,2.000000,2.000000,0.000000,4.000000,2.000000,2.000000,0.000000,0.000000,4.000000,4.000000,4.000000,4.000000,4.000000,4.000000,0.000000,,,,,,,,,,,,,,,,,,,,,,,,,,,,
1732155862.994683,1732155862.996000,14.000000,0.000000,4286.794922,4275.897461,4311.282227,4302.051270,4285.256348,4291.666504,4341.282227,4380.384766,4295.512695,4282.563965,4427.051270,4472.307617,4311.025879,4375.512695,1546.000000,1.000000,30.000000,,,,0.000000,2.000000,2.000000,0.000000,4.000000,2.000000,2.000000,0.000000,0.000000,4.000000,4.000000,4.000000,4.000000,4.000000,4.000000,0.000000,1.000000,0.000000,2.000000,2.000000,0.000000,4.000000,2.000000,2.000000,0.000000,0.000000,4.000000,3.000000,4.000000,4.000000,4.000000,4.000000,,,,,,,,,,,,
1732155863.002491,1732155863.003808,15.000000,0.000000,4287.307617,4275.641113,4310.641113,4300.512695,4291.282227,4290.128418,4341.410156,4381.794922,4294.615234,4280.384766,4428.717773,4474.871582,4315.641113,4381.025879,1586.000000,1.000000,30.000000,,,,0.000000,2.000000,2.000000,0.000000,4.000000,2.000000,2.000000,0.000000,0.000000,4.000000,4.000000,4.000000,4.000000,4.000000,4.000000,0.000000,,,,,,,,,,,,,,,,,,,,,,,,,,,,
1732155863.010300,1732155863.011716,16.000000,0.000000,4286.538574,4276.025879,4310.897461,4298.717773,4270.128418,4290.769043,4340.128418,4385.641113,4296.153809,4282.563965,4426.666504,4475.897461,4314.871582,4383.717773,0.000000,1.000000,30.000000,,,,0.000000,2.000000,2.000000,0.000000,4.000000,2.000000,2.000000,0.000000,0.000000,4.000000,4.000000,4.000000,4.000000,4.000000,4.000000,0.000000,,,,,,,,,,,,,,,,,4.000000,0.000000,0.668411,-0.093628,-0.714905,-0.182678,0.967892,0.130875,-0.041021,-66.377739,37.282608,44.548447
1732155863.018108,1732155863.019525,17.000000,0.000000,4282.563965,4275.256348,4310.384766,4295.641113,4255.769043,4291.538574,4341.282227,4386.282227,4299.871582,4284.102539,4427.179688,4472.563965,4311.922852,4381.025879,0.000000,1.000000,30.000000,,,,0.000000,2.000000,2.000000,0.000000,4.000000,2.000000,2.000000,0.000000,0.000000,4.000000,4.000000,4.000000,4.000000,4.000000,4.000000,0.000000,,,,,,,,,,,,,,,,,,,,,,,,,,,,
1732155863.025916,1732155863.027533,18.000000,0.000000,4281.282227,4274.743652,4311.282227,4295.128418,4263.974121,4291.794922,4343.974121,4385.641113,4299.358887,4283.717773,4429.743652,4471.410156,4315.000000,4381.282227,0.000000,1.000000,30.000000,,,,0.000000,2.000000,2.000000,0.000000,4.000000,2.000000,2.000000,0.000000,0.000000,4.000000,4.000000,4.000000,4.000000,4.000000,4.000000,0.000000,,,,,,,,,,,,,,,,,,,,,,,,,,,,
1732155863.033724,1732155863.035341,19.000000,0.000000,4283.589844,4275.000000,4311.922852,4297.436035,4281.922852,4289.230957,4342.948730,4384.743652,4294.871582,4281.666504,4429.743652,4473.974121,4321.666504,4383.333496,0.000000,1.000000,30.000000,,,,0.000000,2.000000,2.000000,0.000000,4.000000,2.000000,2.000000,0.000000,0.000000,4.000000,4.000000,4.000000,4.000000,4.000000,4.000000,0.000000,,,,,,,,,,,,,,,,,,,,,,,,,,,,
1732155863.041533,1732155863.043049,20.000000,0.000000,4283.846191,4276.922852,4311.410156,4297.307617,4277.179688,4287.179688,4343.333496,4384.487305,4294.615234,4282.436035,4429.743652,4477.179688,4323.974121,4385.512695,0.000000,1.000000,30.000000,,,,0.000000,2.000000,2.000000,0.000000,4.000000,2.000000,2.000000,0.000000,0.000000,4.000000,4.000000,4.000000,4.000000,4.000000,4.000000,0.000000,,,,,,,,,,,,,,,,,5.000000,0.000000,0.668325,-0.093323,-0.715088,-0.182434,0.980588,0.115248,-0.046392,-66.399300,37.175579,44.589241
1732155863.049341,1732155863.050857,21.000000,0.000000,4282.307617,4276.410156,4311.282227,4295.128418,4259.743652,4292.179688,4343.077148,4384.358887,4296.922852,4288.205078,4430.128418,4475.256348,4318.974121,4385.897461,0.000000,1.000000,30.000000,,,,0.000000,2.000000,2.000000,0.000000,4.000000,2.000000,2.000000,0.000000,0.000000,4.000000,4.000000,4.000000,4.000000,4.000000,4.000000,0.000000,,,,,,,,,,,,,,,,,,,,,,,,,,,,
1732155863.057149,1732155863.058466,22.000000,0.000000,4280.384766,4273.205078,4313.461426,4295.769043,4261.922852,4298.333496,4341.025879,4383.077148,4295.128418,4287.563965,4427.436035,4467.307617,4313.717773,4379.358887,0.000000,1.000000,30.000000,,,,0.000000,2.000000,2.000000,0.000000,4.000000,2.000000,2.000000,0.000000,0.000000,4.000000,4.000000,4.000000,4.000000,4.000000,4.000000,0.000000,,,,,,,,,,,,,,,,,,,,,,,,,,,,
1732155863.064957,1732155863.066274,23.000000,0.000000,4279.230957,4273.205078,4315.000000,4294.743652,4277.948730,4293.974121,4340.641113,4380.384766,4293.461426,4278.077148,4423.717773,4458.846191,4314.230957,4371.794922,0.000000,1.000000,30.000000,,,,0.000000,2.000000,2.000000,0.000000,4.000000,2.000000,2.000000,0.000000,0.000000,4.000000,4.000000,4.000000,4.000000,4.000000,4.000000,0.000000,,,,,,,,,,,,,,,,,,,,,,,,,,,,
1732155863.072765,1732155863.073982,24.000000,0.000000,4277.563965,4273.205078,4316.410156,4290.384766,4276.666504,4288.974121,4343.077148,4380.256348,4294.102539,4277.820313,4423.333496,4457.820313,4315.256348,4370.641113,0.000000,1.000000,30.000000,,,,0.000000,2.000000,2.000000,0.000000,4.000000,2.000000,2.000000,0.000000,0.000000,4.000000,4.000000,4.000000,4.000000,4.000000,4.000000,0.000000,,,,,,,,,,,,,,,,,6.000000,0.000000,0.668334,-0.093140,-0.715088,-0.182495,0.980588,0.115248,-0.046392,-66.450104,37.363884,44.477287
1732155863.080574,1732155863.081790,25.000000,0.000000,4277.051270,4270.897461,4313.205078,4293.717773,4267.179688,4292.051270,4340.128418,4382.948730,4295.000000,4286.922852,4425.769043,4461.666504,4315.897461,4372.051270,0.000000,1.000000,30.000000,,,,0.000000,2.000000,2.000000,0.000000,4.000000,2.000000,2.000000,0.000000,0.000000,4.000000,4.000000,4.000000,4.000000,4.000000,4.000000,0.000000,,,,,,,,,,,,,,,,,,,,,,,,,,,,
1732155863.088382,1732155863.089399,26.000000,0.000000,4278.846191,4271.666504,4313.461426,4297.307617,4279.487305,4289.743652,4338.846191,4381.922852,4294.615234,4287.051270,4426.922852,4462.307617,4314.358887,4371.794922,0.000000,1.000000,30.000000,,,,0.000000,2.000000,2.000000,0.000000,4.000000,2.000000,2.000000,0.000000,0.000000,4.000000,4.000000,4.000000,4.000000,4.000000,4.000000,0.000000,,,,,,,,,,,,,,,,,,,,,,,,,,,,
1732155863.096190,1732155863.097207,27.000000,0.000000,4277.436035,4273.846191,4313.589844,4293.717773,4290.641113,4285.641113,4342.051270,4379.871582,4293.846191,4282.820313,4427.692383,4462.436035,4311.410156,4374.102539,0.000000,1.000000,30.000000,,,,0.000000,2.000000,2.000000,0.000000,4.000000,2.000000,2.000000,0.000000,0.000000,4.000000,4.000000,4.000000,4.000000,4.000000,4.000000,0.000000,,,,,,,,,,,,,,,,,,,,,,,,,,,,
1732155863.103999,1732155863.104915,28.000000,0.000000,4274.102539,4271.410156,4315.384766,4293.846191,4272.051270,4289.358887,4341.794922,4383.846191,4295.128418,4285.128418,4430.512695,4466.410156,4312.563965,4377.051270,0.000000,1.000000,30.000000,,,,0.000000,2.000000,2.000000,0.000000,4.000000,2.000000,2.000000,0.000000,0.000000,4.000000,4.000000,4.000000,4.000000,4.000000,4.000000,0.000000,,,,,,,,,,,,,,,,,7.000000,0.000000,0.668204,-0.092896,-0.715210,-0.182617,0.977658,0.133317,-0.056648,-66.574585,37.434746,44.386600
1732155863.111807,1732155863.112724,29.000000,0.000000,4273.717773,4269.743652,4316.153809,4297.051270,4256.794922,4293.717773,4338.974121,4385.512695,4295.769043,4284.743652,4428.589844,4465.769043,4311.794922,4374.615234,0.000000,1.000000,30.000000,,,,0.000000,2.000000,2.000000,0.000000,4.000000,2.000000,2.000000,0.000000,0.000000,4.000000,4.000000,4.000000,4.000000,4.000000,4.000000,0.000000,,,,,,,,,,,,,,,,,,,,,,,,,,,,
1732155863.119615,1732155863.120332,30.000000,0.000000,4271.410156,4267.563965,4317.563965,4290.769043,4277.179688,4292.820313,4340.000000,4382.179688,4294.615234,4278.846191,4418.974121,4459.102539,4301.153809,4366.153809,0.000000,1.000000,30.000000,,,,0.000000,2.000000,2.000000,0.000000,4.000000,2.000000,2.000000,0.000000,0.000000,4.000000,4.000000,4.000000,4.000000,4.000000,4.000000,0.000000,,,,,,,,,,,,,,,,,,,,,,,,,,,,
1732155863.127423,1732155863.128140,31.000000,0.000000,4271.153809,4262.436035,4313.461426,4288.077148,4287.948730,4293.333496,4341.794922,4382.563965,4298.717773,4279.230957,4418.205078,4461.025879,4299.102539,4363.077148,0.000000,1.000000,30.000000,,,,0.000000,2.000000,2.000000,0.000000,4.000000,2.000000,2.000000,0.000000,0.000000,4.000000,4.000000,4.000000,4.000000,4.000000,4.000000,0.000000,,,,,,,,,,,,,,,,,,,,,,,,,,,,
1732155863.135231,1732155863.135849,32.000000,0.000000,4278.589844,4263.077148,4311.410156,4294.871582,4265.128418,4294.487305,4341.666504,4385.384766,4301.922852,4286.922852,4429.615234,4471.282227,4311.282227,4374.615234,0.000000,1.000000,30.000000,,,,0.000000,2.000000,2.000000,0.000000,4.000000,2.000000,2.000000,0.000000,0.000000,4.000000,4.000000,4.000000,4.000000,4.000000,4.000000,0.000000,,,,,,,,,,,,,,,,,8.000000,0.000000,0.668221,-0.092773,-0.715210,-0.182617,0.961543,0.134294,-0.038579,-66.673744,37.397144,44.186481
1732155863.143040,1732155863.143657,33.000000,0.000000,4282.563965,4266.410156,4313.333496,4296.410156,4259.615234,4293.461426,4343.974121,4384.487305,4298.077148,4291.282227,4432.820313,4474.871582,4316.025879,4383.333496,0.000000,1.000000,30.000000,,,,0.000000,2.000000,2.000000,0.000000,4.000000,2.000000,2.000000,0.000000,0.000000,4.000000,4.000000,4.000000,4.000000,4.000000,4.000000,0.000000,,,,,,,,,,,,,,,,,,,,,,,,,,,,
1732155863.150848,1732155863.151265,34.000000,0.000000,4279.871582,4267.179688,4317.307617,4296.410156,4272.307617,4292.051270,4345.000000,4383.077148,4297.820313,4292.436035,4430.512695,4473.461426,4314.615234,4382.307617,0.000000,1.000000,30.000000,,,,0.000000,2.000000,2.000000,0.000000,4.000000,2.000000,2.000000,0.000000,0.000000,4.000000,4.000000,4.000000,4.000000,4.000000,4.000000,0.000000,,,,,,,,,,,,,,,,,,,,,,,,,,,,
1732155863.158656,1732155863.159073,35.000000,0.000000,4283.846191,4268.077148,4318.589844,4299.102539,4273.077148,4287.820313,4340.769043,4384.871582,4303.846191,4295.384766,4433.589844,4474.743652,4318.717773,4382.436035,0.000000,1.000000,30.000000,,,,0.000000,2.000000,2.000000,0.000000,4.000000,2.000000,2.000000,0.000000,0.000000,4.000000,4.000000,4.000000,4.000000,4.000000,4.000000,0.000000,,,,,,,,,,,,,,,,,,,,,,,,,,,,
1732155863.166464,1732155863.166781,36.000000,0.000000,4287.307617,4270.769043,4312.436035,4297.563965,4280.000000,4282.563965,4337.307617,4384.102539,4300.384766,4293.461426,4431.153809,4474.102539,4318.077148,4382.692383,0.000000,1.000000,30.000000,,,,0.000000,2.000000,2.000000,0.000000,4.000000,2.000000,2.000000,0.000000,0.000000,4.000000,4.000000,4.000000,4.000000,4.000000,4.000000,0.000000,,,,,,,,,,,,,,,,,9.000000,0.000000,0.668170,-0.092896,-0.715210,-0.182739,0.979123,0.133805,-0.028812,-66.574066,37.306686,44.204384
1732155863.174273,1732155863.174589,37.000000,0.000000,4286.025879,4265.384766,4312.563965,4295.641113,4282.948730,4280.512695,4339.102539,4383.333496,4296.025879,4288.461426,4428.077148,4472.307617,4311.282227,4381.025879,0.000000,1.000000,30.000000,,,,0.000000,2.000000,2.000000,0.000000,4.000000,2.000000,2.000000,0.000000,0.000000,4.000000,4.000000,4.000000,4.000000,4.000000,4.000000,0.000000,,,,,,,,,,,,,,,,,,,,,,,,,,,,
1732155863.182081,1732155863.182597,38.000000,0.000000,4289.358887,4263.205078,4318.333496,4299.358887,4260.512695,4283.717773,4341.410156,4384.230957,4302.307617,4291.025879,4435.000000,4476.282227,4312.820313,4386.666504,0.000000,1.000000,30.000000,,,,0.000000,2.000000,2.000000,0.000000,4.000000,2.000000,2.000000,0.000000,0.000000,4.000000,4.000000,4.000000,4.000000,4.000000,4.000000,0.000000,,,,,,,,,,,,,,,,,,,,,,,,,,,,
1732155863.189889,1732155863.190406,39.000000,0.000000,4289.230957,4268.717773,4318.205078,4300.256348,4256.666504,4286.410156,4340.769043,4386.025879,4304.102539,4294.615234,4437.436035,4478.846191,4316.922852,4389.871582,0.000000,1.000000,30.000000,,,,0.000000,2.000000,2.000000,0.000000,4.000000,2.000000,2.000000,0.000000,0.000000,4.000000,4.000000,4.000000,4.000000,4.000000,4.000000,0.000000,,,,,,,,,,,,,,,,,,,,,,,,,,,,
1732155863.197697,1732155863.198114,40.000000,0.000000,4283.589844,4266.153809,4312.820313,4297.820313,4279.230957,4283.077148,4341.025879,4385.512695,4296.153809,4291.922852,4431.153809,4474.358887,4313.717773,4383.205078,0.000000,1.000000,30.000000,,,,0.000000,2.000000,2.000000,0.000000,4.000000,2.000000,2.000000,0.000000,0.000000,4.000000,4.000000,4.000000,4.000000,4.000000,4.000000,0.000000,,,,,,,,,,,,,,,,,10.000000,0.000000,0.668137,-0.092773,-0.715210,-0.182922,0.956660,0.139177,-0.032719,-66.211662,37.343418,44.197216
1732155863.205506,1732155863.205922,41.000000,0.000000,4282.948730,4263.333496,4316.538574,4297.307617,4275.128418,4284.102539,4345.384766,4385.128418,4296.025879,4290.256348,4430.000000,4472.563965,4309.615234,4381.666504,0.000000,1.000000,30.000000,,,,0.000000,2.000000,2.000000,0.000000,4.000000,2.000000,2.000000,0.000000,0.000000,4.000000,4.000000,4.000000,4.000000,4.000000,4.000000,0.000000,,,,,,,,,,,,,,,,,,,,,,,,,,,,
1732155863.213314,1732155863.213530,42.000000,0.000000,4285.128418,4269.230957,4317.563965,4295.512695,4256.794922,4289.743652,4343.461426,4385.897461,4306.153809,4295.256348,4433.974121,4475.256348,4311.282227,4384.358887,0.000000,1.000000,30.000000,,,,0.000000,2.000000,2.000000,0.000000,4.000000,2.000000,2.000000,0.000000,0.000000,4.000000,4.000000,4.000000,4.000000,4.000000,4.000000,0.000000,,,,,,,,,,,,,,,,,,,,,,,,,,,,
1732155863.221122,1732155863.221338,43.000000,0.000000,4282.051270,4265.897461,4315.256348,4294.102539,4258.717773,4291.922852,4338.333496,4385.769043,4311.794922,4300.641113,4435.256348,4476.410156,4312.563965,4382.563965,0.000000,1.000000,30.000000,,,,0.000000,2.000000,2.000000,0.000000,4.000000,2.000000,2.000000,0.000000,0.000000,4.000000,4.000000,4.000000,4.000000,4.000000,4.000000,0.000000,,,,,,,,,,,,,,,,,,,,,,,,,,,,
1732155863.228930,1732155863.229246,44.000000,0.000000,4278.846191,4257.948730,4312.948730,4293.974121,4274.871582,4290.897461,4339.102539,4385.256348,4309.615234,4300.256348,4435.256348,4475.128418,4309.615234,4380.897461,0.000000,1.000000,30.000000,,,,0.000000,2.000000,2.000000,0.000000,4.000000,2.000000,2.000000,0.000000,0.000000,4.000000,4.000000,4.000000,4.000000,4.000000,4.000000,0.000000,,,,,,,,,,,,,,,,,11.000000,0.000000,0.668196,-0.092224,-0.715210,-0.182983,0.967403,0.145526,-0.034184,-66.234779,37.594833,44.308079
1732155863.236739,1732155863.237054,45.000000,0.000000,4278.846191,4261.538574,4314.871582,4289.102539,4284.230957,4288.333496,4344.358887,4385.384766,4307.563965,4296.410156,4433.717773,4473.461426,4312.820313,4381.538574,0.000000,1.000000,30.000000,,,,0.000000,2.000000,2.000000,0.000000,4.000000,2.000000,2.000000,0.000000,0.000000,4.000000,4.000000,4.000000,4.000000,4.000000,4.000000,0.000000,,,,,,,,,,,,,,,,,,,,,,,,,,,,
1732155863.244547,1732155863.244662,46.000000,0.000000,4279.487305,4267.307617,4315.641113,4290.000000,4275.000000,4289.358887,4343.717773,4384.102539,4308.717773,4300.256348,4435.384766,4468.717773,4320.641113,4382.436035,0.000000,1.000000,30.000000,,,,0.000000,2.000000,2.000000,0.000000,4.000000,2.000000,2.000000,0.000000,0.000000,4.000000,4.000000,4.000000,4.000000,4.000000,4.000000,0.000000,,,,,,,,,,,,,,,,,,,,,,,,,,,,
1732155863.252355,1732155863.252470,47.000000,0.000000,4280.000000,4266.922852,4318.589844,4295.641113,4262.563965,4293.461426,4341.153809,4382.436035,4306.410156,4304.102539,4437.563965,4466.153809,4319.102539,4380.769043,0.000000,1.000000,30.000000,,,,0.000000,2.000000,2.000000,0.000000,4.000000,2.000000,2.000000,0.000000,0.000000,4.000000,4.000000,4.000000,4.000000,4.000000,4.000000,0.000000,,,,,,,,,,,,,,,,,,,,,,,,,,,,
1732155863.260163,1732155863.260378,48.000000,0.000000,4279.358887,4263.717773,4316.153809,4294.102539,4259.871582,4294.230957,4343.846191,4384.487305,4303.333496,4298.846191,4432.436035,4466.666504,4313.717773,4378.461426,0.000000,1.000000,30.000000,,,,0.000000,2.000000,2.000000,0.000000,4.000000,2.000000,2.000000,0.000000,0.000000,4.000000,4.000000,4.000000,4.000000,4.000000,4.000000,0.000000,,,,,,,,,,,,,,,,,12.000000,0.000000,0.668350,-0.092529,-0.715027,-0.182983,0.975217,0.139665,-0.038091,-66.236839,37.531815,44.201210
1732155863.267972,1732155863.268187,49.000000,0.000000,4279.358887,4263.205078,4312.179688,4289.615234,4266.025879,4292.051270,4345.641113,4386.153809,4305.384766,4297.051270,4429.615234,4465.769043,4313.846191,4377.179688,0.000000,1.000000,30.000000,,,,0.000000,2.000000,2.000000,0.000000,4.000000,2.000000,2.000000,0.000000,0.000000,4.000000,4.000000,4.000000,4.000000,4.000000,4.000000,0.000000,,,,,,,,,,,,,,,,,,,,,,,,,,,,
1732155863.275780,1732155863.276195,50.000000,0.000000,4278.461426,4264.487305,4314.871582,4290.897461,4280.256348,4292.436035,4344.743652,4384.358887,4307.051270,4299.615234,4430.512695,4461.666504,4313.589844,4374.871582,0.000000,1.000000,30.000000,,,,0.000000,2.000000,2.000000,0.000000,4.000000,2.000000,2.000000,0.000000,0.000000,4.000000,4.000000,4.000000,4.000000,4.000000,4.000000,0.000000,,,,,,,,,,,,,,,,,,,,,,,,,,,,
1732155863.283588,1732155863.284003,51.000000,0.000000,4279.102539,4265.000000,4319.358887,4290.384766,4280.641113,4292.051270,4344.230957,4382.051270,4306.922852,4297.563965,4428.717773,4459.230957,4313.077148,4371.282227,0.000000,1.000000,30.000000,,,,0.000000,2.000000,2.000000,0.000000,4.000000,2.000000,2.000000,0.000000,0.000000,4.000000,4.000000,4.000000,4.000000,4.000000,4.000000,0.000000,,,,,,,,,,,,,,,,,,,,,,,,,,,,
1732155863.291396,1732155863.291911,52.000000,0.000000,4280.769043,4263.333496,4318.205078,4288.717773,4257.692383,4292.563965,4345.256348,4383.077148,4309.743652,4297.948730,4428.717773,4463.205078,4317.051270,4373.333496,0.000000,1.000000,30.000000,,,,0.000000,2.000000,2.000000,0.000000,4.000000,2.000000,2.000000,0.000000,0.000000,4.000000,4.000000,4.000000,4.000000,4.000000,4.000000,0.000000,,,,,,,,,,,,,,,,,13.000000,0.000000,0.668350,-0.092529,-0.715027,-0.182983,0.972775,0.136735,-0.036137,-66.358505,37.600769,44.219646
1732155863.299204,1732155863.299719,53.000000,0.000000,4280.256348,4264.230957,4312.692383,4288.974121,4252.948730,4294.487305,4344.358887,4384.743652,4310.256348,4297.179688,4432.436035,4467.307617,4317.563965,4380.000000,0.000000,1.000000,30.000000,,,,0.000000,2.000000,2.000000,0.000000,4.000000,2.000000,2.000000,0.000000,0.000000,4.000000,4.000000,4.000000,4.000000,4.000000,4.000000,0.000000,,,,,,,,,,,,,,,,,,,,,,,,,,,,
1732155863.307013,1732155863.307727,54.000000,0.000000,4279.871582,4265.000000,4314.615234,4286.922852,4265.897461,4290.000000,4345.128418,4384.615234,4303.461426,4288.846191,4430.128418,4467.436035,4315.256348,4379.743652,0.000000,1.000000,30.000000,,,,0.000000,2.000000,2.000000,0.000000,4.000000,2.000000,2.000000,0.000000,0.000000,4.000000,4.000000,4.000000,4.000000,4.000000,4.000000,0.000000,,,,,,,,,,,,,,,,,,,,,,,,,,,,
1732155863.314821,1732155863.315535,55.000000,0.000000,4279.615234,4262.307617,4314.743652,4285.512695,4264.615234,4288.333496,4345.769043,4386.025879,4300.000000,4286.282227,4427.307617,4463.461426,4317.051270,4375.256348,0.000000,1.000000,30.000000,,,,0.000000,2.000000,2.000000,0.000000,4.000000,2.000000,2.000000,0.000000,0.000000,4.000000,4.000000,4.000000,4.000000,4.000000,4.000000,0.000000,,,,,,,,,,,,,,,,,,,,,,,,,,,,
1732155863.322629,1732155863.323443,56.000000,0.000000,4283.717773,4264.230957,4313.077148,4285.897461,4275.128418,4288.205078,4344.102539,4389.358887,4302.307617,4288.846191,4429.487305,4460.641113,4319.358887,4375.384766,0.000000,1.000000,30.000000,,,,0.000000,2.000000,2.000000,0.000000,4.000000,2.000000,2.000000,0.000000,0.000000,4.000000,4.000000,4.000000,4.000000,4.000000,4.000000,0.000000,,,,,,,,,,,,,,,,,14.000000,0.000000,0.668445,-0.093018,-0.714844,-0.183105,0.962520,0.128922,-0.044927,-66.110390,37.629959,44.081249
1732155863.330438,1732155863.331252,57.000000,0.000000,4289.615234,4267.307617,4311.410156,4287.307617,4284.487305,4288.333496,4342.692383,4387.051270,4305.384766,4288.077148,4432.307617,4465.256348,4319.487305,4379.102539,0.000000,1.000000,30.000000,,,,0.000000,2.000000,2.000000,0.000000,4.000000,2.000000,2.000000,0.000000,0.000000,4.000000,4.000000,4.000000,4.000000,4.000000,4.000000,0.000000,,,,,,,,,,,,,,,,,,,,,,,,,,,,
1732155863.338246,1732155863.339260,58.000000,0.000000,4291.538574,4268.205078,4315.128418,4291.282227,4264.743652,4294.230957,4341.794922,4382.948730,4303.974121,4288.589844,4432.051270,4473.461426,4318.974121,4381.025879,0.000000,1.000000,30.000000,,,,0.000000,2.000000,2.000000,0.000000,4.000000,2.000000,2.000000,0.000000,0.000000,4.000000,4.000000,4.000000,4.000000,4.000000,4.000000,0.000000,,,,,,,,,,,,,,,,,,,,,,,,,,,,
1732155863.346054,1732155863.347068,59.000000,0.000000,4289.615234,4270.000000,4315.000000,4293.461426,4266.282227,4297.179688,4339.871582,4384.230957,4300.000000,4288.846191,4429.871582,4474.358887,4319.102539,4381.922852,0.000000,1.000000,30.000000,,,,0.000000,2.000000,2.000000,0.000000,4.000000,2.000000,2.000000,0.000000,0.000000,4.000000,4.000000,4.000000,4.000000,4.000000,4.000000,0.000000,,,,,,,,,,,,,,,,,,,,,,,,,,,,
1732155863.353862,1732155863.354976,60.000000,0.000000,4287.692383,4270.897461,4312.307617,4289.102539,4284.615234,4292.179688,4339.871582,4386.410156,4297.563965,4285.256348,4429.358887,4468.717773,4318.461426,4381.282227,0.000000,1.000000,30.000000,,,,0.000000,2.000000,2.000000,0.000000,4.000000,2.000000,2.000000,0.000000,0.000000,4.000000,4.000000,4.000000,4.000000,4.000000,4.000000,0.000000,,,,,,,,,,,,,,,,,15.000000,0.000000,0.668344,-0.093140,-0.714844,-0.183411,0.982053,0.145037,-0.031254,-66.106079,37.568600,43.972477
1732155863.361670,1732155863.362784,61.000000,0.000000,4287.948730,4271.922852,4311.153809,4290.256348,4265.641113,4291.025879,4341.922852,4386.153809,4295.384766,4286.538574,4429.743652,4470.384766,4312.820313,4378.461426,0.000000,1.000000,30.000000,,,,0.000000,2.000000,2.000000,0.000000,4.000000,2.000000,2.000000,0.000000,0.000000,4.000000,4.000000,4.000000,4.000000,4.000000,4.000000,0.000000,,,,,,,,,,,,,,,,,,,,,,,,,,,,
1732155863.369479,1732155863.370792,62.000000,0.000000,4287.692383,4273.077148,4315.128418,4297.307617,4251.410156,4292.436035,4342.692383,4387.051270,4295.769043,4288.333496,4428.846191,4475.000000,4308.974121,4378.077148,0.000000,1.000000,30.000000,,,,0.000000,2.000000,2.000000,0.000000,4.000000,2.000000,2.000000,0.000000,0.000000,4.000000,4.000000,4.000000,4.000000,4.000000,4.000000,0.000000,,,,,,,,,,,,,,,,,,,,,,,,,,,,
1732155863.377287,1732155863.378600,63.000000,0.000000,4288.589844,4275.000000,4315.256348,4297.179688,4277.692383,4287.051270,4341.282227,4388.717773,4295.897461,4283.846191,4429.102539,4474.743652,4313.333496,4378.846191,0.000000,1.000000,30.000000,,,,0.000000,2.000000,2.000000,0.000000,4.000000,2.000000,2.000000,0.000000,0.000000,4.000000,4.000000,4.000000,4.000000,4.000000,4.000000,0.000000,,,,,,,,,,,,,,,,,,,,,,,,,,,,
1732155863.385095,1732155863.386509,64.000000,0.000000,4290.641113,4275.512695,4314.871582,4296.410156,4283.333496,4285.384766,4341.025879,4386.922852,4295.128418,4281.538574,4429.871582,4471.666504,4315.641113,4380.641113,0.000000,1.000000,30.000000,,,,0.000000,2.000000,2.000000,0.000000,4.000000,2.000000,2.000000,0.000000,0.000000,4.000000,4.000000,4.000000,4.000000,4.000000,4.000000,0.000000,,,,,,,,,,,,,,,,,16.000000,0.000000,0.668353,-0.093079,-0.714844,-0.183411,0.982053,0.145037,-0.031254,-66.244263,37.618900,44.104374
1732155863.392903,1732155863.394317,65.000000,0.000000,4292.436035,4277.563965,4316.153809,4301.282227,4262.307617,4290.000000,4341.410156,4386.153809,4294.615234,4282.563965,4429.230957,4472.307617,4313.077148,4381.794922,1619.000000,1.000000,30.000000,,,,0.000000,2.000000,2.000000,0.000000,4.000000,2.000000,2.000000,0.000000,0.000000,4.000000,4.000000,4.000000,4.000000,4.000000,4.000000,0.000000,,,,,,,,,,,,,,,,,,,,,,,,,,,,
1732155863.400712,1732155863.402325,66.000000,0.000000,4292.051270,4278.974121,4316.538574,4303.974121,4260.769043,4291.666504,4341.025879,4385.000000,4297.051270,4282.692383,4429.871582,4474.230957,4315.512695,4378.589844,1434.000000,1.000000,30.000000,,,,0.000000,2.000000,2.000000,0.000000,4.000000,2.000000,2.000000,0.000000,0.000000,4.000000,4.000000,4.000000,4.000000,4.000000,4.000000,0.000000,,,,,,,,,,,,,,,,,,,,,,,,,,,,
1732155863.408520,1732155863.410133,67.000000,0.000000,4292.051270,4276.794922,4315.128418,4299.102539,4269.102539,4293.333496,4339.487305,4383.333496,4297.307617,4282.692383,4432.179688,4473.333496,4321.410156,4376.922852,1442.000000,1.000000,30.000000,,,,0.000000,2.000000,2.000000,0.000000,4.000000,2.000000,2.000000,0.000000,0.000000,4.000000,4.000000,4.000000,4.000000,4.000000,4.000000,0.000000,,,,,,,,,,,,,,,,,,,,,,,,,,,,
1732155863.416328,1732155863.418041,68.000000,0.000000,4293.077148,4277.051270,4314.102539,4293.461426,4281.153809,4292.948730,4341.282227,4384.358887,4293.717773,4285.512695,4433.333496,4470.641113,4323.461426,4379.102539,1419.000000,1.000000,30.000000,,,,0.000000,2.000000,2.000000,0.000000,4.000000,2.000000,2.000000,0.000000,0.000000,4.000000,4.000000,4.000000,4.000000,4.000000,4.000000,0.000000,,,,,,,,,,,,,,,,,17.000000,0.000000,0.668386,-0.092957,-0.714844,-0.183350,0.964962,0.137712,-0.042974,-66.304520,37.597973,44.296207
1732155863.424136,1732155863.425849,69.000000,0.000000,4287.179688,4278.589844,4314.230957,4291.922852,4286.794922,4285.769043,4345.641113,4387.051270,4295.000000,4288.205078,4436.410156,4470.128418,4322.563965,4379.358887,1257.000000,1.000000,30.000000,,,,0.000000,2.000000,2.000000,0.000000,4.000000,2.000000,2.000000,0.000000,0.000000,4.000000,4.000000,4.000000,4.000000,4.000000,4.000000,0.000000,,,,,,,,,,,,,,,,,,,,,,,,,,,,
1732155863.431944,1732155863.433857,70.000000,0.000000,4286.410156,4278.077148,4311.794922,4295.769043,4265.384766,4281.025879,4342.692383,4385.000000,4302.563965,4292.307617,4440.641113,4473.974121,4324.743652,4379.743652,0.000000,1.000000,30.000000,,,,0.000000,2.000000,2.000000,0.000000,4.000000,2.000000,2.000000,0.000000,0.000000,4.000000,4.000000,4.000000,4.000000,4.000000,4.000000,0.000000,,,,,,,,,,,,,,,,,,,,,,,,,,,,
1732155863.439753,1732155863.441665,71.000000,0.000000,4292.820313,4272.563965,4312.692383,4298.717773,4254.230957,4284.871582,4339.230957,4384.615234,4303.461426,4295.512695,4442.179688,4476.025879,4325.128418,4382.563965,0.000000,1.000000,30.000000,,,,0.000000,2.000000,2.000000,0.000000,4.000000,2.000000,2.000000,0.000000,0.000000,4.000000,4.000000,4.000000,4.000000,4.000000,4.000000,0.000000,,,,,,,,,,,,,,,,,,,,,,,,,,,,
1732155863.447561,1732155863.449574,72.000000,0.000000,4294.615234,4272.051270,4311.025879,4297.692383,4276.666504,4287.563965,4341.922852,4386.538574,4297.692383,4293.205078,4440.641113,4470.512695,4323.077148,4383.717773,1546.000000,1.000000,30.000000,,,,0.000000,2.000000,2.000000,0.000000,4.000000,2.000000,2.000000,0.000000,0.000000,4.000000,4.000000,4.000000,4.000000,4.000000,4.000000,0.000000,,,,,,,,,,,,,,,,,18.000000,0.000000,0.668256,-0.092712,-0.714966,-0.183472,0.962031,0.146991,-0.028812,-66.488327,37.542694,44.391598
1732155863.455369,1732155863.457382,73.000000,0.000000,4292.948730,4278.589844,4311.153809,4299.871582,4280.897461,4286.666504,4346.282227,4384.871582,4296.538574,4288.461426,4439.102539,4467.179688,4325.128418,4383.461426,1703.000000,1.000000,30.000000,,,,0.000000,2.000000,2.000000,0.000000,4.000000,2.000000,2.000000,0.000000,0.000000,4.000000,4.000000,4.000000,4.000000,4.000000,4.000000,0.000000,,,,,,,,,,,,,,,,,,,,,,,,,,,,
1732155863.463178,1732155863.464990,74.000000,0.000000,4294.487305,4282.051270,4311.282227,4304.230957,4257.692383,4288.846191,4344.615234,4383.846191,4297.692383,4289.358887,4440.512695,4473.846191,4327.563965,4383.461426,1546.000000,1.000000,30.000000,,,,0.000000,2.000000,2.000000,0.000000,4.000000,2.000000,2.000000,0.000000,0.000000,4.000000,4.000000,4.000000,4.000000,4.000000,4.000000,0.000000,,,,,,,,,,,,,,,,,,,,,,,,,,,,
1732155863.470986,1732155863.472798,75.000000,0.000000,4293.846191,4279.871582,4315.769043,4303.333496,4264.102539,4290.128418,4342.307617,4386.538574,4294.615234,4289.230957,4440.769043,4476.538574,4327.051270,4382.820313,1586.000000,1.000000,30.000000,,,,0.000000,2.000000,2.000000,0.000000,4.000000,2.000000,2.000000,0.000000,0.000000,4.000000,4.000000,4.000000,4.000000,4.000000,4.000000,0.000000,,,,,,,,,,,,,,,,,,,,,,,,,,,,
1732155863.478794,1732155863.480507,76.000000,0.000000,4291.666504,4279.230957,4316.794922,4301.282227,4293.333496,4288.077148,4340.256348,4386.538574,4292.436035,4281.538574,4437.179688,4470.512695,4325.000000,4383.974121,1733.000000,1.000000,30.000000,,,,0.000000,2.000000,2.000000,0.000000,4.000000,2.000000,2.000000,0.000000,0.000000,4.000000,4.000000,4.000000,4.000000,4.000000,4.000000,0.000000,,,,,,,,,,,,,,,,,19.000000,0.000000,0.668292,-0.092346,-0.715027,-0.183289,0.962031,0.146991,-0.028812,-66.477211,37.741249,44.550526
1732155863.486602,1732155863.488315,77.000000,0.000000,4292.820313,4278.717773,4314.487305,4303.077148,4288.333496,4288.846191,4338.461426,4385.000000,4291.410156,4278.717773,4432.179688,4471.538574,4320.641113,4385.256348,1710.000000,1.000000,30.000000,,,,0.000000,2.000000,2.000000,0.000000,4.000000,2.000000,2.000000,0.000000,0.000000,4.000000,4.000000,4.000000,4.000000,4.000000,4.000000,0.000000,,,,,,,,,,,,,,,,,,,,,,,,,,,,
1732155863.494411,1732155863.495923,78.000000,0.000000,4293.077148,4276.153809,4310.897461,4305.641113,4272.948730,4291.794922,4339.358887,4385.641113,4290.897461,4282.563965,4428.846191,4471.282227,4315.769043,4382.563965,1546.000000,1.000000,30.000000,,,,0.000000,2.000000,2.000000,0.000000,4.000000,2.000000,2.000000,0.000000,0.000000,4.000000,4.000000,4.000000,4.000000,4.000000,4.000000,0.000000,1.000000,0.000000,2.000000,2.000000,0.000000,4.000000,2.000000,2.000000,0.000000,0.000000,3.000000,3.000000,4.000000,4.000000,4.000000,4.000000,,,,,,,,,,,,
1732155863.502219,1732155863.503732,79.000000,0.000000,4293.589844,4277.692383,4313.974121,4305.641113,4279.743652,4294.615234,4340.512695,4385.384766,4295.128418,4283.974121,4428.589844,4463.333496,4315.512695,4377.051270,1586.000000,1.000000,30.000000,,,,0.000000,2.000000,2.000000,0.000000,4.000000,2.000000,2.000000,0.000000,0.000000,4.000000,4.000000,4.000000,4.000000,4.000000,4.000000,0.000000,,,,,,,,,,,,,,,,,,,,,,,,,,,,
1732155863.510027,1732155863.511440,80.000000,0.000000,4295.384766,4280.512695,4317.307617,4306.794922,4276.282227,4294.358887,4339.358887,4385.897461,4297.051270,4286.282227,4427.820313,4463.974121,4317.948730,4376.922852,1733.000000,1.000000,30.000000,,,,0.000000,2.000000,2.000000,0.000000,4.000000,2.000000,2.000000,0.000000,0.000000,4.000000,4.000000,4.000000,4.000000,4.000000,4.000000,0.000000,,,,,,,,,,,,,,,,,20.000000,0.000000,0.668260,-0.092102,-0.715088,-0.183289,0.972287,0.142107,-0.035649,-66.671539,37.822079,44.540928
1732155863.517835,1732155863.519248,81.000000,0.000000,4293.205078,4279.871582,4316.538574,4305.128418,4260.128418,4288.717773,4336.794922,4383.461426,4293.461426,4289.230957,4428.717773,4470.512695,4316.794922,4380.128418,1710.000000,1.000000,30.000000,,,,0.000000,2.000000,2.000000,0.000000,4.000000,2.000000,2.000000,0.000000,0.000000,4.000000,4.000000,4.000000,4.000000,4.000000,4.000000,0.000000,,,,,,,,,,,,,,,,,,,,,,,,,,,,
1732155863.525643,1732155863.527256,82.000000,0.000000,4292.179688,4277.820313,4315.128418,4303.717773,4266.410156,4287.692383,4338.974121,4381.794922,4294.230957,4283.333496,4431.025879,4472.692383,4314.487305,4381.410156,1546.000000,1.000000,30.000000,,,,0.000000,2.000000,2.000000,0.000000,4.000000,2.000000,2.000000,0.000000,0.000000,4.000000,4.000000,4.000000,4.000000,4.000000,4.000000,0.000000,,,,,,,,,,,,,,,,,,,,,,,,,,,,
1732155863.533452,1732155863.535064,83.000000,0.000000,4293.589844,4278.717773,4315.128418,4304.487305,4283.205078,4288.589844,4341.538574,4386.410156,4293.205078,4277.820313,4431.538574,4473.589844,4311.922852,4382.563965,1586.000000,1.000000,30.000000,,,,0.000000,2.000000,2.000000,0.000000,4.000000,2.000000,2.000000,0.000000,0.000000,4.000000,4.000000,4.000000,4.000000,4.000000,4.000000,0.000000,,,,,,,,,,,,,,,,,,,,,,,,,,,,
1732155863.541260,1732155863.542773,84.000000,0.000000,4292.436035,4279.230957,4314.871582,4301.282227,4286.025879,4284.487305,4340.000000,4389.871582,4287.436035,4277.948730,4429.102539,4477.692383,4313.846191,4383.846191,1733.000000,1.000000,30.000000,,,,0.000000,2.000000,2.000000,0.000000,4.000000,2.000000,2.000000,0.000000,0.000000,4.000000,4.000000,4.000000,4.000000,4.000000,4.000000,0.000000,,,,,,,,,,,,,,,,,21.000000,0.000000,0.668269,-0.092041,-0.715088,-0.183289,0.987425,0.137712,-0.033207,-66.777283,37.982548,44.461483
1732155863.549068,1732155863.550581,85.000000,0.000000,4291.282227,4279.615234,4315.000000,4302.436035,4279.230957,4283.846191,4339.358887,4384.230957,4286.794922,4278.333496,4431.025879,4478.974121,4318.974121,4383.846191,1710.000000,1.000000,30.000000,,,,0.000000,2.000000,2.000000,0.000000,4.000000,2.000000,2.000000,0.000000,0.000000,4.000000,4.000000,4.000000,4.000000,4.000000,4.000000,0.000000,,,,,,,,,,,,,,,,,,,,,,,,,,,,
1732155863.556877,1732155863.558189,86.000000,0.000000,4294.230957,4280.256348,4314.615234,4308.717773,4269.743652,4289.102539,4341.922852,4384.230957,4291.666504,4278.589844,4433.461426,4475.384766,4319.743652,4383.205078,1546.000000,1.000000,30.000000,,,,0.000000,2.000000,2.000000,0.000000,4.000000,2.000000,2.000000,0.000000,0.000000,4.000000,4.000000,4.000000,4.000000,4.000000,4.000000,0.000000,,,,,,,,,,,,,,,,,,,,,,,,,,,,
1732155863.564685,1732155863.565997,87.000000,0.000000,4293.205078,4278.589844,4310.897461,4309.615234,4268.717773,4290.256348,4341.282227,4389.230957,4293.461426,4281.153809,4430.256348,4473.589844,4320.641113,4382.179688,1586.000000,1.000000,30.000000,,,,0.000000,2.000000,2.000000,0.000000,4.000000,2.000000,2.000000,0.000000,0.000000,4.000000,4.000000,4.000000,4.000000,4.000000,4.000000,0.000000,,,,,,,,,,,,,,,,,,,,,,,,,,,,
1732155863.572493,1732155863.573706,88.000000,0.000000,4289.871582,4279.358887,4313.846191,4305.512695,4272.692383,4286.538574,4340.128418,4388.205078,4290.897461,4282.307617,4428.461426,4474.230957,4318.333496,4380.000000,1733.000000,1.000000,30.000000,,,,0.000000,2.000000,2.000000,0.000000,4.000000,2.000000,2.000000,0.000000,0.000000,4.000000,4.000000,4.000000,4.000000,4.000000,4.000000,0.000000,,,,,,,,,,,,,,,,,22.000000,0.000000,0.668260,-0.092102,-0.715088,-0.183289,0.962520,0.141131,-0.033207,-66.571266,37.945866,44.330467
1732155863.580301,1732155863.581514,89.000000,0.000000,4289.230957,4280.512695,4314.230957,4303.205078,4281.410156,4286.666504,4340.641113,4387.436035,4291.282227,4279.358887,4429.358887,4468.717773,4315.128418,4379.487305,1710.000000,1.000000,30.000000,,,,0.000000,2.000000,2.000000,0.000000,4.000000,2.000000,2.000000,0.000000,0.000000,4.000000,4.000000,4.000000,4.000000,4.000000,4.000000,0.000000,,,,,,,,,,,,,,,,,,,,,,,,,,,,
1732155863.588109,1732155863.589122,90.000000,0.000000,4288.589844,4277.436035,4311.666504,4301.153809,4290.512695,4287.563965,4340.512695,4387.436035,4295.128418,4278.333496,4428.589844,4463.205078,4314.615234,4379.102539,1546.000000,1.000000,30.000000,,,,0.000000,2.000000,2.000000,0.000000,4.000000,2.000000,2.000000,0.000000,0.000000,4.000000,4.000000,4.000000,4.000000,4.000000,4.000000,0.000000,,,,,,,,,,,,,,,,,,,,,,,,,,,,
1732155863.595918,1732155863.596930,91.000000,0.000000,4290.384766,4277.179688,4309.615234,4303.333496,4273.589844,4289.102539,4338.974121,4385.641113,4297.051270,4286.025879,4428.974121,4467.436035,4316.538574,4378.589844,1586.000000,1.000000,30.000000,,,,0.000000,2.000000,2.000000,0.000000,4.000000,2.000000,2.000000,0.000000,0.000000,4.000000,4.000000,4.000000,4.000000,4.000000,4.000000,0.000000,,,,,,,,,,,,,,,,,,,,,,,,,,,,
1732155863.603726,1732155863.604838,92.000000,0.000000,4292.563965,4281.922852,4313.205078,4307.436035,4254.487305,4288.974121,4339.230957,4385.256348,4296.666504,4291.922852,4431.794922,4467.563965,4320.897461,4379.743652,1733.000000,1.000000,30.000000,,,,0.000000,2.000000,2.000000,0.000000,4.000000,2.000000,2.000000,0.000000,0.000000,4.000000,4.000000,4.000000,4.000000,4.000000,4.000000,0.000000,,,,,,,,,,,,,,,,,23.000000,0.000000,0.668351,-0.092041,-0.715027,-0.183228,0.965938,0.138200,-0.033696,-66.621056,37.861149,44.616013
1732155863.611534,1732155863.612646,93.000000,0.000000,4291.666504,4285.897461,4313.077148,4304.358887,4272.051270,4280.769043,4339.615234,4385.641113,4294.102539,4284.230957,4431.538574,4459.487305,4325.256348,4380.897461,1710.000000,1.000000,30.000000,,,,0.000000,2.000000,2.000000,0.000000,4.000000,2.000000,2.000000,0.000000,0.000000,4.000000,4.000000,4.000000,4.000000,4.000000,4.000000,0.000000,,,,,,,,,,,,,,,,,,,,,,,,,,,,
1732155863.619342,1732155863.620654,94.000000,0.000000,4291.666504,4285.000000,4314.615234,4301.538574,4284.487305,4278.974121,4339.871582,4383.205078,4289.871582,4276.666504,4430.384766,4463.205078,4325.000000,4382.820313,1546.000000,1.000000,30.000000,,,,0.000000,2.000000,2.000000,0.000000,4.000000,2.000000,2.000000,0.000000,0.000000,4.000000,4.000000,4.000000,4.000000,4.000000,4.000000,0.000000,,,,,,,,,,,,,,,,,,,,,,,,,,,,
1732155863.627151,1732155863.628463,95.000000,0.000000,4294.230957,4285.641113,4314.615234,4306.922852,4263.205078,4285.641113,4340.000000,4385.000000,4288.589844,4282.307617,4433.717773,4475.256348,4321.410156,4384.615234,1586.000000,1.000000,30.000000,,,,0.000000,2.000000,2.000000,0.000000,4.000000,2.000000,2.000000,0.000000,0.000000,4.000000,4.000000,4.000000,4.000000,4.000000,4.000000,0.000000,,,,,,,,,,,,,,,,,,,,,,,,,,,,
1732155863.634959,1732155863.636371,96.000000,0.000000,4294.230957,4286.538574,4312.563965,4310.000000,4253.589844,4286.922852,4338.717773,4389.102539,4295.512695,4287.436035,4435.769043,4476.153809,4321.538574,4384.871582,1733.000000,1.000000,30.000000,,,,0.000000,2.000000,2.000000,0.000000,4.000000,2.000000,2.000000,0.000000,0.000000,4.000000,4.000000,4.000000,4.000000,4.000000,4.000000,0.000000,,,,,,,,,,,,,,,,,24.000000,0.000000,0.668269,-0.092041,-0.715088,-0.183289,0.952753,0.146014,-0.049322,-66.594727,37.655865,44.597305
1732155863.642767,1732155863.644179,97.000000,0.000000,4291.794922,4285.897461,4311.922852,4305.256348,4276.025879,4279.743652,4337.179688,4387.692383,4297.051270,4283.077148,4430.128418,4466.410156,4318.333496,4383.333496,1710.000000,1.000000,30.000000,,,,0.000000,2.000000,2.000000,0.000000,4.000000,2.000000,2.000000,0.000000,0.000000,4.000000,4.000000,4.000000,4.000000,4.000000,4.000000,0.000000,,,,,,,,,,,,,,,,,,,,,,,,,,,,
