title:1nine, start timestamp:1732158854.765143, stop timestamp:1732158902.582888, headset type:EPOCX, headset serial:E5020C3A, headset firmware:730, channels:67, sampling rate:eeg_128;mot_32, samples:6125      , version:2.2, 
Timestamp,OriginalTimestamp,EEG.Counter,EEG.Interpolated,EEG.AF3,EEG.F7,EEG.F3,EEG.FC5,EEG.T7,EEG.P7,EEG.O1,EEG.O2,EEG.P8,EEG.T8,EEG.FC6,EEG.F4,EEG.F8,EEG.AF4,EEG.RawCq,EEG.Battery,EEG.BatteryPercent,MarkerIndex,MarkerType,MarkerValueInt,EEG.MarkerHardware,CQ.AF3,CQ.F7,CQ.F3,CQ.FC5,CQ.T7,CQ.P7,CQ.O1,CQ.O2,CQ.P8,CQ.T8,CQ.FC6,CQ.F4,CQ.F8,CQ.AF4,CQ.Overall,EQ.SampleRateQuality,EQ.OVERALL,EQ.AF3,EQ.F7,EQ.F3,EQ.FC5,EQ.T7,EQ.P7,EQ.O1,EQ.O2,EQ.P8,EQ.T8,EQ.FC6,EQ.F4,EQ.F8,EQ.AF4,MOT.CounterMems,MOT.InterpolatedMems,MOT.Q0,MOT.Q1,MOT.Q2,MOT.Q3,MOT.AccX,MOT.AccY,MOT.AccZ,MOT.MagX,MOT.MagY,MOT.MagZ
1732158854.765143,1732158854.769533,65.000000,0.000000,4296.282227,4282.820313,4317.563965,4299.743652,4262.179688,4271.538574,4336.153809,4401.410156,4292.820313,4286.153809,4488.205078,4523.205078,4343.461426,4415.769043,1603.000000,1.000000,19.000000,,,,0.000000,2.000000,2.000000,0.000000,4.000000,2.000000,2.000000,0.000000,0.000000,4.000000,4.000000,4.000000,4.000000,4.000000,4.000000,0.000000,,,,,,,,,,,,,,,,,,,,,,,,,,,,
1732158854.772951,1732158854.777541,66.000000,0.000000,4293.333496,4280.128418,4316.025879,4294.102539,4265.897461,4274.487305,4335.256348,4402.820313,4294.743652,4285.897461,4488.846191,4522.692383,4346.410156,4416.922852,1357.000000,1.000000,19.000000,,,,0.000000,2.000000,2.000000,0.000000,4.000000,2.000000,2.000000,0.000000,0.000000,4.000000,4.000000,4.000000,4.000000,4.000000,4.000000,0.000000,,,,,,,,,,,,,,,,,,,,,,,,,,,,
1732158854.780760,1732158854.785349,67.000000,0.000000,4291.922852,4279.615234,4316.794922,4294.102539,4268.461426,4276.666504,4335.000000,4405.128418,4293.077148,4284.230957,4490.384766,4520.000000,4346.153809,4419.615234,1421.000000,1.000000,19.000000,,,,0.000000,2.000000,2.000000,0.000000,4.000000,2.000000,2.000000,0.000000,0.000000,4.000000,4.000000,4.000000,4.000000,4.000000,4.000000,0.000000,,,,,,,,,,,,,,,,,,,,,,,,,,,,
1732158854.788568,1732158854.793257,68.000000,0.000000,4293.717773,4281.025879,4316.922852,4295.897461,4270.769043,4275.769043,4336.282227,4407.948730,4293.461426,4286.025879,4490.384766,4524.102539,4343.846191,4418.846191,1437.000000,1.000000,19.000000,,,,0.000000,2.000000,2.000000,0.000000,4.000000,2.000000,2.000000,0.000000,0.000000,4.000000,4.000000,4.000000,4.000000,4.000000,4.000000,0.000000,,,,,,,,,,,,,,,,,17.000000,0.000000,0.520979,0.506409,-0.511719,0.458557,0.948846,0.059089,-0.039556,-34.735054,45.726093,31.212160
1732158854.796376,1732158854.801065,69.000000,0.000000,4295.000000,4283.333496,4313.974121,4296.922852,4277.179688,4277.692383,4336.922852,4407.948730,4294.871582,4283.589844,4486.922852,4518.717773,4343.846191,4413.589844,1200.000000,1.000000,19.000000,,,,0.000000,2.000000,2.000000,0.000000,4.000000,2.000000,2.000000,0.000000,0.000000,4.000000,4.000000,4.000000,4.000000,4.000000,4.000000,0.000000,,,,,,,,,,,,,,,,,,,,,,,,,,,,
1732158854.804185,1732158854.809073,70.000000,0.000000,4296.025879,4282.563965,4313.589844,4296.153809,4274.615234,4278.077148,4336.410156,4402.051270,4295.000000,4284.230957,4486.025879,4509.230957,4349.358887,4415.256348,0.000000,1.000000,19.000000,,,,0.000000,2.000000,2.000000,0.000000,4.000000,2.000000,2.000000,0.000000,0.000000,4.000000,4.000000,4.000000,4.000000,4.000000,4.000000,0.000000,,,,,,,,,,,,,,,,,,,,,,,,,,,,
1732158854.811993,1732158854.816882,71.000000,0.000000,4297.820313,4278.974121,4316.794922,4293.717773,4271.538574,4271.538574,4336.282227,4399.615234,4295.512695,4292.307617,4490.256348,4513.461426,4352.436035,4423.717773,0.000000,1.000000,19.000000,,,,0.000000,2.000000,2.000000,0.000000,4.000000,2.000000,2.000000,0.000000,0.000000,4.000000,4.000000,4.000000,4.000000,4.000000,4.000000,0.000000,,,,,,,,,,,,,,,,,,,,,,,,,,,,
1732158854.819801,1732158854.824590,72.000000,0.000000,4297.563965,4278.717773,4316.666504,4294.358887,4281.666504,4265.512695,4336.410156,4402.948730,4295.512695,4292.948730,4491.153809,4515.769043,4349.487305,4423.333496,1541.000000,1.000000,19.000000,,,,0.000000,2.000000,2.000000,0.000000,4.000000,2.000000,2.000000,0.000000,0.000000,4.000000,4.000000,4.000000,4.000000,4.000000,4.000000,0.000000,,,,,,,,,,,,,,,,,18.000000,0.000000,0.521333,0.506470,-0.511353,0.458496,0.955683,0.079600,-0.030277,-34.848728,45.493137,30.886848
1732158854.827609,1732158854.832398,73.000000,0.000000,4296.153809,4281.282227,4316.025879,4296.538574,4281.538574,4267.563965,4336.666504,4400.256348,4294.615234,4288.333496,4487.948730,4511.538574,4350.897461,4416.410156,1695.000000,1.000000,19.000000,,,,0.000000,2.000000,2.000000,0.000000,4.000000,2.000000,2.000000,0.000000,0.000000,4.000000,4.000000,4.000000,4.000000,4.000000,4.000000,0.000000,,,,,,,,,,,,,,,,,,,,,,,,,,,,
1732158854.835418,1732158854.840007,74.000000,0.000000,4296.153809,4282.051270,4313.846191,4297.692383,4262.307617,4275.000000,4336.666504,4398.461426,4295.128418,4293.333496,4489.230957,4514.230957,4352.692383,4416.025879,1568.000000,1.000000,19.000000,,,,0.000000,2.000000,2.000000,0.000000,4.000000,2.000000,2.000000,0.000000,0.000000,4.000000,4.000000,4.000000,4.000000,4.000000,4.000000,0.000000,,,,,,,,,,,,,,,,,,,,,,,,,,,,
1732158854.843226,1732158854.847815,75.000000,0.000000,4296.922852,4280.769043,4312.692383,4297.692383,4257.179688,4282.179688,4336.025879,4403.205078,4297.179688,4297.436035,4491.153809,4513.205078,4348.846191,4415.897461,1556.000000,1.000000,19.000000,,,,0.000000,2.000000,2.000000,0.000000,4.000000,2.000000,2.000000,0.000000,0.000000,4.000000,4.000000,4.000000,4.000000,4.000000,4.000000,0.000000,,,,,,,,,,,,,,,,,,,,,,,,,,,,
1732158854.851034,1732158854.855523,76.000000,0.000000,4296.282227,4281.153809,4313.974121,4297.307617,4266.153809,4279.615234,4334.871582,4405.000000,4294.102539,4290.128418,4488.077148,4509.871582,4345.641113,4413.589844,1703.000000,1.000000,19.000000,,,,0.000000,2.000000,2.000000,0.000000,4.000000,2.000000,2.000000,0.000000,0.000000,4.000000,4.000000,4.000000,4.000000,4.000000,4.000000,0.000000,,,,,,,,,,,,,,,,,19.000000,0.000000,0.523977,0.506348,-0.509644,0.457520,0.975217,0.091320,-0.013185,-34.902470,45.729443,30.831680
1732158854.858842,1732158854.863331,77.000000,0.000000,4294.487305,4281.922852,4313.846191,4297.051270,4266.025879,4270.897461,4334.358887,4405.769043,4291.410156,4285.512695,4486.282227,4513.589844,4343.717773,4414.487305,1559.000000,1.000000,19.000000,,,,0.000000,2.000000,2.000000,0.000000,4.000000,2.000000,2.000000,0.000000,0.000000,4.000000,4.000000,4.000000,4.000000,4.000000,4.000000,0.000000,,,,,,,,,,,,,,,,,,,,,,,,,,,,
1732158854.866650,1732158854.870940,78.000000,0.000000,4294.102539,4281.025879,4313.461426,4295.641113,4265.641113,4272.563965,4335.641113,4406.794922,4300.000000,4288.974121,4488.077148,4513.974121,4344.487305,4413.717773,1568.000000,1.000000,19.000000,,,,0.000000,2.000000,2.000000,0.000000,4.000000,2.000000,2.000000,0.000000,0.000000,4.000000,4.000000,4.000000,4.000000,4.000000,4.000000,0.000000,1.000000,0.000000,2.000000,2.000000,0.000000,4.000000,2.000000,0.000000,0.000000,0.000000,4.000000,4.000000,3.000000,4.000000,4.000000,4.000000,,,,,,,,,,,,
1732158854.874459,1732158854.878748,79.000000,0.000000,4295.256348,4281.282227,4318.077148,4296.666504,4269.743652,4280.384766,4336.538574,4405.000000,4303.333496,4289.358887,4488.461426,4510.769043,4349.102539,4411.666504,1556.000000,1.000000,19.000000,,,,0.000000,2.000000,2.000000,0.000000,4.000000,2.000000,2.000000,0.000000,0.000000,4.000000,4.000000,4.000000,4.000000,4.000000,4.000000,0.000000,,,,,,,,,,,,,,,,,,,,,,,,,,,,
1732158854.882267,1732158854.886456,80.000000,0.000000,4295.512695,4281.282227,4317.948730,4301.025879,4273.846191,4279.487305,4336.410156,4403.589844,4296.666504,4286.282227,4488.589844,4513.846191,4351.538574,4414.230957,1703.000000,1.000000,19.000000,,,,0.000000,2.000000,2.000000,0.000000,4.000000,2.000000,2.000000,0.000000,0.000000,4.000000,4.000000,4.000000,4.000000,4.000000,4.000000,0.000000,,,,,,,,,,,,,,,,,20.000000,0.000000,0.524790,0.506775,-0.508545,0.457336,0.973752,0.109388,-0.015627,-34.826000,45.792515,30.865328
1732158854.890075,1732158854.894265,81.000000,0.000000,4295.769043,4282.436035,4313.333496,4304.102539,4282.307617,4276.153809,4336.794922,4404.871582,4295.128418,4284.358887,4490.384766,4519.615234,4350.897461,4416.282227,1559.000000,1.000000,19.000000,,,,0.000000,2.000000,2.000000,0.000000,4.000000,2.000000,2.000000,0.000000,0.000000,4.000000,4.000000,4.000000,4.000000,4.000000,4.000000,0.000000,,,,,,,,,,,,,,,,,,,,,,,,,,,,
1732158854.897884,1732158854.901873,82.000000,0.000000,4297.051270,4285.897461,4313.461426,4303.717773,4280.897461,4278.333496,4336.282227,4403.333496,4297.051270,4281.666504,4489.871582,4517.307617,4350.384766,4414.487305,1568.000000,1.000000,19.000000,,,,0.000000,2.000000,2.000000,0.000000,4.000000,2.000000,2.000000,0.000000,0.000000,4.000000,4.000000,4.000000,4.000000,4.000000,4.000000,0.000000,,,,,,,,,,,,,,,,,,,,,,,,,,,,
1732158854.905692,1732158854.909681,83.000000,0.000000,4296.794922,4285.897461,4313.589844,4301.153809,4274.871582,4278.846191,4335.128418,4401.410156,4293.846191,4279.102539,4487.820313,4512.436035,4351.153809,4413.333496,1556.000000,1.000000,19.000000,,,,0.000000,2.000000,2.000000,0.000000,4.000000,2.000000,2.000000,0.000000,0.000000,4.000000,4.000000,4.000000,4.000000,4.000000,4.000000,0.000000,,,,,,,,,,,,,,,,,,,,,,,,,,,,
1732158854.913500,1732158854.917389,84.000000,0.000000,4295.384766,4281.794922,4312.307617,4298.333496,4289.102539,4277.436035,4335.641113,4401.153809,4292.948730,4279.743652,4487.563965,4512.692383,4351.538574,4413.974121,1703.000000,1.000000,19.000000,,,,0.000000,2.000000,2.000000,0.000000,4.000000,2.000000,2.000000,0.000000,0.000000,4.000000,4.000000,4.000000,4.000000,4.000000,4.000000,0.000000,,,,,,,,,,,,,,,,,21.000000,0.000000,0.524891,0.507080,-0.508301,0.457153,0.995727,0.092296,-0.021487,-34.705727,45.813602,31.050917
1732158854.921308,1732158854.925198,85.000000,0.000000,4294.102539,4279.487305,4315.128418,4295.769043,4294.487305,4278.333496,4336.666504,4400.256348,4295.000000,4278.461426,4488.846191,4516.922852,4347.307617,4413.077148,1559.000000,1.000000,19.000000,,,,0.000000,2.000000,2.000000,0.000000,4.000000,2.000000,2.000000,0.000000,0.000000,4.000000,4.000000,4.000000,4.000000,4.000000,4.000000,0.000000,,,,,,,,,,,,,,,,,,,,,,,,,,,,
1732158854.929117,1732158854.932806,86.000000,0.000000,4295.000000,4283.717773,4311.410156,4296.666504,4269.615234,4279.615234,4335.769043,4401.153809,4293.589844,4276.538574,4489.102539,4517.436035,4344.487305,4412.436035,1568.000000,1.000000,19.000000,,,,0.000000,2.000000,2.000000,0.000000,4.000000,2.000000,2.000000,0.000000,0.000000,4.000000,4.000000,4.000000,4.000000,4.000000,4.000000,0.000000,,,,,,,,,,,,,,,,,,,,,,,,,,,,
1732158854.936925,1732158854.940614,87.000000,0.000000,4295.384766,4285.384766,4305.641113,4298.974121,4255.512695,4281.025879,4335.128418,4400.000000,4294.358887,4280.384766,4488.589844,4510.384766,4346.410156,4412.436035,1556.000000,1.000000,19.000000,,,,0.000000,2.000000,2.000000,0.000000,4.000000,2.000000,2.000000,0.000000,0.000000,4.000000,4.000000,4.000000,4.000000,4.000000,4.000000,0.000000,,,,,,,,,,,,,,,,,,,,,,,,,,,,
1732158854.944733,1732158854.948323,88.000000,0.000000,4292.692383,4283.717773,4307.307617,4298.589844,4269.743652,4280.897461,4334.487305,4398.974121,4297.179688,4279.871582,4487.820313,4505.384766,4344.230957,4410.641113,1703.000000,1.000000,19.000000,,,,0.000000,2.000000,2.000000,0.000000,4.000000,2.000000,2.000000,0.000000,0.000000,4.000000,4.000000,4.000000,4.000000,4.000000,4.000000,0.000000,,,,,,,,,,,,,,,,,22.000000,0.000000,0.524573,0.507446,-0.508484,0.456909,0.984984,0.084971,-0.027347,-34.824970,45.785686,31.167908
1732158854.952541,1732158854.956131,89.000000,0.000000,4291.538574,4282.948730,4307.563965,4296.922852,4277.948730,4281.025879,4334.615234,4399.358887,4296.282227,4277.948730,4487.179688,4506.025879,4341.282227,4410.897461,1559.000000,1.000000,19.000000,,,,0.000000,2.000000,2.000000,0.000000,4.000000,2.000000,2.000000,0.000000,0.000000,4.000000,4.000000,4.000000,4.000000,4.000000,4.000000,0.000000,,,,,,,,,,,,,,,,,,,,,,,,,,,,
1732158854.960350,1732158854.963739,90.000000,0.000000,4294.615234,4285.000000,4303.333496,4296.153809,4273.205078,4281.153809,4334.871582,4400.384766,4294.871582,4280.128418,4487.179688,4508.077148,4344.487305,4413.589844,1568.000000,1.000000,19.000000,,,,0.000000,2.000000,2.000000,0.000000,4.000000,2.000000,2.000000,0.000000,0.000000,4.000000,4.000000,4.000000,4.000000,4.000000,4.000000,0.000000,,,,,,,,,,,,,,,,,,,,,,,,,,,,
1732158854.968158,1732158854.971547,91.000000,0.000000,4295.384766,4283.717773,4303.846191,4294.871582,4275.769043,4279.743652,4334.871582,4400.384766,4296.153809,4280.769043,4486.922852,4506.922852,4345.128418,4413.077148,1556.000000,1.000000,19.000000,,,,0.000000,2.000000,2.000000,0.000000,4.000000,2.000000,2.000000,0.000000,0.000000,4.000000,4.000000,4.000000,4.000000,4.000000,4.000000,0.000000,,,,,,,,,,,,,,,,,,,,,,,,,,,,
1732158854.975966,1732158854.979256,92.000000,0.000000,4295.641113,4282.563965,4306.538574,4298.205078,4278.077148,4277.692383,4335.000000,4400.000000,4297.563965,4279.743652,4488.974121,4511.282227,4342.692383,4414.743652,1703.000000,1.000000,19.000000,,,,0.000000,2.000000,2.000000,0.000000,4.000000,2.000000,2.000000,0.000000,0.000000,4.000000,4.000000,4.000000,4.000000,4.000000,4.000000,0.000000,,,,,,,,,,,,,,,,,23.000000,0.000000,0.522929,0.506226,-0.511658,0.456604,0.973752,0.048346,-0.047857,-34.549892,45.778072,31.266006
1732158854.983774,1732158854.987064,93.000000,0.000000,4299.230957,4286.922852,4306.153809,4304.487305,4274.871582,4276.794922,4335.769043,4400.256348,4295.128418,4280.512695,4492.179688,4514.871582,4344.615234,4419.487305,1559.000000,1.000000,19.000000,,,,0.000000,2.000000,2.000000,0.000000,4.000000,2.000000,2.000000,0.000000,0.000000,4.000000,4.000000,4.000000,4.000000,4.000000,4.000000,0.000000,,,,,,,,,,,,,,,,,,,,,,,,,,,,
1732158854.991583,1732158854.994672,94.000000,0.000000,4299.487305,4288.974121,4304.743652,4303.974121,4272.179688,4277.563965,4335.897461,4400.641113,4292.948730,4281.538574,4490.000000,4509.871582,4344.358887,4416.666504,1568.000000,1.000000,19.000000,,,,0.000000,2.000000,2.000000,0.000000,4.000000,2.000000,2.000000,0.000000,0.000000,4.000000,4.000000,4.000000,4.000000,4.000000,4.000000,0.000000,,,,,,,,,,,,,,,,,,,,,,,,,,,,
1732158854.999391,1732158855.002481,95.000000,0.000000,4296.666504,4289.871582,4305.897461,4303.461426,4274.487305,4277.307617,4335.000000,4401.282227,4294.871582,4279.743652,4487.307617,4506.153809,4340.256348,4411.666504,1556.000000,1.000000,19.000000,,,,0.000000,2.000000,2.000000,0.000000,4.000000,2.000000,2.000000,0.000000,0.000000,4.000000,4.000000,4.000000,4.000000,4.000000,4.000000,0.000000,,,,,,,,,,,,,,,,,,,,,,,,,,,,
1732158855.007199,1732158855.010389,96.000000,0.000000,4296.794922,4287.948730,4308.589844,4303.461426,4278.077148,4274.743652,4333.974121,4400.897461,4297.179688,4282.436035,4488.846191,4506.794922,4341.922852,4412.436035,1703.000000,1.000000,19.000000,,,,0.000000,2.000000,2.000000,0.000000,4.000000,2.000000,2.000000,0.000000,0.000000,4.000000,4.000000,4.000000,4.000000,4.000000,4.000000,0.000000,,,,,,,,,,,,,,,,,24.000000,0.000000,0.521514,0.503723,-0.515503,0.456665,0.963008,0.033207,-0.045416,-34.225414,45.856903,31.305466
1732158855.015007,1732158855.018197,97.000000,0.000000,4297.179688,4282.307617,4307.692383,4297.820313,4278.589844,4275.384766,4334.358887,4400.384766,4297.307617,4285.769043,4488.589844,4507.820313,4344.487305,4410.769043,1559.000000,1.000000,19.000000,,,,0.000000,2.000000,2.000000,0.000000,4.000000,2.000000,2.000000,0.000000,0.000000,4.000000,4.000000,4.000000,4.000000,4.000000,4.000000,0.000000,,,,,,,,,,,,,,,,,,,,,,,,,,,,
1732158855.022816,1732158855.026205,98.000000,0.000000,4294.102539,4280.128418,4310.256348,4294.871582,4277.307617,4278.589844,4335.897461,4400.256348,4297.051270,4284.487305,4486.538574,4507.179688,4340.000000,4406.538574,1568.000000,1.000000,19.000000,,,,0.000000,2.000000,2.000000,0.000000,4.000000,2.000000,2.000000,0.000000,0.000000,4.000000,4.000000,4.000000,4.000000,4.000000,4.000000,0.000000,,,,,,,,,,,,,,,,,,,,,,,,,,,,
1732158855.030624,1732158855.034013,99.000000,0.000000,4292.948730,4281.922852,4315.256348,4296.282227,4274.358887,4279.358887,4335.641113,4398.974121,4298.077148,4286.794922,4487.563965,4505.897461,4336.794922,4406.410156,1556.000000,1.000000,19.000000,,,,0.000000,2.000000,2.000000,0.000000,4.000000,2.000000,2.000000,0.000000,0.000000,4.000000,4.000000,4.000000,4.000000,4.000000,4.000000,0.000000,,,,,,,,,,,,,,,,,,,,,,,,,,,,
1732158855.038432,1732158855.041721,100.000000,0.000000,4295.512695,4280.897461,4313.846191,4292.307617,4271.153809,4279.358887,4334.230957,4400.128418,4300.256348,4290.769043,4489.487305,4504.871582,4342.179688,4408.717773,1703.000000,1.000000,19.000000,,,,0.000000,2.000000,2.000000,0.000000,4.000000,2.000000,2.000000,0.000000,0.000000,4.000000,4.000000,4.000000,4.000000,4.000000,4.000000,0.000000,,,,,,,,,,,,,,,,,25.000000,0.000000,0.521124,0.502625,-0.516968,0.456665,0.968380,0.037602,-0.062019,-34.150917,46.010757,31.310760
1732158855.046240,1732158855.049530,101.000000,0.000000,4293.974121,4277.436035,4310.384766,4291.666504,4267.692383,4278.846191,4335.256348,4402.436035,4299.102539,4292.179688,4490.128418,4505.769043,4347.051270,4409.615234,1559.000000,1.000000,19.000000,,,,0.000000,2.000000,2.000000,0.000000,4.000000,2.000000,2.000000,0.000000,0.000000,4.000000,4.000000,4.000000,4.000000,4.000000,4.000000,0.000000,,,,,,,,,,,,,,,,,,,,,,,,,,,,
1732158855.054049,1732158855.057138,102.000000,0.000000,4289.102539,4279.358887,4312.307617,4292.436035,4265.641113,4277.307617,4335.897461,4401.410156,4298.333496,4291.410156,4486.282227,4505.384766,4340.641113,4410.000000,1568.000000,1.000000,19.000000,,,,0.000000,2.000000,2.000000,0.000000,4.000000,2.000000,2.000000,0.000000,0.000000,4.000000,4.000000,4.000000,4.000000,4.000000,4.000000,0.000000,,,,,,,,,,,,,,,,,,,,,,,,,,,,
1732158855.061857,1732158855.064946,103.000000,0.000000,4290.000000,4278.974121,4314.358887,4286.025879,4265.384766,4277.948730,4335.128418,4400.384766,4303.461426,4293.205078,4480.128418,4507.051270,4335.000000,4411.153809,1556.000000,1.000000,19.000000,,,,0.000000,2.000000,2.000000,0.000000,4.000000,2.000000,2.000000,0.000000,0.000000,4.000000,4.000000,4.000000,4.000000,4.000000,4.000000,0.000000,,,,,,,,,,,,,,,,,,,,,,,,,,,,
1732158855.069665,1732158855.072655,104.000000,0.000000,4295.384766,4273.461426,4313.461426,4285.000000,4264.615234,4278.589844,4334.743652,4400.769043,4304.358887,4292.051270,4480.000000,4511.410156,4339.871582,4414.230957,1703.000000,1.000000,19.000000,,,,0.000000,2.000000,2.000000,0.000000,4.000000,2.000000,2.000000,0.000000,0.000000,4.000000,4.000000,4.000000,4.000000,4.000000,4.000000,0.000000,,,,,,,,,,,,,,,,,26.000000,0.000000,0.521135,0.498962,-0.520813,0.456299,0.966915,0.039556,-0.051764,-34.323910,45.772049,31.426716
1732158855.077474,1732158855.080463,105.000000,0.000000,4297.436035,4275.384766,4313.077148,4295.256348,4264.871582,4279.615234,4335.000000,4400.897461,4297.436035,4283.333496,4477.563965,4508.077148,4337.307617,4414.615234,1559.000000,1.000000,19.000000,,,,0.000000,2.000000,2.000000,0.000000,4.000000,2.000000,2.000000,0.000000,0.000000,4.000000,4.000000,4.000000,4.000000,4.000000,4.000000,0.000000,,,,,,,,,,,,,,,,,,,,,,,,,,,,
1732158855.085282,1732158855.088471,106.000000,0.000000,4299.358887,4284.487305,4315.256348,4305.897461,4269.358887,4277.948730,4335.000000,4401.282227,4291.922852,4279.230957,4472.820313,4505.769043,4332.948730,4414.102539,1568.000000,1.000000,19.000000,,,,0.000000,2.000000,2.000000,0.000000,4.000000,2.000000,2.000000,0.000000,0.000000,4.000000,4.000000,4.000000,4.000000,4.000000,4.000000,0.000000,,,,,,,,,,,,,,,,,,,,,,,,,,,,
1732158855.093090,1732158855.096279,107.000000,0.000000,4306.538574,4288.589844,4319.358887,4305.128418,4270.641113,4271.666504,4334.871582,4402.051270,4290.641113,4280.897461,4481.666504,4516.025879,4344.871582,4423.717773,1556.000000,1.000000,19.000000,,,,0.000000,2.000000,2.000000,0.000000,4.000000,2.000000,2.000000,0.000000,0.000000,4.000000,4.000000,4.000000,4.000000,4.000000,4.000000,0.000000,,,,,,,,,,,,,,,,,,,,,,,,,,,,
1732158855.100898,1732158855.104187,108.000000,0.000000,4311.153809,4286.922852,4318.333496,4298.589844,4266.794922,4272.563965,4334.871582,4401.794922,4287.179688,4281.025879,4492.179688,4524.358887,4354.615234,4433.717773,1703.000000,1.000000,19.000000,,,,0.000000,2.000000,2.000000,0.000000,4.000000,2.000000,2.000000,0.000000,0.000000,4.000000,4.000000,4.000000,4.000000,4.000000,4.000000,0.000000,,,,,,,,,,,,,,,,,27.000000,0.000000,0.521666,0.495667,-0.523315,0.456421,0.966915,0.077158,-0.055183,-34.390701,45.660358,31.635639
1732158855.108706,1732158855.111995,109.000000,0.000000,4311.922852,4285.897461,4315.128418,4297.820313,4265.512695,4279.102539,4334.871582,4400.641113,4286.538574,4280.384766,4489.487305,4521.794922,4350.000000,4431.282227,1559.000000,1.000000,19.000000,,,,0.000000,2.000000,2.000000,0.000000,4.000000,2.000000,2.000000,0.000000,0.000000,4.000000,4.000000,4.000000,4.000000,4.000000,4.000000,0.000000,,,,,,,,,,,,,,,,,,,,,,,,,,,,
1732158855.116515,1732158855.120003,110.000000,0.000000,4314.230957,4285.384766,4316.282227,4296.282227,4263.589844,4274.743652,4335.128418,4401.025879,4291.282227,4280.897461,4486.282227,4519.615234,4353.333496,4430.641113,1568.000000,1.000000,19.000000,,,,0.000000,2.000000,2.000000,0.000000,4.000000,2.000000,2.000000,0.000000,0.000000,4.000000,4.000000,4.000000,4.000000,4.000000,4.000000,0.000000,,,,,,,,,,,,,,,,,,,,,,,,,,,,
1732158855.124323,1732158855.127811,111.000000,0.000000,4316.922852,4284.615234,4318.589844,4293.846191,4259.102539,4265.641113,4335.256348,4402.436035,4294.743652,4282.051270,4492.179688,4521.025879,4364.358887,4439.871582,1556.000000,1.000000,19.000000,,,,0.000000,2.000000,2.000000,0.000000,4.000000,2.000000,2.000000,0.000000,0.000000,4.000000,4.000000,4.000000,4.000000,4.000000,4.000000,0.000000,,,,,,,,,,,,,,,,,,,,,,,,,,,,
1732158855.132131,1732158855.135720,112.000000,0.000000,4321.538574,4283.717773,4316.410156,4294.102539,4261.025879,4265.641113,4336.666504,4401.922852,4295.897461,4287.948730,4501.282227,4524.487305,4371.538574,4449.743652,1703.000000,1.000000,19.000000,,,,0.000000,2.000000,2.000000,0.000000,4.000000,2.000000,2.000000,0.000000,0.000000,4.000000,4.000000,4.000000,4.000000,4.000000,4.000000,0.000000,,,,,,,,,,,,,,,,,28.000000,0.000000,0.522035,0.494568,-0.523987,0.456421,0.966915,0.077158,-0.055183,-34.456467,45.659889,31.503201
1732158855.139939,1732158855.143528,113.000000,0.000000,4325.897461,4279.487305,4314.102539,4289.615234,4257.307617,4267.179688,4338.974121,4403.205078,4296.282227,4290.897461,4506.410156,4530.769043,4377.692383,4456.282227,1559.000000,1.000000,19.000000,,,,0.000000,2.000000,2.000000,0.000000,4.000000,2.000000,2.000000,0.000000,0.000000,4.000000,4.000000,4.000000,4.000000,4.000000,4.000000,0.000000,,,,,,,,,,,,,,,,,,,,,,,,,,,,
1732158855.147748,1732158855.151536,114.000000,0.000000,4325.641113,4276.153809,4314.615234,4281.025879,4246.153809,4264.615234,4339.358887,4405.769043,4295.512695,4283.205078,4505.000000,4531.922852,4379.102539,4458.717773,1568.000000,1.000000,19.000000,,,,0.000000,2.000000,2.000000,0.000000,4.000000,2.000000,2.000000,0.000000,0.000000,4.000000,4.000000,4.000000,4.000000,4.000000,4.000000,0.000000,,,,,,,,,,,,,,,,,,,,,,,,,,,,
1732158855.155556,1732158855.159344,115.000000,0.000000,4327.436035,4276.922852,4315.897461,4279.358887,4257.307617,4262.692383,4336.410156,4405.384766,4292.051270,4278.333496,4502.563965,4528.846191,4377.307617,4457.948730,1556.000000,1.000000,19.000000,,,,0.000000,2.000000,2.000000,0.000000,4.000000,2.000000,2.000000,0.000000,0.000000,4.000000,4.000000,4.000000,4.000000,4.000000,4.000000,0.000000,,,,,,,,,,,,,,,,,,,,,,,,,,,,
1732158855.163364,1732158855.167252,116.000000,0.000000,4336.282227,4278.205078,4314.615234,4284.102539,4270.128418,4261.538574,4333.846191,4402.436035,4289.230957,4280.128418,4504.871582,4527.563965,4383.717773,4464.230957,1703.000000,1.000000,19.000000,,,,0.000000,2.000000,2.000000,0.000000,4.000000,2.000000,2.000000,0.000000,0.000000,4.000000,4.000000,4.000000,4.000000,4.000000,4.000000,0.000000,,,,,,,,,,,,,,,,,29.000000,0.000000,0.522188,0.493896,-0.524414,0.456482,0.971798,0.086925,-0.045416,-34.491405,45.509510,31.282593
1732158855.171173,1732158855.175060,117.000000,0.000000,4343.333496,4281.410156,4315.000000,4293.589844,4248.846191,4262.692383,4334.487305,4401.794922,4286.025879,4279.230957,4506.153809,4533.077148,4392.692383,4474.358887,1559.000000,1.000000,19.000000,,,,0.000000,2.000000,2.000000,0.000000,4.000000,2.000000,2.000000,0.000000,0.000000,4.000000,4.000000,4.000000,4.000000,4.000000,4.000000,0.000000,,,,,,,,,,,,,,,,,,,,,,,,,,,,
1732158855.178981,1732158855.183068,118.000000,0.000000,4343.846191,4282.820313,4315.641113,4299.102539,4234.358887,4266.025879,4335.256348,4400.897461,4280.384766,4277.948730,4511.410156,4541.025879,4397.563965,4478.717773,1568.000000,1.000000,19.000000,,,,0.000000,2.000000,2.000000,0.000000,4.000000,2.000000,2.000000,0.000000,0.000000,4.000000,4.000000,4.000000,4.000000,4.000000,4.000000,0.000000,,,,,,,,,,,,,,,,,,,,,,,,,,,,
1732158855.186789,1732158855.190877,119.000000,0.000000,4344.743652,4280.128418,4314.615234,4293.077148,4246.153809,4263.077148,4334.871582,4400.769043,4278.333496,4277.948730,4516.282227,4539.871582,4398.077148,4480.769043,1556.000000,1.000000,19.000000,,,,0.000000,2.000000,2.000000,0.000000,4.000000,2.000000,2.000000,0.000000,0.000000,4.000000,4.000000,4.000000,4.000000,4.000000,4.000000,0.000000,,,,,,,,,,,,,,,,,,,,,,,,,,,,
1732158855.194597,1732158855.198785,120.000000,0.000000,4344.102539,4279.102539,4316.538574,4292.307617,4245.641113,4255.000000,4334.487305,4401.538574,4280.641113,4277.563965,4512.179688,4536.922852,4396.153809,4481.025879,1703.000000,1.000000,19.000000,,,,0.000000,2.000000,2.000000,0.000000,4.000000,2.000000,2.000000,0.000000,0.000000,4.000000,4.000000,4.000000,4.000000,4.000000,4.000000,0.000000,,,,,,,,,,,,,,,,,30.000000,0.000000,0.521610,0.492004,-0.525330,0.458130,0.985472,0.048834,-0.054694,-34.398037,45.392704,31.355568
1732158855.202406,1732158855.206593,121.000000,0.000000,4343.205078,4281.153809,4319.102539,4293.846191,4237.563965,4257.179688,4335.769043,4401.025879,4284.871582,4278.717773,4513.846191,4540.641113,4400.769043,4484.743652,1559.000000,1.000000,19.000000,,,,0.000000,2.000000,2.000000,0.000000,4.000000,2.000000,2.000000,0.000000,0.000000,4.000000,4.000000,4.000000,4.000000,4.000000,4.000000,0.000000,,,,,,,,,,,,,,,,,,,,,,,,,,,,
1732158855.210214,1732158855.214201,122.000000,0.000000,4344.102539,4275.384766,4317.051270,4285.128418,4245.128418,4266.153809,4336.666504,4403.205078,4292.436035,4282.051270,4523.077148,4543.205078,4406.153809,4488.333496,1568.000000,1.000000,19.000000,,,,0.000000,2.000000,2.000000,0.000000,4.000000,2.000000,2.000000,0.000000,0.000000,4.000000,4.000000,4.000000,4.000000,4.000000,4.000000,0.000000,,,,,,,,,,,,,,,,,,,,,,,,,,,,
1732158855.218022,1732158855.222009,123.000000,0.000000,4338.333496,4264.871582,4315.128418,4280.000000,4249.487305,4265.641113,4336.410156,4406.794922,4294.487305,4283.461426,4522.948730,4539.487305,4403.589844,4481.794922,1556.000000,1.000000,19.000000,,,,0.000000,2.000000,2.000000,0.000000,4.000000,2.000000,2.000000,0.000000,0.000000,4.000000,4.000000,4.000000,4.000000,4.000000,4.000000,0.000000,,,,,,,,,,,,,,,,,,,,,,,,,,,,
1732158855.225830,1732158855.229718,124.000000,0.000000,4328.589844,4268.717773,4316.153809,4281.666504,4246.153809,4262.051270,4336.666504,4407.307617,4290.000000,4283.461426,4520.641113,4538.589844,4407.051270,4475.641113,1703.000000,1.000000,19.000000,,,,0.000000,2.000000,2.000000,0.000000,4.000000,2.000000,2.000000,0.000000,0.000000,4.000000,4.000000,4.000000,4.000000,4.000000,4.000000,0.000000,,,,,,,,,,,,,,,,,31.000000,0.000000,0.520946,0.491333,-0.525818,0.459045,0.985472,0.048834,-0.054694,-34.455746,45.306423,31.531343
1732158855.233638,1732158855.237526,125.000000,0.000000,4326.025879,4277.692383,4314.871582,4282.948730,4249.487305,4265.769043,4337.179688,4405.128418,4290.641113,4284.487305,4520.641113,4539.487305,4410.641113,4477.436035,1559.000000,1.000000,19.000000,,,,0.000000,2.000000,2.000000,0.000000,4.000000,2.000000,2.000000,0.000000,0.000000,4.000000,4.000000,4.000000,4.000000,4.000000,4.000000,0.000000,,,,,,,,,,,,,,,,,,,,,,,,,,,,
1732158855.241447,1732158855.245134,126.000000,0.000000,4327.179688,4277.179688,4314.615234,4282.692383,4252.563965,4267.948730,4338.333496,4402.563965,4290.384766,4285.000000,4512.307617,4535.000000,4405.384766,4477.307617,1568.000000,1.000000,19.000000,,,,0.000000,2.000000,2.000000,0.000000,4.000000,2.000000,2.000000,0.000000,0.000000,4.000000,4.000000,4.000000,4.000000,4.000000,4.000000,0.000000,,,,,,,,,,,,,,,,,,,,,,,,,,,,
1732158855.249255,1732158855.252943,127.000000,0.000000,4325.769043,4273.333496,4314.487305,4283.077148,4250.000000,4265.256348,4341.666504,4401.282227,4284.487305,4288.077148,4510.512695,4529.358887,4405.256348,4474.615234,19.000000,1.000000,19.000000,,,,0.000000,2.000000,2.000000,0.000000,4.000000,2.000000,2.000000,0.000000,0.000000,4.000000,4.000000,4.000000,4.000000,4.000000,4.000000,0.000000,,,,,,,,,,,,,,,,,,,,,,,,,,,,
1732158855.257063,1732158855.260651,0.000000,0.000000,4326.538574,4272.307617,4316.025879,4282.948730,4249.358887,4263.846191,4341.538574,4400.769043,4282.692383,4293.205078,4515.769043,4529.102539,4410.128418,4476.282227,0.000000,1.000000,19.000000,,,,0.000000,2.000000,2.000000,0.000000,4.000000,2.000000,2.000000,0.000000,0.000000,4.000000,4.000000,4.000000,4.000000,4.000000,4.000000,0.000000,,,,,,,,,,,,,,,,,0.000000,0.000000,0.518513,0.489258,-0.527161,0.462463,0.948358,0.013674,-0.029300,-34.179153,45.089870,31.652054
1732158855.264871,1732158855.268459,1.000000,0.000000,4328.974121,4272.692383,4319.230957,4282.820313,4250.512695,4264.615234,4337.436035,4401.025879,4287.051270,4292.692383,4514.871582,4530.641113,4405.897461,4478.461426,1611.000000,1.000000,19.000000,,,,0.000000,2.000000,2.000000,0.000000,4.000000,2.000000,2.000000,0.000000,0.000000,4.000000,4.000000,4.000000,4.000000,4.000000,4.000000,0.000000,,,,,,,,,,,,,,,,,,,,,,,,,,,,
1732158855.272680,1732158855.276068,2.000000,0.000000,4327.051270,4271.282227,4319.871582,4281.025879,4250.769043,4264.230957,4337.563965,4401.282227,4287.179688,4288.077148,4514.230957,4529.230957,4400.512695,4477.948730,1357.000000,1.000000,19.000000,,,,0.000000,2.000000,2.000000,0.000000,4.000000,2.000000,2.000000,0.000000,0.000000,4.000000,4.000000,4.000000,4.000000,4.000000,4.000000,0.000000,,,,,,,,,,,,,,,,,,,,,,,,,,,,
1732158855.280488,1732158855.283876,3.000000,0.000000,4327.820313,4268.077148,4318.589844,4279.487305,4251.025879,4262.692383,4339.102539,4402.948730,4283.589844,4288.974121,4516.794922,4531.538574,4403.717773,4477.179688,1432.000000,1.000000,19.000000,,,,0.000000,2.000000,2.000000,0.000000,4.000000,2.000000,2.000000,0.000000,0.000000,4.000000,4.000000,4.000000,4.000000,4.000000,4.000000,0.000000,,,,,,,,,,,,,,,,,,,,,,,,,,,,
1732158855.288296,1732158855.291584,4.000000,0.000000,4332.563965,4267.948730,4320.512695,4281.794922,4251.794922,4262.948730,4336.538574,4405.769043,4284.358887,4291.922852,4518.846191,4543.205078,4408.974121,4481.153809,1436.000000,1.000000,19.000000,,,,0.000000,2.000000,2.000000,0.000000,4.000000,2.000000,2.000000,0.000000,0.000000,4.000000,4.000000,4.000000,4.000000,4.000000,4.000000,0.000000,,,,,,,,,,,,,,,,,1.000000,0.000000,0.517406,0.486206,-0.527954,0.466003,0.987914,-0.001953,-0.018557,-34.323448,44.949463,31.693165
1732158855.296105,1732158855.299392,5.000000,0.000000,4336.282227,4272.692383,4321.025879,4283.846191,4251.410156,4264.487305,4335.000000,4406.538574,4290.512695,4291.794922,4522.948730,4547.820313,4411.538574,4488.846191,1199.000000,1.000000,19.000000,,,,0.000000,2.000000,2.000000,0.000000,4.000000,2.000000,2.000000,0.000000,0.000000,4.000000,4.000000,4.000000,4.000000,4.000000,4.000000,0.000000,,,,,,,,,,,,,,,,,,,,,,,,,,,,
1732158855.303913,1732158855.307400,6.000000,0.000000,4337.179688,4274.871582,4320.128418,4283.333496,4249.230957,4265.128418,4339.230957,4407.563965,4295.128418,4293.717773,4526.538574,4545.897461,4407.692383,4489.358887,0.000000,1.000000,19.000000,,,,0.000000,2.000000,2.000000,0.000000,4.000000,2.000000,2.000000,0.000000,0.000000,4.000000,4.000000,4.000000,4.000000,4.000000,4.000000,0.000000,,,,,,,,,,,,,,,,,,,,,,,,,,,,
1732158855.311721,1732158855.315208,7.000000,0.000000,4339.871582,4273.333496,4321.922852,4284.230957,4250.769043,4264.743652,4340.384766,4408.333496,4293.846191,4294.358887,4522.692383,4547.436035,4405.512695,4486.153809,0.000000,1.000000,19.000000,,,,0.000000,2.000000,2.000000,0.000000,4.000000,2.000000,2.000000,0.000000,0.000000,4.000000,4.000000,4.000000,4.000000,4.000000,4.000000,0.000000,,,,,,,,,,,,,,,,,,,,,,,,,,,,
1732158855.319529,1732158855.322917,8.000000,0.000000,4343.846191,4277.051270,4321.153809,4288.589844,4255.128418,4264.487305,4336.282227,4405.128418,4298.717773,4297.820313,4523.333496,4550.769043,4415.128418,4492.563965,1541.000000,1.000000,19.000000,,,,0.000000,2.000000,2.000000,0.000000,4.000000,2.000000,2.000000,0.000000,0.000000,4.000000,4.000000,4.000000,4.000000,4.000000,4.000000,0.000000,,,,,,,,,,,,,,,,,2.000000,0.000000,0.516371,0.484558,-0.528809,0.467896,1.013796,0.014650,-0.009278,-34.465324,44.777397,31.796463
1732158855.327338,1732158855.330725,9.000000,0.000000,4340.000000,4281.282227,4318.333496,4293.846191,4255.128418,4265.000000,4334.487305,4402.051270,4298.974121,4298.333496,4526.282227,4547.820313,4417.307617,4495.256348,1696.000000,1.000000,19.000000,,,,0.000000,2.000000,2.000000,0.000000,4.000000,2.000000,2.000000,0.000000,0.000000,4.000000,4.000000,4.000000,4.000000,4.000000,4.000000,0.000000,,,,,,,,,,,,,,,,,,,,,,,,,,,,
1732158855.335146,1732158855.338733,10.000000,0.000000,4333.077148,4278.717773,4318.205078,4293.205078,4262.563965,4264.615234,4335.256348,4402.948730,4284.743652,4284.743652,4517.307617,4537.820313,4402.307617,4482.948730,1566.000000,1.000000,19.000000,,,,0.000000,2.000000,2.000000,0.000000,4.000000,2.000000,2.000000,0.000000,0.000000,4.000000,4.000000,4.000000,4.000000,4.000000,4.000000,0.000000,,,,,,,,,,,,,,,,,,,,,,,,,,,,
1732158855.342954,1732158855.346541,11.000000,0.000000,4331.538574,4272.051270,4320.256348,4287.563965,4271.538574,4262.692383,4335.769043,4401.666504,4282.179688,4277.051270,4511.025879,4535.512695,4396.153809,4479.615234,1549.000000,1.000000,19.000000,,,,0.000000,2.000000,2.000000,0.000000,4.000000,2.000000,2.000000,0.000000,0.000000,4.000000,4.000000,4.000000,4.000000,4.000000,4.000000,0.000000,,,,,,,,,,,,,,,,,,,,,,,,,,,,
1732158855.350762,1732158855.354250,12.000000,0.000000,4334.358887,4274.102539,4318.974121,4289.102539,4258.717773,4262.563965,4335.897461,4400.384766,4297.179688,4289.743652,4519.358887,4540.769043,4407.692383,4487.307617,1703.000000,1.000000,19.000000,,,,0.000000,2.000000,2.000000,0.000000,4.000000,2.000000,2.000000,0.000000,0.000000,4.000000,4.000000,4.000000,4.000000,4.000000,4.000000,0.000000,,,,,,,,,,,,,,,,,3.000000,0.000000,0.516371,0.484558,-0.528809,0.467896,0.990844,-0.009278,-0.023440,-34.625248,44.833023,31.760136
1732158855.358570,1732158855.362058,13.000000,0.000000,4335.512695,4279.358887,4318.077148,4295.512695,4243.717773,4265.256348,4336.538574,4405.000000,4302.179688,4299.615234,4524.743652,4541.666504,4407.692383,4483.333496,1556.000000,1.000000,19.000000,,,,0.000000,2.000000,2.000000,0.000000,4.000000,2.000000,2.000000,0.000000,0.000000,4.000000,4.000000,4.000000,4.000000,4.000000,4.000000,0.000000,,,,,,,,,,,,,,,,,,,,,,,,,,,,
1732158855.366379,1732158855.369666,14.000000,0.000000,4331.666504,4278.974121,4317.563965,4295.128418,4249.743652,4265.512695,4335.641113,4406.538574,4294.615234,4292.692383,4518.589844,4538.333496,4396.410156,4472.820313,1566.000000,1.000000,19.000000,,,,0.000000,2.000000,2.000000,0.000000,4.000000,2.000000,2.000000,0.000000,0.000000,4.000000,4.000000,4.000000,4.000000,4.000000,4.000000,0.000000,1.000000,0.000000,2.000000,2.000000,0.000000,4.000000,2.000000,1.000000,0.000000,0.000000,4.000000,4.000000,3.000000,4.000000,3.000000,4.000000,,,,,,,,,,,,
1732158855.374187,1732158855.377474,15.000000,0.000000,4326.153809,4276.666504,4317.179688,4292.692383,4256.282227,4266.153809,4336.794922,4405.128418,4293.717773,4286.666504,4517.820313,4538.077148,4396.153809,4475.000000,1549.000000,1.000000,19.000000,,,,0.000000,2.000000,2.000000,0.000000,4.000000,2.000000,2.000000,0.000000,0.000000,4.000000,4.000000,4.000000,4.000000,4.000000,4.000000,0.000000,,,,,,,,,,,,,,,,,,,,,,,,,,,,
1732158855.381995,1732158855.385183,16.000000,0.000000,4325.000000,4278.846191,4316.794922,4294.358887,4253.974121,4269.615234,4340.897461,4405.769043,4295.769043,4289.871582,4522.307617,4541.153809,4401.153809,4480.256348,0.000000,1.000000,19.000000,,,,0.000000,2.000000,2.000000,0.000000,4.000000,2.000000,2.000000,0.000000,0.000000,4.000000,4.000000,4.000000,4.000000,4.000000,4.000000,0.000000,,,,,,,,,,,,,,,,,4.000000,0.000000,0.515350,0.483582,-0.529724,0.468994,0.984007,-0.017092,-0.031254,-34.864784,44.773083,31.749043
1732158855.389804,1732158855.392991,17.000000,0.000000,4328.717773,4281.025879,4317.692383,4295.000000,4257.307617,4271.025879,4340.897461,4406.282227,4294.487305,4292.179688,4521.282227,4541.410156,4398.717773,4478.333496,0.000000,1.000000,19.000000,,,,0.000000,2.000000,2.000000,0.000000,4.000000,2.000000,2.000000,0.000000,0.000000,4.000000,4.000000,4.000000,4.000000,4.000000,4.000000,0.000000,,,,,,,,,,,,,,,,,,,,,,,,,,,,
1732158855.397612,1732158855.400599,18.000000,0.000000,4328.589844,4279.102539,4318.589844,4294.230957,4260.512695,4266.794922,4336.538574,4404.743652,4295.641113,4292.563965,4519.743652,4539.358887,4397.563965,4476.153809,0.000000,1.000000,19.000000,,,,0.000000,2.000000,2.000000,0.000000,4.000000,2.000000,2.000000,0.000000,0.000000,4.000000,4.000000,4.000000,4.000000,4.000000,4.000000,0.000000,,,,,,,,,,,,,,,,,,,,,,,,,,,,
1732158855.405420,1732158855.408407,19.000000,0.000000,4326.922852,4278.717773,4319.487305,4296.538574,4261.410156,4264.615234,4334.615234,4405.256348,4298.205078,4294.102539,4520.384766,4538.717773,4399.230957,4477.820313,0.000000,1.000000,19.000000,,,,0.000000,2.000000,2.000000,0.000000,4.000000,2.000000,2.000000,0.000000,0.000000,4.000000,4.000000,4.000000,4.000000,4.000000,4.000000,0.000000,,,,,,,,,,,,,,,,,,,,,,,,,,,,
1732158855.413228,1732158855.416316,20.000000,0.000000,4330.512695,4280.000000,4319.358887,4296.794922,4260.256348,4272.563965,4336.153809,4406.025879,4298.205078,4296.922852,4521.282227,4542.051270,4398.077148,4482.436035,0.000000,1.000000,19.000000,,,,0.000000,2.000000,2.000000,0.000000,4.000000,2.000000,2.000000,0.000000,0.000000,4.000000,4.000000,4.000000,4.000000,4.000000,4.000000,0.000000,,,,,,,,,,,,,,,,,5.000000,0.000000,0.512769,0.481873,-0.531616,0.471436,0.964962,-0.035161,-0.031742,-35.013809,44.791199,31.590057
1732158855.421037,1732158855.424124,21.000000,0.000000,4332.563965,4280.384766,4318.077148,4295.641113,4258.461426,4275.384766,4336.025879,4406.153809,4295.641113,4297.307617,4520.128418,4546.922852,4398.461426,4482.179688,0.000000,1.000000,19.000000,,,,0.000000,2.000000,2.000000,0.000000,4.000000,2.000000,2.000000,0.000000,0.000000,4.000000,4.000000,4.000000,4.000000,4.000000,4.000000,0.000000,,,,,,,,,,,,,,,,,,,,,,,,,,,,
1732158855.428845,1732158855.432132,22.000000,0.000000,4329.230957,4279.615234,4316.666504,4294.230957,4275.512695,4268.461426,4334.871582,4406.922852,4294.358887,4295.256348,4517.948730,4545.769043,4399.487305,4478.077148,0.000000,1.000000,19.000000,,,,0.000000,2.000000,2.000000,0.000000,4.000000,2.000000,2.000000,0.000000,0.000000,4.000000,4.000000,4.000000,4.000000,4.000000,4.000000,0.000000,,,,,,,,,,,,,,,,,,,,,,,,,,,,
1732158855.436653,1732158855.439940,23.000000,0.000000,4325.256348,4279.230957,4316.538574,4294.487305,4280.769043,4267.948730,4334.743652,4404.487305,4297.179688,4297.051270,4521.410156,4543.461426,4395.256348,4477.307617,0.000000,1.000000,19.000000,,,,0.000000,2.000000,2.000000,0.000000,4.000000,2.000000,2.000000,0.000000,0.000000,4.000000,4.000000,4.000000,4.000000,4.000000,4.000000,0.000000,,,,,,,,,,,,,,,,,,,,,,,,,,,,
1732158855.444461,1732158855.447848,24.000000,0.000000,4324.487305,4279.487305,4319.487305,4296.153809,4255.256348,4274.743652,4334.743652,4399.871582,4297.563965,4298.461426,4519.487305,4544.615234,4389.871582,4476.025879,0.000000,1.000000,19.000000,,,,0.000000,2.000000,2.000000,0.000000,4.000000,2.000000,2.000000,0.000000,0.000000,4.000000,4.000000,4.000000,4.000000,4.000000,4.000000,0.000000,,,,,,,,,,,,,,,,,6.000000,0.000000,0.512121,0.481567,-0.531921,0.472107,0.972287,-0.038579,-0.033207,-35.149517,44.685871,31.626280
1732158855.452270,1732158855.455656,25.000000,0.000000,4324.102539,4280.256348,4320.641113,4296.794922,4246.666504,4275.128418,4335.769043,4401.153809,4293.846191,4296.922852,4507.948730,4543.205078,4387.692383,4472.051270,0.000000,1.000000,19.000000,,,,0.000000,2.000000,2.000000,0.000000,4.000000,2.000000,2.000000,0.000000,0.000000,4.000000,4.000000,4.000000,4.000000,4.000000,4.000000,0.000000,,,,,,,,,,,,,,,,,,,,,,,,,,,,
1732158855.460078,1732158855.463265,26.000000,0.000000,4325.769043,4280.256348,4318.717773,4297.563965,4262.179688,4275.256348,4336.410156,4408.461426,4292.820313,4294.743652,4506.794922,4537.820313,4388.717773,4471.666504,0.000000,1.000000,19.000000,,,,0.000000,2.000000,2.000000,0.000000,4.000000,2.000000,2.000000,0.000000,0.000000,4.000000,4.000000,4.000000,4.000000,4.000000,4.000000,0.000000,,,,,,,,,,,,,,,,,,,,,,,,,,,,
1732158855.467886,1732158855.471073,27.000000,0.000000,4325.256348,4280.128418,4317.307617,4295.897461,4265.256348,4276.922852,4334.871582,4409.871582,4293.461426,4294.102539,4512.307617,4537.179688,4391.025879,4474.743652,0.000000,1.000000,19.000000,,,,0.000000,2.000000,2.000000,0.000000,4.000000,2.000000,2.000000,0.000000,0.000000,4.000000,4.000000,4.000000,4.000000,4.000000,4.000000,0.000000,,,,,,,,,,,,,,,,,,,,,,,,,,,,
1732158855.475694,1732158855.478981,28.000000,0.000000,4320.769043,4281.794922,4319.871582,4296.794922,4262.307617,4272.948730,4334.487305,4406.922852,4291.538574,4294.743652,4509.615234,4543.461426,4389.487305,4474.743652,0.000000,1.000000,19.000000,,,,0.000000,2.000000,2.000000,0.000000,4.000000,2.000000,2.000000,0.000000,0.000000,4.000000,4.000000,4.000000,4.000000,4.000000,4.000000,0.000000,,,,,,,,,,,,,,,,,7.000000,0.000000,0.511443,0.480774,-0.532532,0.472961,0.972287,-0.043951,-0.035649,-35.026108,44.397221,31.855619
1732158855.483503,1732158855.486789,29.000000,0.000000,4320.641113,4282.820313,4320.256348,4304.230957,4267.051270,4271.410156,4335.769043,4406.410156,4292.820313,4296.153809,4511.794922,4545.512695,4382.948730,4473.461426,0.000000,1.000000,19.000000,,,,0.000000,2.000000,2.000000,0.000000,4.000000,2.000000,2.000000,0.000000,0.000000,4.000000,4.000000,4.000000,4.000000,4.000000,4.000000,0.000000,,,,,,,,,,,,,,,,,,,,,,,,,,,,
1732158855.491311,1732158855.494797,30.000000,0.000000,4322.179688,4281.794922,4317.436035,4304.487305,4262.179688,4273.846191,4335.384766,4406.282227,4297.563965,4296.410156,4516.282227,4543.077148,4380.128418,4475.256348,0.000000,1.000000,19.000000,,,,0.000000,2.000000,2.000000,0.000000,4.000000,2.000000,2.000000,0.000000,0.000000,4.000000,4.000000,4.000000,4.000000,4.000000,4.000000,0.000000,,,,,,,,,,,,,,,,,,,,,,,,,,,,
1732158855.499119,1732158855.502605,31.000000,0.000000,4318.717773,4282.179688,4318.077148,4295.128418,4272.820313,4273.461426,4334.487305,4404.230957,4297.436035,4294.615234,4511.410156,4540.128418,4382.436035,4473.077148,0.000000,1.000000,19.000000,,,,0.000000,2.000000,2.000000,0.000000,4.000000,2.000000,2.000000,0.000000,0.000000,4.000000,4.000000,4.000000,4.000000,4.000000,4.000000,0.000000,,,,,,,,,,,,,,,,,,,,,,,,,,,,
1732158855.506927,1732158855.510514,32.000000,0.000000,4314.615234,4282.179688,4319.743652,4292.820313,4291.538574,4273.974121,4335.128418,4404.102539,4295.897461,4296.666504,4509.358887,4538.846191,4383.461426,4465.641113,0.000000,1.000000,19.000000,,,,0.000000,2.000000,2.000000,0.000000,4.000000,2.000000,2.000000,0.000000,0.000000,4.000000,4.000000,4.000000,4.000000,4.000000,4.000000,0.000000,,,,,,,,,,,,,,,,,8.000000,0.000000,0.511355,0.478699,-0.533508,0.474060,0.983518,-0.047369,-0.023440,-35.094482,44.311749,31.939718
1732158855.514736,1732158855.518322,33.000000,0.000000,4313.205078,4279.230957,4318.077148,4298.717773,4275.256348,4279.102539,4335.128418,4404.358887,4297.820313,4299.615234,4511.666504,4534.487305,4384.230957,4462.563965,0.000000,1.000000,19.000000,,,,0.000000,2.000000,2.000000,0.000000,4.000000,2.000000,2.000000,0.000000,0.000000,4.000000,4.000000,4.000000,4.000000,4.000000,4.000000,0.000000,,,,,,,,,,,,,,,,,,,,,,,,,,,,
1732158855.522544,1732158855.526330,34.000000,0.000000,4313.333496,4277.436035,4317.820313,4299.230957,4263.077148,4276.922852,4334.743652,4404.871582,4292.307617,4295.897461,4506.794922,4526.794922,4384.871582,4462.436035,0.000000,1.000000,19.000000,,,,0.000000,2.000000,2.000000,0.000000,4.000000,2.000000,2.000000,0.000000,0.000000,4.000000,4.000000,4.000000,4.000000,4.000000,4.000000,0.000000,,,,,,,,,,,,,,,,,,,,,,,,,,,,
1732158855.530352,1732158855.534138,35.000000,0.000000,4315.000000,4283.461426,4317.692383,4300.384766,4276.794922,4271.410156,4335.641113,4406.410156,4286.794922,4292.692383,4505.128418,4525.897461,4382.563965,4460.384766,0.000000,1.000000,19.000000,,,,0.000000,2.000000,2.000000,0.000000,4.000000,2.000000,2.000000,0.000000,0.000000,4.000000,4.000000,4.000000,4.000000,4.000000,4.000000,0.000000,,,,,,,,,,,,,,,,,,,,,,,,,,,,
1732158855.538160,1732158855.542046,36.000000,0.000000,4318.205078,4294.743652,4317.307617,4308.205078,4274.102539,4275.897461,4334.743652,4406.794922,4292.051270,4294.871582,4510.641113,4532.307617,4381.538574,4460.512695,0.000000,1.000000,19.000000,,,,0.000000,2.000000,2.000000,0.000000,4.000000,2.000000,2.000000,0.000000,0.000000,4.000000,4.000000,4.000000,4.000000,4.000000,4.000000,0.000000,,,,,,,,,,,,,,,,,9.000000,0.000000,0.511968,0.476807,-0.534180,0.474548,0.983030,-0.037114,-0.030277,-35.244865,44.397518,31.989506
1732158855.545969,1732158855.549854,37.000000,0.000000,4319.615234,4299.102539,4318.589844,4313.974121,4261.153809,4280.897461,4333.846191,4403.461426,4297.179688,4296.282227,4510.000000,4532.436035,4382.820313,4461.666504,0.000000,1.000000,19.000000,,,,0.000000,2.000000,2.000000,0.000000,4.000000,2.000000,2.000000,0.000000,0.000000,4.000000,4.000000,4.000000,4.000000,4.000000,4.000000,0.000000,,,,,,,,,,,,,,,,,,,,,,,,,,,,
1732158855.553777,1732158855.557862,38.000000,0.000000,4314.871582,4288.077148,4320.769043,4307.563965,4269.102539,4277.820313,4334.743652,4402.692383,4297.307617,4294.871582,4508.846191,4529.487305,4384.871582,4460.769043,0.000000,1.000000,19.000000,,,,0.000000,2.000000,2.000000,0.000000,4.000000,2.000000,2.000000,0.000000,0.000000,4.000000,4.000000,4.000000,4.000000,4.000000,4.000000,0.000000,,,,,,,,,,,,,,,,,,,,,,,,,,,,
1732158855.561585,1732158855.565671,39.000000,0.000000,4310.641113,4284.615234,4320.000000,4296.538574,4274.871582,4275.512695,4336.282227,4406.538574,4298.589844,4297.436035,4509.615234,4533.205078,4384.487305,4457.563965,0.000000,1.000000,19.000000,,,,0.000000,2.000000,2.000000,0.000000,4.000000,2.000000,2.000000,0.000000,0.000000,4.000000,4.000000,4.000000,4.000000,4.000000,4.000000,0.000000,,,,,,,,,,,,,,,,,,,,,,,,,,,,
1732158855.569393,1732158855.573579,40.000000,0.000000,4315.641113,4292.051270,4317.820313,4299.230957,4269.358887,4279.487305,4335.256348,4409.230957,4297.948730,4298.589844,4507.436035,4537.948730,4381.282227,4455.128418,0.000000,1.000000,19.000000,,,,0.000000,2.000000,2.000000,0.000000,4.000000,2.000000,2.000000,0.000000,0.000000,4.000000,4.000000,4.000000,4.000000,4.000000,4.000000,0.000000,,,,,,,,,,,,,,,,,10.000000,0.000000,0.512175,0.476257,-0.534363,0.474670,0.981077,-0.040532,-0.008302,-35.420006,44.480324,31.991499
1732158855.577202,1732158855.581387,41.000000,0.000000,4320.128418,4287.692383,4318.205078,4305.128418,4281.794922,4273.077148,4333.589844,4409.230957,4297.692383,4289.615234,4506.025879,4535.384766,4380.897461,4452.179688,0.000000,1.000000,19.000000,,,,0.000000,2.000000,2.000000,0.000000,4.000000,2.000000,2.000000,0.000000,0.000000,4.000000,4.000000,4.000000,4.000000,4.000000,4.000000,0.000000,,,,,,,,,,,,,,,,,,,,,,,,,,,,
1732158855.585010,1732158855.588995,42.000000,0.000000,4317.820313,4283.333496,4319.102539,4304.743652,4289.102539,4262.948730,4334.358887,4404.615234,4296.025879,4279.358887,4506.794922,4532.563965,4384.230957,4453.077148,0.000000,1.000000,19.000000,,,,0.000000,2.000000,2.000000,0.000000,4.000000,2.000000,2.000000,0.000000,0.000000,4.000000,4.000000,4.000000,4.000000,4.000000,4.000000,0.000000,,,,,,,,,,,,,,,,,,,,,,,,,,,,
1732158855.592818,1732158855.596803,43.000000,0.000000,4318.717773,4295.512695,4318.589844,4307.179688,4271.794922,4267.563965,4335.256348,4399.230957,4286.153809,4279.871582,4506.153809,4530.512695,4384.102539,4456.922852,0.000000,1.000000,19.000000,,,,0.000000,2.000000,2.000000,0.000000,4.000000,2.000000,2.000000,0.000000,0.000000,4.000000,4.000000,4.000000,4.000000,4.000000,4.000000,0.000000,,,,,,,,,,,,,,,,,,,,,,,,,,,,
1732158855.600626,1732158855.604512,44.000000,0.000000,4321.666504,4301.794922,4318.205078,4313.333496,4258.077148,4279.358887,4335.256348,4400.769043,4285.384766,4287.051270,4503.717773,4525.769043,4380.000000,4453.333496,0.000000,1.000000,19.000000,,,,0.000000,2.000000,2.000000,0.000000,4.000000,2.000000,2.000000,0.000000,0.000000,4.000000,4.000000,4.000000,4.000000,4.000000,4.000000,0.000000,,,,,,,,,,,,,,,,,11.000000,0.000000,0.512502,0.475464,-0.534485,0.474976,0.996704,-0.027835,-0.011720,-35.453537,44.584061,31.929781
1732158855.608435,1732158855.612320,45.000000,0.000000,4316.922852,4294.487305,4320.641113,4312.820313,4273.974121,4279.615234,4334.487305,4408.077148,4295.000000,4287.563965,4506.025879,4526.922852,4377.051270,4446.153809,0.000000,1.000000,19.000000,,,,0.000000,2.000000,2.000000,0.000000,4.000000,2.000000,2.000000,0.000000,0.000000,4.000000,4.000000,4.000000,4.000000,4.000000,4.000000,0.000000,,,,,,,,,,,,,,,,,,,,,,,,,,,,
1732158855.616243,1732158855.619928,46.000000,0.000000,4311.025879,4295.000000,4318.333496,4308.846191,4290.128418,4275.128418,4334.358887,4408.205078,4295.641113,4283.589844,4509.487305,4529.102539,4375.897461,4444.487305,0.000000,1.000000,19.000000,,,,0.000000,2.000000,2.000000,0.000000,4.000000,2.000000,2.000000,0.000000,0.000000,4.000000,4.000000,4.000000,4.000000,4.000000,4.000000,0.000000,,,,,,,,,,,,,,,,,,,,,,,,,,,,
1732158855.624051,1732158855.627737,47.000000,0.000000,4310.641113,4303.333496,4315.641113,4311.153809,4273.846191,4279.358887,4335.000000,4404.102539,4293.205078,4289.358887,4506.282227,4523.205078,4376.025879,4443.717773,0.000000,1.000000,19.000000,,,,0.000000,2.000000,2.000000,0.000000,4.000000,2.000000,2.000000,0.000000,0.000000,4.000000,4.000000,4.000000,4.000000,4.000000,4.000000,0.000000,,,,,,,,,,,,,,,,,,,,,,,,,,,,
1732158855.631859,1732158855.635445,48.000000,0.000000,4312.948730,4307.820313,4319.615234,4315.256348,4264.102539,4281.922852,4335.769043,4404.871582,4298.974121,4296.025879,4502.436035,4520.897461,4376.794922,4441.153809,0.000000,1.000000,19.000000,,,,0.000000,2.000000,2.000000,0.000000,4.000000,2.000000,2.000000,0.000000,0.000000,4.000000,4.000000,4.000000,4.000000,4.000000,4.000000,0.000000,,,,,,,,,,,,,,,,,12.000000,0.000000,0.513364,0.474792,-0.534363,0.474854,0.986449,-0.032719,-0.020022,-35.514034,44.918091,31.963123
1732158855.639668,1732158855.643253,49.000000,0.000000,4310.256348,4303.205078,4320.641113,4311.025879,4277.051270,4280.128418,4335.000000,4403.461426,4300.769043,4287.820313,4504.230957,4529.358887,4372.307617,4440.641113,0.000000,1.000000,19.000000,,,,0.000000,2.000000,2.000000,0.000000,4.000000,2.000000,2.000000,0.000000,0.000000,4.000000,4.000000,4.000000,4.000000,4.000000,4.000000,0.000000,,,,,,,,,,,,,,,,,,,,,,,,,,,,
1732158855.647476,1732158855.650862,50.000000,0.000000,4307.692383,4294.358887,4316.025879,4305.769043,4281.922852,4279.487305,4333.205078,4399.487305,4294.743652,4281.153809,4505.512695,4532.436035,4369.615234,4440.512695,0.000000,1.000000,19.000000,,,,0.000000,2.000000,2.000000,0.000000,4.000000,2.000000,2.000000,0.000000,0.000000,4.000000,4.000000,4.000000,4.000000,4.000000,4.000000,0.000000,,,,,,,,,,,,,,,,,,,,,,,,,,,,
1732158855.655284,1732158855.658670,51.000000,0.000000,4314.615234,4298.077148,4316.538574,4311.538574,4277.051270,4277.436035,4334.358887,4403.333496,4296.794922,4286.794922,4505.641113,4530.384766,4372.436035,4440.512695,0.000000,1.000000,19.000000,,,,0.000000,2.000000,2.000000,0.000000,4.000000,2.000000,2.000000,0.000000,0.000000,4.000000,4.000000,4.000000,4.000000,4.000000,4.000000,0.000000,,,,,,,,,,,,,,,,,,,,,,,,,,,,
1732158855.663092,1732158855.666378,52.000000,0.000000,4320.769043,4310.000000,4319.230957,4320.769043,4278.077148,4275.128418,4335.384766,4407.948730,4299.230957,4285.512695,4504.871582,4532.948730,4370.128418,4441.025879,0.000000,1.000000,19.000000,,,,0.000000,2.000000,2.000000,0.000000,4.000000,2.000000,2.000000,0.000000,0.000000,4.000000,4.000000,4.000000,4.000000,4.000000,4.000000,0.000000,,,,,,,,,,,,,,,,,13.000000,0.000000,0.513392,0.474976,-0.534119,0.474915,0.969357,-0.007325,-0.013185,-35.488033,45.118652,31.865129
1732158855.670901,1732158855.674186,53.000000,0.000000,4319.487305,4314.230957,4318.846191,4320.128418,4281.282227,4275.384766,4334.102539,4403.846191,4290.641113,4275.384766,4498.974121,4530.000000,4366.410156,4440.000000,0.000000,1.000000,19.000000,,,,0.000000,2.000000,2.000000,0.000000,4.000000,2.000000,2.000000,0.000000,0.000000,4.000000,4.000000,4.000000,4.000000,4.000000,4.000000,0.000000,,,,,,,,,,,,,,,,,,,,,,,,,,,,
1732158855.678709,1732158855.681795,54.000000,0.000000,4316.922852,4310.256348,4317.692383,4316.153809,4279.230957,4276.538574,4333.333496,4400.897461,4286.153809,4275.641113,4492.051270,4519.358887,4367.051270,4441.025879,0.000000,1.000000,19.000000,,,,0.000000,2.000000,2.000000,0.000000,4.000000,2.000000,2.000000,0.000000,0.000000,4.000000,4.000000,4.000000,4.000000,4.000000,4.000000,0.000000,,,,,,,,,,,,,,,,,,,,,,,,,,,,
1732158855.686517,1732158855.689603,55.000000,0.000000,4316.025879,4308.589844,4318.205078,4313.333496,4278.461426,4272.307617,4335.384766,4403.717773,4290.897461,4277.179688,4491.666504,4516.410156,4366.025879,4442.307617,0.000000,1.000000,19.000000,,,,0.000000,2.000000,2.000000,0.000000,4.000000,2.000000,2.000000,0.000000,0.000000,4.000000,4.000000,4.000000,4.000000,4.000000,4.000000,0.000000,,,,,,,,,,,,,,,,,,,,,,,,,,,,
1732158855.694325,1732158855.697311,56.000000,0.000000,4313.589844,4313.717773,4319.230957,4315.000000,4278.717773,4270.384766,4335.897461,4406.282227,4295.000000,4270.000000,4495.000000,4519.871582,4366.025879,4444.743652,0.000000,1.000000,19.000000,,,,0.000000,2.000000,2.000000,0.000000,4.000000,2.000000,2.000000,0.000000,0.000000,4.000000,4.000000,4.000000,4.000000,4.000000,4.000000,0.000000,,,,,,,,,,,,,,,,,14.000000,0.000000,0.513597,0.475281,-0.533813,0.474731,0.981565,-0.012209,-0.014162,-35.368641,45.024441,31.809088
1732158855.702134,1732158855.705119,57.000000,0.000000,4311.282227,4316.794922,4319.230957,4317.948730,4280.769043,4273.077148,4333.077148,4404.487305,4293.205078,4265.384766,4492.692383,4514.615234,4365.512695,4443.461426,0.000000,1.000000,19.000000,,,,0.000000,2.000000,2.000000,0.000000,4.000000,2.000000,2.000000,0.000000,0.000000,4.000000,4.000000,4.000000,4.000000,4.000000,4.000000,0.000000,,,,,,,,,,,,,,,,,,,,,,,,,,,,
1732158855.709942,1732158855.713127,58.000000,0.000000,4312.051270,4314.358887,4319.230957,4316.794922,4278.077148,4276.794922,4332.563965,4401.282227,4286.666504,4267.051270,4488.077148,4513.077148,4358.205078,4436.922852,0.000000,1.000000,19.000000,,,,0.000000,2.000000,2.000000,0.000000,4.000000,2.000000,2.000000,0.000000,0.000000,4.000000,4.000000,4.000000,4.000000,4.000000,4.000000,0.000000,,,,,,,,,,,,,,,,,,,,,,,,,,,,
1732158855.717750,1732158855.720936,59.000000,0.000000,4313.717773,4312.436035,4319.743652,4317.179688,4279.230957,4278.846191,4334.871582,4401.410156,4287.563965,4275.000000,4490.256348,4521.025879,4358.717773,4438.589844,0.000000,1.000000,19.000000,,,,0.000000,2.000000,2.000000,0.000000,4.000000,2.000000,2.000000,0.000000,0.000000,4.000000,4.000000,4.000000,4.000000,4.000000,4.000000,0.000000,,,,,,,,,,,,,,,,,,,,,,,,,,,,
1732158855.725558,1732158855.728844,60.000000,0.000000,4312.051270,4315.512695,4320.256348,4320.128418,4297.307617,4275.512695,4336.153809,4406.410156,4296.025879,4280.512695,4493.589844,4524.871582,4364.615234,4441.282227,0.000000,1.000000,19.000000,,,,0.000000,2.000000,2.000000,0.000000,4.000000,2.000000,2.000000,0.000000,0.000000,4.000000,4.000000,4.000000,4.000000,4.000000,4.000000,0.000000,,,,,,,,,,,,,,,,,15.000000,0.000000,0.513285,0.475891,-0.533569,0.474731,0.976682,-0.021487,-0.024417,-35.228600,44.958130,31.857029
1732158855.733367,1732158855.736652,61.000000,0.000000,4310.384766,4318.205078,4318.974121,4322.179688,4298.589844,4274.102539,4335.769043,4408.589844,4296.922852,4278.205078,4491.153809,4521.794922,4359.743652,4431.666504,0.000000,1.000000,19.000000,,,,0.000000,2.000000,2.000000,0.000000,4.000000,2.000000,2.000000,0.000000,0.000000,4.000000,4.000000,4.000000,4.000000,4.000000,4.000000,0.000000,,,,,,,,,,,,,,,,,,,,,,,,,,,,
1732158855.741175,1732158855.744660,62.000000,0.000000,4316.025879,4317.307617,4317.307617,4326.666504,4275.641113,4277.948730,4335.512695,4406.153809,4291.922852,4277.692383,4489.615234,4523.717773,4354.358887,4432.563965,0.000000,1.000000,19.000000,,,,0.000000,2.000000,2.000000,0.000000,4.000000,2.000000,2.000000,0.000000,0.000000,4.000000,4.000000,4.000000,4.000000,4.000000,4.000000,0.000000,,,,,,,,,,,,,,,,,,,,,,,,,,,,
1732158855.748983,1732158855.752468,63.000000,0.000000,4319.487305,4315.897461,4316.922852,4328.974121,4269.743652,4280.769043,4334.615234,4403.205078,4294.358887,4281.153809,4491.922852,4527.436035,4355.897461,4441.666504,0.000000,1.000000,19.000000,,,,0.000000,2.000000,2.000000,0.000000,4.000000,2.000000,2.000000,0.000000,0.000000,4.000000,4.000000,4.000000,4.000000,4.000000,4.000000,0.000000,,,,,,,,,,,,,,,,,,,,,,,,,,,,
1732158855.756791,1732158855.760176,64.000000,0.000000,4315.000000,4316.282227,4318.333496,4323.461426,4281.282227,4275.897461,4335.256348,4403.589844,4295.256348,4280.128418,4492.820313,4525.000000,4357.692383,4437.563965,0.000000,1.000000,19.000000,,,,0.000000,2.000000,2.000000,0.000000,4.000000,2.000000,2.000000,0.000000,0.000000,4.000000,4.000000,4.000000,4.000000,4.000000,4.000000,0.000000,,,,,,,,,,,,,,,,,16.000000,0.000000,0.512889,0.476318,-0.533569,0.474731,0.973752,-0.008302,-0.020510,-35.331833,44.871086,31.979193
1732158855.764600,1732158855.767985,65.000000,0.000000,4311.538574,4317.820313,4317.436035,4321.153809,4281.153809,4274.102539,4337.436035,4404.615234,4292.563965,4279.230957,4491.538574,4524.358887,4358.589844,4432.051270,1611.000000,1.000000,19.000000,,,,0.000000,2.000000,2.000000,0.000000,4.000000,2.000000,2.000000,0.000000,0.000000,4.000000,4.000000,4.000000,4.000000,4.000000,4.000000,0.000000,,,,,,,,,,,,,,,,,,,,,,,,,,,,
1732158855.772408,1732158855.775593,66.000000,0.000000,4313.077148,4315.512695,4315.512695,4325.256348,4280.128418,4279.230957,4335.000000,4401.025879,4295.897461,4283.846191,4489.102539,4523.589844,4354.487305,4432.436035,1357.000000,1.000000,19.000000,,,,0.000000,2.000000,2.000000,0.000000,4.000000,2.000000,2.000000,0.000000,0.000000,4.000000,4.000000,4.000000,4.000000,4.000000,4.000000,0.000000,,,,,,,,,,,,,,,,,,,,,,,,,,,,
1732158855.780216,1732158855.783401,67.000000,0.000000,4308.974121,4310.897461,4315.000000,4322.820313,4287.436035,4281.153809,4330.641113,4399.743652,4296.922852,4281.666504,4488.589844,4519.230957,4350.384766,4428.717773,1431.000000,1.000000,19.000000,,,,0.000000,2.000000,2.000000,0.000000,4.000000,2.000000,2.000000,0.000000,0.000000,4.000000,4.000000,4.000000,4.000000,4.000000,4.000000,0.000000,,,,,,,,,,,,,,,,,,,,,,,,,,,,
1732158855.788025,1732158855.791110,68.000000,0.000000,4301.025879,4307.051270,4316.666504,4313.974121,4284.871582,4280.256348,4332.051270,4405.512695,4296.153809,4278.589844,4490.769043,4519.358887,4349.487305,4426.794922,1436.000000,1.000000,19.000000,,,,0.000000,2.000000,2.000000,0.000000,4.000000,2.000000,2.000000,0.000000,0.000000,4.000000,4.000000,4.000000,4.000000,4.000000,4.000000,0.000000,,,,,,,,,,,,,,,,,17.000000,0.000000,0.512662,0.476563,-0.533569,0.474731,0.983518,-0.007813,-0.024417,-35.332115,44.958912,31.983147
1732158855.795833,1732158855.798918,69.000000,0.000000,4302.692383,4307.051270,4318.077148,4310.641113,4281.282227,4281.025879,4335.384766,4407.179688,4295.897461,4281.025879,4488.333496,4519.871582,4345.000000,4429.102539,1199.000000,1.000000,19.000000,,,,0.000000,2.000000,2.000000,0.000000,4.000000,2.000000,2.000000,0.000000,0.000000,4.000000,4.000000,4.000000,4.000000,4.000000,4.000000,0.000000,,,,,,,,,,,,,,,,,,,,,,,,,,,,
1732158855.803641,1732158855.806526,70.000000,0.000000,4309.487305,4307.948730,4317.948730,4317.051270,4285.128418,4282.307617,4333.717773,4401.282227,4294.487305,4278.333496,4485.256348,4517.307617,4343.846191,4429.615234,0.000000,1.000000,19.000000,,,,0.000000,2.000000,2.000000,0.000000,4.000000,2.000000,2.000000,0.000000,0.000000,4.000000,4.000000,4.000000,4.000000,4.000000,4.000000,0.000000,,,,,,,,,,,,,,,,,,,,,,,,,,,,
1732158855.811449,1732158855.814334,71.000000,0.000000,4310.256348,4305.641113,4317.563965,4321.794922,4287.051270,4279.615234,4333.461426,4400.897461,4293.205078,4275.000000,4490.000000,4515.897461,4350.000000,4430.512695,0.000000,1.000000,19.000000,,,,0.000000,2.000000,2.000000,0.000000,4.000000,2.000000,2.000000,0.000000,0.000000,4.000000,4.000000,4.000000,4.000000,4.000000,4.000000,0.000000,,,,,,,,,,,,,,,,,,,,,,,,,,,,
1732158855.819258,1732158855.822243,72.000000,0.000000,4306.922852,4307.051270,4317.051270,4318.205078,4282.179688,4279.358887,4336.282227,4403.846191,4293.846191,4283.205078,4493.974121,4518.461426,4354.102539,4431.410156,1539.000000,1.000000,19.000000,,,,0.000000,2.000000,2.000000,0.000000,4.000000,2.000000,2.000000,0.000000,0.000000,4.000000,4.000000,4.000000,4.000000,4.000000,4.000000,0.000000,,,,,,,,,,,,,,,,,18.000000,0.000000,0.511753,0.477356,-0.533569,0.474915,0.982542,-0.018069,-0.019534,-35.300682,45.125053,31.701349
1732158855.827066,1732158855.830051,73.000000,0.000000,4303.205078,4304.615234,4317.820313,4312.563965,4287.948730,4281.025879,4333.333496,4401.666504,4296.794922,4291.666504,4494.230957,4518.717773,4351.538574,4430.897461,1696.000000,1.000000,19.000000,,,,0.000000,2.000000,2.000000,0.000000,4.000000,2.000000,2.000000,0.000000,0.000000,4.000000,4.000000,4.000000,4.000000,4.000000,4.000000,0.000000,,,,,,,,,,,,,,,,,,,,,,,,,,,,
1732158855.834874,1732158855.838059,74.000000,0.000000,4297.179688,4297.307617,4317.948730,4309.615234,4302.820313,4279.615234,4330.128418,4401.666504,4300.256348,4292.307617,4494.487305,4517.563965,4348.333496,4428.717773,1566.000000,1.000000,19.000000,,,,0.000000,2.000000,2.000000,0.000000,4.000000,2.000000,2.000000,0.000000,0.000000,4.000000,4.000000,4.000000,4.000000,4.000000,4.000000,0.000000,,,,,,,,,,,,,,,,,,,,,,,,,,,,
1732158855.842682,1732158855.845867,75.000000,0.000000,4294.230957,4296.666504,4318.333496,4310.641113,4294.487305,4280.641113,4333.974121,4405.769043,4304.743652,4294.487305,4492.820313,4513.974121,4350.641113,4425.897461,1548.000000,1.000000,19.000000,,,,0.000000,2.000000,2.000000,0.000000,4.000000,2.000000,2.000000,0.000000,0.000000,4.000000,4.000000,4.000000,4.000000,4.000000,4.000000,0.000000,,,,,,,,,,,,,,,,,,,,,,,,,,,,
1732158855.850490,1732158855.853775,76.000000,0.000000,4298.717773,4298.205078,4317.051270,4309.871582,4272.563965,4282.563965,4336.922852,4403.974121,4306.666504,4297.692383,4491.025879,4510.000000,4352.436035,4426.666504,1698.000000,1.000000,19.000000,,,,0.000000,2.000000,2.000000,0.000000,4.000000,2.000000,2.000000,0.000000,0.000000,4.000000,4.000000,4.000000,4.000000,4.000000,4.000000,0.000000,,,,,,,,,,,,,,,,,19.000000,0.000000,0.510506,0.478394,-0.533508,0.475281,0.979612,-0.036626,-0.029300,-35.510220,45.036293,31.833092
1732158855.858299,1732158855.861583,77.000000,0.000000,4299.487305,4295.897461,4317.179688,4306.538574,4270.897461,4281.282227,4335.256348,4399.487305,4301.666504,4295.000000,4492.436035,4515.641113,4351.538574,4429.743652,1556.000000,1.000000,19.000000,,,,0.000000,2.000000,2.000000,0.000000,4.000000,2.000000,2.000000,0.000000,0.000000,4.000000,4.000000,4.000000,4.000000,4.000000,4.000000,0.000000,,,,,,,,,,,,,,,,,,,,,,,,,,,,
1732158855.866107,1732158855.869591,78.000000,0.000000,4295.512695,4293.974121,4317.948730,4307.051270,4281.410156,4283.461426,4334.743652,4401.666504,4296.282227,4292.692383,4493.077148,4519.871582,4352.948730,4427.051270,1566.000000,1.000000,19.000000,,,,0.000000,2.000000,2.000000,0.000000,4.000000,2.000000,2.000000,0.000000,0.000000,4.000000,4.000000,4.000000,4.000000,4.000000,4.000000,0.000000,1.000000,0.000000,2.000000,2.000000,0.000000,4.000000,2.000000,1.000000,0.000000,0.000000,4.000000,4.000000,4.000000,4.000000,3.000000,3.000000,,,,,,,,,,,,
1732158855.873915,1732158855.877399,79.000000,0.000000,4294.358887,4289.102539,4317.051270,4307.051270,4280.897461,4287.051270,4335.384766,4403.717773,4297.307617,4294.743652,4489.871582,4514.487305,4353.205078,4420.769043,1548.000000,1.000000,19.000000,,,,0.000000,2.000000,2.000000,0.000000,4.000000,2.000000,2.000000,0.000000,0.000000,4.000000,4.000000,4.000000,4.000000,4.000000,4.000000,0.000000,,,,,,,,,,,,,,,,,,,,,,,,,,,,
1732158855.881724,1732158855.885308,80.000000,0.000000,4292.948730,4281.794922,4316.666504,4300.512695,4279.230957,4282.692383,4334.871582,4403.077148,4299.358887,4293.717773,4488.974121,4510.641113,4349.615234,4416.666504,1698.000000,1.000000,19.000000,,,,0.000000,2.000000,2.000000,0.000000,4.000000,2.000000,2.000000,0.000000,0.000000,4.000000,4.000000,4.000000,4.000000,4.000000,4.000000,0.000000,,,,,,,,,,,,,,,,,20.000000,0.000000,0.510282,0.478943,-0.533447,0.475037,0.976682,-0.019045,-0.038579,-35.813278,44.997730,31.906471
1732158855.889532,1732158855.893116,81.000000,0.000000,4286.025879,4281.922852,4318.205078,4297.692383,4278.205078,4279.487305,4335.000000,4406.025879,4302.307617,4294.615234,4492.820313,4516.410156,4352.307617,4416.282227,1556.000000,1.000000,19.000000,,,,0.000000,2.000000,2.000000,0.000000,4.000000,2.000000,2.000000,0.000000,0.000000,4.000000,4.000000,4.000000,4.000000,4.000000,4.000000,0.000000,,,,,,,,,,,,,,,,,,,,,,,,,,,,
1732158855.897340,1732158855.901124,82.000000,0.000000,4280.897461,4283.461426,4317.820313,4301.666504,4281.410156,4283.589844,4335.128418,4405.897461,4304.615234,4293.589844,4492.948730,4518.461426,4350.769043,4414.615234,1566.000000,1.000000,19.000000,,,,0.000000,2.000000,2.000000,0.000000,4.000000,2.000000,2.000000,0.000000,0.000000,4.000000,4.000000,4.000000,4.000000,4.000000,4.000000,0.000000,,,,,,,,,,,,,,,,,,,,,,,,,,,,
1732158855.905148,1732158855.908932,83.000000,0.000000,4281.153809,4280.897461,4315.897461,4297.820313,4297.820313,4287.051270,4333.846191,4403.333496,4297.820313,4284.487305,4487.563965,4507.948730,4341.794922,4410.256348,1548.000000,1.000000,19.000000,,,,0.000000,2.000000,2.000000,0.000000,4.000000,2.000000,2.000000,0.000000,0.000000,4.000000,4.000000,4.000000,4.000000,4.000000,4.000000,0.000000,,,,,,,,,,,,,,,,,,,,,,,,,,,,
1732158855.912957,1732158855.916840,84.000000,0.000000,4281.410156,4280.000000,4316.410156,4295.256348,4295.512695,4291.538574,4333.974121,4403.589844,4296.410156,4286.153809,4487.692383,4503.589844,4344.871582,4410.128418,1698.000000,1.000000,19.000000,,,,0.000000,2.000000,2.000000,0.000000,4.000000,2.000000,2.000000,0.000000,0.000000,4.000000,4.000000,4.000000,4.000000,4.000000,4.000000,0.000000,,,,,,,,,,,,,,,,,21.000000,0.000000,0.510231,0.479126,-0.533386,0.474976,0.987425,-0.024905,-0.041509,-35.848755,44.776497,31.892574
1732158855.920765,1732158855.924648,85.000000,0.000000,4284.358887,4279.487305,4317.563965,4300.256348,4273.846191,4295.897461,4335.641113,4404.487305,4305.769043,4297.820313,4492.820313,4509.487305,4351.538574,4415.000000,1556.000000,1.000000,19.000000,,,,0.000000,2.000000,2.000000,0.000000,4.000000,2.000000,2.000000,0.000000,0.000000,4.000000,4.000000,4.000000,4.000000,4.000000,4.000000,0.000000,,,,,,,,,,,,,,,,,,,,,,,,,,,,
1732158855.928573,1732158855.932656,86.000000,0.000000,4291.666504,4281.666504,4316.538574,4299.871582,4270.000000,4289.871582,4336.153809,4402.692383,4308.333496,4298.974121,4492.563965,4512.820313,4351.025879,4418.333496,1566.000000,1.000000,19.000000,,,,0.000000,2.000000,2.000000,0.000000,4.000000,2.000000,2.000000,0.000000,0.000000,4.000000,4.000000,4.000000,4.000000,4.000000,4.000000,0.000000,,,,,,,,,,,,,,,,,,,,,,,,,,,,
1732158855.936381,1732158855.940465,87.000000,0.000000,4294.743652,4286.410156,4316.922852,4295.769043,4280.512695,4280.128418,4335.384766,4402.051270,4303.589844,4294.615234,4491.153809,4512.948730,4356.666504,4419.743652,1548.000000,1.000000,19.000000,,,,0.000000,2.000000,2.000000,0.000000,4.000000,2.000000,2.000000,0.000000,0.000000,4.000000,4.000000,4.000000,4.000000,4.000000,4.000000,0.000000,,,,,,,,,,,,,,,,,,,,,,,,,,,,
1732158855.944190,1732158855.948173,88.000000,0.000000,4292.307617,4285.128418,4318.717773,4298.461426,4281.153809,4281.410156,4335.256348,4404.615234,4306.410156,4297.436035,4493.589844,4519.615234,4358.974121,4421.153809,1698.000000,1.000000,19.000000,,,,0.000000,2.000000,2.000000,0.000000,4.000000,2.000000,2.000000,0.000000,0.000000,4.000000,4.000000,4.000000,4.000000,4.000000,4.000000,0.000000,,,,,,,,,,,,,,,,,22.000000,0.000000,0.510487,0.479065,-0.533630,0.474487,0.990355,-0.012209,-0.049811,-35.490826,44.893963,32.019653
1732158855.951998,1732158855.955981,89.000000,0.000000,4287.948730,4280.641113,4318.333496,4301.410156,4275.897461,4284.487305,4335.128418,4403.461426,4311.282227,4297.563965,4493.589844,4525.256348,4350.769043,4418.461426,1556.000000,1.000000,19.000000,,,,0.000000,2.000000,2.000000,0.000000,4.000000,2.000000,2.000000,0.000000,0.000000,4.000000,4.000000,4.000000,4.000000,4.000000,4.000000,0.000000,,,,,,,,,,,,,,,,,,,,,,,,,,,,
1732158855.959806,1732158855.963589,90.000000,0.000000,4283.461426,4279.358887,4317.563965,4297.692383,4278.846191,4282.051270,4335.384766,4401.410156,4304.487305,4293.589844,4487.692383,4520.769043,4349.358887,4414.487305,1566.000000,1.000000,19.000000,,,,0.000000,2.000000,2.000000,0.000000,4.000000,2.000000,2.000000,0.000000,0.000000,4.000000,4.000000,4.000000,4.000000,4.000000,4.000000,0.000000,,,,,,,,,,,,,,,,,,,,,,,,,,,,
1732158855.967614,1732158855.971398,91.000000,0.000000,4282.179688,4281.282227,4317.307617,4299.487305,4287.563965,4287.948730,4335.000000,4402.051270,4299.615234,4293.974121,4478.205078,4512.948730,4348.846191,4411.410156,1548.000000,1.000000,19.000000,,,,0.000000,2.000000,2.000000,0.000000,4.000000,2.000000,2.000000,0.000000,0.000000,4.000000,4.000000,4.000000,4.000000,4.000000,4.000000,0.000000,,,,,,,,,,,,,,,,,,,,,,,,,,,,
1732158855.975423,1732158855.979106,92.000000,0.000000,4280.641113,4280.512695,4317.179688,4301.538574,4293.205078,4295.769043,4336.538574,4402.563965,4302.948730,4292.820313,4472.563965,4505.641113,4336.922852,4401.282227,1698.000000,1.000000,19.000000,,,,0.000000,2.000000,2.000000,0.000000,4.000000,2.000000,2.000000,0.000000,0.000000,4.000000,4.000000,4.000000,4.000000,4.000000,4.000000,0.000000,,,,,,,,,,,,,,,,,23.000000,0.000000,0.510423,0.479065,-0.533691,0.474487,0.977658,-0.030277,-0.041509,-35.379234,44.925774,32.092587
1732158855.983231,1732158855.986914,93.000000,0.000000,4276.794922,4272.436035,4317.563965,4294.487305,4286.922852,4296.538574,4340.384766,4402.563965,4307.436035,4293.205078,4473.205078,4500.641113,4332.948730,4392.051270,1556.000000,1.000000,19.000000,,,,0.000000,2.000000,2.000000,0.000000,4.000000,2.000000,2.000000,0.000000,0.000000,4.000000,4.000000,4.000000,4.000000,4.000000,4.000000,0.000000,,,,,,,,,,,,,,,,,,,,,,,,,,,,
1732158855.991039,1732158855.994523,94.000000,0.000000,4276.410156,4265.641113,4319.102539,4288.974121,4289.871582,4297.307617,4340.512695,4403.846191,4310.641113,4296.538574,4474.102539,4501.153809,4341.666504,4397.948730,1566.000000,1.000000,19.000000,,,,0.000000,2.000000,2.000000,0.000000,4.000000,2.000000,2.000000,0.000000,0.000000,4.000000,4.000000,4.000000,4.000000,4.000000,4.000000,0.000000,,,,,,,,,,,,,,,,,,,,,,,,,,,,
1732158855.998847,1732158856.002331,95.000000,0.000000,4280.897461,4270.897461,4318.333496,4291.922852,4304.230957,4290.897461,4336.282227,4402.948730,4309.230957,4296.538574,4479.230957,4505.897461,4346.794922,4410.000000,1548.000000,1.000000,19.000000,,,,0.000000,2.000000,2.000000,0.000000,4.000000,2.000000,2.000000,0.000000,0.000000,4.000000,4.000000,4.000000,4.000000,4.000000,4.000000,0.000000,,,,,,,,,,,,,,,,,,,,,,,,,,,,
1732158856.006656,1732158856.010039,96.000000,0.000000,4283.077148,4278.333496,4317.948730,4294.615234,4290.512695,4283.717773,4334.230957,4403.846191,4304.871582,4296.666504,4488.974121,4511.282227,4349.230957,4414.230957,1698.000000,1.000000,19.000000,,,,0.000000,2.000000,2.000000,0.000000,4.000000,2.000000,2.000000,0.000000,0.000000,4.000000,4.000000,4.000000,4.000000,4.000000,4.000000,0.000000,,,,,,,,,,,,,,,,,24.000000,0.000000,0.510423,0.479065,-0.533691,0.474487,0.966915,-0.017580,-0.027835,-35.258846,44.936546,31.911661
1732158856.014464,1732158856.017847,97.000000,0.000000,4282.563965,4277.692383,4316.922852,4296.538574,4262.179688,4289.871582,4335.000000,4407.051270,4305.641113,4298.846191,4489.487305,4511.794922,4352.436035,4411.153809,1556.000000,1.000000,19.000000,,,,0.000000,2.000000,2.000000,0.000000,4.000000,2.000000,2.000000,0.000000,0.000000,4.000000,4.000000,4.000000,4.000000,4.000000,4.000000,0.000000,,,,,,,,,,,,,,,,,,,,,,,,,,,,
1732158856.022272,1732158856.025456,98.000000,0.000000,4282.563965,4277.692383,4315.769043,4299.358887,4266.025879,4292.436035,4335.384766,4403.717773,4307.948730,4299.743652,4485.897461,4512.820313,4352.307617,4410.000000,1566.000000,1.000000,19.000000,,,,0.000000,2.000000,2.000000,0.000000,4.000000,2.000000,2.000000,0.000000,0.000000,4.000000,4.000000,4.000000,4.000000,4.000000,4.000000,0.000000,,,,,,,,,,,,,,,,,,,,,,,,,,,,
1732158856.030080,1732158856.033264,99.000000,0.000000,4281.282227,4279.743652,4317.179688,4296.922852,4279.871582,4282.307617,4335.641113,4400.256348,4307.051270,4300.384766,4492.179688,4517.436035,4350.512695,4414.871582,1548.000000,1.000000,19.000000,,,,0.000000,2.000000,2.000000,0.000000,4.000000,2.000000,2.000000,0.000000,0.000000,4.000000,4.000000,4.000000,4.000000,4.000000,4.000000,0.000000,,,,,,,,,,,,,,,,,,,,,,,,,,,,
1732158856.037889,1732158856.040972,100.000000,0.000000,4278.461426,4276.153809,4318.205078,4296.153809,4275.641113,4283.333496,4335.256348,4403.077148,4310.897461,4303.461426,4490.256348,4516.538574,4350.128418,4413.077148,1698.000000,1.000000,19.000000,,,,0.000000,2.000000,2.000000,0.000000,4.000000,2.000000,2.000000,0.000000,0.000000,4.000000,4.000000,4.000000,4.000000,4.000000,4.000000,0.000000,,,,,,,,,,,,,,,,,25.000000,0.000000,0.510556,0.479248,-0.533508,0.474365,0.972775,-0.008302,-0.039067,-35.441334,44.951935,31.988445
1732158856.045697,1732158856.048780,101.000000,0.000000,4277.692383,4275.128418,4317.179688,4297.436035,4289.358887,4295.769043,4335.256348,4402.948730,4310.256348,4299.615234,4478.846191,4509.230957,4350.512695,4403.717773,1556.000000,1.000000,19.000000,,,,0.000000,2.000000,2.000000,0.000000,4.000000,2.000000,2.000000,0.000000,0.000000,4.000000,4.000000,4.000000,4.000000,4.000000,4.000000,0.000000,,,,,,,,,,,,,,,,,,,,,,,,,,,,
1732158856.053505,1732158856.056389,102.000000,0.000000,4278.846191,4274.871582,4317.436035,4296.410156,4303.589844,4292.563965,4336.410156,4400.641113,4305.512695,4292.179688,4481.666504,4510.769043,4349.230957,4404.615234,1566.000000,1.000000,19.000000,,,,0.000000,2.000000,2.000000,0.000000,4.000000,2.000000,2.000000,0.000000,0.000000,4.000000,4.000000,4.000000,4.000000,4.000000,4.000000,0.000000,,,,,,,,,,,,,,,,,,,,,,,,,,,,
1732158856.061313,1732158856.064197,103.000000,0.000000,4277.692383,4271.666504,4317.820313,4294.358887,4276.794922,4284.358887,4335.128418,4401.922852,4309.487305,4303.077148,4491.282227,4517.563965,4349.743652,4412.948730,1548.000000,1.000000,19.000000,,,,0.000000,2.000000,2.000000,0.000000,4.000000,2.000000,2.000000,0.000000,0.000000,4.000000,4.000000,4.000000,4.000000,4.000000,4.000000,0.000000,,,,,,,,,,,,,,,,,,,,,,,,,,,,
1732158856.069122,1732158856.071905,104.000000,0.000000,4274.743652,4270.000000,4317.563965,4295.256348,4261.922852,4285.256348,4336.025879,4402.820313,4311.922852,4315.000000,4491.153809,4516.153809,4355.128418,4414.487305,1698.000000,1.000000,19.000000,,,,0.000000,2.000000,2.000000,0.000000,4.000000,2.000000,2.000000,0.000000,0.000000,4.000000,4.000000,4.000000,4.000000,4.000000,4.000000,0.000000,,,,,,,,,,,,,,,,,26.000000,0.000000,0.510398,0.479492,-0.533386,0.474426,0.980588,-0.024417,-0.045904,-35.519146,45.041065,31.807308
1732158856.076930,1732158856.079714,105.000000,0.000000,4277.179688,4270.897461,4317.307617,4295.769043,4280.128418,4287.563965,4339.102539,4403.077148,4309.230957,4305.256348,4487.948730,4515.256348,4356.922852,4409.615234,1556.000000,1.000000,19.000000,,,,0.000000,2.000000,2.000000,0.000000,4.000000,2.000000,2.000000,0.000000,0.000000,4.000000,4.000000,4.000000,4.000000,4.000000,4.000000,0.000000,,,,,,,,,,,,,,,,,,,,,,,,,,,,
1732158856.084738,1732158856.087722,106.000000,0.000000,4278.205078,4269.358887,4316.282227,4294.743652,4285.000000,4286.538574,4339.487305,4402.307617,4312.307617,4296.410156,4489.487305,4513.589844,4353.077148,4406.666504,1566.000000,1.000000,19.000000,,,,0.000000,2.000000,2.000000,0.000000,4.000000,2.000000,2.000000,0.000000,0.000000,4.000000,4.000000,4.000000,4.000000,4.000000,4.000000,0.000000,,,,,,,,,,,,,,,,,,,,,,,,,,,,
1732158856.092546,1732158856.095530,107.000000,0.000000,4270.000000,4269.102539,4317.563965,4294.358887,4278.717773,4283.333496,4337.051270,4400.000000,4313.205078,4301.410156,4489.487305,4506.666504,4348.974121,4405.128418,1548.000000,1.000000,19.000000,,,,0.000000,2.000000,2.000000,0.000000,4.000000,2.000000,2.000000,0.000000,0.000000,4.000000,4.000000,4.000000,4.000000,4.000000,4.000000,0.000000,,,,,,,,,,,,,,,,,,,,,,,,,,,,
1732158856.100355,1732158856.103238,108.000000,0.000000,4268.077148,4273.205078,4318.077148,4295.000000,4279.615234,4282.692383,4336.666504,4402.051270,4310.641113,4304.743652,4487.563965,4506.025879,4348.077148,4403.205078,1698.000000,1.000000,19.000000,,,,0.000000,2.000000,2.000000,0.000000,4.000000,2.000000,2.000000,0.000000,0.000000,4.000000,4.000000,4.000000,4.000000,4.000000,4.000000,0.000000,,,,,,,,,,,,,,,,,27.000000,0.000000,0.510297,0.479675,-0.533264,0.474487,0.979123,-0.001953,-0.027835,-35.473843,44.894932,31.645586
1732158856.108163,1732158856.111046,109.000000,0.000000,4276.538574,4273.205078,4317.051270,4295.384766,4283.589844,4287.692383,4338.589844,4407.179688,4312.820313,4300.512695,4487.692383,4511.538574,4349.102539,4404.615234,1556.000000,1.000000,19.000000,,,,0.000000,2.000000,2.000000,0.000000,4.000000,2.000000,2.000000,0.000000,0.000000,4.000000,4.000000,4.000000,4.000000,4.000000,4.000000,0.000000,,,,,,,,,,,,,,,,,,,,,,,,,,,,
1732158856.115971,1732158856.118655,110.000000,0.000000,4277.436035,4271.538574,4317.948730,4295.512695,4297.948730,4291.666504,4338.589844,4405.641113,4313.077148,4299.615234,4488.846191,4511.025879,4349.871582,4406.153809,1566.000000,1.000000,19.000000,,,,0.000000,2.000000,2.000000,0.000000,4.000000,2.000000,2.000000,0.000000,0.000000,4.000000,4.000000,4.000000,4.000000,4.000000,4.000000,0.000000,,,,,,,,,,,,,,,,,,,,,,,,,,,,
1732158856.123779,1732158856.126463,111.000000,0.000000,4275.897461,4275.256348,4319.743652,4296.538574,4300.641113,4288.717773,4335.897461,4402.563965,4311.410156,4302.948730,4489.871582,4507.179688,4350.256348,4405.897461,1548.000000,1.000000,19.000000,,,,0.000000,2.000000,2.000000,0.000000,4.000000,2.000000,2.000000,0.000000,0.000000,4.000000,4.000000,4.000000,4.000000,4.000000,4.000000,0.000000,,,,,,,,,,,,,,,,,,,,,,,,,,,,
1732158856.131588,1732158856.134371,112.000000,0.000000,4276.794922,4278.077148,4317.436035,4296.666504,4276.922852,4289.230957,4335.000000,4403.333496,4314.358887,4305.641113,4486.538574,4503.589844,4348.846191,4402.307617,1698.000000,1.000000,19.000000,,,,0.000000,2.000000,2.000000,0.000000,4.000000,2.000000,2.000000,0.000000,0.000000,4.000000,4.000000,4.000000,4.000000,4.000000,4.000000,0.000000,,,,,,,,,,,,,,,,,28.000000,0.000000,0.510239,0.479736,-0.533264,0.474487,0.979123,-0.001953,-0.027835,-35.447144,44.978226,31.554590
1732158856.139396,1732158856.142179,113.000000,0.000000,4273.974121,4273.461426,4317.692383,4295.512695,4270.256348,4289.743652,4339.358887,4403.846191,4313.461426,4300.769043,4482.179688,4501.538574,4344.358887,4399.102539,1556.000000,1.000000,19.000000,,,,0.000000,2.000000,2.000000,0.000000,4.000000,2.000000,2.000000,0.000000,0.000000,4.000000,4.000000,4.000000,4.000000,4.000000,4.000000,0.000000,,,,,,,,,,,,,,,,,,,,,,,,,,,,
1732158856.147204,1732158856.150187,114.000000,0.000000,4269.615234,4270.769043,4318.205078,4294.487305,4281.922852,4281.666504,4340.512695,4403.717773,4308.077148,4293.333496,4477.820313,4501.282227,4342.436035,4397.692383,1566.000000,1.000000,19.000000,,,,0.000000,2.000000,2.000000,0.000000,4.000000,2.000000,2.000000,0.000000,0.000000,4.000000,4.000000,4.000000,4.000000,4.000000,4.000000,0.000000,,,,,,,,,,,,,,,,,,,,,,,,,,,,
1732158856.155012,1732158856.157996,115.000000,0.000000,4267.692383,4272.051270,4315.641113,4291.153809,4279.102539,4280.128418,4335.384766,4406.410156,4313.974121,4296.794922,4476.794922,4500.384766,4348.205078,4397.436035,1548.000000,1.000000,19.000000,,,,0.000000,2.000000,2.000000,0.000000,4.000000,2.000000,2.000000,0.000000,0.000000,4.000000,4.000000,4.000000,4.000000,4.000000,4.000000,0.000000,,,,,,,,,,,,,,,,,,,,,,,,,,,,
1732158856.162821,1732158856.165704,116.000000,0.000000,4272.179688,4266.538574,4316.025879,4290.512695,4276.153809,4283.717773,4333.205078,4404.871582,4318.974121,4299.615234,4478.461426,4502.307617,4351.153809,4403.974121,1698.000000,1.000000,19.000000,,,,0.000000,2.000000,2.000000,0.000000,4.000000,2.000000,2.000000,0.000000,0.000000,4.000000,4.000000,4.000000,4.000000,4.000000,4.000000,0.000000,,,,,,,,,,,,,,,,,29.000000,0.000000,0.510221,0.480042,-0.532898,0.474609,0.977170,-0.025882,-0.024417,-35.387188,44.974030,31.532553
1732158856.170629,1732158856.173512,117.000000,0.000000,4276.538574,4263.846191,4318.333496,4294.102539,4283.717773,4280.128418,4337.307617,4401.282227,4310.000000,4297.051270,4478.717773,4507.820313,4348.333496,4412.307617,1556.000000,1.000000,19.000000,,,,0.000000,2.000000,2.000000,0.000000,4.000000,2.000000,2.000000,0.000000,0.000000,4.000000,4.000000,4.000000,4.000000,4.000000,4.000000,0.000000,,,,,,,,,,,,,,,,,,,,,,,,,,,,
1732158856.178437,1732158856.181520,118.000000,0.000000,4271.153809,4265.512695,4316.666504,4293.974121,4285.512695,4283.589844,4340.512695,4403.717773,4306.025879,4296.538574,4479.358887,4510.512695,4350.512695,4410.897461,1566.000000,1.000000,19.000000,,,,0.000000,2.000000,2.000000,0.000000,4.000000,2.000000,2.000000,0.000000,0.000000,4.000000,4.000000,4.000000,4.000000,4.000000,4.000000,0.000000,,,,,,,,,,,,,,,,,,,,,,,,,,,,
1732158856.186245,1732158856.189328,119.000000,0.000000,4266.538574,4264.102539,4315.641113,4292.051270,4285.128418,4291.538574,4336.153809,4402.820313,4311.025879,4295.641113,4478.974121,4506.410156,4350.256348,4405.128418,1548.000000,1.000000,19.000000,,,,0.000000,2.000000,2.000000,0.000000,4.000000,2.000000,2.000000,0.000000,0.000000,4.000000,4.000000,4.000000,4.000000,4.000000,4.000000,0.000000,,,,,,,,,,,,,,,,,,,,,,,,,,,,
1732158856.194054,1732158856.197236,120.000000,0.000000,4273.846191,4267.179688,4317.436035,4294.230957,4286.538574,4287.692383,4333.461426,4400.000000,4310.128418,4293.717773,4476.666504,4500.641113,4346.025879,4406.538574,1698.000000,1.000000,19.000000,,,,0.000000,2.000000,2.000000,0.000000,4.000000,2.000000,2.000000,0.000000,0.000000,4.000000,4.000000,4.000000,4.000000,4.000000,4.000000,0.000000,,,,,,,,,,,,,,,,,30.000000,0.000000,0.510165,0.480042,-0.532898,0.474670,0.979123,-0.025394,-0.021487,-35.435287,44.847298,31.446367
1732158856.201862,1732158856.205045,121.000000,0.000000,4280.512695,4274.230957,4316.538574,4295.384766,4286.666504,4288.333496,4335.769043,4400.384766,4309.102539,4294.102539,4477.948730,4503.077148,4345.128418,4408.589844,1556.000000,1.000000,19.000000,,,,0.000000,2.000000,2.000000,0.000000,4.000000,2.000000,2.000000,0.000000,0.000000,4.000000,4.000000,4.000000,4.000000,4.000000,4.000000,0.000000,,,,,,,,,,,,,,,,,,,,,,,,,,,,
1732158856.209670,1732158856.213053,122.000000,0.000000,4276.538574,4271.282227,4315.128418,4293.974121,4298.077148,4290.897461,4333.461426,4401.922852,4312.051270,4291.153809,4479.743652,4505.641113,4347.179688,4407.948730,1566.000000,1.000000,19.000000,,,,0.000000,2.000000,2.000000,0.000000,4.000000,2.000000,2.000000,0.000000,0.000000,4.000000,4.000000,4.000000,4.000000,4.000000,4.000000,0.000000,,,,,,,,,,,,,,,,,,,,,,,,,,,,
1732158856.217478,1732158856.220861,123.000000,0.000000,4275.512695,4264.102539,4315.641113,4292.436035,4302.563965,4283.974121,4329.871582,4401.922852,4311.666504,4288.077148,4476.666504,4500.769043,4347.051270,4412.179688,1548.000000,1.000000,19.000000,,,,0.000000,2.000000,2.000000,0.000000,4.000000,2.000000,2.000000,0.000000,0.000000,4.000000,4.000000,4.000000,4.000000,4.000000,4.000000,0.000000,,,,,,,,,,,,,,,,,,,,,,,,,,,,
1732158856.225287,1732158856.228769,124.000000,0.000000,4280.128418,4267.820313,4316.153809,4292.436035,4277.820313,4280.512695,4334.743652,4401.666504,4312.307617,4293.333496,4477.436035,4499.615234,4344.743652,4412.307617,1698.000000,1.000000,19.000000,,,,0.000000,2.000000,2.000000,0.000000,4.000000,2.000000,2.000000,0.000000,0.000000,4.000000,4.000000,4.000000,4.000000,4.000000,4.000000,0.000000,,,,,,,,,,,,,,,,,31.000000,0.000000,0.510114,0.480103,-0.532837,0.474731,0.979123,-0.025394,-0.021487,-35.342583,44.784645,31.399891
1732158856.233095,1732158856.236577,125.000000,0.000000,4282.436035,4274.871582,4316.153809,4294.487305,4263.717773,4284.230957,4338.974121,4399.871582,4312.307617,4294.230957,4481.794922,4501.922852,4345.256348,4409.615234,1556.000000,1.000000,19.000000,,,,0.000000,2.000000,2.000000,0.000000,4.000000,2.000000,2.000000,0.000000,0.000000,4.000000,4.000000,4.000000,4.000000,4.000000,4.000000,0.000000,,,,,,,,,,,,,,,,,,,,,,,,,,,,
1732158856.240903,1732158856.244585,126.000000,0.000000,4276.666504,4273.077148,4317.820313,4295.897461,4278.333496,4281.410156,4336.410156,4399.358887,4308.461426,4287.179688,4479.102539,4497.051270,4345.769043,4411.410156,1566.000000,1.000000,19.000000,,,,0.000000,2.000000,2.000000,0.000000,4.000000,2.000000,2.000000,0.000000,0.000000,4.000000,4.000000,4.000000,4.000000,4.000000,4.000000,0.000000,,,,,,,,,,,,,,,,,,,,,,,,,,,,
1732158856.248711,1732158856.252393,127.000000,0.000000,4273.974121,4270.641113,4318.589844,4295.897461,4284.871582,4282.179688,4335.769043,4403.333496,4309.871582,4287.820313,4474.358887,4492.436035,4344.358887,4406.922852,19.000000,1.000000,19.000000,,,,0.000000,2.000000,2.000000,0.000000,4.000000,2.000000,2.000000,0.000000,0.000000,4.000000,4.000000,4.000000,4.000000,4.000000,4.000000,0.000000,,,,,,,,,,,,,,,,,,,,,,,,,,,,
1732158856.256520,1732158856.260301,0.000000,0.000000,4278.846191,4274.102539,4317.948730,4296.666504,4279.230957,4288.589844,4336.538574,4402.692383,4312.692383,4297.051270,4474.358887,4497.692383,4342.820313,4398.717773,0.000000,1.000000,19.000000,,,,0.000000,2.000000,2.000000,0.000000,4.000000,2.000000,2.000000,0.000000,0.000000,4.000000,4.000000,4.000000,4.000000,4.000000,4.000000,0.000000,,,,,,,,,,,,,,,,,0.000000,0.000000,0.510121,0.480103,-0.532776,0.474792,0.986937,-0.009278,-0.023929,-35.340828,44.988895,31.505579
1732158856.264328,1732158856.268110,1.000000,0.000000,4279.743652,4279.230957,4317.436035,4296.922852,4280.256348,4283.974121,4335.512695,4398.846191,4308.717773,4297.436035,4475.384766,4506.025879,4342.051270,4400.897461,1614.000000,1.000000,19.000000,,,,0.000000,2.000000,2.000000,0.000000,4.000000,2.000000,2.000000,0.000000,0.000000,4.000000,4.000000,4.000000,4.000000,4.000000,4.000000,0.000000,,,,,,,,,,,,,,,,,,,,,,,,,,,,
1732158856.272136,1732158856.276118,2.000000,0.000000,4277.436035,4277.820313,4317.179688,4296.666504,4283.461426,4281.153809,4335.128418,4402.307617,4306.538574,4285.256348,4474.358887,4508.205078,4342.436035,4406.025879,1357.000000,1.000000,19.000000,,,,0.000000,2.000000,2.000000,0.000000,4.000000,2.000000,2.000000,0.000000,0.000000,4.000000,4.000000,4.000000,4.000000,4.000000,4.000000,0.000000,,,,,,,,,,,,,,,,,,,,,,,,,,,,
1732158856.279945,1732158856.283926,3.000000,0.000000,4276.538574,4269.615234,4315.000000,4296.282227,4294.230957,4282.307617,4334.743652,4407.692383,4310.000000,4278.205078,4474.230957,4502.179688,4342.051270,4403.333496,1429.000000,1.000000,19.000000,,,,0.000000,2.000000,2.000000,0.000000,4.000000,2.000000,2.000000,0.000000,0.000000,4.000000,4.000000,4.000000,4.000000,4.000000,4.000000,0.000000,,,,,,,,,,,,,,,,,,,,,,,,,,,,
1732158856.287753,1732158856.291834,4.000000,0.000000,4277.179688,4266.538574,4314.743652,4293.846191,4301.025879,4280.000000,4336.025879,4405.128418,4308.846191,4285.128418,4476.410156,4499.743652,4341.410156,4404.358887,1439.000000,1.000000,19.000000,,,,0.000000,2.000000,2.000000,0.000000,4.000000,2.000000,2.000000,0.000000,0.000000,4.000000,4.000000,4.000000,4.000000,4.000000,4.000000,0.000000,,,,,,,,,,,,,,,,,1.000000,0.000000,0.510215,0.479980,-0.532959,0.474609,0.981565,-0.012209,-0.032230,-35.239403,45.054340,31.441185
1732158856.295561,1732158856.299642,5.000000,0.000000,4279.358887,4270.512695,4316.538574,4294.230957,4283.974121,4283.717773,4339.230957,4400.641113,4302.820313,4292.436035,4478.589844,4508.717773,4340.897461,4410.000000,1197.000000,1.000000,19.000000,,,,0.000000,2.000000,2.000000,0.000000,4.000000,2.000000,2.000000,0.000000,0.000000,4.000000,4.000000,4.000000,4.000000,4.000000,4.000000,0.000000,,,,,,,,,,,,,,,,,,,,,,,,,,,,
1732158856.303369,1732158856.307650,6.000000,0.000000,4280.128418,4272.307617,4316.666504,4296.025879,4271.410156,4285.897461,4336.794922,4401.922852,4300.641113,4290.641113,4476.922852,4510.769043,4343.589844,4409.743652,0.000000,1.000000,19.000000,,,,0.000000,2.000000,2.000000,0.000000,4.000000,2.000000,2.000000,0.000000,0.000000,4.000000,4.000000,4.000000,4.000000,4.000000,4.000000,0.000000,,,,,,,,,,,,,,,,,,,,,,,,,,,,
1732158856.311177,1732158856.315458,7.000000,0.000000,4277.948730,4265.769043,4316.666504,4293.077148,4277.436035,4284.230957,4333.717773,4402.436035,4306.410156,4290.641113,4475.769043,4506.153809,4344.871582,4407.307617,0.000000,1.000000,19.000000,,,,0.000000,2.000000,2.000000,0.000000,4.000000,2.000000,2.000000,0.000000,0.000000,4.000000,4.000000,4.000000,4.000000,4.000000,4.000000,0.000000,,,,,,,,,,,,,,,,,,,,,,,,,,,,
1732158856.318986,1732158856.323366,8.000000,0.000000,4277.948730,4262.307617,4317.563965,4291.025879,4286.025879,4288.589844,4334.615234,4402.820313,4311.666504,4295.512695,4477.948730,4507.948730,4342.948730,4407.436035,1539.000000,1.000000,19.000000,,,,0.000000,2.000000,2.000000,0.000000,4.000000,2.000000,2.000000,0.000000,0.000000,4.000000,4.000000,4.000000,4.000000,4.000000,4.000000,0.000000,,,,,,,,,,,,,,,,,2.000000,0.000000,0.510215,0.479980,-0.532959,0.474609,0.979123,-0.006348,-0.024905,-35.247250,45.002346,31.479027
1732158856.326794,1732158856.331175,9.000000,0.000000,4277.820313,4269.871582,4317.179688,4296.410156,4285.769043,4293.461426,4334.743652,4405.000000,4310.384766,4293.333496,4477.563965,4512.179688,4342.820313,4409.102539,1695.000000,1.000000,19.000000,,,,0.000000,2.000000,2.000000,0.000000,4.000000,2.000000,2.000000,0.000000,0.000000,4.000000,4.000000,4.000000,4.000000,4.000000,4.000000,0.000000,,,,,,,,,,,,,,,,,,,,,,,,,,,,
1732158856.334602,1732158856.338783,10.000000,0.000000,4276.410156,4276.922852,4315.769043,4300.000000,4288.589844,4289.615234,4333.205078,4403.333496,4308.974121,4290.512695,4477.436035,4508.589844,4346.922852,4410.512695,1564.000000,1.000000,19.000000,,,,0.000000,2.000000,2.000000,0.000000,4.000000,2.000000,2.000000,0.000000,0.000000,4.000000,4.000000,4.000000,4.000000,4.000000,4.000000,0.000000,,,,,,,,,,,,,,,,,,,,,,,,,,,,
1732158856.342410,1732158856.346591,11.000000,0.000000,4278.589844,4275.897461,4317.307617,4296.410156,4303.077148,4283.717773,4334.487305,4401.282227,4311.538574,4294.358887,4484.358887,4506.410156,4350.641113,4412.820313,1551.000000,1.000000,19.000000,,,,0.000000,2.000000,2.000000,0.000000,4.000000,2.000000,2.000000,0.000000,0.000000,4.000000,4.000000,4.000000,4.000000,4.000000,4.000000,0.000000,,,,,,,,,,,,,,,,,,,,,,,,,,,,
1732158856.350219,1732158856.354499,12.000000,0.000000,4280.641113,4273.846191,4318.205078,4295.128418,4298.461426,4284.487305,4335.256348,4403.589844,4312.179688,4298.205078,4489.358887,4510.384766,4350.256348,4414.615234,1708.000000,1.000000,19.000000,,,,0.000000,2.000000,2.000000,0.000000,4.000000,2.000000,2.000000,0.000000,0.000000,4.000000,4.000000,4.000000,4.000000,4.000000,4.000000,0.000000,,,,,,,,,,,,,,,,,3.000000,0.000000,0.510330,0.479858,-0.532959,0.474609,0.990844,-0.023440,-0.020999,-35.231937,44.685234,31.704678
1732158856.358027,1732158856.362308,13.000000,0.000000,4280.512695,4274.230957,4317.436035,4298.333496,4273.077148,4286.410156,4334.615234,4402.436035,4308.846191,4296.025879,4488.077148,4511.794922,4350.512695,4414.358887,1558.000000,1.000000,19.000000,,,,0.000000,2.000000,2.000000,0.000000,4.000000,2.000000,2.000000,0.000000,0.000000,4.000000,4.000000,4.000000,4.000000,4.000000,4.000000,0.000000,,,,,,,,,,,,,,,,,,,,,,,,,,,,
1732158856.365835,1732158856.369916,14.000000,0.000000,4280.641113,4273.974121,4316.410156,4296.153809,4268.717773,4283.205078,4334.871582,4399.487305,4309.230957,4293.461426,4488.589844,4509.615234,4349.358887,4413.589844,1564.000000,1.000000,19.000000,,,,0.000000,2.000000,2.000000,0.000000,4.000000,2.000000,2.000000,0.000000,0.000000,4.000000,4.000000,4.000000,4.000000,4.000000,4.000000,0.000000,1.000000,0.000000,2.000000,2.000000,0.000000,4.000000,2.000000,2.000000,0.000000,0.000000,4.000000,4.000000,4.000000,4.000000,3.000000,3.000000,,,,,,,,,,,,
1732158856.373644,1732158856.377724,15.000000,0.000000,4280.128418,4276.025879,4316.282227,4295.384766,4281.025879,4281.410156,4335.000000,4404.230957,4313.205078,4295.512695,4487.820313,4507.692383,4345.641113,4412.692383,1551.000000,1.000000,19.000000,,,,0.000000,2.000000,2.000000,0.000000,4.000000,2.000000,2.000000,0.000000,0.000000,4.000000,4.000000,4.000000,4.000000,4.000000,4.000000,0.000000,,,,,,,,,,,,,,,,,,,,,,,,,,,,
1732158856.381452,1732158856.385433,16.000000,0.000000,4279.358887,4277.820313,4314.871582,4301.282227,4290.256348,4286.922852,4334.871582,4406.025879,4311.666504,4293.205078,4478.333496,4505.897461,4342.179688,4409.743652,0.000000,1.000000,19.000000,,,,0.000000,2.000000,2.000000,0.000000,4.000000,2.000000,2.000000,0.000000,0.000000,4.000000,4.000000,4.000000,4.000000,4.000000,4.000000,0.000000,,,,,,,,,,,,,,,,,4.000000,0.000000,0.510533,0.479431,-0.533203,0.474548,0.977170,-0.014162,-0.011720,-35.274536,44.728374,31.900789
1732158856.389260,1732158856.393241,17.000000,0.000000,4280.256348,4274.230957,4313.846191,4302.436035,4302.179688,4290.384766,4334.871582,4404.230957,4307.692383,4286.538574,4473.974121,4504.615234,4341.538574,4406.153809,0.000000,1.000000,19.000000,,,,0.000000,2.000000,2.000000,0.000000,4.000000,2.000000,2.000000,0.000000,0.000000,4.000000,4.000000,4.000000,4.000000,4.000000,4.000000,0.000000,,,,,,,,,,,,,,,,,,,,,,,,,,,,
1732158856.397068,1732158856.400849,18.000000,0.000000,4281.282227,4272.563965,4316.282227,4297.307617,4296.538574,4291.153809,4334.871582,4405.512695,4310.641113,4287.563965,4483.077148,4505.128418,4345.128418,4408.846191,0.000000,1.000000,19.000000,,,,0.000000,2.000000,2.000000,0.000000,4.000000,2.000000,2.000000,0.000000,0.000000,4.000000,4.000000,4.000000,4.000000,4.000000,4.000000,0.000000,,,,,,,,,,,,,,,,,,,,,,,,,,,,
1732158856.404877,1732158856.408657,19.000000,0.000000,4280.769043,4271.794922,4321.410156,4295.641113,4273.205078,4291.794922,4334.743652,4403.717773,4308.846191,4290.897461,4486.153809,4506.666504,4347.563965,4413.461426,0.000000,1.000000,19.000000,,,,0.000000,2.000000,2.000000,0.000000,4.000000,2.000000,2.000000,0.000000,0.000000,4.000000,4.000000,4.000000,4.000000,4.000000,4.000000,0.000000,,,,,,,,,,,,,,,,,,,,,,,,,,,,
1732158856.412685,1732158856.416366,20.000000,0.000000,4280.641113,4271.153809,4321.153809,4298.333496,4276.282227,4285.769043,4334.615234,4399.871582,4300.128418,4288.846191,4479.871582,4508.077148,4344.871582,4411.794922,0.000000,1.000000,19.000000,,,,0.000000,2.000000,2.000000,0.000000,4.000000,2.000000,2.000000,0.000000,0.000000,4.000000,4.000000,4.000000,4.000000,4.000000,4.000000,0.000000,,,,,,,,,,,,,,,,,5.000000,0.000000,0.510671,0.479126,-0.533508,0.474365,0.979612,-0.012209,-0.024905,-35.494041,44.831650,31.964640
1732158856.420493,1732158856.424174,21.000000,0.000000,4279.358887,4278.205078,4317.179688,4301.025879,4292.820313,4285.384766,4335.256348,4401.922852,4303.846191,4290.512695,4476.153809,4507.948730,4340.641113,4407.179688,0.000000,1.000000,19.000000,,,,0.000000,2.000000,2.000000,0.000000,4.000000,2.000000,2.000000,0.000000,0.000000,4.000000,4.000000,4.000000,4.000000,4.000000,4.000000,0.000000,,,,,,,,,,,,,,,,,,,,,,,,,,,,
1732158856.428301,1732158856.432182,22.000000,0.000000,4278.205078,4281.538574,4316.538574,4301.025879,4285.641113,4289.358887,4334.615234,4403.717773,4313.974121,4296.410156,4477.820313,4505.384766,4344.615234,4404.871582,0.000000,1.000000,19.000000,,,,0.000000,2.000000,2.000000,0.000000,4.000000,2.000000,2.000000,0.000000,0.000000,4.000000,4.000000,4.000000,4.000000,4.000000,4.000000,0.000000,,,,,,,,,,,,,,,,,,,,,,,,,,,,
1732158856.436109,1732158856.439990,23.000000,0.000000,4278.717773,4270.512695,4318.077148,4296.922852,4279.358887,4283.461426,4334.358887,4399.743652,4311.922852,4296.410156,4483.974121,4507.948730,4348.077148,4405.384766,0.000000,1.000000,19.000000,,,,0.000000,2.000000,2.000000,0.000000,4.000000,2.000000,2.000000,0.000000,0.000000,4.000000,4.000000,4.000000,4.000000,4.000000,4.000000,0.000000,,,,,,,,,,,,,,,,,,,,,,,,,,,,
1732158856.443918,1732158856.447698,24.000000,0.000000,4279.871582,4263.717773,4317.948730,4292.051270,4296.538574,4278.846191,4336.794922,4400.897461,4308.077148,4293.333496,4488.717773,4514.358887,4343.717773,4408.461426,0.000000,1.000000,19.000000,,,,0.000000,2.000000,2.000000,0.000000,4.000000,2.000000,2.000000,0.000000,0.000000,4.000000,4.000000,4.000000,4.000000,4.000000,4.000000,0.000000,,,,,,,,,,,,,,,,,6.000000,0.000000,0.510664,0.479065,-0.533569,0.474365,0.968380,-0.019534,-0.024417,-35.393509,44.831970,31.896358
1732158856.451726,1732158856.455507,25.000000,0.000000,4281.153809,4272.436035,4315.512695,4294.615234,4303.461426,4283.461426,4337.948730,4403.461426,4310.769043,4294.230957,4487.948730,4517.563965,4346.410156,4413.077148,0.000000,1.000000,19.000000,,,,0.000000,2.000000,2.000000,0.000000,4.000000,2.000000,2.000000,0.000000,0.000000,4.000000,4.000000,4.000000,4.000000,4.000000,4.000000,0.000000,,,,,,,,,,,,,,,,,,,,,,,,,,,,
1732158856.459534,1732158856.463115,26.000000,0.000000,4280.641113,4274.230957,4315.512695,4298.974121,4281.666504,4283.077148,4335.512695,4402.563965,4311.153809,4294.743652,4487.692383,4513.974121,4351.922852,4413.077148,0.000000,1.000000,19.000000,,,,0.000000,2.000000,2.000000,0.000000,4.000000,2.000000,2.000000,0.000000,0.000000,4.000000,4.000000,4.000000,4.000000,4.000000,4.000000,0.000000,,,,,,,,,,,,,,,,,,,,,,,,,,,,
1732158856.467343,1732158856.470923,27.000000,0.000000,4276.153809,4264.615234,4315.897461,4295.897461,4269.230957,4280.769043,4334.487305,4402.179688,4307.179688,4295.897461,4488.205078,4505.128418,4346.794922,4405.128418,0.000000,1.000000,19.000000,,,,0.000000,2.000000,2.000000,0.000000,4.000000,2.000000,2.000000,0.000000,0.000000,4.000000,4.000000,4.000000,4.000000,4.000000,4.000000,0.000000,,,,,,,,,,,,,,,,,,,,,,,,,,,,
1732158856.475151,1732158856.478632,28.000000,0.000000,4273.205078,4265.128418,4315.128418,4292.436035,4283.589844,4282.820313,4334.871582,4401.153809,4302.692383,4292.307617,4481.794922,4502.692383,4340.128418,4401.410156,0.000000,1.000000,19.000000,,,,0.000000,2.000000,2.000000,0.000000,4.000000,2.000000,2.000000,0.000000,0.000000,4.000000,4.000000,4.000000,4.000000,4.000000,4.000000,0.000000,,,,,,,,,,,,,,,,,7.000000,0.000000,0.510785,0.479065,-0.533508,0.474304,0.974240,-0.025394,-0.022952,-35.507072,44.718895,31.832716
1732158856.482959,1732158856.486440,29.000000,0.000000,4278.717773,4274.871582,4315.384766,4293.974121,4284.358887,4283.589844,4335.256348,4401.410156,4301.922852,4290.897461,4480.256348,4507.948730,4345.256348,4410.000000,0.000000,1.000000,19.000000,,,,0.000000,2.000000,2.000000,0.000000,4.000000,2.000000,2.000000,0.000000,0.000000,4.000000,4.000000,4.000000,4.000000,4.000000,4.000000,0.000000,,,,,,,,,,,,,,,,,,,,,,,,,,,,
1732158856.490767,1732158856.494048,30.000000,0.000000,4279.230957,4271.666504,4316.666504,4292.436035,4275.512695,4282.563965,4336.794922,4405.000000,4306.666504,4296.922852,4487.436035,4510.128418,4346.025879,4413.333496,0.000000,1.000000,19.000000,,,,0.000000,2.000000,2.000000,0.000000,4.000000,2.000000,2.000000,0.000000,0.000000,4.000000,4.000000,4.000000,4.000000,4.000000,4.000000,0.000000,,,,,,,,,,,,,,,,,,,,,,,,,,,,
1732158856.498576,1732158856.501856,31.000000,0.000000,4268.333496,4262.948730,4313.974121,4288.717773,4295.384766,4282.692383,4335.897461,4406.025879,4311.025879,4297.692383,4488.333496,4507.948730,4342.820313,4404.358887,0.000000,1.000000,19.000000,,,,0.000000,2.000000,2.000000,0.000000,4.000000,2.000000,2.000000,0.000000,0.000000,4.000000,4.000000,4.000000,4.000000,4.000000,4.000000,0.000000,,,,,,,,,,,,,,,,,,,,,,,,,,,,
1732158856.506384,1732158856.509764,32.000000,0.000000,4262.820313,4263.205078,4312.820313,4290.512695,4306.794922,4286.410156,4335.641113,4401.282227,4311.922852,4293.461426,4482.436035,4507.820313,4347.307617,4401.410156,0.000000,1.000000,19.000000,,,,0.000000,2.000000,2.000000,0.000000,4.000000,2.000000,2.000000,0.000000,0.000000,4.000000,4.000000,4.000000,4.000000,4.000000,4.000000,0.000000,,,,,,,,,,,,,,,,,8.000000,0.000000,0.510525,0.478821,-0.533813,0.474487,0.989379,-0.011720,-0.019534,-35.482395,44.643970,31.714500
1732158856.514192,1732158856.517573,33.000000,0.000000,4266.410156,4265.256348,4315.641113,4292.948730,4283.717773,4291.666504,4339.743652,4399.358887,4312.051270,4293.589844,4478.333496,4508.461426,4346.153809,4404.230957,0.000000,1.000000,19.000000,,,,0.000000,2.000000,2.000000,0.000000,4.000000,2.000000,2.000000,0.000000,0.000000,4.000000,4.000000,4.000000,4.000000,4.000000,4.000000,0.000000,,,,,,,,,,,,,,,,,,,,,,,,,,,,
1732158856.522000,1732158856.525581,34.000000,0.000000,4266.538574,4262.820313,4315.256348,4291.153809,4272.179688,4296.922852,4341.025879,4405.512695,4311.922852,4296.025879,4474.871582,4506.282227,4339.358887,4399.230957,0.000000,1.000000,19.000000,,,,0.000000,2.000000,2.000000,0.000000,4.000000,2.000000,2.000000,0.000000,0.000000,4.000000,4.000000,4.000000,4.000000,4.000000,4.000000,0.000000,,,,,,,,,,,,,,,,,,,,,,,,,,,,
1732158856.529809,1732158856.533389,35.000000,0.000000,4265.256348,4260.769043,4315.128418,4292.307617,4282.436035,4295.512695,4338.846191,4407.436035,4311.025879,4295.769043,4475.641113,4506.922852,4341.410156,4397.948730,0.000000,1.000000,19.000000,,,,0.000000,2.000000,2.000000,0.000000,4.000000,2.000000,2.000000,0.000000,0.000000,4.000000,4.000000,4.000000,4.000000,4.000000,4.000000,0.000000,,,,,,,,,,,,,,,,,,,,,,,,,,,,
1732158856.537617,1732158856.541297,36.000000,0.000000,4266.666504,4263.846191,4318.589844,4294.230957,4283.717773,4286.025879,4339.230957,4403.461426,4312.307617,4296.666504,4485.641113,4508.846191,4349.743652,4406.410156,0.000000,1.000000,19.000000,,,,0.000000,2.000000,2.000000,0.000000,4.000000,2.000000,2.000000,0.000000,0.000000,4.000000,4.000000,4.000000,4.000000,4.000000,4.000000,0.000000,,,,,,,,,,,,,,,,,9.000000,0.000000,0.510327,0.478699,-0.534058,0.474548,0.989379,-0.011720,-0.019534,-35.377407,44.553284,31.650412
1732158856.545425,1732158856.549105,37.000000,0.000000,4266.410156,4266.794922,4317.948730,4292.948730,4283.077148,4283.717773,4339.102539,4401.153809,4308.717773,4297.051270,4490.384766,4508.717773,4353.333496,4407.692383,0.000000,1.000000,19.000000,,,,0.000000,2.000000,2.000000,0.000000,4.000000,2.000000,2.000000,0.000000,0.000000,4.000000,4.000000,4.000000,4.000000,4.000000,4.000000,0.000000,,,,,,,,,,,,,,,,,,,,,,,,,,,,
1732158856.553233,1732158856.557113,38.000000,0.000000,4266.922852,4266.922852,4315.256348,4292.307617,4287.563965,4289.230957,4336.025879,4406.025879,4300.897461,4293.461426,4481.282227,4505.000000,4347.307617,4401.538574,0.000000,1.000000,19.000000,,,,0.000000,2.000000,2.000000,0.000000,4.000000,2.000000,2.000000,0.000000,0.000000,4.000000,4.000000,4.000000,4.000000,4.000000,4.000000,0.000000,,,,,,,,,,,,,,,,,,,,,,,,,,,,
1732158856.561041,1732158856.564921,39.000000,0.000000,4268.333496,4264.743652,4316.153809,4293.974121,4288.333496,4291.025879,4335.384766,4409.102539,4304.487305,4294.487305,4475.000000,4504.743652,4343.717773,4400.512695,0.000000,1.000000,19.000000,,,,0.000000,2.000000,2.000000,0.000000,4.000000,2.000000,2.000000,0.000000,0.000000,4.000000,4.000000,4.000000,4.000000,4.000000,4.000000,0.000000,,,,,,,,,,,,,,,,,,,,,,,,,,,,
1732158856.568850,1732158856.572630,40.000000,0.000000,4265.512695,4263.974121,4314.743652,4293.589844,4300.128418,4283.846191,4335.897461,4402.436035,4307.692383,4296.666504,4480.128418,4508.974121,4346.282227,4400.128418,0.000000,1.000000,19.000000,,,,0.000000,2.000000,2.000000,0.000000,4.000000,2.000000,2.000000,0.000000,0.000000,4.000000,4.000000,4.000000,4.000000,4.000000,4.000000,0.000000,,,,,,,,,,,,,,,,,10.000000,0.000000,0.510023,0.478577,-0.534241,0.474792,0.991332,-0.021487,-0.031254,-35.369034,44.739826,31.611834
1732158856.576658,1732158856.580438,41.000000,0.000000,4269.615234,4264.230957,4313.077148,4292.436035,4301.410156,4281.538574,4335.256348,4399.871582,4298.974121,4294.615234,4481.025879,4505.512695,4348.589844,4399.871582,0.000000,1.000000,19.000000,,,,0.000000,2.000000,2.000000,0.000000,4.000000,2.000000,2.000000,0.000000,0.000000,4.000000,4.000000,4.000000,4.000000,4.000000,4.000000,0.000000,,,,,,,,,,,,,,,,,,,,,,,,,,,,
1732158856.584466,1732158856.588046,42.000000,0.000000,4277.051270,4264.615234,4313.974121,4295.128418,4278.717773,4288.846191,4336.922852,4403.589844,4300.641113,4292.820313,4476.794922,4499.871582,4346.922852,4401.025879,0.000000,1.000000,19.000000,,,,0.000000,2.000000,2.000000,0.000000,4.000000,2.000000,2.000000,0.000000,0.000000,4.000000,4.000000,4.000000,4.000000,4.000000,4.000000,0.000000,,,,,,,,,,,,,,,,,,,,,,,,,,,,
1732158856.592275,1732158856.595855,43.000000,0.000000,4270.384766,4264.871582,4316.025879,4292.436035,4274.358887,4291.794922,4339.230957,4401.922852,4311.794922,4294.358887,4475.897461,4501.794922,4343.589844,4397.563965,0.000000,1.000000,19.000000,,,,0.000000,2.000000,2.000000,0.000000,4.000000,2.000000,2.000000,0.000000,0.000000,4.000000,4.000000,4.000000,4.000000,4.000000,4.000000,0.000000,,,,,,,,,,,,,,,,,,,,,,,,,,,,
1732158856.600083,1732158856.603763,44.000000,0.000000,4263.205078,4264.487305,4315.897461,4288.589844,4282.436035,4289.487305,4338.846191,4400.512695,4311.153809,4299.615234,4478.461426,4507.051270,4344.615234,4396.410156,0.000000,1.000000,19.000000,,,,0.000000,2.000000,2.000000,0.000000,4.000000,2.000000,2.000000,0.000000,0.000000,4.000000,4.000000,4.000000,4.000000,4.000000,4.000000,0.000000,,,,,,,,,,,,,,,,,11.000000,0.000000,0.509395,0.478821,-0.534241,0.475220,0.984007,-0.020999,-0.038579,-35.378918,44.740925,31.480585
1732158856.607891,1732158856.611571,45.000000,0.000000,4275.641113,4266.538574,4315.256348,4294.358887,4280.384766,4289.871582,4334.743652,4404.230957,4307.307617,4302.692383,4482.436035,4512.307617,4350.256348,4403.461426,0.000000,1.000000,19.000000,,,,0.000000,2.000000,2.000000,0.000000,4.000000,2.000000,2.000000,0.000000,0.000000,4.000000,4.000000,4.000000,4.000000,4.000000,4.000000,0.000000,,,,,,,,,,,,,,,,,,,,,,,,,,,,
1732158856.615699,1732158856.619579,46.000000,0.000000,4281.282227,4268.205078,4315.897461,4296.922852,4293.077148,4291.153809,4333.974121,4404.487305,4310.256348,4298.077148,4483.717773,4514.358887,4352.563965,4403.717773,0.000000,1.000000,19.000000,,,,0.000000,2.000000,2.000000,0.000000,4.000000,2.000000,2.000000,0.000000,0.000000,4.000000,4.000000,4.000000,4.000000,4.000000,4.000000,0.000000,,,,,,,,,,,,,,,,,,,,,,,,,,,,
1732158856.623508,1732158856.627387,47.000000,0.000000,4269.615234,4265.384766,4318.974121,4288.205078,4301.025879,4288.717773,4339.743652,4405.128418,4310.769043,4296.025879,4484.487305,4515.128418,4348.974121,4401.282227,0.000000,1.000000,19.000000,,,,0.000000,2.000000,2.000000,0.000000,4.000000,2.000000,2.000000,0.000000,0.000000,4.000000,4.000000,4.000000,4.000000,4.000000,4.000000,0.000000,,,,,,,,,,,,,,,,,,,,,,,,,,,,
1732158856.631316,1732158856.635295,48.000000,0.000000,4267.563965,4263.333496,4319.358887,4285.512695,4277.692383,4289.743652,4341.282227,4407.436035,4311.153809,4301.794922,4490.512695,4515.256348,4350.128418,4408.205078,0.000000,1.000000,19.000000,,,,0.000000,2.000000,2.000000,0.000000,4.000000,2.000000,2.000000,0.000000,0.000000,4.000000,4.000000,4.000000,4.000000,4.000000,4.000000,0.000000,,,,,,,,,,,,,,,,,12.000000,0.000000,0.508932,0.478821,-0.534302,0.475647,0.981077,-0.018069,-0.031742,-35.385258,44.793484,31.489275
1732158856.639124,1732158856.643103,49.000000,0.000000,4271.666504,4264.102539,4316.922852,4293.589844,4270.256348,4293.333496,4338.589844,4404.871582,4312.563965,4302.307617,4492.307617,4510.897461,4352.051270,4410.769043,0.000000,1.000000,19.000000,,,,0.000000,2.000000,2.000000,0.000000,4.000000,2.000000,2.000000,0.000000,0.000000,4.000000,4.000000,4.000000,4.000000,4.000000,4.000000,0.000000,,,,,,,,,,,,,,,,,,,,,,,,,,,,
1732158856.646932,1732158856.651111,50.000000,0.000000,4267.051270,4264.230957,4315.000000,4295.000000,4281.666504,4294.615234,4338.846191,4403.205078,4310.256348,4295.769043,4482.179688,4504.358887,4345.128418,4403.461426,0.000000,1.000000,19.000000,,,,0.000000,2.000000,2.000000,0.000000,4.000000,2.000000,2.000000,0.000000,0.000000,4.000000,4.000000,4.000000,4.000000,4.000000,4.000000,0.000000,,,,,,,,,,,,,,,,,,,,,,,,,,,,
1732158856.654741,1732158856.658920,51.000000,0.000000,4263.974121,4263.717773,4314.743652,4288.333496,4278.333496,4289.358887,4337.948730,4407.179688,4308.333496,4295.769043,4474.615234,4505.000000,4340.000000,4401.153809,0.000000,1.000000,19.000000,,,,0.000000,2.000000,2.000000,0.000000,4.000000,2.000000,2.000000,0.000000,0.000000,4.000000,4.000000,4.000000,4.000000,4.000000,4.000000,0.000000,,,,,,,,,,,,,,,,,,,,,,,,,,,,
1732158856.662549,1732158856.666828,52.000000,0.000000,4266.666504,4263.974121,4315.128418,4287.051270,4289.743652,4280.641113,4334.487305,4408.205078,4312.307617,4301.153809,4478.589844,4508.589844,4345.128418,4404.487305,0.000000,1.000000,19.000000,,,,0.000000,2.000000,2.000000,0.000000,4.000000,2.000000,2.000000,0.000000,0.000000,4.000000,4.000000,4.000000,4.000000,4.000000,4.000000,0.000000,,,,,,,,,,,,,,,,,13.000000,0.000000,0.508805,0.478699,-0.534424,0.475769,0.986449,-0.031742,-0.029789,-35.217056,44.801056,31.586311
1732158856.670357,1732158856.674636,53.000000,0.000000,4267.820313,4263.589844,4315.512695,4290.769043,4299.615234,4283.461426,4335.256348,4403.461426,4311.922852,4305.384766,4480.256348,4505.128418,4349.358887,4403.077148,0.000000,1.000000,19.000000,,,,0.000000,2.000000,2.000000,0.000000,4.000000,2.000000,2.000000,0.000000,0.000000,4.000000,4.000000,4.000000,4.000000,4.000000,4.000000,0.000000,,,,,,,,,,,,,,,,,,,,,,,,,,,,
1732158856.678165,1732158856.682644,54.000000,0.000000,4266.922852,4263.589844,4315.897461,4293.846191,4275.641113,4293.205078,4336.025879,4399.615234,4301.794922,4307.179688,4474.615234,4503.846191,4342.820313,4396.794922,0.000000,1.000000,19.000000,,,,0.000000,2.000000,2.000000,0.000000,4.000000,2.000000,2.000000,0.000000,0.000000,4.000000,4.000000,4.000000,4.000000,4.000000,4.000000,0.000000,,,,,,,,,,,,,,,,,,,,,,,,,,,,
1732158856.685974,1732158856.690452,55.000000,0.000000,4266.538574,4263.974121,4314.871582,4290.256348,4264.487305,4294.358887,4335.128418,4403.077148,4302.307617,4301.666504,4474.230957,4506.282227,4340.641113,4399.615234,0.000000,1.000000,19.000000,,,,0.000000,2.000000,2.000000,0.000000,4.000000,2.000000,2.000000,0.000000,0.000000,4.000000,4.000000,4.000000,4.000000,4.000000,4.000000,0.000000,,,,,,,,,,,,,,,,,,,,,,,,,,,,
1732158856.693782,1732158856.698160,56.000000,0.000000,4265.641113,4264.230957,4315.256348,4286.410156,4280.769043,4293.461426,4336.666504,4406.282227,4308.461426,4296.153809,4478.974121,4506.794922,4346.666504,4407.307617,0.000000,1.000000,19.000000,,,,0.000000,2.000000,2.000000,0.000000,4.000000,2.000000,2.000000,0.000000,0.000000,4.000000,4.000000,4.000000,4.000000,4.000000,4.000000,0.000000,,,,,,,,,,,,,,,,,14.000000,0.000000,0.508233,0.478760,-0.534424,0.476318,0.974240,-0.029300,-0.039067,-35.105816,44.685520,31.398247
1732158856.701590,1732158856.705969,57.000000,0.000000,4265.641113,4262.436035,4317.307617,4286.153809,4283.461426,4293.846191,4338.205078,4403.717773,4300.256348,4298.077148,4477.436035,4506.794922,4344.487305,4402.948730,0.000000,1.000000,19.000000,,,,0.000000,2.000000,2.000000,0.000000,4.000000,2.000000,2.000000,0.000000,0.000000,4.000000,4.000000,4.000000,4.000000,4.000000,4.000000,0.000000,,,,,,,,,,,,,,,,,,,,,,,,,,,,
1732158856.709398,1732158856.713577,58.000000,0.000000,4265.769043,4263.205078,4317.307617,4285.897461,4276.794922,4289.230957,4339.487305,4403.974121,4293.077148,4299.102539,4472.692383,4503.077148,4338.846191,4393.974121,0.000000,1.000000,19.000000,,,,0.000000,2.000000,2.000000,0.000000,4.000000,2.000000,2.000000,0.000000,0.000000,4.000000,4.000000,4.000000,4.000000,4.000000,4.000000,0.000000,,,,,,,,,,,,,,,,,,,,,,,,,,,,
1732158856.717207,1732158856.721385,59.000000,0.000000,4266.538574,4264.615234,4314.615234,4287.179688,4276.025879,4290.769043,4339.230957,4405.641113,4298.846191,4297.051270,4472.179688,4498.333496,4341.538574,4397.563965,0.000000,1.000000,19.000000,,,,0.000000,2.000000,2.000000,0.000000,4.000000,2.000000,2.000000,0.000000,0.000000,4.000000,4.000000,4.000000,4.000000,4.000000,4.000000,0.000000,,,,,,,,,,,,,,,,,,,,,,,,,,,,
1732158856.725015,1732158856.729094,60.000000,0.000000,4266.538574,4255.128418,4314.102539,4284.487305,4283.717773,4290.256348,4338.333496,4405.256348,4298.589844,4295.512695,4472.692383,4497.307617,4340.000000,4400.256348,0.000000,1.000000,19.000000,,,,0.000000,2.000000,2.000000,0.000000,4.000000,2.000000,2.000000,0.000000,0.000000,4.000000,4.000000,4.000000,4.000000,4.000000,4.000000,0.000000,,,,,,,,,,,,,,,,,15.000000,0.000000,0.508112,0.478760,-0.534485,0.476379,0.973263,-0.021487,-0.036626,-35.162376,44.613605,31.290913
1732158856.732823,1732158856.736902,61.000000,0.000000,4264.358887,4250.128418,4315.000000,4279.871582,4292.820313,4279.358887,4342.179688,4404.615234,4289.871582,4294.743652,4471.282227,4500.384766,4336.025879,4396.922852,0.000000,1.000000,19.000000,,,,0.000000,2.000000,2.000000,0.000000,4.000000,2.000000,2.000000,0.000000,0.000000,4.000000,4.000000,4.000000,4.000000,4.000000,4.000000,0.000000,,,,,,,,,,,,,,,,,,,,,,,,,,,,
1732158856.740631,1732158856.744910,62.000000,0.000000,4265.769043,4261.025879,4315.769043,4285.384766,4278.589844,4281.282227,4343.846191,4404.230957,4292.948730,4297.948730,4471.666504,4506.282227,4340.897461,4402.179688,0.000000,1.000000,19.000000,,,,0.000000,2.000000,2.000000,0.000000,4.000000,2.000000,2.000000,0.000000,0.000000,4.000000,4.000000,4.000000,4.000000,4.000000,4.000000,0.000000,,,,,,,,,,,,,,,,,,,,,,,,,,,,
1732158856.748440,1732158856.752718,63.000000,0.000000,4271.538574,4267.179688,4315.641113,4294.615234,4262.948730,4293.589844,4337.563965,4405.384766,4305.128418,4307.307617,4474.871582,4511.025879,4344.102539,4407.820313,0.000000,1.000000,19.000000,,,,0.000000,2.000000,2.000000,0.000000,4.000000,2.000000,2.000000,0.000000,0.000000,4.000000,4.000000,4.000000,4.000000,4.000000,4.000000,0.000000,,,,,,,,,,,,,,,,,,,,,,,,,,,,
1732158856.756248,1732158856.760626,64.000000,0.000000,4271.538574,4261.410156,4315.128418,4291.282227,4277.179688,4288.846191,4335.897461,4408.846191,4310.128418,4312.563965,4476.922852,4514.230957,4343.589844,4407.051270,0.000000,1.000000,19.000000,,,,0.000000,2.000000,2.000000,0.000000,4.000000,2.000000,2.000000,0.000000,0.000000,4.000000,4.000000,4.000000,4.000000,4.000000,4.000000,0.000000,,,,,,,,,,,,,,,,,16.000000,0.000000,0.508277,0.478638,-0.534546,0.476257,0.973263,-0.020022,-0.033207,-35.283192,44.708687,31.475639
1732158856.764056,1732158856.768434,65.000000,0.000000,4266.025879,4261.538574,4314.102539,4285.641113,4283.333496,4281.282227,4338.333496,4407.948730,4305.897461,4310.256348,4475.128418,4513.717773,4342.948730,4403.974121,1618.000000,1.000000,19.000000,,,,0.000000,2.000000,2.000000,0.000000,4.000000,2.000000,2.000000,0.000000,0.000000,4.000000,4.000000,4.000000,4.000000,4.000000,4.000000,0.000000,,,,,,,,,,,,,,,,,,,,,,,,,,,,
1732158856.771865,1732158856.776043,66.000000,0.000000,4264.230957,4265.769043,4315.000000,4288.461426,4275.384766,4288.846191,4338.333496,4405.512695,4305.769043,4307.307617,4472.820313,4510.000000,4338.846191,4399.871582,1357.000000,1.000000,19.000000,,,,0.000000,2.000000,2.000000,0.000000,4.000000,2.000000,2.000000,0.000000,0.000000,4.000000,4.000000,4.000000,4.000000,4.000000,4.000000,0.000000,,,,,,,,,,,,,,,,,,,,,,,,,,,,
1732158856.779673,1732158856.783851,67.000000,0.000000,4266.410156,4262.820313,4315.512695,4289.743652,4291.922852,4287.307617,4338.461426,4405.128418,4311.153809,4308.461426,4474.743652,4506.025879,4339.615234,4399.102539,1429.000000,1.000000,19.000000,,,,0.000000,2.000000,2.000000,0.000000,4.000000,2.000000,2.000000,0.000000,0.000000,4.000000,4.000000,4.000000,4.000000,4.000000,4.000000,0.000000,,,,,,,,,,,,,,,,,,,,,,,,,,,,
1732158856.787481,1732158856.791559,68.000000,0.000000,4265.641113,4261.025879,4315.256348,4289.358887,4298.333496,4279.615234,4335.897461,4405.128418,4312.179688,4311.666504,4477.820313,4509.615234,4347.820313,4400.384766,1444.000000,1.000000,19.000000,,,,0.000000,2.000000,2.000000,0.000000,4.000000,2.000000,2.000000,0.000000,0.000000,4.000000,4.000000,4.000000,4.000000,4.000000,4.000000,0.000000,,,,,,,,,,,,,,,,,17.000000,0.000000,0.508054,0.478821,-0.534485,0.476379,0.972775,-0.034184,-0.031254,-35.387718,44.827370,31.416935
1732158856.795289,1732158856.799367,69.000000,0.000000,4263.846191,4262.436035,4314.871582,4290.897461,4271.153809,4287.692383,4333.589844,4406.282227,4308.717773,4308.333496,4476.025879,4513.846191,4348.333496,4399.743652,1199.000000,1.000000,19.000000,,,,0.000000,2.000000,2.000000,0.000000,4.000000,2.000000,2.000000,0.000000,0.000000,4.000000,4.000000,4.000000,4.000000,4.000000,4.000000,0.000000,,,,,,,,,,,,,,,,,,,,,,,,,,,,
