title:2nine, start timestamp:1732158909.298128, stop timestamp:1732158953.805176, headset type:EPOCX, headset serial:E5020C3A, headset firmware:730, channels:67, sampling rate:eeg_128;mot_32, samples:5701      , version:2.2, 
Timestamp,OriginalTimestamp,EEG.Counter,EEG.Interpolated,EEG.AF3,EEG.F7,EEG.F3,EEG.FC5,EEG.T7,EEG.P7,EEG.O1,EEG.O2,EEG.P8,EEG.T8,EEG.FC6,EEG.F4,EEG.F8,EEG.AF4,EEG.RawCq,EEG.Battery,EEG.BatteryPercent,MarkerIndex,MarkerType,MarkerValueInt,EEG.MarkerHardware,CQ.AF3,CQ.F7,CQ.F3,CQ.FC5,CQ.T7,CQ.P7,CQ.O1,CQ.O2,CQ.P8,CQ.T8,CQ.FC6,CQ.F4,CQ.F8,CQ.AF4,CQ.Overall,EQ.SampleRateQuality,EQ.OVERALL,EQ.AF3,EQ.F7,EQ.F3,EQ.FC5,EQ.T7,EQ.P7,EQ.O1,EQ.O2,EQ.P8,EQ.T8,EQ.FC6,EQ.F4,EQ.F8,EQ.AF4,MOT.CounterMems,MOT.InterpolatedMems,MOT.Q0,MOT.Q1,MOT.Q2,MOT.Q3,MOT.AccX,MOT.AccY,MOT.AccZ,MOT.MagX,MOT.MagY,MOT.MagZ
1732158909.298128,1732158909.300565,9.000000,0.000000,4292.948730,4275.256348,4312.948730,4295.256348,4282.051270,4278.333496,4337.820313,4400.641113,4291.282227,4281.153809,4472.948730,4506.153809,4349.871582,4407.820313,1696.000000,1.000000,18.000000,,,,0.000000,2.000000,2.000000,0.000000,4.000000,2.000000,2.000000,0.000000,0.000000,4.000000,4.000000,4.000000,4.000000,4.000000,4.000000,0.000000,,,,,,,,,,,,,,,,,,,,,,,,,,,,
1732158909.305936,1732158909.308173,10.000000,0.000000,4293.077148,4276.153809,4314.871582,4296.922852,4276.922852,4277.820313,4338.077148,4400.128418,4291.538574,4287.948730,4478.077148,4508.333496,4350.769043,4413.205078,1554.000000,1.000000,18.000000,,,,0.000000,2.000000,2.000000,0.000000,4.000000,2.000000,2.000000,0.000000,0.000000,4.000000,4.000000,4.000000,4.000000,4.000000,4.000000,0.000000,,,,,,,,,,,,,,,,,,,,,,,,,,,,
1732158909.313744,1732158909.315981,11.000000,0.000000,4292.563965,4276.538574,4315.000000,4296.538574,4276.538574,4277.820313,4336.282227,4402.436035,4290.256348,4292.307617,4477.051270,4509.743652,4351.922852,4413.333496,1549.000000,1.000000,18.000000,,,,0.000000,2.000000,2.000000,0.000000,4.000000,2.000000,2.000000,0.000000,0.000000,4.000000,4.000000,4.000000,4.000000,4.000000,4.000000,0.000000,,,,,,,,,,,,,,,,,,,,,,,,,,,,
1732158909.321553,1732158909.323690,12.000000,0.000000,4291.410156,4276.410156,4313.717773,4294.743652,4291.025879,4278.077148,4335.000000,4402.051270,4295.128418,4292.436035,4473.974121,4509.358887,4355.000000,4412.307617,1713.000000,1.000000,18.000000,,,,0.000000,2.000000,2.000000,0.000000,4.000000,2.000000,2.000000,0.000000,0.000000,4.000000,4.000000,4.000000,4.000000,4.000000,4.000000,0.000000,,,,,,,,,,,,,,,,,3.000000,0.000000,0.521135,0.502686,-0.518616,0.454712,0.974240,0.025394,-0.042974,-34.261086,46.356445,31.506197
1732158909.329361,1732158909.331498,13.000000,0.000000,4293.717773,4275.641113,4312.692383,4296.666504,4286.538574,4278.717773,4334.871582,4400.256348,4296.538574,4293.717773,4478.333496,4507.692383,4355.641113,4414.615234,1556.000000,1.000000,18.000000,,,,0.000000,2.000000,2.000000,0.000000,4.000000,2.000000,2.000000,0.000000,0.000000,4.000000,4.000000,4.000000,4.000000,4.000000,4.000000,0.000000,,,,,,,,,,,,,,,,,,,,,,,,,,,,
1732158909.337169,1732158909.339506,14.000000,0.000000,4295.384766,4277.307617,4312.948730,4299.102539,4261.666504,4279.615234,4335.128418,4401.025879,4294.743652,4297.179688,4479.871582,4505.897461,4353.589844,4415.000000,1554.000000,1.000000,18.000000,,,,0.000000,2.000000,2.000000,0.000000,4.000000,2.000000,2.000000,0.000000,0.000000,4.000000,4.000000,4.000000,4.000000,4.000000,4.000000,0.000000,1.000000,0.000000,2.000000,2.000000,0.000000,4.000000,2.000000,0.000000,0.000000,0.000000,4.000000,4.000000,4.000000,4.000000,4.000000,3.000000,,,,,,,,,,,,
1732158909.344978,1732158909.347314,15.000000,0.000000,4287.307617,4277.179688,4311.538574,4297.563965,4257.179688,4279.743652,4334.102539,4403.846191,4295.512695,4297.179688,4475.641113,4506.538574,4355.256348,4411.666504,1549.000000,1.000000,18.000000,,,,0.000000,2.000000,2.000000,0.000000,4.000000,2.000000,2.000000,0.000000,0.000000,4.000000,4.000000,4.000000,4.000000,4.000000,4.000000,0.000000,,,,,,,,,,,,,,,,,,,,,,,,,,,,
1732158909.352786,1732158909.355022,16.000000,0.000000,4282.051270,4272.820313,4310.512695,4295.256348,4273.974121,4279.743652,4333.205078,4403.333496,4295.512695,4298.333496,4477.820313,4504.230957,4361.794922,4412.307617,0.000000,1.000000,18.000000,,,,0.000000,2.000000,2.000000,0.000000,4.000000,2.000000,2.000000,0.000000,0.000000,4.000000,4.000000,4.000000,4.000000,4.000000,4.000000,0.000000,,,,,,,,,,,,,,,,,4.000000,0.000000,0.522699,0.502014,-0.518921,0.453308,0.964962,0.060554,-0.029789,-34.286480,46.278721,31.470020
1732158909.360594,1732158909.362831,17.000000,0.000000,4290.128418,4277.307617,4312.563965,4296.922852,4277.051270,4279.615234,4334.871582,4401.153809,4295.256348,4303.974121,4481.538574,4498.461426,4361.922852,4415.512695,0.000000,1.000000,18.000000,,,,0.000000,2.000000,2.000000,0.000000,4.000000,2.000000,2.000000,0.000000,0.000000,4.000000,4.000000,4.000000,4.000000,4.000000,4.000000,0.000000,,,,,,,,,,,,,,,,,,,,,,,,,,,,
1732158909.368402,1732158909.370439,18.000000,0.000000,4292.692383,4279.615234,4313.077148,4297.051270,4273.205078,4277.692383,4336.666504,4400.512695,4295.384766,4304.102539,4477.948730,4493.077148,4357.051270,4414.487305,0.000000,1.000000,18.000000,,,,0.000000,2.000000,2.000000,0.000000,4.000000,2.000000,2.000000,0.000000,0.000000,4.000000,4.000000,4.000000,4.000000,4.000000,4.000000,0.000000,,,,,,,,,,,,,,,,,,,,,,,,,,,,
1732158909.376211,1732158909.378247,19.000000,0.000000,4282.820313,4271.153809,4312.051270,4293.333496,4273.333496,4275.128418,4336.666504,4403.077148,4295.128418,4301.410156,4476.282227,4495.512695,4356.538574,4411.794922,0.000000,1.000000,18.000000,,,,0.000000,2.000000,2.000000,0.000000,4.000000,2.000000,2.000000,0.000000,0.000000,4.000000,4.000000,4.000000,4.000000,4.000000,4.000000,0.000000,,,,,,,,,,,,,,,,,,,,,,,,,,,,
1732158909.384019,1732158909.386155,20.000000,0.000000,4281.794922,4264.102539,4312.051270,4293.333496,4271.025879,4276.153809,4336.410156,4405.000000,4295.128418,4303.461426,4479.358887,4503.333496,4358.077148,4413.461426,0.000000,1.000000,18.000000,,,,0.000000,2.000000,2.000000,0.000000,4.000000,2.000000,2.000000,0.000000,0.000000,4.000000,4.000000,4.000000,4.000000,4.000000,4.000000,0.000000,,,,,,,,,,,,,,,,,5.000000,0.000000,0.523378,0.501953,-0.518616,0.452942,0.964962,0.060554,-0.029789,-34.517048,46.085762,31.380716
1732158909.391827,1732158909.393964,21.000000,0.000000,4286.153809,4266.282227,4314.615234,4295.641113,4273.717773,4278.974121,4336.410156,4402.692383,4295.256348,4303.974121,4477.948730,4506.922852,4357.820313,4415.128418,0.000000,1.000000,18.000000,,,,0.000000,2.000000,2.000000,0.000000,4.000000,2.000000,2.000000,0.000000,0.000000,4.000000,4.000000,4.000000,4.000000,4.000000,4.000000,0.000000,,,,,,,,,,,,,,,,,,,,,,,,,,,,
1732158909.399635,1732158909.401972,22.000000,0.000000,4283.846191,4267.563965,4316.025879,4292.179688,4278.205078,4278.846191,4336.410156,4401.794922,4295.897461,4299.615234,4475.769043,4506.153809,4356.282227,4413.333496,0.000000,1.000000,18.000000,,,,0.000000,2.000000,2.000000,0.000000,4.000000,2.000000,2.000000,0.000000,0.000000,4.000000,4.000000,4.000000,4.000000,4.000000,4.000000,0.000000,,,,,,,,,,,,,,,,,,,,,,,,,,,,
1732158909.407444,1732158909.409780,23.000000,0.000000,4283.717773,4262.948730,4315.256348,4290.000000,4278.077148,4277.051270,4336.538574,4403.589844,4293.846191,4295.897461,4478.461426,4504.615234,4356.410156,4411.538574,0.000000,1.000000,18.000000,,,,0.000000,2.000000,2.000000,0.000000,4.000000,2.000000,2.000000,0.000000,0.000000,4.000000,4.000000,4.000000,4.000000,4.000000,4.000000,0.000000,,,,,,,,,,,,,,,,,,,,,,,,,,,,
1732158909.415252,1732158909.417688,24.000000,0.000000,4288.846191,4266.153809,4312.436035,4293.461426,4277.179688,4278.589844,4336.666504,4403.077148,4294.102539,4297.948730,4481.153809,4505.384766,4357.820313,4412.179688,0.000000,1.000000,18.000000,,,,0.000000,2.000000,2.000000,0.000000,4.000000,2.000000,2.000000,0.000000,0.000000,4.000000,4.000000,4.000000,4.000000,4.000000,4.000000,0.000000,,,,,,,,,,,,,,,,,6.000000,0.000000,0.525059,0.502808,-0.517151,0.451721,0.975217,0.097668,-0.044927,-34.260475,46.259468,31.276714
1732158909.423060,1732158909.425496,25.000000,0.000000,4292.051270,4274.358887,4309.487305,4294.615234,4280.128418,4282.307617,4336.538574,4401.666504,4301.282227,4300.512695,4480.128418,4505.641113,4358.461426,4413.333496,0.000000,1.000000,18.000000,,,,0.000000,2.000000,2.000000,0.000000,4.000000,2.000000,2.000000,0.000000,0.000000,4.000000,4.000000,4.000000,4.000000,4.000000,4.000000,0.000000,,,,,,,,,,,,,,,,,,,,,,,,,,,,
1732158909.430868,1732158909.433504,26.000000,0.000000,4290.000000,4271.666504,4312.179688,4292.948730,4279.102539,4281.410156,4336.153809,4403.077148,4302.436035,4298.205078,4477.436035,4506.153809,4358.333496,4412.307617,0.000000,1.000000,18.000000,,,,0.000000,2.000000,2.000000,0.000000,4.000000,2.000000,2.000000,0.000000,0.000000,4.000000,4.000000,4.000000,4.000000,4.000000,4.000000,0.000000,,,,,,,,,,,,,,,,,,,,,,,,,,,,
1732158909.438676,1732158909.441312,27.000000,0.000000,4288.589844,4268.077148,4314.358887,4294.230957,4276.538574,4278.461426,4335.384766,4403.333496,4295.128418,4295.256348,4477.436035,4505.897461,4358.333496,4408.846191,0.000000,1.000000,18.000000,,,,0.000000,2.000000,2.000000,0.000000,4.000000,2.000000,2.000000,0.000000,0.000000,4.000000,4.000000,4.000000,4.000000,4.000000,4.000000,0.000000,,,,,,,,,,,,,,,,,,,,,,,,,,,,
1732158909.446485,1732158909.449220,28.000000,0.000000,4290.769043,4276.282227,4310.641113,4297.179688,4278.205078,4277.692383,4334.102539,4401.410156,4293.205078,4293.846191,4477.307617,4504.743652,4354.487305,4407.436035,0.000000,1.000000,18.000000,,,,0.000000,2.000000,2.000000,0.000000,4.000000,2.000000,2.000000,0.000000,0.000000,4.000000,4.000000,4.000000,4.000000,4.000000,4.000000,0.000000,,,,,,,,,,,,,,,,,7.000000,0.000000,0.525792,0.504700,-0.516052,0.450012,0.986449,0.092296,-0.050299,-34.262653,46.031837,31.362471
1732158909.454293,1732158909.457029,29.000000,0.000000,4290.897461,4281.153809,4309.102539,4295.384766,4278.589844,4278.205078,4334.743652,4400.256348,4294.487305,4291.922852,4474.871582,4506.538574,4352.179688,4408.333496,0.000000,1.000000,18.000000,,,,0.000000,2.000000,2.000000,0.000000,4.000000,2.000000,2.000000,0.000000,0.000000,4.000000,4.000000,4.000000,4.000000,4.000000,4.000000,0.000000,,,,,,,,,,,,,,,,,,,,,,,,,,,,
1732158909.462101,1732158909.465037,30.000000,0.000000,4286.794922,4276.153809,4311.410156,4295.897461,4276.922852,4277.692383,4335.641113,4401.282227,4293.333496,4291.538574,4477.436035,4505.512695,4356.025879,4410.000000,0.000000,1.000000,18.000000,,,,0.000000,2.000000,2.000000,0.000000,4.000000,2.000000,2.000000,0.000000,0.000000,4.000000,4.000000,4.000000,4.000000,4.000000,4.000000,0.000000,,,,,,,,,,,,,,,,,,,,,,,,,,,,
1732158909.469910,1732158909.472845,31.000000,0.000000,4291.794922,4278.461426,4308.974121,4305.512695,4276.666504,4278.717773,4332.179688,4403.205078,4295.384766,4293.461426,4480.256348,4504.102539,4353.333496,4407.563965,0.000000,1.000000,18.000000,,,,0.000000,2.000000,2.000000,0.000000,4.000000,2.000000,2.000000,0.000000,0.000000,4.000000,4.000000,4.000000,4.000000,4.000000,4.000000,0.000000,,,,,,,,,,,,,,,,,,,,,,,,,,,,
1732158909.477718,1732158909.480753,32.000000,0.000000,4296.922852,4278.461426,4307.692383,4308.846191,4279.102539,4280.256348,4330.384766,4401.025879,4297.436035,4291.538574,4476.794922,4508.974121,4346.282227,4405.897461,0.000000,1.000000,18.000000,,,,0.000000,2.000000,2.000000,0.000000,4.000000,2.000000,2.000000,0.000000,0.000000,4.000000,4.000000,4.000000,4.000000,4.000000,4.000000,0.000000,,,,,,,,,,,,,,,,,8.000000,0.000000,0.525163,0.505127,-0.516541,0.449707,0.955195,0.073251,-0.053229,-34.456081,45.922455,31.390268
1732158909.485526,1732158909.488561,33.000000,0.000000,4287.179688,4267.307617,4307.563965,4298.077148,4277.179688,4276.153809,4333.589844,4398.077148,4293.974121,4288.974121,4478.846191,4507.692383,4354.743652,4410.641113,0.000000,1.000000,18.000000,,,,0.000000,2.000000,2.000000,0.000000,4.000000,2.000000,2.000000,0.000000,0.000000,4.000000,4.000000,4.000000,4.000000,4.000000,4.000000,0.000000,,,,,,,,,,,,,,,,,,,,,,,,,,,,
1732158909.493334,1732158909.496569,34.000000,0.000000,4283.974121,4262.820313,4305.256348,4293.205078,4271.538574,4273.589844,4335.000000,4398.846191,4294.230957,4295.128418,4488.205078,4502.307617,4367.948730,4416.025879,0.000000,1.000000,18.000000,,,,0.000000,2.000000,2.000000,0.000000,4.000000,2.000000,2.000000,0.000000,0.000000,4.000000,4.000000,4.000000,4.000000,4.000000,4.000000,0.000000,,,,,,,,,,,,,,,,,,,,,,,,,,,,
1732158909.501143,1732158909.504377,35.000000,0.000000,4293.974121,4267.179688,4302.563965,4295.128418,4268.333496,4277.307617,4333.589844,4399.358887,4297.820313,4299.615234,4492.692383,4503.461426,4371.025879,4417.948730,0.000000,1.000000,18.000000,,,,0.000000,2.000000,2.000000,0.000000,4.000000,2.000000,2.000000,0.000000,0.000000,4.000000,4.000000,4.000000,4.000000,4.000000,4.000000,0.000000,,,,,,,,,,,,,,,,,,,,,,,,,,,,
1732158909.508951,1732158909.512286,36.000000,0.000000,4295.384766,4263.974121,4304.102539,4287.820313,4266.922852,4280.000000,4334.487305,4397.307617,4294.230957,4295.128418,4490.641113,4503.717773,4376.410156,4420.128418,0.000000,1.000000,18.000000,,,,0.000000,2.000000,2.000000,0.000000,4.000000,2.000000,2.000000,0.000000,0.000000,4.000000,4.000000,4.000000,4.000000,4.000000,4.000000,0.000000,,,,,,,,,,,,,,,,,9.000000,0.000000,0.524916,0.504822,-0.517090,0.449707,0.957148,0.050299,-0.034672,-34.749428,46.253853,31.537785
1732158909.516759,1732158909.520094,37.000000,0.000000,4288.077148,4256.025879,4302.179688,4278.589844,4264.487305,4279.230957,4334.743652,4398.589844,4294.743652,4297.820313,4493.589844,4497.563965,4383.974121,4425.512695,0.000000,1.000000,18.000000,,,,0.000000,2.000000,2.000000,0.000000,4.000000,2.000000,2.000000,0.000000,0.000000,4.000000,4.000000,4.000000,4.000000,4.000000,4.000000,0.000000,,,,,,,,,,,,,,,,,,,,,,,,,,,,
1732158909.524567,1732158909.528102,38.000000,0.000000,4287.948730,4251.794922,4300.128418,4278.461426,4263.077148,4277.692383,4333.333496,4398.974121,4304.358887,4309.743652,4499.358887,4499.358887,4384.102539,4431.410156,0.000000,1.000000,18.000000,,,,0.000000,2.000000,2.000000,0.000000,4.000000,2.000000,2.000000,0.000000,0.000000,4.000000,4.000000,4.000000,4.000000,4.000000,4.000000,0.000000,,,,,,,,,,,,,,,,,,,,,,,,,,,,
1732158909.532376,1732158909.535910,39.000000,0.000000,4288.846191,4252.051270,4305.256348,4280.769043,4264.230957,4279.615234,4334.615234,4397.563965,4305.641113,4308.333496,4496.410156,4506.794922,4382.563965,4429.871582,0.000000,1.000000,18.000000,,,,0.000000,2.000000,2.000000,0.000000,4.000000,2.000000,2.000000,0.000000,0.000000,4.000000,4.000000,4.000000,4.000000,4.000000,4.000000,0.000000,,,,,,,,,,,,,,,,,,,,,,,,,,,,
1732158909.540184,1732158909.543618,40.000000,0.000000,4285.641113,4256.025879,4308.589844,4281.538574,4265.769043,4281.282227,4335.512695,4398.717773,4301.282227,4296.282227,4490.384766,4506.282227,4382.179688,4423.717773,0.000000,1.000000,18.000000,,,,0.000000,2.000000,2.000000,0.000000,4.000000,2.000000,2.000000,0.000000,0.000000,4.000000,4.000000,4.000000,4.000000,4.000000,4.000000,0.000000,,,,,,,,,,,,,,,,,10.000000,0.000000,0.524068,0.501648,-0.520813,0.449951,0.973752,0.043951,-0.058113,-34.717037,46.260624,31.448938
1732158909.547992,1732158909.551426,41.000000,0.000000,4286.666504,4255.769043,4308.717773,4281.794922,4266.025879,4278.461426,4335.769043,4398.461426,4304.615234,4296.538574,4493.461426,4504.871582,4380.641113,4422.948730,0.000000,1.000000,18.000000,,,,0.000000,2.000000,2.000000,0.000000,4.000000,2.000000,2.000000,0.000000,0.000000,4.000000,4.000000,4.000000,4.000000,4.000000,4.000000,0.000000,,,,,,,,,,,,,,,,,,,,,,,,,,,,
1732158909.555800,1732158909.559035,42.000000,0.000000,4288.974121,4254.102539,4311.025879,4281.025879,4264.230957,4272.820313,4336.153809,4399.358887,4309.230957,4302.948730,4497.563965,4507.051270,4379.871582,4423.974121,0.000000,1.000000,18.000000,,,,0.000000,2.000000,2.000000,0.000000,4.000000,2.000000,2.000000,0.000000,0.000000,4.000000,4.000000,4.000000,4.000000,4.000000,4.000000,0.000000,,,,,,,,,,,,,,,,,,,,,,,,,,,,
1732158909.563609,1732158909.566843,43.000000,0.000000,4289.615234,4261.538574,4314.358887,4281.922852,4263.974121,4273.077148,4334.487305,4402.436035,4309.743652,4302.307617,4493.077148,4507.436035,4379.358887,4422.820313,0.000000,1.000000,18.000000,,,,0.000000,2.000000,2.000000,0.000000,4.000000,2.000000,2.000000,0.000000,0.000000,4.000000,4.000000,4.000000,4.000000,4.000000,4.000000,0.000000,,,,,,,,,,,,,,,,,,,,,,,,,,,,
1732158909.571417,1732158909.574551,44.000000,0.000000,4290.641113,4265.256348,4313.205078,4285.769043,4265.769043,4278.333496,4333.333496,4401.410156,4311.410156,4304.615234,4497.307617,4507.563965,4380.641113,4426.922852,0.000000,1.000000,18.000000,,,,0.000000,2.000000,2.000000,0.000000,4.000000,2.000000,2.000000,0.000000,0.000000,4.000000,4.000000,4.000000,4.000000,4.000000,4.000000,0.000000,,,,,,,,,,,,,,,,,11.000000,0.000000,0.523757,0.499756,-0.522888,0.450012,0.963985,0.048346,-0.053717,-34.709133,46.184437,31.448641
1732158909.579225,1732158909.582360,45.000000,0.000000,4288.333496,4256.153809,4312.051270,4284.358887,4266.282227,4280.000000,4335.000000,4400.512695,4310.769043,4312.307617,4506.538574,4511.922852,4381.794922,4430.000000,0.000000,1.000000,18.000000,,,,0.000000,2.000000,2.000000,0.000000,4.000000,2.000000,2.000000,0.000000,0.000000,4.000000,4.000000,4.000000,4.000000,4.000000,4.000000,0.000000,,,,,,,,,,,,,,,,,,,,,,,,,,,,
1732158909.587033,1732158909.589968,46.000000,0.000000,4282.051270,4253.589844,4311.153809,4279.871582,4264.871582,4278.846191,4335.641113,4401.794922,4308.717773,4309.230957,4499.743652,4513.846191,4377.563965,4425.512695,0.000000,1.000000,18.000000,,,,0.000000,2.000000,2.000000,0.000000,4.000000,2.000000,2.000000,0.000000,0.000000,4.000000,4.000000,4.000000,4.000000,4.000000,4.000000,0.000000,,,,,,,,,,,,,,,,,,,,,,,,,,,,
1732158909.594842,1732158909.597776,47.000000,0.000000,4281.794922,4260.641113,4312.307617,4278.589844,4263.717773,4279.102539,4333.846191,4401.538574,4308.717773,4297.948730,4490.256348,4509.102539,4371.025879,4424.487305,0.000000,1.000000,18.000000,,,,0.000000,2.000000,2.000000,0.000000,4.000000,2.000000,2.000000,0.000000,0.000000,4.000000,4.000000,4.000000,4.000000,4.000000,4.000000,0.000000,,,,,,,,,,,,,,,,,,,,,,,,,,,,
1732158909.602650,1732158909.605485,48.000000,0.000000,4287.692383,4261.282227,4317.307617,4279.743652,4264.487305,4281.410156,4334.615234,4399.358887,4305.769043,4298.205078,4495.512695,4507.436035,4370.128418,4427.436035,0.000000,1.000000,18.000000,,,,0.000000,2.000000,2.000000,0.000000,4.000000,2.000000,2.000000,0.000000,0.000000,4.000000,4.000000,4.000000,4.000000,4.000000,4.000000,0.000000,,,,,,,,,,,,,,,,,12.000000,0.000000,0.523770,0.498718,-0.523865,0.450012,0.980588,0.053717,-0.062019,-34.669395,46.219395,31.528399
1732158909.610458,1732158909.613293,49.000000,0.000000,4289.358887,4256.410156,4318.205078,4280.897461,4265.000000,4280.641113,4336.794922,4399.871582,4301.153809,4303.205078,4500.384766,4508.974121,4372.820313,4426.666504,0.000000,1.000000,18.000000,,,,0.000000,2.000000,2.000000,0.000000,4.000000,2.000000,2.000000,0.000000,0.000000,4.000000,4.000000,4.000000,4.000000,4.000000,4.000000,0.000000,,,,,,,,,,,,,,,,,,,,,,,,,,,,
1732158909.618266,1732158909.620901,50.000000,0.000000,4287.436035,4252.820313,4315.384766,4281.282227,4264.230957,4277.563965,4336.922852,4400.384766,4300.000000,4298.589844,4494.102539,4507.948730,4372.820313,4427.051270,0.000000,1.000000,18.000000,,,,0.000000,2.000000,2.000000,0.000000,4.000000,2.000000,2.000000,0.000000,0.000000,4.000000,4.000000,4.000000,4.000000,4.000000,4.000000,0.000000,,,,,,,,,,,,,,,,,,,,,,,,,,,,
1732158909.626075,1732158909.628709,51.000000,0.000000,4287.692383,4257.179688,4317.436035,4281.153809,4265.128418,4278.717773,4335.897461,4400.256348,4303.846191,4296.538574,4491.922852,4507.820313,4371.153809,4426.794922,0.000000,1.000000,18.000000,,,,0.000000,2.000000,2.000000,0.000000,4.000000,2.000000,2.000000,0.000000,0.000000,4.000000,4.000000,4.000000,4.000000,4.000000,4.000000,0.000000,,,,,,,,,,,,,,,,,,,,,,,,,,,,
1732158909.633883,1732158909.636418,52.000000,0.000000,4291.794922,4266.538574,4320.897461,4283.205078,4266.538574,4281.666504,4334.487305,4401.410156,4312.179688,4304.102539,4495.641113,4511.025879,4372.692383,4424.358887,0.000000,1.000000,18.000000,,,,0.000000,2.000000,2.000000,0.000000,4.000000,2.000000,2.000000,0.000000,0.000000,4.000000,4.000000,4.000000,4.000000,4.000000,4.000000,0.000000,,,,,,,,,,,,,,,,,13.000000,0.000000,0.523746,0.497375,-0.525269,0.449890,0.968868,0.062508,-0.068856,-34.795544,46.272709,31.554670
1732158909.641691,1732158909.644226,53.000000,0.000000,4296.666504,4263.717773,4319.358887,4283.461426,4264.487305,4281.282227,4335.769043,4401.794922,4312.436035,4306.025879,4495.000000,4510.384766,4373.205078,4425.384766,0.000000,1.000000,18.000000,,,,0.000000,2.000000,2.000000,0.000000,4.000000,2.000000,2.000000,0.000000,0.000000,4.000000,4.000000,4.000000,4.000000,4.000000,4.000000,0.000000,,,,,,,,,,,,,,,,,,,,,,,,,,,,
1732158909.649499,1732158909.651834,54.000000,0.000000,4290.769043,4255.128418,4317.436035,4284.487305,4262.820313,4278.717773,4337.948730,4402.051270,4300.256348,4293.333496,4489.871582,4507.179688,4367.051270,4425.897461,0.000000,1.000000,18.000000,,,,0.000000,2.000000,2.000000,0.000000,4.000000,2.000000,2.000000,0.000000,0.000000,4.000000,4.000000,4.000000,4.000000,4.000000,4.000000,0.000000,,,,,,,,,,,,,,,,,,,,,,,,,,,,
1732158909.657308,1732158909.659643,55.000000,0.000000,4281.666504,4257.307617,4317.179688,4287.820313,4264.743652,4278.333496,4337.051270,4402.179688,4294.743652,4279.743652,4487.436035,4506.282227,4361.282227,4418.589844,0.000000,1.000000,18.000000,,,,0.000000,2.000000,2.000000,0.000000,4.000000,2.000000,2.000000,0.000000,0.000000,4.000000,4.000000,4.000000,4.000000,4.000000,4.000000,0.000000,,,,,,,,,,,,,,,,,,,,,,,,,,,,
1732158909.665116,1732158909.667351,56.000000,0.000000,4284.487305,4258.846191,4318.717773,4286.153809,4264.487305,4279.615234,4334.743652,4402.051270,4301.922852,4283.717773,4489.615234,4507.179688,4366.025879,4415.897461,0.000000,1.000000,18.000000,,,,0.000000,2.000000,2.000000,0.000000,4.000000,2.000000,2.000000,0.000000,0.000000,4.000000,4.000000,4.000000,4.000000,4.000000,4.000000,0.000000,,,,,,,,,,,,,,,,,14.000000,0.000000,0.523916,0.495422,-0.526733,0.450134,0.963497,0.075693,-0.035161,-34.484390,46.050896,31.715948
1732158909.672924,1732158909.675159,57.000000,0.000000,4291.794922,4258.077148,4318.974121,4284.871582,4262.436035,4279.871582,4334.358887,4402.436035,4306.410156,4294.358887,4492.307617,4509.102539,4373.333496,4422.692383,0.000000,1.000000,18.000000,,,,0.000000,2.000000,2.000000,0.000000,4.000000,2.000000,2.000000,0.000000,0.000000,4.000000,4.000000,4.000000,4.000000,4.000000,4.000000,0.000000,,,,,,,,,,,,,,,,,,,,,,,,,,,,
1732158909.680732,1732158909.683167,58.000000,0.000000,4294.102539,4263.589844,4316.794922,4289.743652,4262.051270,4276.410156,4336.922852,4402.563965,4301.410156,4288.589844,4491.794922,4510.384766,4369.743652,4426.153809,0.000000,1.000000,18.000000,,,,0.000000,2.000000,2.000000,0.000000,4.000000,2.000000,2.000000,0.000000,0.000000,4.000000,4.000000,4.000000,4.000000,4.000000,4.000000,0.000000,,,,,,,,,,,,,,,,,,,,,,,,,,,,
1732158909.688541,1732158909.690975,59.000000,0.000000,4294.615234,4266.153809,4315.512695,4292.563965,4263.205078,4274.615234,4340.641113,4401.410156,4297.820313,4283.846191,4490.897461,4510.512695,4366.153809,4425.641113,0.000000,1.000000,18.000000,,,,0.000000,2.000000,2.000000,0.000000,4.000000,2.000000,2.000000,0.000000,0.000000,4.000000,4.000000,4.000000,4.000000,4.000000,4.000000,0.000000,,,,,,,,,,,,,,,,,,,,,,,,,,,,
1732158909.696349,1732158909.698684,60.000000,0.000000,4295.000000,4263.589844,4318.205078,4291.794922,4263.974121,4278.077148,4342.563965,4401.153809,4298.077148,4288.205078,4493.205078,4513.846191,4372.436035,4428.205078,0.000000,1.000000,18.000000,,,,0.000000,2.000000,2.000000,0.000000,4.000000,2.000000,2.000000,0.000000,0.000000,4.000000,4.000000,4.000000,4.000000,4.000000,4.000000,0.000000,,,,,,,,,,,,,,,,,15.000000,0.000000,0.524485,0.493958,-0.526917,0.450867,0.963985,0.077158,-0.034184,-34.319023,46.062893,31.768251
1732158909.704157,1732158909.706492,61.000000,0.000000,4295.512695,4264.871582,4319.358887,4295.128418,4264.487305,4280.128418,4338.846191,4402.820313,4293.974121,4283.077148,4494.615234,4515.000000,4375.128418,4431.153809,0.000000,1.000000,18.000000,,,,0.000000,2.000000,2.000000,0.000000,4.000000,2.000000,2.000000,0.000000,0.000000,4.000000,4.000000,4.000000,4.000000,4.000000,4.000000,0.000000,,,,,,,,,,,,,,,,,,,,,,,,,,,,
1732158909.711965,1732158909.714500,62.000000,0.000000,4298.077148,4266.794922,4317.436035,4297.563965,4263.846191,4277.436035,4334.358887,4401.282227,4295.128418,4279.102539,4493.589844,4512.179688,4370.512695,4431.282227,0.000000,1.000000,18.000000,,,,0.000000,2.000000,2.000000,0.000000,4.000000,2.000000,2.000000,0.000000,0.000000,4.000000,4.000000,4.000000,4.000000,4.000000,4.000000,0.000000,,,,,,,,,,,,,,,,,,,,,,,,,,,,
1732158909.719774,1732158909.722308,63.000000,0.000000,4298.205078,4264.743652,4317.179688,4295.769043,4265.256348,4278.077148,4334.487305,4397.692383,4300.512695,4284.102539,4492.948730,4509.743652,4372.179688,4430.641113,0.000000,1.000000,18.000000,,,,0.000000,2.000000,2.000000,0.000000,4.000000,2.000000,2.000000,0.000000,0.000000,4.000000,4.000000,4.000000,4.000000,4.000000,4.000000,0.000000,,,,,,,,,,,,,,,,,,,,,,,,,,,,
1732158909.727582,1732158909.730216,64.000000,0.000000,4296.410156,4263.974121,4320.128418,4295.769043,4266.538574,4280.897461,4336.025879,4401.794922,4300.128418,4282.307617,4493.333496,4514.358887,4375.128418,4429.487305,0.000000,1.000000,18.000000,,,,0.000000,2.000000,2.000000,0.000000,4.000000,2.000000,2.000000,0.000000,0.000000,4.000000,4.000000,4.000000,4.000000,4.000000,4.000000,0.000000,,,,,,,,,,,,,,,,,16.000000,0.000000,0.524681,0.493591,-0.526855,0.451111,0.963985,0.085948,-0.037602,-34.543407,45.702610,31.685617
1732158909.735390,1732158909.738024,65.000000,0.000000,4297.692383,4262.563965,4320.256348,4295.128418,4264.102539,4280.512695,4336.153809,4404.743652,4301.153809,4285.769043,4492.948730,4515.384766,4369.102539,4428.333496,1618.000000,1.000000,18.000000,,,,0.000000,2.000000,2.000000,0.000000,4.000000,2.000000,2.000000,0.000000,0.000000,4.000000,4.000000,4.000000,4.000000,4.000000,4.000000,0.000000,,,,,,,,,,,,,,,,,,,,,,,,,,,,
1732158909.743199,1732158909.746032,66.000000,0.000000,4297.307617,4263.333496,4317.179688,4292.692383,4262.820313,4278.589844,4335.000000,4400.128418,4303.974121,4293.205078,4490.000000,4510.000000,4364.487305,4426.410156,1362.000000,1.000000,18.000000,,,,0.000000,2.000000,2.000000,0.000000,4.000000,2.000000,2.000000,0.000000,0.000000,4.000000,4.000000,4.000000,4.000000,4.000000,4.000000,0.000000,,,,,,,,,,,,,,,,,,,,,,,,,,,,
1732158909.751007,1732158909.753840,67.000000,0.000000,4293.589844,4265.641113,4316.025879,4291.538574,4263.846191,4277.692383,4334.615234,4399.487305,4299.102539,4287.051270,4488.717773,4512.948730,4365.512695,4425.897461,1427.000000,1.000000,18.000000,,,,0.000000,2.000000,2.000000,0.000000,4.000000,2.000000,2.000000,0.000000,0.000000,4.000000,4.000000,4.000000,4.000000,4.000000,4.000000,0.000000,,,,,,,,,,,,,,,,,,,,,,,,,,,,
1732158909.758815,1732158909.761749,68.000000,0.000000,4293.077148,4259.871582,4317.436035,4288.846191,4263.333496,4280.256348,4335.897461,4402.051270,4297.820313,4284.487305,4492.051270,4522.948730,4366.025879,4427.692383,1429.000000,1.000000,18.000000,,,,0.000000,2.000000,2.000000,0.000000,4.000000,2.000000,2.000000,0.000000,0.000000,4.000000,4.000000,4.000000,4.000000,4.000000,4.000000,0.000000,,,,,,,,,,,,,,,,,17.000000,0.000000,0.524414,0.492981,-0.526855,0.452087,0.992309,0.055183,-0.037602,-34.658493,45.760780,31.605350
1732158909.766623,1732158909.769557,69.000000,0.000000,4295.128418,4256.153809,4319.102539,4288.205078,4262.820313,4282.820313,4336.153809,4400.769043,4303.717773,4290.128418,4493.846191,4525.128418,4365.384766,4428.717773,1199.000000,1.000000,18.000000,,,,0.000000,2.000000,2.000000,0.000000,4.000000,2.000000,2.000000,0.000000,0.000000,4.000000,4.000000,4.000000,4.000000,4.000000,4.000000,0.000000,,,,,,,,,,,,,,,,,,,,,,,,,,,,
1732158909.774432,1732158909.777565,70.000000,0.000000,4289.487305,4259.871582,4319.743652,4290.641113,4265.256348,4282.307617,4335.000000,4400.384766,4299.230957,4283.974121,4490.256348,4514.615234,4365.000000,4428.846191,0.000000,1.000000,18.000000,,,,0.000000,2.000000,2.000000,0.000000,4.000000,2.000000,2.000000,0.000000,0.000000,4.000000,4.000000,4.000000,4.000000,4.000000,4.000000,0.000000,,,,,,,,,,,,,,,,,,,,,,,,,,,,
1732158909.782240,1732158909.785373,71.000000,0.000000,4281.282227,4260.000000,4320.897461,4288.333496,4266.025879,4281.666504,4336.922852,4400.512695,4294.487305,4277.692383,4487.948730,4506.282227,4365.384766,4424.743652,0.000000,1.000000,18.000000,,,,0.000000,2.000000,2.000000,0.000000,4.000000,2.000000,2.000000,0.000000,0.000000,4.000000,4.000000,4.000000,4.000000,4.000000,4.000000,0.000000,,,,,,,,,,,,,,,,,,,,,,,,,,,,
1732158909.790048,1732158909.793281,72.000000,0.000000,4283.846191,4256.538574,4322.692383,4287.563965,4264.230957,4282.563965,4341.282227,4401.666504,4304.871582,4287.563965,4489.102539,4509.358887,4365.128418,4419.871582,1539.000000,1.000000,18.000000,,,,0.000000,2.000000,2.000000,0.000000,4.000000,2.000000,2.000000,0.000000,0.000000,4.000000,4.000000,4.000000,4.000000,4.000000,4.000000,0.000000,,,,,,,,,,,,,,,,,18.000000,0.000000,0.522367,0.490173,-0.529297,0.454651,0.965938,0.024905,-0.035649,-34.718380,45.641232,31.857000
1732158909.797856,1732158909.801089,73.000000,0.000000,4293.333496,4259.102539,4322.563965,4295.512695,4264.358887,4282.179688,4341.538574,4407.436035,4314.615234,4296.282227,4491.282227,4516.282227,4365.000000,4422.563965,1701.000000,1.000000,18.000000,,,,0.000000,2.000000,2.000000,0.000000,4.000000,2.000000,2.000000,0.000000,0.000000,4.000000,4.000000,4.000000,4.000000,4.000000,4.000000,0.000000,,,,,,,,,,,,,,,,,,,,,,,,,,,,
1732158909.805664,1732158909.809097,74.000000,0.000000,4296.538574,4256.538574,4319.230957,4296.922852,4267.692383,4279.102539,4340.897461,4411.666504,4313.205078,4295.769043,4492.820313,4518.974121,4369.102539,4427.820313,1561.000000,1.000000,18.000000,,,,0.000000,2.000000,2.000000,0.000000,4.000000,2.000000,2.000000,0.000000,0.000000,4.000000,4.000000,4.000000,4.000000,4.000000,4.000000,0.000000,,,,,,,,,,,,,,,,,,,,,,,,,,,,
1732158909.813473,1732158909.816906,75.000000,0.000000,4294.743652,4248.205078,4318.974121,4291.922852,4265.641113,4278.461426,4343.717773,4406.922852,4304.102539,4294.102539,4491.282227,4518.974121,4370.641113,4428.333496,1549.000000,1.000000,18.000000,,,,0.000000,2.000000,2.000000,0.000000,4.000000,2.000000,2.000000,0.000000,0.000000,4.000000,4.000000,4.000000,4.000000,4.000000,4.000000,0.000000,,,,,,,,,,,,,,,,,,,,,,,,,,,,
1732158909.821281,1732158909.824814,76.000000,0.000000,4295.128418,4254.487305,4320.769043,4296.538574,4259.102539,4280.641113,4344.102539,4404.615234,4295.897461,4287.563965,4487.820313,4516.153809,4366.666504,4425.128418,1713.000000,1.000000,18.000000,,,,0.000000,2.000000,2.000000,0.000000,4.000000,2.000000,2.000000,0.000000,0.000000,4.000000,4.000000,4.000000,4.000000,4.000000,4.000000,0.000000,,,,,,,,,,,,,,,,,19.000000,0.000000,0.521913,0.489563,-0.529785,0.455261,0.965938,0.024905,-0.035649,-35.013554,45.471066,31.900837
1732158909.829089,1732158909.832622,77.000000,0.000000,4294.743652,4264.487305,4321.025879,4298.589844,4273.974121,4281.282227,4339.615234,4406.794922,4295.128418,4279.358887,4487.179688,4512.436035,4364.102539,4420.256348,1554.000000,1.000000,18.000000,,,,0.000000,2.000000,2.000000,0.000000,4.000000,2.000000,2.000000,0.000000,0.000000,4.000000,4.000000,4.000000,4.000000,4.000000,4.000000,0.000000,,,,,,,,,,,,,,,,,,,,,,,,,,,,
1732158909.836897,1732158909.840630,78.000000,0.000000,4292.820313,4264.102539,4319.743652,4293.205078,4287.051270,4280.769043,4336.410156,4403.461426,4300.000000,4281.666504,4489.871582,4516.666504,4365.128418,4419.487305,1561.000000,1.000000,18.000000,,,,0.000000,2.000000,2.000000,0.000000,4.000000,2.000000,2.000000,0.000000,0.000000,4.000000,4.000000,4.000000,4.000000,4.000000,4.000000,0.000000,1.000000,0.000000,2.000000,2.000000,0.000000,4.000000,2.000000,0.000000,0.000000,0.000000,4.000000,4.000000,4.000000,4.000000,4.000000,4.000000,,,,,,,,,,,,
1732158909.844706,1732158909.848438,79.000000,0.000000,4295.384766,4262.692383,4321.153809,4294.743652,4262.563965,4280.512695,4336.666504,4402.179688,4307.307617,4294.615234,4491.538574,4527.051270,4368.974121,4426.153809,1549.000000,1.000000,18.000000,,,,0.000000,2.000000,2.000000,0.000000,4.000000,2.000000,2.000000,0.000000,0.000000,4.000000,4.000000,4.000000,4.000000,4.000000,4.000000,0.000000,,,,,,,,,,,,,,,,,,,,,,,,,,,,
1732158909.852514,1732158909.856346,80.000000,0.000000,4300.769043,4265.384766,4321.282227,4299.230957,4245.512695,4279.871582,4337.179688,4404.230957,4311.153809,4299.487305,4491.153809,4530.641113,4374.102539,4430.512695,1713.000000,1.000000,18.000000,,,,0.000000,2.000000,2.000000,0.000000,4.000000,2.000000,2.000000,0.000000,0.000000,4.000000,4.000000,4.000000,4.000000,4.000000,4.000000,0.000000,,,,,,,,,,,,,,,,,20.000000,0.000000,0.521651,0.488953,-0.530029,0.455933,0.947870,0.014162,-0.029789,-35.059315,45.384895,31.829678
1732158909.860322,1732158909.864154,81.000000,0.000000,4301.794922,4268.461426,4318.974121,4301.282227,4262.051270,4279.615234,4336.538574,4402.436035,4305.000000,4295.512695,4492.179688,4525.897461,4376.922852,4430.641113,1554.000000,1.000000,18.000000,,,,0.000000,2.000000,2.000000,0.000000,4.000000,2.000000,2.000000,0.000000,0.000000,4.000000,4.000000,4.000000,4.000000,4.000000,4.000000,0.000000,,,,,,,,,,,,,,,,,,,,,,,,,,,,
1732158909.868131,1732158909.872162,82.000000,0.000000,4302.436035,4268.846191,4318.205078,4305.769043,4268.461426,4280.512695,4336.794922,4400.769043,4301.410156,4294.230957,4493.333496,4523.846191,4377.179688,4432.436035,1561.000000,1.000000,18.000000,,,,0.000000,2.000000,2.000000,0.000000,4.000000,2.000000,2.000000,0.000000,0.000000,4.000000,4.000000,4.000000,4.000000,4.000000,4.000000,0.000000,,,,,,,,,,,,,,,,,,,,,,,,,,,,
1732158909.875939,1732158909.879971,83.000000,0.000000,4303.846191,4266.922852,4317.436035,4306.538574,4259.102539,4278.077148,4336.922852,4401.794922,4305.512695,4296.025879,4492.948730,4523.717773,4376.282227,4430.769043,1549.000000,1.000000,18.000000,,,,0.000000,2.000000,2.000000,0.000000,4.000000,2.000000,2.000000,0.000000,0.000000,4.000000,4.000000,4.000000,4.000000,4.000000,4.000000,0.000000,,,,,,,,,,,,,,,,,,,,,,,,,,,,
1732158909.883747,1732158909.887879,84.000000,0.000000,4301.025879,4264.615234,4316.410156,4302.051270,4262.179688,4277.179688,4336.922852,4402.179688,4304.743652,4296.794922,4494.358887,4524.615234,4373.461426,4427.436035,1713.000000,1.000000,18.000000,,,,0.000000,2.000000,2.000000,0.000000,4.000000,2.000000,2.000000,0.000000,0.000000,4.000000,4.000000,4.000000,4.000000,4.000000,4.000000,0.000000,,,,,,,,,,,,,,,,,21.000000,0.000000,0.520685,0.486755,-0.530579,0.458740,0.993774,0.005372,-0.025394,-35.111378,45.408432,31.590372
1732158909.891555,1732158909.895687,85.000000,0.000000,4296.025879,4265.512695,4315.128418,4303.333496,4265.384766,4281.538574,4336.922852,4399.871582,4301.666504,4294.743652,4494.102539,4521.282227,4369.102539,4427.820313,1554.000000,1.000000,18.000000,,,,0.000000,2.000000,2.000000,0.000000,4.000000,2.000000,2.000000,0.000000,0.000000,4.000000,4.000000,4.000000,4.000000,4.000000,4.000000,0.000000,,,,,,,,,,,,,,,,,,,,,,,,,,,,
1732158909.899364,1732158909.903695,86.000000,0.000000,4298.717773,4269.358887,4316.282227,4307.179688,4263.205078,4281.538574,4336.922852,4401.025879,4303.461426,4293.461426,4491.282227,4519.230957,4367.179688,4429.871582,1561.000000,1.000000,18.000000,,,,0.000000,2.000000,2.000000,0.000000,4.000000,2.000000,2.000000,0.000000,0.000000,4.000000,4.000000,4.000000,4.000000,4.000000,4.000000,0.000000,,,,,,,,,,,,,,,,,,,,,,,,,,,,
1732158909.907172,1732158909.911503,87.000000,0.000000,4305.641113,4271.922852,4317.820313,4307.563965,4262.948730,4276.922852,4336.922852,4401.666504,4306.410156,4295.128418,4491.282227,4521.410156,4369.102539,4432.051270,1549.000000,1.000000,18.000000,,,,0.000000,2.000000,2.000000,0.000000,4.000000,2.000000,2.000000,0.000000,0.000000,4.000000,4.000000,4.000000,4.000000,4.000000,4.000000,0.000000,,,,,,,,,,,,,,,,,,,,,,,,,,,,
1732158909.914980,1732158909.919211,88.000000,0.000000,4308.846191,4272.948730,4318.974121,4309.743652,4265.512695,4277.051270,4336.538574,4402.179688,4309.871582,4297.563965,4492.692383,4523.589844,4373.205078,4433.333496,1713.000000,1.000000,18.000000,,,,0.000000,2.000000,2.000000,0.000000,4.000000,2.000000,2.000000,0.000000,0.000000,4.000000,4.000000,4.000000,4.000000,4.000000,4.000000,0.000000,,,,,,,,,,,,,,,,,22.000000,0.000000,0.518734,0.485291,-0.531555,0.461365,0.987425,-0.010743,-0.048834,-35.036880,45.440830,31.418201
1732158909.922788,1732158909.927020,89.000000,0.000000,4306.538574,4271.153809,4317.692383,4312.179688,4271.922852,4281.410156,4337.436035,4403.974121,4312.948730,4297.820313,4491.282227,4523.589844,4373.846191,4430.641113,1554.000000,1.000000,18.000000,,,,0.000000,2.000000,2.000000,0.000000,4.000000,2.000000,2.000000,0.000000,0.000000,4.000000,4.000000,4.000000,4.000000,4.000000,4.000000,0.000000,,,,,,,,,,,,,,,,,,,,,,,,,,,,
1732158909.930596,1732158909.934628,90.000000,0.000000,4301.153809,4268.846191,4316.922852,4307.563965,4272.051270,4282.307617,4336.922852,4401.282227,4304.487305,4296.666504,4489.871582,4521.538574,4369.871582,4428.205078,1561.000000,1.000000,18.000000,,,,0.000000,2.000000,2.000000,0.000000,4.000000,2.000000,2.000000,0.000000,0.000000,4.000000,4.000000,4.000000,4.000000,4.000000,4.000000,0.000000,,,,,,,,,,,,,,,,,,,,,,,,,,,,
1732158909.938405,1732158909.942436,91.000000,0.000000,4300.256348,4271.410156,4319.102539,4308.589844,4270.897461,4280.641113,4336.025879,4398.589844,4292.948730,4295.384766,4490.897461,4522.307617,4370.384766,4428.717773,1549.000000,1.000000,18.000000,,,,0.000000,2.000000,2.000000,0.000000,4.000000,2.000000,2.000000,0.000000,0.000000,4.000000,4.000000,4.000000,4.000000,4.000000,4.000000,0.000000,,,,,,,,,,,,,,,,,,,,,,,,,,,,
1732158909.946213,1732158909.950145,92.000000,0.000000,4303.974121,4276.538574,4321.025879,4315.000000,4278.205078,4280.384766,4338.974121,4404.230957,4293.717773,4292.692383,4489.615234,4521.025879,4372.436035,4428.205078,1713.000000,1.000000,18.000000,,,,0.000000,2.000000,2.000000,0.000000,4.000000,2.000000,2.000000,0.000000,0.000000,4.000000,4.000000,4.000000,4.000000,4.000000,4.000000,0.000000,,,,,,,,,,,,,,,,,23.000000,0.000000,0.517986,0.484741,-0.532043,0.462219,0.987425,-0.010743,-0.048834,-35.093208,45.420406,31.528744
1732158909.954021,1732158909.957953,93.000000,0.000000,4304.743652,4277.307617,4319.102539,4312.948730,4280.641113,4281.538574,4340.384766,4407.820313,4297.948730,4292.820313,4486.922852,4515.512695,4373.846191,4427.820313,1554.000000,1.000000,18.000000,,,,0.000000,2.000000,2.000000,0.000000,4.000000,2.000000,2.000000,0.000000,0.000000,4.000000,4.000000,4.000000,4.000000,4.000000,4.000000,0.000000,,,,,,,,,,,,,,,,,,,,,,,,,,,,
1732158909.961830,1732158909.965561,94.000000,0.000000,4303.461426,4272.563965,4318.205078,4311.153809,4271.538574,4281.410156,4337.563965,4403.461426,4301.025879,4297.436035,4488.974121,4515.512695,4374.102539,4432.436035,1561.000000,1.000000,18.000000,,,,0.000000,2.000000,2.000000,0.000000,4.000000,2.000000,2.000000,0.000000,0.000000,4.000000,4.000000,4.000000,4.000000,4.000000,4.000000,0.000000,,,,,,,,,,,,,,,,,,,,,,,,,,,,
1732158909.969638,1732158909.973369,95.000000,0.000000,4303.077148,4264.615234,4319.230957,4310.384766,4271.410156,4279.743652,4335.384766,4401.282227,4303.589844,4298.717773,4494.487305,4521.538574,4376.666504,4440.128418,1549.000000,1.000000,18.000000,,,,0.000000,2.000000,2.000000,0.000000,4.000000,2.000000,2.000000,0.000000,0.000000,4.000000,4.000000,4.000000,4.000000,4.000000,4.000000,0.000000,,,,,,,,,,,,,,,,,,,,,,,,,,,,
1732158909.977446,1732158909.981078,96.000000,0.000000,4302.820313,4262.307617,4317.563965,4305.512695,4276.025879,4279.102539,4336.410156,4403.077148,4301.538574,4296.922852,4495.256348,4523.846191,4381.410156,4442.051270,1713.000000,1.000000,18.000000,,,,0.000000,2.000000,2.000000,0.000000,4.000000,2.000000,2.000000,0.000000,0.000000,4.000000,4.000000,4.000000,4.000000,4.000000,4.000000,0.000000,,,,,,,,,,,,,,,,,24.000000,0.000000,0.515329,0.482239,-0.534180,0.465332,0.978635,-0.041021,-0.021487,-35.130497,45.433861,31.459949
1732158909.985254,1732158909.988886,97.000000,0.000000,4303.974121,4271.666504,4314.230957,4307.051270,4274.743652,4279.871582,4335.641113,4401.922852,4299.615234,4300.769043,4491.282227,4522.179688,4381.410156,4441.282227,1554.000000,1.000000,18.000000,,,,0.000000,2.000000,2.000000,0.000000,4.000000,2.000000,2.000000,0.000000,0.000000,4.000000,4.000000,4.000000,4.000000,4.000000,4.000000,0.000000,,,,,,,,,,,,,,,,,,,,,,,,,,,,
1732158909.993063,1732158909.996494,98.000000,0.000000,4306.282227,4275.769043,4316.538574,4308.717773,4272.563965,4280.384766,4334.487305,4400.641113,4304.102539,4307.820313,4492.563965,4524.102539,4381.153809,4445.256348,1561.000000,1.000000,18.000000,,,,0.000000,2.000000,2.000000,0.000000,4.000000,2.000000,2.000000,0.000000,0.000000,4.000000,4.000000,4.000000,4.000000,4.000000,4.000000,0.000000,,,,,,,,,,,,,,,,,,,,,,,,,,,,
1732158910.000871,1732158910.004303,99.000000,0.000000,4300.512695,4266.794922,4319.743652,4302.307617,4268.846191,4279.871582,4335.384766,4400.769043,4303.077148,4308.333496,4494.743652,4524.358887,4382.820313,4441.025879,1549.000000,1.000000,18.000000,,,,0.000000,2.000000,2.000000,0.000000,4.000000,2.000000,2.000000,0.000000,0.000000,4.000000,4.000000,4.000000,4.000000,4.000000,4.000000,0.000000,,,,,,,,,,,,,,,,,,,,,,,,,,,,
1732158910.008679,1732158910.012211,100.000000,0.000000,4293.974121,4266.410156,4317.820313,4300.769043,4266.282227,4279.102539,4336.153809,4400.769043,4295.769043,4306.410156,4491.922852,4523.974121,4382.948730,4433.461426,1713.000000,1.000000,18.000000,,,,0.000000,2.000000,2.000000,0.000000,4.000000,2.000000,2.000000,0.000000,0.000000,4.000000,4.000000,4.000000,4.000000,4.000000,4.000000,0.000000,,,,,,,,,,,,,,,,,25.000000,0.000000,0.513964,0.480652,-0.535645,0.466797,0.986449,-0.041997,-0.045904,-35.160702,45.514763,31.470892
1732158910.016487,1732158910.020019,101.000000,0.000000,4298.846191,4273.589844,4315.897461,4303.333496,4266.410156,4280.384766,4336.410156,4402.948730,4295.512695,4310.128418,4491.922852,4522.436035,4383.333496,4436.666504,1554.000000,1.000000,18.000000,,,,0.000000,2.000000,2.000000,0.000000,4.000000,2.000000,2.000000,0.000000,0.000000,4.000000,4.000000,4.000000,4.000000,4.000000,4.000000,0.000000,,,,,,,,,,,,,,,,,,,,,,,,,,,,
1732158910.024296,1732158910.028027,102.000000,0.000000,4303.333496,4276.794922,4316.153809,4302.051270,4267.692383,4281.794922,4336.025879,4401.282227,4299.358887,4313.205078,4493.333496,4517.051270,4385.512695,4437.179688,1561.000000,1.000000,18.000000,,,,0.000000,2.000000,2.000000,0.000000,4.000000,2.000000,2.000000,0.000000,0.000000,4.000000,4.000000,4.000000,4.000000,4.000000,4.000000,0.000000,,,,,,,,,,,,,,,,,,,,,,,,,,,,
1732158910.032104,1732158910.035835,103.000000,0.000000,4299.487305,4275.256348,4316.153809,4303.333496,4265.769043,4280.256348,4334.615234,4399.358887,4298.461426,4310.256348,4490.256348,4515.256348,4383.846191,4429.358887,1549.000000,1.000000,18.000000,,,,0.000000,2.000000,2.000000,0.000000,4.000000,2.000000,2.000000,0.000000,0.000000,4.000000,4.000000,4.000000,4.000000,4.000000,4.000000,0.000000,,,,,,,,,,,,,,,,,,,,,,,,,,,,
1732158910.039912,1732158910.043543,104.000000,0.000000,4299.358887,4275.384766,4315.384766,4305.384766,4265.769043,4277.820313,4335.641113,4400.897461,4295.384766,4308.333496,4489.743652,4518.333496,4385.512695,4432.307617,1713.000000,1.000000,18.000000,,,,0.000000,2.000000,2.000000,0.000000,4.000000,2.000000,2.000000,0.000000,0.000000,4.000000,4.000000,4.000000,4.000000,4.000000,4.000000,0.000000,,,,,,,,,,,,,,,,,26.000000,0.000000,0.513964,0.480652,-0.535645,0.466797,0.990844,-0.047369,-0.032719,-35.335171,45.655289,31.449757
1732158910.047720,1732158910.051352,105.000000,0.000000,4306.538574,4277.820313,4318.077148,4303.974121,4266.922852,4279.487305,4339.102539,4401.666504,4297.436035,4311.794922,4493.717773,4520.512695,4395.256348,4443.461426,1554.000000,1.000000,18.000000,,,,0.000000,2.000000,2.000000,0.000000,4.000000,2.000000,2.000000,0.000000,0.000000,4.000000,4.000000,4.000000,4.000000,4.000000,4.000000,0.000000,,,,,,,,,,,,,,,,,,,,,,,,,,,,
1732158910.055529,1732158910.058960,106.000000,0.000000,4308.846191,4280.384766,4318.461426,4307.692383,4263.974121,4282.948730,4337.563965,4401.025879,4302.179688,4312.948730,4492.051270,4519.871582,4397.692383,4445.897461,1561.000000,1.000000,18.000000,,,,0.000000,2.000000,2.000000,0.000000,4.000000,2.000000,2.000000,0.000000,0.000000,4.000000,4.000000,4.000000,4.000000,4.000000,4.000000,0.000000,,,,,,,,,,,,,,,,,,,,,,,,,,,,
1732158910.063337,1732158910.066768,107.000000,0.000000,4309.487305,4282.692383,4314.487305,4313.333496,4267.179688,4276.410156,4334.871582,4400.897461,4299.230957,4310.256348,4488.974121,4520.128418,4393.333496,4445.256348,1549.000000,1.000000,18.000000,,,,0.000000,2.000000,2.000000,0.000000,4.000000,2.000000,2.000000,0.000000,0.000000,4.000000,4.000000,4.000000,4.000000,4.000000,4.000000,0.000000,,,,,,,,,,,,,,,,,,,,,,,,,,,,
1732158910.071145,1732158910.074477,108.000000,0.000000,4314.743652,4283.077148,4312.692383,4313.333496,4275.000000,4266.153809,4339.230957,4400.897461,4293.333496,4310.512695,4493.461426,4519.743652,4395.256348,4447.051270,1713.000000,1.000000,18.000000,,,,0.000000,2.000000,2.000000,0.000000,4.000000,2.000000,2.000000,0.000000,0.000000,4.000000,4.000000,4.000000,4.000000,4.000000,4.000000,0.000000,,,,,,,,,,,,,,,,,27.000000,0.000000,0.513863,0.479492,-0.536621,0.466980,1.002075,-0.041021,-0.038579,-35.134819,45.632450,31.562635
1732158910.078953,1732158910.082285,109.000000,0.000000,4318.589844,4281.666504,4315.897461,4312.307617,4272.692383,4267.820313,4341.794922,4402.692383,4295.512695,4310.512695,4493.077148,4518.077148,4398.589844,4451.538574,1554.000000,1.000000,18.000000,,,,0.000000,2.000000,2.000000,0.000000,4.000000,2.000000,2.000000,0.000000,0.000000,4.000000,4.000000,4.000000,4.000000,4.000000,4.000000,0.000000,,,,,,,,,,,,,,,,,,,,,,,,,,,,
1732158910.086762,1732158910.089893,110.000000,0.000000,4323.333496,4283.333496,4315.897461,4312.436035,4261.794922,4274.743652,4336.922852,4405.000000,4296.410156,4308.589844,4490.128418,4518.333496,4395.512695,4455.897461,1561.000000,1.000000,18.000000,,,,0.000000,2.000000,2.000000,0.000000,4.000000,2.000000,2.000000,0.000000,0.000000,4.000000,4.000000,4.000000,4.000000,4.000000,4.000000,0.000000,,,,,,,,,,,,,,,,,,,,,,,,,,,,
1732158910.094570,1732158910.097701,111.000000,0.000000,4332.307617,4290.769043,4315.000000,4313.974121,4261.282227,4272.051270,4333.846191,4404.743652,4292.948730,4310.512695,4499.102539,4520.769043,4395.512695,4458.205078,1549.000000,1.000000,18.000000,,,,0.000000,2.000000,2.000000,0.000000,4.000000,2.000000,2.000000,0.000000,0.000000,4.000000,4.000000,4.000000,4.000000,4.000000,4.000000,0.000000,,,,,,,,,,,,,,,,,,,,,,,,,,,,
1732158910.102378,1732158910.105609,112.000000,0.000000,4337.563965,4293.333496,4316.794922,4313.461426,4266.153809,4267.436035,4335.256348,4403.846191,4294.358887,4313.077148,4508.333496,4524.102539,4404.871582,4466.153809,1713.000000,1.000000,18.000000,,,,0.000000,2.000000,2.000000,0.000000,4.000000,2.000000,2.000000,0.000000,0.000000,4.000000,4.000000,4.000000,4.000000,4.000000,4.000000,0.000000,,,,,,,,,,,,,,,,,28.000000,0.000000,0.513912,0.477905,-0.538147,0.466797,0.989379,-0.018557,-0.029300,-35.095871,45.512287,31.539068
1732158910.110186,1732158910.113418,113.000000,0.000000,4334.358887,4291.922852,4317.179688,4311.025879,4259.358887,4266.025879,4338.333496,4402.563965,4296.025879,4310.512695,4506.410156,4522.820313,4411.282227,4475.897461,1554.000000,1.000000,18.000000,,,,0.000000,2.000000,2.000000,0.000000,4.000000,2.000000,2.000000,0.000000,0.000000,4.000000,4.000000,4.000000,4.000000,4.000000,4.000000,0.000000,,,,,,,,,,,,,,,,,,,,,,,,,,,,
1732158910.117995,1732158910.121426,114.000000,0.000000,4337.307617,4293.461426,4316.153809,4310.641113,4256.282227,4265.641113,4338.077148,4400.897461,4294.743652,4308.974121,4503.974121,4520.000000,4411.282227,4477.436035,1561.000000,1.000000,18.000000,,,,0.000000,2.000000,2.000000,0.000000,4.000000,2.000000,2.000000,0.000000,0.000000,4.000000,4.000000,4.000000,4.000000,4.000000,4.000000,0.000000,,,,,,,,,,,,,,,,,,,,,,,,,,,,
1732158910.125803,1732158910.129234,115.000000,0.000000,4346.922852,4296.794922,4316.153809,4312.307617,4261.538574,4267.051270,4335.769043,4401.153809,4295.641113,4311.666504,4511.922852,4523.205078,4415.384766,4480.000000,1549.000000,1.000000,18.000000,,,,0.000000,2.000000,2.000000,0.000000,4.000000,2.000000,2.000000,0.000000,0.000000,4.000000,4.000000,4.000000,4.000000,4.000000,4.000000,0.000000,,,,,,,,,,,,,,,,,,,,,,,,,,,,
1732158910.133611,1732158910.137142,116.000000,0.000000,4352.051270,4299.871582,4316.410156,4317.307617,4255.897461,4261.410156,4336.794922,4401.410156,4298.589844,4313.205078,4526.282227,4532.051270,4424.358887,4495.128418,1713.000000,1.000000,18.000000,,,,0.000000,2.000000,2.000000,0.000000,4.000000,2.000000,2.000000,0.000000,0.000000,4.000000,4.000000,4.000000,4.000000,4.000000,4.000000,0.000000,,,,,,,,,,,,,,,,,29.000000,0.000000,0.513921,0.477661,-0.538513,0.466614,0.971798,-0.007813,-0.021975,-35.015991,45.583286,31.563313
1732158910.141419,1732158910.144950,117.000000,0.000000,4359.230957,4298.846191,4314.102539,4324.487305,4244.615234,4247.307617,4336.794922,4403.077148,4298.461426,4313.589844,4540.000000,4543.077148,4435.769043,4508.974121,1554.000000,1.000000,18.000000,,,,0.000000,2.000000,2.000000,0.000000,4.000000,2.000000,2.000000,0.000000,0.000000,4.000000,4.000000,4.000000,4.000000,4.000000,4.000000,0.000000,,,,,,,,,,,,,,,,,,,,,,,,,,,,
1732158910.149228,1732158910.152958,118.000000,0.000000,4368.205078,4302.692383,4313.589844,4327.179688,4249.358887,4245.384766,4336.922852,4403.333496,4293.333496,4311.410156,4545.384766,4551.922852,4441.666504,4510.641113,1561.000000,1.000000,18.000000,,,,0.000000,2.000000,2.000000,0.000000,4.000000,2.000000,2.000000,0.000000,0.000000,4.000000,4.000000,4.000000,4.000000,4.000000,4.000000,0.000000,,,,,,,,,,,,,,,,,,,,,,,,,,,,
1732158910.157036,1732158910.160766,119.000000,0.000000,4368.846191,4312.307617,4316.410156,4327.948730,4260.512695,4262.179688,4339.358887,4403.077148,4291.794922,4307.820313,4533.974121,4550.000000,4431.410156,4506.282227,1549.000000,1.000000,18.000000,,,,0.000000,2.000000,2.000000,0.000000,4.000000,2.000000,2.000000,0.000000,0.000000,4.000000,4.000000,4.000000,4.000000,4.000000,4.000000,0.000000,,,,,,,,,,,,,,,,,,,,,,,,,,,,
1732158910.164844,1732158910.168675,120.000000,0.000000,4366.282227,4307.820313,4318.077148,4331.538574,4256.153809,4261.025879,4339.358887,4405.512695,4293.589844,4309.230957,4522.179688,4541.153809,4424.615234,4505.000000,1713.000000,1.000000,18.000000,,,,0.000000,2.000000,2.000000,0.000000,4.000000,2.000000,2.000000,0.000000,0.000000,4.000000,4.000000,4.000000,4.000000,4.000000,4.000000,0.000000,,,,,,,,,,,,,,,,,30.000000,0.000000,0.513921,0.477661,-0.538513,0.466614,0.984007,-0.008302,-0.027835,-34.966286,45.550793,31.552950
1732158910.172652,1732158910.176483,121.000000,0.000000,4366.410156,4294.230957,4316.538574,4327.820313,4246.666504,4245.128418,4339.871582,4404.615234,4296.025879,4314.615234,4524.743652,4540.384766,4440.512695,4510.000000,1554.000000,1.000000,18.000000,,,,0.000000,2.000000,2.000000,0.000000,4.000000,2.000000,2.000000,0.000000,0.000000,4.000000,4.000000,4.000000,4.000000,4.000000,4.000000,0.000000,,,,,,,,,,,,,,,,,,,,,,,,,,,,
1732158910.180461,1732158910.184491,122.000000,0.000000,4357.820313,4291.025879,4316.666504,4316.025879,4250.384766,4253.589844,4341.922852,4400.512695,4295.128418,4312.436035,4526.794922,4537.692383,4444.871582,4505.000000,1561.000000,1.000000,18.000000,,,,0.000000,2.000000,2.000000,0.000000,4.000000,2.000000,2.000000,0.000000,0.000000,4.000000,4.000000,4.000000,4.000000,4.000000,4.000000,0.000000,,,,,,,,,,,,,,,,,,,,,,,,,,,,
1732158910.188269,1732158910.192299,123.000000,0.000000,4348.589844,4298.333496,4316.282227,4313.205078,4259.615234,4270.897461,4337.307617,4399.230957,4287.307617,4299.358887,4518.717773,4525.641113,4425.897461,4489.871582,1549.000000,1.000000,18.000000,,,,0.000000,2.000000,2.000000,0.000000,4.000000,2.000000,2.000000,0.000000,0.000000,4.000000,4.000000,4.000000,4.000000,4.000000,4.000000,0.000000,,,,,,,,,,,,,,,,,,,,,,,,,,,,
1732158910.196077,1732158910.200207,124.000000,0.000000,4351.410156,4307.820313,4315.897461,4321.538574,4258.205078,4266.666504,4334.102539,4401.538574,4280.256348,4290.897461,4517.179688,4526.153809,4424.487305,4491.410156,1713.000000,1.000000,18.000000,,,,0.000000,2.000000,2.000000,0.000000,4.000000,2.000000,2.000000,0.000000,0.000000,4.000000,4.000000,4.000000,4.000000,4.000000,4.000000,0.000000,,,,,,,,,,,,,,,,,31.000000,0.000000,0.514087,0.477844,-0.538879,0.465820,0.984495,0.000977,-0.026370,-35.059357,45.396145,31.652889
1732158910.203885,1732158910.208015,125.000000,0.000000,4354.102539,4312.179688,4316.153809,4324.487305,4249.102539,4260.384766,4341.153809,4401.794922,4287.436035,4302.307617,4525.256348,4534.743652,4442.179688,4504.615234,1554.000000,1.000000,18.000000,,,,0.000000,2.000000,2.000000,0.000000,4.000000,2.000000,2.000000,0.000000,0.000000,4.000000,4.000000,4.000000,4.000000,4.000000,4.000000,0.000000,,,,,,,,,,,,,,,,,,,,,,,,,,,,
1732158910.211694,1732158910.216023,126.000000,0.000000,4351.666504,4310.128418,4316.153809,4320.384766,4247.179688,4265.256348,4343.333496,4399.487305,4297.820313,4316.538574,4526.666504,4536.025879,4450.384766,4503.974121,1561.000000,1.000000,18.000000,,,,0.000000,2.000000,2.000000,0.000000,4.000000,2.000000,2.000000,0.000000,0.000000,4.000000,4.000000,4.000000,4.000000,4.000000,4.000000,0.000000,,,,,,,,,,,,,,,,,,,,,,,,,,,,
1732158910.219502,1732158910.223831,127.000000,0.000000,4349.871582,4312.692383,4315.769043,4321.538574,4255.256348,4264.743652,4337.051270,4399.487305,4297.820313,4311.794922,4521.282227,4532.692383,4445.512695,4493.717773,18.000000,1.000000,18.000000,,,,0.000000,2.000000,2.000000,0.000000,4.000000,2.000000,2.000000,0.000000,0.000000,4.000000,4.000000,4.000000,4.000000,4.000000,4.000000,0.000000,,,,,,,,,,,,,,,,,,,,,,,,,,,,
1732158910.227310,1732158910.231740,0.000000,0.000000,4349.487305,4317.051270,4316.538574,4322.307617,4251.922852,4263.846191,4335.000000,4402.820313,4299.230957,4308.205078,4523.974121,4530.384766,4442.179688,4491.410156,0.000000,1.000000,18.000000,,,,0.000000,2.000000,2.000000,0.000000,4.000000,2.000000,2.000000,0.000000,0.000000,4.000000,4.000000,4.000000,4.000000,4.000000,4.000000,0.000000,,,,,,,,,,,,,,,,,0.000000,0.000000,0.514233,0.478271,-0.538940,0.465149,0.990355,0.000977,-0.043951,-35.336414,45.409210,31.868839
1732158910.235119,1732158910.239548,1.000000,0.000000,4350.000000,4313.205078,4317.436035,4316.410156,4244.871582,4265.512695,4335.256348,4403.846191,4302.436035,4323.461426,4531.538574,4529.102539,4447.307617,4494.230957,1616.000000,1.000000,18.000000,,,,0.000000,2.000000,2.000000,0.000000,4.000000,2.000000,2.000000,0.000000,0.000000,4.000000,4.000000,4.000000,4.000000,4.000000,4.000000,0.000000,,,,,,,,,,,,,,,,,,,,,,,,,,,,
1732158910.242927,1732158910.247556,2.000000,0.000000,4349.615234,4309.102539,4318.205078,4313.846191,4263.589844,4262.692383,4334.102539,4399.743652,4297.179688,4326.538574,4527.820313,4530.384766,4449.230957,4493.589844,1362.000000,1.000000,18.000000,,,,0.000000,2.000000,2.000000,0.000000,4.000000,2.000000,2.000000,0.000000,0.000000,4.000000,4.000000,4.000000,4.000000,4.000000,4.000000,0.000000,,,,,,,,,,,,,,,,,,,,,,,,,,,,
1732158910.250735,1732158910.255364,3.000000,0.000000,4345.641113,4311.794922,4318.333496,4317.436035,4272.820313,4264.102539,4334.102539,4400.384766,4294.230957,4312.692383,4519.230957,4532.563965,4439.871582,4490.769043,1437.000000,1.000000,18.000000,,,,0.000000,2.000000,2.000000,0.000000,4.000000,2.000000,2.000000,0.000000,0.000000,4.000000,4.000000,4.000000,4.000000,4.000000,4.000000,0.000000,,,,,,,,,,,,,,,,,,,,,,,,,,,,
1732158910.258543,1732158910.263072,4.000000,0.000000,4342.563965,4307.948730,4317.051270,4316.153809,4249.487305,4268.589844,4335.384766,4401.410156,4298.077148,4311.922852,4521.666504,4533.333496,4432.563965,4490.384766,1437.000000,1.000000,18.000000,,,,0.000000,2.000000,2.000000,0.000000,4.000000,2.000000,2.000000,0.000000,0.000000,4.000000,4.000000,4.000000,4.000000,4.000000,4.000000,0.000000,,,,,,,,,,,,,,,,,1.000000,0.000000,0.514261,0.478333,-0.539124,0.464844,0.990355,0.000977,-0.043951,-35.537495,45.584793,32.095428
1732158910.266352,1732158910.270881,5.000000,0.000000,4341.282227,4300.641113,4316.922852,4312.692383,4243.333496,4270.000000,4337.948730,4400.641113,4304.358887,4321.538574,4526.922852,4534.487305,4432.692383,4492.948730,1185.000000,1.000000,18.000000,,,,0.000000,2.000000,2.000000,0.000000,4.000000,2.000000,2.000000,0.000000,0.000000,4.000000,4.000000,4.000000,4.000000,4.000000,4.000000,0.000000,,,,,,,,,,,,,,,,,,,,,,,,,,,,
1732158910.274160,1732158910.278489,6.000000,0.000000,4341.410156,4298.974121,4316.922852,4314.871582,4260.000000,4268.077148,4341.666504,4402.820313,4306.794922,4318.205078,4523.333496,4537.179688,4431.153809,4491.410156,0.000000,1.000000,18.000000,,,,0.000000,2.000000,2.000000,0.000000,4.000000,2.000000,2.000000,0.000000,0.000000,4.000000,4.000000,4.000000,4.000000,4.000000,4.000000,0.000000,,,,,,,,,,,,,,,,,,,,,,,,,,,,
1732158910.281968,1732158910.286297,7.000000,0.000000,4339.743652,4298.717773,4317.436035,4310.769043,4255.256348,4267.820313,4339.615234,4402.307617,4304.743652,4315.256348,4518.974121,4536.025879,4425.512695,4489.871582,0.000000,1.000000,18.000000,,,,0.000000,2.000000,2.000000,0.000000,4.000000,2.000000,2.000000,0.000000,0.000000,4.000000,4.000000,4.000000,4.000000,4.000000,4.000000,0.000000,,,,,,,,,,,,,,,,,,,,,,,,,,,,
1732158910.289776,1732158910.294005,8.000000,0.000000,4337.179688,4298.077148,4318.077148,4307.563965,4250.000000,4271.794922,4333.846191,4401.153809,4308.077148,4324.102539,4520.897461,4529.230957,4421.282227,4490.641113,1538.000000,1.000000,18.000000,,,,0.000000,2.000000,2.000000,0.000000,4.000000,2.000000,2.000000,0.000000,0.000000,4.000000,4.000000,4.000000,4.000000,4.000000,4.000000,0.000000,,,,,,,,,,,,,,,,,2.000000,0.000000,0.514274,0.478577,-0.539368,0.464294,0.980588,0.004883,-0.041509,-35.280369,45.518681,32.033962
1732158910.297584,1732158910.301814,9.000000,0.000000,4337.948730,4298.846191,4319.871582,4312.051270,4263.589844,4279.358887,4337.051270,4403.333496,4311.410156,4323.589844,4520.384766,4525.897461,4417.563965,4490.256348,1691.000000,1.000000,18.000000,,,,0.000000,2.000000,2.000000,0.000000,4.000000,2.000000,2.000000,0.000000,0.000000,4.000000,4.000000,4.000000,4.000000,4.000000,4.000000,0.000000,,,,,,,,,,,,,,,,,,,,,,,,,,,,
1732158910.305393,1732158910.309422,10.000000,0.000000,4338.461426,4298.846191,4319.358887,4313.077148,4267.179688,4280.000000,4340.512695,4401.794922,4300.512695,4310.641113,4513.461426,4527.436035,4414.743652,4489.743652,1559.000000,1.000000,18.000000,,,,0.000000,2.000000,2.000000,0.000000,4.000000,2.000000,2.000000,0.000000,0.000000,4.000000,4.000000,4.000000,4.000000,4.000000,4.000000,0.000000,,,,,,,,,,,,,,,,,,,,,,,,,,,,
1732158910.313201,1732158910.317230,11.000000,0.000000,4334.230957,4295.384766,4318.333496,4305.641113,4261.410156,4272.179688,4335.000000,4402.948730,4296.538574,4310.641113,4509.487305,4531.410156,4414.358887,4490.000000,1548.000000,1.000000,18.000000,,,,0.000000,2.000000,2.000000,0.000000,4.000000,2.000000,2.000000,0.000000,0.000000,4.000000,4.000000,4.000000,4.000000,4.000000,4.000000,0.000000,,,,,,,,,,,,,,,,,,,,,,,,,,,,
1732158910.321009,1732158910.324939,12.000000,0.000000,4333.717773,4295.897461,4318.333496,4305.128418,4261.025879,4267.948730,4331.410156,4405.897461,4308.461426,4320.769043,4511.153809,4533.205078,4413.333496,4486.538574,1706.000000,1.000000,18.000000,,,,0.000000,2.000000,2.000000,0.000000,4.000000,2.000000,2.000000,0.000000,0.000000,4.000000,4.000000,4.000000,4.000000,4.000000,4.000000,0.000000,,,,,,,,,,,,,,,,,3.000000,0.000000,0.513810,0.479370,-0.539368,0.463989,0.972287,-0.012209,-0.058113,-35.252102,45.665134,31.984177
1732158910.328817,1732158910.332747,13.000000,0.000000,4336.025879,4297.179688,4320.384766,4311.025879,4262.436035,4270.897461,4334.102539,4402.179688,4308.846191,4318.461426,4509.487305,4529.743652,4406.410156,4479.102539,1546.000000,1.000000,18.000000,,,,0.000000,2.000000,2.000000,0.000000,4.000000,2.000000,2.000000,0.000000,0.000000,4.000000,4.000000,4.000000,4.000000,4.000000,4.000000,0.000000,,,,,,,,,,,,,,,,,,,,,,,,,,,,
1732158910.336626,1732158910.340355,14.000000,0.000000,4330.641113,4294.743652,4321.666504,4309.230957,4265.128418,4275.000000,4337.051270,4399.487305,4300.128418,4309.743652,4504.358887,4524.743652,4395.641113,4473.974121,1559.000000,1.000000,18.000000,,,,0.000000,2.000000,2.000000,0.000000,4.000000,2.000000,2.000000,0.000000,0.000000,4.000000,4.000000,4.000000,4.000000,4.000000,4.000000,0.000000,1.000000,0.000000,2.000000,2.000000,0.000000,4.000000,2.000000,2.000000,0.000000,0.000000,4.000000,4.000000,4.000000,4.000000,4.000000,4.000000,,,,,,,,,,,,
1732158910.344434,1732158910.348163,15.000000,0.000000,4326.410156,4293.589844,4320.897461,4309.230957,4266.153809,4275.641113,4337.307617,4402.948730,4302.051270,4312.179688,4506.666504,4529.102539,4396.538574,4475.256348,1548.000000,1.000000,18.000000,,,,0.000000,2.000000,2.000000,0.000000,4.000000,2.000000,2.000000,0.000000,0.000000,4.000000,4.000000,4.000000,4.000000,4.000000,4.000000,0.000000,,,,,,,,,,,,,,,,,,,,,,,,,,,,
1732158910.352242,1732158910.356072,16.000000,0.000000,4329.358887,4288.461426,4318.974121,4313.077148,4261.410156,4276.153809,4335.256348,4403.717773,4302.948730,4312.436035,4508.205078,4534.487305,4398.589844,4475.769043,0.000000,1.000000,18.000000,,,,0.000000,2.000000,2.000000,0.000000,4.000000,2.000000,2.000000,0.000000,0.000000,4.000000,4.000000,4.000000,4.000000,4.000000,4.000000,0.000000,,,,,,,,,,,,,,,,,4.000000,0.000000,0.513797,0.479492,-0.539429,0.463806,0.971798,-0.003907,-0.032230,-35.310867,45.633759,31.902184
1732158910.360051,1732158910.363880,17.000000,0.000000,4328.974121,4280.512695,4317.692383,4308.717773,4271.794922,4279.487305,4335.641113,4402.436035,4300.512695,4303.077148,4497.563965,4526.282227,4388.717773,4468.461426,0.000000,1.000000,18.000000,,,,0.000000,2.000000,2.000000,0.000000,4.000000,2.000000,2.000000,0.000000,0.000000,4.000000,4.000000,4.000000,4.000000,4.000000,4.000000,0.000000,,,,,,,,,,,,,,,,,,,,,,,,,,,,
1732158910.367859,1732158910.371488,18.000000,0.000000,4325.128418,4278.589844,4318.077148,4305.384766,4286.922852,4281.025879,4338.846191,4403.589844,4305.128418,4302.051270,4492.436035,4519.871582,4379.871582,4459.615234,0.000000,1.000000,18.000000,,,,0.000000,2.000000,2.000000,0.000000,4.000000,2.000000,2.000000,0.000000,0.000000,4.000000,4.000000,4.000000,4.000000,4.000000,4.000000,0.000000,,,,,,,,,,,,,,,,,,,,,,,,,,,,
1732158910.375667,1732158910.379296,19.000000,0.000000,4325.256348,4281.025879,4320.384766,4311.538574,4274.230957,4281.538574,4336.922852,4402.948730,4311.538574,4312.179688,4502.307617,4524.102539,4381.025879,4460.897461,0.000000,1.000000,18.000000,,,,0.000000,2.000000,2.000000,0.000000,4.000000,2.000000,2.000000,0.000000,0.000000,4.000000,4.000000,4.000000,4.000000,4.000000,4.000000,0.000000,,,,,,,,,,,,,,,,,,,,,,,,,,,,
1732158910.383475,1732158910.387005,20.000000,0.000000,4330.128418,4281.025879,4322.436035,4315.897461,4257.051270,4282.307617,4333.589844,4401.922852,4314.358887,4312.820313,4508.846191,4534.230957,4387.051270,4467.563965,0.000000,1.000000,18.000000,,,,0.000000,2.000000,2.000000,0.000000,4.000000,2.000000,2.000000,0.000000,0.000000,4.000000,4.000000,4.000000,4.000000,4.000000,4.000000,0.000000,,,,,,,,,,,,,,,,,5.000000,0.000000,0.513701,0.479614,-0.539307,0.463928,0.971798,-0.003907,-0.032230,-35.030136,45.355011,31.794102
1732158910.391284,1732158910.394813,21.000000,0.000000,4332.436035,4279.743652,4321.538574,4315.769043,4264.230957,4281.025879,4334.487305,4402.179688,4306.282227,4308.333496,4504.615234,4539.487305,4388.077148,4466.025879,0.000000,1.000000,18.000000,,,,0.000000,2.000000,2.000000,0.000000,4.000000,2.000000,2.000000,0.000000,0.000000,4.000000,4.000000,4.000000,4.000000,4.000000,4.000000,0.000000,,,,,,,,,,,,,,,,,,,,,,,,,,,,
1732158910.399092,1732158910.402421,22.000000,0.000000,4333.589844,4282.948730,4322.179688,4319.871582,4275.641113,4277.051270,4334.615234,4401.025879,4292.820313,4309.615234,4503.846191,4535.512695,4387.307617,4466.282227,0.000000,1.000000,18.000000,,,,0.000000,2.000000,2.000000,0.000000,4.000000,2.000000,2.000000,0.000000,0.000000,4.000000,4.000000,4.000000,4.000000,4.000000,4.000000,0.000000,,,,,,,,,,,,,,,,,,,,,,,,,,,,
1732158910.406900,1732158910.410229,23.000000,0.000000,4334.487305,4282.820313,4322.563965,4320.512695,4273.589844,4280.128418,4335.256348,4402.948730,4297.307617,4303.974121,4506.282227,4530.384766,4385.128418,4472.948730,0.000000,1.000000,18.000000,,,,0.000000,2.000000,2.000000,0.000000,4.000000,2.000000,2.000000,0.000000,0.000000,4.000000,4.000000,4.000000,4.000000,4.000000,4.000000,0.000000,,,,,,,,,,,,,,,,,,,,,,,,,,,,
1732158910.414708,1732158910.417938,24.000000,0.000000,4333.974121,4283.589844,4320.512695,4319.487305,4271.025879,4279.487305,4336.282227,4405.512695,4309.102539,4298.205078,4506.410156,4532.307617,4386.538574,4474.743652,0.000000,1.000000,18.000000,,,,0.000000,2.000000,2.000000,0.000000,4.000000,2.000000,2.000000,0.000000,0.000000,4.000000,4.000000,4.000000,4.000000,4.000000,4.000000,0.000000,,,,,,,,,,,,,,,,,6.000000,0.000000,0.513135,0.479797,-0.539368,0.464294,0.977658,-0.014162,-0.043462,-35.119411,45.374226,31.756556
1732158910.422516,1732158910.425746,25.000000,0.000000,4334.743652,4289.358887,4318.717773,4320.897461,4276.025879,4267.948730,4336.153809,4405.000000,4310.128418,4309.871582,4510.384766,4534.487305,4396.410156,4473.974121,0.000000,1.000000,18.000000,,,,0.000000,2.000000,2.000000,0.000000,4.000000,2.000000,2.000000,0.000000,0.000000,4.000000,4.000000,4.000000,4.000000,4.000000,4.000000,0.000000,,,,,,,,,,,,,,,,,,,,,,,,,,,,
1732158910.430325,1732158910.433754,26.000000,0.000000,4336.025879,4288.974121,4320.641113,4317.948730,4275.384766,4268.461426,4336.025879,4405.128418,4309.487305,4321.025879,4511.538574,4533.077148,4398.461426,4476.410156,0.000000,1.000000,18.000000,,,,0.000000,2.000000,2.000000,0.000000,4.000000,2.000000,2.000000,0.000000,0.000000,4.000000,4.000000,4.000000,4.000000,4.000000,4.000000,0.000000,,,,,,,,,,,,,,,,,,,,,,,,,,,,
1732158910.438133,1732158910.441562,27.000000,0.000000,4335.256348,4286.794922,4322.820313,4315.512695,4273.205078,4277.563965,4335.769043,4404.615234,4311.410156,4314.871582,4508.461426,4532.563965,4393.205078,4475.769043,0.000000,1.000000,18.000000,,,,0.000000,2.000000,2.000000,0.000000,4.000000,2.000000,2.000000,0.000000,0.000000,4.000000,4.000000,4.000000,4.000000,4.000000,4.000000,0.000000,,,,,,,,,,,,,,,,,,,,,,,,,,,,
1732158910.445941,1732158910.449470,28.000000,0.000000,4333.461426,4290.512695,4323.717773,4316.666504,4288.846191,4273.205078,4337.948730,4402.179688,4310.769043,4311.025879,4507.307617,4531.025879,4391.025879,4470.256348,0.000000,1.000000,18.000000,,,,0.000000,2.000000,2.000000,0.000000,4.000000,2.000000,2.000000,0.000000,0.000000,4.000000,4.000000,4.000000,4.000000,4.000000,4.000000,0.000000,,,,,,,,,,,,,,,,,7.000000,0.000000,0.512716,0.479675,-0.539612,0.464600,0.962520,-0.004883,-0.045904,-35.225056,45.456455,31.742809
1732158910.453750,1732158910.457279,29.000000,0.000000,4334.615234,4293.077148,4322.563965,4321.282227,4295.256348,4271.153809,4340.000000,4400.000000,4313.461426,4322.692383,4509.487305,4528.846191,4391.666504,4470.641113,0.000000,1.000000,18.000000,,,,0.000000,2.000000,2.000000,0.000000,4.000000,2.000000,2.000000,0.000000,0.000000,4.000000,4.000000,4.000000,4.000000,4.000000,4.000000,0.000000,,,,,,,,,,,,,,,,,,,,,,,,,,,,
1732158910.461558,1732158910.465287,30.000000,0.000000,4335.384766,4292.692383,4320.769043,4324.743652,4271.922852,4279.358887,4337.179688,4401.153809,4311.794922,4324.102539,4510.256348,4532.563965,4390.256348,4475.384766,0.000000,1.000000,18.000000,,,,0.000000,2.000000,2.000000,0.000000,4.000000,2.000000,2.000000,0.000000,0.000000,4.000000,4.000000,4.000000,4.000000,4.000000,4.000000,0.000000,,,,,,,,,,,,,,,,,,,,,,,,,,,,
1732158910.469366,1732158910.473095,31.000000,0.000000,4334.743652,4296.025879,4319.871582,4320.641113,4264.743652,4280.256348,4334.743652,4402.307617,4306.922852,4314.230957,4508.461426,4532.051270,4387.692383,4471.153809,0.000000,1.000000,18.000000,,,,0.000000,2.000000,2.000000,0.000000,4.000000,2.000000,2.000000,0.000000,0.000000,4.000000,4.000000,4.000000,4.000000,4.000000,4.000000,0.000000,,,,,,,,,,,,,,,,,,,,,,,,,,,,
1732158910.477174,1732158910.480803,32.000000,0.000000,4333.846191,4295.384766,4320.897461,4316.282227,4283.717773,4281.025879,4335.897461,4401.282227,4312.692383,4313.077148,4506.538574,4526.922852,4382.051270,4463.333496,0.000000,1.000000,18.000000,,,,0.000000,2.000000,2.000000,0.000000,4.000000,2.000000,2.000000,0.000000,0.000000,4.000000,4.000000,4.000000,4.000000,4.000000,4.000000,0.000000,,,,,,,,,,,,,,,,,8.000000,0.000000,0.512472,0.479553,-0.539795,0.464783,0.972775,-0.013185,-0.049322,-35.023960,45.211395,31.760010
1732158910.484983,1732158910.488611,33.000000,0.000000,4334.102539,4293.461426,4321.922852,4325.512695,4283.846191,4278.461426,4335.897461,4401.410156,4309.743652,4317.948730,4510.384766,4531.922852,4385.000000,4468.974121,0.000000,1.000000,18.000000,,,,0.000000,2.000000,2.000000,0.000000,4.000000,2.000000,2.000000,0.000000,0.000000,4.000000,4.000000,4.000000,4.000000,4.000000,4.000000,0.000000,,,,,,,,,,,,,,,,,,,,,,,,,,,,
1732158910.492791,1732158910.496220,34.000000,0.000000,4334.358887,4297.051270,4320.128418,4330.512695,4275.641113,4267.436035,4334.615234,4400.384766,4301.153809,4317.051270,4513.589844,4537.692383,4393.974121,4476.922852,0.000000,1.000000,18.000000,,,,0.000000,2.000000,2.000000,0.000000,4.000000,2.000000,2.000000,0.000000,0.000000,4.000000,4.000000,4.000000,4.000000,4.000000,4.000000,0.000000,,,,,,,,,,,,,,,,,,,,,,,,,,,,
1732158910.500599,1732158910.504028,35.000000,0.000000,4333.717773,4291.666504,4318.461426,4319.615234,4283.205078,4272.820313,4335.512695,4401.538574,4315.384766,4319.487305,4511.922852,4533.461426,4387.179688,4470.769043,0.000000,1.000000,18.000000,,,,0.000000,2.000000,2.000000,0.000000,4.000000,2.000000,2.000000,0.000000,0.000000,4.000000,4.000000,4.000000,4.000000,4.000000,4.000000,0.000000,,,,,,,,,,,,,,,,,,,,,,,,,,,,
1732158910.508407,1732158910.511736,36.000000,0.000000,4333.974121,4288.974121,4320.256348,4318.333496,4285.384766,4287.051270,4336.282227,4402.563965,4326.153809,4325.000000,4511.025879,4531.282227,4379.871582,4465.128418,0.000000,1.000000,18.000000,,,,0.000000,2.000000,2.000000,0.000000,4.000000,2.000000,2.000000,0.000000,0.000000,4.000000,4.000000,4.000000,4.000000,4.000000,4.000000,0.000000,,,,,,,,,,,,,,,,,9.000000,0.000000,0.511852,0.479248,-0.539917,0.465637,0.977170,-0.004883,-0.041021,-34.987743,45.139565,31.900608
1732158910.516216,1732158910.519544,37.000000,0.000000,4332.436035,4295.897461,4322.692383,4324.871582,4282.051270,4277.563965,4335.769043,4401.538574,4307.051270,4317.563965,4508.717773,4532.307617,4380.641113,4464.230957,0.000000,1.000000,18.000000,,,,0.000000,2.000000,2.000000,0.000000,4.000000,2.000000,2.000000,0.000000,0.000000,4.000000,4.000000,4.000000,4.000000,4.000000,4.000000,0.000000,,,,,,,,,,,,,,,,,,,,,,,,,,,,
1732158910.524024,1732158910.527552,38.000000,0.000000,4326.282227,4294.743652,4323.205078,4321.410156,4283.461426,4273.461426,4336.922852,4400.256348,4303.461426,4310.641113,4504.358887,4528.717773,4371.666504,4457.692383,0.000000,1.000000,18.000000,,,,0.000000,2.000000,2.000000,0.000000,4.000000,2.000000,2.000000,0.000000,0.000000,4.000000,4.000000,4.000000,4.000000,4.000000,4.000000,0.000000,,,,,,,,,,,,,,,,,,,,,,,,,,,,
1732158910.531832,1732158910.535361,39.000000,0.000000,4324.487305,4291.153809,4323.333496,4322.820313,4288.846191,4287.179688,4339.102539,4401.538574,4322.436035,4312.692383,4504.102539,4532.692383,4363.077148,4455.384766,0.000000,1.000000,18.000000,,,,0.000000,2.000000,2.000000,0.000000,4.000000,2.000000,2.000000,0.000000,0.000000,4.000000,4.000000,4.000000,4.000000,4.000000,4.000000,0.000000,,,,,,,,,,,,,,,,,,,,,,,,,,,,
1732158910.539640,1732158910.543269,40.000000,0.000000,4332.179688,4297.307617,4323.461426,4332.051270,4291.922852,4286.025879,4337.307617,4403.205078,4317.179688,4310.256348,4507.179688,4541.410156,4368.846191,4462.307617,0.000000,1.000000,18.000000,,,,0.000000,2.000000,2.000000,0.000000,4.000000,2.000000,2.000000,0.000000,0.000000,4.000000,4.000000,4.000000,4.000000,4.000000,4.000000,0.000000,,,,,,,,,,,,,,,,,10.000000,0.000000,0.510719,0.478821,-0.539734,0.467529,0.987914,-0.026859,-0.036626,-34.875072,45.259712,31.652826
1732158910.547449,1732158910.551077,41.000000,0.000000,4336.794922,4302.692383,4324.358887,4332.692383,4288.974121,4273.589844,4334.230957,4400.641113,4300.000000,4309.615234,4508.461426,4539.743652,4372.179688,4463.077148,0.000000,1.000000,18.000000,,,,0.000000,2.000000,2.000000,0.000000,4.000000,2.000000,2.000000,0.000000,0.000000,4.000000,4.000000,4.000000,4.000000,4.000000,4.000000,0.000000,,,,,,,,,,,,,,,,,,,,,,,,,,,,
1732158910.555257,1732158910.559085,42.000000,0.000000,4331.538574,4301.282227,4322.179688,4330.384766,4289.358887,4274.358887,4335.897461,4402.307617,4305.512695,4316.282227,4507.307617,4537.179688,4365.384766,4457.820313,0.000000,1.000000,18.000000,,,,0.000000,2.000000,2.000000,0.000000,4.000000,2.000000,2.000000,0.000000,0.000000,4.000000,4.000000,4.000000,4.000000,4.000000,4.000000,0.000000,,,,,,,,,,,,,,,,,,,,,,,,,,,,
1732158910.563065,1732158910.566893,43.000000,0.000000,4327.563965,4300.128418,4319.230957,4333.333496,4290.000000,4281.025879,4336.922852,4408.589844,4315.641113,4316.025879,4507.307617,4540.384766,4365.769043,4459.358887,0.000000,1.000000,18.000000,,,,0.000000,2.000000,2.000000,0.000000,4.000000,2.000000,2.000000,0.000000,0.000000,4.000000,4.000000,4.000000,4.000000,4.000000,4.000000,0.000000,,,,,,,,,,,,,,,,,,,,,,,,,,,,
1732158910.570873,1732158910.574801,44.000000,0.000000,4330.384766,4298.589844,4319.487305,4332.948730,4289.230957,4282.179688,4335.000000,4407.692383,4308.974121,4305.897461,4507.692383,4536.153809,4368.205078,4459.230957,0.000000,1.000000,18.000000,,,,0.000000,2.000000,2.000000,0.000000,4.000000,2.000000,2.000000,0.000000,0.000000,4.000000,4.000000,4.000000,4.000000,4.000000,4.000000,0.000000,,,,,,,,,,,,,,,,,11.000000,0.000000,0.510152,0.478394,-0.539856,0.468445,0.979612,-0.043951,-0.040532,-34.775475,45.315369,31.547121
1732158910.578682,1732158910.582609,45.000000,0.000000,4326.538574,4295.897461,4322.307617,4328.717773,4300.512695,4280.128418,4335.897461,4400.769043,4299.358887,4300.128418,4503.846191,4527.692383,4357.692383,4449.358887,0.000000,1.000000,18.000000,,,,0.000000,2.000000,2.000000,0.000000,4.000000,2.000000,2.000000,0.000000,0.000000,4.000000,4.000000,4.000000,4.000000,4.000000,4.000000,0.000000,,,,,,,,,,,,,,,,,,,,,,,,,,,,
1732158910.586490,1732158910.590218,46.000000,0.000000,4317.051270,4294.102539,4322.948730,4325.128418,4310.384766,4281.538574,4337.179688,4398.974121,4305.769043,4305.000000,4498.589844,4525.256348,4346.666504,4442.692383,0.000000,1.000000,18.000000,,,,0.000000,2.000000,2.000000,0.000000,4.000000,2.000000,2.000000,0.000000,0.000000,4.000000,4.000000,4.000000,4.000000,4.000000,4.000000,0.000000,,,,,,,,,,,,,,,,,,,,,,,,,,,,
1732158910.594298,1732158910.598026,47.000000,0.000000,4317.948730,4294.615234,4321.922852,4325.769043,4293.077148,4284.871582,4336.410156,4405.000000,4316.025879,4310.384766,4501.153809,4523.717773,4353.717773,4445.512695,0.000000,1.000000,18.000000,,,,0.000000,2.000000,2.000000,0.000000,4.000000,2.000000,2.000000,0.000000,0.000000,4.000000,4.000000,4.000000,4.000000,4.000000,4.000000,0.000000,,,,,,,,,,,,,,,,,,,,,,,,,,,,
1732158910.602106,1732158910.605934,48.000000,0.000000,4322.179688,4296.025879,4320.384766,4325.641113,4273.333496,4282.692383,4336.666504,4406.794922,4308.846191,4305.384766,4507.692383,4522.692383,4364.230957,4446.922852,0.000000,1.000000,18.000000,,,,0.000000,2.000000,2.000000,0.000000,4.000000,2.000000,2.000000,0.000000,0.000000,4.000000,4.000000,4.000000,4.000000,4.000000,4.000000,0.000000,,,,,,,,,,,,,,,,,12.000000,0.000000,0.509914,0.478210,-0.539978,0.468750,0.982053,-0.037114,-0.044927,-34.604801,45.255447,31.551502
1732158910.609915,1732158910.613742,49.000000,0.000000,4318.717773,4295.897461,4320.641113,4323.717773,4280.641113,4280.000000,4336.794922,4402.692383,4294.487305,4294.871582,4504.102539,4524.615234,4353.461426,4442.051270,0.000000,1.000000,18.000000,,,,0.000000,2.000000,2.000000,0.000000,4.000000,2.000000,2.000000,0.000000,0.000000,4.000000,4.000000,4.000000,4.000000,4.000000,4.000000,0.000000,,,,,,,,,,,,,,,,,,,,,,,,,,,,
1732158910.617723,1732158910.621750,50.000000,0.000000,4317.563965,4294.871582,4323.205078,4323.461426,4293.589844,4283.974121,4336.410156,4400.384766,4296.153809,4291.538574,4495.641113,4527.307617,4341.153809,4440.641113,0.000000,1.000000,18.000000,,,,0.000000,2.000000,2.000000,0.000000,4.000000,2.000000,2.000000,0.000000,0.000000,4.000000,4.000000,4.000000,4.000000,4.000000,4.000000,0.000000,,,,,,,,,,,,,,,,,,,,,,,,,,,,
1732158910.625531,1732158910.629559,51.000000,0.000000,4320.128418,4295.128418,4323.846191,4322.820313,4289.487305,4286.794922,4337.051270,4403.461426,4303.974121,4298.077148,4493.589844,4526.025879,4348.846191,4444.871582,0.000000,1.000000,18.000000,,,,0.000000,2.000000,2.000000,0.000000,4.000000,2.000000,2.000000,0.000000,0.000000,4.000000,4.000000,4.000000,4.000000,4.000000,4.000000,0.000000,,,,,,,,,,,,,,,,,,,,,,,,,,,,
1732158910.633340,1732158910.637467,52.000000,0.000000,4319.871582,4295.769043,4321.666504,4323.846191,4285.897461,4289.102539,4336.410156,4405.641113,4302.307617,4294.487305,4493.333496,4520.769043,4354.102539,4443.461426,0.000000,1.000000,18.000000,,,,0.000000,2.000000,2.000000,0.000000,4.000000,2.000000,2.000000,0.000000,0.000000,4.000000,4.000000,4.000000,4.000000,4.000000,4.000000,0.000000,,,,,,,,,,,,,,,,,13.000000,0.000000,0.509210,0.476990,-0.541138,0.469421,0.997192,-0.041021,-0.027347,-34.638222,45.240246,31.538383
1732158910.641148,1732158910.645275,53.000000,0.000000,4319.487305,4296.538574,4319.743652,4326.794922,4306.153809,4295.641113,4334.743652,4403.717773,4294.102539,4281.153809,4488.461426,4514.871582,4341.025879,4432.820313,0.000000,1.000000,18.000000,,,,0.000000,2.000000,2.000000,0.000000,4.000000,2.000000,2.000000,0.000000,0.000000,4.000000,4.000000,4.000000,4.000000,4.000000,4.000000,0.000000,,,,,,,,,,,,,,,,,,,,,,,,,,,,
1732158910.648956,1732158910.652883,54.000000,0.000000,4317.820313,4296.538574,4322.948730,4322.436035,4313.205078,4297.179688,4334.358887,4403.974121,4294.230957,4284.230957,4486.025879,4517.820313,4338.717773,4430.512695,0.000000,1.000000,18.000000,,,,0.000000,2.000000,2.000000,0.000000,4.000000,2.000000,2.000000,0.000000,0.000000,4.000000,4.000000,4.000000,4.000000,4.000000,4.000000,0.000000,,,,,,,,,,,,,,,,,,,,,,,,,,,,
1732158910.656764,1732158910.660692,55.000000,0.000000,4313.717773,4296.410156,4324.743652,4316.538574,4284.358887,4292.307617,4335.897461,4407.563965,4304.871582,4296.282227,4493.974121,4526.153809,4359.487305,4440.256348,0.000000,1.000000,18.000000,,,,0.000000,2.000000,2.000000,0.000000,4.000000,2.000000,2.000000,0.000000,0.000000,4.000000,4.000000,4.000000,4.000000,4.000000,4.000000,0.000000,,,,,,,,,,,,,,,,,,,,,,,,,,,,
1732158910.664572,1732158910.668400,56.000000,0.000000,4311.794922,4295.641113,4321.666504,4318.974121,4271.282227,4295.128418,4336.025879,4407.179688,4313.333496,4290.000000,4495.897461,4525.769043,4362.179688,4438.333496,0.000000,1.000000,18.000000,,,,0.000000,2.000000,2.000000,0.000000,4.000000,2.000000,2.000000,0.000000,0.000000,4.000000,4.000000,4.000000,4.000000,4.000000,4.000000,0.000000,,,,,,,,,,,,,,,,,14.000000,0.000000,0.509020,0.475952,-0.542175,0.469482,0.976193,-0.037114,-0.038579,-34.798626,45.229599,31.484425
1732158910.672381,1732158910.676208,57.000000,0.000000,4310.769043,4293.461426,4319.615234,4319.102539,4287.563965,4298.333496,4335.000000,4402.307617,4310.000000,4282.563965,4488.974121,4521.794922,4349.743652,4427.820313,0.000000,1.000000,18.000000,,,,0.000000,2.000000,2.000000,0.000000,4.000000,2.000000,2.000000,0.000000,0.000000,4.000000,4.000000,4.000000,4.000000,4.000000,4.000000,0.000000,,,,,,,,,,,,,,,,,,,,,,,,,,,,
1732158910.680189,1732158910.683816,58.000000,0.000000,4311.538574,4295.384766,4323.717773,4318.589844,4289.487305,4292.051270,4335.897461,4403.589844,4303.974121,4292.436035,4487.436035,4522.948730,4352.179688,4429.358887,0.000000,1.000000,18.000000,,,,0.000000,2.000000,2.000000,0.000000,4.000000,2.000000,2.000000,0.000000,0.000000,4.000000,4.000000,4.000000,4.000000,4.000000,4.000000,0.000000,,,,,,,,,,,,,,,,,,,,,,,,,,,,
1732158910.687997,1732158910.691625,59.000000,0.000000,4311.794922,4297.436035,4325.769043,4321.794922,4285.256348,4290.000000,4337.179688,4406.282227,4305.256348,4296.153809,4487.563965,4521.794922,4354.230957,4432.948730,0.000000,1.000000,18.000000,,,,0.000000,2.000000,2.000000,0.000000,4.000000,2.000000,2.000000,0.000000,0.000000,4.000000,4.000000,4.000000,4.000000,4.000000,4.000000,0.000000,,,,,,,,,,,,,,,,,,,,,,,,,,,,
1732158910.695805,1732158910.699333,60.000000,0.000000,4310.512695,4295.000000,4321.538574,4319.102539,4294.615234,4294.615234,4335.256348,4401.410156,4310.512695,4293.205078,4487.436035,4522.820313,4352.563965,4429.871582,0.000000,1.000000,18.000000,,,,0.000000,2.000000,2.000000,0.000000,4.000000,2.000000,2.000000,0.000000,0.000000,4.000000,4.000000,4.000000,4.000000,4.000000,4.000000,0.000000,,,,,,,,,,,,,,,,,15.000000,0.000000,0.509020,0.475952,-0.542175,0.469482,0.986937,-0.041509,-0.044439,-34.883553,45.370975,31.335716
1732158910.703614,1732158910.707141,61.000000,0.000000,4311.282227,4296.025879,4317.051270,4319.358887,4293.077148,4295.897461,4333.846191,4398.846191,4312.051270,4298.974121,4490.769043,4529.230957,4358.333496,4429.615234,0.000000,1.000000,18.000000,,,,0.000000,2.000000,2.000000,0.000000,4.000000,2.000000,2.000000,0.000000,0.000000,4.000000,4.000000,4.000000,4.000000,4.000000,4.000000,0.000000,,,,,,,,,,,,,,,,,,,,,,,,,,,,
1732158910.711422,1732158910.714750,62.000000,0.000000,4305.512695,4296.794922,4319.230957,4321.410156,4297.563965,4294.102539,4337.820313,4406.153809,4308.205078,4299.487305,4489.615234,4525.641113,4355.897461,4430.000000,0.000000,1.000000,18.000000,,,,0.000000,2.000000,2.000000,0.000000,4.000000,2.000000,2.000000,0.000000,0.000000,4.000000,4.000000,4.000000,4.000000,4.000000,4.000000,0.000000,,,,,,,,,,,,,,,,,,,,,,,,,,,,
1732158910.719230,1732158910.722558,63.000000,0.000000,4296.538574,4292.436035,4322.051270,4316.410156,4312.436035,4294.871582,4339.358887,4408.077148,4308.077148,4294.615234,4482.436035,4517.179688,4343.717773,4426.153809,0.000000,1.000000,18.000000,,,,0.000000,2.000000,2.000000,0.000000,4.000000,2.000000,2.000000,0.000000,0.000000,4.000000,4.000000,4.000000,4.000000,4.000000,4.000000,0.000000,,,,,,,,,,,,,,,,,,,,,,,,,,,,
1732158910.727039,1732158910.730266,64.000000,0.000000,4301.538574,4293.461426,4320.512695,4315.128418,4297.051270,4295.256348,4335.256348,4403.589844,4313.333496,4297.563965,4485.769043,4523.461426,4345.512695,4427.179688,0.000000,1.000000,18.000000,,,,0.000000,2.000000,2.000000,0.000000,4.000000,2.000000,2.000000,0.000000,0.000000,4.000000,4.000000,4.000000,4.000000,4.000000,4.000000,0.000000,,,,,,,,,,,,,,,,,16.000000,0.000000,0.508017,0.475159,-0.543335,0.470032,0.975217,-0.038579,-0.036137,-34.904011,45.442158,31.430264
1732158910.734847,1732158910.738074,65.000000,0.000000,4311.153809,4296.538574,4320.641113,4320.128418,4272.820313,4292.948730,4334.102539,4403.974121,4307.307617,4304.615234,4491.794922,4531.025879,4353.333496,4433.077148,1616.000000,1.000000,18.000000,,,,0.000000,2.000000,2.000000,0.000000,4.000000,2.000000,2.000000,0.000000,0.000000,4.000000,4.000000,4.000000,4.000000,4.000000,4.000000,0.000000,,,,,,,,,,,,,,,,,,,,,,,,,,,,
1732158910.742655,1732158910.745683,66.000000,0.000000,4311.025879,4296.538574,4322.692383,4321.410156,4277.051270,4287.051270,4334.615234,4403.974121,4297.436035,4304.230957,4490.000000,4524.487305,4351.538574,4432.820313,1352.000000,1.000000,18.000000,,,,0.000000,2.000000,2.000000,0.000000,4.000000,2.000000,2.000000,0.000000,0.000000,4.000000,4.000000,4.000000,4.000000,4.000000,4.000000,0.000000,,,,,,,,,,,,,,,,,,,,,,,,,,,,
1732158910.750463,1732158910.753491,67.000000,0.000000,4310.384766,4300.384766,4321.282227,4320.384766,4295.641113,4282.820313,4333.974121,4401.282227,4298.974121,4295.897461,4489.615234,4520.256348,4347.051270,4429.615234,1431.000000,1.000000,18.000000,,,,0.000000,2.000000,2.000000,0.000000,4.000000,2.000000,2.000000,0.000000,0.000000,4.000000,4.000000,4.000000,4.000000,4.000000,4.000000,0.000000,,,,,,,,,,,,,,,,,,,,,,,,,,,,
1732158910.758272,1732158910.761199,68.000000,0.000000,4310.769043,4293.333496,4319.615234,4317.307617,4303.589844,4289.230957,4334.871582,4399.871582,4306.538574,4296.282227,4485.769043,4521.922852,4340.897461,4427.948730,1437.000000,1.000000,18.000000,,,,0.000000,2.000000,2.000000,0.000000,4.000000,2.000000,2.000000,0.000000,0.000000,4.000000,4.000000,4.000000,4.000000,4.000000,4.000000,0.000000,,,,,,,,,,,,,,,,,17.000000,0.000000,0.508077,0.474548,-0.544128,0.469666,0.983518,-0.027835,-0.049811,-34.970585,45.416481,31.640181
1732158910.766080,1732158910.769007,69.000000,0.000000,4310.256348,4282.563965,4321.282227,4315.000000,4293.077148,4292.436035,4336.282227,4402.820313,4311.153809,4311.666504,4482.307617,4522.051270,4342.563965,4428.974121,1205.000000,1.000000,18.000000,,,,0.000000,2.000000,2.000000,0.000000,4.000000,2.000000,2.000000,0.000000,0.000000,4.000000,4.000000,4.000000,4.000000,4.000000,4.000000,0.000000,,,,,,,,,,,,,,,,,,,,,,,,,,,,
1732158910.773888,1732158910.777015,70.000000,0.000000,4312.179688,4288.333496,4320.384766,4320.769043,4279.102539,4287.563965,4335.000000,4404.871582,4310.641113,4316.922852,4488.461426,4521.794922,4352.307617,4430.512695,0.000000,1.000000,18.000000,,,,0.000000,2.000000,2.000000,0.000000,4.000000,2.000000,2.000000,0.000000,0.000000,4.000000,4.000000,4.000000,4.000000,4.000000,4.000000,0.000000,,,,,,,,,,,,,,,,,,,,,,,,,,,,
1732158910.781696,1732158910.784824,71.000000,0.000000,4311.025879,4291.666504,4320.000000,4323.589844,4283.974121,4289.358887,4334.615234,4401.282227,4301.666504,4300.512695,4492.051270,4522.179688,4351.025879,4430.000000,0.000000,1.000000,18.000000,,,,0.000000,2.000000,2.000000,0.000000,4.000000,2.000000,2.000000,0.000000,0.000000,4.000000,4.000000,4.000000,4.000000,4.000000,4.000000,0.000000,,,,,,,,,,,,,,,,,,,,,,,,,,,,
1732158910.789504,1732158910.792532,72.000000,0.000000,4308.333496,4284.102539,4321.025879,4318.461426,4295.256348,4296.025879,4335.256348,4399.102539,4296.410156,4293.461426,4486.153809,4523.333496,4340.769043,4430.256348,1521.000000,1.000000,18.000000,,,,0.000000,2.000000,2.000000,0.000000,4.000000,2.000000,2.000000,0.000000,0.000000,4.000000,4.000000,4.000000,4.000000,4.000000,4.000000,0.000000,,,,,,,,,,,,,,,,,18.000000,0.000000,0.507956,0.474487,-0.544189,0.469788,0.979123,-0.029300,-0.046881,-34.956173,45.389015,31.645212
1732158910.797313,1732158910.800340,73.000000,0.000000,4309.871582,4283.589844,4322.051270,4317.179688,4294.487305,4296.025879,4335.000000,4403.974121,4305.897461,4307.051270,4485.000000,4524.743652,4338.461426,4431.410156,1678.000000,1.000000,18.000000,,,,0.000000,2.000000,2.000000,0.000000,4.000000,2.000000,2.000000,0.000000,0.000000,4.000000,4.000000,4.000000,4.000000,4.000000,4.000000,0.000000,,,,,,,,,,,,,,,,,,,,,,,,,,,,
1732158910.805121,1732158910.807949,74.000000,0.000000,4310.384766,4279.743652,4321.153809,4321.794922,4293.974121,4293.077148,4334.743652,4405.897461,4311.794922,4315.000000,4491.794922,4526.025879,4345.769043,4431.794922,1546.000000,1.000000,18.000000,,,,0.000000,2.000000,2.000000,0.000000,4.000000,2.000000,2.000000,0.000000,0.000000,4.000000,4.000000,4.000000,4.000000,4.000000,4.000000,0.000000,,,,,,,,,,,,,,,,,,,,,,,,,,,,
1732158910.812929,1732158910.815757,75.000000,0.000000,4310.000000,4268.205078,4320.256348,4322.051270,4293.589844,4294.743652,4334.615234,4403.717773,4308.333496,4311.538574,4495.384766,4532.179688,4347.563965,4431.794922,1539.000000,1.000000,18.000000,,,,0.000000,2.000000,2.000000,0.000000,4.000000,2.000000,2.000000,0.000000,0.000000,4.000000,4.000000,4.000000,4.000000,4.000000,4.000000,0.000000,,,,,,,,,,,,,,,,,,,,,,,,,,,,
1732158910.820737,1732158910.823465,76.000000,0.000000,4307.436035,4270.000000,4319.743652,4315.897461,4303.461426,4295.384766,4335.641113,4407.179688,4309.358887,4312.307617,4495.256348,4535.769043,4345.641113,4431.282227,1685.000000,1.000000,18.000000,,,,0.000000,2.000000,2.000000,0.000000,4.000000,2.000000,2.000000,0.000000,0.000000,4.000000,4.000000,4.000000,4.000000,4.000000,4.000000,0.000000,,,,,,,,,,,,,,,,,19.000000,0.000000,0.507788,0.474365,-0.544189,0.470093,0.979123,-0.029300,-0.046881,-35.059498,45.093437,31.522623
1732158910.828546,1732158910.831273,77.000000,0.000000,4304.358887,4275.384766,4318.717773,4315.384766,4318.846191,4294.615234,4334.743652,4407.179688,4311.666504,4314.615234,4493.589844,4531.666504,4347.051270,4430.769043,1544.000000,1.000000,18.000000,,,,0.000000,2.000000,2.000000,0.000000,4.000000,2.000000,2.000000,0.000000,0.000000,4.000000,4.000000,4.000000,4.000000,4.000000,4.000000,0.000000,,,,,,,,,,,,,,,,,,,,,,,,,,,,
1732158910.836354,1732158910.838882,78.000000,0.000000,4307.051270,4276.025879,4319.102539,4323.205078,4305.769043,4299.358887,4333.717773,4400.641113,4308.461426,4310.384766,4492.692383,4528.333496,4346.410156,4431.025879,1546.000000,1.000000,18.000000,,,,0.000000,2.000000,2.000000,0.000000,4.000000,2.000000,2.000000,0.000000,0.000000,4.000000,4.000000,4.000000,4.000000,4.000000,4.000000,0.000000,1.000000,0.000000,2.000000,2.000000,0.000000,4.000000,2.000000,2.000000,0.000000,0.000000,4.000000,4.000000,4.000000,4.000000,4.000000,4.000000,,,,,,,,,,,,
1732158910.844162,1732158910.846690,79.000000,0.000000,4309.871582,4277.307617,4321.794922,4326.025879,4287.051270,4304.358887,4338.461426,4403.333496,4307.563965,4308.846191,4491.666504,4528.077148,4343.974121,4430.641113,1539.000000,1.000000,18.000000,,,,0.000000,2.000000,2.000000,0.000000,4.000000,2.000000,2.000000,0.000000,0.000000,4.000000,4.000000,4.000000,4.000000,4.000000,4.000000,0.000000,,,,,,,,,,,,,,,,,,,,,,,,,,,,
1732158910.851971,1732158910.854598,80.000000,0.000000,4307.307617,4270.000000,4320.769043,4321.794922,4294.102539,4301.025879,4339.743652,4407.436035,4311.922852,4312.051270,4492.179688,4522.563965,4343.717773,4430.000000,1685.000000,1.000000,18.000000,,,,0.000000,2.000000,2.000000,0.000000,4.000000,2.000000,2.000000,0.000000,0.000000,4.000000,4.000000,4.000000,4.000000,4.000000,4.000000,0.000000,,,,,,,,,,,,,,,,,20.000000,0.000000,0.506931,0.474121,-0.544250,0.471191,0.983518,-0.026859,-0.042486,-35.289860,44.969017,31.391657
1732158910.859779,1732158910.862406,81.000000,0.000000,4304.743652,4265.512695,4317.820313,4322.692383,4299.871582,4293.846191,4334.358887,4405.000000,4313.846191,4312.820313,4492.948730,4522.948730,4339.358887,4429.102539,1544.000000,1.000000,18.000000,,,,0.000000,2.000000,2.000000,0.000000,4.000000,2.000000,2.000000,0.000000,0.000000,4.000000,4.000000,4.000000,4.000000,4.000000,4.000000,0.000000,,,,,,,,,,,,,,,,,,,,,,,,,,,,
1732158910.867587,1732158910.870414,82.000000,0.000000,4305.384766,4272.436035,4319.871582,4326.666504,4293.205078,4293.974121,4333.974121,4405.128418,4312.563965,4313.974121,4491.025879,4528.333496,4332.820313,4427.179688,1546.000000,1.000000,18.000000,,,,0.000000,2.000000,2.000000,0.000000,4.000000,2.000000,2.000000,0.000000,0.000000,4.000000,4.000000,4.000000,4.000000,4.000000,4.000000,0.000000,,,,,,,,,,,,,,,,,,,,,,,,,,,,
1732158910.875395,1732158910.878223,83.000000,0.000000,4307.563965,4274.615234,4321.282227,4324.871582,4298.461426,4297.179688,4337.820313,4407.179688,4309.871582,4310.641113,4489.871582,4527.563965,4335.256348,4427.563965,1539.000000,1.000000,18.000000,,,,0.000000,2.000000,2.000000,0.000000,4.000000,2.000000,2.000000,0.000000,0.000000,4.000000,4.000000,4.000000,4.000000,4.000000,4.000000,0.000000,,,,,,,,,,,,,,,,,,,,,,,,,,,,
1732158910.883204,1732158910.886131,84.000000,0.000000,4311.153809,4266.282227,4320.128418,4321.282227,4301.025879,4296.922852,4336.794922,4405.641113,4310.384766,4301.153809,4490.769043,4529.871582,4335.128418,4428.717773,1685.000000,1.000000,18.000000,,,,0.000000,2.000000,2.000000,0.000000,4.000000,2.000000,2.000000,0.000000,0.000000,4.000000,4.000000,4.000000,4.000000,4.000000,4.000000,0.000000,,,,,,,,,,,,,,,,,21.000000,0.000000,0.506397,0.474243,-0.544006,0.471924,0.969845,-0.036626,-0.041509,-35.343121,44.918236,31.423910
1732158910.891012,1732158910.893939,85.000000,0.000000,4308.846191,4263.461426,4320.512695,4322.948730,4295.641113,4295.512695,4335.000000,4404.358887,4313.333496,4298.461426,4490.000000,4528.717773,4327.563965,4427.563965,1544.000000,1.000000,18.000000,,,,0.000000,2.000000,2.000000,0.000000,4.000000,2.000000,2.000000,0.000000,0.000000,4.000000,4.000000,4.000000,4.000000,4.000000,4.000000,0.000000,,,,,,,,,,,,,,,,,,,,,,,,,,,,
1732158910.898820,1732158910.901547,86.000000,0.000000,4302.692383,4264.743652,4320.641113,4323.717773,4310.897461,4294.615234,4336.025879,4407.436035,4304.871582,4298.974121,4486.538574,4521.666504,4324.230957,4426.282227,1546.000000,1.000000,18.000000,,,,0.000000,2.000000,2.000000,0.000000,4.000000,2.000000,2.000000,0.000000,0.000000,4.000000,4.000000,4.000000,4.000000,4.000000,4.000000,0.000000,,,,,,,,,,,,,,,,,,,,,,,,,,,,
1732158910.906628,1732158910.909355,87.000000,0.000000,4307.563965,4265.384766,4319.358887,4322.692383,4316.538574,4295.641113,4335.769043,4407.179688,4295.256348,4294.871582,4484.615234,4520.128418,4324.871582,4428.077148,1539.000000,1.000000,18.000000,,,,0.000000,2.000000,2.000000,0.000000,4.000000,2.000000,2.000000,0.000000,0.000000,4.000000,4.000000,4.000000,4.000000,4.000000,4.000000,0.000000,,,,,,,,,,,,,,,,,,,,,,,,,,,,
1732158910.914436,1732158910.917064,88.000000,0.000000,4311.153809,4265.641113,4321.794922,4322.948730,4291.538574,4298.333496,4335.641113,4401.666504,4298.846191,4294.487305,4487.051270,4523.333496,4324.102539,4430.000000,1685.000000,1.000000,18.000000,,,,0.000000,2.000000,2.000000,0.000000,4.000000,2.000000,2.000000,0.000000,0.000000,4.000000,4.000000,4.000000,4.000000,4.000000,4.000000,0.000000,,,,,,,,,,,,,,,,,22.000000,0.000000,0.506293,0.474182,-0.543945,0.472168,0.981077,-0.046392,-0.036137,-35.404594,44.703773,31.256701
1732158910.922245,1732158910.924872,89.000000,0.000000,4300.769043,4263.205078,4321.794922,4321.282227,4288.589844,4296.410156,4335.256348,4398.974121,4302.307617,4296.666504,4490.512695,4523.333496,4324.615234,4429.230957,1544.000000,1.000000,18.000000,,,,0.000000,2.000000,2.000000,0.000000,4.000000,2.000000,2.000000,0.000000,0.000000,4.000000,4.000000,4.000000,4.000000,4.000000,4.000000,0.000000,,,,,,,,,,,,,,,,,,,,,,,,,,,,
1732158910.930053,1732158910.932880,90.000000,0.000000,4294.871582,4262.563965,4318.461426,4320.000000,4307.692383,4295.128418,4335.128418,4405.000000,4302.820313,4296.538574,4491.025879,4521.794922,4325.897461,4428.205078,1546.000000,1.000000,18.000000,,,,0.000000,2.000000,2.000000,0.000000,4.000000,2.000000,2.000000,0.000000,0.000000,4.000000,4.000000,4.000000,4.000000,4.000000,4.000000,0.000000,,,,,,,,,,,,,,,,,,,,,,,,,,,,
1732158910.937861,1732158910.940688,91.000000,0.000000,4302.692383,4265.512695,4318.333496,4322.436035,4300.128418,4301.666504,4336.025879,4411.153809,4309.743652,4300.641113,4490.256348,4524.358887,4324.358887,4428.461426,1539.000000,1.000000,18.000000,,,,0.000000,2.000000,2.000000,0.000000,4.000000,2.000000,2.000000,0.000000,0.000000,4.000000,4.000000,4.000000,4.000000,4.000000,4.000000,0.000000,,,,,,,,,,,,,,,,,,,,,,,,,,,,
1732158910.945670,1732158910.948596,92.000000,0.000000,4304.615234,4265.641113,4321.666504,4320.641113,4284.615234,4301.025879,4335.897461,4409.743652,4313.205078,4305.641113,4491.666504,4526.538574,4325.641113,4431.025879,1685.000000,1.000000,18.000000,,,,0.000000,2.000000,2.000000,0.000000,4.000000,2.000000,2.000000,0.000000,0.000000,4.000000,4.000000,4.000000,4.000000,4.000000,4.000000,0.000000,,,,,,,,,,,,,,,,,23.000000,0.000000,0.506284,0.474121,-0.544006,0.472168,0.984495,-0.033207,-0.034184,-35.422722,44.855057,31.429594
1732158910.953478,1732158910.956404,93.000000,0.000000,4297.563965,4262.692383,4321.794922,4313.717773,4289.487305,4291.794922,4335.000000,4404.871582,4309.230957,4306.410156,4492.051270,4521.282227,4327.179688,4427.820313,1544.000000,1.000000,18.000000,,,,0.000000,2.000000,2.000000,0.000000,4.000000,2.000000,2.000000,0.000000,0.000000,4.000000,4.000000,4.000000,4.000000,4.000000,4.000000,0.000000,,,,,,,,,,,,,,,,,,,,,,,,,,,,
1732158910.961286,1732158910.964412,94.000000,0.000000,4295.384766,4263.333496,4318.846191,4316.153809,4293.717773,4293.461426,4334.615234,4402.051270,4309.487305,4302.436035,4490.000000,4510.897461,4325.128418,4422.563965,1546.000000,1.000000,18.000000,,,,0.000000,2.000000,2.000000,0.000000,4.000000,2.000000,2.000000,0.000000,0.000000,4.000000,4.000000,4.000000,4.000000,4.000000,4.000000,0.000000,,,,,,,,,,,,,,,,,,,,,,,,,,,,
1732158910.969094,1732158910.972221,95.000000,0.000000,4297.436035,4265.000000,4317.051270,4321.794922,4293.333496,4299.358887,4334.230957,4402.820313,4311.538574,4296.666504,4490.000000,4507.436035,4325.000000,4423.333496,1539.000000,1.000000,18.000000,,,,0.000000,2.000000,2.000000,0.000000,4.000000,2.000000,2.000000,0.000000,0.000000,4.000000,4.000000,4.000000,4.000000,4.000000,4.000000,0.000000,,,,,,,,,,,,,,,,,,,,,,,,,,,,
1732158910.976903,1732158910.980129,96.000000,0.000000,4297.051270,4263.205078,4319.102539,4317.692383,4295.641113,4295.256348,4335.384766,4405.384766,4309.358887,4304.871582,4491.025879,4513.717773,4323.717773,4424.615234,1685.000000,1.000000,18.000000,,,,0.000000,2.000000,2.000000,0.000000,4.000000,2.000000,2.000000,0.000000,0.000000,4.000000,4.000000,4.000000,4.000000,4.000000,4.000000,0.000000,,,,,,,,,,,,,,,,,24.000000,0.000000,0.506364,0.473877,-0.544250,0.472046,0.969845,-0.030277,-0.053229,-35.530739,44.820927,31.612970
1732158910.984711,1732158910.987937,97.000000,0.000000,4295.641113,4262.051270,4320.769043,4313.461426,4297.948730,4293.974121,4335.512695,4406.282227,4310.641113,4312.820313,4489.743652,4520.256348,4319.871582,4420.512695,1544.000000,1.000000,18.000000,,,,0.000000,2.000000,2.000000,0.000000,4.000000,2.000000,2.000000,0.000000,0.000000,4.000000,4.000000,4.000000,4.000000,4.000000,4.000000,0.000000,,,,,,,,,,,,,,,,,,,,,,,,,,,,
1732158910.992519,1732158910.995945,98.000000,0.000000,4298.461426,4263.077148,4318.589844,4315.512695,4302.563965,4297.820313,4333.461426,4406.025879,4315.256348,4302.307617,4489.743652,4522.307617,4319.871582,4419.102539,1546.000000,1.000000,18.000000,,,,0.000000,2.000000,2.000000,0.000000,4.000000,2.000000,2.000000,0.000000,0.000000,4.000000,4.000000,4.000000,4.000000,4.000000,4.000000,0.000000,,,,,,,,,,,,,,,,,,,,,,,,,,,,
1732158911.000327,1732158911.003753,99.000000,0.000000,4303.846191,4263.589844,4318.205078,4316.538574,4296.794922,4296.025879,4336.538574,4405.384766,4318.077148,4302.692383,4492.820313,4522.948730,4321.666504,4423.461426,1539.000000,1.000000,18.000000,,,,0.000000,2.000000,2.000000,0.000000,4.000000,2.000000,2.000000,0.000000,0.000000,4.000000,4.000000,4.000000,4.000000,4.000000,4.000000,0.000000,,,,,,,,,,,,,,,,,,,,,,,,,,,,
1732158911.008136,1732158911.011661,100.000000,0.000000,4303.077148,4263.717773,4320.256348,4316.025879,4297.179688,4294.102539,4342.692383,4401.794922,4311.538574,4311.538574,4492.307617,4524.358887,4318.589844,4423.846191,1685.000000,1.000000,18.000000,,,,0.000000,2.000000,2.000000,0.000000,4.000000,2.000000,2.000000,0.000000,0.000000,4.000000,4.000000,4.000000,4.000000,4.000000,4.000000,0.000000,,,,,,,,,,,,,,,,,25.000000,0.000000,0.506364,0.473877,-0.544250,0.472046,0.972775,-0.039067,-0.049811,-35.543232,44.793285,31.611506
1732158911.015944,1732158911.019470,101.000000,0.000000,4298.205078,4263.717773,4321.025879,4317.692383,4315.384766,4294.615234,4339.615234,4400.256348,4303.077148,4301.666504,4488.717773,4521.538574,4317.307617,4418.077148,1544.000000,1.000000,18.000000,,,,0.000000,2.000000,2.000000,0.000000,4.000000,2.000000,2.000000,0.000000,0.000000,4.000000,4.000000,4.000000,4.000000,4.000000,4.000000,0.000000,,,,,,,,,,,,,,,,,,,,,,,,,,,,
1732158911.023752,1732158911.027478,102.000000,0.000000,4297.307617,4262.307617,4317.051270,4315.897461,4306.922852,4296.282227,4334.358887,4404.230957,4310.641113,4295.641113,4488.974121,4515.128418,4321.410156,4416.282227,1546.000000,1.000000,18.000000,,,,0.000000,2.000000,2.000000,0.000000,4.000000,2.000000,2.000000,0.000000,0.000000,4.000000,4.000000,4.000000,4.000000,4.000000,4.000000,0.000000,,,,,,,,,,,,,,,,,,,,,,,,,,,,
1732158911.031560,1732158911.035286,103.000000,0.000000,4298.974121,4263.974121,4317.179688,4311.794922,4279.358887,4297.820313,4336.410156,4407.051270,4319.487305,4305.128418,4491.666504,4516.410156,4323.974121,4421.153809,1539.000000,1.000000,18.000000,,,,0.000000,2.000000,2.000000,0.000000,4.000000,2.000000,2.000000,0.000000,0.000000,4.000000,4.000000,4.000000,4.000000,4.000000,4.000000,0.000000,,,,,,,,,,,,,,,,,,,,,,,,,,,,
1732158911.039369,1732158911.042994,104.000000,0.000000,4297.436035,4266.666504,4319.358887,4313.589844,4280.641113,4296.025879,4336.666504,4404.358887,4314.743652,4308.974121,4494.102539,4521.666504,4325.641113,4424.230957,1685.000000,1.000000,18.000000,,,,0.000000,2.000000,2.000000,0.000000,4.000000,2.000000,2.000000,0.000000,0.000000,4.000000,4.000000,4.000000,4.000000,4.000000,4.000000,0.000000,,,,,,,,,,,,,,,,,26.000000,0.000000,0.506632,0.473694,-0.544373,0.471802,0.980588,-0.035649,-0.040044,-35.756683,44.895893,31.621986
1732158911.047177,1732158911.050802,105.000000,0.000000,4295.128418,4263.205078,4318.077148,4313.461426,4293.461426,4294.102539,4334.358887,4404.230957,4308.974121,4307.692383,4494.358887,4522.307617,4325.128418,4419.358887,1544.000000,1.000000,18.000000,,,,0.000000,2.000000,2.000000,0.000000,4.000000,2.000000,2.000000,0.000000,0.000000,4.000000,4.000000,4.000000,4.000000,4.000000,4.000000,0.000000,,,,,,,,,,,,,,,,,,,,,,,,,,,,
1732158911.054985,1732158911.058411,106.000000,0.000000,4295.769043,4259.102539,4315.512695,4309.615234,4291.282227,4296.153809,4336.282227,4408.589844,4313.461426,4308.333496,4491.153809,4518.077148,4319.871582,4415.256348,1546.000000,1.000000,18.000000,,,,0.000000,2.000000,2.000000,0.000000,4.000000,2.000000,2.000000,0.000000,0.000000,4.000000,4.000000,4.000000,4.000000,4.000000,4.000000,0.000000,,,,,,,,,,,,,,,,,,,,,,,,,,,,
1732158911.062793,1732158911.066219,107.000000,0.000000,4294.743652,4258.461426,4318.846191,4309.358887,4291.153809,4298.205078,4336.538574,4409.615234,4314.358887,4301.794922,4487.692383,4514.230957,4314.487305,4414.358887,1539.000000,1.000000,18.000000,,,,0.000000,2.000000,2.000000,0.000000,4.000000,2.000000,2.000000,0.000000,0.000000,4.000000,4.000000,4.000000,4.000000,4.000000,4.000000,0.000000,,,,,,,,,,,,,,,,,,,,,,,,,,,,
1732158911.070602,1732158911.074127,108.000000,0.000000,4292.692383,4259.487305,4321.025879,4311.153809,4300.000000,4297.563965,4334.871582,4404.743652,4310.641113,4297.307617,4487.179688,4511.538574,4316.282227,4413.589844,1685.000000,1.000000,18.000000,,,,0.000000,2.000000,2.000000,0.000000,4.000000,2.000000,2.000000,0.000000,0.000000,4.000000,4.000000,4.000000,4.000000,4.000000,4.000000,0.000000,,,,,,,,,,,,,,,,,27.000000,0.000000,0.506131,0.474060,-0.543884,0.472534,0.991820,-0.036626,-0.057624,-35.624580,44.652340,31.558809
1732158911.078410,1732158911.081935,109.000000,0.000000,4293.205078,4261.794922,4318.205078,4311.282227,4298.333496,4297.051270,4337.307617,4403.205078,4315.769043,4298.077148,4488.461426,4514.871582,4321.025879,4414.230957,1544.000000,1.000000,18.000000,,,,0.000000,2.000000,2.000000,0.000000,4.000000,2.000000,2.000000,0.000000,0.000000,4.000000,4.000000,4.000000,4.000000,4.000000,4.000000,0.000000,,,,,,,,,,,,,,,,,,,,,,,,,,,,
1732158911.086218,1732158911.089544,110.000000,0.000000,4292.948730,4263.333496,4317.692383,4310.897461,4292.051270,4297.307617,4338.205078,4405.769043,4318.461426,4299.102539,4487.948730,4518.205078,4316.794922,4415.769043,1546.000000,1.000000,18.000000,,,,0.000000,2.000000,2.000000,0.000000,4.000000,2.000000,2.000000,0.000000,0.000000,4.000000,4.000000,4.000000,4.000000,4.000000,4.000000,0.000000,,,,,,,,,,,,,,,,,,,,,,,,,,,,
1732158911.094026,1732158911.097352,111.000000,0.000000,4292.307617,4260.256348,4319.102539,4311.025879,4304.487305,4294.358887,4334.487305,4405.512695,4312.307617,4297.436035,4487.692383,4515.384766,4310.512695,4415.128418,1539.000000,1.000000,18.000000,,,,0.000000,2.000000,2.000000,0.000000,4.000000,2.000000,2.000000,0.000000,0.000000,4.000000,4.000000,4.000000,4.000000,4.000000,4.000000,0.000000,,,,,,,,,,,,,,,,,,,,,,,,,,,,
1732158911.101835,1732158911.105060,112.000000,0.000000,4294.487305,4258.461426,4319.230957,4309.358887,4314.615234,4291.410156,4334.102539,4403.717773,4306.410156,4287.179688,4489.358887,4515.256348,4314.230957,4416.410156,1685.000000,1.000000,18.000000,,,,0.000000,2.000000,2.000000,0.000000,4.000000,2.000000,2.000000,0.000000,0.000000,4.000000,4.000000,4.000000,4.000000,4.000000,4.000000,0.000000,,,,,,,,,,,,,,,,,28.000000,0.000000,0.505577,0.474060,-0.543762,0.473267,0.979612,-0.035649,-0.037602,-35.627579,44.508396,31.542635
1732158911.109643,1732158911.112868,113.000000,0.000000,4296.666504,4262.051270,4319.358887,4310.897461,4292.436035,4294.358887,4336.410156,4406.282227,4310.384766,4285.641113,4491.922852,4522.436035,4323.974121,4417.820313,1544.000000,1.000000,18.000000,,,,0.000000,2.000000,2.000000,0.000000,4.000000,2.000000,2.000000,0.000000,0.000000,4.000000,4.000000,4.000000,4.000000,4.000000,4.000000,0.000000,,,,,,,,,,,,,,,,,,,,,,,,,,,,
1732158911.117451,1732158911.120477,114.000000,0.000000,4295.384766,4263.974121,4319.230957,4312.436035,4274.615234,4298.461426,4336.538574,4406.153809,4319.743652,4299.230957,4494.358887,4530.000000,4327.179688,4417.436035,1546.000000,1.000000,18.000000,,,,0.000000,2.000000,2.000000,0.000000,4.000000,2.000000,2.000000,0.000000,0.000000,4.000000,4.000000,4.000000,4.000000,4.000000,4.000000,0.000000,,,,,,,,,,,,,,,,,,,,,,,,,,,,
1732158911.125260,1732158911.128285,115.000000,0.000000,4293.077148,4260.897461,4317.436035,4310.384766,4289.871582,4295.128418,4336.025879,4402.051270,4318.333496,4303.333496,4494.871582,4527.563965,4327.179688,4414.743652,1539.000000,1.000000,18.000000,,,,0.000000,2.000000,2.000000,0.000000,4.000000,2.000000,2.000000,0.000000,0.000000,4.000000,4.000000,4.000000,4.000000,4.000000,4.000000,0.000000,,,,,,,,,,,,,,,,,,,,,,,,,,,,
1732158911.133068,1732158911.135993,116.000000,0.000000,4293.077148,4257.436035,4316.922852,4308.333496,4297.179688,4291.153809,4336.282227,4403.077148,4310.384766,4295.000000,4492.179688,4522.179688,4326.538574,4412.948730,1685.000000,1.000000,18.000000,,,,0.000000,2.000000,2.000000,0.000000,4.000000,2.000000,2.000000,0.000000,0.000000,4.000000,4.000000,4.000000,4.000000,4.000000,4.000000,0.000000,,,,,,,,,,,,,,,,,29.000000,0.000000,0.505243,0.474121,-0.543701,0.473633,0.979612,-0.035649,-0.037602,-35.603336,44.538467,31.344534
1732158911.140876,1732158911.143801,117.000000,0.000000,4296.025879,4258.974121,4317.307617,4311.282227,4284.743652,4294.487305,4336.794922,4405.641113,4310.512695,4293.974121,4487.563965,4520.897461,4321.025879,4414.102539,1544.000000,1.000000,18.000000,,,,0.000000,2.000000,2.000000,0.000000,4.000000,2.000000,2.000000,0.000000,0.000000,4.000000,4.000000,4.000000,4.000000,4.000000,4.000000,0.000000,,,,,,,,,,,,,,,,,,,,,,,,,,,,
1732158911.148684,1732158911.151410,118.000000,0.000000,4297.820313,4262.051270,4318.333496,4313.077148,4296.538574,4293.589844,4336.282227,4404.230957,4311.025879,4296.410156,4487.307617,4522.820313,4318.974121,4415.000000,1546.000000,1.000000,18.000000,,,,0.000000,2.000000,2.000000,0.000000,4.000000,2.000000,2.000000,0.000000,0.000000,4.000000,4.000000,4.000000,4.000000,4.000000,4.000000,0.000000,,,,,,,,,,,,,,,,,,,,,,,,,,,,
1732158911.156492,1732158911.159218,119.000000,0.000000,4295.384766,4260.384766,4317.563965,4308.717773,4313.846191,4289.871582,4335.769043,4402.948730,4306.410156,4293.717773,4490.512695,4523.205078,4322.563965,4413.846191,1539.000000,1.000000,18.000000,,,,0.000000,2.000000,2.000000,0.000000,4.000000,2.000000,2.000000,0.000000,0.000000,4.000000,4.000000,4.000000,4.000000,4.000000,4.000000,0.000000,,,,,,,,,,,,,,,,,,,,,,,,,,,,
1732158911.164301,1732158911.166926,120.000000,0.000000,4295.256348,4260.000000,4316.794922,4309.615234,4295.128418,4292.820313,4335.641113,4403.974121,4308.333496,4294.615234,4490.641113,4521.153809,4322.820313,4413.205078,1685.000000,1.000000,18.000000,,,,0.000000,2.000000,2.000000,0.000000,4.000000,2.000000,2.000000,0.000000,0.000000,4.000000,4.000000,4.000000,4.000000,4.000000,4.000000,0.000000,,,,,,,,,,,,,,,,,30.000000,0.000000,0.505137,0.474121,-0.543640,0.473816,0.980588,-0.049322,-0.043951,-35.673702,44.521160,31.317406
1732158911.172109,1732158911.174735,121.000000,0.000000,4297.563965,4262.692383,4315.897461,4314.358887,4275.769043,4296.410156,4335.000000,4403.846191,4312.179688,4295.897461,4488.974121,4518.974121,4320.256348,4416.153809,1544.000000,1.000000,18.000000,,,,0.000000,2.000000,2.000000,0.000000,4.000000,2.000000,2.000000,0.000000,0.000000,4.000000,4.000000,4.000000,4.000000,4.000000,4.000000,0.000000,,,,,,,,,,,,,,,,,,,,,,,,,,,,
1732158911.179917,1732158911.182743,122.000000,0.000000,4292.307617,4257.692383,4315.000000,4305.641113,4294.230957,4293.205078,4334.615234,4403.589844,4308.846191,4293.333496,4489.230957,4514.615234,4319.230957,4415.256348,1546.000000,1.000000,18.000000,,,,0.000000,2.000000,2.000000,0.000000,4.000000,2.000000,2.000000,0.000000,0.000000,4.000000,4.000000,4.000000,4.000000,4.000000,4.000000,0.000000,,,,,,,,,,,,,,,,,,,,,,,,,,,,
1732158911.187725,1732158911.190551,123.000000,0.000000,4282.307617,4250.000000,4314.871582,4296.025879,4304.358887,4291.538574,4335.128418,4404.230957,4307.436035,4290.641113,4489.615234,4511.922852,4317.820313,4410.128418,1539.000000,1.000000,18.000000,,,,0.000000,2.000000,2.000000,0.000000,4.000000,2.000000,2.000000,0.000000,0.000000,4.000000,4.000000,4.000000,4.000000,4.000000,4.000000,0.000000,,,,,,,,,,,,,,,,,,,,,,,,,,,,
1732158911.195534,1732158911.198259,124.000000,0.000000,4279.358887,4248.974121,4315.769043,4298.974121,4282.307617,4297.436035,4335.384766,4404.871582,4309.615234,4291.666504,4484.743652,4510.000000,4315.000000,4404.230957,1685.000000,1.000000,18.000000,,,,0.000000,2.000000,2.000000,0.000000,4.000000,2.000000,2.000000,0.000000,0.000000,4.000000,4.000000,4.000000,4.000000,4.000000,4.000000,0.000000,,,,,,,,,,,,,,,,,31.000000,0.000000,0.504449,0.474060,-0.543640,0.474609,0.971798,-0.035161,-0.030277,-35.697365,44.663807,31.297100
1732158911.203342,1732158911.206067,125.000000,0.000000,4283.077148,4254.871582,4316.922852,4300.897461,4276.153809,4299.230957,4335.000000,4404.743652,4311.922852,4294.871582,4481.538574,4505.897461,4314.743652,4398.205078,1544.000000,1.000000,18.000000,,,,0.000000,2.000000,2.000000,0.000000,4.000000,2.000000,2.000000,0.000000,0.000000,4.000000,4.000000,4.000000,4.000000,4.000000,4.000000,0.000000,,,,,,,,,,,,,,,,,,,,,,,,,,,,
1732158911.211150,1732158911.213676,126.000000,0.000000,4287.436035,4262.051270,4317.692383,4299.487305,4286.282227,4295.256348,4335.256348,4406.794922,4312.948730,4295.641113,4486.025879,4507.051270,4322.051270,4401.538574,1546.000000,1.000000,18.000000,,,,0.000000,2.000000,2.000000,0.000000,4.000000,2.000000,2.000000,0.000000,0.000000,4.000000,4.000000,4.000000,4.000000,4.000000,4.000000,0.000000,,,,,,,,,,,,,,,,,,,,,,,,,,,,
1732158911.218959,1732158911.221484,127.000000,0.000000,4291.922852,4263.461426,4317.051270,4306.153809,4288.205078,4293.333496,4335.256348,4408.461426,4311.538574,4298.589844,4491.538574,4513.077148,4328.461426,4408.077148,18.000000,1.000000,18.000000,,,,0.000000,2.000000,2.000000,0.000000,4.000000,2.000000,2.000000,0.000000,0.000000,4.000000,4.000000,4.000000,4.000000,4.000000,4.000000,0.000000,,,,,,,,,,,,,,,,,,,,,,,,,,,,
1732158911.226767,1732158911.229192,0.000000,0.000000,4290.769043,4261.922852,4315.512695,4307.051270,4290.641113,4293.461426,4335.384766,4402.948730,4309.871582,4301.794922,4490.769043,4518.205078,4323.589844,4406.922852,0.000000,1.000000,18.000000,,,,0.000000,2.000000,2.000000,0.000000,4.000000,2.000000,2.000000,0.000000,0.000000,4.000000,4.000000,4.000000,4.000000,4.000000,4.000000,0.000000,,,,,,,,,,,,,,,,,0.000000,0.000000,0.504498,0.473999,-0.543701,0.474548,0.971798,-0.035161,-0.030277,-35.698200,44.771015,31.547318
1732158911.234575,1732158911.237001,1.000000,0.000000,4290.128418,4263.077148,4316.153809,4302.563965,4289.615234,4293.589844,4335.897461,4399.615234,4310.769043,4297.436035,4488.717773,4516.153809,4319.358887,4401.922852,1609.000000,1.000000,18.000000,,,,0.000000,2.000000,2.000000,0.000000,4.000000,2.000000,2.000000,0.000000,0.000000,4.000000,4.000000,4.000000,4.000000,4.000000,4.000000,0.000000,,,,,,,,,,,,,,,,,,,,,,,,,,,,
1732158911.242383,1732158911.244609,2.000000,0.000000,4293.077148,4264.871582,4316.922852,4303.589844,4296.153809,4291.666504,4336.410156,4402.307617,4310.897461,4292.179688,4489.358887,4511.282227,4322.307617,4399.871582,1354.000000,1.000000,18.000000,,,,0.000000,2.000000,2.000000,0.000000,4.000000,2.000000,2.000000,0.000000,0.000000,4.000000,4.000000,4.000000,4.000000,4.000000,4.000000,0.000000,,,,,,,,,,,,,,,,,,,,,,,,,,,,
1732158911.250192,1732158911.252417,3.000000,0.000000,4289.487305,4264.230957,4316.922852,4304.230957,4306.794922,4289.487305,4334.487305,4402.307617,4309.615234,4293.717773,4488.846191,4509.487305,4320.128418,4400.000000,1431.000000,1.000000,18.000000,,,,0.000000,2.000000,2.000000,0.000000,4.000000,2.000000,2.000000,0.000000,0.000000,4.000000,4.000000,4.000000,4.000000,4.000000,4.000000,0.000000,,,,,,,,,,,,,,,,,,,,,,,,,,,,
1732158911.258000,1732158911.260325,4.000000,0.000000,4282.948730,4263.461426,4316.922852,4303.333496,4291.922852,4291.666504,4334.230957,4401.666504,4308.717773,4294.487305,4486.922852,4514.743652,4315.769043,4403.589844,1432.000000,1.000000,18.000000,,,,0.000000,2.000000,2.000000,0.000000,4.000000,2.000000,2.000000,0.000000,0.000000,4.000000,4.000000,4.000000,4.000000,4.000000,4.000000,0.000000,,,,,,,,,,,,,,,,,1.000000,0.000000,0.504530,0.473816,-0.543884,0.474487,0.990844,-0.035649,-0.046881,-35.882210,44.782856,31.411659
1732158911.265808,1732158911.268133,5.000000,0.000000,4286.666504,4263.333496,4316.538574,4307.563965,4272.051270,4296.666504,4339.230957,4405.897461,4308.589844,4293.846191,4487.051270,4516.282227,4320.000000,4408.589844,1199.000000,1.000000,18.000000,,,,0.000000,2.000000,2.000000,0.000000,4.000000,2.000000,2.000000,0.000000,0.000000,4.000000,4.000000,4.000000,4.000000,4.000000,4.000000,0.000000,,,,,,,,,,,,,,,,,,,,,,,,,,,,
1732158911.273616,1732158911.276141,6.000000,0.000000,4292.692383,4264.615234,4316.153809,4309.615234,4281.794922,4295.384766,4340.000000,4406.666504,4308.333496,4291.410156,4487.948730,4510.000000,4325.256348,4406.794922,0.000000,1.000000,18.000000,,,,0.000000,2.000000,2.000000,0.000000,4.000000,2.000000,2.000000,0.000000,0.000000,4.000000,4.000000,4.000000,4.000000,4.000000,4.000000,0.000000,,,,,,,,,,,,,,,,,,,,,,,,,,,,
1732158911.281424,1732158911.283950,7.000000,0.000000,4288.077148,4263.974121,4316.282227,4305.000000,4288.589844,4291.282227,4336.538574,4405.000000,4306.282227,4285.000000,4484.487305,4510.769043,4323.205078,4406.282227,0.000000,1.000000,18.000000,,,,0.000000,2.000000,2.000000,0.000000,4.000000,2.000000,2.000000,0.000000,0.000000,4.000000,4.000000,4.000000,4.000000,4.000000,4.000000,0.000000,,,,,,,,,,,,,,,,,,,,,,,,,,,,
1732158911.289233,1732158911.291858,8.000000,0.000000,4282.051270,4258.717773,4315.000000,4302.692383,4282.820313,4292.563965,4336.538574,4406.282227,4307.051270,4286.153809,4482.563965,4514.487305,4319.743652,4408.333496,1533.000000,1.000000,18.000000,,,,0.000000,2.000000,2.000000,0.000000,4.000000,2.000000,2.000000,0.000000,0.000000,4.000000,4.000000,4.000000,4.000000,4.000000,4.000000,0.000000,,,,,,,,,,,,,,,,,2.000000,0.000000,0.504530,0.473816,-0.543884,0.474487,0.979612,-0.038579,-0.031742,-35.742924,44.644112,31.391779
1732158911.297041,1732158911.299666,9.000000,0.000000,4281.153809,4260.128418,4314.358887,4302.307617,4295.512695,4292.436035,4335.769043,4407.948730,4311.153809,4292.692383,4487.051270,4513.461426,4323.461426,4408.205078,1690.000000,1.000000,18.000000,,,,0.000000,2.000000,2.000000,0.000000,4.000000,2.000000,2.000000,0.000000,0.000000,4.000000,4.000000,4.000000,4.000000,4.000000,4.000000,0.000000,,,,,,,,,,,,,,,,,,,,,,,,,,,,
1732158911.304849,1732158911.307274,10.000000,0.000000,4281.538574,4264.230957,4315.384766,4301.794922,4301.025879,4292.820313,4333.205078,4407.436035,4313.461426,4294.743652,4491.025879,4511.282227,4328.974121,4405.897461,1554.000000,1.000000,18.000000,,,,0.000000,2.000000,2.000000,0.000000,4.000000,2.000000,2.000000,0.000000,0.000000,4.000000,4.000000,4.000000,4.000000,4.000000,4.000000,0.000000,,,,,,,,,,,,,,,,,,,,,,,,,,,,
1732158911.312657,1732158911.315083,11.000000,0.000000,4280.897461,4257.692383,4316.410156,4300.256348,4281.282227,4295.384766,4338.717773,4406.666504,4310.897461,4289.230957,4487.436035,4512.051270,4320.769043,4402.820313,1539.000000,1.000000,18.000000,,,,0.000000,2.000000,2.000000,0.000000,4.000000,2.000000,2.000000,0.000000,0.000000,4.000000,4.000000,4.000000,4.000000,4.000000,4.000000,0.000000,,,,,,,,,,,,,,,,,,,,,,,,,,,,
1732158911.320466,1732158911.322791,12.000000,0.000000,4280.512695,4253.974121,4314.743652,4297.179688,4274.358887,4293.974121,4342.820313,4405.641113,4307.692383,4281.282227,4481.410156,4513.077148,4312.436035,4402.692383,1690.000000,1.000000,18.000000,,,,0.000000,2.000000,2.000000,0.000000,4.000000,2.000000,2.000000,0.000000,0.000000,4.000000,4.000000,4.000000,4.000000,4.000000,4.000000,0.000000,,,,,,,,,,,,,,,,,3.000000,0.000000,0.504415,0.473877,-0.543884,0.474548,0.985472,-0.047857,-0.040044,-35.686768,44.576733,31.335674
1732158911.328274,1732158911.330599,13.000000,0.000000,4282.436035,4257.563965,4314.102539,4297.563965,4280.384766,4293.461426,4336.538574,4406.922852,4312.948730,4286.153809,4478.589844,4515.000000,4316.794922,4402.820313,1548.000000,1.000000,18.000000,,,,0.000000,2.000000,2.000000,0.000000,4.000000,2.000000,2.000000,0.000000,0.000000,4.000000,4.000000,4.000000,4.000000,4.000000,4.000000,0.000000,,,,,,,,,,,,,,,,,,,,,,,,,,,,
