title:3nine, start timestamp:1732158958.209257, stop timestamp:1732159008.275788, headset type:EPOCX, headset serial:E5020C3A, headset firmware:730, channels:67, sampling rate:eeg_128;mot_32, samples:6413      , version:2.2, 
Timestamp,OriginalTimestamp,EEG.Counter,EEG.Interpolated,EEG.AF3,EEG.F7,EEG.F3,EEG.FC5,EEG.T7,EEG.P7,EEG.O1,EEG.O2,EEG.P8,EEG.T8,EEG.FC6,EEG.F4,EEG.F8,EEG.AF4,EEG.RawCq,EEG.Battery,EEG.BatteryPercent,MarkerIndex,MarkerType,MarkerValueInt,EEG.MarkerHardware,CQ.AF3,CQ.F7,CQ.F3,CQ.FC5,CQ.T7,CQ.P7,CQ.O1,CQ.O2,CQ.P8,CQ.T8,CQ.FC6,CQ.F4,CQ.F8,CQ.AF4,CQ.Overall,EQ.SampleRateQuality,EQ.OVERALL,EQ.AF3,EQ.F7,EQ.F3,EQ.FC5,EQ.T7,EQ.P7,EQ.O1,EQ.O2,EQ.P8,EQ.T8,EQ.FC6,EQ.F4,EQ.F8,EQ.AF4,MOT.CounterMems,MOT.InterpolatedMems,MOT.Q0,MOT.Q1,MOT.Q2,MOT.Q3,MOT.AccX,MOT.AccY,MOT.AccZ,MOT.MagX,MOT.MagY,MOT.MagZ
1732158958.209257,1732158958.211682,1.000000,0.000000,4291.922852,4277.563965,4312.179688,4296.410156,4279.615234,4280.512695,4334.743652,4400.384766,4296.538574,4296.410156,4487.948730,4498.461426,4343.077148,4410.256348,1614.000000,1.000000,18.000000,,,,0.000000,2.000000,2.000000,0.000000,4.000000,2.000000,2.000000,0.000000,0.000000,4.000000,4.000000,4.000000,4.000000,4.000000,4.000000,0.000000,,,,,,,,,,,,,,,,,,,,,,,,,,,,
1732158958.217065,1732158958.219291,2.000000,0.000000,4292.051270,4278.974121,4314.615234,4295.384766,4279.487305,4278.974121,4334.743652,4398.205078,4294.743652,4295.000000,4488.717773,4506.538574,4347.179688,4412.563965,1359.000000,1.000000,18.000000,,,,0.000000,2.000000,2.000000,0.000000,4.000000,2.000000,2.000000,0.000000,0.000000,4.000000,4.000000,4.000000,4.000000,4.000000,4.000000,0.000000,,,,,,,,,,,,,,,,,,,,,,,,,,,,
1732158958.224874,1732158958.227099,3.000000,0.000000,4294.743652,4277.948730,4315.000000,4297.307617,4281.410156,4278.717773,4334.743652,4398.974121,4297.820313,4299.358887,4490.128418,4509.871582,4349.102539,4414.102539,1429.000000,1.000000,18.000000,,,,0.000000,2.000000,2.000000,0.000000,4.000000,2.000000,2.000000,0.000000,0.000000,4.000000,4.000000,4.000000,4.000000,4.000000,4.000000,0.000000,,,,,,,,,,,,,,,,,,,,,,,,,,,,
1732158958.232682,1732158958.234807,4.000000,0.000000,4297.563965,4278.333496,4312.820313,4297.307617,4276.922852,4280.641113,4334.743652,4400.000000,4304.487305,4298.589844,4493.333496,4510.769043,4350.000000,4414.230957,1432.000000,1.000000,18.000000,,,,0.000000,2.000000,2.000000,0.000000,4.000000,2.000000,2.000000,0.000000,0.000000,4.000000,4.000000,4.000000,4.000000,4.000000,4.000000,0.000000,,,,,,,,,,,,,,,,,1.000000,0.000000,0.539218,0.494080,-0.531494,0.427368,0.964962,0.062996,-0.051276,-34.163116,45.689472,31.862186
1732158958.240490,1732158958.242615,5.000000,0.000000,4298.077148,4276.153809,4312.692383,4295.641113,4281.410156,4279.871582,4334.743652,4400.512695,4302.307617,4296.538574,4493.077148,4509.743652,4349.871582,4414.743652,1197.000000,1.000000,18.000000,,,,0.000000,2.000000,2.000000,0.000000,4.000000,2.000000,2.000000,0.000000,0.000000,4.000000,4.000000,4.000000,4.000000,4.000000,4.000000,0.000000,,,,,,,,,,,,,,,,,,,,,,,,,,,,
1732158958.248299,1732158958.250224,6.000000,0.000000,4296.794922,4274.487305,4314.487305,4293.589844,4288.205078,4278.077148,4334.743652,4401.538574,4300.000000,4297.436035,4490.000000,4506.282227,4349.615234,4414.230957,0.000000,1.000000,18.000000,,,,0.000000,2.000000,2.000000,0.000000,4.000000,2.000000,2.000000,0.000000,0.000000,4.000000,4.000000,4.000000,4.000000,4.000000,4.000000,0.000000,,,,,,,,,,,,,,,,,,,,,,,,,,,,
1732158958.256107,1732158958.258032,7.000000,0.000000,4296.922852,4277.692383,4315.641113,4293.846191,4273.846191,4279.487305,4334.743652,4401.538574,4308.333496,4297.948730,4491.538574,4505.128418,4351.282227,4413.205078,0.000000,1.000000,18.000000,,,,0.000000,2.000000,2.000000,0.000000,4.000000,2.000000,2.000000,0.000000,0.000000,4.000000,4.000000,4.000000,4.000000,4.000000,4.000000,0.000000,,,,,,,,,,,,,,,,,,,,,,,,,,,,
1732158958.263915,1732158958.265940,8.000000,0.000000,4296.410156,4280.384766,4313.205078,4296.282227,4264.487305,4282.179688,4334.743652,4401.153809,4309.102539,4297.436035,4492.051270,4509.102539,4351.153809,4413.974121,1528.000000,1.000000,18.000000,,,,0.000000,2.000000,2.000000,0.000000,4.000000,2.000000,2.000000,0.000000,0.000000,4.000000,4.000000,4.000000,4.000000,4.000000,4.000000,0.000000,,,,,,,,,,,,,,,,,2.000000,0.000000,0.539470,0.495361,-0.529846,0.427612,0.975217,0.090343,-0.060066,-34.078793,45.796806,31.796705
1732158958.271723,1732158958.273748,9.000000,0.000000,4294.615234,4280.897461,4310.769043,4296.153809,4278.589844,4282.692383,4335.000000,4401.794922,4297.307617,4297.179688,4488.205078,4510.000000,4349.230957,4414.358887,1703.000000,1.000000,18.000000,,,,0.000000,2.000000,2.000000,0.000000,4.000000,2.000000,2.000000,0.000000,0.000000,4.000000,4.000000,4.000000,4.000000,4.000000,4.000000,0.000000,,,,,,,,,,,,,,,,,,,,,,,,,,,,
1732158958.279532,1732158958.281357,10.000000,0.000000,4294.743652,4279.743652,4311.922852,4295.256348,4285.256348,4282.948730,4334.743652,4400.897461,4294.487305,4296.794922,4487.948730,4505.128418,4347.692383,4411.282227,1564.000000,1.000000,18.000000,,,,0.000000,2.000000,2.000000,0.000000,4.000000,2.000000,2.000000,0.000000,0.000000,4.000000,4.000000,4.000000,4.000000,4.000000,4.000000,0.000000,,,,,,,,,,,,,,,,,,,,,,,,,,,,
1732158958.287340,1732158958.289165,11.000000,0.000000,4294.358887,4278.717773,4313.974121,4295.512695,4275.897461,4282.051270,4334.487305,4400.512695,4298.846191,4293.846191,4487.563965,4502.051270,4345.641113,4409.230957,1551.000000,1.000000,18.000000,,,,0.000000,2.000000,2.000000,0.000000,4.000000,2.000000,2.000000,0.000000,0.000000,4.000000,4.000000,4.000000,4.000000,4.000000,4.000000,0.000000,,,,,,,,,,,,,,,,,,,,,,,,,,,,
1732158958.295148,1732158958.297073,12.000000,0.000000,4293.589844,4278.461426,4313.333496,4295.000000,4278.077148,4282.307617,4335.641113,4401.794922,4297.820313,4291.922852,4479.743652,4501.282227,4342.692383,4410.512695,1710.000000,1.000000,18.000000,,,,0.000000,2.000000,2.000000,0.000000,4.000000,2.000000,2.000000,0.000000,0.000000,4.000000,4.000000,4.000000,4.000000,4.000000,4.000000,0.000000,,,,,,,,,,,,,,,,,3.000000,0.000000,0.539730,0.496094,-0.528748,0.427795,0.971310,0.102552,-0.038579,-34.192154,45.742077,31.771997
1732158958.302956,1732158958.304881,13.000000,0.000000,4294.358887,4278.461426,4312.820313,4291.410156,4285.641113,4285.128418,4336.410156,4402.563965,4294.102539,4289.487305,4475.384766,4499.102539,4340.128418,4412.563965,1549.000000,1.000000,18.000000,,,,0.000000,2.000000,2.000000,0.000000,4.000000,2.000000,2.000000,0.000000,0.000000,4.000000,4.000000,4.000000,4.000000,4.000000,4.000000,0.000000,,,,,,,,,,,,,,,,,,,,,,,,,,,,
1732158958.310765,1732158958.312889,14.000000,0.000000,4295.128418,4279.743652,4316.153809,4291.153809,4283.717773,4283.846191,4334.871582,4402.820313,4298.461426,4290.000000,4483.461426,4495.128418,4342.948730,4409.743652,1564.000000,1.000000,18.000000,,,,0.000000,2.000000,2.000000,0.000000,4.000000,2.000000,2.000000,0.000000,0.000000,4.000000,4.000000,4.000000,4.000000,4.000000,4.000000,0.000000,1.000000,0.000000,2.000000,2.000000,0.000000,4.000000,2.000000,0.000000,0.000000,0.000000,4.000000,4.000000,4.000000,4.000000,4.000000,4.000000,,,,,,,,,,,,
1732158958.318573,1732158958.320697,15.000000,0.000000,4295.256348,4281.153809,4316.794922,4295.000000,4281.538574,4281.666504,4334.487305,4401.410156,4309.615234,4296.794922,4487.948730,4497.948730,4349.102539,4407.436035,1551.000000,1.000000,18.000000,,,,0.000000,2.000000,2.000000,0.000000,4.000000,2.000000,2.000000,0.000000,0.000000,4.000000,4.000000,4.000000,4.000000,4.000000,4.000000,0.000000,,,,,,,,,,,,,,,,,,,,,,,,,,,,
1732158958.326381,1732158958.328605,16.000000,0.000000,4294.358887,4280.000000,4313.461426,4290.897461,4281.922852,4282.820313,4336.282227,4400.384766,4305.897461,4294.230957,4483.974121,4501.282227,4348.205078,4408.333496,0.000000,1.000000,18.000000,,,,0.000000,2.000000,2.000000,0.000000,4.000000,2.000000,2.000000,0.000000,0.000000,4.000000,4.000000,4.000000,4.000000,4.000000,4.000000,0.000000,,,,,,,,,,,,,,,,,4.000000,0.000000,0.539730,0.496094,-0.528748,0.427795,0.965938,0.110853,-0.032719,-34.253979,45.787750,31.691984
1732158958.334189,1732158958.336414,17.000000,0.000000,4294.102539,4280.512695,4313.589844,4281.025879,4282.051270,4282.179688,4335.512695,4400.897461,4291.025879,4284.358887,4485.000000,4497.820313,4342.563965,4407.436035,0.000000,1.000000,18.000000,,,,0.000000,2.000000,2.000000,0.000000,4.000000,2.000000,2.000000,0.000000,0.000000,4.000000,4.000000,4.000000,4.000000,4.000000,4.000000,0.000000,,,,,,,,,,,,,,,,,,,,,,,,,,,,
1732158958.341998,1732158958.344022,18.000000,0.000000,4297.051270,4282.820313,4316.794922,4279.615234,4281.666504,4280.897461,4333.333496,4401.282227,4292.307617,4287.692383,4488.717773,4498.717773,4343.589844,4408.974121,0.000000,1.000000,18.000000,,,,0.000000,2.000000,2.000000,0.000000,4.000000,2.000000,2.000000,0.000000,0.000000,4.000000,4.000000,4.000000,4.000000,4.000000,4.000000,0.000000,,,,,,,,,,,,,,,,,,,,,,,,,,,,
1732158958.349806,1732158958.351830,19.000000,0.000000,4298.205078,4282.307617,4314.615234,4279.487305,4284.102539,4283.077148,4334.487305,4403.333496,4300.641113,4296.025879,4487.563965,4505.128418,4345.512695,4413.846191,0.000000,1.000000,18.000000,,,,0.000000,2.000000,2.000000,0.000000,4.000000,2.000000,2.000000,0.000000,0.000000,4.000000,4.000000,4.000000,4.000000,4.000000,4.000000,0.000000,,,,,,,,,,,,,,,,,,,,,,,,,,,,
1732158958.357614,1732158958.359539,20.000000,0.000000,4297.307617,4281.410156,4310.384766,4268.717773,4284.615234,4282.820313,4336.410156,4404.102539,4297.307617,4292.179688,4486.794922,4507.307617,4344.102539,4412.948730,0.000000,1.000000,18.000000,,,,0.000000,2.000000,2.000000,0.000000,4.000000,2.000000,2.000000,0.000000,0.000000,4.000000,4.000000,4.000000,4.000000,4.000000,4.000000,0.000000,,,,,,,,,,,,,,,,,5.000000,0.000000,0.539187,0.498596,-0.526001,0.428955,0.966915,0.120132,-0.046881,-33.982388,45.824745,31.732174
1732158958.365422,1732158958.367347,21.000000,0.000000,4299.102539,4280.384766,4310.897461,4261.922852,4282.820313,4281.922852,4335.384766,4402.051270,4297.307617,4291.282227,4488.717773,4506.025879,4345.000000,4410.769043,0.000000,1.000000,18.000000,,,,0.000000,2.000000,2.000000,0.000000,4.000000,2.000000,2.000000,0.000000,0.000000,4.000000,4.000000,4.000000,4.000000,4.000000,4.000000,0.000000,,,,,,,,,,,,,,,,,,,,,,,,,,,,
1732158958.373231,1732158958.374955,22.000000,0.000000,4299.871582,4281.666504,4311.282227,4265.256348,4288.461426,4288.589844,4334.487305,4403.974121,4303.589844,4297.820313,4488.589844,4507.948730,4345.512695,4413.974121,0.000000,1.000000,18.000000,,,,0.000000,2.000000,2.000000,0.000000,4.000000,2.000000,2.000000,0.000000,0.000000,4.000000,4.000000,4.000000,4.000000,4.000000,4.000000,0.000000,,,,,,,,,,,,,,,,,,,,,,,,,,,,
1732158958.381039,1732158958.382763,23.000000,0.000000,4296.794922,4286.025879,4310.897461,4265.769043,4292.051270,4288.589844,4335.256348,4406.538574,4306.282227,4296.794922,4487.692383,4508.461426,4346.153809,4414.230957,0.000000,1.000000,18.000000,,,,0.000000,2.000000,2.000000,0.000000,4.000000,2.000000,2.000000,0.000000,0.000000,4.000000,4.000000,4.000000,4.000000,4.000000,4.000000,0.000000,,,,,,,,,,,,,,,,,,,,,,,,,,,,
1732158958.388847,1732158958.390672,24.000000,0.000000,4295.897461,4286.025879,4312.436035,4261.922852,4286.794922,4282.563965,4335.000000,4406.025879,4307.948730,4293.333496,4488.333496,4508.846191,4350.897461,4415.512695,0.000000,1.000000,18.000000,,,,0.000000,2.000000,2.000000,0.000000,4.000000,2.000000,2.000000,0.000000,0.000000,4.000000,4.000000,4.000000,4.000000,4.000000,4.000000,0.000000,,,,,,,,,,,,,,,,,6.000000,0.000000,0.537521,0.500488,-0.524109,0.431152,0.979123,0.099622,-0.042486,-33.732403,45.844711,31.586395
1732158958.396655,1732158958.398480,25.000000,0.000000,4299.358887,4281.410156,4312.179688,4262.563965,4284.230957,4286.922852,4334.871582,4403.974121,4310.897461,4298.589844,4491.410156,4512.179688,4353.461426,4421.282227,0.000000,1.000000,18.000000,,,,0.000000,2.000000,2.000000,0.000000,4.000000,2.000000,2.000000,0.000000,0.000000,4.000000,4.000000,4.000000,4.000000,4.000000,4.000000,0.000000,,,,,,,,,,,,,,,,,,,,,,,,,,,,
1732158958.404464,1732158958.406488,26.000000,0.000000,4305.384766,4282.948730,4310.769043,4263.974121,4285.897461,4290.512695,4335.384766,4401.282227,4311.282227,4302.948730,4492.436035,4508.589844,4351.025879,4417.179688,0.000000,1.000000,18.000000,,,,0.000000,2.000000,2.000000,0.000000,4.000000,2.000000,2.000000,0.000000,0.000000,4.000000,4.000000,4.000000,4.000000,4.000000,4.000000,0.000000,,,,,,,,,,,,,,,,,,,,,,,,,,,,
1732158958.412272,1732158958.414296,27.000000,0.000000,4311.282227,4289.871582,4310.128418,4263.077148,4283.974121,4283.589844,4334.230957,4398.846191,4304.230957,4297.692383,4490.128418,4504.871582,4349.615234,4413.974121,0.000000,1.000000,18.000000,,,,0.000000,2.000000,2.000000,0.000000,4.000000,2.000000,2.000000,0.000000,0.000000,4.000000,4.000000,4.000000,4.000000,4.000000,4.000000,0.000000,,,,,,,,,,,,,,,,,,,,,,,,,,,,
1732158958.420080,1732158958.422204,28.000000,0.000000,4311.794922,4288.461426,4312.307617,4265.641113,4281.410156,4279.230957,4333.461426,4399.230957,4295.128418,4291.922852,4490.897461,4507.692383,4351.282227,4422.820313,0.000000,1.000000,18.000000,,,,0.000000,2.000000,2.000000,0.000000,4.000000,2.000000,2.000000,0.000000,0.000000,4.000000,4.000000,4.000000,4.000000,4.000000,4.000000,0.000000,,,,,,,,,,,,,,,,,7.000000,0.000000,0.534995,0.500854,-0.523926,0.434082,0.971310,0.080576,-0.047857,-33.796577,45.939217,31.514980
1732158958.427889,1732158958.430012,29.000000,0.000000,4309.102539,4281.794922,4313.077148,4266.794922,4279.871582,4281.922852,4334.230957,4401.282227,4293.974121,4294.102539,4493.974121,4510.769043,4352.436035,4428.846191,0.000000,1.000000,18.000000,,,,0.000000,2.000000,2.000000,0.000000,4.000000,2.000000,2.000000,0.000000,0.000000,4.000000,4.000000,4.000000,4.000000,4.000000,4.000000,0.000000,,,,,,,,,,,,,,,,,,,,,,,,,,,,
1732158958.435697,1732158958.438020,30.000000,0.000000,4312.948730,4283.333496,4310.897461,4264.102539,4280.512695,4281.794922,4334.487305,4400.384766,4296.538574,4296.282227,4492.692383,4506.794922,4350.128418,4426.666504,0.000000,1.000000,18.000000,,,,0.000000,2.000000,2.000000,0.000000,4.000000,2.000000,2.000000,0.000000,0.000000,4.000000,4.000000,4.000000,4.000000,4.000000,4.000000,0.000000,,,,,,,,,,,,,,,,,,,,,,,,,,,,
1732158958.443505,1732158958.445828,31.000000,0.000000,4321.153809,4294.230957,4309.487305,4269.102539,4282.179688,4280.256348,4333.846191,4400.256348,4296.922852,4293.717773,4490.512695,4503.461426,4351.025879,4427.179688,0.000000,1.000000,18.000000,,,,0.000000,2.000000,2.000000,0.000000,4.000000,2.000000,2.000000,0.000000,0.000000,4.000000,4.000000,4.000000,4.000000,4.000000,4.000000,0.000000,,,,,,,,,,,,,,,,,,,,,,,,,,,,
1732158958.451313,1732158958.453537,32.000000,0.000000,4319.615234,4297.692383,4312.179688,4275.641113,4282.692383,4282.692383,4334.358887,4400.641113,4296.794922,4294.487305,4490.769043,4505.512695,4356.153809,4429.615234,0.000000,1.000000,18.000000,,,,0.000000,2.000000,2.000000,0.000000,4.000000,2.000000,2.000000,0.000000,0.000000,4.000000,4.000000,4.000000,4.000000,4.000000,4.000000,0.000000,,,,,,,,,,,,,,,,,8.000000,0.000000,0.534995,0.500854,-0.523926,0.434082,0.971310,0.080576,-0.047857,-34.028561,45.955765,31.547134
1732158958.459121,1732158958.461345,33.000000,0.000000,4311.410156,4289.743652,4312.563965,4271.025879,4281.538574,4283.589844,4335.000000,4401.025879,4297.563965,4296.025879,4488.846191,4505.897461,4352.436035,4428.717773,0.000000,1.000000,18.000000,,,,0.000000,2.000000,2.000000,0.000000,4.000000,2.000000,2.000000,0.000000,0.000000,4.000000,4.000000,4.000000,4.000000,4.000000,4.000000,0.000000,,,,,,,,,,,,,,,,,,,,,,,,,,,,
1732158958.466930,1732158958.469353,34.000000,0.000000,4314.102539,4287.179688,4307.948730,4265.384766,4281.282227,4281.410156,4334.871582,4401.153809,4299.743652,4295.000000,4487.436035,4503.077148,4349.615234,4427.563965,0.000000,1.000000,18.000000,,,,0.000000,2.000000,2.000000,0.000000,4.000000,2.000000,2.000000,0.000000,0.000000,4.000000,4.000000,4.000000,4.000000,4.000000,4.000000,0.000000,,,,,,,,,,,,,,,,,,,,,,,,,,,,
1732158958.474738,1732158958.477161,35.000000,0.000000,4321.922852,4292.948730,4308.461426,4267.179688,4280.897461,4280.384766,4335.000000,4400.897461,4300.512695,4295.128418,4493.333496,4503.974121,4360.769043,4432.948730,0.000000,1.000000,18.000000,,,,0.000000,2.000000,2.000000,0.000000,4.000000,2.000000,2.000000,0.000000,0.000000,4.000000,4.000000,4.000000,4.000000,4.000000,4.000000,0.000000,,,,,,,,,,,,,,,,,,,,,,,,,,,,
1732158958.482546,1732158958.485069,36.000000,0.000000,4325.769043,4298.717773,4311.794922,4273.333496,4279.871582,4279.743652,4334.871582,4400.641113,4297.563965,4296.538574,4501.922852,4507.948730,4367.948730,4443.077148,0.000000,1.000000,18.000000,,,,0.000000,2.000000,2.000000,0.000000,4.000000,2.000000,2.000000,0.000000,0.000000,4.000000,4.000000,4.000000,4.000000,4.000000,4.000000,0.000000,,,,,,,,,,,,,,,,,9.000000,0.000000,0.529687,0.499207,-0.526306,0.439575,0.993774,0.042974,-0.047857,-34.308136,45.974171,31.718178
1732158958.490354,1732158958.492878,37.000000,0.000000,4330.384766,4298.205078,4313.205078,4277.948730,4275.769043,4272.563965,4334.743652,4400.641113,4296.410156,4295.512695,4505.256348,4507.307617,4364.102539,4445.000000,0.000000,1.000000,18.000000,,,,0.000000,2.000000,2.000000,0.000000,4.000000,2.000000,2.000000,0.000000,0.000000,4.000000,4.000000,4.000000,4.000000,4.000000,4.000000,0.000000,,,,,,,,,,,,,,,,,,,,,,,,,,,,
1732158958.498163,1732158958.500886,38.000000,0.000000,4334.743652,4296.410156,4312.051270,4277.051270,4271.282227,4265.256348,4334.871582,4400.512695,4296.410156,4293.461426,4504.871582,4504.615234,4370.641113,4442.307617,0.000000,1.000000,18.000000,,,,0.000000,2.000000,2.000000,0.000000,4.000000,2.000000,2.000000,0.000000,0.000000,4.000000,4.000000,4.000000,4.000000,4.000000,4.000000,0.000000,,,,,,,,,,,,,,,,,,,,,,,,,,,,
1732158958.505971,1732158958.508694,39.000000,0.000000,4339.615234,4300.769043,4311.922852,4276.794922,4270.256348,4266.538574,4334.743652,4397.820313,4293.205078,4294.358887,4504.615234,4506.153809,4379.871582,4450.000000,0.000000,1.000000,18.000000,,,,0.000000,2.000000,2.000000,0.000000,4.000000,2.000000,2.000000,0.000000,0.000000,4.000000,4.000000,4.000000,4.000000,4.000000,4.000000,0.000000,,,,,,,,,,,,,,,,,,,,,,,,,,,,
1732158958.513779,1732158958.516602,40.000000,0.000000,4348.333496,4308.974121,4312.051270,4281.666504,4270.128418,4268.205078,4334.615234,4397.179688,4288.974121,4294.487305,4504.743652,4507.179688,4376.922852,4459.487305,0.000000,1.000000,18.000000,,,,0.000000,2.000000,2.000000,0.000000,4.000000,2.000000,2.000000,0.000000,0.000000,4.000000,4.000000,4.000000,4.000000,4.000000,4.000000,0.000000,,,,,,,,,,,,,,,,,10.000000,0.000000,0.528603,0.498657,-0.527100,0.440552,0.976682,0.048834,-0.050299,-34.414589,46.022411,31.561724
1732158958.521587,1732158958.524410,41.000000,0.000000,4353.077148,4312.307617,4311.538574,4283.974121,4266.666504,4264.358887,4335.000000,4400.641113,4285.256348,4294.102539,4504.615234,4511.410156,4376.025879,4463.205078,0.000000,1.000000,18.000000,,,,0.000000,2.000000,2.000000,0.000000,4.000000,2.000000,2.000000,0.000000,0.000000,4.000000,4.000000,4.000000,4.000000,4.000000,4.000000,0.000000,,,,,,,,,,,,,,,,,,,,,,,,,,,,
1732158958.529396,1732158958.532418,42.000000,0.000000,4353.846191,4309.743652,4308.717773,4279.871582,4263.717773,4261.794922,4335.000000,4401.410156,4282.692383,4294.230957,4505.641113,4516.410156,4381.922852,4469.487305,0.000000,1.000000,18.000000,,,,0.000000,2.000000,2.000000,0.000000,4.000000,2.000000,2.000000,0.000000,0.000000,4.000000,4.000000,4.000000,4.000000,4.000000,4.000000,0.000000,,,,,,,,,,,,,,,,,,,,,,,,,,,,
1732158958.537204,1732158958.540226,43.000000,0.000000,4357.692383,4309.615234,4306.794922,4279.230957,4262.820313,4262.436035,4333.974121,4400.897461,4283.461426,4294.230957,4507.436035,4515.512695,4383.717773,4475.641113,0.000000,1.000000,18.000000,,,,0.000000,2.000000,2.000000,0.000000,4.000000,2.000000,2.000000,0.000000,0.000000,4.000000,4.000000,4.000000,4.000000,4.000000,4.000000,0.000000,,,,,,,,,,,,,,,,,,,,,,,,,,,,
1732158958.545012,1732158958.548134,44.000000,0.000000,4360.512695,4313.461426,4308.589844,4281.922852,4263.589844,4262.948730,4333.589844,4401.538574,4282.820313,4294.230957,4507.948730,4511.282227,4381.282227,4475.384766,0.000000,1.000000,18.000000,,,,0.000000,2.000000,2.000000,0.000000,4.000000,2.000000,2.000000,0.000000,0.000000,4.000000,4.000000,4.000000,4.000000,4.000000,4.000000,0.000000,,,,,,,,,,,,,,,,,11.000000,0.000000,0.527571,0.498230,-0.527771,0.441467,0.976682,0.048834,-0.050299,-34.314152,45.908154,31.661663
1732158958.552821,1732158958.555943,45.000000,0.000000,4361.666504,4313.974121,4312.179688,4280.897461,4265.256348,4263.077148,4335.128418,4400.641113,4280.512695,4294.230957,4507.436035,4512.051270,4384.102539,4476.025879,0.000000,1.000000,18.000000,,,,0.000000,2.000000,2.000000,0.000000,4.000000,2.000000,2.000000,0.000000,0.000000,4.000000,4.000000,4.000000,4.000000,4.000000,4.000000,0.000000,,,,,,,,,,,,,,,,,,,,,,,,,,,,
1732158958.560629,1732158958.563951,46.000000,0.000000,4366.794922,4313.589844,4312.948730,4281.282227,4263.846191,4262.692383,4336.025879,4400.128418,4279.871582,4294.230957,4508.846191,4519.102539,4386.666504,4479.743652,0.000000,1.000000,18.000000,,,,0.000000,2.000000,2.000000,0.000000,4.000000,2.000000,2.000000,0.000000,0.000000,4.000000,4.000000,4.000000,4.000000,4.000000,4.000000,0.000000,,,,,,,,,,,,,,,,,,,,,,,,,,,,
1732158958.568437,1732158958.571759,47.000000,0.000000,4370.000000,4315.256348,4313.333496,4283.461426,4262.051270,4259.743652,4334.615234,4402.307617,4280.384766,4294.230957,4510.256348,4525.641113,4383.589844,4479.102539,0.000000,1.000000,18.000000,,,,0.000000,2.000000,2.000000,0.000000,4.000000,2.000000,2.000000,0.000000,0.000000,4.000000,4.000000,4.000000,4.000000,4.000000,4.000000,0.000000,,,,,,,,,,,,,,,,,,,,,,,,,,,,
1732158958.576245,1732158958.579467,48.000000,0.000000,4367.179688,4315.000000,4313.846191,4286.153809,4262.436035,4260.897461,4334.230957,4401.538574,4280.769043,4294.230957,4508.333496,4521.538574,4382.692383,4478.077148,0.000000,1.000000,18.000000,,,,0.000000,2.000000,2.000000,0.000000,4.000000,2.000000,2.000000,0.000000,0.000000,4.000000,4.000000,4.000000,4.000000,4.000000,4.000000,0.000000,,,,,,,,,,,,,,,,,12.000000,0.000000,0.524759,0.496521,-0.530029,0.444031,0.964473,0.044927,-0.055183,-34.391129,45.923935,31.795948
1732158958.584053,1732158958.587275,49.000000,0.000000,4362.820313,4314.871582,4314.358887,4286.410156,4264.358887,4261.794922,4335.641113,4401.538574,4281.025879,4294.230957,4506.025879,4512.563965,4385.128418,4478.974121,0.000000,1.000000,18.000000,,,,0.000000,2.000000,2.000000,0.000000,4.000000,2.000000,2.000000,0.000000,0.000000,4.000000,4.000000,4.000000,4.000000,4.000000,4.000000,0.000000,,,,,,,,,,,,,,,,,,,,,,,,,,,,
1732158958.591862,1732158958.594884,50.000000,0.000000,4365.000000,4316.153809,4316.922852,4285.897461,4262.692383,4254.871582,4336.410156,4404.102539,4279.615234,4294.102539,4506.538574,4515.128418,4383.974121,4477.307617,0.000000,1.000000,18.000000,,,,0.000000,2.000000,2.000000,0.000000,4.000000,2.000000,2.000000,0.000000,0.000000,4.000000,4.000000,4.000000,4.000000,4.000000,4.000000,0.000000,,,,,,,,,,,,,,,,,,,,,,,,,,,,
1732158958.599670,1732158958.602692,51.000000,0.000000,4365.000000,4313.974121,4317.948730,4289.487305,4261.666504,4254.487305,4335.769043,4404.102539,4278.461426,4293.589844,4507.692383,4519.743652,4381.538574,4476.025879,0.000000,1.000000,18.000000,,,,0.000000,2.000000,2.000000,0.000000,4.000000,2.000000,2.000000,0.000000,0.000000,4.000000,4.000000,4.000000,4.000000,4.000000,4.000000,0.000000,,,,,,,,,,,,,,,,,,,,,,,,,,,,
1732158958.607478,1732158958.610400,52.000000,0.000000,4360.000000,4310.769043,4316.282227,4290.512695,4264.102539,4263.589844,4335.897461,4402.436035,4279.102539,4294.871582,4507.692383,4516.025879,4383.333496,4477.563965,0.000000,1.000000,18.000000,,,,0.000000,2.000000,2.000000,0.000000,4.000000,2.000000,2.000000,0.000000,0.000000,4.000000,4.000000,4.000000,4.000000,4.000000,4.000000,0.000000,,,,,,,,,,,,,,,,,13.000000,0.000000,0.523977,0.495483,-0.531006,0.444946,0.984984,0.058113,-0.085460,-34.520149,46.086723,31.804718
1732158958.615286,1732158958.618208,53.000000,0.000000,4359.615234,4311.153809,4317.436035,4285.641113,4262.307617,4264.615234,4336.025879,4403.717773,4280.000000,4293.846191,4507.436035,4514.743652,4382.948730,4476.410156,0.000000,1.000000,18.000000,,,,0.000000,2.000000,2.000000,0.000000,4.000000,2.000000,2.000000,0.000000,0.000000,4.000000,4.000000,4.000000,4.000000,4.000000,4.000000,0.000000,,,,,,,,,,,,,,,,,,,,,,,,,,,,
1732158958.623095,1732158958.625817,54.000000,0.000000,4361.410156,4309.615234,4322.436035,4282.692383,4259.615234,4259.871582,4335.897461,4406.666504,4280.897461,4292.563965,4508.333496,4518.717773,4381.410156,4474.358887,0.000000,1.000000,18.000000,,,,0.000000,2.000000,2.000000,0.000000,4.000000,2.000000,2.000000,0.000000,0.000000,4.000000,4.000000,4.000000,4.000000,4.000000,4.000000,0.000000,,,,,,,,,,,,,,,,,,,,,,,,,,,,
1732158958.630903,1732158958.633625,55.000000,0.000000,4363.333496,4311.794922,4321.410156,4290.384766,4262.179688,4262.563965,4335.897461,4405.128418,4282.179688,4298.461426,4508.077148,4518.717773,4383.974121,4475.897461,0.000000,1.000000,18.000000,,,,0.000000,2.000000,2.000000,0.000000,4.000000,2.000000,2.000000,0.000000,0.000000,4.000000,4.000000,4.000000,4.000000,4.000000,4.000000,0.000000,,,,,,,,,,,,,,,,,,,,,,,,,,,,
1732158958.638711,1732158958.641333,56.000000,0.000000,4364.743652,4316.922852,4316.153809,4297.307617,4264.487305,4265.256348,4335.897461,4403.589844,4282.948730,4303.717773,4505.769043,4516.153809,4384.102539,4476.025879,0.000000,1.000000,18.000000,,,,0.000000,2.000000,2.000000,0.000000,4.000000,2.000000,2.000000,0.000000,0.000000,4.000000,4.000000,4.000000,4.000000,4.000000,4.000000,0.000000,,,,,,,,,,,,,,,,,14.000000,0.000000,0.523398,0.495361,-0.531128,0.445618,0.973263,0.062996,-0.053229,-34.452988,46.133579,31.398487
1732158958.646520,1732158958.649142,57.000000,0.000000,4360.897461,4313.077148,4316.538574,4294.615234,4262.692383,4262.307617,4336.025879,4403.333496,4281.794922,4302.948730,4506.922852,4513.461426,4382.563965,4474.230957,0.000000,1.000000,18.000000,,,,0.000000,2.000000,2.000000,0.000000,4.000000,2.000000,2.000000,0.000000,0.000000,4.000000,4.000000,4.000000,4.000000,4.000000,4.000000,0.000000,,,,,,,,,,,,,,,,,,,,,,,,,,,,
1732158958.654328,1732158958.656750,58.000000,0.000000,4354.743652,4308.717773,4321.666504,4293.589844,4261.410156,4261.410156,4336.025879,4401.794922,4280.000000,4301.153809,4509.615234,4513.461426,4383.589844,4474.871582,0.000000,1.000000,18.000000,,,,0.000000,2.000000,2.000000,0.000000,4.000000,2.000000,2.000000,0.000000,0.000000,4.000000,4.000000,4.000000,4.000000,4.000000,4.000000,0.000000,,,,,,,,,,,,,,,,,,,,,,,,,,,,
1732158958.662136,1732158958.664558,59.000000,0.000000,4356.538574,4310.512695,4321.922852,4296.410156,4262.436035,4262.436035,4335.769043,4399.743652,4282.563965,4307.051270,4512.307617,4515.000000,4386.410156,4473.974121,0.000000,1.000000,18.000000,,,,0.000000,2.000000,2.000000,0.000000,4.000000,2.000000,2.000000,0.000000,0.000000,4.000000,4.000000,4.000000,4.000000,4.000000,4.000000,0.000000,,,,,,,,,,,,,,,,,,,,,,,,,,,,
1732158958.669944,1732158958.672466,60.000000,0.000000,4358.333496,4311.922852,4318.205078,4298.717773,4263.461426,4264.487305,4336.282227,4399.358887,4286.282227,4310.384766,4512.179688,4513.077148,4387.179688,4471.922852,0.000000,1.000000,18.000000,,,,0.000000,2.000000,2.000000,0.000000,4.000000,2.000000,2.000000,0.000000,0.000000,4.000000,4.000000,4.000000,4.000000,4.000000,4.000000,0.000000,,,,,,,,,,,,,,,,,15.000000,0.000000,0.522357,0.494080,-0.532166,0.447021,0.978147,0.059089,-0.059089,-34.461918,46.139866,31.512775
1732158958.677753,1732158958.680275,61.000000,0.000000,4356.666504,4311.794922,4318.077148,4299.743652,4264.615234,4265.384766,4336.025879,4401.153809,4282.563965,4301.794922,4513.589844,4511.025879,4385.769043,4472.948730,0.000000,1.000000,18.000000,,,,0.000000,2.000000,2.000000,0.000000,4.000000,2.000000,2.000000,0.000000,0.000000,4.000000,4.000000,4.000000,4.000000,4.000000,4.000000,0.000000,,,,,,,,,,,,,,,,,,,,,,,,,,,,
1732158958.685561,1732158958.687883,62.000000,0.000000,4358.846191,4312.436035,4318.205078,4302.179688,4265.641113,4265.000000,4334.487305,4401.922852,4280.128418,4296.538574,4518.077148,4512.948730,4385.769043,4474.871582,0.000000,1.000000,18.000000,,,,0.000000,2.000000,2.000000,0.000000,4.000000,2.000000,2.000000,0.000000,0.000000,4.000000,4.000000,4.000000,4.000000,4.000000,4.000000,0.000000,,,,,,,,,,,,,,,,,,,,,,,,,,,,
1732158958.693369,1732158958.695691,63.000000,0.000000,4355.128418,4312.051270,4317.436035,4300.128418,4266.025879,4264.487305,4333.205078,4402.436035,4292.051270,4304.102539,4515.769043,4516.666504,4385.512695,4473.846191,0.000000,1.000000,18.000000,,,,0.000000,2.000000,2.000000,0.000000,4.000000,2.000000,2.000000,0.000000,0.000000,4.000000,4.000000,4.000000,4.000000,4.000000,4.000000,0.000000,,,,,,,,,,,,,,,,,,,,,,,,,,,,
1732158958.701177,1732158958.703399,64.000000,0.000000,4350.128418,4307.820313,4317.692383,4295.000000,4266.153809,4264.102539,4334.871582,4400.000000,4297.179688,4304.743652,4509.102539,4511.538574,4382.692383,4468.461426,0.000000,1.000000,18.000000,,,,0.000000,2.000000,2.000000,0.000000,4.000000,2.000000,2.000000,0.000000,0.000000,4.000000,4.000000,4.000000,4.000000,4.000000,4.000000,0.000000,,,,,,,,,,,,,,,,,16.000000,0.000000,0.520279,0.491760,-0.534546,0.449158,0.969357,0.014650,-0.065438,-34.539154,46.051624,31.682014
1732158958.708986,1732158958.711208,65.000000,0.000000,4352.051270,4305.512695,4318.974121,4295.897461,4265.897461,4262.436035,4334.615234,4399.230957,4284.487305,4297.436035,4509.358887,4505.512695,4382.307617,4461.922852,1618.000000,1.000000,18.000000,,,,0.000000,2.000000,2.000000,0.000000,4.000000,2.000000,2.000000,0.000000,0.000000,4.000000,4.000000,4.000000,4.000000,4.000000,4.000000,0.000000,,,,,,,,,,,,,,,,,,,,,,,,,,,,
1732158958.716794,1732158958.719216,66.000000,0.000000,4352.436035,4304.102539,4318.333496,4297.820313,4266.025879,4261.025879,4331.410156,4400.897461,4276.922852,4301.922852,4512.563965,4506.282227,4383.974121,4460.512695,1359.000000,1.000000,18.000000,,,,0.000000,2.000000,2.000000,0.000000,4.000000,2.000000,2.000000,0.000000,0.000000,4.000000,4.000000,4.000000,4.000000,4.000000,4.000000,0.000000,,,,,,,,,,,,,,,,,,,,,,,,,,,,
1732158958.724602,1732158958.727024,67.000000,0.000000,4349.102539,4301.153809,4319.487305,4296.410156,4265.769043,4260.384766,4330.641113,4401.153809,4282.820313,4305.897461,4508.846191,4507.692383,4382.692383,4467.179688,1429.000000,1.000000,18.000000,,,,0.000000,2.000000,2.000000,0.000000,4.000000,2.000000,2.000000,0.000000,0.000000,4.000000,4.000000,4.000000,4.000000,4.000000,4.000000,0.000000,,,,,,,,,,,,,,,,,,,,,,,,,,,,
1732158958.732410,1732158958.734932,68.000000,0.000000,4349.487305,4301.282227,4321.025879,4297.692383,4264.487305,4261.666504,4333.333496,4401.794922,4289.871582,4301.153809,4504.615234,4506.153809,4380.256348,4468.846191,1432.000000,1.000000,18.000000,,,,0.000000,2.000000,2.000000,0.000000,4.000000,2.000000,2.000000,0.000000,0.000000,4.000000,4.000000,4.000000,4.000000,4.000000,4.000000,0.000000,,,,,,,,,,,,,,,,,17.000000,0.000000,0.518891,0.490356,-0.535950,0.450623,0.966915,0.025394,-0.069344,-34.638382,45.926815,31.657433
1732158958.740219,1732158958.742740,69.000000,0.000000,4349.230957,4304.358887,4320.384766,4301.666504,4265.769043,4264.230957,4336.153809,4405.000000,4293.461426,4301.282227,4503.846191,4506.410156,4379.230957,4463.077148,1197.000000,1.000000,18.000000,,,,0.000000,2.000000,2.000000,0.000000,4.000000,2.000000,2.000000,0.000000,0.000000,4.000000,4.000000,4.000000,4.000000,4.000000,4.000000,0.000000,,,,,,,,,,,,,,,,,,,,,,,,,,,,
1732158958.748027,1732158958.750349,70.000000,0.000000,4343.717773,4303.846191,4319.743652,4301.794922,4268.717773,4265.384766,4335.897461,4405.256348,4294.871582,4307.307617,4503.077148,4507.563965,4378.589844,4459.615234,0.000000,1.000000,18.000000,,,,0.000000,2.000000,2.000000,0.000000,4.000000,2.000000,2.000000,0.000000,0.000000,4.000000,4.000000,4.000000,4.000000,4.000000,4.000000,0.000000,,,,,,,,,,,,,,,,,,,,,,,,,,,,
1732158958.755835,1732158958.758157,71.000000,0.000000,4341.794922,4298.717773,4321.410156,4299.743652,4269.743652,4265.256348,4334.743652,4400.128418,4294.358887,4311.025879,4505.256348,4505.384766,4378.589844,4458.205078,0.000000,1.000000,18.000000,,,,0.000000,2.000000,2.000000,0.000000,4.000000,2.000000,2.000000,0.000000,0.000000,4.000000,4.000000,4.000000,4.000000,4.000000,4.000000,0.000000,,,,,,,,,,,,,,,,,,,,,,,,,,,,
1732158958.763643,1732158958.766065,72.000000,0.000000,4344.358887,4298.077148,4322.948730,4304.102539,4266.153809,4265.641113,4335.128418,4399.230957,4294.743652,4309.871582,4507.051270,4506.666504,4375.641113,4457.307617,1534.000000,1.000000,18.000000,,,,0.000000,2.000000,2.000000,0.000000,4.000000,2.000000,2.000000,0.000000,0.000000,4.000000,4.000000,4.000000,4.000000,4.000000,4.000000,0.000000,,,,,,,,,,,,,,,,,18.000000,0.000000,0.518176,0.489746,-0.536377,0.451599,0.961055,0.015139,-0.057136,-34.823757,45.744053,31.709187
1732158958.771452,1732158958.773873,73.000000,0.000000,4343.077148,4302.563965,4321.025879,4310.000000,4264.743652,4266.410156,4336.410156,4404.230957,4295.128418,4306.282227,4507.307617,4508.461426,4371.282227,4456.794922,1703.000000,1.000000,18.000000,,,,0.000000,2.000000,2.000000,0.000000,4.000000,2.000000,2.000000,0.000000,0.000000,4.000000,4.000000,4.000000,4.000000,4.000000,4.000000,0.000000,,,,,,,,,,,,,,,,,,,,,,,,,,,,
1732158958.779260,1732158958.781881,74.000000,0.000000,4341.153809,4306.282227,4318.461426,4309.743652,4272.179688,4265.128418,4335.897461,4404.487305,4294.230957,4308.846191,4505.897461,4507.179688,4371.922852,4455.769043,1564.000000,1.000000,18.000000,,,,0.000000,2.000000,2.000000,0.000000,4.000000,2.000000,2.000000,0.000000,0.000000,4.000000,4.000000,4.000000,4.000000,4.000000,4.000000,0.000000,,,,,,,,,,,,,,,,,,,,,,,,,,,,
1732158958.787068,1732158958.789689,75.000000,0.000000,4342.948730,4306.922852,4320.384766,4309.102539,4277.436035,4264.230957,4335.128418,4400.641113,4295.512695,4312.563965,4504.487305,4508.077148,4374.743652,4457.436035,1549.000000,1.000000,18.000000,,,,0.000000,2.000000,2.000000,0.000000,4.000000,2.000000,2.000000,0.000000,0.000000,4.000000,4.000000,4.000000,4.000000,4.000000,4.000000,0.000000,,,,,,,,,,,,,,,,,,,,,,,,,,,,
1732158958.794876,1732158958.797597,76.000000,0.000000,4340.897461,4304.871582,4322.179688,4311.153809,4275.897461,4264.358887,4334.615234,4400.128418,4294.358887,4304.615234,4504.615234,4505.000000,4371.666504,4459.615234,1708.000000,1.000000,18.000000,,,,0.000000,2.000000,2.000000,0.000000,4.000000,2.000000,2.000000,0.000000,0.000000,4.000000,4.000000,4.000000,4.000000,4.000000,4.000000,0.000000,,,,,,,,,,,,,,,,,19.000000,0.000000,0.515492,0.487732,-0.537598,0.455383,0.987914,0.018557,-0.064461,-34.972240,45.286018,31.682774
1732158958.802685,1732158958.805406,77.000000,0.000000,4334.615234,4301.794922,4318.717773,4310.000000,4275.897461,4264.743652,4333.461426,4401.025879,4291.666504,4299.487305,4503.846191,4496.282227,4365.384766,4450.897461,1549.000000,1.000000,18.000000,,,,0.000000,2.000000,2.000000,0.000000,4.000000,2.000000,2.000000,0.000000,0.000000,4.000000,4.000000,4.000000,4.000000,4.000000,4.000000,0.000000,,,,,,,,,,,,,,,,,,,,,,,,,,,,
1732158958.810493,1732158958.813414,78.000000,0.000000,4332.692383,4297.692383,4317.436035,4306.794922,4278.846191,4265.128418,4334.487305,4400.769043,4292.563965,4305.384766,4502.179688,4497.692383,4364.743652,4445.384766,1564.000000,1.000000,18.000000,,,,0.000000,2.000000,2.000000,0.000000,4.000000,2.000000,2.000000,0.000000,0.000000,4.000000,4.000000,4.000000,4.000000,4.000000,4.000000,0.000000,1.000000,0.000000,2.000000,2.000000,0.000000,4.000000,2.000000,2.000000,0.000000,0.000000,4.000000,4.000000,4.000000,4.000000,4.000000,4.000000,,,,,,,,,,,,
1732158958.818301,1732158958.821222,79.000000,0.000000,4334.743652,4298.205078,4320.128418,4305.769043,4279.102539,4264.743652,4335.512695,4399.743652,4295.384766,4309.615234,4504.358887,4508.589844,4370.000000,4456.153809,1549.000000,1.000000,18.000000,,,,0.000000,2.000000,2.000000,0.000000,4.000000,2.000000,2.000000,0.000000,0.000000,4.000000,4.000000,4.000000,4.000000,4.000000,4.000000,0.000000,,,,,,,,,,,,,,,,,,,,,,,,,,,,
1732158958.826109,1732158958.829130,80.000000,0.000000,4334.871582,4300.384766,4319.871582,4303.461426,4274.871582,4264.743652,4335.128418,4400.128418,4295.897461,4310.897461,4507.051270,4510.256348,4370.641113,4459.102539,1708.000000,1.000000,18.000000,,,,0.000000,2.000000,2.000000,0.000000,4.000000,2.000000,2.000000,0.000000,0.000000,4.000000,4.000000,4.000000,4.000000,4.000000,4.000000,0.000000,,,,,,,,,,,,,,,,,20.000000,0.000000,0.513927,0.487183,-0.537781,0.457520,0.988890,0.003907,-0.067391,-35.034184,45.165009,31.616381
1732158958.833918,1732158958.836938,81.000000,0.000000,4334.358887,4297.179688,4318.205078,4302.436035,4275.000000,4263.077148,4334.871582,4401.153809,4294.615234,4310.769043,4503.461426,4504.615234,4365.897461,4448.205078,1549.000000,1.000000,18.000000,,,,0.000000,2.000000,2.000000,0.000000,4.000000,2.000000,2.000000,0.000000,0.000000,4.000000,4.000000,4.000000,4.000000,4.000000,4.000000,0.000000,,,,,,,,,,,,,,,,,,,,,,,,,,,,
1732158958.841726,1732158958.844946,82.000000,0.000000,4334.487305,4295.769043,4321.025879,4306.025879,4280.256348,4268.333496,4334.102539,4401.666504,4295.769043,4305.000000,4500.641113,4503.205078,4365.769043,4443.974121,1564.000000,1.000000,18.000000,,,,0.000000,2.000000,2.000000,0.000000,4.000000,2.000000,2.000000,0.000000,0.000000,4.000000,4.000000,4.000000,4.000000,4.000000,4.000000,0.000000,,,,,,,,,,,,,,,,,,,,,,,,,,,,
1732158958.849534,1732158958.852754,83.000000,0.000000,4335.256348,4300.897461,4322.692383,4308.461426,4282.692383,4274.743652,4333.589844,4401.153809,4296.410156,4302.692383,4502.820313,4505.256348,4367.436035,4447.307617,1549.000000,1.000000,18.000000,,,,0.000000,2.000000,2.000000,0.000000,4.000000,2.000000,2.000000,0.000000,0.000000,4.000000,4.000000,4.000000,4.000000,4.000000,4.000000,0.000000,,,,,,,,,,,,,,,,,,,,,,,,,,,,
1732158958.857342,1732158958.860663,84.000000,0.000000,4335.897461,4301.794922,4320.512695,4308.205078,4278.333496,4272.820313,4335.128418,4401.410156,4296.794922,4308.333496,4505.128418,4505.897461,4366.538574,4447.563965,1708.000000,1.000000,18.000000,,,,0.000000,2.000000,2.000000,0.000000,4.000000,2.000000,2.000000,0.000000,0.000000,4.000000,4.000000,4.000000,4.000000,4.000000,4.000000,0.000000,,,,,,,,,,,,,,,,,21.000000,0.000000,0.512951,0.486938,-0.537842,0.458801,0.979123,-0.013185,-0.060066,-34.806023,45.070324,31.404268
1732158958.865151,1732158958.868471,85.000000,0.000000,4332.692383,4297.948730,4318.077148,4307.692383,4276.410156,4269.230957,4336.153809,4401.538574,4300.256348,4308.461426,4507.307617,4503.461426,4366.794922,4446.410156,1549.000000,1.000000,18.000000,,,,0.000000,2.000000,2.000000,0.000000,4.000000,2.000000,2.000000,0.000000,0.000000,4.000000,4.000000,4.000000,4.000000,4.000000,4.000000,0.000000,,,,,,,,,,,,,,,,,,,,,,,,,,,,
1732158958.872959,1732158958.876479,86.000000,0.000000,4327.563965,4295.641113,4320.256348,4304.871582,4277.563965,4271.794922,4335.384766,4400.769043,4302.820313,4302.820313,4501.922852,4501.538574,4365.512695,4445.769043,1564.000000,1.000000,18.000000,,,,0.000000,2.000000,2.000000,0.000000,4.000000,2.000000,2.000000,0.000000,0.000000,4.000000,4.000000,4.000000,4.000000,4.000000,4.000000,0.000000,,,,,,,,,,,,,,,,,,,,,,,,,,,,
1732158958.880767,1732158958.884287,87.000000,0.000000,4324.487305,4294.743652,4321.025879,4302.436035,4276.922852,4275.897461,4336.282227,4400.256348,4301.794922,4303.846191,4493.461426,4500.897461,4362.692383,4444.102539,1549.000000,1.000000,18.000000,,,,0.000000,2.000000,2.000000,0.000000,4.000000,2.000000,2.000000,0.000000,0.000000,4.000000,4.000000,4.000000,4.000000,4.000000,4.000000,0.000000,,,,,,,,,,,,,,,,,,,,,,,,,,,,
1732158958.888575,1732158958.892195,88.000000,0.000000,4322.820313,4294.487305,4319.358887,4301.410156,4280.256348,4271.282227,4336.153809,4400.769043,4301.153809,4306.922852,4498.333496,4500.769043,4364.871582,4443.333496,1708.000000,1.000000,18.000000,,,,0.000000,2.000000,2.000000,0.000000,4.000000,2.000000,2.000000,0.000000,0.000000,4.000000,4.000000,4.000000,4.000000,4.000000,4.000000,0.000000,,,,,,,,,,,,,,,,,22.000000,0.000000,0.510976,0.486023,-0.538147,0.461609,0.975217,-0.056648,-0.048834,-34.706211,44.916962,31.312458
1732158958.896384,1732158958.900003,89.000000,0.000000,4322.563965,4294.230957,4318.717773,4299.871582,4279.102539,4269.230957,4334.871582,4402.051270,4307.563965,4307.563965,4507.051270,4504.615234,4367.692383,4443.974121,1549.000000,1.000000,18.000000,,,,0.000000,2.000000,2.000000,0.000000,4.000000,2.000000,2.000000,0.000000,0.000000,4.000000,4.000000,4.000000,4.000000,4.000000,4.000000,0.000000,,,,,,,,,,,,,,,,,,,,,,,,,,,,
1732158958.904192,1732158958.907811,90.000000,0.000000,4325.512695,4295.256348,4319.615234,4299.230957,4273.333496,4276.538574,4334.871582,4402.563965,4310.256348,4310.128418,4503.461426,4508.333496,4366.794922,4444.871582,1564.000000,1.000000,18.000000,,,,0.000000,2.000000,2.000000,0.000000,4.000000,2.000000,2.000000,0.000000,0.000000,4.000000,4.000000,4.000000,4.000000,4.000000,4.000000,0.000000,,,,,,,,,,,,,,,,,,,,,,,,,,,,
1732158958.912000,1732158958.915620,91.000000,0.000000,4326.666504,4294.743652,4319.358887,4299.871582,4289.102539,4281.282227,4334.358887,4402.307617,4301.922852,4307.436035,4496.794922,4501.025879,4365.769043,4443.461426,1549.000000,1.000000,18.000000,,,,0.000000,2.000000,2.000000,0.000000,4.000000,2.000000,2.000000,0.000000,0.000000,4.000000,4.000000,4.000000,4.000000,4.000000,4.000000,0.000000,,,,,,,,,,,,,,,,,,,,,,,,,,,,
1732158958.919809,1732158958.923328,92.000000,0.000000,4323.333496,4292.692383,4318.974121,4302.563965,4299.230957,4278.974121,4334.102539,4400.769043,4292.051270,4297.307617,4493.717773,4494.871582,4365.641113,4441.538574,1708.000000,1.000000,18.000000,,,,0.000000,2.000000,2.000000,0.000000,4.000000,2.000000,2.000000,0.000000,0.000000,4.000000,4.000000,4.000000,4.000000,4.000000,4.000000,0.000000,,,,,,,,,,,,,,,,,23.000000,0.000000,0.507699,0.483032,-0.539307,0.466980,0.970333,-0.049322,-0.045416,-34.758698,44.792740,31.404757
1732158958.927617,1732158958.931136,93.000000,0.000000,4323.974121,4294.358887,4318.589844,4308.333496,4277.820313,4278.589844,4334.871582,4399.487305,4296.410156,4295.641113,4494.743652,4498.333496,4364.615234,4441.922852,1549.000000,1.000000,18.000000,,,,0.000000,2.000000,2.000000,0.000000,4.000000,2.000000,2.000000,0.000000,0.000000,4.000000,4.000000,4.000000,4.000000,4.000000,4.000000,0.000000,,,,,,,,,,,,,,,,,,,,,,,,,,,,
1732158958.935425,1732158958.938745,94.000000,0.000000,4324.358887,4298.077148,4318.205078,4310.128418,4265.256348,4282.948730,4335.384766,4398.589844,4308.846191,4306.025879,4502.307617,4503.333496,4365.256348,4443.333496,1564.000000,1.000000,18.000000,,,,0.000000,2.000000,2.000000,0.000000,4.000000,2.000000,2.000000,0.000000,0.000000,4.000000,4.000000,4.000000,4.000000,4.000000,4.000000,0.000000,,,,,,,,,,,,,,,,,,,,,,,,,,,,
1732158958.943233,1732158958.946553,95.000000,0.000000,4320.128418,4295.256348,4321.794922,4305.256348,4278.846191,4279.487305,4334.615234,4399.102539,4306.025879,4306.666504,4505.897461,4502.179688,4366.538574,4443.589844,1549.000000,1.000000,18.000000,,,,0.000000,2.000000,2.000000,0.000000,4.000000,2.000000,2.000000,0.000000,0.000000,4.000000,4.000000,4.000000,4.000000,4.000000,4.000000,0.000000,,,,,,,,,,,,,,,,,,,,,,,,,,,,
1732158958.951042,1732158958.954261,96.000000,0.000000,4320.641113,4292.563965,4320.641113,4304.615234,4282.948730,4277.179688,4334.743652,4399.871582,4297.436035,4295.897461,4502.948730,4498.461426,4365.769043,4443.974121,1708.000000,1.000000,18.000000,,,,0.000000,2.000000,2.000000,0.000000,4.000000,2.000000,2.000000,0.000000,0.000000,4.000000,4.000000,4.000000,4.000000,4.000000,4.000000,0.000000,,,,,,,,,,,,,,,,,24.000000,0.000000,0.506295,0.480835,-0.539673,0.470337,0.982542,-0.058601,-0.041509,-35.076210,44.820450,31.492853
1732158958.958850,1732158958.962069,97.000000,0.000000,4323.077148,4296.922852,4317.563965,4307.820313,4276.282227,4279.615234,4335.000000,4400.256348,4302.307617,4295.128418,4503.974121,4499.102539,4364.615234,4444.230957,1549.000000,1.000000,18.000000,,,,0.000000,2.000000,2.000000,0.000000,4.000000,2.000000,2.000000,0.000000,0.000000,4.000000,4.000000,4.000000,4.000000,4.000000,4.000000,0.000000,,,,,,,,,,,,,,,,,,,,,,,,,,,,
1732158958.966658,1732158958.969678,98.000000,0.000000,4319.102539,4297.948730,4317.563965,4307.436035,4279.871582,4281.025879,4333.974121,4400.256348,4311.282227,4304.871582,4505.384766,4500.769043,4365.128418,4443.717773,1564.000000,1.000000,18.000000,,,,0.000000,2.000000,2.000000,0.000000,4.000000,2.000000,2.000000,0.000000,0.000000,4.000000,4.000000,4.000000,4.000000,4.000000,4.000000,0.000000,,,,,,,,,,,,,,,,,,,,,,,,,,,,
1732158958.974466,1732158958.977486,99.000000,0.000000,4317.692383,4292.692383,4319.871582,4305.000000,4282.307617,4279.102539,4333.205078,4401.410156,4310.256348,4305.897461,4503.077148,4502.436035,4363.717773,4442.563965,1549.000000,1.000000,18.000000,,,,0.000000,2.000000,2.000000,0.000000,4.000000,2.000000,2.000000,0.000000,0.000000,4.000000,4.000000,4.000000,4.000000,4.000000,4.000000,0.000000,,,,,,,,,,,,,,,,,,,,,,,,,,,,
1732158958.982274,1732158958.985194,100.000000,0.000000,4321.282227,4290.897461,4320.384766,4303.974121,4280.769043,4278.717773,4334.230957,4402.307617,4307.179688,4298.077148,4501.538574,4501.153809,4362.179688,4440.384766,1708.000000,1.000000,18.000000,,,,0.000000,2.000000,2.000000,0.000000,4.000000,2.000000,2.000000,0.000000,0.000000,4.000000,4.000000,4.000000,4.000000,4.000000,4.000000,0.000000,,,,,,,,,,,,,,,,,25.000000,0.000000,0.506043,0.479919,-0.539978,0.471191,0.982542,-0.058601,-0.041509,-34.903397,44.632900,31.240877
1732158958.990083,1732158958.993002,101.000000,0.000000,4316.922852,4293.077148,4320.384766,4303.205078,4280.512695,4279.102539,4336.153809,4401.282227,4310.128418,4300.000000,4502.307617,4500.000000,4364.487305,4440.384766,1549.000000,1.000000,18.000000,,,,0.000000,2.000000,2.000000,0.000000,4.000000,2.000000,2.000000,0.000000,0.000000,4.000000,4.000000,4.000000,4.000000,4.000000,4.000000,0.000000,,,,,,,,,,,,,,,,,,,,,,,,,,,,
1732158958.997891,1732158959.000611,102.000000,0.000000,4311.410156,4294.358887,4320.128418,4304.230957,4277.820313,4277.948730,4336.153809,4400.769043,4312.820313,4308.461426,4506.538574,4497.948730,4368.077148,4441.282227,1564.000000,1.000000,18.000000,,,,0.000000,2.000000,2.000000,0.000000,4.000000,2.000000,2.000000,0.000000,0.000000,4.000000,4.000000,4.000000,4.000000,4.000000,4.000000,0.000000,,,,,,,,,,,,,,,,,,,,,,,,,,,,
1732158959.005699,1732158959.008419,103.000000,0.000000,4313.077148,4290.641113,4319.743652,4305.256348,4281.153809,4278.717773,4334.358887,4401.666504,4310.769043,4305.641113,4503.717773,4493.717773,4364.615234,4435.000000,1549.000000,1.000000,18.000000,,,,0.000000,2.000000,2.000000,0.000000,4.000000,2.000000,2.000000,0.000000,0.000000,4.000000,4.000000,4.000000,4.000000,4.000000,4.000000,0.000000,,,,,,,,,,,,,,,,,,,,,,,,,,,,
1732158959.013507,1732158959.016327,104.000000,0.000000,4312.051270,4286.410156,4318.846191,4302.563965,4285.641113,4280.512695,4334.230957,4400.256348,4306.794922,4296.025879,4493.077148,4491.410156,4358.589844,4427.820313,1708.000000,1.000000,18.000000,,,,0.000000,2.000000,2.000000,0.000000,4.000000,2.000000,2.000000,0.000000,0.000000,4.000000,4.000000,4.000000,4.000000,4.000000,4.000000,0.000000,,,,,,,,,,,,,,,,,26.000000,0.000000,0.505404,0.476440,-0.541199,0.473999,1.003541,-0.056648,-0.019534,-35.121754,44.699314,31.338444
1732158959.021316,1732158959.024135,105.000000,0.000000,4309.358887,4285.000000,4319.230957,4302.307617,4282.563965,4282.307617,4335.128418,4399.743652,4308.461426,4293.461426,4494.871582,4492.820313,4360.384766,4434.487305,1549.000000,1.000000,18.000000,,,,0.000000,2.000000,2.000000,0.000000,4.000000,2.000000,2.000000,0.000000,0.000000,4.000000,4.000000,4.000000,4.000000,4.000000,4.000000,0.000000,,,,,,,,,,,,,,,,,,,,,,,,,,,,
1732158959.029124,1732158959.031744,106.000000,0.000000,4312.051270,4285.512695,4320.128418,4304.615234,4288.717773,4282.051270,4335.512695,4401.282227,4312.307617,4299.743652,4505.384766,4494.487305,4365.769043,4443.717773,1564.000000,1.000000,18.000000,,,,0.000000,2.000000,2.000000,0.000000,4.000000,2.000000,2.000000,0.000000,0.000000,4.000000,4.000000,4.000000,4.000000,4.000000,4.000000,0.000000,,,,,,,,,,,,,,,,,,,,,,,,,,,,
1732158959.036932,1732158959.039552,107.000000,0.000000,4314.487305,4285.512695,4318.589844,4303.077148,4300.897461,4278.205078,4334.743652,4402.563965,4311.538574,4303.717773,4506.282227,4495.769043,4367.563965,4442.820313,1549.000000,1.000000,18.000000,,,,0.000000,2.000000,2.000000,0.000000,4.000000,2.000000,2.000000,0.000000,0.000000,4.000000,4.000000,4.000000,4.000000,4.000000,4.000000,0.000000,,,,,,,,,,,,,,,,,,,,,,,,,,,,
1732158959.044741,1732158959.047260,108.000000,0.000000,4311.538574,4282.820313,4318.205078,4299.102539,4296.538574,4276.410156,4334.743652,4402.051270,4309.743652,4301.025879,4504.871582,4500.641113,4369.358887,4439.871582,1708.000000,1.000000,18.000000,,,,0.000000,2.000000,2.000000,0.000000,4.000000,2.000000,2.000000,0.000000,0.000000,4.000000,4.000000,4.000000,4.000000,4.000000,4.000000,0.000000,,,,,,,,,,,,,,,,,27.000000,0.000000,0.505376,0.474915,-0.541870,0.474792,0.999145,-0.054206,-0.027347,-35.365288,44.636444,31.400806
1732158959.052549,1732158959.055069,109.000000,0.000000,4308.846191,4281.282227,4320.897461,4299.871582,4279.743652,4278.717773,4335.000000,4405.256348,4309.615234,4299.871582,4507.436035,4501.153809,4369.871582,4438.461426,1549.000000,1.000000,18.000000,,,,0.000000,2.000000,2.000000,0.000000,4.000000,2.000000,2.000000,0.000000,0.000000,4.000000,4.000000,4.000000,4.000000,4.000000,4.000000,0.000000,,,,,,,,,,,,,,,,,,,,,,,,,,,,
1732158959.060357,1732158959.062677,110.000000,0.000000,4309.487305,4282.051270,4320.769043,4305.000000,4268.589844,4278.846191,4334.230957,4408.461426,4312.051270,4301.794922,4506.794922,4501.410156,4367.692383,4435.512695,1564.000000,1.000000,18.000000,,,,0.000000,2.000000,2.000000,0.000000,4.000000,2.000000,2.000000,0.000000,0.000000,4.000000,4.000000,4.000000,4.000000,4.000000,4.000000,0.000000,,,,,,,,,,,,,,,,,,,,,,,,,,,,
1732158959.068165,1732158959.070485,111.000000,0.000000,4308.974121,4282.563965,4318.589844,4308.717773,4268.205078,4278.461426,4333.461426,4404.871582,4310.256348,4302.307617,4505.897461,4507.820313,4369.230957,4435.000000,1549.000000,1.000000,18.000000,,,,0.000000,2.000000,2.000000,0.000000,4.000000,2.000000,2.000000,0.000000,0.000000,4.000000,4.000000,4.000000,4.000000,4.000000,4.000000,0.000000,,,,,,,,,,,,,,,,,,,,,,,,,,,,
1732158959.075974,1732158959.078193,112.000000,0.000000,4306.153809,4281.025879,4318.846191,4304.358887,4276.025879,4279.743652,4333.589844,4399.230957,4299.615234,4298.333496,4506.025879,4507.179688,4370.641113,4436.666504,1708.000000,1.000000,18.000000,,,,0.000000,2.000000,2.000000,0.000000,4.000000,2.000000,2.000000,0.000000,0.000000,4.000000,4.000000,4.000000,4.000000,4.000000,4.000000,0.000000,,,,,,,,,,,,,,,,,28.000000,0.000000,0.505351,0.474304,-0.542053,0.475220,0.973752,-0.051764,-0.031742,-35.342548,44.493855,31.339653
1732158959.083782,1732158959.086002,113.000000,0.000000,4307.051270,4280.769043,4318.461426,4302.948730,4280.641113,4280.897461,4334.487305,4401.666504,4299.743652,4297.692383,4504.230957,4500.769043,4365.384766,4432.307617,1549.000000,1.000000,18.000000,,,,0.000000,2.000000,2.000000,0.000000,4.000000,2.000000,2.000000,0.000000,0.000000,4.000000,4.000000,4.000000,4.000000,4.000000,4.000000,0.000000,,,,,,,,,,,,,,,,,,,,,,,,,,,,
1732158959.091590,1732158959.094010,114.000000,0.000000,4310.000000,4282.179688,4317.179688,4310.897461,4279.871582,4282.436035,4335.769043,4406.538574,4309.871582,4305.256348,4504.743652,4501.025879,4363.974121,4428.077148,1564.000000,1.000000,18.000000,,,,0.000000,2.000000,2.000000,0.000000,4.000000,2.000000,2.000000,0.000000,0.000000,4.000000,4.000000,4.000000,4.000000,4.000000,4.000000,0.000000,,,,,,,,,,,,,,,,,,,,,,,,,,,,
1732158959.099398,1732158959.101818,115.000000,0.000000,4305.128418,4281.538574,4317.436035,4313.205078,4286.025879,4282.820313,4335.128418,4403.974121,4308.077148,4305.641113,4503.717773,4500.641113,4367.820313,4428.205078,1549.000000,1.000000,18.000000,,,,0.000000,2.000000,2.000000,0.000000,4.000000,2.000000,2.000000,0.000000,0.000000,4.000000,4.000000,4.000000,4.000000,4.000000,4.000000,0.000000,,,,,,,,,,,,,,,,,,,,,,,,,,,,
1732158959.107207,1732158959.109726,116.000000,0.000000,4298.333496,4280.128418,4317.820313,4305.641113,4289.871582,4281.410156,4334.102539,4401.922852,4303.974121,4297.436035,4502.307617,4496.410156,4366.538574,4427.820313,1708.000000,1.000000,18.000000,,,,0.000000,2.000000,2.000000,0.000000,4.000000,2.000000,2.000000,0.000000,0.000000,4.000000,4.000000,4.000000,4.000000,4.000000,4.000000,0.000000,,,,,,,,,,,,,,,,,29.000000,0.000000,0.505259,0.473511,-0.542297,0.475830,0.991332,-0.050787,-0.019534,-35.562466,44.748356,31.275120
1732158959.115015,1732158959.117534,117.000000,0.000000,4299.871582,4282.563965,4316.794922,4305.256348,4280.641113,4280.769043,4335.000000,4404.615234,4309.615234,4303.077148,4504.871582,4497.051270,4364.871582,4428.589844,1549.000000,1.000000,18.000000,,,,0.000000,2.000000,2.000000,0.000000,4.000000,2.000000,2.000000,0.000000,0.000000,4.000000,4.000000,4.000000,4.000000,4.000000,4.000000,0.000000,,,,,,,,,,,,,,,,,,,,,,,,,,,,
1732158959.122823,1732158959.125542,118.000000,0.000000,4306.666504,4287.179688,4317.820313,4311.922852,4279.871582,4281.410156,4334.487305,4405.897461,4313.974121,4312.948730,4505.641113,4501.282227,4366.922852,4430.384766,1564.000000,1.000000,18.000000,,,,0.000000,2.000000,2.000000,0.000000,4.000000,2.000000,2.000000,0.000000,0.000000,4.000000,4.000000,4.000000,4.000000,4.000000,4.000000,0.000000,,,,,,,,,,,,,,,,,,,,,,,,,,,,
1732158959.130631,1732158959.133350,119.000000,0.000000,4308.846191,4291.025879,4317.948730,4315.000000,4289.102539,4280.897461,4332.436035,4405.128418,4312.948730,4303.077148,4504.358887,4498.846191,4367.563965,4428.974121,1549.000000,1.000000,18.000000,,,,0.000000,2.000000,2.000000,0.000000,4.000000,2.000000,2.000000,0.000000,0.000000,4.000000,4.000000,4.000000,4.000000,4.000000,4.000000,0.000000,,,,,,,,,,,,,,,,,,,,,,,,,,,,
1732158959.138440,1732158959.141259,120.000000,0.000000,4304.487305,4290.256348,4318.205078,4315.128418,4285.641113,4281.794922,4334.230957,4408.077148,4307.820313,4293.205078,4504.230957,4493.846191,4366.025879,4429.230957,1708.000000,1.000000,18.000000,,,,0.000000,2.000000,2.000000,0.000000,4.000000,2.000000,2.000000,0.000000,0.000000,4.000000,4.000000,4.000000,4.000000,4.000000,4.000000,0.000000,,,,,,,,,,,,,,,,,30.000000,0.000000,0.505322,0.472961,-0.542236,0.476379,0.992797,-0.039067,-0.032230,-35.550594,44.731167,31.307846
1732158959.146248,1732158959.149067,121.000000,0.000000,4299.230957,4284.230957,4321.153809,4314.743652,4283.077148,4285.769043,4334.743652,4406.666504,4298.717773,4295.512695,4497.948730,4491.153809,4362.307617,4429.743652,1549.000000,1.000000,18.000000,,,,0.000000,2.000000,2.000000,0.000000,4.000000,2.000000,2.000000,0.000000,0.000000,4.000000,4.000000,4.000000,4.000000,4.000000,4.000000,0.000000,,,,,,,,,,,,,,,,,,,,,,,,,,,,
1732158959.154056,1732158959.156675,122.000000,0.000000,4297.307617,4279.487305,4322.179688,4311.153809,4301.410156,4286.538574,4332.307617,4402.820313,4298.205078,4293.461426,4488.846191,4484.871582,4355.256348,4423.333496,1564.000000,1.000000,18.000000,,,,0.000000,2.000000,2.000000,0.000000,4.000000,2.000000,2.000000,0.000000,0.000000,4.000000,4.000000,4.000000,4.000000,4.000000,4.000000,0.000000,,,,,,,,,,,,,,,,,,,,,,,,,,,,
1732158959.161864,1732158959.164483,123.000000,0.000000,4297.820313,4280.256348,4317.563965,4309.615234,4304.102539,4290.128418,4333.974121,4405.512695,4307.692383,4291.153809,4488.717773,4486.282227,4353.333496,4421.282227,1549.000000,1.000000,18.000000,,,,0.000000,2.000000,2.000000,0.000000,4.000000,2.000000,2.000000,0.000000,0.000000,4.000000,4.000000,4.000000,4.000000,4.000000,4.000000,0.000000,,,,,,,,,,,,,,,,,,,,,,,,,,,,
1732158959.169673,1732158959.172391,124.000000,0.000000,4298.333496,4281.922852,4315.256348,4314.102539,4279.615234,4295.897461,4335.769043,4405.000000,4311.282227,4295.384766,4493.589844,4493.974121,4363.717773,4426.666504,1708.000000,1.000000,18.000000,,,,0.000000,2.000000,2.000000,0.000000,4.000000,2.000000,2.000000,0.000000,0.000000,4.000000,4.000000,4.000000,4.000000,4.000000,4.000000,0.000000,,,,,,,,,,,,,,,,,31.000000,0.000000,0.505403,0.472961,-0.542053,0.476501,0.990355,-0.036626,-0.029300,-35.389317,44.770580,31.356022
1732158959.177481,1732158959.180200,125.000000,0.000000,4298.205078,4282.307617,4319.615234,4315.769043,4271.922852,4289.487305,4333.589844,4400.512695,4308.717773,4297.948730,4497.436035,4492.179688,4370.897461,4426.922852,1549.000000,1.000000,18.000000,,,,0.000000,2.000000,2.000000,0.000000,4.000000,2.000000,2.000000,0.000000,0.000000,4.000000,4.000000,4.000000,4.000000,4.000000,4.000000,0.000000,,,,,,,,,,,,,,,,,,,,,,,,,,,,
1732158959.185289,1732158959.188208,126.000000,0.000000,4297.179688,4281.666504,4317.692383,4311.922852,4282.436035,4278.461426,4332.948730,4402.307617,4309.487305,4298.205078,4502.692383,4489.487305,4367.051270,4425.641113,1564.000000,1.000000,18.000000,,,,0.000000,2.000000,2.000000,0.000000,4.000000,2.000000,2.000000,0.000000,0.000000,4.000000,4.000000,4.000000,4.000000,4.000000,4.000000,0.000000,,,,,,,,,,,,,,,,,,,,,,,,,,,,
1732158959.193097,1732158959.196016,127.000000,0.000000,4295.512695,4281.025879,4312.436035,4308.717773,4283.589844,4279.743652,4335.256348,4407.820313,4312.051270,4299.358887,4506.153809,4500.128418,4366.025879,4429.487305,18.000000,1.000000,18.000000,,,,0.000000,2.000000,2.000000,0.000000,4.000000,2.000000,2.000000,0.000000,0.000000,4.000000,4.000000,4.000000,4.000000,4.000000,4.000000,0.000000,,,,,,,,,,,,,,,,,,,,,,,,,,,,
1732158959.200906,1732158959.203924,0.000000,0.000000,4293.717773,4282.179688,4314.358887,4310.256348,4281.025879,4283.333496,4335.256348,4404.743652,4313.205078,4301.282227,4504.743652,4502.563965,4367.692383,4431.025879,0.000000,1.000000,18.000000,,,,0.000000,2.000000,2.000000,0.000000,4.000000,2.000000,2.000000,0.000000,0.000000,4.000000,4.000000,4.000000,4.000000,4.000000,4.000000,0.000000,,,,,,,,,,,,,,,,,0.000000,0.000000,0.505370,0.473145,-0.541870,0.476563,0.983030,-0.044927,-0.027347,-35.283680,44.940834,31.256712
1732158959.208714,1732158959.211732,1.000000,0.000000,4294.102539,4286.282227,4319.102539,4311.794922,4279.615234,4281.794922,4333.846191,4400.512695,4311.025879,4300.641113,4505.256348,4489.358887,4366.794922,4429.102539,1619.000000,1.000000,18.000000,,,,0.000000,2.000000,2.000000,0.000000,4.000000,2.000000,2.000000,0.000000,0.000000,4.000000,4.000000,4.000000,4.000000,4.000000,4.000000,0.000000,,,,,,,,,,,,,,,,,,,,,,,,,,,,
1732158959.216522,1732158959.219740,2.000000,0.000000,4297.307617,4287.563965,4318.589844,4310.512695,4292.563965,4287.307617,4333.589844,4403.333496,4308.717773,4295.897461,4502.179688,4489.358887,4368.333496,4430.000000,1359.000000,1.000000,18.000000,,,,0.000000,2.000000,2.000000,0.000000,4.000000,2.000000,2.000000,0.000000,0.000000,4.000000,4.000000,4.000000,4.000000,4.000000,4.000000,0.000000,,,,,,,,,,,,,,,,,,,,,,,,,,,,
1732158959.224330,1732158959.227548,3.000000,0.000000,4298.205078,4286.025879,4316.153809,4310.512695,4305.897461,4294.615234,4334.743652,4406.025879,4308.333496,4294.358887,4498.205078,4499.358887,4369.487305,4430.512695,1432.000000,1.000000,18.000000,,,,0.000000,2.000000,2.000000,0.000000,4.000000,2.000000,2.000000,0.000000,0.000000,4.000000,4.000000,4.000000,4.000000,4.000000,4.000000,0.000000,,,,,,,,,,,,,,,,,,,,,,,,,,,,
1732158959.232139,1732158959.235457,4.000000,0.000000,4299.230957,4286.666504,4315.512695,4313.333496,4289.743652,4296.794922,4335.512695,4404.102539,4310.897461,4297.436035,4500.641113,4497.436035,4367.692383,4429.102539,1441.000000,1.000000,18.000000,,,,0.000000,2.000000,2.000000,0.000000,4.000000,2.000000,2.000000,0.000000,0.000000,4.000000,4.000000,4.000000,4.000000,4.000000,4.000000,0.000000,,,,,,,,,,,,,,,,,1.000000,0.000000,0.505314,0.473694,-0.541443,0.476563,0.984495,-0.034184,-0.031742,-35.509781,44.890411,31.281269
1732158959.239947,1732158959.243265,5.000000,0.000000,4300.128418,4286.025879,4315.512695,4314.102539,4272.179688,4293.333496,4334.230957,4403.846191,4313.974121,4298.846191,4503.846191,4493.846191,4366.538574,4429.230957,1197.000000,1.000000,18.000000,,,,0.000000,2.000000,2.000000,0.000000,4.000000,2.000000,2.000000,0.000000,0.000000,4.000000,4.000000,4.000000,4.000000,4.000000,4.000000,0.000000,,,,,,,,,,,,,,,,,,,,,,,,,,,,
1732158959.247755,1732158959.251273,6.000000,0.000000,4299.615234,4284.487305,4316.025879,4313.846191,4279.615234,4284.743652,4333.589844,4404.871582,4313.717773,4297.179688,4504.743652,4496.922852,4367.948730,4431.794922,0.000000,1.000000,18.000000,,,,0.000000,2.000000,2.000000,0.000000,4.000000,2.000000,2.000000,0.000000,0.000000,4.000000,4.000000,4.000000,4.000000,4.000000,4.000000,0.000000,,,,,,,,,,,,,,,,,,,,,,,,,,,,
1732158959.255563,1732158959.259081,7.000000,0.000000,4297.307617,4283.461426,4317.179688,4314.358887,4282.948730,4280.512695,4334.487305,4406.153809,4313.333496,4296.666504,4502.179688,4499.871582,4368.717773,4430.897461,0.000000,1.000000,18.000000,,,,0.000000,2.000000,2.000000,0.000000,4.000000,2.000000,2.000000,0.000000,0.000000,4.000000,4.000000,4.000000,4.000000,4.000000,4.000000,0.000000,,,,,,,,,,,,,,,,,,,,,,,,,,,,
1732158959.263372,1732158959.266989,8.000000,0.000000,4295.000000,4282.051270,4317.179688,4311.794922,4278.461426,4281.282227,4335.769043,4410.641113,4312.948730,4295.769043,4495.769043,4498.717773,4367.179688,4426.025879,1534.000000,1.000000,18.000000,,,,0.000000,2.000000,2.000000,0.000000,4.000000,2.000000,2.000000,0.000000,0.000000,4.000000,4.000000,4.000000,4.000000,4.000000,4.000000,0.000000,,,,,,,,,,,,,,,,,2.000000,0.000000,0.505330,0.474365,-0.540894,0.476501,0.966427,-0.035649,-0.024417,-35.671257,44.879566,31.229494
1732158959.271180,1732158959.274797,9.000000,0.000000,4298.717773,4284.230957,4317.563965,4311.794922,4281.666504,4281.922852,4336.025879,4409.871582,4312.307617,4294.615234,4493.333496,4494.230957,4365.512695,4428.077148,1703.000000,1.000000,18.000000,,,,0.000000,2.000000,2.000000,0.000000,4.000000,2.000000,2.000000,0.000000,0.000000,4.000000,4.000000,4.000000,4.000000,4.000000,4.000000,0.000000,,,,,,,,,,,,,,,,,,,,,,,,,,,,
1732158959.278988,1732158959.282705,10.000000,0.000000,4305.384766,4288.717773,4317.563965,4316.153809,4278.589844,4282.051270,4335.512695,4400.256348,4312.820313,4296.666504,4497.051270,4490.897461,4366.282227,4432.563965,1566.000000,1.000000,18.000000,,,,0.000000,2.000000,2.000000,0.000000,4.000000,2.000000,2.000000,0.000000,0.000000,4.000000,4.000000,4.000000,4.000000,4.000000,4.000000,0.000000,,,,,,,,,,,,,,,,,,,,,,,,,,,,
1732158959.286796,1732158959.290514,11.000000,0.000000,4300.641113,4287.563965,4318.589844,4313.205078,4285.641113,4280.128418,4335.641113,4399.102539,4310.897461,4297.051270,4495.256348,4490.769043,4365.897461,4429.358887,1549.000000,1.000000,18.000000,,,,0.000000,2.000000,2.000000,0.000000,4.000000,2.000000,2.000000,0.000000,0.000000,4.000000,4.000000,4.000000,4.000000,4.000000,4.000000,0.000000,,,,,,,,,,,,,,,,,,,,,,,,,,,,
1732158959.294605,1732158959.298222,12.000000,0.000000,4291.538574,4279.743652,4317.948730,4307.179688,4300.641113,4280.256348,4336.410156,4404.102539,4309.230957,4294.102539,4490.512695,4487.563965,4364.871582,4425.128418,1708.000000,1.000000,18.000000,,,,0.000000,2.000000,2.000000,0.000000,4.000000,2.000000,2.000000,0.000000,0.000000,4.000000,4.000000,4.000000,4.000000,4.000000,4.000000,0.000000,,,,,,,,,,,,,,,,,3.000000,0.000000,0.505322,0.474426,-0.540955,0.476379,0.966427,-0.035649,-0.024417,-35.702049,44.965782,31.470890
1732158959.302413,1732158959.306030,13.000000,0.000000,4293.461426,4279.102539,4316.025879,4309.102539,4289.358887,4290.128418,4334.871582,4405.384766,4316.538574,4296.794922,4492.563965,4480.000000,4366.410156,4426.153809,1558.000000,1.000000,18.000000,,,,0.000000,2.000000,2.000000,0.000000,4.000000,2.000000,2.000000,0.000000,0.000000,4.000000,4.000000,4.000000,4.000000,4.000000,4.000000,0.000000,,,,,,,,,,,,,,,,,,,,,,,,,,,,
1732158959.310221,1732158959.314038,14.000000,0.000000,4297.820313,4284.102539,4318.589844,4313.717773,4272.179688,4296.794922,4333.974121,4405.256348,4323.077148,4301.410156,4493.589844,4482.692383,4362.820313,4428.333496,1566.000000,1.000000,18.000000,,,,0.000000,2.000000,2.000000,0.000000,4.000000,2.000000,2.000000,0.000000,0.000000,4.000000,4.000000,4.000000,4.000000,4.000000,4.000000,0.000000,1.000000,0.000000,2.000000,2.000000,0.000000,4.000000,2.000000,2.000000,0.000000,0.000000,4.000000,3.000000,4.000000,4.000000,3.000000,3.000000,,,,,,,,,,,,
1732158959.318030,1732158959.321846,15.000000,0.000000,4297.563965,4285.512695,4319.871582,4315.512695,4277.051270,4293.333496,4335.641113,4404.102539,4314.487305,4298.461426,4491.538574,4492.563965,4356.922852,4429.487305,1549.000000,1.000000,18.000000,,,,0.000000,2.000000,2.000000,0.000000,4.000000,2.000000,2.000000,0.000000,0.000000,4.000000,4.000000,4.000000,4.000000,4.000000,4.000000,0.000000,,,,,,,,,,,,,,,,,,,,,,,,,,,,
1732158959.325838,1732158959.329555,16.000000,0.000000,4294.871582,4281.282227,4319.102539,4313.333496,4285.384766,4292.179688,4335.384766,4405.641113,4308.717773,4295.128418,4490.512695,4491.153809,4358.717773,4426.025879,0.000000,1.000000,18.000000,,,,0.000000,2.000000,2.000000,0.000000,4.000000,2.000000,2.000000,0.000000,0.000000,4.000000,4.000000,4.000000,4.000000,4.000000,4.000000,0.000000,,,,,,,,,,,,,,,,,4.000000,0.000000,0.505330,0.474548,-0.540894,0.476318,0.982053,-0.024905,-0.033207,-35.693661,44.893951,31.516422
1732158959.333646,1732158959.337363,17.000000,0.000000,4291.282227,4277.436035,4318.077148,4310.128418,4281.538574,4293.333496,4332.820313,4406.282227,4314.743652,4298.974121,4490.384766,4476.666504,4361.410156,4420.128418,0.000000,1.000000,18.000000,,,,0.000000,2.000000,2.000000,0.000000,4.000000,2.000000,2.000000,0.000000,0.000000,4.000000,4.000000,4.000000,4.000000,4.000000,4.000000,0.000000,,,,,,,,,,,,,,,,,,,,,,,,,,,,
1732158959.341454,1732158959.345371,18.000000,0.000000,4291.794922,4280.256348,4319.487305,4310.769043,4278.333496,4293.589844,4334.230957,4400.256348,4318.717773,4306.282227,4490.128418,4475.128418,4360.128418,4421.025879,0.000000,1.000000,18.000000,,,,0.000000,2.000000,2.000000,0.000000,4.000000,2.000000,2.000000,0.000000,0.000000,4.000000,4.000000,4.000000,4.000000,4.000000,4.000000,0.000000,,,,,,,,,,,,,,,,,,,,,,,,,,,,
1732158959.349263,1732158959.353179,19.000000,0.000000,4293.974121,4281.538574,4318.333496,4312.307617,4288.461426,4296.282227,4337.051270,4401.282227,4321.282227,4312.692383,4491.922852,4491.538574,4362.820313,4427.692383,0.000000,1.000000,18.000000,,,,0.000000,2.000000,2.000000,0.000000,4.000000,2.000000,2.000000,0.000000,0.000000,4.000000,4.000000,4.000000,4.000000,4.000000,4.000000,0.000000,,,,,,,,,,,,,,,,,,,,,,,,,,,,
1732158959.357071,1732158959.360887,20.000000,0.000000,4291.666504,4277.820313,4317.307617,4310.128418,4305.000000,4296.025879,4336.153809,4409.102539,4319.615234,4313.589844,4492.820313,4495.897461,4364.230957,4425.384766,0.000000,1.000000,18.000000,,,,0.000000,2.000000,2.000000,0.000000,4.000000,2.000000,2.000000,0.000000,0.000000,4.000000,4.000000,4.000000,4.000000,4.000000,4.000000,0.000000,,,,,,,,,,,,,,,,,5.000000,0.000000,0.504939,0.475098,-0.541260,0.475769,0.973752,-0.040532,-0.043951,-35.801865,44.805767,31.568302
1732158959.364879,1732158959.368696,21.000000,0.000000,4291.538574,4278.717773,4317.948730,4311.282227,4294.102539,4291.922852,4334.871582,4406.282227,4312.692383,4309.102539,4489.487305,4483.205078,4360.128418,4418.974121,0.000000,1.000000,18.000000,,,,0.000000,2.000000,2.000000,0.000000,4.000000,2.000000,2.000000,0.000000,0.000000,4.000000,4.000000,4.000000,4.000000,4.000000,4.000000,0.000000,,,,,,,,,,,,,,,,,,,,,,,,,,,,
1732158959.372687,1732158959.376304,22.000000,0.000000,4293.333496,4281.025879,4317.436035,4314.743652,4265.769043,4293.333496,4335.256348,4402.692383,4314.230957,4310.128418,4486.538574,4481.922852,4357.948730,4421.538574,0.000000,1.000000,18.000000,,,,0.000000,2.000000,2.000000,0.000000,4.000000,2.000000,2.000000,0.000000,0.000000,4.000000,4.000000,4.000000,4.000000,4.000000,4.000000,0.000000,,,,,,,,,,,,,,,,,,,,,,,,,,,,
1732158959.380495,1732158959.384112,23.000000,0.000000,4291.922852,4279.871582,4316.922852,4312.692383,4267.307617,4297.051270,4335.512695,4407.436035,4320.000000,4313.205078,4487.436035,4489.487305,4357.179688,4425.512695,0.000000,1.000000,18.000000,,,,0.000000,2.000000,2.000000,0.000000,4.000000,2.000000,2.000000,0.000000,0.000000,4.000000,4.000000,4.000000,4.000000,4.000000,4.000000,0.000000,,,,,,,,,,,,,,,,,,,,,,,,,,,,
1732158959.388304,1732158959.391820,24.000000,0.000000,4292.820313,4278.461426,4317.820313,4310.897461,4283.205078,4290.769043,4335.384766,4408.077148,4317.948730,4311.282227,4489.102539,4487.948730,4358.717773,4424.743652,0.000000,1.000000,18.000000,,,,0.000000,2.000000,2.000000,0.000000,4.000000,2.000000,2.000000,0.000000,0.000000,4.000000,4.000000,4.000000,4.000000,4.000000,4.000000,0.000000,,,,,,,,,,,,,,,,,6.000000,0.000000,0.504710,0.475342,-0.541260,0.475769,0.973752,-0.040532,-0.043951,-35.834511,44.729336,31.460323
1732158959.396112,1732158959.399629,25.000000,0.000000,4295.384766,4277.051270,4319.615234,4311.922852,4281.025879,4284.230957,4334.743652,4404.871582,4317.436035,4311.025879,4491.666504,4487.820313,4365.000000,4422.179688,0.000000,1.000000,18.000000,,,,0.000000,2.000000,2.000000,0.000000,4.000000,2.000000,2.000000,0.000000,0.000000,4.000000,4.000000,4.000000,4.000000,4.000000,4.000000,0.000000,,,,,,,,,,,,,,,,,,,,,,,,,,,,
1732158959.403920,1732158959.407237,26.000000,0.000000,4293.717773,4276.153809,4319.615234,4312.051270,4275.641113,4284.358887,4335.769043,4406.794922,4321.282227,4313.717773,4493.461426,4494.358887,4365.897461,4421.410156,0.000000,1.000000,18.000000,,,,0.000000,2.000000,2.000000,0.000000,4.000000,2.000000,2.000000,0.000000,0.000000,4.000000,4.000000,4.000000,4.000000,4.000000,4.000000,0.000000,,,,,,,,,,,,,,,,,,,,,,,,,,,,
1732158959.411729,1732158959.415045,27.000000,0.000000,4291.922852,4280.256348,4316.794922,4312.307617,4280.128418,4284.487305,4335.000000,4407.692383,4319.743652,4312.307617,4492.820313,4491.153809,4361.410156,4424.743652,0.000000,1.000000,18.000000,,,,0.000000,2.000000,2.000000,0.000000,4.000000,2.000000,2.000000,0.000000,0.000000,4.000000,4.000000,4.000000,4.000000,4.000000,4.000000,0.000000,,,,,,,,,,,,,,,,,,,,,,,,,,,,
1732158959.419537,1732158959.422953,28.000000,0.000000,4292.563965,4280.384766,4315.512695,4312.179688,4283.974121,4282.563965,4331.794922,4403.846191,4317.436035,4308.461426,4492.051270,4481.025879,4363.205078,4428.461426,0.000000,1.000000,18.000000,,,,0.000000,2.000000,2.000000,0.000000,4.000000,2.000000,2.000000,0.000000,0.000000,4.000000,4.000000,4.000000,4.000000,4.000000,4.000000,0.000000,,,,,,,,,,,,,,,,,7.000000,0.000000,0.504124,0.476379,-0.540894,0.475769,0.980100,-0.032719,-0.063973,-35.707619,44.875763,31.277863
1732158959.427345,1732158959.430762,29.000000,0.000000,4292.563965,4274.743652,4317.692383,4309.743652,4281.666504,4282.820313,4332.820313,4400.256348,4319.615234,4312.051270,4492.820313,4483.846191,4368.717773,4427.563965,0.000000,1.000000,18.000000,,,,0.000000,2.000000,2.000000,0.000000,4.000000,2.000000,2.000000,0.000000,0.000000,4.000000,4.000000,4.000000,4.000000,4.000000,4.000000,0.000000,,,,,,,,,,,,,,,,,,,,,,,,,,,,
1732158959.435153,1732158959.438770,30.000000,0.000000,4293.205078,4277.692383,4318.333496,4309.871582,4281.410156,4282.307617,4336.794922,4401.282227,4318.205078,4314.230957,4493.333496,4493.461426,4365.512695,4427.307617,0.000000,1.000000,18.000000,,,,0.000000,2.000000,2.000000,0.000000,4.000000,2.000000,2.000000,0.000000,0.000000,4.000000,4.000000,4.000000,4.000000,4.000000,4.000000,0.000000,,,,,,,,,,,,,,,,,,,,,,,,,,,,
1732158959.442962,1732158959.446578,31.000000,0.000000,4294.487305,4281.666504,4316.666504,4310.897461,4294.487305,4280.641113,4336.153809,4405.000000,4310.384766,4303.333496,4491.538574,4491.666504,4361.794922,4427.948730,0.000000,1.000000,18.000000,,,,0.000000,2.000000,2.000000,0.000000,4.000000,2.000000,2.000000,0.000000,0.000000,4.000000,4.000000,4.000000,4.000000,4.000000,4.000000,0.000000,,,,,,,,,,,,,,,,,,,,,,,,,,,,
1732158959.450770,1732158959.454486,32.000000,0.000000,4293.717773,4277.307617,4316.794922,4311.922852,4299.487305,4286.666504,4334.615234,4408.589844,4308.846191,4294.358887,4488.846191,4484.615234,4363.333496,4422.307617,0.000000,1.000000,18.000000,,,,0.000000,2.000000,2.000000,0.000000,4.000000,2.000000,2.000000,0.000000,0.000000,4.000000,4.000000,4.000000,4.000000,4.000000,4.000000,0.000000,,,,,,,,,,,,,,,,,8.000000,0.000000,0.503800,0.477051,-0.540710,0.475647,0.979123,-0.040044,-0.044439,-35.894840,44.792702,31.351736
1732158959.458578,1732158959.462294,33.000000,0.000000,4292.436035,4276.410156,4318.974121,4314.743652,4281.794922,4297.179688,4335.897461,4409.743652,4314.615234,4299.358887,4488.974121,4484.487305,4362.307617,4421.410156,0.000000,1.000000,18.000000,,,,0.000000,2.000000,2.000000,0.000000,4.000000,2.000000,2.000000,0.000000,0.000000,4.000000,4.000000,4.000000,4.000000,4.000000,4.000000,0.000000,,,,,,,,,,,,,,,,,,,,,,,,,,,,
1732158959.466386,1732158959.469903,34.000000,0.000000,4292.948730,4280.256348,4318.461426,4314.102539,4271.922852,4295.641113,4335.384766,4405.897461,4312.820313,4307.948730,4490.641113,4488.974121,4361.153809,4427.051270,0.000000,1.000000,18.000000,,,,0.000000,2.000000,2.000000,0.000000,4.000000,2.000000,2.000000,0.000000,0.000000,4.000000,4.000000,4.000000,4.000000,4.000000,4.000000,0.000000,,,,,,,,,,,,,,,,,,,,,,,,,,,,
1732158959.474195,1732158959.477711,35.000000,0.000000,4293.205078,4278.589844,4317.692383,4311.153809,4279.871582,4282.179688,4334.743652,4406.025879,4308.974121,4309.358887,4491.153809,4496.922852,4364.871582,4429.743652,0.000000,1.000000,18.000000,,,,0.000000,2.000000,2.000000,0.000000,4.000000,2.000000,2.000000,0.000000,0.000000,4.000000,4.000000,4.000000,4.000000,4.000000,4.000000,0.000000,,,,,,,,,,,,,,,,,,,,,,,,,,,,
1732158959.482003,1732158959.485419,36.000000,0.000000,4294.743652,4278.205078,4317.307617,4315.769043,4278.717773,4279.615234,4336.410156,4408.205078,4317.948730,4310.000000,4492.436035,4502.179688,4369.871582,4430.000000,0.000000,1.000000,18.000000,,,,0.000000,2.000000,2.000000,0.000000,4.000000,2.000000,2.000000,0.000000,0.000000,4.000000,4.000000,4.000000,4.000000,4.000000,4.000000,0.000000,,,,,,,,,,,,,,,,,9.000000,0.000000,0.503634,0.477356,-0.540649,0.475586,0.974240,-0.033696,-0.041997,-36.019821,44.867088,31.461573
1732158959.489811,1732158959.493227,37.000000,0.000000,4296.025879,4281.282227,4318.077148,4319.743652,4274.615234,4287.307617,4336.025879,4407.051270,4322.436035,4309.487305,4492.436035,4499.871582,4368.333496,4427.948730,0.000000,1.000000,18.000000,,,,0.000000,2.000000,2.000000,0.000000,4.000000,2.000000,2.000000,0.000000,0.000000,4.000000,4.000000,4.000000,4.000000,4.000000,4.000000,0.000000,,,,,,,,,,,,,,,,,,,,,,,,,,,,
1732158959.497619,1732158959.500836,38.000000,0.000000,4287.692383,4279.358887,4318.461426,4315.384766,4291.794922,4282.948730,4335.512695,4405.512695,4311.410156,4300.384766,4489.230957,4488.333496,4361.538574,4418.846191,0.000000,1.000000,18.000000,,,,0.000000,2.000000,2.000000,0.000000,4.000000,2.000000,2.000000,0.000000,0.000000,4.000000,4.000000,4.000000,4.000000,4.000000,4.000000,0.000000,,,,,,,,,,,,,,,,,,,,,,,,,,,,
1732158959.505427,1732158959.508644,39.000000,0.000000,4280.769043,4278.846191,4319.743652,4315.384766,4298.589844,4280.256348,4335.641113,4406.025879,4308.077148,4293.077148,4487.820313,4477.307617,4356.410156,4411.538574,0.000000,1.000000,18.000000,,,,0.000000,2.000000,2.000000,0.000000,4.000000,2.000000,2.000000,0.000000,0.000000,4.000000,4.000000,4.000000,4.000000,4.000000,4.000000,0.000000,,,,,,,,,,,,,,,,,,,,,,,,,,,,
1732158959.513236,1732158959.516552,40.000000,0.000000,4288.846191,4282.307617,4321.794922,4321.282227,4282.051270,4290.512695,4335.641113,4406.025879,4316.282227,4299.230957,4488.205078,4482.051270,4359.230957,4417.307617,0.000000,1.000000,18.000000,,,,0.000000,2.000000,2.000000,0.000000,4.000000,2.000000,2.000000,0.000000,0.000000,4.000000,4.000000,4.000000,4.000000,4.000000,4.000000,0.000000,,,,,,,,,,,,,,,,,10.000000,0.000000,0.503734,0.477295,-0.540771,0.475403,0.972287,-0.027347,-0.034184,-36.301052,44.797340,31.722206
1732158959.521044,1732158959.524360,41.000000,0.000000,4294.487305,4280.641113,4319.358887,4318.333496,4275.769043,4294.358887,4335.641113,4405.128418,4316.794922,4305.641113,4488.974121,4490.769043,4366.410156,4426.666504,0.000000,1.000000,18.000000,,,,0.000000,2.000000,2.000000,0.000000,4.000000,2.000000,2.000000,0.000000,0.000000,4.000000,4.000000,4.000000,4.000000,4.000000,4.000000,0.000000,,,,,,,,,,,,,,,,,,,,,,,,,,,,
1732158959.528852,1732158959.532368,42.000000,0.000000,4290.769043,4277.307617,4316.794922,4312.820313,4280.256348,4293.205078,4335.512695,4403.589844,4312.307617,4300.641113,4491.282227,4492.179688,4367.179688,4426.666504,0.000000,1.000000,18.000000,,,,0.000000,2.000000,2.000000,0.000000,4.000000,2.000000,2.000000,0.000000,0.000000,4.000000,4.000000,4.000000,4.000000,4.000000,4.000000,0.000000,,,,,,,,,,,,,,,,,,,,,,,,,,,,
1732158959.536661,1732158959.540176,43.000000,0.000000,4293.846191,4279.358887,4318.974121,4315.128418,4287.692383,4294.102539,4335.000000,4403.205078,4312.051270,4295.384766,4487.948730,4491.794922,4362.179688,4418.846191,0.000000,1.000000,18.000000,,,,0.000000,2.000000,2.000000,0.000000,4.000000,2.000000,2.000000,0.000000,0.000000,4.000000,4.000000,4.000000,4.000000,4.000000,4.000000,0.000000,,,,,,,,,,,,,,,,,,,,,,,,,,,,
1732158959.544469,1732158959.548085,44.000000,0.000000,4292.179688,4281.410156,4319.871582,4317.179688,4298.717773,4288.974121,4334.743652,4407.436035,4309.743652,4295.512695,4481.025879,4486.153809,4355.641113,4412.820313,0.000000,1.000000,18.000000,,,,0.000000,2.000000,2.000000,0.000000,4.000000,2.000000,2.000000,0.000000,0.000000,4.000000,4.000000,4.000000,4.000000,4.000000,4.000000,0.000000,,,,,,,,,,,,,,,,,11.000000,0.000000,0.503949,0.477234,-0.540894,0.475098,0.977658,-0.032230,-0.044439,-36.078854,44.939178,31.698320
1732158959.552277,1732158959.555893,45.000000,0.000000,4280.384766,4278.589844,4316.922852,4313.077148,4290.512695,4284.230957,4334.615234,4407.820313,4308.589844,4296.025879,4483.205078,4478.846191,4356.666504,4410.897461,0.000000,1.000000,18.000000,,,,0.000000,2.000000,2.000000,0.000000,4.000000,2.000000,2.000000,0.000000,0.000000,4.000000,4.000000,4.000000,4.000000,4.000000,4.000000,0.000000,,,,,,,,,,,,,,,,,,,,,,,,,,,,
1732158959.560085,1732158959.563901,46.000000,0.000000,4285.128418,4277.563965,4317.307617,4312.051270,4267.563965,4289.871582,4335.000000,4402.179688,4312.692383,4297.692383,4489.871582,4480.256348,4365.897461,4416.922852,0.000000,1.000000,18.000000,,,,0.000000,2.000000,2.000000,0.000000,4.000000,2.000000,2.000000,0.000000,0.000000,4.000000,4.000000,4.000000,4.000000,4.000000,4.000000,0.000000,,,,,,,,,,,,,,,,,,,,,,,,,,,,
1732158959.567894,1732158959.571709,47.000000,0.000000,4296.538574,4279.871582,4319.358887,4315.384766,4271.794922,4293.205078,4336.282227,4400.769043,4313.333496,4301.153809,4489.871582,4484.230957,4366.025879,4422.307617,0.000000,1.000000,18.000000,,,,0.000000,2.000000,2.000000,0.000000,4.000000,2.000000,2.000000,0.000000,0.000000,4.000000,4.000000,4.000000,4.000000,4.000000,4.000000,0.000000,,,,,,,,,,,,,,,,,,,,,,,,,,,,
1732158959.575702,1732158959.579617,48.000000,0.000000,4294.102539,4280.128418,4318.589844,4313.461426,4286.666504,4288.846191,4336.410156,4404.871582,4310.128418,4300.256348,4487.436035,4485.641113,4357.692383,4416.666504,0.000000,1.000000,18.000000,,,,0.000000,2.000000,2.000000,0.000000,4.000000,2.000000,2.000000,0.000000,0.000000,4.000000,4.000000,4.000000,4.000000,4.000000,4.000000,0.000000,,,,,,,,,,,,,,,,,12.000000,0.000000,0.503617,0.477661,-0.540771,0.475159,0.973263,-0.027835,-0.032719,-36.062206,44.844070,31.597307
1732158959.583510,1732158959.587425,49.000000,0.000000,4290.128418,4278.333496,4316.410156,4308.846191,4277.820313,4286.410156,4334.871582,4405.641113,4310.769043,4298.077148,4488.333496,4490.256348,4359.487305,4412.179688,0.000000,1.000000,18.000000,,,,0.000000,2.000000,2.000000,0.000000,4.000000,2.000000,2.000000,0.000000,0.000000,4.000000,4.000000,4.000000,4.000000,4.000000,4.000000,0.000000,,,,,,,,,,,,,,,,,,,,,,,,,,,,
1732158959.591318,1732158959.595433,50.000000,0.000000,4287.692383,4277.948730,4315.769043,4309.230957,4280.384766,4290.512695,4334.230957,4403.846191,4312.563965,4298.589844,4488.461426,4490.512695,4364.102539,4413.717773,0.000000,1.000000,18.000000,,,,0.000000,2.000000,2.000000,0.000000,4.000000,2.000000,2.000000,0.000000,0.000000,4.000000,4.000000,4.000000,4.000000,4.000000,4.000000,0.000000,,,,,,,,,,,,,,,,,,,,,,,,,,,,
1732158959.599127,1732158959.603241,51.000000,0.000000,4281.666504,4279.487305,4314.487305,4312.692383,4303.461426,4294.230957,4336.025879,4405.769043,4311.794922,4297.436035,4486.666504,4483.077148,4359.871582,4413.333496,0.000000,1.000000,18.000000,,,,0.000000,2.000000,2.000000,0.000000,4.000000,2.000000,2.000000,0.000000,0.000000,4.000000,4.000000,4.000000,4.000000,4.000000,4.000000,0.000000,,,,,,,,,,,,,,,,,,,,,,,,,,,,
1732158959.606935,1732158959.611150,52.000000,0.000000,4280.769043,4279.871582,4314.871582,4310.384766,4299.358887,4290.641113,4336.538574,4408.589844,4311.282227,4298.077148,4487.307617,4482.051270,4357.307617,4412.179688,0.000000,1.000000,18.000000,,,,0.000000,2.000000,2.000000,0.000000,4.000000,2.000000,2.000000,0.000000,0.000000,4.000000,4.000000,4.000000,4.000000,4.000000,4.000000,0.000000,,,,,,,,,,,,,,,,,13.000000,0.000000,0.503443,0.477844,-0.540771,0.475159,0.965938,-0.024417,-0.049811,-35.985386,44.825363,31.585485
1732158959.614743,1732158959.618958,53.000000,0.000000,4283.333496,4280.000000,4317.051270,4310.769043,4275.256348,4289.743652,4335.256348,4407.436035,4312.563965,4302.563965,4488.974121,4488.974121,4358.205078,4414.615234,0.000000,1.000000,18.000000,,,,0.000000,2.000000,2.000000,0.000000,4.000000,2.000000,2.000000,0.000000,0.000000,4.000000,4.000000,4.000000,4.000000,4.000000,4.000000,0.000000,,,,,,,,,,,,,,,,,,,,,,,,,,,,
1732158959.622551,1732158959.626966,54.000000,0.000000,4281.666504,4281.153809,4319.871582,4317.051270,4274.230957,4294.487305,4335.256348,4404.743652,4313.846191,4301.153809,4485.384766,4493.717773,4357.948730,4414.615234,0.000000,1.000000,18.000000,,,,0.000000,2.000000,2.000000,0.000000,4.000000,2.000000,2.000000,0.000000,0.000000,4.000000,4.000000,4.000000,4.000000,4.000000,4.000000,0.000000,,,,,,,,,,,,,,,,,,,,,,,,,,,,
1732158959.630360,1732158959.634774,55.000000,0.000000,4278.846191,4280.641113,4319.358887,4315.897461,4287.692383,4295.256348,4336.025879,4403.205078,4311.538574,4294.487305,4478.333496,4488.974121,4358.333496,4409.743652,0.000000,1.000000,18.000000,,,,0.000000,2.000000,2.000000,0.000000,4.000000,2.000000,2.000000,0.000000,0.000000,4.000000,4.000000,4.000000,4.000000,4.000000,4.000000,0.000000,,,,,,,,,,,,,,,,,,,,,,,,,,,,
1732158959.638168,1732158959.642682,56.000000,0.000000,4278.205078,4278.717773,4317.692383,4309.102539,4282.436035,4291.794922,4335.384766,4406.666504,4309.615234,4294.871582,4477.436035,4484.102539,4355.256348,4405.897461,0.000000,1.000000,18.000000,,,,0.000000,2.000000,2.000000,0.000000,4.000000,2.000000,2.000000,0.000000,0.000000,4.000000,4.000000,4.000000,4.000000,4.000000,4.000000,0.000000,,,,,,,,,,,,,,,,,14.000000,0.000000,0.503246,0.477905,-0.540955,0.475098,0.966915,-0.030277,-0.039067,-36.336494,44.700211,31.379242
1732158959.645976,1732158959.650490,57.000000,0.000000,4277.692383,4279.230957,4316.922852,4307.948730,4276.538574,4288.846191,4334.615234,4408.205078,4309.743652,4297.820313,4477.563965,4490.384766,4352.820313,4401.025879,0.000000,1.000000,18.000000,,,,0.000000,2.000000,2.000000,0.000000,4.000000,2.000000,2.000000,0.000000,0.000000,4.000000,4.000000,4.000000,4.000000,4.000000,4.000000,0.000000,,,,,,,,,,,,,,,,,,,,,,,,,,,,
1732158959.653784,1732158959.658099,58.000000,0.000000,4277.563965,4279.487305,4316.153809,4308.717773,4293.717773,4284.615234,4335.000000,4404.871582,4307.051270,4295.128418,4475.897461,4491.538574,4355.641113,4399.743652,0.000000,1.000000,18.000000,,,,0.000000,2.000000,2.000000,0.000000,4.000000,2.000000,2.000000,0.000000,0.000000,4.000000,4.000000,4.000000,4.000000,4.000000,4.000000,0.000000,,,,,,,,,,,,,,,,,,,,,,,,,,,,
1732158959.661593,1732158959.665907,59.000000,0.000000,4277.692383,4277.436035,4318.717773,4308.846191,4297.692383,4283.333496,4335.000000,4406.538574,4308.589844,4296.794922,4480.769043,4487.436035,4358.846191,4406.794922,0.000000,1.000000,18.000000,,,,0.000000,2.000000,2.000000,0.000000,4.000000,2.000000,2.000000,0.000000,0.000000,4.000000,4.000000,4.000000,4.000000,4.000000,4.000000,0.000000,,,,,,,,,,,,,,,,,,,,,,,,,,,,
1732158959.669401,1732158959.673815,60.000000,0.000000,4281.538574,4278.461426,4320.512695,4313.717773,4278.461426,4290.897461,4334.871582,4408.205078,4315.128418,4301.153809,4488.589844,4493.589844,4360.128418,4414.743652,0.000000,1.000000,18.000000,,,,0.000000,2.000000,2.000000,0.000000,4.000000,2.000000,2.000000,0.000000,0.000000,4.000000,4.000000,4.000000,4.000000,4.000000,4.000000,0.000000,,,,,,,,,,,,,,,,,15.000000,0.000000,0.502227,0.478638,-0.540771,0.475647,0.965938,-0.040044,-0.039556,-36.347561,44.723839,31.178854
1732158959.677209,1732158959.681623,61.000000,0.000000,4285.384766,4281.025879,4318.333496,4316.153809,4271.282227,4297.436035,4335.000000,4405.256348,4316.538574,4302.051270,4490.769043,4500.897461,4362.436035,4415.769043,0.000000,1.000000,18.000000,,,,0.000000,2.000000,2.000000,0.000000,4.000000,2.000000,2.000000,0.000000,0.000000,4.000000,4.000000,4.000000,4.000000,4.000000,4.000000,0.000000,,,,,,,,,,,,,,,,,,,,,,,,,,,,
1732158959.685017,1732158959.689531,62.000000,0.000000,4282.436035,4278.205078,4315.769043,4312.820313,4282.692383,4294.487305,4335.000000,4405.000000,4311.410156,4298.846191,4487.692383,4498.589844,4359.102539,4414.230957,0.000000,1.000000,18.000000,,,,0.000000,2.000000,2.000000,0.000000,4.000000,2.000000,2.000000,0.000000,0.000000,4.000000,4.000000,4.000000,4.000000,4.000000,4.000000,0.000000,,,,,,,,,,,,,,,,,,,,,,,,,,,,
1732158959.692826,1732158959.697340,63.000000,0.000000,4281.794922,4277.179688,4317.051270,4312.820313,4283.717773,4293.077148,4335.000000,4409.230957,4311.794922,4298.077148,4487.436035,4501.025879,4352.820313,4415.512695,0.000000,1.000000,18.000000,,,,0.000000,2.000000,2.000000,0.000000,4.000000,2.000000,2.000000,0.000000,0.000000,4.000000,4.000000,4.000000,4.000000,4.000000,4.000000,0.000000,,,,,,,,,,,,,,,,,,,,,,,,,,,,
1732158959.700634,1732158959.705048,64.000000,0.000000,4286.025879,4278.077148,4317.820313,4313.974121,4282.179688,4294.871582,4334.871582,4410.000000,4316.666504,4304.487305,4491.538574,4504.487305,4355.000000,4416.153809,0.000000,1.000000,18.000000,,,,0.000000,2.000000,2.000000,0.000000,4.000000,2.000000,2.000000,0.000000,0.000000,4.000000,4.000000,4.000000,4.000000,4.000000,4.000000,0.000000,,,,,,,,,,,,,,,,,16.000000,0.000000,0.501705,0.478821,-0.540771,0.476013,0.976193,-0.044927,-0.054694,-36.398193,44.696308,31.003204
1732158959.708442,1732158959.712856,65.000000,0.000000,4283.974121,4273.974121,4316.794922,4310.384766,4300.128418,4287.948730,4334.743652,4407.307617,4311.538574,4303.461426,4488.846191,4496.153809,4355.256348,4414.102539,1619.000000,1.000000,18.000000,,,,0.000000,2.000000,2.000000,0.000000,4.000000,2.000000,2.000000,0.000000,0.000000,4.000000,4.000000,4.000000,4.000000,4.000000,4.000000,0.000000,,,,,,,,,,,,,,,,,,,,,,,,,,,,
1732158959.716251,1732158959.720465,66.000000,0.000000,4278.974121,4269.871582,4316.282227,4306.410156,4299.743652,4283.717773,4335.000000,4403.974121,4304.743652,4293.461426,4478.205078,4487.948730,4351.666504,4412.563965,1359.000000,1.000000,18.000000,,,,0.000000,2.000000,2.000000,0.000000,4.000000,2.000000,2.000000,0.000000,0.000000,4.000000,4.000000,4.000000,4.000000,4.000000,4.000000,0.000000,,,,,,,,,,,,,,,,,,,,,,,,,,,,
1732158959.724059,1732158959.728273,67.000000,0.000000,4280.769043,4271.025879,4318.589844,4306.794922,4272.051270,4292.563965,4335.000000,4405.384766,4307.948730,4291.538574,4476.153809,4492.820313,4354.102539,4411.922852,1441.000000,1.000000,18.000000,,,,0.000000,2.000000,2.000000,0.000000,4.000000,2.000000,2.000000,0.000000,0.000000,4.000000,4.000000,4.000000,4.000000,4.000000,4.000000,0.000000,,,,,,,,,,,,,,,,,,,,,,,,,,,,
1732158959.731867,1732158959.735981,68.000000,0.000000,4282.051270,4272.820313,4319.487305,4306.666504,4264.871582,4295.769043,4334.487305,4410.641113,4312.563965,4297.820313,4485.000000,4497.563965,4357.179688,4413.589844,1441.000000,1.000000,18.000000,,,,0.000000,2.000000,2.000000,0.000000,4.000000,2.000000,2.000000,0.000000,0.000000,4.000000,4.000000,4.000000,4.000000,4.000000,4.000000,0.000000,,,,,,,,,,,,,,,,,17.000000,0.000000,0.501640,0.478821,-0.540833,0.476013,0.982542,-0.051764,-0.047369,-36.164204,44.754009,31.160929
1732158959.739675,1732158959.743789,69.000000,0.000000,4278.974121,4269.743652,4317.051270,4302.563965,4281.153809,4289.358887,4335.897461,4410.769043,4309.743652,4298.717773,4488.205078,4493.461426,4353.077148,4413.974121,1197.000000,1.000000,18.000000,,,,0.000000,2.000000,2.000000,0.000000,4.000000,2.000000,2.000000,0.000000,0.000000,4.000000,4.000000,4.000000,4.000000,4.000000,4.000000,0.000000,,,,,,,,,,,,,,,,,,,,,,,,,,,,
1732158959.747483,1732158959.751398,70.000000,0.000000,4279.743652,4272.563965,4316.025879,4301.922852,4282.563965,4288.717773,4337.948730,4408.077148,4312.051270,4297.436035,4488.846191,4490.641113,4352.307617,4409.358887,0.000000,1.000000,18.000000,,,,0.000000,2.000000,2.000000,0.000000,4.000000,2.000000,2.000000,0.000000,0.000000,4.000000,4.000000,4.000000,4.000000,4.000000,4.000000,0.000000,,,,,,,,,,,,,,,,,,,,,,,,,,,,
1732158959.755292,1732158959.759206,71.000000,0.000000,4281.410156,4276.025879,4317.307617,4306.153809,4276.794922,4296.153809,4339.487305,4407.692383,4316.153809,4298.589844,4488.205078,4492.563965,4356.282227,4407.179688,0.000000,1.000000,18.000000,,,,0.000000,2.000000,2.000000,0.000000,4.000000,2.000000,2.000000,0.000000,0.000000,4.000000,4.000000,4.000000,4.000000,4.000000,4.000000,0.000000,,,,,,,,,,,,,,,,,,,,,,,,,,,,
1732158959.763100,1732158959.766914,72.000000,0.000000,4278.846191,4271.282227,4316.025879,4307.563965,4293.846191,4295.256348,4337.948730,4407.948730,4306.666504,4295.897461,4481.538574,4490.384766,4353.333496,4409.230957,1546.000000,1.000000,18.000000,,,,0.000000,2.000000,2.000000,0.000000,4.000000,2.000000,2.000000,0.000000,0.000000,4.000000,4.000000,4.000000,4.000000,4.000000,4.000000,0.000000,,,,,,,,,,,,,,,,,18.000000,0.000000,0.501891,0.478455,-0.541138,0.475769,0.982542,-0.028324,-0.047857,-36.014671,44.540749,31.087019
1732158959.770908,1732158959.774722,73.000000,0.000000,4275.384766,4268.846191,4315.384766,4304.743652,4298.589844,4285.512695,4335.512695,4409.230957,4300.384766,4294.102539,4474.487305,4486.922852,4349.230957,4404.743652,1701.000000,1.000000,18.000000,,,,0.000000,2.000000,2.000000,0.000000,4.000000,2.000000,2.000000,0.000000,0.000000,4.000000,4.000000,4.000000,4.000000,4.000000,4.000000,0.000000,,,,,,,,,,,,,,,,,,,,,,,,,,,,
1732158959.778716,1732158959.782331,74.000000,0.000000,4276.538574,4275.769043,4318.205078,4307.051270,4275.897461,4284.230957,4335.000000,4408.461426,4307.179688,4295.512695,4478.974121,4487.948730,4350.256348,4400.000000,1566.000000,1.000000,18.000000,,,,0.000000,2.000000,2.000000,0.000000,4.000000,2.000000,2.000000,0.000000,0.000000,4.000000,4.000000,4.000000,4.000000,4.000000,4.000000,0.000000,,,,,,,,,,,,,,,,,,,,,,,,,,,,
1732158959.786525,1732158959.790139,75.000000,0.000000,4280.000000,4281.025879,4319.102539,4310.769043,4268.717773,4293.589844,4335.897461,4405.384766,4313.077148,4295.897461,4486.538574,4487.051270,4353.077148,4407.692383,1549.000000,1.000000,18.000000,,,,0.000000,2.000000,2.000000,0.000000,4.000000,2.000000,2.000000,0.000000,0.000000,4.000000,4.000000,4.000000,4.000000,4.000000,4.000000,0.000000,,,,,,,,,,,,,,,,,,,,,,,,,,,,
1732158959.794333,1732158959.797847,76.000000,0.000000,4279.871582,4277.692383,4318.974121,4310.256348,4281.666504,4297.820313,4337.563965,4405.384766,4310.256348,4294.615234,4481.410156,4487.051270,4352.307617,4411.025879,1708.000000,1.000000,18.000000,,,,0.000000,2.000000,2.000000,0.000000,4.000000,2.000000,2.000000,0.000000,0.000000,4.000000,4.000000,4.000000,4.000000,4.000000,4.000000,0.000000,,,,,,,,,,,,,,,,,19.000000,0.000000,0.502026,0.478210,-0.541443,0.475525,0.985472,-0.026859,-0.035161,-35.860218,44.484673,30.993818
1732158959.802141,1732158959.805656,77.000000,0.000000,4279.487305,4278.333496,4317.820313,4315.000000,4285.897461,4291.410156,4340.256348,4406.666504,4307.436035,4295.000000,4480.256348,4490.897461,4350.897461,4408.205078,1559.000000,1.000000,18.000000,,,,0.000000,2.000000,2.000000,0.000000,4.000000,2.000000,2.000000,0.000000,0.000000,4.000000,4.000000,4.000000,4.000000,4.000000,4.000000,0.000000,,,,,,,,,,,,,,,,,,,,,,,,,,,,
1732158959.809950,1732158959.813264,78.000000,0.000000,4282.692383,4281.025879,4317.563965,4318.205078,4277.948730,4286.666504,4340.512695,4408.333496,4310.256348,4296.282227,4487.307617,4492.307617,4351.153809,4411.410156,1566.000000,1.000000,18.000000,,,,0.000000,2.000000,2.000000,0.000000,4.000000,2.000000,2.000000,0.000000,0.000000,4.000000,4.000000,4.000000,4.000000,4.000000,4.000000,0.000000,1.000000,0.000000,2.000000,2.000000,0.000000,4.000000,2.000000,2.000000,0.000000,0.000000,4.000000,3.000000,4.000000,4.000000,3.000000,3.000000,,,,,,,,,,,,
1732158959.817758,1732158959.821072,79.000000,0.000000,4282.692383,4280.128418,4318.461426,4314.230957,4282.692383,4289.871582,4336.025879,4409.358887,4313.077148,4294.871582,4484.615234,4493.077148,4350.897461,4409.102539,1549.000000,1.000000,18.000000,,,,0.000000,2.000000,2.000000,0.000000,4.000000,2.000000,2.000000,0.000000,0.000000,4.000000,4.000000,4.000000,4.000000,4.000000,4.000000,0.000000,,,,,,,,,,,,,,,,,,,,,,,,,,,,
1732158959.825566,1732158959.828780,80.000000,0.000000,4279.230957,4278.333496,4318.077148,4310.000000,4301.282227,4291.922852,4333.717773,4408.077148,4308.589844,4293.077148,4475.897461,4495.384766,4347.948730,4403.846191,1708.000000,1.000000,18.000000,,,,0.000000,2.000000,2.000000,0.000000,4.000000,2.000000,2.000000,0.000000,0.000000,4.000000,4.000000,4.000000,4.000000,4.000000,4.000000,0.000000,,,,,,,,,,,,,,,,,20.000000,0.000000,0.501918,0.478271,-0.541382,0.475647,0.978147,-0.040532,-0.047369,-35.885109,44.550919,31.051661
1732158959.833374,1732158959.836589,81.000000,0.000000,4280.256348,4276.666504,4317.692383,4311.410156,4299.487305,4290.256348,4336.025879,4407.820313,4303.589844,4294.102539,4477.307617,4494.102539,4348.461426,4409.102539,1559.000000,1.000000,18.000000,,,,0.000000,2.000000,2.000000,0.000000,4.000000,2.000000,2.000000,0.000000,0.000000,4.000000,4.000000,4.000000,4.000000,4.000000,4.000000,0.000000,,,,,,,,,,,,,,,,,,,,,,,,,,,,
1732158959.841183,1732158959.844597,82.000000,0.000000,4281.922852,4276.538574,4319.358887,4312.436035,4272.179688,4291.666504,4337.563965,4410.769043,4308.461426,4295.512695,4481.922852,4492.820313,4350.128418,4412.563965,1566.000000,1.000000,18.000000,,,,0.000000,2.000000,2.000000,0.000000,4.000000,2.000000,2.000000,0.000000,0.000000,4.000000,4.000000,4.000000,4.000000,4.000000,4.000000,0.000000,,,,,,,,,,,,,,,,,,,,,,,,,,,,
1732158959.848991,1732158959.852405,83.000000,0.000000,4279.871582,4277.179688,4317.692383,4311.666504,4263.717773,4296.282227,4336.794922,4411.153809,4312.563965,4293.589844,4478.717773,4494.102539,4344.615234,4406.410156,1549.000000,1.000000,18.000000,,,,0.000000,2.000000,2.000000,0.000000,4.000000,2.000000,2.000000,0.000000,0.000000,4.000000,4.000000,4.000000,4.000000,4.000000,4.000000,0.000000,,,,,,,,,,,,,,,,,,,,,,,,,,,,
1732158959.856799,1732158959.860313,84.000000,0.000000,4278.205078,4273.461426,4314.871582,4311.025879,4283.461426,4294.230957,4338.461426,4407.948730,4310.256348,4291.922852,4474.358887,4491.282227,4340.128418,4401.794922,1708.000000,1.000000,18.000000,,,,0.000000,2.000000,2.000000,0.000000,4.000000,2.000000,2.000000,0.000000,0.000000,4.000000,4.000000,4.000000,4.000000,4.000000,4.000000,0.000000,,,,,,,,,,,,,,,,,21.000000,0.000000,0.501795,0.478271,-0.541443,0.475708,0.989867,-0.038091,-0.056159,-35.906937,44.731243,31.200178
1732158959.864607,1732158959.868121,85.000000,0.000000,4278.589844,4269.871582,4316.922852,4310.128418,4285.641113,4291.794922,4339.615234,4407.051270,4310.128418,4295.256348,4474.230957,4488.846191,4343.717773,4401.922852,1559.000000,1.000000,18.000000,,,,0.000000,2.000000,2.000000,0.000000,4.000000,2.000000,2.000000,0.000000,0.000000,4.000000,4.000000,4.000000,4.000000,4.000000,4.000000,0.000000,,,,,,,,,,,,,,,,,,,,,,,,,,,,
1732158959.872416,1732158959.875730,86.000000,0.000000,4280.512695,4275.384766,4320.000000,4312.820313,4276.282227,4294.358887,4336.025879,4408.333496,4312.307617,4297.820313,4483.205078,4492.820313,4350.897461,4408.846191,1566.000000,1.000000,18.000000,,,,0.000000,2.000000,2.000000,0.000000,4.000000,2.000000,2.000000,0.000000,0.000000,4.000000,4.000000,4.000000,4.000000,4.000000,4.000000,0.000000,,,,,,,,,,,,,,,,,,,,,,,,,,,,
1732158959.880224,1732158959.883538,87.000000,0.000000,4281.153809,4280.641113,4320.256348,4312.436035,4294.743652,4291.410156,4333.846191,4407.436035,4311.153809,4294.871582,4490.641113,4493.077148,4353.333496,4411.410156,1549.000000,1.000000,18.000000,,,,0.000000,2.000000,2.000000,0.000000,4.000000,2.000000,2.000000,0.000000,0.000000,4.000000,4.000000,4.000000,4.000000,4.000000,4.000000,0.000000,,,,,,,,,,,,,,,,,,,,,,,,,,,,
1732158959.888032,1732158959.891246,88.000000,0.000000,4278.846191,4273.077148,4320.897461,4306.025879,4306.410156,4287.692383,4336.666504,4407.051270,4308.717773,4291.922852,4488.205078,4487.051270,4350.641113,4405.641113,1708.000000,1.000000,18.000000,,,,0.000000,2.000000,2.000000,0.000000,4.000000,2.000000,2.000000,0.000000,0.000000,4.000000,4.000000,4.000000,4.000000,4.000000,4.000000,0.000000,,,,,,,,,,,,,,,,,22.000000,0.000000,0.500734,0.478516,-0.541565,0.476440,0.971798,-0.039556,-0.046881,-35.646286,44.940639,30.975477
1732158959.895840,1732158959.899054,89.000000,0.000000,4276.666504,4267.307617,4320.384766,4305.897461,4280.641113,4293.077148,4336.153809,4407.179688,4310.512695,4294.743652,4487.051270,4485.000000,4351.410156,4406.538574,1559.000000,1.000000,18.000000,,,,0.000000,2.000000,2.000000,0.000000,4.000000,2.000000,2.000000,0.000000,0.000000,4.000000,4.000000,4.000000,4.000000,4.000000,4.000000,0.000000,,,,,,,,,,,,,,,,,,,,,,,,,,,,
1732158959.903649,1732158959.906663,90.000000,0.000000,4277.051270,4267.948730,4317.307617,4306.794922,4264.102539,4293.589844,4334.358887,4406.282227,4312.436035,4297.436035,4490.641113,4487.820313,4353.846191,4410.512695,1566.000000,1.000000,18.000000,,,,0.000000,2.000000,2.000000,0.000000,4.000000,2.000000,2.000000,0.000000,0.000000,4.000000,4.000000,4.000000,4.000000,4.000000,4.000000,0.000000,,,,,,,,,,,,,,,,,,,,,,,,,,,,
1732158959.911457,1732158959.914471,91.000000,0.000000,4277.563965,4271.794922,4315.897461,4304.102539,4276.922852,4287.692383,4337.820313,4405.256348,4308.974121,4294.743652,4487.436035,4485.512695,4348.717773,4405.128418,1549.000000,1.000000,18.000000,,,,0.000000,2.000000,2.000000,0.000000,4.000000,2.000000,2.000000,0.000000,0.000000,4.000000,4.000000,4.000000,4.000000,4.000000,4.000000,0.000000,,,,,,,,,,,,,,,,,,,,,,,,,,,,
1732158959.919265,1732158959.922379,92.000000,0.000000,4276.794922,4275.128418,4317.307617,4302.948730,4283.589844,4291.025879,4337.820313,4404.871582,4305.000000,4292.692383,4478.333496,4477.179688,4342.051270,4398.077148,1708.000000,1.000000,18.000000,,,,0.000000,2.000000,2.000000,0.000000,4.000000,2.000000,2.000000,0.000000,0.000000,4.000000,4.000000,4.000000,4.000000,4.000000,4.000000,0.000000,,,,,,,,,,,,,,,,,23.000000,0.000000,0.500187,0.478516,-0.541748,0.476807,0.987914,-0.035161,-0.027347,-35.335159,44.943584,31.043470
1732158959.927073,1732158959.930187,93.000000,0.000000,4277.692383,4271.794922,4319.743652,4306.282227,4279.358887,4291.153809,4333.717773,4405.897461,4305.256348,4292.307617,4474.871582,4473.333496,4341.922852,4401.922852,1559.000000,1.000000,18.000000,,,,0.000000,2.000000,2.000000,0.000000,4.000000,2.000000,2.000000,0.000000,0.000000,4.000000,4.000000,4.000000,4.000000,4.000000,4.000000,0.000000,,,,,,,,,,,,,,,,,,,,,,,,,,,,
1732158959.934882,1732158959.938195,94.000000,0.000000,4279.743652,4271.153809,4319.487305,4306.538574,4279.358887,4280.384766,4334.743652,4407.179688,4304.358887,4290.641113,4476.153809,4475.769043,4343.461426,4405.128418,1566.000000,1.000000,18.000000,,,,0.000000,2.000000,2.000000,0.000000,4.000000,2.000000,2.000000,0.000000,0.000000,4.000000,4.000000,4.000000,4.000000,4.000000,4.000000,0.000000,,,,,,,,,,,,,,,,,,,,,,,,,,,,
1732158959.942690,1732158959.946003,95.000000,0.000000,4278.974121,4272.051270,4317.820313,4303.461426,4280.641113,4280.769043,4338.717773,4408.461426,4305.000000,4289.615234,4476.538574,4476.025879,4343.077148,4400.897461,1549.000000,1.000000,18.000000,,,,0.000000,2.000000,2.000000,0.000000,4.000000,2.000000,2.000000,0.000000,0.000000,4.000000,4.000000,4.000000,4.000000,4.000000,4.000000,0.000000,,,,,,,,,,,,,,,,,,,,,,,,,,,,
1732158959.950498,1732158959.953912,96.000000,0.000000,4277.692383,4268.205078,4317.692383,4303.077148,4293.205078,4286.922852,4338.717773,4407.436035,4308.974121,4290.769043,4473.974121,4472.692383,4340.769043,4396.794922,1708.000000,1.000000,18.000000,,,,0.000000,2.000000,2.000000,0.000000,4.000000,2.000000,2.000000,0.000000,0.000000,4.000000,4.000000,4.000000,4.000000,4.000000,4.000000,0.000000,,,,,,,,,,,,,,,,,24.000000,0.000000,0.500172,0.478394,-0.541870,0.476807,0.987914,-0.035161,-0.027347,-35.303146,44.637638,31.351877
1732158959.958306,1732158959.961720,97.000000,0.000000,4279.358887,4268.077148,4318.717773,4303.846191,4297.820313,4284.358887,4337.436035,4405.256348,4311.410156,4293.974121,4477.307617,4478.589844,4342.179688,4399.871582,1559.000000,1.000000,18.000000,,,,0.000000,2.000000,2.000000,0.000000,4.000000,2.000000,2.000000,0.000000,0.000000,4.000000,4.000000,4.000000,4.000000,4.000000,4.000000,0.000000,,,,,,,,,,,,,,,,,,,,,,,,,,,,
1732158959.966115,1732158959.969728,98.000000,0.000000,4281.794922,4276.410156,4318.589844,4307.948730,4277.563965,4281.922852,4338.333496,4404.871582,4315.512695,4297.563965,4485.641113,4485.128418,4348.077148,4405.256348,1566.000000,1.000000,18.000000,,,,0.000000,2.000000,2.000000,0.000000,4.000000,2.000000,2.000000,0.000000,0.000000,4.000000,4.000000,4.000000,4.000000,4.000000,4.000000,0.000000,,,,,,,,,,,,,,,,,,,,,,,,,,,,
1732158959.973923,1732158959.977536,99.000000,0.000000,4281.794922,4278.974121,4318.333496,4312.436035,4268.205078,4284.102539,4338.461426,4408.077148,4312.563965,4294.230957,4484.487305,4480.256348,4348.077148,4404.615234,1549.000000,1.000000,18.000000,,,,0.000000,2.000000,2.000000,0.000000,4.000000,2.000000,2.000000,0.000000,0.000000,4.000000,4.000000,4.000000,4.000000,4.000000,4.000000,0.000000,,,,,,,,,,,,,,,,,,,,,,,,,,,,
1732158959.981731,1732158959.985444,100.000000,0.000000,4280.897461,4275.000000,4317.820313,4312.436035,4281.922852,4290.256348,4338.333496,4410.641113,4300.000000,4287.307617,4478.846191,4475.128418,4344.230957,4402.820313,1708.000000,1.000000,18.000000,,,,0.000000,2.000000,2.000000,0.000000,4.000000,2.000000,2.000000,0.000000,0.000000,4.000000,4.000000,4.000000,4.000000,4.000000,4.000000,0.000000,,,,,,,,,,,,,,,,,25.000000,0.000000,0.499523,0.478516,-0.541931,0.477295,0.984495,-0.055671,-0.047857,-35.627213,44.784821,31.068354
1732158959.989540,1732158959.993252,101.000000,0.000000,4281.025879,4275.512695,4318.205078,4311.282227,4284.487305,4292.436035,4338.077148,4409.743652,4300.000000,4289.358887,4484.615234,4480.512695,4347.563965,4406.922852,1559.000000,1.000000,18.000000,,,,0.000000,2.000000,2.000000,0.000000,4.000000,2.000000,2.000000,0.000000,0.000000,4.000000,4.000000,4.000000,4.000000,4.000000,4.000000,0.000000,,,,,,,,,,,,,,,,,,,,,,,,,,,,
1732158959.997348,1732158960.001260,102.000000,0.000000,4282.307617,4276.666504,4319.743652,4311.153809,4276.025879,4286.794922,4338.717773,4407.563965,4313.205078,4297.307617,4494.230957,4485.000000,4352.948730,4413.589844,1566.000000,1.000000,18.000000,,,,0.000000,2.000000,2.000000,0.000000,4.000000,2.000000,2.000000,0.000000,0.000000,4.000000,4.000000,4.000000,4.000000,4.000000,4.000000,0.000000,,,,,,,,,,,,,,,,,,,,,,,,,,,,
1732158960.005156,1732158960.009069,103.000000,0.000000,4279.743652,4273.974121,4320.769043,4309.358887,4289.487305,4281.922852,4340.256348,4406.538574,4311.282227,4297.436035,4486.282227,4484.615234,4348.974121,4409.871582,1549.000000,1.000000,18.000000,,,,0.000000,2.000000,2.000000,0.000000,4.000000,2.000000,2.000000,0.000000,0.000000,4.000000,4.000000,4.000000,4.000000,4.000000,4.000000,0.000000,,,,,,,,,,,,,,,,,,,,,,,,,,,,
1732158960.012964,1732158960.016977,104.000000,0.000000,4276.025879,4270.897461,4319.743652,4306.538574,4301.153809,4284.871582,4339.358887,4405.897461,4298.589844,4291.282227,4475.512695,4481.794922,4342.051270,4400.641113,1708.000000,1.000000,18.000000,,,,0.000000,2.000000,2.000000,0.000000,4.000000,2.000000,2.000000,0.000000,0.000000,4.000000,4.000000,4.000000,4.000000,4.000000,4.000000,0.000000,,,,,,,,,,,,,,,,,26.000000,0.000000,0.499017,0.478333,-0.542236,0.477661,0.980100,-0.049811,-0.049811,-35.869709,44.805702,30.895367
1732158960.020772,1732158960.024785,105.000000,0.000000,4277.563965,4272.948730,4318.717773,4309.743652,4285.256348,4291.282227,4335.769043,4406.538574,4298.077148,4291.538574,4481.666504,4480.384766,4341.025879,4402.563965,1559.000000,1.000000,18.000000,,,,0.000000,2.000000,2.000000,0.000000,4.000000,2.000000,2.000000,0.000000,0.000000,4.000000,4.000000,4.000000,4.000000,4.000000,4.000000,0.000000,,,,,,,,,,,,,,,,,,,,,,,,,,,,
1732158960.028581,1732158960.032493,106.000000,0.000000,4281.410156,4276.410156,4319.102539,4310.512695,4271.666504,4289.358887,4332.563965,4407.436035,4305.000000,4296.666504,4491.666504,4483.589844,4347.563965,4410.000000,1566.000000,1.000000,18.000000,,,,0.000000,2.000000,2.000000,0.000000,4.000000,2.000000,2.000000,0.000000,0.000000,4.000000,4.000000,4.000000,4.000000,4.000000,4.000000,0.000000,,,,,,,,,,,,,,,,,,,,,,,,,,,,
1732158960.036389,1732158960.040301,107.000000,0.000000,4282.051270,4277.692383,4319.102539,4308.461426,4278.589844,4283.333496,4336.153809,4407.179688,4307.820313,4296.794922,4489.230957,4487.948730,4349.102539,4411.153809,1549.000000,1.000000,18.000000,,,,0.000000,2.000000,2.000000,0.000000,4.000000,2.000000,2.000000,0.000000,0.000000,4.000000,4.000000,4.000000,4.000000,4.000000,4.000000,0.000000,,,,,,,,,,,,,,,,,,,,,,,,,,,,
1732158960.044197,1732158960.048209,108.000000,0.000000,4281.922852,4278.846191,4318.333496,4310.128418,4285.769043,4280.769043,4340.000000,4407.692383,4303.846191,4295.128418,4479.230957,4487.692383,4343.589844,4406.410156,1708.000000,1.000000,18.000000,,,,0.000000,2.000000,2.000000,0.000000,4.000000,2.000000,2.000000,0.000000,0.000000,4.000000,4.000000,4.000000,4.000000,4.000000,4.000000,0.000000,,,,,,,,,,,,,,,,,27.000000,0.000000,0.498584,0.478333,-0.542419,0.477905,0.953730,-0.053229,-0.046881,-35.929466,44.669289,30.963581
1732158960.052005,1732158960.056018,109.000000,0.000000,4282.436035,4279.615234,4316.922852,4311.025879,4280.897461,4282.692383,4337.820313,4405.512695,4299.487305,4296.794922,4476.025879,4481.922852,4345.000000,4402.948730,1559.000000,1.000000,18.000000,,,,0.000000,2.000000,2.000000,0.000000,4.000000,2.000000,2.000000,0.000000,0.000000,4.000000,4.000000,4.000000,4.000000,4.000000,4.000000,0.000000,,,,,,,,,,,,,,,,,,,,,,,,,,,,
1732158960.059814,1732158960.064026,110.000000,0.000000,4281.666504,4275.256348,4318.589844,4310.384766,4283.333496,4282.436035,4336.922852,4402.692383,4305.769043,4298.205078,4475.897461,4477.563965,4346.794922,4404.487305,1566.000000,1.000000,18.000000,,,,0.000000,2.000000,2.000000,0.000000,4.000000,2.000000,2.000000,0.000000,0.000000,4.000000,4.000000,4.000000,4.000000,4.000000,4.000000,0.000000,,,,,,,,,,,,,,,,,,,,,,,,,,,,
1732158960.067622,1732158960.071834,111.000000,0.000000,4279.102539,4267.051270,4318.589844,4306.282227,4296.025879,4281.025879,4341.666504,4404.487305,4310.128418,4296.538574,4474.102539,4475.897461,4341.666504,4403.077148,1549.000000,1.000000,18.000000,,,,0.000000,2.000000,2.000000,0.000000,4.000000,2.000000,2.000000,0.000000,0.000000,4.000000,4.000000,4.000000,4.000000,4.000000,4.000000,0.000000,,,,,,,,,,,,,,,,,,,,,,,,,,,,
1732158960.075430,1732158960.079542,112.000000,0.000000,4277.179688,4263.589844,4316.538574,4300.256348,4294.358887,4282.563965,4341.794922,4408.333496,4301.025879,4292.948730,4473.974121,4473.333496,4340.769043,4402.436035,1708.000000,1.000000,18.000000,,,,0.000000,2.000000,2.000000,0.000000,4.000000,2.000000,2.000000,0.000000,0.000000,4.000000,4.000000,4.000000,4.000000,4.000000,4.000000,0.000000,,,,,,,,,,,,,,,,,28.000000,0.000000,0.498443,0.478271,-0.542603,0.477905,0.974240,-0.048834,-0.046881,-36.037868,44.573788,31.033833
1732158960.083238,1732158960.087350,113.000000,0.000000,4280.128418,4267.692383,4316.410156,4303.205078,4276.538574,4284.102539,4336.794922,4408.589844,4295.512695,4292.179688,4475.641113,4475.512695,4342.563965,4410.769043,1559.000000,1.000000,18.000000,,,,0.000000,2.000000,2.000000,0.000000,4.000000,2.000000,2.000000,0.000000,0.000000,4.000000,4.000000,4.000000,4.000000,4.000000,4.000000,0.000000,,,,,,,,,,,,,,,,,,,,,,,,,,,,
1732158960.091047,1732158960.094959,114.000000,0.000000,4283.333496,4271.025879,4316.666504,4310.897461,4270.769043,4288.717773,4335.641113,4406.538574,4304.358887,4297.307617,4479.615234,4483.461426,4343.205078,4415.512695,1566.000000,1.000000,18.000000,,,,0.000000,2.000000,2.000000,0.000000,4.000000,2.000000,2.000000,0.000000,0.000000,4.000000,4.000000,4.000000,4.000000,4.000000,4.000000,0.000000,,,,,,,,,,,,,,,,,,,,,,,,,,,,
1732158960.098855,1732158960.102767,115.000000,0.000000,4281.666504,4272.436035,4315.512695,4310.641113,4283.333496,4293.205078,4335.641113,4405.897461,4308.461426,4298.461426,4480.256348,4484.615234,4347.307617,4410.641113,1549.000000,1.000000,18.000000,,,,0.000000,2.000000,2.000000,0.000000,4.000000,2.000000,2.000000,0.000000,0.000000,4.000000,4.000000,4.000000,4.000000,4.000000,4.000000,0.000000,,,,,,,,,,,,,,,,,,,,,,,,,,,,
1732158960.106663,1732158960.110475,116.000000,0.000000,4281.794922,4272.436035,4317.307617,4307.692383,4281.025879,4290.128418,4334.487305,4405.769043,4300.769043,4295.128418,4477.436035,4481.666504,4349.358887,4410.000000,1708.000000,1.000000,18.000000,,,,0.000000,2.000000,2.000000,0.000000,4.000000,2.000000,2.000000,0.000000,0.000000,4.000000,4.000000,4.000000,4.000000,4.000000,4.000000,0.000000,,,,,,,,,,,,,,,,,29.000000,0.000000,0.498688,0.477905,-0.542969,0.477600,0.973263,-0.052741,-0.052741,-35.832340,44.714767,31.067406
1732158960.114472,1732158960.118284,117.000000,0.000000,4284.487305,4266.922852,4320.256348,4304.358887,4276.922852,4283.077148,4335.641113,4406.666504,4293.846191,4295.897461,4475.384766,4487.563965,4345.000000,4410.897461,1559.000000,1.000000,18.000000,,,,0.000000,2.000000,2.000000,0.000000,4.000000,2.000000,2.000000,0.000000,0.000000,4.000000,4.000000,4.000000,4.000000,4.000000,4.000000,0.000000,,,,,,,,,,,,,,,,,,,,,,,,,,,,
1732158960.122280,1732158960.125892,118.000000,0.000000,4283.077148,4264.230957,4319.743652,4297.948730,4294.102539,4278.717773,4336.666504,4407.179688,4293.205078,4295.128418,4476.025879,4494.230957,4345.128418,4406.666504,1566.000000,1.000000,18.000000,,,,0.000000,2.000000,2.000000,0.000000,4.000000,2.000000,2.000000,0.000000,0.000000,4.000000,4.000000,4.000000,4.000000,4.000000,4.000000,0.000000,,,,,,,,,,,,,,,,,,,,,,,,,,,,
1732158960.130088,1732158960.133700,119.000000,0.000000,4280.769043,4267.692383,4317.179688,4298.333496,4295.000000,4280.512695,4335.897461,4404.615234,4295.128418,4291.666504,4475.256348,4491.666504,4345.256348,4408.461426,1549.000000,1.000000,18.000000,,,,0.000000,2.000000,2.000000,0.000000,4.000000,2.000000,2.000000,0.000000,0.000000,4.000000,4.000000,4.000000,4.000000,4.000000,4.000000,0.000000,,,,,,,,,,,,,,,,,,,,,,,,,,,,
1732158960.137896,1732158960.141408,120.000000,0.000000,4281.666504,4269.871582,4317.692383,4302.563965,4272.563965,4283.333496,4334.871582,4405.256348,4300.769043,4292.692383,4474.230957,4485.641113,4340.641113,4412.820313,1708.000000,1.000000,18.000000,,,,0.000000,2.000000,2.000000,0.000000,4.000000,2.000000,2.000000,0.000000,0.000000,4.000000,4.000000,4.000000,4.000000,4.000000,4.000000,0.000000,,,,,,,,,,,,,,,,,30.000000,0.000000,0.498520,0.478027,-0.542908,0.477722,0.997680,-0.052741,-0.034672,-35.769196,44.577297,31.362932
1732158960.145704,1732158960.149217,121.000000,0.000000,4282.307617,4267.307617,4318.589844,4302.051270,4266.153809,4284.230957,4335.897461,4407.051270,4304.358887,4295.384766,4476.282227,4486.282227,4343.589844,4410.641113,1559.000000,1.000000,18.000000,,,,0.000000,2.000000,2.000000,0.000000,4.000000,2.000000,2.000000,0.000000,0.000000,4.000000,4.000000,4.000000,4.000000,4.000000,4.000000,0.000000,,,,,,,,,,,,,,,,,,,,,,,,,,,,
1732158960.153513,1732158960.156825,122.000000,0.000000,4280.000000,4265.512695,4317.051270,4299.358887,4277.307617,4282.948730,4336.410156,4404.743652,4302.307617,4293.846191,4477.692383,4489.230957,4349.487305,4410.769043,1566.000000,1.000000,18.000000,,,,0.000000,2.000000,2.000000,0.000000,4.000000,2.000000,2.000000,0.000000,0.000000,4.000000,4.000000,4.000000,4.000000,4.000000,4.000000,0.000000,,,,,,,,,,,,,,,,,,,,,,,,,,,,
1732158960.161321,1732158960.164633,123.000000,0.000000,4279.615234,4265.512695,4317.179688,4299.743652,4281.025879,4280.512695,4334.487305,4404.743652,4299.871582,4294.871582,4477.179688,4490.000000,4346.410156,4412.563965,1549.000000,1.000000,18.000000,,,,0.000000,2.000000,2.000000,0.000000,4.000000,2.000000,2.000000,0.000000,0.000000,4.000000,4.000000,4.000000,4.000000,4.000000,4.000000,0.000000,,,,,,,,,,,,,,,,,,,,,,,,,,,,
1732158960.169129,1732158960.172342,124.000000,0.000000,4281.282227,4265.769043,4319.102539,4304.230957,4277.179688,4282.820313,4335.897461,4409.743652,4300.256348,4296.153809,4478.205078,4491.410156,4342.820313,4407.820313,1708.000000,1.000000,18.000000,,,,0.000000,2.000000,2.000000,0.000000,4.000000,2.000000,2.000000,0.000000,0.000000,4.000000,4.000000,4.000000,4.000000,4.000000,4.000000,0.000000,,,,,,,,,,,,,,,,,31.000000,0.000000,0.498520,0.478027,-0.542908,0.477722,0.992309,-0.047369,-0.046881,-35.838047,44.510944,31.482307
1732158960.176937,1732158960.180150,125.000000,0.000000,4280.128418,4265.769043,4319.743652,4308.077148,4279.102539,4283.589844,4340.000000,4411.538574,4297.820313,4287.692383,4476.666504,4488.077148,4342.692383,4400.128418,1559.000000,1.000000,18.000000,,,,0.000000,2.000000,2.000000,0.000000,4.000000,2.000000,2.000000,0.000000,0.000000,4.000000,4.000000,4.000000,4.000000,4.000000,4.000000,0.000000,,,,,,,,,,,,,,,,,,,,,,,,,,,,
1732158960.184746,1732158960.187758,126.000000,0.000000,4277.051270,4266.922852,4316.666504,4305.512695,4292.820313,4282.307617,4339.743652,4403.589844,4295.769043,4281.410156,4473.333496,4477.692383,4342.436035,4397.307617,1566.000000,1.000000,18.000000,,,,0.000000,2.000000,2.000000,0.000000,4.000000,2.000000,2.000000,0.000000,0.000000,4.000000,4.000000,4.000000,4.000000,4.000000,4.000000,0.000000,,,,,,,,,,,,,,,,,,,,,,,,,,,,
1732158960.192554,1732158960.195566,127.000000,0.000000,4278.205078,4271.794922,4316.794922,4302.692383,4296.666504,4283.461426,4337.051270,4398.846191,4297.307617,4287.948730,4473.846191,4478.461426,4342.436035,4401.794922,18.000000,1.000000,18.000000,,,,0.000000,2.000000,2.000000,0.000000,4.000000,2.000000,2.000000,0.000000,0.000000,4.000000,4.000000,4.000000,4.000000,4.000000,4.000000,0.000000,,,,,,,,,,,,,,,,,,,,,,,,,,,,
1732158960.200362,1732158960.203275,0.000000,0.000000,4282.307617,4275.128418,4317.820313,4304.871582,4270.512695,4284.102539,4337.051270,4403.461426,4298.974121,4295.256348,4476.153809,4492.563965,4344.230957,4406.410156,0.000000,1.000000,18.000000,,,,0.000000,2.000000,2.000000,0.000000,4.000000,2.000000,2.000000,0.000000,0.000000,4.000000,4.000000,4.000000,4.000000,4.000000,4.000000,0.000000,,,,,,,,,,,,,,,,,0.000000,0.000000,0.498815,0.477539,-0.543335,0.477417,0.962031,-0.044439,-0.045904,-35.673817,44.398865,31.679003
1732158960.208171,1732158960.211083,1.000000,0.000000,4282.948730,4272.436035,4316.025879,4304.487305,4255.128418,4282.820313,4336.153809,4408.846191,4301.666504,4295.384766,4476.538574,4493.717773,4343.461426,4404.615234,1613.000000,1.000000,18.000000,,,,0.000000,2.000000,2.000000,0.000000,4.000000,2.000000,2.000000,0.000000,0.000000,4.000000,4.000000,4.000000,4.000000,4.000000,4.000000,0.000000,,,,,,,,,,,,,,,,,,,,,,,,,,,,
1732158960.215979,1732158960.218691,2.000000,0.000000,4281.153809,4268.461426,4314.743652,4302.563965,4270.384766,4282.692383,4335.256348,4410.128418,4303.974121,4294.487305,4477.179688,4488.205078,4342.563965,4403.333496,1359.000000,1.000000,18.000000,,,,0.000000,2.000000,2.000000,0.000000,4.000000,2.000000,2.000000,0.000000,0.000000,4.000000,4.000000,4.000000,4.000000,4.000000,4.000000,0.000000,,,,,,,,,,,,,,,,,,,,,,,,,,,,
1732158960.223787,1732158960.226500,3.000000,0.000000,4279.487305,4267.051270,4317.307617,4303.205078,4276.538574,4284.743652,4336.282227,4409.230957,4305.384766,4296.153809,4478.589844,4497.820313,4343.205078,4409.102539,1436.000000,1.000000,18.000000,,,,0.000000,2.000000,2.000000,0.000000,4.000000,2.000000,2.000000,0.000000,0.000000,4.000000,4.000000,4.000000,4.000000,4.000000,4.000000,0.000000,,,,,,,,,,,,,,,,,,,,,,,,,,,,
1732158960.231595,1732158960.234208,4.000000,0.000000,4282.563965,4270.897461,4316.153809,4306.666504,4282.436035,4283.461426,4335.897461,4409.358887,4303.974121,4295.641113,4478.461426,4505.384766,4346.410156,4414.743652,1444.000000,1.000000,18.000000,,,,0.000000,2.000000,2.000000,0.000000,4.000000,2.000000,2.000000,0.000000,0.000000,4.000000,4.000000,4.000000,4.000000,4.000000,4.000000,0.000000,,,,,,,,,,,,,,,,,1.000000,0.000000,0.498892,0.477295,-0.543640,0.477234,0.968380,-0.036137,-0.050787,-35.617458,44.456413,31.864992
1732158960.239404,1732158960.242016,5.000000,0.000000,4287.948730,4274.487305,4312.692383,4310.512695,4291.538574,4279.487305,4333.589844,4407.307617,4297.948730,4290.256348,4477.051270,4501.794922,4346.538574,4413.974121,1192.000000,1.000000,18.000000,,,,0.000000,2.000000,2.000000,0.000000,4.000000,2.000000,2.000000,0.000000,0.000000,4.000000,4.000000,4.000000,4.000000,4.000000,4.000000,0.000000,,,,,,,,,,,,,,,,,,,,,,,,,,,,
