title:4nine, start timestamp:1732159014.085035, stop timestamp:1732159068.555419, headset type:EPOCX, headset serial:E5020C3A, headset firmware:730, channels:67, sampling rate:eeg_128;mot_32, samples:6977      , version:2.2, 
Timestamp,OriginalTimestamp,EEG.Counter,EEG.Interpolated,EEG.AF3,EEG.F7,EEG.F3,EEG.FC5,EEG.T7,EEG.P7,EEG.O1,EEG.O2,EEG.P8,EEG.T8,EEG.FC6,EEG.F4,EEG.F8,EEG.AF4,EEG.RawCq,EEG.Battery,EEG.BatteryPercent,MarkerIndex,MarkerType,MarkerValueInt,EEG.MarkerHardware,CQ.AF3,CQ.F7,CQ.F3,CQ.FC5,CQ.T7,CQ.P7,CQ.O1,CQ.O2,CQ.P8,CQ.T8,CQ.FC6,CQ.F4,CQ.F8,CQ.AF4,CQ.Overall,EQ.SampleRateQuality,EQ.OVERALL,EQ.AF3,EQ.F7,EQ.F3,EQ.FC5,EQ.T7,EQ.P7,EQ.O1,EQ.O2,EQ.P8,EQ.T8,EQ.FC6,EQ.F4,EQ.F8,EQ.AF4,MOT.CounterMems,MOT.InterpolatedMems,MOT.Q0,MOT.Q1,MOT.Q2,MOT.Q3,MOT.AccX,MOT.AccY,MOT.AccZ,MOT.MagX,MOT.MagY,MOT.MagZ
1732159014.085035,1732159014.087921,117.000000,0.000000,4297.307617,4260.000000,4313.974121,4278.589844,4260.641113,4279.358887,4334.871582,4403.846191,4294.102539,4297.307617,4508.461426,4525.384766,4378.717773,4447.436035,1548.000000,1.000000,18.000000,,,,0.000000,2.000000,2.000000,0.000000,4.000000,2.000000,2.000000,0.000000,0.000000,4.000000,4.000000,4.000000,4.000000,4.000000,4.000000,0.000000,,,,,,,,,,,,,,,,,,,,,,,,,,,,
1732159014.092844,1732159014.095530,118.000000,0.000000,4298.333496,4257.820313,4312.563965,4280.384766,4262.436035,4280.000000,4334.871582,4402.692383,4301.538574,4299.487305,4507.563965,4524.615234,4377.307617,4445.641113,1566.000000,1.000000,18.000000,,,,0.000000,2.000000,2.000000,0.000000,4.000000,2.000000,2.000000,0.000000,0.000000,4.000000,4.000000,4.000000,4.000000,4.000000,4.000000,0.000000,,,,,,,,,,,,,,,,,,,,,,,,,,,,
1732159014.100652,1732159014.103338,119.000000,0.000000,4300.512695,4259.615234,4313.205078,4281.025879,4267.051270,4279.230957,4335.000000,4403.077148,4302.820313,4297.436035,4506.922852,4521.922852,4372.051270,4444.487305,1551.000000,1.000000,18.000000,,,,0.000000,2.000000,2.000000,0.000000,4.000000,2.000000,2.000000,0.000000,0.000000,4.000000,4.000000,4.000000,4.000000,4.000000,4.000000,0.000000,,,,,,,,,,,,,,,,,,,,,,,,,,,,
1732159014.108460,1732159014.111046,120.000000,0.000000,4298.974121,4253.077148,4315.000000,4279.743652,4263.205078,4279.487305,4334.743652,4406.153809,4299.358887,4295.897461,4508.461426,4526.410156,4372.948730,4446.410156,1710.000000,1.000000,18.000000,,,,0.000000,2.000000,2.000000,0.000000,4.000000,2.000000,2.000000,0.000000,0.000000,4.000000,4.000000,4.000000,4.000000,4.000000,4.000000,0.000000,,,,,,,,,,,,,,,,,30.000000,0.000000,0.536715,0.512329,-0.503418,0.442749,0.970333,0.094738,-0.027835,-34.071457,46.598152,31.540485
1732159014.116268,1732159014.118854,121.000000,0.000000,4296.410156,4248.846191,4311.538574,4279.358887,4260.897461,4279.743652,4335.128418,4403.077148,4300.769043,4297.179688,4507.692383,4528.461426,4372.820313,4441.538574,1548.000000,1.000000,18.000000,,,,0.000000,2.000000,2.000000,0.000000,4.000000,2.000000,2.000000,0.000000,0.000000,4.000000,4.000000,4.000000,4.000000,4.000000,4.000000,0.000000,,,,,,,,,,,,,,,,,,,,,,,,,,,,
1732159014.124076,1732159014.126463,122.000000,0.000000,4293.717773,4248.461426,4311.025879,4278.974121,4276.666504,4279.871582,4335.384766,4400.384766,4302.436035,4293.589844,4503.205078,4523.974121,4365.641113,4432.563965,1566.000000,1.000000,18.000000,,,,0.000000,2.000000,2.000000,0.000000,4.000000,2.000000,2.000000,0.000000,0.000000,4.000000,4.000000,4.000000,4.000000,4.000000,4.000000,0.000000,,,,,,,,,,,,,,,,,,,,,,,,,,,,
1732159014.131885,1732159014.134271,123.000000,0.000000,4293.077148,4251.025879,4313.974121,4279.358887,4282.948730,4280.256348,4335.897461,4401.794922,4300.512695,4290.897461,4503.717773,4525.128418,4365.641113,4436.794922,1551.000000,1.000000,18.000000,,,,0.000000,2.000000,2.000000,0.000000,4.000000,2.000000,2.000000,0.000000,0.000000,4.000000,4.000000,4.000000,4.000000,4.000000,4.000000,0.000000,,,,,,,,,,,,,,,,,,,,,,,,,,,,
1732159014.139693,1732159014.141979,124.000000,0.000000,4296.153809,4258.461426,4312.051270,4283.846191,4262.563965,4280.641113,4336.666504,4402.563965,4306.153809,4296.025879,4510.769043,4531.025879,4376.794922,4444.102539,1710.000000,1.000000,18.000000,,,,0.000000,2.000000,2.000000,0.000000,4.000000,2.000000,2.000000,0.000000,0.000000,4.000000,4.000000,4.000000,4.000000,4.000000,4.000000,0.000000,,,,,,,,,,,,,,,,,31.000000,0.000000,0.536964,0.512329,-0.502991,0.442932,0.970333,0.094738,-0.027835,-33.867878,46.706169,31.501125
1732159014.147501,1732159014.149787,125.000000,0.000000,4297.948730,4262.436035,4309.102539,4287.948730,4253.589844,4280.897461,4336.538574,4401.922852,4312.436035,4300.000000,4511.922852,4528.717773,4382.307617,4442.051270,1548.000000,1.000000,18.000000,,,,0.000000,2.000000,2.000000,0.000000,4.000000,2.000000,2.000000,0.000000,0.000000,4.000000,4.000000,4.000000,4.000000,4.000000,4.000000,0.000000,,,,,,,,,,,,,,,,,,,,,,,,,,,,
1732159014.155310,1732159014.157795,126.000000,0.000000,4297.436035,4261.025879,4312.436035,4286.282227,4267.563965,4281.025879,4336.025879,4402.563965,4303.077148,4297.179688,4507.307617,4522.820313,4378.333496,4439.102539,1566.000000,1.000000,18.000000,,,,0.000000,2.000000,2.000000,0.000000,4.000000,2.000000,2.000000,0.000000,0.000000,4.000000,4.000000,4.000000,4.000000,4.000000,4.000000,0.000000,,,,,,,,,,,,,,,,,,,,,,,,,,,,
1732159014.163118,1732159014.165604,127.000000,0.000000,4298.205078,4260.512695,4313.717773,4283.717773,4266.025879,4280.769043,4336.922852,4403.205078,4296.153809,4294.871582,4506.282227,4523.589844,4374.487305,4439.487305,18.000000,1.000000,18.000000,,,,0.000000,2.000000,2.000000,0.000000,4.000000,2.000000,2.000000,0.000000,0.000000,4.000000,4.000000,4.000000,4.000000,4.000000,4.000000,0.000000,,,,,,,,,,,,,,,,,,,,,,,,,,,,
1732159014.170926,1732159014.173512,0.000000,0.000000,4297.948730,4259.102539,4311.538574,4284.487305,4259.487305,4281.153809,4337.179688,4403.077148,4304.743652,4293.717773,4506.410156,4524.871582,4372.563965,4439.487305,0.000000,1.000000,18.000000,,,,0.000000,2.000000,2.000000,0.000000,4.000000,2.000000,2.000000,0.000000,0.000000,4.000000,4.000000,4.000000,4.000000,4.000000,4.000000,0.000000,,,,,,,,,,,,,,,,,0.000000,0.000000,0.537315,0.512268,-0.502625,0.442993,0.989379,0.131852,-0.019534,-33.736317,46.635330,31.594246
1732159014.178734,1732159014.181320,1.000000,0.000000,4295.897461,4256.666504,4314.487305,4283.333496,4276.282227,4281.282227,4335.000000,4402.692383,4309.615234,4287.948730,4503.461426,4523.077148,4366.922852,4438.333496,1616.000000,1.000000,18.000000,,,,0.000000,2.000000,2.000000,0.000000,4.000000,2.000000,2.000000,0.000000,0.000000,4.000000,4.000000,4.000000,4.000000,4.000000,4.000000,0.000000,,,,,,,,,,,,,,,,,,,,,,,,,,,,
1732159014.186543,1732159014.188928,2.000000,0.000000,4295.512695,4258.589844,4317.692383,4280.128418,4280.897461,4280.897461,4334.743652,4401.538574,4307.692383,4289.102539,4502.948730,4522.436035,4363.461426,4436.666504,1359.000000,1.000000,18.000000,,,,0.000000,2.000000,2.000000,0.000000,4.000000,2.000000,2.000000,0.000000,0.000000,4.000000,4.000000,4.000000,4.000000,4.000000,4.000000,0.000000,,,,,,,,,,,,,,,,,,,,,,,,,,,,
1732159014.194351,1732159014.196737,3.000000,0.000000,4295.512695,4262.179688,4314.230957,4282.563965,4261.922852,4284.358887,4336.794922,4401.794922,4307.948730,4294.871582,4505.128418,4522.051270,4365.769043,4435.769043,1434.000000,1.000000,18.000000,,,,0.000000,2.000000,2.000000,0.000000,4.000000,2.000000,2.000000,0.000000,0.000000,4.000000,4.000000,4.000000,4.000000,4.000000,4.000000,0.000000,,,,,,,,,,,,,,,,,,,,,,,,,,,,
1732159014.202159,1732159014.204445,4.000000,0.000000,4295.769043,4262.179688,4313.461426,4283.333496,4254.487305,4287.179688,4336.153809,4403.846191,4304.487305,4285.128418,4502.051270,4519.743652,4365.769043,4437.948730,1451.000000,1.000000,18.000000,,,,0.000000,2.000000,2.000000,0.000000,4.000000,2.000000,2.000000,0.000000,0.000000,4.000000,4.000000,4.000000,4.000000,4.000000,4.000000,0.000000,,,,,,,,,,,,,,,,,1.000000,0.000000,0.537940,0.513306,-0.500732,0.443176,0.984984,0.116225,-0.018557,-33.629749,46.611286,31.619673
1732159014.209967,1732159014.212253,5.000000,0.000000,4295.000000,4261.666504,4312.948730,4282.820313,4263.077148,4283.333496,4333.589844,4403.974121,4302.692383,4279.487305,4499.358887,4517.179688,4363.589844,4440.000000,1195.000000,1.000000,18.000000,,,,0.000000,2.000000,2.000000,0.000000,4.000000,2.000000,2.000000,0.000000,0.000000,4.000000,4.000000,4.000000,4.000000,4.000000,4.000000,0.000000,,,,,,,,,,,,,,,,,,,,,,,,,,,,
1732159014.217776,1732159014.219862,6.000000,0.000000,4294.102539,4261.153809,4310.256348,4285.000000,4266.025879,4280.769043,4333.077148,4402.051270,4307.948730,4290.769043,4503.589844,4517.820313,4365.512695,4442.692383,0.000000,1.000000,18.000000,,,,0.000000,2.000000,2.000000,0.000000,4.000000,2.000000,2.000000,0.000000,0.000000,4.000000,4.000000,4.000000,4.000000,4.000000,4.000000,0.000000,,,,,,,,,,,,,,,,,,,,,,,,,,,,
1732159014.225584,1732159014.227670,7.000000,0.000000,4295.769043,4263.461426,4309.102539,4286.538574,4268.589844,4282.436035,4333.974121,4400.384766,4307.820313,4291.794922,4506.666504,4520.769043,4368.461426,4441.666504,0.000000,1.000000,18.000000,,,,0.000000,2.000000,2.000000,0.000000,4.000000,2.000000,2.000000,0.000000,0.000000,4.000000,4.000000,4.000000,4.000000,4.000000,4.000000,0.000000,,,,,,,,,,,,,,,,,,,,,,,,,,,,
1732159014.233392,1732159014.235378,8.000000,0.000000,4295.641113,4263.461426,4308.205078,4283.846191,4270.256348,4282.436035,4333.461426,4399.871582,4304.358887,4281.410156,4503.974121,4522.051270,4368.461426,4432.563965,1534.000000,1.000000,18.000000,,,,0.000000,2.000000,2.000000,0.000000,4.000000,2.000000,2.000000,0.000000,0.000000,4.000000,4.000000,4.000000,4.000000,4.000000,4.000000,0.000000,,,,,,,,,,,,,,,,,2.000000,0.000000,0.537494,0.513733,-0.500610,0.443359,0.984984,0.116225,-0.018557,-33.556763,46.521809,31.548601
1732159014.241200,1732159014.243186,9.000000,0.000000,4290.384766,4258.205078,4304.487305,4281.794922,4262.051270,4280.512695,4333.461426,4401.410156,4305.384766,4285.897461,4503.589844,4515.512695,4364.871582,4429.358887,1698.000000,1.000000,18.000000,,,,0.000000,2.000000,2.000000,0.000000,4.000000,2.000000,2.000000,0.000000,0.000000,4.000000,4.000000,4.000000,4.000000,4.000000,4.000000,0.000000,,,,,,,,,,,,,,,,,,,,,,,,,,,,
1732159014.249009,1732159014.251194,10.000000,0.000000,4286.922852,4256.794922,4305.256348,4281.282227,4275.256348,4281.153809,4333.589844,4400.897461,4304.358887,4291.922852,4505.512695,4511.282227,4362.563965,4432.692383,1566.000000,1.000000,18.000000,,,,0.000000,2.000000,2.000000,0.000000,4.000000,2.000000,2.000000,0.000000,0.000000,4.000000,4.000000,4.000000,4.000000,4.000000,4.000000,0.000000,,,,,,,,,,,,,,,,,,,,,,,,,,,,
1732159014.256817,1732159014.259002,11.000000,0.000000,4291.282227,4261.410156,4307.563965,4284.615234,4293.846191,4281.282227,4333.589844,4398.333496,4304.615234,4289.358887,4505.000000,4517.051270,4366.025879,4431.025879,1551.000000,1.000000,18.000000,,,,0.000000,2.000000,2.000000,0.000000,4.000000,2.000000,2.000000,0.000000,0.000000,4.000000,4.000000,4.000000,4.000000,4.000000,4.000000,0.000000,,,,,,,,,,,,,,,,,,,,,,,,,,,,
1732159014.264625,1732159014.266911,12.000000,0.000000,4294.102539,4262.307617,4305.128418,4287.948730,4275.000000,4281.282227,4333.589844,4397.307617,4311.153809,4291.282227,4505.128418,4519.615234,4369.102539,4428.589844,1710.000000,1.000000,18.000000,,,,0.000000,2.000000,2.000000,0.000000,4.000000,2.000000,2.000000,0.000000,0.000000,4.000000,4.000000,4.000000,4.000000,4.000000,4.000000,0.000000,,,,,,,,,,,,,,,,,3.000000,0.000000,0.535351,0.513672,-0.501831,0.444641,0.974728,0.077158,-0.032719,-33.482643,46.454330,31.571033
1732159014.272433,1732159014.274719,13.000000,0.000000,4291.538574,4255.897461,4302.563965,4285.512695,4252.563965,4281.922852,4333.589844,4399.358887,4310.512695,4289.871582,4504.743652,4511.538574,4366.666504,4434.743652,1553.000000,1.000000,18.000000,,,,0.000000,2.000000,2.000000,0.000000,4.000000,2.000000,2.000000,0.000000,0.000000,4.000000,4.000000,4.000000,4.000000,4.000000,4.000000,0.000000,,,,,,,,,,,,,,,,,,,,,,,,,,,,
1732159014.280242,1732159014.282727,14.000000,0.000000,4291.666504,4256.538574,4304.358887,4285.512695,4259.743652,4281.922852,4333.589844,4400.512695,4304.615234,4283.461426,4504.615234,4508.589844,4363.077148,4434.615234,1566.000000,1.000000,18.000000,,,,0.000000,2.000000,2.000000,0.000000,4.000000,2.000000,2.000000,0.000000,0.000000,4.000000,4.000000,4.000000,4.000000,4.000000,4.000000,0.000000,1.000000,0.000000,2.000000,2.000000,0.000000,4.000000,2.000000,1.000000,0.000000,0.000000,4.000000,4.000000,4.000000,4.000000,4.000000,4.000000,,,,,,,,,,,,
1732159014.288050,1732159014.290535,15.000000,0.000000,4294.358887,4263.846191,4308.461426,4291.666504,4267.820313,4281.410156,4333.461426,4399.487305,4301.922852,4285.000000,4502.436035,4518.717773,4364.743652,4431.153809,1551.000000,1.000000,18.000000,,,,0.000000,2.000000,2.000000,0.000000,4.000000,2.000000,2.000000,0.000000,0.000000,4.000000,4.000000,4.000000,4.000000,4.000000,4.000000,0.000000,,,,,,,,,,,,,,,,,,,,,,,,,,,,
1732159014.295858,1732159014.298243,16.000000,0.000000,4295.256348,4265.512695,4309.102539,4295.384766,4268.205078,4279.358887,4333.846191,4399.102539,4300.897461,4293.077148,4496.794922,4518.333496,4367.051270,4437.820313,0.000000,1.000000,18.000000,,,,0.000000,2.000000,2.000000,0.000000,4.000000,2.000000,2.000000,0.000000,0.000000,4.000000,4.000000,4.000000,4.000000,4.000000,4.000000,0.000000,,,,,,,,,,,,,,,,,4.000000,0.000000,0.531853,0.510803,-0.506775,0.446533,0.955195,0.054206,-0.038091,-33.739277,46.304676,31.497538
1732159014.303666,1732159014.306052,17.000000,0.000000,4293.589844,4263.077148,4309.102539,4289.358887,4273.333496,4279.487305,4333.589844,4400.512695,4302.948730,4296.025879,4493.846191,4506.282227,4363.205078,4439.743652,0.000000,1.000000,18.000000,,,,0.000000,2.000000,2.000000,0.000000,4.000000,2.000000,2.000000,0.000000,0.000000,4.000000,4.000000,4.000000,4.000000,4.000000,4.000000,0.000000,,,,,,,,,,,,,,,,,,,,,,,,,,,,
1732159014.311475,1732159014.314060,18.000000,0.000000,4292.692383,4262.307617,4311.794922,4285.256348,4269.743652,4282.179688,4333.333496,4401.666504,4303.333496,4293.461426,4493.589844,4504.358887,4361.025879,4430.641113,0.000000,1.000000,18.000000,,,,0.000000,2.000000,2.000000,0.000000,4.000000,2.000000,2.000000,0.000000,0.000000,4.000000,4.000000,4.000000,4.000000,4.000000,4.000000,0.000000,,,,,,,,,,,,,,,,,,,,,,,,,,,,
1732159014.319283,1732159014.321868,19.000000,0.000000,4293.461426,4263.205078,4314.743652,4288.846191,4265.897461,4281.025879,4334.743652,4399.615234,4300.641113,4293.974121,4490.512695,4509.230957,4364.487305,4426.153809,0.000000,1.000000,18.000000,,,,0.000000,2.000000,2.000000,0.000000,4.000000,2.000000,2.000000,0.000000,0.000000,4.000000,4.000000,4.000000,4.000000,4.000000,4.000000,0.000000,,,,,,,,,,,,,,,,,,,,,,,,,,,,
1732159014.327091,1732159014.329776,20.000000,0.000000,4295.128418,4265.384766,4312.563965,4293.717773,4275.769043,4278.846191,4336.153809,4397.563965,4301.282227,4296.153809,4493.077148,4509.615234,4366.153809,4432.436035,0.000000,1.000000,18.000000,,,,0.000000,2.000000,2.000000,0.000000,4.000000,2.000000,2.000000,0.000000,0.000000,4.000000,4.000000,4.000000,4.000000,4.000000,4.000000,0.000000,,,,,,,,,,,,,,,,,5.000000,0.000000,0.530958,0.508179,-0.509644,0.447327,0.973752,0.036626,-0.040532,-34.013813,46.250118,31.396339
1732159014.334900,1732159014.337584,21.000000,0.000000,4296.153809,4268.589844,4312.948730,4293.333496,4273.461426,4279.743652,4335.256348,4402.563965,4302.436035,4296.794922,4498.846191,4510.128418,4363.461426,4439.358887,0.000000,1.000000,18.000000,,,,0.000000,2.000000,2.000000,0.000000,4.000000,2.000000,2.000000,0.000000,0.000000,4.000000,4.000000,4.000000,4.000000,4.000000,4.000000,0.000000,,,,,,,,,,,,,,,,,,,,,,,,,,,,
1732159014.342708,1732159014.345592,22.000000,0.000000,4295.128418,4265.384766,4318.205078,4289.871582,4266.153809,4279.871582,4334.743652,4407.563965,4299.358887,4297.051270,4496.922852,4513.077148,4365.512695,4443.333496,0.000000,1.000000,18.000000,,,,0.000000,2.000000,2.000000,0.000000,4.000000,2.000000,2.000000,0.000000,0.000000,4.000000,4.000000,4.000000,4.000000,4.000000,4.000000,0.000000,,,,,,,,,,,,,,,,,,,,,,,,,,,,
1732159014.350516,1732159014.353400,23.000000,0.000000,4295.769043,4265.128418,4320.128418,4293.461426,4271.922852,4277.948730,4335.641113,4405.897461,4299.743652,4298.205078,4492.563965,4514.487305,4367.179688,4442.692383,0.000000,1.000000,18.000000,,,,0.000000,2.000000,2.000000,0.000000,4.000000,2.000000,2.000000,0.000000,0.000000,4.000000,4.000000,4.000000,4.000000,4.000000,4.000000,0.000000,,,,,,,,,,,,,,,,,,,,,,,,,,,,
1732159014.358324,1732159014.361308,24.000000,0.000000,4300.512695,4269.230957,4318.333496,4296.922852,4274.230957,4277.948730,4334.230957,4401.538574,4300.256348,4295.512695,4496.794922,4515.769043,4363.077148,4445.769043,0.000000,1.000000,18.000000,,,,0.000000,2.000000,2.000000,0.000000,4.000000,2.000000,2.000000,0.000000,0.000000,4.000000,4.000000,4.000000,4.000000,4.000000,4.000000,0.000000,,,,,,,,,,,,,,,,,6.000000,0.000000,0.530978,0.506592,-0.510986,0.447571,0.981565,0.070809,-0.035649,-34.106190,46.297596,31.447701
1732159014.366132,1732159014.369117,25.000000,0.000000,4307.179688,4266.666504,4318.846191,4294.871582,4267.820313,4277.948730,4335.512695,4402.179688,4297.436035,4293.717773,4504.743652,4516.025879,4367.820313,4457.948730,0.000000,1.000000,18.000000,,,,0.000000,2.000000,2.000000,0.000000,4.000000,2.000000,2.000000,0.000000,0.000000,4.000000,4.000000,4.000000,4.000000,4.000000,4.000000,0.000000,,,,,,,,,,,,,,,,,,,,,,,,,,,,
1732159014.373941,1732159014.377125,26.000000,0.000000,4311.282227,4264.871582,4320.000000,4293.205078,4261.153809,4278.974121,4338.974121,4404.871582,4297.307617,4299.102539,4508.846191,4519.487305,4379.615234,4462.820313,0.000000,1.000000,18.000000,,,,0.000000,2.000000,2.000000,0.000000,4.000000,2.000000,2.000000,0.000000,0.000000,4.000000,4.000000,4.000000,4.000000,4.000000,4.000000,0.000000,,,,,,,,,,,,,,,,,,,,,,,,,,,,
1732159014.381749,1732159014.384933,27.000000,0.000000,4315.512695,4272.948730,4318.077148,4295.769043,4269.487305,4276.025879,4337.179688,4403.717773,4297.820313,4297.563965,4508.077148,4524.358887,4381.794922,4460.256348,0.000000,1.000000,18.000000,,,,0.000000,2.000000,2.000000,0.000000,4.000000,2.000000,2.000000,0.000000,0.000000,4.000000,4.000000,4.000000,4.000000,4.000000,4.000000,0.000000,,,,,,,,,,,,,,,,,,,,,,,,,,,,
1732159014.389557,1732159014.392841,28.000000,0.000000,4322.820313,4279.487305,4318.589844,4294.358887,4281.153809,4266.794922,4334.102539,4404.871582,4293.077148,4284.871582,4505.897461,4521.666504,4380.256348,4465.128418,0.000000,1.000000,18.000000,,,,0.000000,2.000000,2.000000,0.000000,4.000000,2.000000,2.000000,0.000000,0.000000,4.000000,4.000000,4.000000,4.000000,4.000000,4.000000,0.000000,,,,,,,,,,,,,,,,,7.000000,0.000000,0.530795,0.504211,-0.512939,0.448242,0.993774,0.082530,-0.025394,-33.959347,46.304386,31.362638
1732159014.397365,1732159014.400649,29.000000,0.000000,4328.077148,4277.563965,4318.846191,4293.077148,4266.025879,4262.563965,4335.641113,4406.282227,4291.410156,4284.358887,4511.666504,4523.461426,4390.384766,4476.538574,0.000000,1.000000,18.000000,,,,0.000000,2.000000,2.000000,0.000000,4.000000,2.000000,2.000000,0.000000,0.000000,4.000000,4.000000,4.000000,4.000000,4.000000,4.000000,0.000000,,,,,,,,,,,,,,,,,,,,,,,,,,,,
1732159014.405174,1732159014.408258,30.000000,0.000000,4331.153809,4276.153809,4316.538574,4295.641113,4237.820313,4265.128418,4337.051270,4402.051270,4295.641113,4296.153809,4520.512695,4535.128418,4401.538574,4483.846191,0.000000,1.000000,18.000000,,,,0.000000,2.000000,2.000000,0.000000,4.000000,2.000000,2.000000,0.000000,0.000000,4.000000,4.000000,4.000000,4.000000,4.000000,4.000000,0.000000,,,,,,,,,,,,,,,,,,,,,,,,,,,,
1732159014.412982,1732159014.416066,31.000000,0.000000,4337.563965,4278.974121,4314.743652,4295.641113,4237.820313,4264.615234,4335.641113,4402.948730,4294.743652,4293.846191,4521.794922,4538.461426,4401.153809,4488.846191,0.000000,1.000000,18.000000,,,,0.000000,2.000000,2.000000,0.000000,4.000000,2.000000,2.000000,0.000000,0.000000,4.000000,4.000000,4.000000,4.000000,4.000000,4.000000,0.000000,,,,,,,,,,,,,,,,,,,,,,,,,,,,
1732159014.420790,1732159014.423774,32.000000,0.000000,4346.410156,4280.769043,4317.307617,4295.000000,4248.461426,4261.410156,4335.128418,4409.615234,4292.436035,4281.153809,4520.641113,4539.358887,4404.871582,4498.717773,0.000000,1.000000,18.000000,,,,0.000000,2.000000,2.000000,0.000000,4.000000,2.000000,2.000000,0.000000,0.000000,4.000000,4.000000,4.000000,4.000000,4.000000,4.000000,0.000000,,,,,,,,,,,,,,,,,8.000000,0.000000,0.529421,0.502380,-0.515137,0.449402,0.982542,0.095226,-0.040532,-34.090405,46.243221,31.468737
1732159014.428599,1732159014.431582,33.000000,0.000000,4350.641113,4280.641113,4316.794922,4296.410156,4242.820313,4260.897461,4335.641113,4406.153809,4292.692383,4279.743652,4522.051270,4546.922852,4411.025879,4506.025879,0.000000,1.000000,18.000000,,,,0.000000,2.000000,2.000000,0.000000,4.000000,2.000000,2.000000,0.000000,0.000000,4.000000,4.000000,4.000000,4.000000,4.000000,4.000000,0.000000,,,,,,,,,,,,,,,,,,,,,,,,,,,,
1732159014.436407,1732159014.439191,34.000000,0.000000,4349.871582,4278.846191,4314.358887,4297.179688,4244.743652,4259.487305,4336.153809,4402.051270,4288.077148,4282.436035,4521.794922,4550.641113,4407.179688,4505.000000,0.000000,1.000000,18.000000,,,,0.000000,2.000000,2.000000,0.000000,4.000000,2.000000,2.000000,0.000000,0.000000,4.000000,4.000000,4.000000,4.000000,4.000000,4.000000,0.000000,,,,,,,,,,,,,,,,,,,,,,,,,,,,
1732159014.444215,1732159014.446999,35.000000,0.000000,4350.769043,4280.000000,4314.102539,4295.769043,4246.666504,4261.922852,4336.922852,4406.794922,4286.025879,4280.512695,4519.358887,4548.846191,4405.769043,4505.128418,0.000000,1.000000,18.000000,,,,0.000000,2.000000,2.000000,0.000000,4.000000,2.000000,2.000000,0.000000,0.000000,4.000000,4.000000,4.000000,4.000000,4.000000,4.000000,0.000000,,,,,,,,,,,,,,,,,,,,,,,,,,,,
1732159014.452023,1732159014.454707,36.000000,0.000000,4354.230957,4284.615234,4311.666504,4295.641113,4248.077148,4261.410156,4336.794922,4408.974121,4290.769043,4279.230957,4521.282227,4549.102539,4411.794922,4508.077148,0.000000,1.000000,18.000000,,,,0.000000,2.000000,2.000000,0.000000,4.000000,2.000000,2.000000,0.000000,0.000000,4.000000,4.000000,4.000000,4.000000,4.000000,4.000000,0.000000,,,,,,,,,,,,,,,,,9.000000,0.000000,0.528824,0.502258,-0.515442,0.449890,0.970333,0.078135,-0.035161,-34.021561,46.293674,31.368010
1732159014.459832,1732159014.462515,37.000000,0.000000,4356.922852,4287.307617,4310.641113,4299.102539,4264.871582,4254.230957,4335.897461,4403.333496,4290.384766,4278.461426,4522.692383,4547.820313,4412.820313,4505.769043,0.000000,1.000000,18.000000,,,,0.000000,2.000000,2.000000,0.000000,4.000000,2.000000,2.000000,0.000000,0.000000,4.000000,4.000000,4.000000,4.000000,4.000000,4.000000,0.000000,,,,,,,,,,,,,,,,,,,,,,,,,,,,
1732159014.467640,1732159014.470124,38.000000,0.000000,4358.333496,4286.410156,4316.025879,4301.666504,4259.487305,4256.025879,4334.487305,4402.436035,4285.641113,4283.974121,4523.461426,4547.820313,4413.077148,4506.025879,0.000000,1.000000,18.000000,,,,0.000000,2.000000,2.000000,0.000000,4.000000,2.000000,2.000000,0.000000,0.000000,4.000000,4.000000,4.000000,4.000000,4.000000,4.000000,0.000000,,,,,,,,,,,,,,,,,,,,,,,,,,,,
1732159014.475448,1732159014.477932,39.000000,0.000000,4358.333496,4289.743652,4319.871582,4301.410156,4233.717773,4263.717773,4335.000000,4408.205078,4288.974121,4289.102539,4526.153809,4553.589844,4417.563965,4513.717773,0.000000,1.000000,18.000000,,,,0.000000,2.000000,2.000000,0.000000,4.000000,2.000000,2.000000,0.000000,0.000000,4.000000,4.000000,4.000000,4.000000,4.000000,4.000000,0.000000,,,,,,,,,,,,,,,,,,,,,,,,,,,,
1732159014.483256,1732159014.485640,40.000000,0.000000,4354.871582,4293.205078,4316.666504,4302.436035,4236.282227,4264.230957,4336.025879,4408.589844,4292.692383,4282.948730,4525.512695,4555.384766,4416.025879,4514.615234,0.000000,1.000000,18.000000,,,,0.000000,2.000000,2.000000,0.000000,4.000000,2.000000,2.000000,0.000000,0.000000,4.000000,4.000000,4.000000,4.000000,4.000000,4.000000,0.000000,,,,,,,,,,,,,,,,,10.000000,0.000000,0.527579,0.502136,-0.515930,0.450928,0.958125,0.063973,-0.040532,-33.890797,46.206211,31.139755
1732159014.491064,1732159014.493449,41.000000,0.000000,4351.025879,4289.487305,4315.384766,4303.333496,4254.102539,4261.025879,4335.128418,4401.922852,4290.384766,4278.974121,4523.974121,4554.871582,4413.717773,4509.487305,0.000000,1.000000,18.000000,,,,0.000000,2.000000,2.000000,0.000000,4.000000,2.000000,2.000000,0.000000,0.000000,4.000000,4.000000,4.000000,4.000000,4.000000,4.000000,0.000000,,,,,,,,,,,,,,,,,,,,,,,,,,,,
1732159014.498873,1732159014.501057,42.000000,0.000000,4350.000000,4286.538574,4316.538574,4300.384766,4248.846191,4263.333496,4335.000000,4401.666504,4292.692383,4285.897461,4525.897461,4555.256348,4418.461426,4507.179688,0.000000,1.000000,18.000000,,,,0.000000,2.000000,2.000000,0.000000,4.000000,2.000000,2.000000,0.000000,0.000000,4.000000,4.000000,4.000000,4.000000,4.000000,4.000000,0.000000,,,,,,,,,,,,,,,,,,,,,,,,,,,,
1732159014.506681,1732159014.508865,43.000000,0.000000,4350.128418,4289.230957,4315.641113,4302.436035,4247.051270,4266.282227,4335.512695,4405.384766,4296.538574,4288.077148,4525.769043,4554.615234,4416.666504,4506.794922,0.000000,1.000000,18.000000,,,,0.000000,2.000000,2.000000,0.000000,4.000000,2.000000,2.000000,0.000000,0.000000,4.000000,4.000000,4.000000,4.000000,4.000000,4.000000,0.000000,,,,,,,,,,,,,,,,,,,,,,,,,,,,
1732159014.514489,1732159014.516573,44.000000,0.000000,4351.025879,4292.563965,4315.641113,4309.615234,4257.692383,4264.102539,4336.922852,4402.307617,4295.641113,4281.794922,4528.333496,4555.000000,4415.384766,4505.897461,0.000000,1.000000,18.000000,,,,0.000000,2.000000,2.000000,0.000000,4.000000,2.000000,2.000000,0.000000,0.000000,4.000000,4.000000,4.000000,4.000000,4.000000,4.000000,0.000000,,,,,,,,,,,,,,,,,11.000000,0.000000,0.526620,0.501221,-0.516785,0.452087,0.998657,0.059089,-0.035161,-33.968212,46.263699,31.354868
1732159014.522298,1732159014.524382,45.000000,0.000000,4350.769043,4293.333496,4318.846191,4309.743652,4257.179688,4261.794922,4338.846191,4402.948730,4293.974121,4280.000000,4533.589844,4552.307617,4419.358887,4501.666504,0.000000,1.000000,18.000000,,,,0.000000,2.000000,2.000000,0.000000,4.000000,2.000000,2.000000,0.000000,0.000000,4.000000,4.000000,4.000000,4.000000,4.000000,4.000000,0.000000,,,,,,,,,,,,,,,,,,,,,,,,,,,,
1732159014.530106,1732159014.531990,46.000000,0.000000,4349.871582,4294.743652,4318.461426,4307.820313,4252.436035,4262.948730,4338.205078,4409.615234,4293.846191,4282.051270,4528.717773,4543.461426,4416.282227,4499.743652,0.000000,1.000000,18.000000,,,,0.000000,2.000000,2.000000,0.000000,4.000000,2.000000,2.000000,0.000000,0.000000,4.000000,4.000000,4.000000,4.000000,4.000000,4.000000,0.000000,,,,,,,,,,,,,,,,,,,,,,,,,,,,
1732159014.537914,1732159014.539798,47.000000,0.000000,4352.179688,4297.179688,4316.153809,4309.230957,4251.922852,4264.871582,4335.641113,4409.743652,4295.897461,4282.948730,4522.436035,4541.666504,4411.922852,4504.615234,0.000000,1.000000,18.000000,,,,0.000000,2.000000,2.000000,0.000000,4.000000,2.000000,2.000000,0.000000,0.000000,4.000000,4.000000,4.000000,4.000000,4.000000,4.000000,0.000000,,,,,,,,,,,,,,,,,,,,,,,,,,,,
1732159014.545722,1732159014.547507,48.000000,0.000000,4352.436035,4296.410156,4316.410156,4303.461426,4266.025879,4262.307617,4334.743652,4406.538574,4291.666504,4279.743652,4524.358887,4545.641113,4415.128418,4503.846191,0.000000,1.000000,18.000000,,,,0.000000,2.000000,2.000000,0.000000,4.000000,2.000000,2.000000,0.000000,0.000000,4.000000,4.000000,4.000000,4.000000,4.000000,4.000000,0.000000,,,,,,,,,,,,,,,,,12.000000,0.000000,0.525866,0.500183,-0.518555,0.452087,0.970822,0.063484,-0.046392,-34.045918,46.240261,31.620777
1732159014.553531,1732159014.555315,49.000000,0.000000,4349.615234,4293.589844,4318.846191,4301.153809,4273.461426,4262.692383,4335.000000,4408.717773,4285.512695,4278.077148,4523.333496,4548.974121,4416.025879,4498.589844,0.000000,1.000000,18.000000,,,,0.000000,2.000000,2.000000,0.000000,4.000000,2.000000,2.000000,0.000000,0.000000,4.000000,4.000000,4.000000,4.000000,4.000000,4.000000,0.000000,,,,,,,,,,,,,,,,,,,,,,,,,,,,
1732159014.561339,1732159014.563323,50.000000,0.000000,4355.897461,4297.307617,4320.128418,4313.205078,4254.230957,4266.282227,4335.256348,4408.589844,4288.333496,4285.769043,4525.256348,4556.282227,4416.922852,4504.615234,0.000000,1.000000,18.000000,,,,0.000000,2.000000,2.000000,0.000000,4.000000,2.000000,2.000000,0.000000,0.000000,4.000000,4.000000,4.000000,4.000000,4.000000,4.000000,0.000000,,,,,,,,,,,,,,,,,,,,,,,,,,,,
1732159014.569147,1732159014.571131,51.000000,0.000000,4360.769043,4303.077148,4320.897461,4317.948730,4239.230957,4263.205078,4335.256348,4403.846191,4293.205078,4290.256348,4529.871582,4564.615234,4418.717773,4509.871582,0.000000,1.000000,18.000000,,,,0.000000,2.000000,2.000000,0.000000,4.000000,2.000000,2.000000,0.000000,0.000000,4.000000,4.000000,4.000000,4.000000,4.000000,4.000000,0.000000,,,,,,,,,,,,,,,,,,,,,,,,,,,,
1732159014.576955,1732159014.579039,52.000000,0.000000,4353.974121,4298.717773,4318.974121,4308.846191,4245.512695,4260.512695,4334.743652,4402.051270,4294.230957,4291.282227,4529.743652,4562.692383,4416.153809,4502.179688,0.000000,1.000000,18.000000,,,,0.000000,2.000000,2.000000,0.000000,4.000000,2.000000,2.000000,0.000000,0.000000,4.000000,4.000000,4.000000,4.000000,4.000000,4.000000,0.000000,,,,,,,,,,,,,,,,,13.000000,0.000000,0.525668,0.499695,-0.519226,0.452087,0.969845,0.057136,-0.053229,-34.005527,46.257946,31.502829
1732159014.584764,1732159014.586847,53.000000,0.000000,4348.461426,4293.974121,4316.153809,4307.563965,4250.512695,4263.333496,4334.871582,4406.666504,4298.461426,4298.846191,4531.282227,4559.230957,4416.410156,4496.538574,0.000000,1.000000,18.000000,,,,0.000000,2.000000,2.000000,0.000000,4.000000,2.000000,2.000000,0.000000,0.000000,4.000000,4.000000,4.000000,4.000000,4.000000,4.000000,0.000000,,,,,,,,,,,,,,,,,,,,,,,,,,,,
1732159014.592572,1732159014.594456,54.000000,0.000000,4347.051270,4296.025879,4318.974121,4309.487305,4250.128418,4264.743652,4336.794922,4408.461426,4302.179688,4301.666504,4531.922852,4557.692383,4417.179688,4495.128418,0.000000,1.000000,18.000000,,,,0.000000,2.000000,2.000000,0.000000,4.000000,2.000000,2.000000,0.000000,0.000000,4.000000,4.000000,4.000000,4.000000,4.000000,4.000000,0.000000,,,,,,,,,,,,,,,,,,,,,,,,,,,,
1732159014.600380,1732159014.602264,55.000000,0.000000,4342.436035,4296.282227,4319.487305,4305.512695,4252.307617,4264.743652,4336.025879,4402.051270,4297.948730,4296.794922,4524.871582,4551.666504,4412.820313,4492.948730,0.000000,1.000000,18.000000,,,,0.000000,2.000000,2.000000,0.000000,4.000000,2.000000,2.000000,0.000000,0.000000,4.000000,4.000000,4.000000,4.000000,4.000000,4.000000,0.000000,,,,,,,,,,,,,,,,,,,,,,,,,,,,
1732159014.608188,1732159014.610172,56.000000,0.000000,4342.179688,4295.641113,4315.128418,4308.974121,4251.153809,4266.025879,4333.846191,4399.743652,4291.153809,4292.179688,4521.410156,4551.025879,4413.077148,4493.589844,0.000000,1.000000,18.000000,,,,0.000000,2.000000,2.000000,0.000000,4.000000,2.000000,2.000000,0.000000,0.000000,4.000000,4.000000,4.000000,4.000000,4.000000,4.000000,0.000000,,,,,,,,,,,,,,,,,14.000000,0.000000,0.524906,0.498901,-0.520386,0.452515,0.972775,0.052252,-0.056648,-34.107811,46.365601,31.688957
1732159014.615997,1732159014.617980,57.000000,0.000000,4343.589844,4293.717773,4323.974121,4309.358887,4266.666504,4264.743652,4336.025879,4406.794922,4282.692383,4282.948730,4522.307617,4554.230957,4410.512695,4491.153809,0.000000,1.000000,18.000000,,,,0.000000,2.000000,2.000000,0.000000,4.000000,2.000000,2.000000,0.000000,0.000000,4.000000,4.000000,4.000000,4.000000,4.000000,4.000000,0.000000,,,,,,,,,,,,,,,,,,,,,,,,,,,,
1732159014.623805,1732159014.625988,58.000000,0.000000,4339.230957,4292.692383,4337.948730,4300.256348,4278.077148,4262.051270,4338.974121,4411.025879,4278.205078,4277.179688,4520.512695,4554.230957,4402.307617,4486.794922,0.000000,1.000000,18.000000,,,,0.000000,2.000000,2.000000,0.000000,4.000000,2.000000,2.000000,0.000000,0.000000,4.000000,4.000000,4.000000,4.000000,4.000000,4.000000,0.000000,,,,,,,,,,,,,,,,,,,,,,,,,,,,
1732159014.631613,1732159014.633797,59.000000,0.000000,4340.000000,4298.461426,4327.563965,4304.358887,4254.358887,4264.358887,4336.538574,4408.461426,4288.333496,4288.077148,4521.153809,4552.563965,4406.666504,4489.102539,0.000000,1.000000,18.000000,,,,0.000000,2.000000,2.000000,0.000000,4.000000,2.000000,2.000000,0.000000,0.000000,4.000000,4.000000,4.000000,4.000000,4.000000,4.000000,0.000000,,,,,,,,,,,,,,,,,,,,,,,,,,,,
1732159014.639421,1732159014.641705,60.000000,0.000000,4343.589844,4300.128418,4311.922852,4314.743652,4239.358887,4267.820313,4334.102539,4409.358887,4300.128418,4298.589844,4523.717773,4555.000000,4412.051270,4490.256348,0.000000,1.000000,18.000000,,,,0.000000,2.000000,2.000000,0.000000,4.000000,2.000000,2.000000,0.000000,0.000000,4.000000,4.000000,4.000000,4.000000,4.000000,4.000000,0.000000,,,,,,,,,,,,,,,,,15.000000,0.000000,0.523398,0.496704,-0.522461,0.454285,0.975217,0.041021,-0.036626,-34.390659,46.519470,31.873056
1732159014.647230,1732159014.649513,61.000000,0.000000,4340.769043,4294.743652,4315.769043,4312.948730,4255.384766,4266.282227,4334.487305,4408.589844,4298.589844,4297.179688,4523.974121,4557.563965,4404.743652,4487.307617,0.000000,1.000000,18.000000,,,,0.000000,2.000000,2.000000,0.000000,4.000000,2.000000,2.000000,0.000000,0.000000,4.000000,4.000000,4.000000,4.000000,4.000000,4.000000,0.000000,,,,,,,,,,,,,,,,,,,,,,,,,,,,
1732159014.655038,1732159014.657521,62.000000,0.000000,4340.897461,4294.487305,4321.153809,4309.743652,4262.051270,4265.512695,4334.230957,4401.025879,4294.230957,4296.153809,4524.615234,4557.051270,4402.948730,4488.974121,0.000000,1.000000,18.000000,,,,0.000000,2.000000,2.000000,0.000000,4.000000,2.000000,2.000000,0.000000,0.000000,4.000000,4.000000,4.000000,4.000000,4.000000,4.000000,0.000000,,,,,,,,,,,,,,,,,,,,,,,,,,,,
1732159014.662846,1732159014.665329,63.000000,0.000000,4343.205078,4295.641113,4317.051270,4309.615234,4258.974121,4268.974121,4334.358887,4400.000000,4294.871582,4296.410156,4522.051270,4555.128418,4407.563965,4490.128418,0.000000,1.000000,18.000000,,,,0.000000,2.000000,2.000000,0.000000,4.000000,2.000000,2.000000,0.000000,0.000000,4.000000,4.000000,4.000000,4.000000,4.000000,4.000000,0.000000,,,,,,,,,,,,,,,,,,,,,,,,,,,,
1732159014.670654,1732159014.673237,64.000000,0.000000,4342.436035,4290.641113,4317.307617,4306.282227,4265.128418,4270.384766,4336.153809,4407.692383,4297.948730,4297.436035,4520.512695,4553.717773,4402.563965,4487.563965,0.000000,1.000000,18.000000,,,,0.000000,2.000000,2.000000,0.000000,4.000000,2.000000,2.000000,0.000000,0.000000,4.000000,4.000000,4.000000,4.000000,4.000000,4.000000,0.000000,,,,,,,,,,,,,,,,,16.000000,0.000000,0.522893,0.496155,-0.523010,0.454834,0.988890,0.030277,-0.034184,-34.688103,46.242439,31.503841
1732159014.678463,1732159014.681045,65.000000,0.000000,4340.000000,4289.102539,4319.230957,4305.769043,4264.102539,4267.820313,4335.512695,4409.487305,4299.230957,4298.589844,4521.025879,4553.589844,4395.897461,4487.692383,1619.000000,1.000000,18.000000,,,,0.000000,2.000000,2.000000,0.000000,4.000000,2.000000,2.000000,0.000000,0.000000,4.000000,4.000000,4.000000,4.000000,4.000000,4.000000,0.000000,,,,,,,,,,,,,,,,,,,,,,,,,,,,
1732159014.686271,1732159014.689053,66.000000,0.000000,4338.333496,4291.025879,4318.717773,4303.846191,4272.820313,4265.128418,4334.487305,4406.025879,4296.025879,4295.512695,4521.025879,4552.179688,4398.461426,4487.948730,1359.000000,1.000000,18.000000,,,,0.000000,2.000000,2.000000,0.000000,4.000000,2.000000,2.000000,0.000000,0.000000,4.000000,4.000000,4.000000,4.000000,4.000000,4.000000,0.000000,,,,,,,,,,,,,,,,,,,,,,,,,,,,
1732159014.694079,1732159014.696862,67.000000,0.000000,4337.563965,4291.282227,4320.128418,4301.410156,4285.769043,4265.897461,4335.128418,4405.256348,4297.307617,4296.025879,4520.512695,4550.256348,4401.025879,4487.948730,1434.000000,1.000000,18.000000,,,,0.000000,2.000000,2.000000,0.000000,4.000000,2.000000,2.000000,0.000000,0.000000,4.000000,4.000000,4.000000,4.000000,4.000000,4.000000,0.000000,,,,,,,,,,,,,,,,,,,,,,,,,,,,
1732159014.701887,1732159014.704770,68.000000,0.000000,4337.436035,4293.974121,4318.974121,4307.563965,4265.000000,4266.538574,4335.000000,4403.333496,4303.461426,4300.769043,4520.641113,4550.641113,4397.563965,4483.461426,1446.000000,1.000000,18.000000,,,,0.000000,2.000000,2.000000,0.000000,4.000000,2.000000,2.000000,0.000000,0.000000,4.000000,4.000000,4.000000,4.000000,4.000000,4.000000,0.000000,,,,,,,,,,,,,,,,,17.000000,0.000000,0.521816,0.494934,-0.524231,0.455994,0.986449,0.024417,-0.044927,-34.625694,46.051376,31.358112
1732159014.709696,1732159014.712578,69.000000,0.000000,4335.897461,4296.025879,4317.436035,4312.307617,4246.538574,4267.051270,4334.871582,4400.897461,4302.820313,4300.256348,4521.794922,4553.461426,4395.384766,4478.205078,1205.000000,1.000000,18.000000,,,,0.000000,2.000000,2.000000,0.000000,4.000000,2.000000,2.000000,0.000000,0.000000,4.000000,4.000000,4.000000,4.000000,4.000000,4.000000,0.000000,,,,,,,,,,,,,,,,,,,,,,,,,,,,
1732159014.717504,1732159014.720586,70.000000,0.000000,4334.358887,4295.897461,4319.743652,4311.282227,4263.205078,4271.666504,4335.000000,4400.641113,4296.410156,4295.769043,4522.563965,4555.000000,4398.077148,4482.948730,0.000000,1.000000,18.000000,,,,0.000000,2.000000,2.000000,0.000000,4.000000,2.000000,2.000000,0.000000,0.000000,4.000000,4.000000,4.000000,4.000000,4.000000,4.000000,0.000000,,,,,,,,,,,,,,,,,,,,,,,,,,,,
1732159014.725312,1732159014.728394,71.000000,0.000000,4335.769043,4296.282227,4320.256348,4312.179688,4274.871582,4280.000000,4335.000000,4401.922852,4295.512695,4293.205078,4517.692383,4555.512695,4395.897461,4484.615234,0.000000,1.000000,18.000000,,,,0.000000,2.000000,2.000000,0.000000,4.000000,2.000000,2.000000,0.000000,0.000000,4.000000,4.000000,4.000000,4.000000,4.000000,4.000000,0.000000,,,,,,,,,,,,,,,,,,,,,,,,,,,,
1732159014.733120,1732159014.736302,72.000000,0.000000,4333.846191,4296.922852,4318.077148,4311.538574,4265.897461,4277.692383,4335.000000,4401.922852,4297.692383,4292.051270,4515.128418,4556.794922,4390.641113,4476.538574,1536.000000,1.000000,18.000000,,,,0.000000,2.000000,2.000000,0.000000,4.000000,2.000000,2.000000,0.000000,0.000000,4.000000,4.000000,4.000000,4.000000,4.000000,4.000000,0.000000,,,,,,,,,,,,,,,,,18.000000,0.000000,0.520321,0.491760,-0.527100,0.457825,0.976193,0.023929,-0.043951,-34.573479,45.886612,31.425072
1732159014.740929,1732159014.744110,73.000000,0.000000,4331.282227,4297.436035,4319.615234,4310.641113,4265.769043,4266.922852,4335.000000,4405.128418,4296.794922,4294.102539,4520.000000,4550.128418,4386.922852,4474.487305,1701.000000,1.000000,18.000000,,,,0.000000,2.000000,2.000000,0.000000,4.000000,2.000000,2.000000,0.000000,0.000000,4.000000,4.000000,4.000000,4.000000,4.000000,4.000000,0.000000,,,,,,,,,,,,,,,,,,,,,,,,,,,,
1732159014.748737,1732159014.752118,74.000000,0.000000,4335.000000,4297.948730,4322.820313,4315.641113,4271.025879,4271.025879,4335.000000,4408.589844,4296.922852,4298.077148,4521.282227,4543.333496,4383.461426,4477.948730,1564.000000,1.000000,18.000000,,,,0.000000,2.000000,2.000000,0.000000,4.000000,2.000000,2.000000,0.000000,0.000000,4.000000,4.000000,4.000000,4.000000,4.000000,4.000000,0.000000,,,,,,,,,,,,,,,,,,,,,,,,,,,,
1732159014.756545,1732159014.759927,75.000000,0.000000,4334.102539,4296.794922,4320.384766,4315.512695,4274.871582,4282.948730,4335.000000,4403.461426,4297.692383,4295.769043,4518.205078,4545.897461,4382.051270,4472.948730,1544.000000,1.000000,18.000000,,,,0.000000,2.000000,2.000000,0.000000,4.000000,2.000000,2.000000,0.000000,0.000000,4.000000,4.000000,4.000000,4.000000,4.000000,4.000000,0.000000,,,,,,,,,,,,,,,,,,,,,,,,,,,,
1732159014.764353,1732159014.767835,76.000000,0.000000,4326.666504,4294.743652,4317.051270,4309.358887,4279.743652,4281.794922,4335.000000,4401.025879,4297.948730,4293.974121,4521.025879,4545.641113,4384.102539,4470.769043,1701.000000,1.000000,18.000000,,,,0.000000,2.000000,2.000000,0.000000,4.000000,2.000000,2.000000,0.000000,0.000000,4.000000,4.000000,4.000000,4.000000,4.000000,4.000000,0.000000,,,,,,,,,,,,,,,,,19.000000,0.000000,0.519363,0.490051,-0.528625,0.458984,0.986937,0.020022,-0.037114,-34.664520,45.703156,31.645973
1732159014.772162,1732159014.775643,77.000000,0.000000,4325.384766,4296.410156,4318.974121,4311.025879,4276.410156,4277.820313,4335.000000,4406.538574,4299.230957,4296.922852,4520.641113,4538.974121,4383.974121,4472.820313,1548.000000,1.000000,18.000000,,,,0.000000,2.000000,2.000000,0.000000,4.000000,2.000000,2.000000,0.000000,0.000000,4.000000,4.000000,4.000000,4.000000,4.000000,4.000000,0.000000,,,,,,,,,,,,,,,,,,,,,,,,,,,,
1732159014.779970,1732159014.783651,78.000000,0.000000,4332.436035,4299.615234,4320.384766,4317.436035,4285.384766,4279.358887,4335.000000,4406.538574,4297.051270,4297.051270,4512.307617,4537.436035,4382.563965,4467.051270,1564.000000,1.000000,18.000000,,,,0.000000,2.000000,2.000000,0.000000,4.000000,2.000000,2.000000,0.000000,0.000000,4.000000,4.000000,4.000000,4.000000,4.000000,4.000000,0.000000,1.000000,0.000000,2.000000,2.000000,0.000000,4.000000,2.000000,2.000000,0.000000,0.000000,4.000000,4.000000,4.000000,4.000000,4.000000,4.000000,,,,,,,,,,,,
1732159014.787778,1732159014.791459,79.000000,0.000000,4336.666504,4300.256348,4318.717773,4317.948730,4301.025879,4280.641113,4335.000000,4402.563965,4294.487305,4295.000000,4505.256348,4540.000000,4382.307617,4462.820313,1544.000000,1.000000,18.000000,,,,0.000000,2.000000,2.000000,0.000000,4.000000,2.000000,2.000000,0.000000,0.000000,4.000000,4.000000,4.000000,4.000000,4.000000,4.000000,0.000000,,,,,,,,,,,,,,,,,,,,,,,,,,,,
1732159014.795586,1732159014.799367,80.000000,0.000000,4334.871582,4301.153809,4317.051270,4317.436035,4290.512695,4283.077148,4335.000000,4406.025879,4299.230957,4293.589844,4505.256348,4539.615234,4380.256348,4463.461426,1701.000000,1.000000,18.000000,,,,0.000000,2.000000,2.000000,0.000000,4.000000,2.000000,2.000000,0.000000,0.000000,4.000000,4.000000,4.000000,4.000000,4.000000,4.000000,0.000000,,,,,,,,,,,,,,,,,20.000000,0.000000,0.518919,0.489075,-0.529541,0.459473,0.986937,0.020022,-0.037114,-34.791592,45.791225,31.713240
1732159014.803395,1732159014.807175,81.000000,0.000000,4331.666504,4301.410156,4319.615234,4317.051270,4270.512695,4286.538574,4334.871582,4409.615234,4304.615234,4292.051270,4510.641113,4538.461426,4380.512695,4462.820313,1548.000000,1.000000,18.000000,,,,0.000000,2.000000,2.000000,0.000000,4.000000,2.000000,2.000000,0.000000,0.000000,4.000000,4.000000,4.000000,4.000000,4.000000,4.000000,0.000000,,,,,,,,,,,,,,,,,,,,,,,,,,,,
1732159014.811203,1732159014.814784,82.000000,0.000000,4327.436035,4295.512695,4320.512695,4312.692383,4273.717773,4286.922852,4334.743652,4405.897461,4300.384766,4290.512695,4512.307617,4536.025879,4381.794922,4459.615234,1564.000000,1.000000,18.000000,,,,0.000000,2.000000,2.000000,0.000000,4.000000,2.000000,2.000000,0.000000,0.000000,4.000000,4.000000,4.000000,4.000000,4.000000,4.000000,0.000000,,,,,,,,,,,,,,,,,,,,,,,,,,,,
1732159014.819011,1732159014.822592,83.000000,0.000000,4326.153809,4290.897461,4322.051270,4309.487305,4283.717773,4287.307617,4335.256348,4404.871582,4293.205078,4286.153809,4508.717773,4536.282227,4377.948730,4459.871582,1544.000000,1.000000,18.000000,,,,0.000000,2.000000,2.000000,0.000000,4.000000,2.000000,2.000000,0.000000,0.000000,4.000000,4.000000,4.000000,4.000000,4.000000,4.000000,0.000000,,,,,,,,,,,,,,,,,,,,,,,,,,,,
1732159014.826820,1732159014.830300,84.000000,0.000000,4331.410156,4294.487305,4322.563965,4310.128418,4279.358887,4284.487305,4334.871582,4404.615234,4295.897461,4287.820313,4506.922852,4537.051270,4375.256348,4461.666504,1701.000000,1.000000,18.000000,,,,0.000000,2.000000,2.000000,0.000000,4.000000,2.000000,2.000000,0.000000,0.000000,4.000000,4.000000,4.000000,4.000000,4.000000,4.000000,0.000000,,,,,,,,,,,,,,,,,21.000000,0.000000,0.517234,0.484985,-0.533081,0.461609,0.979123,-0.004395,-0.049322,-34.799522,45.704224,31.684391
1732159014.834628,1732159014.838109,85.000000,0.000000,4335.769043,4296.794922,4320.256348,4311.410156,4277.051270,4279.230957,4333.846191,4405.641113,4301.025879,4298.717773,4510.897461,4534.358887,4379.743652,4460.769043,1548.000000,1.000000,18.000000,,,,0.000000,2.000000,2.000000,0.000000,4.000000,2.000000,2.000000,0.000000,0.000000,4.000000,4.000000,4.000000,4.000000,4.000000,4.000000,0.000000,,,,,,,,,,,,,,,,,,,,,,,,,,,,
1732159014.842436,1732159014.845717,86.000000,0.000000,4332.179688,4295.384766,4317.563965,4313.717773,4281.025879,4279.358887,4334.358887,4407.307617,4301.282227,4303.205078,4515.641113,4537.948730,4386.538574,4461.025879,1564.000000,1.000000,18.000000,,,,0.000000,2.000000,2.000000,0.000000,4.000000,2.000000,2.000000,0.000000,0.000000,4.000000,4.000000,4.000000,4.000000,4.000000,4.000000,0.000000,,,,,,,,,,,,,,,,,,,,,,,,,,,,
1732159014.850244,1732159014.853525,87.000000,0.000000,4326.025879,4295.000000,4318.461426,4310.384766,4281.794922,4282.436035,4336.922852,4404.743652,4301.666504,4296.922852,4513.077148,4540.512695,4383.717773,4461.025879,1544.000000,1.000000,18.000000,,,,0.000000,2.000000,2.000000,0.000000,4.000000,2.000000,2.000000,0.000000,0.000000,4.000000,4.000000,4.000000,4.000000,4.000000,4.000000,0.000000,,,,,,,,,,,,,,,,,,,,,,,,,,,,
1732159014.858053,1732159014.861433,88.000000,0.000000,4325.000000,4293.333496,4320.641113,4302.820313,4281.666504,4280.641113,4336.922852,4403.333496,4306.922852,4297.051270,4507.307617,4537.051270,4376.410156,4461.794922,1701.000000,1.000000,18.000000,,,,0.000000,2.000000,2.000000,0.000000,4.000000,2.000000,2.000000,0.000000,0.000000,4.000000,4.000000,4.000000,4.000000,4.000000,4.000000,0.000000,,,,,,,,,,,,,,,,,22.000000,0.000000,0.516275,0.481689,-0.535828,0.462952,0.975705,-0.010255,-0.028324,-34.855949,45.750423,31.752689
1732159014.865861,1732159014.869242,89.000000,0.000000,4326.922852,4293.333496,4319.230957,4306.282227,4281.538574,4280.128418,4334.487305,4403.333496,4310.897461,4302.692383,4506.282227,4538.846191,4376.025879,4459.487305,1548.000000,1.000000,18.000000,,,,0.000000,2.000000,2.000000,0.000000,4.000000,2.000000,2.000000,0.000000,0.000000,4.000000,4.000000,4.000000,4.000000,4.000000,4.000000,0.000000,,,,,,,,,,,,,,,,,,,,,,,,,,,,
1732159014.873669,1732159014.877250,90.000000,0.000000,4327.436035,4296.666504,4317.948730,4313.589844,4287.820313,4282.307617,4332.948730,4405.000000,4305.384766,4298.846191,4506.282227,4537.692383,4374.871582,4451.794922,1564.000000,1.000000,18.000000,,,,0.000000,2.000000,2.000000,0.000000,4.000000,2.000000,2.000000,0.000000,0.000000,4.000000,4.000000,4.000000,4.000000,4.000000,4.000000,0.000000,,,,,,,,,,,,,,,,,,,,,,,,,,,,
1732159014.881477,1732159014.885058,91.000000,0.000000,4326.666504,4297.820313,4317.692383,4312.563965,4296.153809,4281.538574,4333.846191,4403.333496,4296.538574,4291.666504,4503.077148,4529.358887,4367.436035,4445.769043,1544.000000,1.000000,18.000000,,,,0.000000,2.000000,2.000000,0.000000,4.000000,2.000000,2.000000,0.000000,0.000000,4.000000,4.000000,4.000000,4.000000,4.000000,4.000000,0.000000,,,,,,,,,,,,,,,,,,,,,,,,,,,,
1732159014.889285,1732159014.892966,92.000000,0.000000,4323.846191,4295.641113,4318.717773,4310.897461,4290.641113,4280.000000,4334.615234,4399.871582,4296.025879,4293.846191,4503.717773,4532.436035,4363.717773,4442.692383,1701.000000,1.000000,18.000000,,,,0.000000,2.000000,2.000000,0.000000,4.000000,2.000000,2.000000,0.000000,0.000000,4.000000,4.000000,4.000000,4.000000,4.000000,4.000000,0.000000,,,,,,,,,,,,,,,,,23.000000,0.000000,0.515450,0.479980,-0.537415,0.463806,0.984495,0.013674,-0.036626,-34.803318,45.807842,31.573011
1732159014.897094,1732159014.900774,93.000000,0.000000,4316.922852,4294.102539,4318.717773,4310.641113,4293.333496,4283.205078,4334.743652,4400.897461,4299.230957,4297.692383,4505.256348,4540.384766,4366.282227,4439.487305,1548.000000,1.000000,18.000000,,,,0.000000,2.000000,2.000000,0.000000,4.000000,2.000000,2.000000,0.000000,0.000000,4.000000,4.000000,4.000000,4.000000,4.000000,4.000000,0.000000,,,,,,,,,,,,,,,,,,,,,,,,,,,,
1732159014.904902,1732159014.908382,94.000000,0.000000,4313.333496,4295.256348,4318.333496,4310.000000,4314.358887,4287.948730,4335.256348,4403.333496,4299.871582,4297.179688,4501.282227,4538.717773,4364.871582,4438.717773,1564.000000,1.000000,18.000000,,,,0.000000,2.000000,2.000000,0.000000,4.000000,2.000000,2.000000,0.000000,0.000000,4.000000,4.000000,4.000000,4.000000,4.000000,4.000000,0.000000,,,,,,,,,,,,,,,,,,,,,,,,,,,,
1732159014.912710,1732159014.916191,95.000000,0.000000,4317.563965,4296.538574,4317.692383,4314.102539,4308.205078,4285.256348,4334.871582,4403.077148,4305.128418,4299.230957,4502.436035,4536.282227,4359.230957,4441.922852,1544.000000,1.000000,18.000000,,,,0.000000,2.000000,2.000000,0.000000,4.000000,2.000000,2.000000,0.000000,0.000000,4.000000,4.000000,4.000000,4.000000,4.000000,4.000000,0.000000,,,,,,,,,,,,,,,,,,,,,,,,,,,,
1732159014.920519,1732159014.923899,96.000000,0.000000,4320.000000,4295.512695,4317.307617,4316.538574,4277.948730,4281.538574,4334.871582,4404.871582,4314.102539,4308.333496,4506.153809,4536.538574,4356.282227,4440.897461,1701.000000,1.000000,18.000000,,,,0.000000,2.000000,2.000000,0.000000,4.000000,2.000000,2.000000,0.000000,0.000000,4.000000,4.000000,4.000000,4.000000,4.000000,4.000000,0.000000,,,,,,,,,,,,,,,,,24.000000,0.000000,0.514769,0.479309,-0.538086,0.464478,0.971310,-0.012697,-0.026370,-34.809021,45.622684,31.432472
1732159014.928327,1732159014.931707,97.000000,0.000000,4316.922852,4294.615234,4317.820313,4311.282227,4277.563965,4287.307617,4336.410156,4409.230957,4313.077148,4310.256348,4500.000000,4536.153809,4355.897461,4438.461426,1548.000000,1.000000,18.000000,,,,0.000000,2.000000,2.000000,0.000000,4.000000,2.000000,2.000000,0.000000,0.000000,4.000000,4.000000,4.000000,4.000000,4.000000,4.000000,0.000000,,,,,,,,,,,,,,,,,,,,,,,,,,,,
1732159014.936135,1732159014.939715,98.000000,0.000000,4316.922852,4295.512695,4319.743652,4309.743652,4291.025879,4291.025879,4336.538574,4408.333496,4306.153809,4301.666504,4494.230957,4538.974121,4356.922852,4441.666504,1564.000000,1.000000,18.000000,,,,0.000000,2.000000,2.000000,0.000000,4.000000,2.000000,2.000000,0.000000,0.000000,4.000000,4.000000,4.000000,4.000000,4.000000,4.000000,0.000000,,,,,,,,,,,,,,,,,,,,,,,,,,,,
1732159014.943943,1732159014.947523,99.000000,0.000000,4321.538574,4296.025879,4320.000000,4313.461426,4287.307617,4288.333496,4335.641113,4406.025879,4307.692383,4297.051270,4501.153809,4537.692383,4355.897461,4444.615234,1544.000000,1.000000,18.000000,,,,0.000000,2.000000,2.000000,0.000000,4.000000,2.000000,2.000000,0.000000,0.000000,4.000000,4.000000,4.000000,4.000000,4.000000,4.000000,0.000000,,,,,,,,,,,,,,,,,,,,,,,,,,,,
1732159014.951752,1732159014.955432,100.000000,0.000000,4325.641113,4295.256348,4318.077148,4314.871582,4289.487305,4287.820313,4335.769043,4405.769043,4306.153809,4298.333496,4506.922852,4534.102539,4353.974121,4445.256348,1701.000000,1.000000,18.000000,,,,0.000000,2.000000,2.000000,0.000000,4.000000,2.000000,2.000000,0.000000,0.000000,4.000000,4.000000,4.000000,4.000000,4.000000,4.000000,0.000000,,,,,,,,,,,,,,,,,25.000000,0.000000,0.512334,0.476990,-0.540405,0.466858,0.998657,-0.027347,-0.031742,-34.913639,45.547707,31.273636
1732159014.959560,1732159014.963240,101.000000,0.000000,4326.794922,4296.282227,4318.205078,4315.512695,4296.538574,4292.948730,4335.256348,4403.974121,4298.974121,4297.307617,4501.922852,4537.948730,4353.333496,4447.179688,1548.000000,1.000000,18.000000,,,,0.000000,2.000000,2.000000,0.000000,4.000000,2.000000,2.000000,0.000000,0.000000,4.000000,4.000000,4.000000,4.000000,4.000000,4.000000,0.000000,,,,,,,,,,,,,,,,,,,,,,,,,,,,
1732159014.967368,1732159014.971248,102.000000,0.000000,4322.820313,4293.974121,4320.384766,4314.102539,4294.102539,4292.692383,4334.102539,4405.897461,4301.922852,4293.846191,4495.512695,4539.230957,4349.102539,4446.282227,1564.000000,1.000000,18.000000,,,,0.000000,2.000000,2.000000,0.000000,4.000000,2.000000,2.000000,0.000000,0.000000,4.000000,4.000000,4.000000,4.000000,4.000000,4.000000,0.000000,,,,,,,,,,,,,,,,,,,,,,,,,,,,
1732159014.975176,1732159014.979056,103.000000,0.000000,4322.692383,4291.025879,4320.641113,4314.871582,4296.282227,4287.820313,4335.128418,4408.077148,4307.692383,4296.410156,4493.461426,4536.025879,4346.282227,4441.666504,1544.000000,1.000000,18.000000,,,,0.000000,2.000000,2.000000,0.000000,4.000000,2.000000,2.000000,0.000000,0.000000,4.000000,4.000000,4.000000,4.000000,4.000000,4.000000,0.000000,,,,,,,,,,,,,,,,,,,,,,,,,,,,
1732159014.982985,1732159014.986964,104.000000,0.000000,4323.717773,4295.641113,4319.487305,4318.205078,4298.589844,4286.282227,4336.410156,4403.717773,4303.077148,4301.538574,4494.871582,4538.205078,4350.769043,4441.410156,1701.000000,1.000000,18.000000,,,,0.000000,2.000000,2.000000,0.000000,4.000000,2.000000,2.000000,0.000000,0.000000,4.000000,4.000000,4.000000,4.000000,4.000000,4.000000,0.000000,,,,,,,,,,,,,,,,,26.000000,0.000000,0.511081,0.476440,-0.541443,0.467590,0.995727,-0.033696,-0.039067,-35.070049,45.593643,31.246645
1732159014.990793,1732159014.994772,105.000000,0.000000,4318.974121,4300.512695,4319.102539,4317.948730,4292.051270,4289.743652,4337.692383,4399.487305,4297.179688,4305.512695,4504.230957,4540.641113,4354.102539,4444.615234,1548.000000,1.000000,18.000000,,,,0.000000,2.000000,2.000000,0.000000,4.000000,2.000000,2.000000,0.000000,0.000000,4.000000,4.000000,4.000000,4.000000,4.000000,4.000000,0.000000,,,,,,,,,,,,,,,,,,,,,,,,,,,,
1732159014.998601,1732159015.002381,106.000000,0.000000,4317.307617,4296.153809,4319.487305,4315.769043,4302.563965,4292.563965,4336.794922,4402.820313,4295.769043,4307.820313,4506.538574,4537.563965,4350.000000,4442.051270,1564.000000,1.000000,18.000000,,,,0.000000,2.000000,2.000000,0.000000,4.000000,2.000000,2.000000,0.000000,0.000000,4.000000,4.000000,4.000000,4.000000,4.000000,4.000000,0.000000,,,,,,,,,,,,,,,,,,,,,,,,,,,,
1732159015.006409,1732159015.010189,107.000000,0.000000,4318.461426,4291.922852,4320.128418,4315.384766,4317.563965,4287.436035,4333.846191,4409.615234,4297.051270,4306.410156,4495.384766,4536.794922,4347.948730,4438.717773,1544.000000,1.000000,18.000000,,,,0.000000,2.000000,2.000000,0.000000,4.000000,2.000000,2.000000,0.000000,0.000000,4.000000,4.000000,4.000000,4.000000,4.000000,4.000000,0.000000,,,,,,,,,,,,,,,,,,,,,,,,,,,,
1732159015.014218,1732159015.018097,108.000000,0.000000,4315.384766,4294.615234,4319.615234,4314.358887,4296.153809,4283.589844,4334.230957,4410.897461,4301.282227,4308.461426,4496.025879,4537.948730,4350.769043,4435.641113,1701.000000,1.000000,18.000000,,,,0.000000,2.000000,2.000000,0.000000,4.000000,2.000000,2.000000,0.000000,0.000000,4.000000,4.000000,4.000000,4.000000,4.000000,4.000000,0.000000,,,,,,,,,,,,,,,,,27.000000,0.000000,0.511081,0.476440,-0.541443,0.467590,0.978147,-0.023929,-0.037602,-35.196739,45.525852,31.104782
1732159015.022026,1732159015.025905,109.000000,0.000000,4316.538574,4294.871582,4320.128418,4312.436035,4272.179688,4287.179688,4336.282227,4409.358887,4302.563965,4311.153809,4504.230957,4535.897461,4350.897461,4435.256348,1548.000000,1.000000,18.000000,,,,0.000000,2.000000,2.000000,0.000000,4.000000,2.000000,2.000000,0.000000,0.000000,4.000000,4.000000,4.000000,4.000000,4.000000,4.000000,0.000000,,,,,,,,,,,,,,,,,,,,,,,,,,,,
1732159015.029834,1732159015.033913,110.000000,0.000000,4324.487305,4294.230957,4321.153809,4317.179688,4284.358887,4292.563965,4335.384766,4408.461426,4301.794922,4309.871582,4499.102539,4533.461426,4351.666504,4440.000000,1564.000000,1.000000,18.000000,,,,0.000000,2.000000,2.000000,0.000000,4.000000,2.000000,2.000000,0.000000,0.000000,4.000000,4.000000,4.000000,4.000000,4.000000,4.000000,0.000000,,,,,,,,,,,,,,,,,,,,,,,,,,,,
1732159015.037642,1732159015.041721,111.000000,0.000000,4322.179688,4296.153809,4321.666504,4320.256348,4295.000000,4293.077148,4334.743652,4408.333496,4302.307617,4307.179688,4491.410156,4531.538574,4354.871582,4440.256348,1544.000000,1.000000,18.000000,,,,0.000000,2.000000,2.000000,0.000000,4.000000,2.000000,2.000000,0.000000,0.000000,4.000000,4.000000,4.000000,4.000000,4.000000,4.000000,0.000000,,,,,,,,,,,,,,,,,,,,,,,,,,,,
1732159015.045451,1732159015.049629,112.000000,0.000000,4315.128418,4295.769043,4320.384766,4315.897461,4288.461426,4290.897461,4335.897461,4405.897461,4304.487305,4307.051270,4492.820313,4526.666504,4354.743652,4432.179688,1701.000000,1.000000,18.000000,,,,0.000000,2.000000,2.000000,0.000000,4.000000,2.000000,2.000000,0.000000,0.000000,4.000000,4.000000,4.000000,4.000000,4.000000,4.000000,0.000000,,,,,,,,,,,,,,,,,28.000000,0.000000,0.508773,0.476563,-0.542664,0.468567,0.978147,-0.018557,-0.053229,-35.111027,45.374271,31.174873
1732159015.053259,1732159015.057438,113.000000,0.000000,4317.051270,4293.846191,4320.897461,4317.307617,4294.230957,4293.589844,4335.641113,4403.333496,4310.512695,4308.717773,4492.436035,4527.179688,4351.282227,4430.256348,1548.000000,1.000000,18.000000,,,,0.000000,2.000000,2.000000,0.000000,4.000000,2.000000,2.000000,0.000000,0.000000,4.000000,4.000000,4.000000,4.000000,4.000000,4.000000,0.000000,,,,,,,,,,,,,,,,,,,,,,,,,,,,
1732159015.061067,1732159015.065446,114.000000,0.000000,4321.538574,4295.512695,4321.153809,4326.794922,4300.769043,4295.769043,4336.410156,4403.461426,4307.436035,4307.051270,4491.153809,4531.282227,4349.743652,4436.410156,1564.000000,1.000000,18.000000,,,,0.000000,2.000000,2.000000,0.000000,4.000000,2.000000,2.000000,0.000000,0.000000,4.000000,4.000000,4.000000,4.000000,4.000000,4.000000,0.000000,,,,,,,,,,,,,,,,,,,,,,,,,,,,
1732159015.068875,1732159015.073254,115.000000,0.000000,4319.743652,4297.307617,4320.128418,4326.410156,4295.512695,4295.384766,4338.717773,4402.692383,4296.666504,4302.692383,4495.384766,4533.846191,4351.025879,4440.384766,1544.000000,1.000000,18.000000,,,,0.000000,2.000000,2.000000,0.000000,4.000000,2.000000,2.000000,0.000000,0.000000,4.000000,4.000000,4.000000,4.000000,4.000000,4.000000,0.000000,,,,,,,,,,,,,,,,,,,,,,,,,,,,
1732159015.076684,1732159015.081162,116.000000,0.000000,4312.820313,4294.871582,4320.256348,4317.051270,4294.615234,4294.615234,4337.563965,4400.000000,4297.563965,4304.230957,4493.333496,4532.179688,4350.641113,4437.948730,1701.000000,1.000000,18.000000,,,,0.000000,2.000000,2.000000,0.000000,4.000000,2.000000,2.000000,0.000000,0.000000,4.000000,4.000000,4.000000,4.000000,4.000000,4.000000,0.000000,,,,,,,,,,,,,,,,,29.000000,0.000000,0.507506,0.476807,-0.543213,0.469055,0.976193,-0.041997,-0.045416,-35.176598,45.278160,31.124981
1732159015.084492,1732159015.088970,117.000000,0.000000,4310.641113,4293.589844,4321.153809,4315.897461,4296.666504,4293.974121,4335.000000,4401.410156,4304.871582,4310.000000,4490.128418,4529.871582,4351.025879,4435.384766,1548.000000,1.000000,18.000000,,,,0.000000,2.000000,2.000000,0.000000,4.000000,2.000000,2.000000,0.000000,0.000000,4.000000,4.000000,4.000000,4.000000,4.000000,4.000000,0.000000,,,,,,,,,,,,,,,,,,,,,,,,,,,,
1732159015.092300,1732159015.096978,118.000000,0.000000,4312.948730,4293.974121,4321.666504,4317.820313,4293.974121,4291.153809,4334.743652,4406.282227,4305.128418,4311.153809,4492.307617,4534.615234,4350.641113,4437.692383,1564.000000,1.000000,18.000000,,,,0.000000,2.000000,2.000000,0.000000,4.000000,2.000000,2.000000,0.000000,0.000000,4.000000,4.000000,4.000000,4.000000,4.000000,4.000000,0.000000,,,,,,,,,,,,,,,,,,,,,,,,,,,,
1732159015.100109,1732159015.104786,119.000000,0.000000,4312.563965,4292.436035,4319.487305,4314.230957,4291.282227,4293.333496,4335.000000,4407.051270,4307.051270,4311.922852,4493.461426,4540.641113,4348.717773,4435.897461,1544.000000,1.000000,18.000000,,,,0.000000,2.000000,2.000000,0.000000,4.000000,2.000000,2.000000,0.000000,0.000000,4.000000,4.000000,4.000000,4.000000,4.000000,4.000000,0.000000,,,,,,,,,,,,,,,,,,,,,,,,,,,,
1732159015.107917,1732159015.112695,120.000000,0.000000,4309.743652,4293.717773,4318.205078,4313.717773,4292.948730,4296.794922,4334.743652,4404.358887,4311.922852,4309.743652,4491.025879,4536.666504,4351.025879,4428.974121,1701.000000,1.000000,18.000000,,,,0.000000,2.000000,2.000000,0.000000,4.000000,2.000000,2.000000,0.000000,0.000000,4.000000,4.000000,4.000000,4.000000,4.000000,4.000000,0.000000,,,,,,,,,,,,,,,,,30.000000,0.000000,0.506265,0.476379,-0.544006,0.469910,0.978147,-0.044439,-0.044439,-35.398045,45.135311,31.119568
1732159015.115725,1732159015.120503,121.000000,0.000000,4310.000000,4293.974121,4318.589844,4317.436035,4291.666504,4296.410156,4336.153809,4403.974121,4309.615234,4302.948730,4490.128418,4523.589844,4350.641113,4427.307617,1548.000000,1.000000,18.000000,,,,0.000000,2.000000,2.000000,0.000000,4.000000,2.000000,2.000000,0.000000,0.000000,4.000000,4.000000,4.000000,4.000000,4.000000,4.000000,0.000000,,,,,,,,,,,,,,,,,,,,,,,,,,,,
1732159015.123533,1732159015.128111,122.000000,0.000000,4310.000000,4286.666504,4320.641113,4313.974121,4296.025879,4295.000000,4335.384766,4407.051270,4301.538574,4298.974121,4492.820313,4519.871582,4343.333496,4429.615234,1564.000000,1.000000,18.000000,,,,0.000000,2.000000,2.000000,0.000000,4.000000,2.000000,2.000000,0.000000,0.000000,4.000000,4.000000,4.000000,4.000000,4.000000,4.000000,0.000000,,,,,,,,,,,,,,,,,,,,,,,,,,,,
1732159015.131341,1732159015.135919,123.000000,0.000000,4309.230957,4286.922852,4321.153809,4311.153809,4311.153809,4295.000000,4333.205078,4406.025879,4295.769043,4296.410156,4491.153809,4522.692383,4343.846191,4428.205078,1544.000000,1.000000,18.000000,,,,0.000000,2.000000,2.000000,0.000000,4.000000,2.000000,2.000000,0.000000,0.000000,4.000000,4.000000,4.000000,4.000000,4.000000,4.000000,0.000000,,,,,,,,,,,,,,,,,,,,,,,,,,,,
1732159015.139150,1732159015.143827,124.000000,0.000000,4309.871582,4295.384766,4320.128418,4317.692383,4303.974121,4295.000000,4335.512695,4399.615234,4296.025879,4294.871582,4488.205078,4520.897461,4351.922852,4427.307617,1701.000000,1.000000,18.000000,,,,0.000000,2.000000,2.000000,0.000000,4.000000,2.000000,2.000000,0.000000,0.000000,4.000000,4.000000,4.000000,4.000000,4.000000,4.000000,0.000000,,,,,,,,,,,,,,,,,31.000000,0.000000,0.505834,0.476257,-0.544250,0.470215,0.978147,-0.044439,-0.044439,-35.132416,45.077934,30.906851
1732159015.146958,1732159015.151636,125.000000,0.000000,4310.512695,4295.128418,4319.230957,4320.897461,4276.922852,4295.256348,4338.333496,4398.974121,4299.358887,4301.538574,4496.922852,4521.794922,4351.538574,4431.282227,1548.000000,1.000000,18.000000,,,,0.000000,2.000000,2.000000,0.000000,4.000000,2.000000,2.000000,0.000000,0.000000,4.000000,4.000000,4.000000,4.000000,4.000000,4.000000,0.000000,,,,,,,,,,,,,,,,,,,,,,,,,,,,
1732159015.154766,1732159015.159244,126.000000,0.000000,4311.922852,4292.179688,4318.589844,4316.794922,4275.384766,4295.769043,4336.410156,4406.410156,4302.051270,4308.333496,4503.461426,4529.358887,4348.589844,4434.615234,1564.000000,1.000000,18.000000,,,,0.000000,2.000000,2.000000,0.000000,4.000000,2.000000,2.000000,0.000000,0.000000,4.000000,4.000000,4.000000,4.000000,4.000000,4.000000,0.000000,,,,,,,,,,,,,,,,,,,,,,,,,,,,
1732159015.162574,1732159015.167052,127.000000,0.000000,4313.205078,4296.410156,4317.563965,4316.282227,4293.461426,4295.641113,4334.358887,4407.051270,4306.922852,4307.436035,4497.820313,4532.051270,4351.410156,4433.461426,18.000000,1.000000,18.000000,,,,0.000000,2.000000,2.000000,0.000000,4.000000,2.000000,2.000000,0.000000,0.000000,4.000000,4.000000,4.000000,4.000000,4.000000,4.000000,0.000000,,,,,,,,,,,,,,,,,,,,,,,,,,,,
1732159015.170383,1732159015.174761,0.000000,0.000000,4310.000000,4294.615234,4320.256348,4317.563965,4292.179688,4295.256348,4335.384766,4402.179688,4310.384766,4307.179688,4494.615234,4530.384766,4351.153809,4428.717773,0.000000,1.000000,18.000000,,,,0.000000,2.000000,2.000000,0.000000,4.000000,2.000000,2.000000,0.000000,0.000000,4.000000,4.000000,4.000000,4.000000,4.000000,4.000000,0.000000,,,,,,,,,,,,,,,,,0.000000,0.000000,0.503612,0.475159,-0.546265,0.471375,0.984007,-0.050299,-0.057624,-35.138924,44.896461,31.116215
1732159015.178191,1732159015.182569,1.000000,0.000000,4307.820313,4289.615234,4322.692383,4311.922852,4288.205078,4295.384766,4336.410156,4403.333496,4311.666504,4311.153809,4498.589844,4530.641113,4350.128418,4427.563965,1614.000000,1.000000,18.000000,,,,0.000000,2.000000,2.000000,0.000000,4.000000,2.000000,2.000000,0.000000,0.000000,4.000000,4.000000,4.000000,4.000000,4.000000,4.000000,0.000000,,,,,,,,,,,,,,,,,,,,,,,,,,,,
1732159015.185999,1732159015.190577,2.000000,0.000000,4309.358887,4293.205078,4319.358887,4309.487305,4287.948730,4295.128418,4336.153809,4405.128418,4307.179688,4309.102539,4497.948730,4531.153809,4350.256348,4430.256348,1359.000000,1.000000,18.000000,,,,0.000000,2.000000,2.000000,0.000000,4.000000,2.000000,2.000000,0.000000,0.000000,4.000000,4.000000,4.000000,4.000000,4.000000,4.000000,0.000000,,,,,,,,,,,,,,,,,,,,,,,,,,,,
1732159015.193807,1732159015.198385,3.000000,0.000000,4310.256348,4295.128418,4317.563965,4311.410156,4290.000000,4295.256348,4335.512695,4403.205078,4299.102539,4300.769043,4493.717773,4528.974121,4345.384766,4426.410156,1427.000000,1.000000,18.000000,,,,0.000000,2.000000,2.000000,0.000000,4.000000,2.000000,2.000000,0.000000,0.000000,4.000000,4.000000,4.000000,4.000000,4.000000,4.000000,0.000000,,,,,,,,,,,,,,,,,,,,,,,,,,,,
1732159015.201616,1732159015.206093,4.000000,0.000000,4310.128418,4292.563965,4322.436035,4311.666504,4310.000000,4295.512695,4335.512695,4403.717773,4302.820313,4303.077148,4492.179688,4526.153809,4341.410156,4419.230957,1427.000000,1.000000,18.000000,,,,0.000000,2.000000,2.000000,0.000000,4.000000,2.000000,2.000000,0.000000,0.000000,4.000000,4.000000,4.000000,4.000000,4.000000,4.000000,0.000000,,,,,,,,,,,,,,,,,1.000000,0.000000,0.503142,0.474792,-0.546753,0.471680,0.982542,-0.049811,-0.063484,-35.264194,44.592800,31.125801
1732159015.209424,1732159015.213902,5.000000,0.000000,4309.358887,4293.717773,4323.461426,4311.666504,4309.102539,4295.000000,4336.282227,4405.384766,4313.333496,4311.794922,4491.410156,4524.102539,4342.051270,4422.436035,1195.000000,1.000000,18.000000,,,,0.000000,2.000000,2.000000,0.000000,4.000000,2.000000,2.000000,0.000000,0.000000,4.000000,4.000000,4.000000,4.000000,4.000000,4.000000,0.000000,,,,,,,,,,,,,,,,,,,,,,,,,,,,
1732159015.217232,1732159015.221510,6.000000,0.000000,4308.077148,4295.128418,4318.974121,4312.179688,4279.358887,4295.641113,4334.871582,4403.846191,4311.282227,4309.102539,4490.384766,4521.922852,4340.000000,4429.102539,0.000000,1.000000,18.000000,,,,0.000000,2.000000,2.000000,0.000000,4.000000,2.000000,2.000000,0.000000,0.000000,4.000000,4.000000,4.000000,4.000000,4.000000,4.000000,0.000000,,,,,,,,,,,,,,,,,,,,,,,,,,,,
1732159015.225041,1732159015.229318,7.000000,0.000000,4309.615234,4292.307617,4318.846191,4311.538574,4273.333496,4297.436035,4334.102539,4401.794922,4304.615234,4305.512695,4490.641113,4520.897461,4339.615234,4424.487305,0.000000,1.000000,18.000000,,,,0.000000,2.000000,2.000000,0.000000,4.000000,2.000000,2.000000,0.000000,0.000000,4.000000,4.000000,4.000000,4.000000,4.000000,4.000000,0.000000,,,,,,,,,,,,,,,,,,,,,,,,,,,,
1732159015.232849,1732159015.237027,8.000000,0.000000,4311.922852,4292.436035,4320.384766,4311.922852,4286.410156,4296.282227,4335.641113,4402.179688,4309.230957,4310.769043,4493.846191,4522.563965,4342.179688,4421.410156,1536.000000,1.000000,18.000000,,,,0.000000,2.000000,2.000000,0.000000,4.000000,2.000000,2.000000,0.000000,0.000000,4.000000,4.000000,4.000000,4.000000,4.000000,4.000000,0.000000,,,,,,,,,,,,,,,,,2.000000,0.000000,0.502497,0.474548,-0.547241,0.472046,0.982542,-0.049811,-0.063484,-35.498997,44.448502,31.323566
1732159015.240657,1732159015.244835,9.000000,0.000000,4307.948730,4296.282227,4320.000000,4312.051270,4286.410156,4292.692383,4336.794922,4404.615234,4311.025879,4308.205078,4495.897461,4520.128418,4340.000000,4426.025879,1701.000000,1.000000,18.000000,,,,0.000000,2.000000,2.000000,0.000000,4.000000,2.000000,2.000000,0.000000,0.000000,4.000000,4.000000,4.000000,4.000000,4.000000,4.000000,0.000000,,,,,,,,,,,,,,,,,,,,,,,,,,,,
1732159015.248465,1732159015.252443,10.000000,0.000000,4301.922852,4294.230957,4319.615234,4310.256348,4287.179688,4294.871582,4336.410156,4405.128418,4302.820313,4296.153809,4492.179688,4512.051270,4335.769043,4422.563965,1564.000000,1.000000,18.000000,,,,0.000000,2.000000,2.000000,0.000000,4.000000,2.000000,2.000000,0.000000,0.000000,4.000000,4.000000,4.000000,4.000000,4.000000,4.000000,0.000000,,,,,,,,,,,,,,,,,,,,,,,,,,,,
1732159015.256273,1732159015.260251,11.000000,0.000000,4301.922852,4290.384766,4320.769043,4309.230957,4294.743652,4299.358887,4336.666504,4403.846191,4302.436035,4296.282227,4489.358887,4507.692383,4336.666504,4416.025879,1546.000000,1.000000,18.000000,,,,0.000000,2.000000,2.000000,0.000000,4.000000,2.000000,2.000000,0.000000,0.000000,4.000000,4.000000,4.000000,4.000000,4.000000,4.000000,0.000000,,,,,,,,,,,,,,,,,,,,,,,,,,,,
1732159015.264082,1732159015.268159,12.000000,0.000000,4305.512695,4290.384766,4321.282227,4309.871582,4290.128418,4299.615234,4336.282227,4404.358887,4309.102539,4305.000000,4490.641113,4509.230957,4338.717773,4417.692383,1701.000000,1.000000,18.000000,,,,0.000000,2.000000,2.000000,0.000000,4.000000,2.000000,2.000000,0.000000,0.000000,4.000000,4.000000,4.000000,4.000000,4.000000,4.000000,0.000000,,,,,,,,,,,,,,,,,3.000000,0.000000,0.500320,0.473938,-0.548340,0.473694,0.977658,-0.048346,-0.062996,-35.720856,44.641621,31.377089
1732159015.271890,1732159015.275968,13.000000,0.000000,4306.794922,4291.794922,4323.205078,4311.282227,4286.410156,4297.820313,4335.128418,4405.384766,4309.102539,4307.051270,4492.051270,4511.538574,4339.230957,4422.692383,1546.000000,1.000000,18.000000,,,,0.000000,2.000000,2.000000,0.000000,4.000000,2.000000,2.000000,0.000000,0.000000,4.000000,4.000000,4.000000,4.000000,4.000000,4.000000,0.000000,,,,,,,,,,,,,,,,,,,,,,,,,,,,
1732159015.279698,1732159015.283976,14.000000,0.000000,4302.692383,4292.179688,4322.179688,4312.436035,4288.461426,4297.307617,4335.641113,4405.128418,4306.922852,4305.769043,4492.307617,4511.666504,4340.512695,4426.153809,1564.000000,1.000000,18.000000,,,,0.000000,2.000000,2.000000,0.000000,4.000000,2.000000,2.000000,0.000000,0.000000,4.000000,4.000000,4.000000,4.000000,4.000000,4.000000,0.000000,1.000000,0.000000,2.000000,2.000000,0.000000,4.000000,2.000000,2.000000,0.000000,0.000000,4.000000,4.000000,4.000000,4.000000,4.000000,3.000000,,,,,,,,,,,,
1732159015.287506,1732159015.291784,15.000000,0.000000,4298.717773,4289.743652,4318.461426,4307.692383,4288.333496,4295.897461,4336.025879,4404.230957,4307.307617,4305.384766,4491.282227,4510.384766,4339.871582,4427.307617,1546.000000,1.000000,18.000000,,,,0.000000,2.000000,2.000000,0.000000,4.000000,2.000000,2.000000,0.000000,0.000000,4.000000,4.000000,4.000000,4.000000,4.000000,4.000000,0.000000,,,,,,,,,,,,,,,,,,,,,,,,,,,,
1732159015.295315,1732159015.299692,16.000000,0.000000,4301.025879,4289.230957,4316.922852,4301.153809,4284.358887,4295.512695,4335.000000,4403.333496,4308.589844,4307.563965,4491.666504,4511.794922,4339.615234,4428.205078,0.000000,1.000000,18.000000,,,,0.000000,2.000000,2.000000,0.000000,4.000000,2.000000,2.000000,0.000000,0.000000,4.000000,4.000000,4.000000,4.000000,4.000000,4.000000,0.000000,,,,,,,,,,,,,,,,,4.000000,0.000000,0.499162,0.473999,-0.548340,0.474854,0.977658,-0.061043,-0.053229,-35.783894,44.864712,31.353775
1732159015.303123,1732159015.307500,17.000000,0.000000,4304.487305,4287.563965,4318.717773,4301.538574,4280.897461,4296.282227,4336.025879,4405.769043,4311.794922,4306.922852,4493.077148,4518.717773,4339.743652,4430.000000,0.000000,1.000000,18.000000,,,,0.000000,2.000000,2.000000,0.000000,4.000000,2.000000,2.000000,0.000000,0.000000,4.000000,4.000000,4.000000,4.000000,4.000000,4.000000,0.000000,,,,,,,,,,,,,,,,,,,,,,,,,,,,
1732159015.310931,1732159015.315109,18.000000,0.000000,4304.102539,4283.333496,4320.000000,4306.922852,4298.205078,4296.025879,4340.256348,4407.051270,4312.948730,4300.256348,4491.025879,4517.307617,4336.153809,4423.589844,0.000000,1.000000,18.000000,,,,0.000000,2.000000,2.000000,0.000000,4.000000,2.000000,2.000000,0.000000,0.000000,4.000000,4.000000,4.000000,4.000000,4.000000,4.000000,0.000000,,,,,,,,,,,,,,,,,,,,,,,,,,,,
1732159015.318740,1732159015.322917,19.000000,0.000000,4302.948730,4285.128418,4319.102539,4308.846191,4308.846191,4295.641113,4342.051270,4400.897461,4308.205078,4293.974121,4487.563965,4509.743652,4333.717773,4416.794922,0.000000,1.000000,18.000000,,,,0.000000,2.000000,2.000000,0.000000,4.000000,2.000000,2.000000,0.000000,0.000000,4.000000,4.000000,4.000000,4.000000,4.000000,4.000000,0.000000,,,,,,,,,,,,,,,,,,,,,,,,,,,,
1732159015.326548,1732159015.330625,20.000000,0.000000,4300.641113,4288.333496,4318.205078,4308.846191,4286.153809,4298.333496,4338.461426,4401.025879,4306.153809,4295.256348,4487.051270,4508.974121,4335.384766,4423.077148,0.000000,1.000000,18.000000,,,,0.000000,2.000000,2.000000,0.000000,4.000000,2.000000,2.000000,0.000000,0.000000,4.000000,4.000000,4.000000,4.000000,4.000000,4.000000,0.000000,,,,,,,,,,,,,,,,,5.000000,0.000000,0.498737,0.473938,-0.548462,0.475220,0.979612,-0.060066,-0.052741,-36.109951,44.858749,31.634892
1732159015.334356,1732159015.338433,21.000000,0.000000,4295.769043,4281.922852,4318.974121,4308.589844,4271.025879,4300.897461,4334.871582,4409.615234,4310.256348,4297.948730,4489.743652,4511.282227,4337.051270,4430.384766,0.000000,1.000000,18.000000,,,,0.000000,2.000000,2.000000,0.000000,4.000000,2.000000,2.000000,0.000000,0.000000,4.000000,4.000000,4.000000,4.000000,4.000000,4.000000,0.000000,,,,,,,,,,,,,,,,,,,,,,,,,,,,
1732159015.342164,1732159015.346042,22.000000,0.000000,4298.077148,4278.461426,4321.025879,4308.461426,4281.666504,4300.512695,4335.000000,4409.743652,4311.282227,4296.153809,4490.256348,4512.307617,4334.487305,4425.384766,0.000000,1.000000,18.000000,,,,0.000000,2.000000,2.000000,0.000000,4.000000,2.000000,2.000000,0.000000,0.000000,4.000000,4.000000,4.000000,4.000000,4.000000,4.000000,0.000000,,,,,,,,,,,,,,,,,,,,,,,,,,,,
1732159015.349973,1732159015.353850,23.000000,0.000000,4302.948730,4285.384766,4320.641113,4309.615234,4282.563965,4297.307617,4336.025879,4403.333496,4309.230957,4295.769043,4489.102539,4512.436035,4333.205078,4419.487305,0.000000,1.000000,18.000000,,,,0.000000,2.000000,2.000000,0.000000,4.000000,2.000000,2.000000,0.000000,0.000000,4.000000,4.000000,4.000000,4.000000,4.000000,4.000000,0.000000,,,,,,,,,,,,,,,,,,,,,,,,,,,,
1732159015.357781,1732159015.361758,24.000000,0.000000,4300.000000,4287.179688,4318.974121,4309.358887,4278.589844,4294.871582,4335.641113,4403.461426,4308.717773,4296.025879,4490.384766,4512.820313,4334.230957,4423.717773,0.000000,1.000000,18.000000,,,,0.000000,2.000000,2.000000,0.000000,4.000000,2.000000,2.000000,0.000000,0.000000,4.000000,4.000000,4.000000,4.000000,4.000000,4.000000,0.000000,,,,,,,,,,,,,,,,,6.000000,0.000000,0.497979,0.473755,-0.548462,0.476196,0.981565,-0.079111,-0.053717,-36.184063,44.822254,31.735928
1732159015.365589,1732159015.369566,25.000000,0.000000,4296.538574,4285.897461,4318.205078,4309.102539,4287.948730,4296.666504,4336.025879,4405.000000,4309.615234,4296.410156,4491.282227,4516.410156,4333.717773,4426.666504,0.000000,1.000000,18.000000,,,,0.000000,2.000000,2.000000,0.000000,4.000000,2.000000,2.000000,0.000000,0.000000,4.000000,4.000000,4.000000,4.000000,4.000000,4.000000,0.000000,,,,,,,,,,,,,,,,,,,,,,,,,,,,
1732159015.373397,1732159015.377574,26.000000,0.000000,4297.692383,4288.589844,4318.717773,4310.256348,4289.102539,4298.461426,4336.922852,4403.717773,4311.794922,4296.282227,4489.358887,4518.333496,4334.615234,4421.025879,0.000000,1.000000,18.000000,,,,0.000000,2.000000,2.000000,0.000000,4.000000,2.000000,2.000000,0.000000,0.000000,4.000000,4.000000,4.000000,4.000000,4.000000,4.000000,0.000000,,,,,,,,,,,,,,,,,,,,,,,,,,,,
1732159015.381205,1732159015.385382,27.000000,0.000000,4298.205078,4289.102539,4316.538574,4308.846191,4284.615234,4296.025879,4335.512695,4403.333496,4308.717773,4295.128418,4489.230957,4512.948730,4338.077148,4417.820313,0.000000,1.000000,18.000000,,,,0.000000,2.000000,2.000000,0.000000,4.000000,2.000000,2.000000,0.000000,0.000000,4.000000,4.000000,4.000000,4.000000,4.000000,4.000000,0.000000,,,,,,,,,,,,,,,,,,,,,,,,,,,,
1732159015.389014,1732159015.393291,28.000000,0.000000,4297.307617,4286.922852,4316.153809,4306.794922,4288.846191,4293.717773,4334.743652,4405.256348,4303.461426,4294.487305,4491.666504,4511.025879,4340.384766,4423.461426,0.000000,1.000000,18.000000,,,,0.000000,2.000000,2.000000,0.000000,4.000000,2.000000,2.000000,0.000000,0.000000,4.000000,4.000000,4.000000,4.000000,4.000000,4.000000,0.000000,,,,,,,,,,,,,,,,,7.000000,0.000000,0.497563,0.472534,-0.549255,0.476929,0.976193,-0.071786,-0.043462,-36.194092,44.689358,31.787769
1732159015.396822,1732159015.401099,29.000000,0.000000,4296.025879,4284.358887,4316.922852,4306.282227,4289.230957,4294.487305,4334.871582,4403.589844,4305.641113,4294.871582,4492.179688,4515.641113,4340.128418,4428.461426,0.000000,1.000000,18.000000,,,,0.000000,2.000000,2.000000,0.000000,4.000000,2.000000,2.000000,0.000000,0.000000,4.000000,4.000000,4.000000,4.000000,4.000000,4.000000,0.000000,,,,,,,,,,,,,,,,,,,,,,,,,,,,
1732159015.404630,1732159015.409107,30.000000,0.000000,4294.743652,4284.358887,4316.025879,4303.461426,4287.692383,4296.025879,4335.128418,4402.692383,4313.974121,4296.666504,4492.307617,4517.820313,4340.256348,4426.282227,0.000000,1.000000,18.000000,,,,0.000000,2.000000,2.000000,0.000000,4.000000,2.000000,2.000000,0.000000,0.000000,4.000000,4.000000,4.000000,4.000000,4.000000,4.000000,0.000000,,,,,,,,,,,,,,,,,,,,,,,,,,,,
1732159015.412439,1732159015.416915,31.000000,0.000000,4299.102539,4284.487305,4315.384766,4304.871582,4291.922852,4295.512695,4335.512695,4405.128418,4317.692383,4295.384766,4494.487305,4516.666504,4343.077148,4420.769043,0.000000,1.000000,18.000000,,,,0.000000,2.000000,2.000000,0.000000,4.000000,2.000000,2.000000,0.000000,0.000000,4.000000,4.000000,4.000000,4.000000,4.000000,4.000000,0.000000,,,,,,,,,,,,,,,,,,,,,,,,,,,,
1732159015.420247,1732159015.424823,32.000000,0.000000,4301.794922,4284.358887,4316.794922,4312.051270,4287.307617,4295.512695,4334.615234,4404.358887,4317.436035,4296.794922,4494.358887,4518.717773,4342.948730,4421.794922,0.000000,1.000000,18.000000,,,,0.000000,2.000000,2.000000,0.000000,4.000000,2.000000,2.000000,0.000000,0.000000,4.000000,4.000000,4.000000,4.000000,4.000000,4.000000,0.000000,,,,,,,,,,,,,,,,,8.000000,0.000000,0.497476,0.472290,-0.549438,0.477051,0.988402,-0.061043,-0.046881,-36.090546,44.548382,31.893093
1732159015.428055,1732159015.432631,33.000000,0.000000,4297.563965,4289.102539,4316.666504,4312.820313,4289.615234,4296.794922,4333.717773,4401.153809,4310.512695,4295.641113,4490.769043,4516.282227,4337.692383,4426.282227,0.000000,1.000000,18.000000,,,,0.000000,2.000000,2.000000,0.000000,4.000000,2.000000,2.000000,0.000000,0.000000,4.000000,4.000000,4.000000,4.000000,4.000000,4.000000,0.000000,,,,,,,,,,,,,,,,,,,,,,,,,,,,
1732159015.435863,1732159015.440639,34.000000,0.000000,4297.948730,4290.128418,4315.897461,4309.487305,4309.615234,4296.153809,4335.000000,4401.025879,4301.153809,4286.538574,4490.128418,4507.692383,4334.743652,4422.692383,0.000000,1.000000,18.000000,,,,0.000000,2.000000,2.000000,0.000000,4.000000,2.000000,2.000000,0.000000,0.000000,4.000000,4.000000,4.000000,4.000000,4.000000,4.000000,0.000000,,,,,,,,,,,,,,,,,,,,,,,,,,,,
1732159015.443672,1732159015.448448,35.000000,0.000000,4298.205078,4283.461426,4318.333496,4310.256348,4302.692383,4294.615234,4336.410156,4402.563965,4305.769043,4286.025879,4491.282227,4507.307617,4338.717773,4420.897461,0.000000,1.000000,18.000000,,,,0.000000,2.000000,2.000000,0.000000,4.000000,2.000000,2.000000,0.000000,0.000000,4.000000,4.000000,4.000000,4.000000,4.000000,4.000000,0.000000,,,,,,,,,,,,,,,,,,,,,,,,,,,,
1732159015.451480,1732159015.456356,36.000000,0.000000,4296.410156,4283.461426,4319.615234,4311.794922,4274.358887,4294.230957,4335.000000,4399.615234,4312.051270,4295.641113,4489.487305,4507.820313,4339.871582,4424.358887,0.000000,1.000000,18.000000,,,,0.000000,2.000000,2.000000,0.000000,4.000000,2.000000,2.000000,0.000000,0.000000,4.000000,4.000000,4.000000,4.000000,4.000000,4.000000,0.000000,,,,,,,,,,,,,,,,,9.000000,0.000000,0.497641,0.472168,-0.549500,0.476929,0.988402,-0.057136,-0.040532,-35.901676,44.614189,31.888405
1732159015.459288,1732159015.464164,37.000000,0.000000,4300.128418,4290.000000,4318.589844,4311.410156,4273.333496,4296.282227,4334.615234,4400.128418,4311.922852,4297.820313,4490.512695,4507.307617,4335.769043,4422.307617,0.000000,1.000000,18.000000,,,,0.000000,2.000000,2.000000,0.000000,4.000000,2.000000,2.000000,0.000000,0.000000,4.000000,4.000000,4.000000,4.000000,4.000000,4.000000,0.000000,,,,,,,,,,,,,,,,,,,,,,,,,,,,
1732159015.467096,1732159015.472172,38.000000,0.000000,4301.153809,4289.102539,4317.563965,4310.641113,4285.641113,4297.436035,4335.128418,4401.794922,4312.307617,4291.410156,4487.563965,4507.436035,4335.128418,4414.615234,0.000000,1.000000,18.000000,,,,0.000000,2.000000,2.000000,0.000000,4.000000,2.000000,2.000000,0.000000,0.000000,4.000000,4.000000,4.000000,4.000000,4.000000,4.000000,0.000000,,,,,,,,,,,,,,,,,,,,,,,,,,,,
1732159015.474905,1732159015.479980,39.000000,0.000000,4296.922852,4286.410156,4317.179688,4312.179688,4283.974121,4297.051270,4335.000000,4400.897461,4305.384766,4285.000000,4476.410156,4508.077148,4332.563965,4409.743652,0.000000,1.000000,18.000000,,,,0.000000,2.000000,2.000000,0.000000,4.000000,2.000000,2.000000,0.000000,0.000000,4.000000,4.000000,4.000000,4.000000,4.000000,4.000000,0.000000,,,,,,,,,,,,,,,,,,,,,,,,,,,,
1732159015.482713,1732159015.487688,40.000000,0.000000,4295.897461,4290.897461,4317.820313,4313.333496,4288.846191,4300.769043,4334.871582,4403.077148,4298.717773,4277.692383,4472.820313,4504.743652,4326.282227,4406.666504,0.000000,1.000000,18.000000,,,,0.000000,2.000000,2.000000,0.000000,4.000000,2.000000,2.000000,0.000000,0.000000,4.000000,4.000000,4.000000,4.000000,4.000000,4.000000,0.000000,,,,,,,,,,,,,,,,,10.000000,0.000000,0.497826,0.472229,-0.549438,0.476746,0.986937,-0.055183,-0.062508,-35.935356,44.559158,31.787941
1732159015.490521,1732159015.495497,41.000000,0.000000,4293.974121,4286.538574,4317.179688,4307.692383,4292.307617,4305.384766,4335.000000,4406.153809,4306.666504,4276.794922,4477.436035,4504.743652,4324.358887,4401.410156,0.000000,1.000000,18.000000,,,,0.000000,2.000000,2.000000,0.000000,4.000000,2.000000,2.000000,0.000000,0.000000,4.000000,4.000000,4.000000,4.000000,4.000000,4.000000,0.000000,,,,,,,,,,,,,,,,,,,,,,,,,,,,
1732159015.498329,1732159015.503205,42.000000,0.000000,4290.512695,4278.205078,4315.000000,4301.282227,4283.846191,4302.820313,4335.000000,4404.743652,4318.077148,4283.974121,4475.256348,4509.358887,4325.000000,4397.179688,0.000000,1.000000,18.000000,,,,0.000000,2.000000,2.000000,0.000000,4.000000,2.000000,2.000000,0.000000,0.000000,4.000000,4.000000,4.000000,4.000000,4.000000,4.000000,0.000000,,,,,,,,,,,,,,,,,,,,,,,,,,,,
1732159015.506138,1732159015.511013,43.000000,0.000000,4286.922852,4278.461426,4315.384766,4300.641113,4293.589844,4295.769043,4334.871582,4402.179688,4319.358887,4288.974121,4472.692383,4506.538574,4324.743652,4401.794922,0.000000,1.000000,18.000000,,,,0.000000,2.000000,2.000000,0.000000,4.000000,2.000000,2.000000,0.000000,0.000000,4.000000,4.000000,4.000000,4.000000,4.000000,4.000000,0.000000,,,,,,,,,,,,,,,,,,,,,,,,,,,,
1732159015.513946,1732159015.518721,44.000000,0.000000,4284.487305,4280.769043,4317.179688,4298.589844,4302.820313,4293.077148,4335.128418,4403.205078,4320.897461,4295.128418,4481.538574,4504.230957,4328.461426,4411.538574,0.000000,1.000000,18.000000,,,,0.000000,2.000000,2.000000,0.000000,4.000000,2.000000,2.000000,0.000000,0.000000,4.000000,4.000000,4.000000,4.000000,4.000000,4.000000,0.000000,,,,,,,,,,,,,,,,,11.000000,0.000000,0.498235,0.472839,-0.549072,0.476135,0.975705,-0.048834,-0.055671,-35.930973,44.587917,31.751566
1732159015.521754,1732159015.526530,45.000000,0.000000,4289.615234,4279.743652,4317.948730,4297.051270,4282.436035,4295.256348,4334.743652,4404.487305,4317.692383,4297.820313,4490.128418,4513.205078,4335.256348,4412.051270,0.000000,1.000000,18.000000,,,,0.000000,2.000000,2.000000,0.000000,4.000000,2.000000,2.000000,0.000000,0.000000,4.000000,4.000000,4.000000,4.000000,4.000000,4.000000,0.000000,,,,,,,,,,,,,,,,,,,,,,,,,,,,
1732159015.529562,1732159015.534138,46.000000,0.000000,4296.538574,4280.641113,4316.153809,4301.666504,4268.589844,4296.282227,4334.743652,4403.846191,4312.563965,4294.230957,4489.102539,4517.051270,4337.820313,4410.000000,0.000000,1.000000,18.000000,,,,0.000000,2.000000,2.000000,0.000000,4.000000,2.000000,2.000000,0.000000,0.000000,4.000000,4.000000,4.000000,4.000000,4.000000,4.000000,0.000000,,,,,,,,,,,,,,,,,,,,,,,,,,,,
1732159015.537371,1732159015.541946,47.000000,0.000000,4294.743652,4282.563965,4316.025879,4301.538574,4278.717773,4296.538574,4335.512695,4405.256348,4315.897461,4295.384766,4486.538574,4507.948730,4337.692383,4413.077148,0.000000,1.000000,18.000000,,,,0.000000,2.000000,2.000000,0.000000,4.000000,2.000000,2.000000,0.000000,0.000000,4.000000,4.000000,4.000000,4.000000,4.000000,4.000000,0.000000,,,,,,,,,,,,,,,,,,,,,,,,,,,,
1732159015.545179,1732159015.549655,48.000000,0.000000,4290.256348,4279.871582,4317.436035,4298.974121,4283.461426,4297.307617,4335.512695,4404.358887,4316.666504,4296.666504,4488.974121,4502.948730,4337.436035,4413.205078,0.000000,1.000000,18.000000,,,,0.000000,2.000000,2.000000,0.000000,4.000000,2.000000,2.000000,0.000000,0.000000,4.000000,4.000000,4.000000,4.000000,4.000000,4.000000,0.000000,,,,,,,,,,,,,,,,,12.000000,0.000000,0.498263,0.473083,-0.548889,0.476074,0.975705,-0.048834,-0.055671,-35.845757,44.576214,31.632101
1732159015.552987,1732159015.557463,49.000000,0.000000,4288.461426,4278.846191,4316.922852,4301.025879,4278.846191,4296.153809,4335.128418,4403.589844,4307.179688,4285.897461,4486.922852,4507.563965,4336.666504,4410.128418,0.000000,1.000000,18.000000,,,,0.000000,2.000000,2.000000,0.000000,4.000000,2.000000,2.000000,0.000000,0.000000,4.000000,4.000000,4.000000,4.000000,4.000000,4.000000,0.000000,,,,,,,,,,,,,,,,,,,,,,,,,,,,
1732159015.560795,1732159015.565071,50.000000,0.000000,4287.692383,4279.230957,4314.743652,4303.461426,4280.256348,4293.589844,4334.230957,4405.000000,4299.102539,4275.897461,4481.922852,4507.051270,4335.641113,4410.000000,0.000000,1.000000,18.000000,,,,0.000000,2.000000,2.000000,0.000000,4.000000,2.000000,2.000000,0.000000,0.000000,4.000000,4.000000,4.000000,4.000000,4.000000,4.000000,0.000000,,,,,,,,,,,,,,,,,,,,,,,,,,,,
1732159015.568604,1732159015.572879,51.000000,0.000000,4290.000000,4278.717773,4315.769043,4305.769043,4286.538574,4295.000000,4336.410156,4403.333496,4303.205078,4281.153809,4484.871582,4506.025879,4334.615234,4411.666504,0.000000,1.000000,18.000000,,,,0.000000,2.000000,2.000000,0.000000,4.000000,2.000000,2.000000,0.000000,0.000000,4.000000,4.000000,4.000000,4.000000,4.000000,4.000000,0.000000,,,,,,,,,,,,,,,,,,,,,,,,,,,,
1732159015.576412,1732159015.580588,52.000000,0.000000,4291.153809,4279.102539,4317.692383,4307.179688,4289.102539,4299.487305,4339.230957,4400.384766,4313.205078,4291.025879,4488.846191,4514.102539,4337.051270,4413.974121,0.000000,1.000000,18.000000,,,,0.000000,2.000000,2.000000,0.000000,4.000000,2.000000,2.000000,0.000000,0.000000,4.000000,4.000000,4.000000,4.000000,4.000000,4.000000,0.000000,,,,,,,,,,,,,,,,,13.000000,0.000000,0.498252,0.473511,-0.548584,0.476013,0.966427,-0.041509,-0.054206,-36.078396,44.781734,31.542002
1732159015.584220,1732159015.588396,53.000000,0.000000,4288.589844,4279.102539,4315.897461,4303.461426,4296.922852,4297.179688,4337.436035,4402.692383,4317.563965,4293.589844,4489.230957,4522.948730,4339.102539,4413.846191,0.000000,1.000000,18.000000,,,,0.000000,2.000000,2.000000,0.000000,4.000000,2.000000,2.000000,0.000000,0.000000,4.000000,4.000000,4.000000,4.000000,4.000000,4.000000,0.000000,,,,,,,,,,,,,,,,,,,,,,,,,,,,
1732159015.592029,1732159015.596004,54.000000,0.000000,4288.205078,4279.102539,4315.897461,4298.205078,4302.051270,4295.897461,4333.205078,4406.025879,4317.692383,4295.256348,4490.256348,4521.922852,4338.589844,4410.769043,0.000000,1.000000,18.000000,,,,0.000000,2.000000,2.000000,0.000000,4.000000,2.000000,2.000000,0.000000,0.000000,4.000000,4.000000,4.000000,4.000000,4.000000,4.000000,0.000000,,,,,,,,,,,,,,,,,,,,,,,,,,,,
1732159015.599837,1732159015.603813,55.000000,0.000000,4286.922852,4279.358887,4316.794922,4300.512695,4288.717773,4300.000000,4335.897461,4405.641113,4323.974121,4299.615234,4490.641113,4517.692383,4339.743652,4411.282227,0.000000,1.000000,18.000000,,,,0.000000,2.000000,2.000000,0.000000,4.000000,2.000000,2.000000,0.000000,0.000000,4.000000,4.000000,4.000000,4.000000,4.000000,4.000000,0.000000,,,,,,,,,,,,,,,,,,,,,,,,,,,,
1732159015.607645,1732159015.611521,56.000000,0.000000,4283.205078,4278.717773,4316.410156,4300.897461,4276.538574,4302.563965,4339.615234,4405.128418,4327.179688,4301.666504,4486.794922,4515.000000,4338.461426,4412.179688,0.000000,1.000000,18.000000,,,,0.000000,2.000000,2.000000,0.000000,4.000000,2.000000,2.000000,0.000000,0.000000,4.000000,4.000000,4.000000,4.000000,4.000000,4.000000,0.000000,,,,,,,,,,,,,,,,,14.000000,0.000000,0.498093,0.474365,-0.548096,0.475891,0.973752,-0.041997,-0.053229,-36.066833,44.664871,31.319021
1732159015.615453,1732159015.619329,57.000000,0.000000,4281.410156,4277.436035,4314.871582,4295.769043,4279.487305,4301.538574,4336.922852,4404.102539,4316.922852,4295.384766,4484.102539,4510.641113,4334.871582,4404.102539,0.000000,1.000000,18.000000,,,,0.000000,2.000000,2.000000,0.000000,4.000000,2.000000,2.000000,0.000000,0.000000,4.000000,4.000000,4.000000,4.000000,4.000000,4.000000,0.000000,,,,,,,,,,,,,,,,,,,,,,,,,,,,
1732159015.623261,1732159015.626937,58.000000,0.000000,4282.179688,4278.077148,4315.256348,4297.307617,4288.077148,4299.871582,4336.410156,4404.358887,4308.333496,4283.589844,4485.512695,4508.717773,4334.358887,4398.205078,0.000000,1.000000,18.000000,,,,0.000000,2.000000,2.000000,0.000000,4.000000,2.000000,2.000000,0.000000,0.000000,4.000000,4.000000,4.000000,4.000000,4.000000,4.000000,0.000000,,,,,,,,,,,,,,,,,,,,,,,,,,,,
1732159015.631070,1732159015.634746,59.000000,0.000000,4287.307617,4280.000000,4318.717773,4302.820313,4302.948730,4299.487305,4338.974121,4408.333496,4311.025879,4279.230957,4488.077148,4515.128418,4336.410156,4406.025879,0.000000,1.000000,18.000000,,,,0.000000,2.000000,2.000000,0.000000,4.000000,2.000000,2.000000,0.000000,0.000000,4.000000,4.000000,4.000000,4.000000,4.000000,4.000000,0.000000,,,,,,,,,,,,,,,,,,,,,,,,,,,,
1732159015.638878,1732159015.642454,60.000000,0.000000,4296.282227,4281.153809,4320.769043,4304.358887,4306.538574,4301.282227,4338.461426,4409.487305,4312.820313,4280.512695,4488.717773,4518.333496,4339.487305,4415.641113,0.000000,1.000000,18.000000,,,,0.000000,2.000000,2.000000,0.000000,4.000000,2.000000,2.000000,0.000000,0.000000,4.000000,4.000000,4.000000,4.000000,4.000000,4.000000,0.000000,,,,,,,,,,,,,,,,,15.000000,0.000000,0.498017,0.474365,-0.548218,0.475830,0.991332,-0.043951,-0.052252,-35.999134,44.435211,31.206741
1732159015.646686,1732159015.650262,61.000000,0.000000,4295.512695,4279.230957,4315.512695,4305.512695,4284.358887,4306.666504,4337.563965,4405.769043,4311.410156,4282.563965,4487.948730,4511.794922,4340.897461,4413.205078,0.000000,1.000000,18.000000,,,,0.000000,2.000000,2.000000,0.000000,4.000000,2.000000,2.000000,0.000000,0.000000,4.000000,4.000000,4.000000,4.000000,4.000000,4.000000,0.000000,,,,,,,,,,,,,,,,,,,,,,,,,,,,
1732159015.654494,1732159015.657871,62.000000,0.000000,4282.563965,4275.641113,4314.102539,4303.974121,4273.461426,4307.820313,4338.717773,4404.358887,4313.846191,4283.333496,4487.563965,4511.794922,4336.153809,4406.282227,0.000000,1.000000,18.000000,,,,0.000000,2.000000,2.000000,0.000000,4.000000,2.000000,2.000000,0.000000,0.000000,4.000000,4.000000,4.000000,4.000000,4.000000,4.000000,0.000000,,,,,,,,,,,,,,,,,,,,,,,,,,,,
1732159015.662303,1732159015.665679,63.000000,0.000000,4279.358887,4272.563965,4319.230957,4297.179688,4283.974121,4299.743652,4338.205078,4405.128418,4312.820313,4284.358887,4484.358887,4516.153809,4330.897461,4400.641113,0.000000,1.000000,18.000000,,,,0.000000,2.000000,2.000000,0.000000,4.000000,2.000000,2.000000,0.000000,0.000000,4.000000,4.000000,4.000000,4.000000,4.000000,4.000000,0.000000,,,,,,,,,,,,,,,,,,,,,,,,,,,,
1732159015.670111,1732159015.673387,64.000000,0.000000,4285.000000,4269.487305,4319.743652,4293.846191,4285.769043,4293.461426,4337.820313,4406.153809,4308.077148,4290.512695,4481.153809,4511.538574,4334.230957,4398.974121,0.000000,1.000000,18.000000,,,,0.000000,2.000000,2.000000,0.000000,4.000000,2.000000,2.000000,0.000000,0.000000,4.000000,4.000000,4.000000,4.000000,4.000000,4.000000,0.000000,,,,,,,,,,,,,,,,,16.000000,0.000000,0.498164,0.474121,-0.548401,0.475708,0.988402,-0.055671,-0.067879,-36.030964,44.447521,31.357460
1732159015.677919,1732159015.681195,65.000000,0.000000,4283.077148,4270.641113,4315.641113,4298.333496,4286.410156,4301.794922,4337.948730,4405.384766,4312.307617,4297.563965,4480.384766,4507.179688,4334.871582,4401.025879,1614.000000,1.000000,18.000000,,,,0.000000,2.000000,2.000000,0.000000,4.000000,2.000000,2.000000,0.000000,0.000000,4.000000,4.000000,4.000000,4.000000,4.000000,4.000000,0.000000,,,,,,,,,,,,,,,,,,,,,,,,,,,,
1732159015.685727,1732159015.689203,66.000000,0.000000,4279.743652,4275.256348,4315.000000,4300.000000,4298.461426,4311.410156,4337.948730,4404.615234,4319.487305,4298.461426,4479.358887,4508.333496,4332.179688,4398.717773,1359.000000,1.000000,18.000000,,,,0.000000,2.000000,2.000000,0.000000,4.000000,2.000000,2.000000,0.000000,0.000000,4.000000,4.000000,4.000000,4.000000,4.000000,4.000000,0.000000,,,,,,,,,,,,,,,,,,,,,,,,,,,,
1732159015.693536,1732159015.697012,67.000000,0.000000,4281.410156,4278.974121,4315.384766,4298.077148,4312.948730,4305.000000,4337.436035,4405.897461,4315.384766,4295.384766,4477.179688,4508.077148,4333.717773,4394.743652,1429.000000,1.000000,18.000000,,,,0.000000,2.000000,2.000000,0.000000,4.000000,2.000000,2.000000,0.000000,0.000000,4.000000,4.000000,4.000000,4.000000,4.000000,4.000000,0.000000,,,,,,,,,,,,,,,,,,,,,,,,,,,,
1732159015.701344,1732159015.704920,68.000000,0.000000,4281.025879,4277.307617,4316.025879,4297.436035,4309.230957,4299.358887,4335.256348,4407.179688,4310.000000,4296.794922,4476.922852,4506.666504,4335.256348,4397.563965,1436.000000,1.000000,18.000000,,,,0.000000,2.000000,2.000000,0.000000,4.000000,2.000000,2.000000,0.000000,0.000000,4.000000,4.000000,4.000000,4.000000,4.000000,4.000000,0.000000,,,,,,,,,,,,,,,,,17.000000,0.000000,0.498189,0.473633,-0.549011,0.475464,0.982542,-0.054206,-0.052741,-35.955082,44.585827,31.322876
1732159015.709152,1732159015.712728,69.000000,0.000000,4279.615234,4273.589844,4317.820313,4297.051270,4286.025879,4306.410156,4337.436035,4405.000000,4312.563965,4296.794922,4481.922852,4509.487305,4335.256348,4400.000000,1195.000000,1.000000,18.000000,,,,0.000000,2.000000,2.000000,0.000000,4.000000,2.000000,2.000000,0.000000,0.000000,4.000000,4.000000,4.000000,4.000000,4.000000,4.000000,0.000000,,,,,,,,,,,,,,,,,,,,,,,,,,,,
1732159015.716961,1732159015.720336,70.000000,0.000000,4280.000000,4274.615234,4315.897461,4298.974121,4275.769043,4309.230957,4340.512695,4403.974121,4313.974121,4293.461426,4487.179688,4510.000000,4338.974121,4397.179688,0.000000,1.000000,18.000000,,,,0.000000,2.000000,2.000000,0.000000,4.000000,2.000000,2.000000,0.000000,0.000000,4.000000,4.000000,4.000000,4.000000,4.000000,4.000000,0.000000,,,,,,,,,,,,,,,,,,,,,,,,,,,,
1732159015.724769,1732159015.728144,71.000000,0.000000,4282.179688,4280.641113,4313.974121,4303.846191,4288.077148,4300.256348,4340.256348,4406.153809,4311.282227,4293.717773,4488.846191,4511.922852,4344.102539,4403.077148,0.000000,1.000000,18.000000,,,,0.000000,2.000000,2.000000,0.000000,4.000000,2.000000,2.000000,0.000000,0.000000,4.000000,4.000000,4.000000,4.000000,4.000000,4.000000,0.000000,,,,,,,,,,,,,,,,,,,,,,,,,,,,
1732159015.732577,1732159015.735853,72.000000,0.000000,4285.512695,4281.410156,4316.282227,4305.769043,4299.230957,4293.461426,4338.974121,4405.384766,4310.000000,4293.077148,4486.282227,4511.538574,4341.025879,4414.743652,1533.000000,1.000000,18.000000,,,,0.000000,2.000000,2.000000,0.000000,4.000000,2.000000,2.000000,0.000000,0.000000,4.000000,4.000000,4.000000,4.000000,4.000000,4.000000,0.000000,,,,,,,,,,,,,,,,,18.000000,0.000000,0.498131,0.473694,-0.549011,0.475464,0.971310,-0.044439,-0.056648,-36.008617,44.559521,31.374863
1732159015.740385,1732159015.743661,73.000000,0.000000,4284.615234,4275.641113,4319.102539,4300.641113,4292.692383,4294.487305,4340.000000,4405.384766,4314.487305,4293.717773,4480.641113,4506.922852,4334.743652,4410.384766,1700.000000,1.000000,18.000000,,,,0.000000,2.000000,2.000000,0.000000,4.000000,2.000000,2.000000,0.000000,0.000000,4.000000,4.000000,4.000000,4.000000,4.000000,4.000000,0.000000,,,,,,,,,,,,,,,,,,,,,,,,,,,,
1732159015.748194,1732159015.751269,74.000000,0.000000,4284.487305,4273.077148,4317.436035,4295.897461,4278.846191,4296.410156,4339.743652,4405.641113,4317.948730,4293.846191,4478.205078,4506.410156,4336.922852,4403.589844,1563.000000,1.000000,18.000000,,,,0.000000,2.000000,2.000000,0.000000,4.000000,2.000000,2.000000,0.000000,0.000000,4.000000,4.000000,4.000000,4.000000,4.000000,4.000000,0.000000,,,,,,,,,,,,,,,,,,,,,,,,,,,,
1732159015.756002,1732159015.759078,75.000000,0.000000,4288.974121,4271.538574,4315.256348,4298.461426,4275.512695,4298.333496,4338.846191,4406.538574,4312.948730,4288.974121,4479.358887,4508.333496,4338.461426,4409.230957,1548.000000,1.000000,18.000000,,,,0.000000,2.000000,2.000000,0.000000,4.000000,2.000000,2.000000,0.000000,0.000000,4.000000,4.000000,4.000000,4.000000,4.000000,4.000000,0.000000,,,,,,,,,,,,,,,,,,,,,,,,,,,,
1732159015.763810,1732159015.766786,76.000000,0.000000,4291.666504,4271.538574,4316.025879,4301.666504,4283.717773,4298.717773,4341.153809,4408.974121,4306.153809,4282.820313,4477.948730,4506.666504,4333.589844,4411.666504,1701.000000,1.000000,18.000000,,,,0.000000,2.000000,2.000000,0.000000,4.000000,2.000000,2.000000,0.000000,0.000000,4.000000,4.000000,4.000000,4.000000,4.000000,4.000000,0.000000,,,,,,,,,,,,,,,,,19.000000,0.000000,0.498199,0.473694,-0.548950,0.475464,0.993774,-0.047857,-0.048346,-36.035313,44.638210,31.241972
1732159015.771618,1732159015.774594,77.000000,0.000000,4294.230957,4276.410156,4316.538574,4303.205078,4283.461426,4298.974121,4340.512695,4408.846191,4308.333496,4284.358887,4475.897461,4505.897461,4332.692383,4407.563965,1553.000000,1.000000,18.000000,,,,0.000000,2.000000,2.000000,0.000000,4.000000,2.000000,2.000000,0.000000,0.000000,4.000000,4.000000,4.000000,4.000000,4.000000,4.000000,0.000000,,,,,,,,,,,,,,,,,,,,,,,,,,,,
1732159015.779426,1732159015.782602,78.000000,0.000000,4296.538574,4276.922852,4314.743652,4304.487305,4282.563965,4300.641113,4337.051270,4405.384766,4311.666504,4290.128418,4477.820313,4509.615234,4335.769043,4409.871582,1563.000000,1.000000,18.000000,,,,0.000000,2.000000,2.000000,0.000000,4.000000,2.000000,2.000000,0.000000,0.000000,4.000000,4.000000,4.000000,4.000000,4.000000,4.000000,0.000000,1.000000,0.000000,2.000000,2.000000,0.000000,4.000000,2.000000,2.000000,0.000000,0.000000,4.000000,4.000000,4.000000,4.000000,3.000000,4.000000,,,,,,,,,,,,
1732159015.787235,1732159015.790410,79.000000,0.000000,4288.974121,4269.358887,4314.615234,4301.282227,4300.769043,4299.102539,4335.641113,4405.384766,4310.000000,4286.794922,4478.205078,4511.794922,4332.307617,4414.358887,1548.000000,1.000000,18.000000,,,,0.000000,2.000000,2.000000,0.000000,4.000000,2.000000,2.000000,0.000000,0.000000,4.000000,4.000000,4.000000,4.000000,4.000000,4.000000,0.000000,,,,,,,,,,,,,,,,,,,,,,,,,,,,
1732159015.795043,1732159015.798318,80.000000,0.000000,4281.282227,4266.666504,4315.897461,4297.692383,4303.974121,4297.179688,4335.384766,4407.307617,4309.102539,4283.205078,4476.666504,4506.666504,4329.102539,4411.153809,1701.000000,1.000000,18.000000,,,,0.000000,2.000000,2.000000,0.000000,4.000000,2.000000,2.000000,0.000000,0.000000,4.000000,4.000000,4.000000,4.000000,4.000000,4.000000,0.000000,,,,,,,,,,,,,,,,,20.000000,0.000000,0.498073,0.473694,-0.549011,0.475525,0.980100,-0.049322,-0.049322,-35.870270,44.801952,31.354330
1732159015.802851,1732159015.806127,81.000000,0.000000,4281.025879,4270.000000,4315.897461,4298.589844,4281.922852,4299.358887,4336.282227,4406.282227,4307.692383,4283.974121,4477.051270,4501.153809,4333.205078,4407.563965,1553.000000,1.000000,18.000000,,,,0.000000,2.000000,2.000000,0.000000,4.000000,2.000000,2.000000,0.000000,0.000000,4.000000,4.000000,4.000000,4.000000,4.000000,4.000000,0.000000,,,,,,,,,,,,,,,,,,,,,,,,,,,,
1732159015.810660,1732159015.814135,82.000000,0.000000,4281.025879,4272.179688,4314.358887,4300.128418,4276.666504,4299.487305,4337.692383,4406.410156,4310.384766,4285.128418,4479.487305,4503.717773,4335.769043,4406.282227,1563.000000,1.000000,18.000000,,,,0.000000,2.000000,2.000000,0.000000,4.000000,2.000000,2.000000,0.000000,0.000000,4.000000,4.000000,4.000000,4.000000,4.000000,4.000000,0.000000,,,,,,,,,,,,,,,,,,,,,,,,,,,,
1732159015.818468,1732159015.821943,83.000000,0.000000,4284.358887,4275.000000,4314.358887,4301.666504,4285.897461,4295.384766,4337.692383,4405.897461,4316.922852,4289.871582,4485.000000,4508.717773,4334.743652,4409.358887,1548.000000,1.000000,18.000000,,,,0.000000,2.000000,2.000000,0.000000,4.000000,2.000000,2.000000,0.000000,0.000000,4.000000,4.000000,4.000000,4.000000,4.000000,4.000000,0.000000,,,,,,,,,,,,,,,,,,,,,,,,,,,,
1732159015.826276,1732159015.829851,84.000000,0.000000,4287.436035,4277.436035,4315.512695,4302.307617,4285.000000,4293.974121,4335.384766,4404.487305,4315.641113,4296.666504,4491.153809,4510.641113,4335.897461,4413.333496,1701.000000,1.000000,18.000000,,,,0.000000,2.000000,2.000000,0.000000,4.000000,2.000000,2.000000,0.000000,0.000000,4.000000,4.000000,4.000000,4.000000,4.000000,4.000000,0.000000,,,,,,,,,,,,,,,,,21.000000,0.000000,0.498173,0.473145,-0.549500,0.475403,0.965938,-0.066903,-0.051276,-35.826584,44.606247,31.378675
1732159015.834084,1732159015.837659,85.000000,0.000000,4283.205078,4273.205078,4316.410156,4297.692383,4291.538574,4295.897461,4334.358887,4403.205078,4307.692383,4294.871582,4485.256348,4510.256348,4335.769043,4407.436035,1553.000000,1.000000,18.000000,,,,0.000000,2.000000,2.000000,0.000000,4.000000,2.000000,2.000000,0.000000,0.000000,4.000000,4.000000,4.000000,4.000000,4.000000,4.000000,0.000000,,,,,,,,,,,,,,,,,,,,,,,,,,,,
1732159015.841893,1732159015.845667,86.000000,0.000000,4278.717773,4271.794922,4316.538574,4293.077148,4298.461426,4296.538574,4337.692383,4401.282227,4308.333496,4289.743652,4478.717773,4506.410156,4335.384766,4403.461426,1563.000000,1.000000,18.000000,,,,0.000000,2.000000,2.000000,0.000000,4.000000,2.000000,2.000000,0.000000,0.000000,4.000000,4.000000,4.000000,4.000000,4.000000,4.000000,0.000000,,,,,,,,,,,,,,,,,,,,,,,,,,,,
1732159015.849701,1732159015.853475,87.000000,0.000000,4281.794922,4275.256348,4315.256348,4299.230957,4278.589844,4296.794922,4340.641113,4401.282227,4314.871582,4295.641113,4486.153809,4507.692383,4339.230957,4410.128418,1548.000000,1.000000,18.000000,,,,0.000000,2.000000,2.000000,0.000000,4.000000,2.000000,2.000000,0.000000,0.000000,4.000000,4.000000,4.000000,4.000000,4.000000,4.000000,0.000000,,,,,,,,,,,,,,,,,,,,,,,,,,,,
1732159015.857509,1732159015.861383,88.000000,0.000000,4283.974121,4270.897461,4315.512695,4300.897461,4268.461426,4295.256348,4340.641113,4405.384766,4314.487305,4298.589844,4492.563965,4516.282227,4341.282227,4415.897461,1701.000000,1.000000,18.000000,,,,0.000000,2.000000,2.000000,0.000000,4.000000,2.000000,2.000000,0.000000,0.000000,4.000000,4.000000,4.000000,4.000000,4.000000,4.000000,0.000000,,,,,,,,,,,,,,,,,22.000000,0.000000,0.498136,0.472839,-0.549744,0.475464,0.964473,-0.070809,-0.045416,-35.666203,44.537727,31.305059
1732159015.865317,1732159015.869192,89.000000,0.000000,4282.563965,4269.487305,4314.743652,4296.025879,4279.487305,4294.487305,4341.025879,4405.897461,4313.974121,4296.666504,4489.615234,4517.948730,4340.641113,4415.384766,1553.000000,1.000000,18.000000,,,,0.000000,2.000000,2.000000,0.000000,4.000000,2.000000,2.000000,0.000000,0.000000,4.000000,4.000000,4.000000,4.000000,4.000000,4.000000,0.000000,,,,,,,,,,,,,,,,,,,,,,,,,,,,
1732159015.873126,1732159015.877200,90.000000,0.000000,4281.538574,4273.461426,4314.871582,4297.948730,4281.153809,4295.256348,4341.538574,4404.358887,4316.282227,4297.436035,4488.077148,4514.615234,4338.077148,4412.820313,1563.000000,1.000000,18.000000,,,,0.000000,2.000000,2.000000,0.000000,4.000000,2.000000,2.000000,0.000000,0.000000,4.000000,4.000000,4.000000,4.000000,4.000000,4.000000,0.000000,,,,,,,,,,,,,,,,,,,,,,,,,,,,
1732159015.880934,1732159015.885008,91.000000,0.000000,4280.512695,4268.717773,4316.153809,4298.461426,4288.589844,4295.128418,4337.820313,4407.563965,4313.077148,4295.512695,4488.974121,4512.436035,4333.974121,4406.410156,1548.000000,1.000000,18.000000,,,,0.000000,2.000000,2.000000,0.000000,4.000000,2.000000,2.000000,0.000000,0.000000,4.000000,4.000000,4.000000,4.000000,4.000000,4.000000,0.000000,,,,,,,,,,,,,,,,,,,,,,,,,,,,
1732159015.888742,1732159015.892816,92.000000,0.000000,4280.256348,4264.358887,4317.051270,4293.846191,4297.051270,4293.974121,4334.358887,4411.794922,4308.974121,4293.205078,4486.025879,4507.307617,4336.153809,4405.000000,1701.000000,1.000000,18.000000,,,,0.000000,2.000000,2.000000,0.000000,4.000000,2.000000,2.000000,0.000000,0.000000,4.000000,4.000000,4.000000,4.000000,4.000000,4.000000,0.000000,,,,,,,,,,,,,,,,,23.000000,0.000000,0.498175,0.472717,-0.549866,0.475403,0.979123,-0.063484,-0.045416,-35.824623,44.562225,31.405432
1732159015.896550,1732159015.900624,93.000000,0.000000,4281.153809,4273.461426,4315.384766,4295.000000,4280.897461,4292.563965,4336.282227,4409.487305,4311.153809,4295.769043,4484.358887,4505.512695,4341.538574,4412.051270,1553.000000,1.000000,18.000000,,,,0.000000,2.000000,2.000000,0.000000,4.000000,2.000000,2.000000,0.000000,0.000000,4.000000,4.000000,4.000000,4.000000,4.000000,4.000000,0.000000,,,,,,,,,,,,,,,,,,,,,,,,,,,,
1732159015.904359,1732159015.908233,94.000000,0.000000,4283.589844,4276.410156,4315.769043,4300.128418,4268.077148,4295.641113,4336.922852,4406.922852,4313.333496,4298.205078,4487.820313,4514.230957,4342.051270,4414.230957,1563.000000,1.000000,18.000000,,,,0.000000,2.000000,2.000000,0.000000,4.000000,2.000000,2.000000,0.000000,0.000000,4.000000,4.000000,4.000000,4.000000,4.000000,4.000000,0.000000,,,,,,,,,,,,,,,,,,,,,,,,,,,,
1732159015.912167,1732159015.916041,95.000000,0.000000,4281.538574,4272.436035,4318.205078,4299.743652,4285.000000,4295.769043,4336.922852,4409.743652,4311.025879,4294.358887,4486.282227,4517.179688,4340.000000,4410.000000,1548.000000,1.000000,18.000000,,,,0.000000,2.000000,2.000000,0.000000,4.000000,2.000000,2.000000,0.000000,0.000000,4.000000,4.000000,4.000000,4.000000,4.000000,4.000000,0.000000,,,,,,,,,,,,,,,,,,,,,,,,,,,,
1732159015.919975,1732159015.923949,96.000000,0.000000,4281.666504,4278.333496,4318.333496,4301.922852,4299.230957,4288.589844,4336.794922,4411.538574,4311.153809,4292.179688,4478.717773,4511.153809,4337.436035,4404.358887,1701.000000,1.000000,18.000000,,,,0.000000,2.000000,2.000000,0.000000,4.000000,2.000000,2.000000,0.000000,0.000000,4.000000,4.000000,4.000000,4.000000,4.000000,4.000000,0.000000,,,,,,,,,,,,,,,,,24.000000,0.000000,0.498283,0.472290,-0.550293,0.475220,0.979612,-0.050787,-0.050787,-35.834610,44.560402,31.546734
1732159015.927783,1732159015.931757,97.000000,0.000000,4291.025879,4283.205078,4316.538574,4305.641113,4287.051270,4288.974121,4335.128418,4408.717773,4313.589844,4295.256348,4479.871582,4509.871582,4340.384766,4403.717773,1553.000000,1.000000,18.000000,,,,0.000000,2.000000,2.000000,0.000000,4.000000,2.000000,2.000000,0.000000,0.000000,4.000000,4.000000,4.000000,4.000000,4.000000,4.000000,0.000000,,,,,,,,,,,,,,,,,,,,,,,,,,,,
1732159015.935592,1732159015.939366,98.000000,0.000000,4291.538574,4281.153809,4317.307617,4303.205078,4273.077148,4296.282227,4335.641113,4406.538574,4313.077148,4296.410156,4488.589844,4512.948730,4348.333496,4408.846191,1563.000000,1.000000,18.000000,,,,0.000000,2.000000,2.000000,0.000000,4.000000,2.000000,2.000000,0.000000,0.000000,4.000000,4.000000,4.000000,4.000000,4.000000,4.000000,0.000000,,,,,,,,,,,,,,,,,,,,,,,,,,,,
1732159015.943400,1732159015.947174,99.000000,0.000000,4282.948730,4279.871582,4317.179688,4305.000000,4272.179688,4295.641113,4336.922852,4406.794922,4311.153809,4296.666504,4490.128418,4513.717773,4346.794922,4413.974121,1548.000000,1.000000,18.000000,,,,0.000000,2.000000,2.000000,0.000000,4.000000,2.000000,2.000000,0.000000,0.000000,4.000000,4.000000,4.000000,4.000000,4.000000,4.000000,0.000000,,,,,,,,,,,,,,,,,,,,,,,,,,,,
1732159015.951208,1732159015.954882,100.000000,0.000000,4285.128418,4284.358887,4313.717773,4309.487305,4285.512695,4292.051270,4336.282227,4408.077148,4312.051270,4294.615234,4486.282227,4512.692383,4337.692383,4413.589844,1701.000000,1.000000,18.000000,,,,0.000000,2.000000,2.000000,0.000000,4.000000,2.000000,2.000000,0.000000,0.000000,4.000000,4.000000,4.000000,4.000000,4.000000,4.000000,0.000000,,,,,,,,,,,,,,,,,25.000000,0.000000,0.498399,0.472229,-0.550293,0.475159,0.978635,-0.056159,-0.062019,-35.807701,44.538925,31.701187
1732159015.959016,1732159015.962690,101.000000,0.000000,4290.512695,4286.282227,4313.077148,4309.871582,4299.871582,4293.717773,4338.589844,4408.461426,4309.871582,4288.717773,4485.256348,4506.538574,4336.025879,4408.974121,1553.000000,1.000000,18.000000,,,,0.000000,2.000000,2.000000,0.000000,4.000000,2.000000,2.000000,0.000000,0.000000,4.000000,4.000000,4.000000,4.000000,4.000000,4.000000,0.000000,,,,,,,,,,,,,,,,,,,,,,,,,,,,
1732159015.966825,1732159015.970299,102.000000,0.000000,4283.077148,4283.333496,4315.512695,4307.948730,4294.230957,4295.128418,4342.563965,4406.922852,4305.256348,4288.717773,4481.538574,4500.256348,4335.769043,4402.307617,1563.000000,1.000000,18.000000,,,,0.000000,2.000000,2.000000,0.000000,4.000000,2.000000,2.000000,0.000000,0.000000,4.000000,4.000000,4.000000,4.000000,4.000000,4.000000,0.000000,,,,,,,,,,,,,,,,,,,,,,,,,,,,
1732159015.974633,1732159015.978107,103.000000,0.000000,4277.307617,4280.000000,4315.641113,4305.641113,4272.307617,4297.820313,4340.512695,4406.922852,4308.205078,4296.025879,4478.205078,4498.846191,4334.230957,4397.692383,1548.000000,1.000000,18.000000,,,,0.000000,2.000000,2.000000,0.000000,4.000000,2.000000,2.000000,0.000000,0.000000,4.000000,4.000000,4.000000,4.000000,4.000000,4.000000,0.000000,,,,,,,,,,,,,,,,,,,,,,,,,,,,
1732159015.982441,1732159015.985815,104.000000,0.000000,4279.743652,4282.051270,4313.461426,4303.205078,4272.692383,4295.512695,4336.794922,4408.461426,4313.077148,4297.820313,4484.102539,4498.974121,4337.948730,4399.615234,1701.000000,1.000000,18.000000,,,,0.000000,2.000000,2.000000,0.000000,4.000000,2.000000,2.000000,0.000000,0.000000,4.000000,4.000000,4.000000,4.000000,4.000000,4.000000,0.000000,,,,,,,,,,,,,,,,,26.000000,0.000000,0.498438,0.472107,-0.550415,0.475098,0.978635,-0.056159,-0.062019,-35.590904,44.309864,31.631294
1732159015.990250,1732159015.993624,105.000000,0.000000,4280.641113,4284.487305,4315.897461,4302.563965,4296.922852,4285.512695,4338.333496,4407.051270,4308.717773,4292.307617,4488.589844,4500.769043,4340.897461,4402.820313,1553.000000,1.000000,18.000000,,,,0.000000,2.000000,2.000000,0.000000,4.000000,2.000000,2.000000,0.000000,0.000000,4.000000,4.000000,4.000000,4.000000,4.000000,4.000000,0.000000,,,,,,,,,,,,,,,,,,,,,,,,,,,,
1732159015.998058,1732159016.001232,106.000000,0.000000,4282.948730,4281.666504,4317.692383,4306.538574,4292.948730,4286.410156,4338.589844,4404.743652,4306.282227,4291.922852,4487.948730,4506.153809,4340.384766,4402.563965,1563.000000,1.000000,18.000000,,,,0.000000,2.000000,2.000000,0.000000,4.000000,2.000000,2.000000,0.000000,0.000000,4.000000,4.000000,4.000000,4.000000,4.000000,4.000000,0.000000,,,,,,,,,,,,,,,,,,,,,,,,,,,,
1732159016.005866,1732159016.009040,107.000000,0.000000,4284.487305,4279.871582,4315.897461,4311.282227,4269.487305,4293.461426,4335.000000,4406.410156,4308.974121,4292.820313,4487.179688,4513.077148,4338.717773,4402.179688,1548.000000,1.000000,18.000000,,,,0.000000,2.000000,2.000000,0.000000,4.000000,2.000000,2.000000,0.000000,0.000000,4.000000,4.000000,4.000000,4.000000,4.000000,4.000000,0.000000,,,,,,,,,,,,,,,,,,,,,,,,,,,,
1732159016.013674,1732159016.016748,108.000000,0.000000,4281.922852,4280.000000,4313.846191,4309.615234,4271.666504,4292.563965,4334.102539,4405.384766,4310.897461,4292.563965,4488.846191,4518.846191,4338.974121,4404.487305,1701.000000,1.000000,18.000000,,,,0.000000,2.000000,2.000000,0.000000,4.000000,2.000000,2.000000,0.000000,0.000000,4.000000,4.000000,4.000000,4.000000,4.000000,4.000000,0.000000,,,,,,,,,,,,,,,,,27.000000,0.000000,0.498438,0.472107,-0.550415,0.475098,0.972775,-0.064949,-0.040532,-35.550301,44.504322,31.588017
1732159016.021482,1732159016.024557,109.000000,0.000000,4280.256348,4277.179688,4315.384766,4299.487305,4282.436035,4291.025879,4334.871582,4403.461426,4311.794922,4296.153809,4489.102539,4521.282227,4339.230957,4403.333496,1553.000000,1.000000,18.000000,,,,0.000000,2.000000,2.000000,0.000000,4.000000,2.000000,2.000000,0.000000,0.000000,4.000000,4.000000,4.000000,4.000000,4.000000,4.000000,0.000000,,,,,,,,,,,,,,,,,,,,,,,,,,,,
1732159016.029291,1732159016.032165,110.000000,0.000000,4279.743652,4276.025879,4314.487305,4295.641113,4284.487305,4296.025879,4332.948730,4407.307617,4306.538574,4296.666504,4487.692383,4516.538574,4338.846191,4396.922852,1563.000000,1.000000,18.000000,,,,0.000000,2.000000,2.000000,0.000000,4.000000,2.000000,2.000000,0.000000,0.000000,4.000000,4.000000,4.000000,4.000000,4.000000,4.000000,0.000000,,,,,,,,,,,,,,,,,,,,,,,,,,,,
1732159016.037099,1732159016.039973,111.000000,0.000000,4278.717773,4278.717773,4313.077148,4301.794922,4298.205078,4296.153809,4334.615234,4410.769043,4296.410156,4291.666504,4489.102539,4507.051270,4339.487305,4399.615234,1548.000000,1.000000,18.000000,,,,0.000000,2.000000,2.000000,0.000000,4.000000,2.000000,2.000000,0.000000,0.000000,4.000000,4.000000,4.000000,4.000000,4.000000,4.000000,0.000000,,,,,,,,,,,,,,,,,,,,,,,,,,,,
1732159016.044907,1732159016.047682,112.000000,0.000000,4284.743652,4278.846191,4315.769043,4305.769043,4306.025879,4291.025879,4337.948730,4408.333496,4296.410156,4289.230957,4489.743652,4505.000000,4339.615234,4409.615234,1701.000000,1.000000,18.000000,,,,0.000000,2.000000,2.000000,0.000000,4.000000,2.000000,2.000000,0.000000,0.000000,4.000000,4.000000,4.000000,4.000000,4.000000,4.000000,0.000000,,,,,,,,,,,,,,,,,28.000000,0.000000,0.498476,0.471863,-0.550537,0.475159,0.975217,-0.064949,-0.045904,-35.552410,44.565166,31.567959
1732159016.052715,1732159016.055490,113.000000,0.000000,4294.358887,4279.615234,4318.333496,4308.717773,4283.461426,4291.282227,4340.256348,4407.436035,4302.436035,4292.436035,4489.487305,4512.820313,4340.769043,4414.102539,1553.000000,1.000000,18.000000,,,,0.000000,2.000000,2.000000,0.000000,4.000000,2.000000,2.000000,0.000000,0.000000,4.000000,4.000000,4.000000,4.000000,4.000000,4.000000,0.000000,,,,,,,,,,,,,,,,,,,,,,,,,,,,
1732159016.060524,1732159016.063098,114.000000,0.000000,4293.333496,4281.794922,4316.282227,4309.358887,4267.179688,4295.256348,4340.769043,4410.000000,4304.871582,4292.563965,4490.256348,4517.307617,4343.077148,4412.436035,1563.000000,1.000000,18.000000,,,,0.000000,2.000000,2.000000,0.000000,4.000000,2.000000,2.000000,0.000000,0.000000,4.000000,4.000000,4.000000,4.000000,4.000000,4.000000,0.000000,,,,,,,,,,,,,,,,,,,,,,,,,,,,
1732159016.068332,1732159016.070906,115.000000,0.000000,4286.282227,4279.743652,4313.846191,4303.077148,4282.179688,4294.487305,4337.563965,4408.717773,4306.025879,4289.743652,4485.256348,4511.153809,4340.897461,4406.538574,1548.000000,1.000000,18.000000,,,,0.000000,2.000000,2.000000,0.000000,4.000000,2.000000,2.000000,0.000000,0.000000,4.000000,4.000000,4.000000,4.000000,4.000000,4.000000,0.000000,,,,,,,,,,,,,,,,,,,,,,,,,,,,
1732159016.076140,1732159016.078615,116.000000,0.000000,4281.666504,4276.922852,4315.128418,4295.897461,4301.282227,4286.922852,4334.487305,4405.000000,4305.000000,4290.256348,4477.179688,4507.179688,4336.153809,4397.563965,1701.000000,1.000000,18.000000,,,,0.000000,2.000000,2.000000,0.000000,4.000000,2.000000,2.000000,0.000000,0.000000,4.000000,4.000000,4.000000,4.000000,4.000000,4.000000,0.000000,,,,,,,,,,,,,,,,,29.000000,0.000000,0.498573,0.471680,-0.550659,0.475098,0.975217,-0.064949,-0.045904,-35.679119,44.651119,31.676714
1732159016.083948,1732159016.086423,117.000000,0.000000,4280.769043,4279.102539,4316.282227,4297.307617,4291.410156,4283.461426,4336.153809,4406.666504,4302.563965,4292.436035,4480.000000,4511.410156,4339.487305,4398.717773,1553.000000,1.000000,18.000000,,,,0.000000,2.000000,2.000000,0.000000,4.000000,2.000000,2.000000,0.000000,0.000000,4.000000,4.000000,4.000000,4.000000,4.000000,4.000000,0.000000,,,,,,,,,,,,,,,,,,,,,,,,,,,,
1732159016.091757,1732159016.094031,118.000000,0.000000,4285.512695,4280.897461,4316.282227,4305.256348,4268.333496,4289.358887,4337.179688,4408.717773,4301.794922,4295.000000,4491.282227,4514.358887,4344.743652,4407.820313,1563.000000,1.000000,18.000000,,,,0.000000,2.000000,2.000000,0.000000,4.000000,2.000000,2.000000,0.000000,0.000000,4.000000,4.000000,4.000000,4.000000,4.000000,4.000000,0.000000,,,,,,,,,,,,,,,,,,,,,,,,,,,,
1732159016.099565,1732159016.101840,119.000000,0.000000,4288.461426,4281.282227,4315.384766,4308.077148,4281.282227,4293.205078,4335.512695,4403.846191,4297.179688,4290.000000,4491.153809,4512.948730,4344.615234,4408.589844,1548.000000,1.000000,18.000000,,,,0.000000,2.000000,2.000000,0.000000,4.000000,2.000000,2.000000,0.000000,0.000000,4.000000,4.000000,4.000000,4.000000,4.000000,4.000000,0.000000,,,,,,,,,,,,,,,,,,,,,,,,,,,,
1732159016.107373,1732159016.109748,120.000000,0.000000,4283.333496,4282.692383,4314.743652,4305.384766,4305.256348,4289.230957,4335.897461,4403.333496,4292.436035,4282.563965,4481.153809,4512.563965,4343.846191,4403.717773,1701.000000,1.000000,18.000000,,,,0.000000,2.000000,2.000000,0.000000,4.000000,2.000000,2.000000,0.000000,0.000000,4.000000,4.000000,4.000000,4.000000,4.000000,4.000000,0.000000,,,,,,,,,,,,,,,,,30.000000,0.000000,0.498418,0.471863,-0.550537,0.475220,0.967892,-0.046392,-0.045416,-35.455086,44.622406,31.579805
1732159016.115182,1732159016.117556,121.000000,0.000000,4280.384766,4282.051270,4312.820313,4305.512695,4289.230957,4285.512695,4337.436035,4410.384766,4296.153809,4283.333496,4482.179688,4513.461426,4342.563965,4402.563965,1553.000000,1.000000,18.000000,,,,0.000000,2.000000,2.000000,0.000000,4.000000,2.000000,2.000000,0.000000,0.000000,4.000000,4.000000,4.000000,4.000000,4.000000,4.000000,0.000000,,,,,,,,,,,,,,,,,,,,,,,,,,,,
