title:nine4, start timestamp:1732083686.556146, stop timestamp:1732083728.002416, headset type:EPOCX, headset serial:E5020C3A, headset firmware:730, channels:67, sampling rate:eeg_128;mot_32, samples:5309      , version:2.2, 
Timestamp,OriginalTimestamp,EEG.Counter,EEG.Interpolated,EEG.AF3,EEG.F7,EEG.F3,EEG.FC5,EEG.T7,EEG.P7,EEG.O1,EEG.O2,EEG.P8,EEG.T8,EEG.FC6,EEG.F4,EEG.F8,EEG.AF4,EEG.RawCq,EEG.Battery,EEG.BatteryPercent,MarkerIndex,MarkerType,MarkerValueInt,EEG.MarkerHardware,CQ.AF3,CQ.F7,CQ.F3,CQ.FC5,CQ.T7,CQ.P7,CQ.O1,CQ.O2,CQ.P8,CQ.T8,CQ.FC6,CQ.F4,CQ.F8,CQ.AF4,CQ.Overall,EQ.SampleRateQuality,EQ.OVERALL,EQ.AF3,EQ.F7,EQ.F3,EQ.FC5,EQ.T7,EQ.P7,EQ.O1,EQ.O2,EQ.P8,EQ.T8,EQ.FC6,EQ.F4,EQ.F8,EQ.AF4,MOT.CounterMems,MOT.InterpolatedMems,MOT.Q0,MOT.Q1,MOT.Q2,MOT.Q3,MOT.AccX,MOT.AccY,MOT.AccZ,MOT.MagX,MOT.MagY,MOT.MagZ
1732083686.556146,1732083686.557979,29.000000,0.000000,4308.974121,4287.948730,4319.487305,4307.563965,4287.820313,4303.589844,4321.666504,4325.256348,4317.436035,4300.512695,4463.205078,4484.358887,4356.410156,4415.769043,0.000000,0.000000,5.000000,,,,0.000000,2.000000,2.000000,0.000000,2.000000,2.000000,2.000000,0.000000,2.000000,4.000000,4.000000,4.000000,4.000000,2.000000,4.000000,16.666666,,,,,,,,,,,,,,,,,,,,,,,,,,,,
1732083686.563954,1732083686.565987,30.000000,0.000000,4308.846191,4289.358887,4316.794922,4309.102539,4290.897461,4302.436035,4323.333496,4324.615234,4318.077148,4308.846191,4467.563965,4482.436035,4358.077148,4415.769043,0.000000,0.000000,5.000000,,,,0.000000,2.000000,2.000000,0.000000,2.000000,2.000000,2.000000,0.000000,2.000000,4.000000,4.000000,4.000000,4.000000,2.000000,4.000000,16.666666,,,,,,,,,,,,,,,,,,,,,,,,,,,,
1732083686.571762,1732083686.573795,31.000000,0.000000,4309.615234,4292.692383,4314.230957,4309.871582,4307.436035,4296.666504,4321.538574,4321.794922,4317.051270,4307.307617,4471.025879,4481.794922,4360.128418,4413.717773,0.000000,0.000000,5.000000,,,,0.000000,2.000000,2.000000,0.000000,2.000000,2.000000,2.000000,0.000000,2.000000,4.000000,4.000000,4.000000,4.000000,2.000000,4.000000,16.666666,,,,,,,,,,,,,,,,,,,,,,,,,,,,
1732083686.579571,1732083686.581503,32.000000,0.000000,4311.025879,4291.282227,4314.358887,4305.897461,4302.692383,4300.128418,4318.461426,4326.025879,4316.538574,4306.282227,4469.743652,4483.461426,4356.666504,4410.641113,0.000000,0.000000,5.000000,,,,0.000000,2.000000,2.000000,0.000000,2.000000,2.000000,2.000000,0.000000,2.000000,4.000000,4.000000,4.000000,4.000000,2.000000,4.000000,16.666666,,,,,,,,,,,,,,,,,8.000000,0.000000,0.622345,0.391418,-0.611938,0.291565,0.961543,0.118667,-0.065438,-74.771309,62.077145,29.751745
1732083686.587379,1732083686.589312,33.000000,0.000000,4308.846191,4287.563965,4319.102539,4305.769043,4282.948730,4308.333496,4322.436035,4336.538574,4322.051270,4311.794922,4469.743652,4485.256348,4354.358887,4408.077148,0.000000,0.000000,5.000000,,,,0.000000,2.000000,2.000000,0.000000,2.000000,2.000000,2.000000,0.000000,2.000000,4.000000,4.000000,4.000000,4.000000,2.000000,4.000000,16.666666,,,,,,,,,,,,,,,,,,,,,,,,,,,,
1732083686.595187,1732083686.597320,34.000000,0.000000,4305.897461,4288.205078,4319.871582,4307.948730,4285.384766,4308.077148,4323.205078,4333.974121,4323.846191,4309.358887,4472.179688,4484.487305,4357.563965,4408.461426,0.000000,0.000000,5.000000,,,,0.000000,2.000000,2.000000,0.000000,2.000000,2.000000,2.000000,0.000000,2.000000,4.000000,4.000000,4.000000,4.000000,2.000000,4.000000,16.666666,,,,,,,,,,,,,,,,,,,,,,,,,,,,
1732083686.602995,1732083686.605128,35.000000,0.000000,4307.436035,4290.256348,4317.948730,4304.743652,4295.256348,4301.538574,4321.282227,4325.769043,4316.794922,4300.769043,4469.743652,4483.974121,4358.846191,4409.871582,0.000000,0.000000,5.000000,,,,0.000000,2.000000,2.000000,0.000000,2.000000,2.000000,2.000000,0.000000,2.000000,4.000000,4.000000,4.000000,4.000000,2.000000,4.000000,16.666666,,,,,,,,,,,,,,,,,,,,,,,,,,,,
1732083686.610804,1732083686.613036,36.000000,0.000000,4309.102539,4289.871582,4312.820313,4302.948730,4293.461426,4298.846191,4319.230957,4331.538574,4316.410156,4299.743652,4468.205078,4486.282227,4357.692383,4414.102539,0.000000,0.000000,5.000000,,,,0.000000,2.000000,2.000000,0.000000,2.000000,2.000000,2.000000,0.000000,2.000000,4.000000,4.000000,4.000000,4.000000,2.000000,4.000000,16.666666,,,,,,,,,,,,,,,,,9.000000,0.000000,0.620439,0.391418,-0.613464,0.292419,0.954706,0.154804,-0.069344,-74.923096,62.035824,29.553913
1732083686.618612,1732083686.620844,37.000000,0.000000,4306.153809,4288.589844,4313.461426,4302.307617,4291.666504,4300.128418,4320.897461,4335.256348,4323.077148,4306.282227,4471.794922,4488.974121,4360.897461,4417.436035,0.000000,0.000000,5.000000,,,,0.000000,2.000000,2.000000,0.000000,2.000000,2.000000,2.000000,0.000000,2.000000,4.000000,4.000000,4.000000,4.000000,2.000000,4.000000,16.666666,,,,,,,,,,,,,,,,,,,,,,,,,,,,
1732083686.626420,1732083686.628852,38.000000,0.000000,4304.230957,4288.077148,4316.922852,4301.922852,4292.820313,4304.487305,4323.077148,4328.333496,4322.307617,4305.641113,4472.820313,4487.436035,4362.563965,4413.589844,0.000000,0.000000,5.000000,,,,0.000000,2.000000,2.000000,0.000000,2.000000,2.000000,2.000000,0.000000,2.000000,4.000000,4.000000,4.000000,4.000000,2.000000,4.000000,16.666666,,,,,,,,,,,,,,,,,,,,,,,,,,,,
1732083686.634228,1732083686.636660,39.000000,0.000000,4304.871582,4285.000000,4318.077148,4306.025879,4300.384766,4304.871582,4323.846191,4324.743652,4316.410156,4298.077148,4466.794922,4480.384766,4358.589844,4406.282227,0.000000,0.000000,5.000000,,,,0.000000,2.000000,2.000000,0.000000,2.000000,2.000000,2.000000,0.000000,2.000000,4.000000,4.000000,4.000000,4.000000,2.000000,4.000000,16.666666,,,,,,,,,,,,,,,,,,,,,,,,,,,,
1732083686.642037,1732083686.644568,40.000000,0.000000,4304.871582,4286.153809,4315.769043,4309.487305,4303.589844,4300.897461,4322.436035,4325.897461,4313.589844,4301.153809,4463.205078,4477.179688,4360.384766,4408.077148,0.000000,0.000000,5.000000,,,,0.000000,2.000000,2.000000,0.000000,2.000000,2.000000,2.000000,0.000000,2.000000,4.000000,4.000000,4.000000,4.000000,2.000000,4.000000,16.666666,,,,,,,,,,,,,,,,,10.000000,0.000000,0.618912,0.391541,-0.614868,0.292542,0.963497,0.187523,-0.098157,-75.001045,61.890682,29.510338
1732083686.649845,1732083686.652377,41.000000,0.000000,4304.358887,4291.282227,4313.205078,4307.820313,4289.102539,4300.641113,4320.769043,4326.025879,4314.615234,4303.461426,4464.743652,4481.794922,4364.487305,4413.589844,0.000000,0.000000,5.000000,,,,0.000000,2.000000,2.000000,0.000000,2.000000,2.000000,2.000000,0.000000,2.000000,4.000000,4.000000,4.000000,4.000000,2.000000,4.000000,16.666666,,,,,,,,,,,,,,,,,,,,,,,,,,,,
1732083686.657653,1732083686.660385,42.000000,0.000000,4306.153809,4287.179688,4314.358887,4307.307617,4281.794922,4303.717773,4322.820313,4327.051270,4316.025879,4293.461426,4464.487305,4484.615234,4356.666504,4408.461426,0.000000,0.000000,5.000000,,,,0.000000,2.000000,2.000000,0.000000,2.000000,2.000000,2.000000,0.000000,2.000000,4.000000,4.000000,4.000000,4.000000,2.000000,4.000000,16.666666,,,,,,,,,,,,,,,,,,,,,,,,,,,,
1732083686.665461,1732083686.668193,43.000000,0.000000,4306.538574,4282.948730,4316.922852,4308.077148,4292.436035,4304.230957,4323.589844,4328.717773,4315.256348,4293.589844,4465.256348,4482.179688,4351.410156,4403.461426,0.000000,0.000000,5.000000,,,,0.000000,2.000000,2.000000,0.000000,2.000000,2.000000,2.000000,0.000000,2.000000,4.000000,4.000000,4.000000,4.000000,2.000000,4.000000,16.666666,,,,,,,,,,,,,,,,,,,,,,,,,,,,
1732083686.673270,1732083686.676101,44.000000,0.000000,4302.692383,4290.384766,4319.615234,4308.077148,4296.282227,4301.282227,4322.307617,4326.153809,4313.077148,4306.794922,4468.333496,4481.922852,4360.384766,4405.897461,0.000000,0.000000,5.000000,,,,0.000000,2.000000,2.000000,0.000000,2.000000,2.000000,2.000000,0.000000,2.000000,4.000000,4.000000,4.000000,4.000000,2.000000,4.000000,16.666666,,,,,,,,,,,,,,,,,11.000000,0.000000,0.616790,0.393311,-0.615784,0.292725,0.956171,0.210475,-0.104993,-74.964180,61.881454,29.461706
1732083686.681078,1732083686.683909,45.000000,0.000000,4301.538574,4293.077148,4316.922852,4308.461426,4290.641113,4303.205078,4320.256348,4324.230957,4314.358887,4308.461426,4467.051270,4478.717773,4361.153809,4403.846191,0.000000,0.000000,5.000000,,,,0.000000,2.000000,2.000000,0.000000,2.000000,2.000000,2.000000,0.000000,2.000000,4.000000,4.000000,4.000000,4.000000,2.000000,4.000000,16.666666,,,,,,,,,,,,,,,,,,,,,,,,,,,,
1732083686.688886,1732083686.691518,46.000000,0.000000,4302.179688,4285.769043,4319.230957,4303.846191,4289.615234,4309.102539,4324.358887,4331.153809,4318.717773,4299.871582,4457.948730,4473.077148,4348.589844,4397.051270,0.000000,0.000000,5.000000,,,,0.000000,2.000000,2.000000,0.000000,2.000000,2.000000,2.000000,0.000000,2.000000,4.000000,4.000000,4.000000,4.000000,2.000000,4.000000,16.666666,,,,,,,,,,,,,,,,,,,,,,,,,,,,
1732083686.696694,1732083686.699326,47.000000,0.000000,4304.358887,4287.820313,4321.153809,4302.436035,4288.846191,4305.897461,4325.000000,4336.282227,4320.641113,4299.230957,4456.666504,4473.333496,4349.743652,4398.974121,0.000000,0.000000,5.000000,,,,0.000000,2.000000,2.000000,0.000000,2.000000,2.000000,2.000000,0.000000,2.000000,4.000000,4.000000,4.000000,4.000000,2.000000,4.000000,16.666666,,,,,,,,,,,,,,,,,,,,,,,,,,,,
1732083686.704503,1732083686.707034,48.000000,0.000000,4305.256348,4291.153809,4322.948730,4306.282227,4287.051270,4297.692383,4324.615234,4327.051270,4314.230957,4300.897461,4464.487305,4478.461426,4359.871582,4406.410156,0.000000,0.000000,5.000000,,,,0.000000,2.000000,2.000000,0.000000,2.000000,2.000000,2.000000,0.000000,2.000000,4.000000,4.000000,4.000000,4.000000,2.000000,4.000000,16.666666,,,,,,,,,,,,,,,,,12.000000,0.000000,0.616790,0.393311,-0.615784,0.292725,0.956171,0.210475,-0.104993,-75.144318,61.993977,29.422316
1732083686.712311,1732083686.714842,49.000000,0.000000,4302.563965,4290.256348,4321.794922,4305.128418,4289.487305,4303.333496,4325.769043,4319.615234,4305.897461,4295.897461,4462.820313,4475.512695,4357.563965,4403.205078,0.000000,0.000000,5.000000,,,,0.000000,2.000000,2.000000,0.000000,2.000000,2.000000,2.000000,0.000000,2.000000,4.000000,4.000000,4.000000,4.000000,2.000000,4.000000,16.666666,,,,,,,,,,,,,,,,,,,,,,,,,,,,
1732083686.720119,1732083686.722451,50.000000,0.000000,4302.307617,4293.717773,4323.974121,4303.589844,4286.025879,4310.000000,4328.077148,4322.820313,4305.384766,4292.820313,4457.307617,4470.512695,4353.846191,4397.948730,0.000000,0.000000,5.000000,,,,0.000000,2.000000,2.000000,0.000000,2.000000,2.000000,2.000000,0.000000,2.000000,4.000000,4.000000,4.000000,4.000000,2.000000,4.000000,16.666666,,,,,,,,,,,,,,,,,,,,,,,,,,,,
1732083686.727928,1732083686.730259,51.000000,0.000000,4308.717773,4298.589844,4324.102539,4310.512695,4287.948730,4298.589844,4323.205078,4316.794922,4306.922852,4299.487305,4464.487305,4475.769043,4358.205078,4405.000000,0.000000,0.000000,5.000000,,,,0.000000,2.000000,2.000000,0.000000,2.000000,2.000000,2.000000,0.000000,2.000000,4.000000,4.000000,4.000000,4.000000,2.000000,4.000000,16.666666,,,,,,,,,,,,,,,,,,,,,,,,,,,,
1732083686.735736,1732083686.737967,52.000000,0.000000,4311.922852,4297.436035,4321.794922,4312.948730,4299.102539,4292.563965,4319.743652,4307.692383,4302.436035,4300.128418,4469.743652,4482.051270,4358.589844,4410.769043,0.000000,0.000000,5.000000,,,,0.000000,2.000000,2.000000,0.000000,2.000000,2.000000,2.000000,0.000000,2.000000,4.000000,4.000000,4.000000,4.000000,2.000000,4.000000,16.666666,,,,,,,,,,,,,,,,,13.000000,0.000000,0.613317,0.392456,-0.618042,0.296387,0.975705,0.133805,-0.091320,-75.193565,61.916786,29.247076
1732083686.743544,1732083686.745776,53.000000,0.000000,4310.769043,4296.153809,4316.794922,4310.769043,4292.948730,4302.307617,4319.230957,4311.922852,4302.307617,4295.384766,4463.846191,4481.666504,4359.487305,4408.974121,0.000000,0.000000,5.000000,,,,0.000000,2.000000,2.000000,0.000000,2.000000,2.000000,2.000000,0.000000,2.000000,4.000000,4.000000,4.000000,4.000000,2.000000,4.000000,16.666666,,,,,,,,,,,,,,,,,,,,,,,,,,,,
1732083686.751352,1732083686.753784,54.000000,0.000000,4314.102539,4298.461426,4314.102539,4316.410156,4276.025879,4301.922852,4319.102539,4318.717773,4311.538574,4304.487305,4462.051270,4478.333496,4363.974121,4410.384766,0.000000,0.000000,5.000000,,,,0.000000,2.000000,2.000000,0.000000,2.000000,2.000000,2.000000,0.000000,2.000000,4.000000,4.000000,4.000000,4.000000,2.000000,4.000000,16.666666,,,,,,,,,,,,,,,,,,,,,,,,,,,,
1732083686.759161,1732083686.761592,55.000000,0.000000,4314.230957,4295.897461,4315.384766,4316.538574,4280.512695,4297.436035,4320.512695,4322.692383,4320.384766,4308.077148,4461.794922,4477.179688,4356.282227,4409.743652,0.000000,0.000000,5.000000,,,,0.000000,2.000000,2.000000,0.000000,2.000000,2.000000,2.000000,0.000000,2.000000,4.000000,4.000000,4.000000,4.000000,2.000000,4.000000,16.666666,,,,,,,,,,,,,,,,,,,,,,,,,,,,
1732083686.766969,1732083686.769500,56.000000,0.000000,4310.128418,4293.461426,4316.025879,4310.128418,4294.230957,4305.512695,4322.179688,4328.974121,4320.384766,4293.974121,4461.282227,4475.897461,4348.205078,4408.589844,0.000000,0.000000,5.000000,,,,0.000000,2.000000,2.000000,0.000000,2.000000,2.000000,2.000000,0.000000,2.000000,4.000000,4.000000,4.000000,4.000000,2.000000,4.000000,16.666666,,,,,,,,,,,,,,,,,14.000000,0.000000,0.612610,0.391052,-0.618958,0.297791,0.978147,0.083995,-0.062019,-75.118454,61.715931,28.901798
1732083686.774777,1732083686.777308,57.000000,0.000000,4312.692383,4292.820313,4320.512695,4310.000000,4292.179688,4305.000000,4323.461426,4328.846191,4314.615234,4292.692383,4463.461426,4478.333496,4355.897461,4413.077148,0.000000,0.000000,5.000000,,,,0.000000,2.000000,2.000000,0.000000,2.000000,2.000000,2.000000,0.000000,2.000000,4.000000,4.000000,4.000000,4.000000,2.000000,4.000000,16.666666,,,,,,,,,,,,,,,,,,,,,,,,,,,,
1732083686.782586,1732083686.785316,58.000000,0.000000,4320.000000,4295.000000,4317.563965,4314.230957,4289.230957,4296.538574,4318.846191,4320.000000,4313.077148,4306.538574,4463.077148,4478.589844,4360.512695,4413.205078,0.000000,0.000000,5.000000,,,,0.000000,2.000000,2.000000,0.000000,2.000000,2.000000,2.000000,0.000000,2.000000,4.000000,4.000000,4.000000,4.000000,2.000000,4.000000,16.666666,,,,,,,,,,,,,,,,,,,,,,,,,,,,
1732083686.790394,1732083686.793124,59.000000,0.000000,4323.461426,4298.205078,4315.000000,4315.384766,4289.615234,4294.358887,4313.077148,4313.461426,4310.897461,4305.512695,4457.692383,4472.179688,4353.846191,4411.025879,0.000000,0.000000,5.000000,,,,0.000000,2.000000,2.000000,0.000000,2.000000,2.000000,2.000000,0.000000,2.000000,4.000000,4.000000,4.000000,4.000000,2.000000,4.000000,16.666666,,,,,,,,,,,,,,,,,,,,,,,,,,,,
1732083686.798202,1732083686.800833,60.000000,0.000000,4325.128418,4298.333496,4309.487305,4313.974121,4290.000000,4294.230957,4307.436035,4310.000000,4307.948730,4298.846191,4458.077148,4465.897461,4354.615234,4418.974121,0.000000,0.000000,5.000000,,,,0.000000,2.000000,2.000000,0.000000,2.000000,2.000000,2.000000,0.000000,2.000000,4.000000,4.000000,4.000000,4.000000,2.000000,4.000000,16.666666,,,,,,,,,,,,,,,,,15.000000,0.000000,0.611776,0.389404,-0.619995,0.299500,0.978147,0.083995,-0.062019,-75.320946,61.634903,28.490456
1732083686.806010,1732083686.808641,61.000000,0.000000,4328.205078,4297.436035,4307.307617,4314.871582,4294.871582,4294.358887,4308.333496,4310.384766,4308.717773,4301.794922,4462.179688,4469.358887,4355.384766,4423.461426,0.000000,0.000000,5.000000,,,,0.000000,2.000000,2.000000,0.000000,2.000000,2.000000,2.000000,0.000000,2.000000,4.000000,4.000000,4.000000,4.000000,2.000000,4.000000,16.666666,,,,,,,,,,,,,,,,,,,,,,,,,,,,
1732083686.813819,1732083686.816249,62.000000,0.000000,4333.333496,4301.025879,4301.153809,4319.358887,4297.179688,4297.179688,4307.692383,4318.461426,4313.461426,4304.743652,4461.538574,4476.025879,4355.897461,4423.205078,0.000000,0.000000,5.000000,,,,0.000000,2.000000,2.000000,0.000000,2.000000,2.000000,2.000000,0.000000,2.000000,4.000000,4.000000,4.000000,4.000000,2.000000,4.000000,16.666666,,,,,,,,,,,,,,,,,,,,,,,,,,,,
1732083686.821627,1732083686.824057,63.000000,0.000000,4339.615234,4305.641113,4299.871582,4319.230957,4295.128418,4296.794922,4307.436035,4322.820313,4312.948730,4301.922852,4462.692383,4475.000000,4364.487305,4430.769043,0.000000,0.000000,5.000000,,,,0.000000,2.000000,2.000000,0.000000,2.000000,2.000000,2.000000,0.000000,2.000000,4.000000,4.000000,4.000000,4.000000,2.000000,4.000000,16.666666,,,,,,,,,,,,,,,,,,,,,,,,,,,,
1732083686.829435,1732083686.831766,64.000000,0.000000,4350.000000,4306.410156,4301.153809,4316.794922,4292.563965,4293.333496,4307.563965,4316.794922,4310.128418,4301.282227,4467.563965,4473.461426,4369.358887,4439.358887,0.000000,0.000000,5.000000,,,,0.000000,2.000000,2.000000,0.000000,2.000000,2.000000,2.000000,0.000000,2.000000,4.000000,4.000000,4.000000,4.000000,2.000000,4.000000,16.666666,,,,,,,,,,,,,,,,,16.000000,0.000000,0.608217,0.380859,-0.624451,0.308350,0.973752,0.043462,-0.036137,-75.639969,61.545940,28.397270
1732083686.837243,1732083686.839574,65.000000,0.000000,4359.358887,4306.922852,4305.512695,4319.615234,4291.922852,4288.333496,4308.205078,4314.487305,4309.358887,4299.871582,4467.563965,4480.512695,4364.487305,4443.077148,1322.000000,0.000000,5.000000,,,,0.000000,2.000000,2.000000,0.000000,2.000000,2.000000,2.000000,0.000000,2.000000,4.000000,4.000000,4.000000,4.000000,2.000000,4.000000,16.666666,,,,,,,,,,,,,,,,,,,,,,,,,,,,
1732083686.845052,1732083686.847582,66.000000,0.000000,4365.641113,4307.948730,4308.077148,4322.563965,4293.589844,4284.487305,4306.153809,4318.333496,4310.641113,4299.615234,4465.256348,4484.358887,4362.179688,4445.769043,1242.000000,0.000000,5.000000,,,,0.000000,2.000000,2.000000,0.000000,2.000000,2.000000,2.000000,0.000000,2.000000,4.000000,4.000000,4.000000,4.000000,2.000000,4.000000,16.666666,,,,,,,,,,,,,,,,,,,,,,,,,,,,
1732083686.852860,1732083686.855390,67.000000,0.000000,4371.922852,4308.846191,4306.410156,4320.641113,4291.153809,4286.410156,4305.512695,4316.410156,4314.487305,4301.666504,4470.256348,4481.282227,4366.153809,4446.922852,1202.000000,0.000000,5.000000,,,,0.000000,2.000000,2.000000,0.000000,2.000000,2.000000,2.000000,0.000000,2.000000,4.000000,4.000000,4.000000,4.000000,2.000000,4.000000,16.666666,,,,,,,,,,,,,,,,,,,,,,,,,,,,
1732083686.860668,1732083686.863298,68.000000,0.000000,4379.615234,4313.077148,4310.512695,4320.512695,4295.769043,4283.589844,4307.563965,4310.128418,4313.205078,4301.153809,4474.487305,4481.666504,4369.615234,4451.025879,1219.000000,0.000000,5.000000,,,,0.000000,2.000000,2.000000,0.000000,2.000000,2.000000,2.000000,0.000000,2.000000,4.000000,4.000000,4.000000,4.000000,2.000000,4.000000,16.666666,,,,,,,,,,,,,,,,,17.000000,0.000000,0.605948,0.377014,-0.626709,0.312927,0.955195,0.053229,-0.041997,-75.848373,61.090546,28.238455
1732083686.868476,1732083686.871106,69.000000,0.000000,4384.615234,4315.769043,4312.436035,4323.077148,4305.769043,4276.794922,4308.717773,4310.000000,4304.102539,4297.563965,4467.948730,4486.153809,4371.282227,4459.487305,1072.000000,0.000000,5.000000,,,,0.000000,2.000000,2.000000,0.000000,2.000000,2.000000,2.000000,0.000000,2.000000,4.000000,4.000000,4.000000,4.000000,2.000000,4.000000,16.666666,,,,,,,,,,,,,,,,,,,,,,,,,,,,
1732083686.876285,1732083686.878715,70.000000,0.000000,4389.102539,4315.769043,4311.282227,4325.128418,4292.692383,4277.307617,4307.307617,4310.256348,4297.436035,4284.487305,4462.948730,4486.282227,4368.333496,4460.897461,0.000000,0.000000,5.000000,,,,0.000000,2.000000,2.000000,0.000000,2.000000,2.000000,2.000000,0.000000,2.000000,4.000000,4.000000,4.000000,4.000000,2.000000,4.000000,16.666666,,,,,,,,,,,,,,,,,,,,,,,,,,,,
1732083686.884093,1732083686.886523,71.000000,0.000000,4394.358887,4316.025879,4308.461426,4324.743652,4274.487305,4280.128418,4309.230957,4310.128418,4303.717773,4277.051270,4468.461426,4484.358887,4366.025879,4460.256348,1165.000000,0.000000,5.000000,,,,0.000000,2.000000,2.000000,0.000000,2.000000,2.000000,2.000000,0.000000,2.000000,4.000000,4.000000,4.000000,4.000000,2.000000,4.000000,16.666666,,,,,,,,,,,,,,,,,,,,,,,,,,,,
1732083686.891901,1732083686.894231,72.000000,0.000000,4393.974121,4314.871582,4313.589844,4321.282227,4281.794922,4279.615234,4316.282227,4316.282227,4312.051270,4287.820313,4474.358887,4493.205078,4373.333496,4468.333496,1377.000000,0.000000,5.000000,,,,0.000000,2.000000,2.000000,0.000000,2.000000,2.000000,2.000000,0.000000,2.000000,4.000000,4.000000,4.000000,4.000000,2.000000,4.000000,16.666666,,,,,,,,,,,,,,,,,18.000000,0.000000,0.604941,0.375427,-0.627563,0.315063,0.944451,0.028812,-0.049322,-76.130516,60.756676,28.129816
1732083686.899709,1732083686.902040,73.000000,0.000000,4394.871582,4315.769043,4315.512695,4323.205078,4293.846191,4280.000000,4314.871582,4316.922852,4307.179688,4294.358887,4476.666504,4499.102539,4377.948730,4472.307617,1529.000000,0.000000,5.000000,,,,0.000000,2.000000,2.000000,0.000000,2.000000,2.000000,2.000000,0.000000,2.000000,4.000000,4.000000,4.000000,4.000000,2.000000,4.000000,16.666666,,,,,,,,,,,,,,,,,,,,,,,,,,,,
1732083686.907518,1732083686.909648,74.000000,0.000000,4396.922852,4316.282227,4318.717773,4324.871582,4291.410156,4279.615234,4309.871582,4308.589844,4296.410156,4284.871582,4474.615234,4492.307617,4373.205078,4467.820313,1387.000000,0.000000,5.000000,,,,0.000000,2.000000,2.000000,0.000000,2.000000,2.000000,2.000000,0.000000,2.000000,4.000000,4.000000,4.000000,4.000000,2.000000,4.000000,16.666666,,,,,,,,,,,,,,,,,,,,,,,,,,,,
1732083686.915326,1732083686.917456,75.000000,0.000000,4392.307617,4314.615234,4318.846191,4319.871582,4293.461426,4280.128418,4313.589844,4306.538574,4293.717773,4282.307617,4473.461426,4490.000000,4371.410156,4465.512695,1523.000000,0.000000,5.000000,,,,0.000000,2.000000,2.000000,0.000000,2.000000,2.000000,2.000000,0.000000,2.000000,4.000000,4.000000,4.000000,4.000000,2.000000,4.000000,16.666666,,,,,,,,,,,,,,,,,,,,,,,,,,,,
1732083686.923134,1732083686.925364,76.000000,0.000000,4386.025879,4315.000000,4322.563965,4315.897461,4296.922852,4281.410156,4319.615234,4314.871582,4301.410156,4289.871582,4475.512695,4498.974121,4375.641113,4466.282227,1750.000000,0.000000,5.000000,,,,0.000000,2.000000,2.000000,0.000000,2.000000,2.000000,2.000000,0.000000,2.000000,4.000000,4.000000,4.000000,4.000000,2.000000,4.000000,16.666666,,,,,,,,,,,,,,,,,19.000000,0.000000,0.601626,0.372559,-0.629395,0.321106,0.962031,0.035161,-0.083018,-76.485718,60.296238,27.851816
1732083686.930942,1732083686.933173,77.000000,0.000000,4388.974121,4314.615234,4320.897461,4321.282227,4294.615234,4281.922852,4314.871582,4319.102539,4307.436035,4290.897461,4479.230957,4499.615234,4375.897461,4468.717773,1544.000000,0.000000,5.000000,,,,0.000000,2.000000,2.000000,0.000000,2.000000,2.000000,2.000000,0.000000,2.000000,4.000000,4.000000,4.000000,4.000000,2.000000,4.000000,16.666666,,,,,,,,,,,,,,,,,,,,,,,,,,,,
1732083686.938751,1732083686.941181,78.000000,0.000000,4395.384766,4314.487305,4316.794922,4324.615234,4297.179688,4281.794922,4315.000000,4315.000000,4304.487305,4286.410156,4478.205078,4498.077148,4373.974121,4471.922852,1387.000000,0.000000,5.000000,,,,0.000000,2.000000,2.000000,0.000000,2.000000,2.000000,2.000000,0.000000,2.000000,4.000000,4.000000,4.000000,4.000000,2.000000,4.000000,16.666666,1.000000,8.333333,2.000000,2.000000,0.000000,2.000000,2.000000,2.000000,0.000000,2.000000,1.000000,1.000000,4.000000,4.000000,2.000000,3.000000,,,,,,,,,,,,
1732083686.946559,1732083686.948989,79.000000,0.000000,4396.282227,4318.461426,4316.794922,4322.692383,4293.974121,4281.794922,4318.461426,4312.948730,4301.025879,4288.077148,4477.051270,4504.743652,4375.512695,4473.333496,1523.000000,0.000000,5.000000,,,,0.000000,2.000000,2.000000,0.000000,2.000000,2.000000,2.000000,0.000000,2.000000,4.000000,4.000000,4.000000,4.000000,2.000000,4.000000,16.666666,,,,,,,,,,,,,,,,,,,,,,,,,,,,
1732083686.954367,1732083686.956897,80.000000,0.000000,4394.487305,4319.743652,4320.256348,4323.974121,4291.153809,4281.410156,4316.025879,4314.615234,4304.102539,4290.641113,4480.000000,4507.436035,4374.102539,4470.384766,1750.000000,0.000000,5.000000,,,,0.000000,2.000000,2.000000,0.000000,2.000000,2.000000,2.000000,0.000000,2.000000,4.000000,4.000000,4.000000,4.000000,2.000000,4.000000,16.666666,,,,,,,,,,,,,,,,,20.000000,0.000000,0.598356,0.371887,-0.628906,0.328857,0.960078,0.045416,-0.054694,-76.893433,59.698288,27.514973
1732083686.962175,1732083686.964705,81.000000,0.000000,4392.948730,4316.410156,4319.487305,4324.358887,4302.051270,4277.179688,4312.436035,4315.128418,4304.615234,4282.563965,4477.179688,4500.897461,4371.794922,4464.743652,1544.000000,0.000000,5.000000,,,,0.000000,2.000000,2.000000,0.000000,2.000000,2.000000,2.000000,0.000000,2.000000,4.000000,4.000000,4.000000,4.000000,2.000000,4.000000,16.666666,,,,,,,,,,,,,,,,,,,,,,,,,,,,
1732083686.969984,1732083686.972713,82.000000,0.000000,4391.282227,4315.641113,4316.794922,4322.307617,4301.538574,4279.230957,4317.179688,4311.282227,4298.717773,4278.077148,4472.820313,4495.512695,4370.512695,4457.948730,1387.000000,0.000000,5.000000,,,,0.000000,2.000000,2.000000,0.000000,2.000000,2.000000,2.000000,0.000000,2.000000,4.000000,4.000000,4.000000,4.000000,2.000000,4.000000,16.666666,,,,,,,,,,,,,,,,,,,,,,,,,,,,
1732083686.977792,1732083686.980521,83.000000,0.000000,4390.769043,4317.692383,4319.230957,4326.153809,4287.307617,4290.000000,4318.974121,4311.153809,4297.820313,4287.436035,4474.230957,4496.922852,4369.487305,4457.179688,1523.000000,0.000000,5.000000,,,,0.000000,2.000000,2.000000,0.000000,2.000000,2.000000,2.000000,0.000000,2.000000,4.000000,4.000000,4.000000,4.000000,2.000000,4.000000,16.666666,,,,,,,,,,,,,,,,,,,,,,,,,,,,
1732083686.985600,1732083686.988429,84.000000,0.000000,4390.384766,4317.820313,4321.794922,4330.641113,4287.436035,4290.128418,4316.538574,4315.384766,4301.666504,4293.205078,4471.922852,4498.333496,4371.538574,4462.692383,1750.000000,0.000000,5.000000,,,,0.000000,2.000000,2.000000,0.000000,2.000000,2.000000,2.000000,0.000000,2.000000,4.000000,4.000000,4.000000,4.000000,2.000000,4.000000,16.666666,,,,,,,,,,,,,,,,,21.000000,0.000000,0.597717,0.372192,-0.627502,0.332336,0.968380,0.048834,-0.042974,-77.322014,59.220612,27.293795
1732083686.993409,1732083686.996238,85.000000,0.000000,4388.077148,4314.358887,4324.743652,4325.641113,4295.000000,4280.256348,4315.384766,4312.307617,4303.077148,4286.922852,4465.128418,4495.000000,4367.051270,4462.820313,1544.000000,0.000000,5.000000,,,,0.000000,2.000000,2.000000,0.000000,2.000000,2.000000,2.000000,0.000000,2.000000,4.000000,4.000000,4.000000,4.000000,2.000000,4.000000,16.666666,,,,,,,,,,,,,,,,,,,,,,,,,,,,
1732083687.001217,1732083687.004246,86.000000,0.000000,4382.179688,4311.922852,4324.871582,4318.205078,4290.128418,4279.871582,4316.025879,4309.358887,4300.000000,4281.538574,4461.025879,4491.538574,4357.563965,4453.717773,1387.000000,0.000000,5.000000,,,,0.000000,2.000000,2.000000,0.000000,2.000000,2.000000,2.000000,0.000000,2.000000,4.000000,4.000000,4.000000,4.000000,2.000000,4.000000,16.666666,,,,,,,,,,,,,,,,,,,,,,,,,,,,
1732083687.009025,1732083687.012054,87.000000,0.000000,4375.000000,4310.256348,4325.512695,4315.256348,4286.922852,4283.717773,4317.692383,4312.820313,4300.128418,4283.717773,4463.717773,4495.000000,4355.512695,4446.666504,1523.000000,0.000000,5.000000,,,,0.000000,2.000000,2.000000,0.000000,2.000000,2.000000,2.000000,0.000000,2.000000,4.000000,4.000000,4.000000,4.000000,2.000000,4.000000,16.666666,,,,,,,,,,,,,,,,,,,,,,,,,,,,
1732083687.016833,1732083687.019762,88.000000,0.000000,4374.743652,4309.487305,4325.769043,4315.256348,4286.666504,4281.922852,4318.974121,4315.128418,4305.256348,4290.897461,4466.153809,4499.102539,4363.461426,4451.666504,1750.000000,0.000000,5.000000,,,,0.000000,2.000000,2.000000,0.000000,2.000000,2.000000,2.000000,0.000000,2.000000,4.000000,4.000000,4.000000,4.000000,2.000000,4.000000,16.666666,,,,,,,,,,,,,,,,,22.000000,0.000000,0.597509,0.372498,-0.626709,0.333862,0.990844,0.070321,-0.060554,-77.659164,58.855362,27.199640
1732083687.024642,1732083687.027570,89.000000,0.000000,4376.538574,4310.512695,4328.974121,4317.051270,4284.358887,4282.948730,4321.794922,4315.128418,4305.384766,4294.743652,4469.102539,4505.256348,4368.589844,4457.563965,1544.000000,0.000000,5.000000,,,,0.000000,2.000000,2.000000,0.000000,2.000000,2.000000,2.000000,0.000000,2.000000,4.000000,4.000000,4.000000,4.000000,2.000000,4.000000,16.666666,,,,,,,,,,,,,,,,,,,,,,,,,,,,
1732083687.032450,1732083687.035578,90.000000,0.000000,4375.897461,4313.589844,4329.871582,4321.538574,4289.615234,4284.358887,4321.538574,4317.436035,4301.922852,4290.897461,4468.333496,4504.358887,4364.358887,4455.769043,1387.000000,0.000000,5.000000,,,,0.000000,2.000000,2.000000,0.000000,2.000000,2.000000,2.000000,0.000000,2.000000,4.000000,4.000000,4.000000,4.000000,2.000000,4.000000,16.666666,,,,,,,,,,,,,,,,,,,,,,,,,,,,
1732083687.040258,1732083687.043387,91.000000,0.000000,4377.307617,4313.333496,4328.333496,4326.410156,4287.179688,4280.641113,4319.102539,4319.487305,4305.769043,4295.256348,4466.410156,4501.794922,4361.538574,4455.128418,1523.000000,0.000000,5.000000,,,,0.000000,2.000000,2.000000,0.000000,2.000000,2.000000,2.000000,0.000000,2.000000,4.000000,4.000000,4.000000,4.000000,2.000000,4.000000,16.666666,,,,,,,,,,,,,,,,,,,,,,,,,,,,
1732083687.048067,1732083687.051095,92.000000,0.000000,4377.692383,4311.410156,4326.538574,4326.282227,4284.358887,4282.307617,4319.358887,4320.641113,4311.025879,4300.769043,4471.282227,4506.794922,4363.974121,4456.922852,1750.000000,0.000000,5.000000,,,,0.000000,2.000000,2.000000,0.000000,2.000000,2.000000,2.000000,0.000000,2.000000,4.000000,4.000000,4.000000,4.000000,2.000000,4.000000,16.666666,,,,,,,,,,,,,,,,,23.000000,0.000000,0.595707,0.374023,-0.624695,0.339111,0.997680,0.056648,-0.040532,-77.922256,58.297844,27.053375
1732083687.055875,1732083687.058903,93.000000,0.000000,4370.897461,4308.589844,4329.102539,4321.153809,4297.692383,4286.153809,4323.205078,4318.717773,4303.974121,4290.256348,4472.948730,4502.179688,4364.358887,4455.897461,1544.000000,0.000000,5.000000,,,,0.000000,2.000000,2.000000,0.000000,2.000000,2.000000,2.000000,0.000000,2.000000,4.000000,4.000000,4.000000,4.000000,2.000000,4.000000,16.666666,,,,,,,,,,,,,,,,,,,,,,,,,,,,
1732083687.063683,1732083687.066911,94.000000,0.000000,4370.128418,4307.307617,4329.871582,4321.410156,4298.205078,4284.871582,4320.512695,4316.538574,4302.820313,4290.000000,4471.282227,4489.871582,4363.205078,4454.871582,1387.000000,0.000000,5.000000,,,,0.000000,2.000000,2.000000,0.000000,2.000000,2.000000,2.000000,0.000000,2.000000,4.000000,4.000000,4.000000,4.000000,2.000000,4.000000,16.666666,,,,,,,,,,,,,,,,,,,,,,,,,,,,
1732083687.071491,1732083687.074719,95.000000,0.000000,4375.000000,4312.051270,4328.589844,4323.717773,4280.384766,4287.307617,4318.717773,4322.692383,4313.461426,4308.717773,4475.769043,4493.846191,4367.563965,4457.436035,1523.000000,0.000000,5.000000,,,,0.000000,2.000000,2.000000,0.000000,2.000000,2.000000,2.000000,0.000000,2.000000,4.000000,4.000000,4.000000,4.000000,2.000000,4.000000,16.666666,,,,,,,,,,,,,,,,,,,,,,,,,,,,
1732083687.079300,1732083687.082428,96.000000,0.000000,4372.307617,4316.282227,4327.948730,4325.000000,4278.333496,4292.051270,4319.743652,4322.051270,4312.051270,4312.563965,4479.487305,4500.769043,4370.512695,4458.205078,1750.000000,0.000000,5.000000,,,,0.000000,2.000000,2.000000,0.000000,2.000000,2.000000,2.000000,0.000000,2.000000,4.000000,4.000000,4.000000,4.000000,2.000000,4.000000,16.666666,,,,,,,,,,,,,,,,,24.000000,0.000000,0.594231,0.374390,-0.624451,0.341736,0.998169,0.043951,-0.050299,-78.102028,57.779587,27.084900
1732083687.087108,1732083687.090236,97.000000,0.000000,4368.077148,4314.102539,4327.820313,4326.666504,4290.769043,4287.820313,4320.897461,4309.743652,4299.615234,4300.384766,4474.615234,4490.769043,4368.333496,4450.897461,1544.000000,0.000000,5.000000,,,,0.000000,2.000000,2.000000,0.000000,2.000000,2.000000,2.000000,0.000000,2.000000,4.000000,4.000000,4.000000,4.000000,2.000000,4.000000,16.666666,,,,,,,,,,,,,,,,,,,,,,,,,,,,
1732083687.094916,1732083687.097844,98.000000,0.000000,4369.358887,4311.666504,4325.512695,4326.282227,4290.512695,4282.051270,4316.794922,4311.153809,4300.641113,4301.410156,4472.563965,4486.538574,4366.025879,4443.205078,1387.000000,0.000000,5.000000,,,,0.000000,2.000000,2.000000,0.000000,2.000000,2.000000,2.000000,0.000000,2.000000,4.000000,4.000000,4.000000,4.000000,2.000000,4.000000,16.666666,,,,,,,,,,,,,,,,,,,,,,,,,,,,
1732083687.102724,1732083687.105652,99.000000,0.000000,4370.128418,4311.922852,4326.922852,4324.871582,4285.897461,4287.692383,4315.256348,4323.333496,4308.717773,4303.717773,4473.974121,4492.051270,4363.205078,4445.000000,1523.000000,0.000000,5.000000,,,,0.000000,2.000000,2.000000,0.000000,2.000000,2.000000,2.000000,0.000000,2.000000,4.000000,4.000000,4.000000,4.000000,2.000000,4.000000,16.666666,,,,,,,,,,,,,,,,,,,,,,,,,,,,
1732083687.110533,1732083687.113361,100.000000,0.000000,4370.000000,4315.769043,4327.563965,4326.153809,4289.230957,4292.563965,4318.205078,4317.948730,4305.128418,4299.871582,4471.794922,4492.307617,4363.974121,4448.974121,1750.000000,0.000000,5.000000,,,,0.000000,2.000000,2.000000,0.000000,2.000000,2.000000,2.000000,0.000000,2.000000,4.000000,4.000000,4.000000,4.000000,2.000000,4.000000,16.666666,,,,,,,,,,,,,,,,,25.000000,0.000000,0.593373,0.374329,-0.624634,0.342957,0.990844,0.031742,-0.045416,-78.145973,57.283131,27.037102
1732083687.118341,1732083687.121169,101.000000,0.000000,4367.692383,4317.179688,4325.256348,4326.410156,4293.205078,4288.077148,4318.846191,4310.128418,4302.051270,4303.589844,4474.102539,4494.615234,4366.410156,4448.077148,1544.000000,0.000000,5.000000,,,,0.000000,2.000000,2.000000,0.000000,2.000000,2.000000,2.000000,0.000000,2.000000,4.000000,4.000000,4.000000,4.000000,2.000000,4.000000,16.666666,,,,,,,,,,,,,,,,,,,,,,,,,,,,
1732083687.126149,1732083687.128777,102.000000,0.000000,4363.333496,4313.205078,4326.153809,4325.128418,4290.384766,4290.641113,4315.256348,4321.410156,4309.743652,4306.410156,4472.563965,4499.102539,4361.153809,4445.641113,1387.000000,0.000000,5.000000,,,,0.000000,2.000000,2.000000,0.000000,2.000000,2.000000,2.000000,0.000000,2.000000,4.000000,4.000000,4.000000,4.000000,2.000000,4.000000,16.666666,,,,,,,,,,,,,,,,,,,,,,,,,,,,
1732083687.133958,1732083687.136586,103.000000,0.000000,4362.436035,4314.743652,4330.384766,4328.717773,4291.410156,4295.769043,4318.205078,4325.512695,4311.153809,4301.922852,4463.717773,4496.025879,4353.974121,4444.102539,1523.000000,0.000000,5.000000,,,,0.000000,2.000000,2.000000,0.000000,2.000000,2.000000,2.000000,0.000000,2.000000,4.000000,4.000000,4.000000,4.000000,2.000000,4.000000,16.666666,,,,,,,,,,,,,,,,,,,,,,,,,,,,
1732083687.141766,1732083687.144294,104.000000,0.000000,4362.179688,4321.025879,4331.538574,4332.051270,4307.179688,4288.461426,4322.948730,4309.743652,4301.538574,4297.307617,4464.102539,4490.128418,4356.922852,4442.692383,1750.000000,0.000000,5.000000,,,,0.000000,2.000000,2.000000,0.000000,2.000000,2.000000,2.000000,0.000000,2.000000,4.000000,4.000000,4.000000,4.000000,2.000000,4.000000,16.666666,,,,,,,,,,,,,,,,,26.000000,0.000000,0.591627,0.374268,-0.625183,0.345032,1.022097,0.040532,-0.033207,-78.154907,57.096004,26.750053
1732083687.149574,1732083687.152102,105.000000,0.000000,4359.615234,4317.692383,4328.461426,4328.333496,4309.487305,4285.769043,4320.128418,4307.051270,4302.307617,4301.666504,4474.615234,4495.512695,4364.487305,4444.487305,1544.000000,0.000000,5.000000,,,,0.000000,2.000000,2.000000,0.000000,2.000000,2.000000,2.000000,0.000000,2.000000,4.000000,4.000000,4.000000,4.000000,2.000000,4.000000,16.666666,,,,,,,,,,,,,,,,,,,,,,,,,,,,
1732083687.157382,1732083687.159710,106.000000,0.000000,4356.282227,4310.512695,4329.358887,4322.051270,4292.307617,4294.871582,4319.743652,4322.563965,4314.102539,4311.410156,4477.436035,4502.820313,4361.538574,4443.717773,1387.000000,0.000000,5.000000,,,,0.000000,2.000000,2.000000,0.000000,2.000000,2.000000,2.000000,0.000000,2.000000,4.000000,4.000000,4.000000,4.000000,2.000000,4.000000,16.666666,,,,,,,,,,,,,,,,,,,,,,,,,,,,
1732083687.165190,1732083687.167519,107.000000,0.000000,4351.282227,4312.692383,4330.512695,4322.563965,4287.948730,4298.077148,4321.282227,4323.589844,4316.153809,4309.230957,4473.333496,4495.512695,4357.179688,4438.333496,1523.000000,0.000000,5.000000,,,,0.000000,2.000000,2.000000,0.000000,2.000000,2.000000,2.000000,0.000000,2.000000,4.000000,4.000000,4.000000,4.000000,2.000000,4.000000,16.666666,,,,,,,,,,,,,,,,,,,,,,,,,,,,
1732083687.172999,1732083687.175427,108.000000,0.000000,4349.615234,4316.666504,4328.846191,4327.563965,4293.077148,4294.102539,4320.256348,4314.230957,4309.230957,4298.717773,4473.077148,4494.871582,4363.461426,4438.589844,1750.000000,0.000000,5.000000,,,,0.000000,2.000000,2.000000,0.000000,2.000000,2.000000,2.000000,0.000000,2.000000,4.000000,4.000000,4.000000,4.000000,2.000000,4.000000,16.666666,,,,,,,,,,,,,,,,,27.000000,0.000000,0.586963,0.373840,-0.626709,0.350647,0.988890,-0.006837,-0.054206,-78.212143,56.894428,26.634211
1732083687.180807,1732083687.183235,109.000000,0.000000,4351.794922,4315.000000,4324.358887,4326.794922,4293.846191,4296.666504,4317.563965,4313.077148,4305.769043,4304.487305,4474.487305,4504.102539,4369.615234,4441.410156,1544.000000,0.000000,5.000000,,,,0.000000,2.000000,2.000000,0.000000,2.000000,2.000000,2.000000,0.000000,2.000000,4.000000,4.000000,4.000000,4.000000,2.000000,4.000000,16.666666,,,,,,,,,,,,,,,,,,,,,,,,,,,,
1732083687.188615,1732083687.190843,110.000000,0.000000,4347.051270,4314.615234,4323.974121,4322.820313,4295.512695,4298.333496,4317.179688,4312.948730,4302.436035,4314.230957,4474.615234,4500.384766,4368.205078,4438.846191,1387.000000,0.000000,5.000000,,,,0.000000,2.000000,2.000000,0.000000,2.000000,2.000000,2.000000,0.000000,2.000000,4.000000,4.000000,4.000000,4.000000,2.000000,4.000000,16.666666,,,,,,,,,,,,,,,,,,,,,,,,,,,,
1732083687.196423,1732083687.198652,111.000000,0.000000,4343.589844,4316.538574,4324.230957,4322.948730,4297.179688,4296.538574,4317.563965,4309.487305,4302.820313,4312.436035,4473.205078,4490.000000,4368.717773,4437.436035,1523.000000,0.000000,5.000000,,,,0.000000,2.000000,2.000000,0.000000,2.000000,2.000000,2.000000,0.000000,2.000000,4.000000,4.000000,4.000000,4.000000,2.000000,4.000000,16.666666,,,,,,,,,,,,,,,,,,,,,,,,,,,,
1732083687.204232,1732083687.206360,112.000000,0.000000,4348.205078,4316.282227,4323.974121,4324.743652,4294.871582,4297.307617,4321.282227,4310.384766,4308.205078,4310.897461,4471.025879,4491.153809,4372.307617,4439.487305,1750.000000,0.000000,5.000000,,,,0.000000,2.000000,2.000000,0.000000,2.000000,2.000000,2.000000,0.000000,2.000000,4.000000,4.000000,4.000000,4.000000,2.000000,4.000000,16.666666,,,,,,,,,,,,,,,,,28.000000,0.000000,0.581686,0.372314,-0.629883,0.355347,0.954706,-0.015627,-0.063484,-78.260170,56.349487,26.502043
1732083687.212040,1732083687.214168,113.000000,0.000000,4348.974121,4313.077148,4325.128418,4322.692383,4297.179688,4297.179688,4318.717773,4317.563965,4309.871582,4311.922852,4470.128418,4495.512695,4372.436035,4438.333496,1544.000000,0.000000,5.000000,,,,0.000000,2.000000,2.000000,0.000000,2.000000,2.000000,2.000000,0.000000,2.000000,4.000000,4.000000,4.000000,4.000000,2.000000,4.000000,16.666666,,,,,,,,,,,,,,,,,,,,,,,,,,,,
1732083687.219848,1732083687.221777,114.000000,0.000000,4342.692383,4309.615234,4326.282227,4319.102539,4299.358887,4296.666504,4315.000000,4321.282227,4309.615234,4309.102539,4469.487305,4494.487305,4369.871582,4436.666504,1387.000000,0.000000,5.000000,,,,0.000000,2.000000,2.000000,0.000000,2.000000,2.000000,2.000000,0.000000,2.000000,4.000000,4.000000,4.000000,4.000000,2.000000,4.000000,16.666666,,,,,,,,,,,,,,,,,,,,,,,,,,,,
1732083687.227656,1732083687.229585,115.000000,0.000000,4342.820313,4311.025879,4324.487305,4318.333496,4292.436035,4297.563965,4315.000000,4320.128418,4312.692383,4310.897461,4470.128418,4493.846191,4372.692383,4440.384766,1523.000000,0.000000,5.000000,,,,0.000000,2.000000,2.000000,0.000000,2.000000,2.000000,2.000000,0.000000,2.000000,4.000000,4.000000,4.000000,4.000000,2.000000,4.000000,16.666666,,,,,,,,,,,,,,,,,,,,,,,,,,,,
1732083687.235465,1732083687.237293,116.000000,0.000000,4346.282227,4312.563965,4324.358887,4322.051270,4293.461426,4296.666504,4317.051270,4318.717773,4315.512695,4312.436035,4467.563965,4491.410156,4376.794922,4440.384766,1750.000000,0.000000,5.000000,,,,0.000000,2.000000,2.000000,0.000000,2.000000,2.000000,2.000000,0.000000,2.000000,4.000000,4.000000,4.000000,4.000000,2.000000,4.000000,16.666666,,,,,,,,,,,,,,,,,29.000000,0.000000,0.579763,0.371948,-0.631042,0.356812,0.954706,-0.015627,-0.063484,-78.337402,56.219753,26.406654
1732083687.243273,1732083687.245101,117.000000,0.000000,4344.615234,4312.820313,4327.820313,4324.230957,4308.589844,4293.077148,4315.128418,4319.871582,4311.922852,4305.512695,4465.128418,4489.743652,4374.871582,4437.692383,1544.000000,0.000000,5.000000,,,,0.000000,2.000000,2.000000,0.000000,2.000000,2.000000,2.000000,0.000000,2.000000,4.000000,4.000000,4.000000,4.000000,2.000000,4.000000,16.666666,,,,,,,,,,,,,,,,,,,,,,,,,,,,
1732083687.251081,1732083687.252710,118.000000,0.000000,4343.846191,4313.974121,4331.025879,4321.922852,4304.102539,4291.666504,4313.717773,4320.128418,4309.871582,4307.051270,4470.512695,4492.563965,4376.282227,4441.153809,1387.000000,0.000000,5.000000,,,,0.000000,2.000000,2.000000,0.000000,2.000000,2.000000,2.000000,0.000000,2.000000,4.000000,4.000000,4.000000,4.000000,2.000000,4.000000,16.666666,,,,,,,,,,,,,,,,,,,,,,,,,,,,
1732083687.258890,1732083687.260518,119.000000,0.000000,4348.589844,4314.743652,4331.025879,4322.948730,4280.641113,4292.307617,4315.769043,4318.461426,4313.333496,4311.282227,4476.666504,4499.615234,4383.846191,4448.333496,1523.000000,0.000000,5.000000,,,,0.000000,2.000000,2.000000,0.000000,2.000000,2.000000,2.000000,0.000000,2.000000,4.000000,4.000000,4.000000,4.000000,2.000000,4.000000,16.666666,,,,,,,,,,,,,,,,,,,,,,,,,,,,
1732083687.266698,1732083687.268426,120.000000,0.000000,4351.153809,4315.384766,4327.307617,4324.230957,4284.615234,4293.589844,4317.820313,4316.794922,4313.974121,4300.769043,4475.384766,4499.102539,4382.179688,4444.615234,1750.000000,0.000000,5.000000,,,,0.000000,2.000000,2.000000,0.000000,2.000000,2.000000,2.000000,0.000000,2.000000,4.000000,4.000000,4.000000,4.000000,2.000000,4.000000,16.666666,,,,,,,,,,,,,,,,,30.000000,0.000000,0.572309,0.371399,-0.635376,0.361694,0.947870,-0.017092,-0.097180,-78.309959,55.717999,26.206057
1732083687.274506,1732083687.276234,121.000000,0.000000,4346.153809,4315.128418,4326.153809,4321.538574,4300.256348,4294.743652,4318.717773,4314.615234,4311.153809,4297.692383,4472.307617,4490.897461,4377.948730,4433.077148,1544.000000,0.000000,5.000000,,,,0.000000,2.000000,2.000000,0.000000,2.000000,2.000000,2.000000,0.000000,2.000000,4.000000,4.000000,4.000000,4.000000,2.000000,4.000000,16.666666,,,,,,,,,,,,,,,,,,,,,,,,,,,,
1732083687.282314,1732083687.284242,122.000000,0.000000,4345.384766,4317.307617,4324.743652,4323.717773,4293.589844,4296.538574,4315.897461,4313.461426,4311.538574,4311.153809,4475.000000,4489.615234,4387.563965,4436.538574,1387.000000,0.000000,5.000000,,,,0.000000,2.000000,2.000000,0.000000,2.000000,2.000000,2.000000,0.000000,2.000000,4.000000,4.000000,4.000000,4.000000,2.000000,4.000000,16.666666,,,,,,,,,,,,,,,,,,,,,,,,,,,,
1732083687.290123,1732083687.292050,123.000000,0.000000,4347.051270,4320.128418,4323.589844,4329.743652,4301.153809,4296.282227,4316.282227,4314.102539,4311.666504,4311.025879,4473.846191,4492.436035,4390.000000,4442.563965,1523.000000,0.000000,5.000000,,,,0.000000,2.000000,2.000000,0.000000,2.000000,2.000000,2.000000,0.000000,2.000000,4.000000,4.000000,4.000000,4.000000,2.000000,4.000000,16.666666,,,,,,,,,,,,,,,,,,,,,,,,,,,,
1732083687.297931,1732083687.299759,124.000000,0.000000,4346.025879,4320.384766,4322.179688,4329.743652,4314.871582,4288.461426,4315.897461,4312.179688,4305.384766,4299.871582,4471.153809,4489.487305,4381.410156,4440.384766,1750.000000,0.000000,5.000000,,,,0.000000,2.000000,2.000000,0.000000,2.000000,2.000000,2.000000,0.000000,2.000000,4.000000,4.000000,4.000000,4.000000,2.000000,4.000000,16.666666,,,,,,,,,,,,,,,,,31.000000,0.000000,0.568092,0.370972,-0.637451,0.365112,0.973752,-0.047369,-0.102552,-78.571068,55.406578,25.931906
1732083687.305739,1732083687.307567,125.000000,0.000000,4351.282227,4322.051270,4324.487305,4327.948730,4293.205078,4284.230957,4317.563965,4310.256348,4302.820313,4300.769043,4475.384766,4493.205078,4384.615234,4443.077148,1544.000000,0.000000,5.000000,,,,0.000000,2.000000,2.000000,0.000000,2.000000,2.000000,2.000000,0.000000,2.000000,4.000000,4.000000,4.000000,4.000000,2.000000,4.000000,16.666666,,,,,,,,,,,,,,,,,,,,,,,,,,,,
1732083687.313547,1732083687.315175,126.000000,0.000000,4356.410156,4324.358887,4326.025879,4328.846191,4279.102539,4292.179688,4319.102539,4323.717773,4315.897461,4305.000000,4477.563965,4498.717773,4388.589844,4444.230957,1387.000000,0.000000,5.000000,,,,0.000000,2.000000,2.000000,0.000000,2.000000,2.000000,2.000000,0.000000,2.000000,4.000000,4.000000,4.000000,4.000000,2.000000,4.000000,16.666666,,,,,,,,,,,,,,,,,,,,,,,,,,,,
1732083687.321356,1732083687.322984,127.000000,0.000000,4350.384766,4321.794922,4327.179688,4330.128418,4297.051270,4297.436035,4318.077148,4331.794922,4322.692383,4305.769043,4478.589844,4495.512695,4383.846191,4442.692383,5.000000,0.000000,5.000000,,,,0.000000,2.000000,2.000000,0.000000,2.000000,2.000000,2.000000,0.000000,2.000000,4.000000,4.000000,4.000000,4.000000,2.000000,4.000000,16.666666,,,,,,,,,,,,,,,,,,,,,,,,,,,,
1732083687.329164,1732083687.330892,0.000000,0.000000,4352.563965,4323.717773,4325.769043,4334.230957,4305.384766,4290.512695,4314.358887,4314.102539,4311.410156,4306.666504,4487.436035,4499.871582,4386.025879,4452.692383,0.000000,0.000000,5.000000,,,,0.000000,2.000000,2.000000,0.000000,2.000000,2.000000,2.000000,0.000000,2.000000,4.000000,4.000000,4.000000,4.000000,2.000000,4.000000,16.666666,,,,,,,,,,,,,,,,,0.000000,0.000000,0.566045,0.370300,-0.638611,0.366943,0.951776,-0.058113,-0.111342,-78.832565,54.862663,25.579844
1732083687.336972,1732083687.338700,1.000000,0.000000,4364.230957,4335.512695,4327.692383,4339.615234,4296.410156,4287.948730,4317.948730,4316.025879,4309.487305,4301.922852,4491.794922,4509.358887,4388.205078,4460.128418,1320.000000,0.000000,5.000000,,,,0.000000,2.000000,2.000000,0.000000,2.000000,2.000000,2.000000,0.000000,2.000000,4.000000,4.000000,4.000000,4.000000,2.000000,4.000000,16.666666,,,,,,,,,,,,,,,,,,,,,,,,,,,,
1732083687.344781,1732083687.346708,2.000000,0.000000,4361.025879,4336.410156,4332.179688,4341.410156,4295.641113,4297.948730,4320.897461,4335.512695,4315.769043,4297.948730,4484.743652,4507.051270,4382.436035,4450.256348,1235.000000,0.000000,5.000000,,,,0.000000,2.000000,2.000000,0.000000,2.000000,2.000000,2.000000,0.000000,2.000000,4.000000,4.000000,4.000000,4.000000,2.000000,4.000000,16.666666,,,,,,,,,,,,,,,,,,,,,,,,,,,,
1732083687.352589,1732083687.354516,3.000000,0.000000,4355.000000,4329.358887,4331.794922,4339.871582,4298.205078,4298.333496,4317.948730,4324.615234,4312.051270,4304.615234,4487.051270,4502.563965,4386.025879,4447.436035,1200.000000,0.000000,5.000000,,,,0.000000,2.000000,2.000000,0.000000,2.000000,2.000000,2.000000,0.000000,2.000000,4.000000,4.000000,4.000000,4.000000,2.000000,4.000000,16.666666,,,,,,,,,,,,,,,,,,,,,,,,,,,,
1732083687.360397,1732083687.362424,4.000000,0.000000,4357.820313,4326.025879,4331.666504,4338.717773,4295.256348,4284.487305,4315.897461,4305.897461,4306.794922,4312.948730,4495.641113,4511.153809,4391.794922,4455.641113,1225.000000,0.000000,5.000000,,,,0.000000,2.000000,2.000000,0.000000,2.000000,2.000000,2.000000,0.000000,2.000000,4.000000,4.000000,4.000000,4.000000,2.000000,4.000000,16.666666,,,,,,,,,,,,,,,,,1.000000,0.000000,0.561918,0.368164,-0.641052,0.371155,0.968868,-0.095226,-0.119155,-79.149376,54.192089,25.343006
1732083687.368205,1732083687.370232,5.000000,0.000000,4351.538574,4319.615234,4331.922852,4337.692383,4291.794922,4282.179688,4318.333496,4310.512695,4304.358887,4308.333496,4480.256348,4503.077148,4381.025879,4448.846191,1083.000000,0.000000,5.000000,,,,0.000000,2.000000,2.000000,0.000000,2.000000,2.000000,2.000000,0.000000,2.000000,4.000000,4.000000,4.000000,4.000000,2.000000,4.000000,16.666666,,,,,,,,,,,,,,,,,,,,,,,,,,,,
1732083687.376014,1732083687.378240,6.000000,0.000000,4339.102539,4313.974121,4332.179688,4329.358887,4295.384766,4294.358887,4318.461426,4315.897461,4304.487305,4294.487305,4459.743652,4481.153809,4370.000000,4433.846191,0.000000,0.000000,5.000000,,,,0.000000,2.000000,2.000000,0.000000,2.000000,2.000000,2.000000,0.000000,2.000000,4.000000,4.000000,4.000000,4.000000,2.000000,4.000000,16.666666,,,,,,,,,,,,,,,,,,,,,,,,,,,,
1732083687.383822,1732083687.386049,7.000000,0.000000,4333.717773,4316.666504,4331.410156,4321.025879,4303.846191,4301.025879,4318.717773,4315.769043,4311.153809,4294.615234,4465.128418,4480.897461,4370.000000,4428.205078,1174.000000,0.000000,5.000000,,,,0.000000,2.000000,2.000000,0.000000,2.000000,2.000000,2.000000,0.000000,2.000000,4.000000,4.000000,4.000000,4.000000,2.000000,4.000000,16.666666,,,,,,,,,,,,,,,,,,,,,,,,,,,,
1732083687.391630,1732083687.393957,8.000000,0.000000,4331.922852,4317.051270,4331.282227,4319.615234,4300.769043,4301.282227,4321.282227,4321.794922,4316.153809,4309.871582,4477.948730,4492.179688,4372.820313,4430.897461,1379.000000,0.000000,5.000000,,,,0.000000,2.000000,2.000000,0.000000,2.000000,2.000000,2.000000,0.000000,2.000000,4.000000,4.000000,4.000000,4.000000,2.000000,4.000000,16.666666,,,,,,,,,,,,,,,,,2.000000,0.000000,0.554392,0.361694,-0.645508,0.380981,0.963497,-0.142107,-0.114760,-79.222664,53.583927,24.877836
1732083687.399439,1732083687.401765,9.000000,0.000000,4334.102539,4314.743652,4329.487305,4322.692383,4295.897461,4301.282227,4320.769043,4323.205078,4313.717773,4311.666504,4473.589844,4492.179688,4373.846191,4434.102539,1526.000000,0.000000,5.000000,,,,0.000000,2.000000,2.000000,0.000000,2.000000,2.000000,2.000000,0.000000,2.000000,4.000000,4.000000,4.000000,4.000000,2.000000,4.000000,16.666666,,,,,,,,,,,,,,,,,,,,,,,,,,,,
1732083687.407247,1732083687.409773,10.000000,0.000000,4338.717773,4323.717773,4331.666504,4323.974121,4302.051270,4297.307617,4319.102539,4317.179688,4309.102539,4299.615234,4464.487305,4489.615234,4374.615234,4435.384766,1377.000000,0.000000,5.000000,,,,0.000000,2.000000,2.000000,0.000000,2.000000,2.000000,2.000000,0.000000,2.000000,4.000000,4.000000,4.000000,4.000000,2.000000,4.000000,16.666666,,,,,,,,,,,,,,,,,,,,,,,,,,,,
1732083687.415055,1732083687.417581,11.000000,0.000000,4339.358887,4331.666504,4328.846191,4319.487305,4305.000000,4295.256348,4317.948730,4316.666504,4312.692383,4304.358887,4471.666504,4491.282227,4380.256348,4437.563965,1516.000000,0.000000,5.000000,,,,0.000000,2.000000,2.000000,0.000000,2.000000,2.000000,2.000000,0.000000,2.000000,4.000000,4.000000,4.000000,4.000000,2.000000,4.000000,16.666666,,,,,,,,,,,,,,,,,,,,,,,,,,,,
1732083687.422863,1732083687.425489,12.000000,0.000000,4337.307617,4326.153809,4326.922852,4317.563965,4303.589844,4301.282227,4320.384766,4323.974121,4319.487305,4309.358887,4474.230957,4492.563965,4377.948730,4435.641113,1740.000000,0.000000,5.000000,,,,0.000000,2.000000,2.000000,0.000000,2.000000,2.000000,2.000000,0.000000,2.000000,4.000000,4.000000,4.000000,4.000000,2.000000,4.000000,16.666666,,,,,,,,,,,,,,,,,3.000000,0.000000,0.550449,0.355774,-0.648132,0.387756,0.968868,-0.154316,-0.106947,-79.435356,53.077980,24.442713
1732083687.430672,1732083687.433297,13.000000,0.000000,4335.384766,4324.102539,4329.871582,4323.077148,4306.922852,4302.948730,4320.256348,4327.692383,4316.410156,4299.871582,4462.307617,4489.230957,4366.282227,4430.897461,1541.000000,0.000000,5.000000,,,,0.000000,2.000000,2.000000,0.000000,2.000000,2.000000,2.000000,0.000000,2.000000,4.000000,4.000000,4.000000,4.000000,2.000000,4.000000,16.666666,,,,,,,,,,,,,,,,,,,,,,,,,,,,
1732083687.438480,1732083687.441305,14.000000,0.000000,4326.922852,4322.307617,4330.641113,4318.589844,4306.922852,4297.051270,4319.487305,4322.307617,4308.974121,4300.769043,4459.871582,4481.410156,4365.128418,4430.512695,1377.000000,0.000000,5.000000,,,,0.000000,2.000000,2.000000,0.000000,2.000000,2.000000,2.000000,0.000000,2.000000,4.000000,4.000000,4.000000,4.000000,2.000000,4.000000,16.666666,1.000000,16.666666,2.000000,2.000000,0.000000,2.000000,2.000000,2.000000,0.000000,2.000000,4.000000,4.000000,4.000000,4.000000,2.000000,4.000000,,,,,,,,,,,,
1732083687.446288,1732083687.449114,15.000000,0.000000,4321.025879,4313.077148,4326.025879,4309.871582,4304.743652,4297.436035,4318.846191,4321.666504,4315.384766,4308.974121,4469.230957,4480.384766,4371.410156,4433.077148,1516.000000,0.000000,5.000000,,,,0.000000,2.000000,2.000000,0.000000,2.000000,2.000000,2.000000,0.000000,2.000000,4.000000,4.000000,4.000000,4.000000,2.000000,4.000000,16.666666,,,,,,,,,,,,,,,,,,,,,,,,,,,,
1732083687.454096,1732083687.456822,16.000000,0.000000,4325.641113,4310.000000,4326.922852,4316.282227,4311.666504,4307.692383,4323.077148,4328.461426,4320.256348,4306.153809,4474.615234,4491.025879,4369.615234,4434.102539,0.000000,0.000000,5.000000,,,,0.000000,2.000000,2.000000,0.000000,2.000000,2.000000,2.000000,0.000000,2.000000,4.000000,4.000000,4.000000,4.000000,2.000000,4.000000,16.666666,,,,,,,,,,,,,,,,,4.000000,0.000000,0.549264,0.354065,-0.648865,0.389771,0.972287,-0.163594,-0.104017,-79.574303,52.303165,24.231932
1732083687.461904,1732083687.464630,17.000000,0.000000,4329.358887,4312.820313,4329.871582,4322.051270,4311.410156,4307.051270,4325.000000,4329.871582,4319.615234,4305.897461,4475.641113,4494.487305,4368.717773,4435.256348,0.000000,0.000000,5.000000,,,,0.000000,2.000000,2.000000,0.000000,2.000000,2.000000,2.000000,0.000000,2.000000,4.000000,4.000000,4.000000,4.000000,2.000000,4.000000,16.666666,,,,,,,,,,,,,,,,,,,,,,,,,,,,
1732083687.469713,1732083687.472239,18.000000,0.000000,4324.102539,4308.846191,4326.922852,4312.820313,4308.461426,4298.717773,4323.333496,4321.538574,4323.589844,4308.717773,4471.153809,4481.153809,4370.000000,4432.051270,0.000000,0.000000,5.000000,,,,0.000000,2.000000,2.000000,0.000000,2.000000,2.000000,2.000000,0.000000,2.000000,4.000000,4.000000,4.000000,4.000000,2.000000,4.000000,16.666666,,,,,,,,,,,,,,,,,,,,,,,,,,,,
1732083687.477521,1732083687.480047,19.000000,0.000000,4321.666504,4304.871582,4326.025879,4307.563965,4325.128418,4300.128418,4319.358887,4314.871582,4317.820313,4302.563965,4459.743652,4470.897461,4362.692383,4421.282227,0.000000,0.000000,5.000000,,,,0.000000,2.000000,2.000000,0.000000,2.000000,2.000000,2.000000,0.000000,2.000000,4.000000,4.000000,4.000000,4.000000,2.000000,4.000000,16.666666,,,,,,,,,,,,,,,,,,,,,,,,,,,,
1732083687.485329,1732083687.487755,20.000000,0.000000,4323.333496,4306.794922,4326.153809,4311.410156,4331.666504,4305.384766,4321.538574,4320.512695,4313.077148,4298.461426,4456.282227,4472.051270,4357.307617,4416.153809,0.000000,0.000000,5.000000,,,,0.000000,2.000000,2.000000,0.000000,2.000000,2.000000,2.000000,0.000000,2.000000,4.000000,4.000000,4.000000,4.000000,2.000000,4.000000,16.666666,,,,,,,,,,,,,,,,,5.000000,0.000000,0.546498,0.348572,-0.651367,0.394409,0.995727,-0.180686,-0.089855,-79.908524,51.538895,24.134531
1732083687.493137,1732083687.495563,21.000000,0.000000,4318.333496,4307.820313,4326.538574,4314.487305,4313.461426,4308.205078,4324.230957,4327.179688,4322.179688,4299.743652,4460.512695,4474.358887,4360.769043,4421.410156,0.000000,0.000000,5.000000,,,,0.000000,2.000000,2.000000,0.000000,2.000000,2.000000,2.000000,0.000000,2.000000,4.000000,4.000000,4.000000,4.000000,2.000000,4.000000,16.666666,,,,,,,,,,,,,,,,,,,,,,,,,,,,
1732083687.500946,1732083687.503172,22.000000,0.000000,4312.692383,4302.948730,4322.563965,4312.820313,4305.641113,4310.256348,4325.384766,4325.769043,4325.641113,4306.025879,4460.512695,4472.820313,4365.512695,4425.769043,0.000000,0.000000,5.000000,,,,0.000000,2.000000,2.000000,0.000000,2.000000,2.000000,2.000000,0.000000,2.000000,4.000000,4.000000,4.000000,4.000000,2.000000,4.000000,16.666666,,,,,,,,,,,,,,,,,,,,,,,,,,,,
1732083687.508754,1732083687.510980,23.000000,0.000000,4318.205078,4297.948730,4322.563965,4309.102539,4312.948730,4307.820313,4329.102539,4329.487305,4319.102539,4310.897461,4457.948730,4478.846191,4365.128418,4424.358887,0.000000,0.000000,5.000000,,,,0.000000,2.000000,2.000000,0.000000,2.000000,2.000000,2.000000,0.000000,2.000000,4.000000,4.000000,4.000000,4.000000,2.000000,4.000000,16.666666,,,,,,,,,,,,,,,,,,,,,,,,,,,,
1732083687.516562,1732083687.518688,24.000000,0.000000,4327.563965,4300.769043,4327.563965,4311.666504,4314.487305,4300.000000,4327.307617,4331.153809,4313.589844,4304.871582,4458.333496,4482.179688,4363.077148,4423.974121,0.000000,0.000000,5.000000,,,,0.000000,2.000000,2.000000,0.000000,2.000000,2.000000,2.000000,0.000000,2.000000,4.000000,4.000000,4.000000,4.000000,2.000000,4.000000,16.666666,,,,,,,,,,,,,,,,,6.000000,0.000000,0.544576,0.344177,-0.653381,0.397583,0.963008,-0.173849,-0.084483,-80.195900,50.841507,23.883970
1732083687.524371,1732083687.526496,25.000000,0.000000,4326.410156,4301.282227,4331.282227,4312.692383,4308.205078,4295.641113,4322.563965,4323.333496,4315.641113,4306.025879,4461.666504,4482.307617,4366.025879,4427.692383,0.000000,0.000000,5.000000,,,,0.000000,2.000000,2.000000,0.000000,2.000000,2.000000,2.000000,0.000000,2.000000,4.000000,4.000000,4.000000,4.000000,2.000000,4.000000,16.666666,,,,,,,,,,,,,,,,,,,,,,,,,,,,
1732083687.532179,1732083687.534105,26.000000,0.000000,4319.358887,4295.641113,4327.820313,4310.384766,4306.282227,4297.563965,4323.974121,4325.641113,4323.717773,4313.717773,4463.205078,4486.538574,4366.922852,4429.358887,0.000000,0.000000,5.000000,,,,0.000000,2.000000,2.000000,0.000000,2.000000,2.000000,2.000000,0.000000,2.000000,4.000000,4.000000,4.000000,4.000000,2.000000,4.000000,16.666666,,,,,,,,,,,,,,,,,,,,,,,,,,,,
1732083687.539987,1732083687.541913,27.000000,0.000000,4315.128418,4295.256348,4326.025879,4310.641113,4318.846191,4300.897461,4326.922852,4330.512695,4324.743652,4306.282227,4458.846191,4487.436035,4361.666504,4421.538574,0.000000,0.000000,5.000000,,,,0.000000,2.000000,2.000000,0.000000,2.000000,2.000000,2.000000,0.000000,2.000000,4.000000,4.000000,4.000000,4.000000,2.000000,4.000000,16.666666,,,,,,,,,,,,,,,,,,,,,,,,,,,,
1732083687.547795,1732083687.549621,28.000000,0.000000,4311.666504,4297.436035,4329.102539,4310.512695,4331.666504,4303.077148,4322.436035,4320.641113,4312.179688,4298.333496,4457.051270,4482.179688,4362.692383,4414.358887,0.000000,0.000000,5.000000,,,,0.000000,2.000000,2.000000,0.000000,2.000000,2.000000,2.000000,0.000000,2.000000,4.000000,4.000000,4.000000,4.000000,2.000000,4.000000,16.666666,,,,,,,,,,,,,,,,,7.000000,0.000000,0.544314,0.342957,-0.653870,0.398193,0.963008,-0.173849,-0.084483,-80.285347,50.174953,23.842682
1732083687.555604,1732083687.557430,29.000000,0.000000,4307.436035,4294.871582,4331.153809,4308.333496,4319.230957,4302.948730,4323.205078,4320.641113,4311.153809,4307.051270,4456.794922,4481.922852,4368.589844,4415.000000,0.000000,0.000000,5.000000,,,,0.000000,2.000000,2.000000,0.000000,2.000000,2.000000,2.000000,0.000000,2.000000,4.000000,4.000000,4.000000,4.000000,2.000000,4.000000,16.666666,,,,,,,,,,,,,,,,,,,,,,,,,,,,
1732083687.563412,1732083687.565438,30.000000,0.000000,4312.563965,4299.358887,4327.692383,4309.358887,4304.230957,4305.384766,4323.589844,4334.871582,4322.948730,4307.436035,4456.025879,4485.641113,4366.410156,4421.025879,0.000000,0.000000,5.000000,,,,0.000000,2.000000,2.000000,0.000000,2.000000,2.000000,2.000000,0.000000,2.000000,4.000000,4.000000,4.000000,4.000000,2.000000,4.000000,16.666666,,,,,,,,,,,,,,,,,,,,,,,,,,,,
1732083687.571220,1732083687.573246,31.000000,0.000000,4316.922852,4306.538574,4326.538574,4310.256348,4314.615234,4307.563965,4324.230957,4332.692383,4321.922852,4300.256348,4458.589844,4483.333496,4365.512695,4422.692383,0.000000,0.000000,5.000000,,,,0.000000,2.000000,2.000000,0.000000,2.000000,2.000000,2.000000,0.000000,2.000000,4.000000,4.000000,4.000000,4.000000,2.000000,4.000000,16.666666,,,,,,,,,,,,,,,,,,,,,,,,,,,,
1732083687.579028,1732083687.580954,32.000000,0.000000,4311.794922,4304.615234,4328.333496,4308.205078,4321.538574,4305.000000,4325.897461,4319.358887,4315.512695,4306.666504,4459.358887,4480.000000,4368.205078,4419.871582,0.000000,0.000000,5.000000,,,,0.000000,2.000000,2.000000,0.000000,2.000000,2.000000,2.000000,0.000000,2.000000,4.000000,4.000000,4.000000,4.000000,2.000000,4.000000,16.666666,,,,,,,,,,,,,,,,,8.000000,0.000000,0.544099,0.342102,-0.654236,0.398621,0.972775,-0.168478,-0.087413,-80.521133,49.483379,23.630907
1732083687.586837,1732083687.588762,33.000000,0.000000,4308.974121,4301.538574,4327.051270,4311.282227,4311.410156,4302.179688,4324.230957,4312.820313,4311.922852,4306.410156,4456.794922,4479.230957,4367.692383,4421.282227,0.000000,0.000000,5.000000,,,,0.000000,2.000000,2.000000,0.000000,2.000000,2.000000,2.000000,0.000000,2.000000,4.000000,4.000000,4.000000,4.000000,2.000000,4.000000,16.666666,,,,,,,,,,,,,,,,,,,,,,,,,,,,
1732083687.594645,1732083687.596371,34.000000,0.000000,4313.846191,4305.256348,4325.641113,4315.512695,4314.743652,4299.615234,4318.589844,4313.333496,4310.000000,4301.410156,4462.436035,4483.077148,4372.051270,4426.538574,0.000000,0.000000,5.000000,,,,0.000000,2.000000,2.000000,0.000000,2.000000,2.000000,2.000000,0.000000,2.000000,4.000000,4.000000,4.000000,4.000000,2.000000,4.000000,16.666666,,,,,,,,,,,,,,,,,,,,,,,,,,,,
1732083687.602453,1732083687.604179,35.000000,0.000000,4317.179688,4308.333496,4323.846191,4315.128418,4327.563965,4297.563965,4320.384766,4326.922852,4319.102539,4311.922852,4472.307617,4483.974121,4379.487305,4431.025879,0.000000,0.000000,5.000000,,,,0.000000,2.000000,2.000000,0.000000,2.000000,2.000000,2.000000,0.000000,2.000000,4.000000,4.000000,4.000000,4.000000,2.000000,4.000000,16.666666,,,,,,,,,,,,,,,,,,,,,,,,,,,,
1732083687.610262,1732083687.611887,36.000000,0.000000,4317.563965,4310.641113,4325.128418,4317.307617,4320.641113,4299.358887,4321.922852,4332.436035,4322.563965,4317.563965,4467.436035,4480.384766,4375.256348,4429.487305,0.000000,0.000000,5.000000,,,,0.000000,2.000000,2.000000,0.000000,2.000000,2.000000,2.000000,0.000000,2.000000,4.000000,4.000000,4.000000,4.000000,2.000000,4.000000,16.666666,,,,,,,,,,,,,,,,,9.000000,0.000000,0.543488,0.339233,-0.655640,0.399597,0.964962,-0.174338,-0.097180,-80.443787,48.903202,23.674368
1732083687.618070,1732083687.619695,37.000000,0.000000,4321.794922,4316.025879,4325.641113,4320.128418,4308.717773,4304.615234,4320.641113,4321.282227,4312.948730,4311.153809,4459.230957,4479.102539,4370.769043,4423.461426,0.000000,0.000000,5.000000,,,,0.000000,2.000000,2.000000,0.000000,2.000000,2.000000,2.000000,0.000000,2.000000,4.000000,4.000000,4.000000,4.000000,2.000000,4.000000,16.666666,,,,,,,,,,,,,,,,,,,,,,,,,,,,
1732083687.625878,1732083687.627304,38.000000,0.000000,4322.307617,4315.256348,4324.615234,4317.179688,4311.282227,4304.358887,4321.794922,4325.384766,4317.436035,4316.794922,4467.820313,4480.000000,4377.051270,4422.179688,0.000000,0.000000,5.000000,,,,0.000000,2.000000,2.000000,0.000000,2.000000,2.000000,2.000000,0.000000,2.000000,4.000000,4.000000,4.000000,4.000000,2.000000,4.000000,16.666666,,,,,,,,,,,,,,,,,,,,,,,,,,,,
1732083687.633686,1732083687.635112,39.000000,0.000000,4316.794922,4310.897461,4324.230957,4317.820313,4314.487305,4300.000000,4323.077148,4333.589844,4323.205078,4322.307617,4474.358887,4481.922852,4376.025879,4425.256348,0.000000,0.000000,5.000000,,,,0.000000,2.000000,2.000000,0.000000,2.000000,2.000000,2.000000,0.000000,2.000000,4.000000,4.000000,4.000000,4.000000,2.000000,4.000000,16.666666,,,,,,,,,,,,,,,,,,,,,,,,,,,,
1732083687.641495,1732083687.642820,40.000000,0.000000,4316.538574,4312.692383,4326.410156,4322.436035,4310.256348,4296.410156,4321.282227,4329.487305,4314.871582,4312.820313,4469.871582,4485.000000,4372.307617,4425.000000,0.000000,0.000000,5.000000,,,,0.000000,2.000000,2.000000,0.000000,2.000000,2.000000,2.000000,0.000000,2.000000,4.000000,4.000000,4.000000,4.000000,2.000000,4.000000,16.666666,,,,,,,,,,,,,,,,,10.000000,0.000000,0.543328,0.338684,-0.655945,0.399780,0.964962,-0.174338,-0.097180,-80.417801,48.394928,23.682903
1732083687.649303,1732083687.650629,41.000000,0.000000,4315.769043,4312.948730,4325.384766,4319.871582,4313.717773,4297.051270,4318.846191,4327.820313,4315.256348,4312.948730,4467.563965,4486.922852,4377.179688,4424.102539,0.000000,0.000000,5.000000,,,,0.000000,2.000000,2.000000,0.000000,2.000000,2.000000,2.000000,0.000000,2.000000,4.000000,4.000000,4.000000,4.000000,2.000000,4.000000,16.666666,,,,,,,,,,,,,,,,,,,,,,,,,,,,
1732083687.657111,1732083687.658237,42.000000,0.000000,4310.128418,4309.615234,4324.102539,4316.153809,4314.358887,4306.410156,4321.025879,4326.410156,4318.589844,4314.615234,4466.538574,4478.974121,4376.025879,4422.436035,0.000000,0.000000,5.000000,,,,0.000000,2.000000,2.000000,0.000000,2.000000,2.000000,2.000000,0.000000,2.000000,4.000000,4.000000,4.000000,4.000000,2.000000,4.000000,16.666666,,,,,,,,,,,,,,,,,,,,,,,,,,,,
1732083687.664920,1732083687.666045,43.000000,0.000000,4316.282227,4313.717773,4326.410156,4321.794922,4307.948730,4307.563965,4322.051270,4317.820313,4313.205078,4315.641113,4467.820313,4479.871582,4375.512695,4424.358887,0.000000,0.000000,5.000000,,,,0.000000,2.000000,2.000000,0.000000,2.000000,2.000000,2.000000,0.000000,2.000000,4.000000,4.000000,4.000000,4.000000,2.000000,4.000000,16.666666,,,,,,,,,,,,,,,,,,,,,,,,,,,,
1732083687.672728,1732083687.673953,44.000000,0.000000,4324.615234,4314.615234,4324.615234,4319.487305,4313.846191,4292.179688,4319.615234,4314.743652,4314.230957,4329.743652,4477.307617,4492.563965,4385.000000,4432.563965,0.000000,0.000000,5.000000,,,,0.000000,2.000000,2.000000,0.000000,2.000000,2.000000,2.000000,0.000000,2.000000,4.000000,4.000000,4.000000,4.000000,2.000000,4.000000,16.666666,,,,,,,,,,,,,,,,,11.000000,0.000000,0.542902,0.336914,-0.656799,0.400452,0.951288,-0.174338,-0.096203,-80.686752,48.003223,23.806486
1732083687.680536,1732083687.681762,45.000000,0.000000,4314.358887,4309.743652,4323.333496,4311.666504,4321.153809,4293.717773,4319.871582,4322.436035,4315.000000,4330.256348,4479.487305,4492.692383,4384.230957,4432.307617,0.000000,0.000000,5.000000,,,,0.000000,2.000000,2.000000,0.000000,2.000000,2.000000,2.000000,0.000000,2.000000,4.000000,4.000000,4.000000,4.000000,2.000000,4.000000,16.666666,,,,,,,,,,,,,,,,,,,,,,,,,,,,
1732083687.688344,1732083687.689770,46.000000,0.000000,4306.025879,4308.205078,4326.794922,4315.128418,4308.974121,4311.538574,4326.025879,4333.589844,4316.282227,4320.512695,4473.974121,4487.948730,4378.461426,4425.256348,0.000000,0.000000,5.000000,,,,0.000000,2.000000,2.000000,0.000000,2.000000,2.000000,2.000000,0.000000,2.000000,4.000000,4.000000,4.000000,4.000000,2.000000,4.000000,16.666666,,,,,,,,,,,,,,,,,,,,,,,,,,,,
1732083687.696153,1732083687.697578,47.000000,0.000000,4311.922852,4304.230957,4326.794922,4317.051270,4297.179688,4307.563965,4323.205078,4337.820313,4330.256348,4330.769043,4478.333496,4496.666504,4386.922852,4430.641113,0.000000,0.000000,5.000000,,,,0.000000,2.000000,2.000000,0.000000,2.000000,2.000000,2.000000,0.000000,2.000000,4.000000,4.000000,4.000000,4.000000,2.000000,4.000000,16.666666,,,,,,,,,,,,,,,,,,,,,,,,,,,,
1732083687.703961,1732083687.705286,48.000000,0.000000,4313.077148,4303.077148,4324.358887,4310.512695,4306.153809,4295.128418,4321.153809,4328.717773,4330.128418,4338.077148,4481.282227,4499.615234,4387.563965,4435.641113,0.000000,0.000000,5.000000,,,,0.000000,2.000000,2.000000,0.000000,2.000000,2.000000,2.000000,0.000000,2.000000,4.000000,4.000000,4.000000,4.000000,2.000000,4.000000,16.666666,,,,,,,,,,,,,,,,,12.000000,0.000000,0.542205,0.334717,-0.657715,0.401733,0.961543,-0.167989,-0.099133,-80.936264,47.392612,23.696587
1732083687.711769,1732083687.713094,49.000000,0.000000,4306.794922,4305.128418,4324.102539,4308.589844,4313.461426,4302.051270,4324.871582,4320.384766,4314.871582,4325.128418,4475.641113,4488.077148,4378.205078,4428.205078,0.000000,0.000000,5.000000,,,,0.000000,2.000000,2.000000,0.000000,2.000000,2.000000,2.000000,0.000000,2.000000,4.000000,4.000000,4.000000,4.000000,2.000000,4.000000,16.666666,,,,,,,,,,,,,,,,,,,,,,,,,,,,
1732083687.719577,1732083687.720703,50.000000,0.000000,4302.692383,4299.358887,4323.461426,4310.641113,4308.717773,4307.820313,4327.563965,4328.974121,4315.512695,4315.897461,4473.077148,4486.410156,4374.743652,4423.205078,0.000000,0.000000,5.000000,,,,0.000000,2.000000,2.000000,0.000000,2.000000,2.000000,2.000000,0.000000,2.000000,4.000000,4.000000,4.000000,4.000000,2.000000,4.000000,16.666666,,,,,,,,,,,,,,,,,,,,,,,,,,,,
1732083687.727385,1732083687.728511,51.000000,0.000000,4306.153809,4294.102539,4323.974121,4309.615234,4301.922852,4303.205078,4325.641113,4345.769043,4329.743652,4321.794922,4476.666504,4499.102539,4378.205078,4427.307617,0.000000,0.000000,5.000000,,,,0.000000,2.000000,2.000000,0.000000,2.000000,2.000000,2.000000,0.000000,2.000000,4.000000,4.000000,4.000000,4.000000,2.000000,4.000000,16.666666,,,,,,,,,,,,,,,,,,,,,,,,,,,,
1732083687.735194,1732083687.736419,52.000000,0.000000,4313.077148,4299.871582,4327.692383,4311.794922,4311.153809,4303.205078,4323.974121,4341.666504,4330.769043,4328.846191,4480.897461,4501.794922,4380.512695,4430.512695,0.000000,0.000000,5.000000,,,,0.000000,2.000000,2.000000,0.000000,2.000000,2.000000,2.000000,0.000000,2.000000,4.000000,4.000000,4.000000,4.000000,2.000000,4.000000,16.666666,,,,,,,,,,,,,,,,,13.000000,0.000000,0.541919,0.334106,-0.657776,0.402527,0.960566,-0.178244,-0.094250,-81.055046,46.831348,23.499235
1732083687.743002,1732083687.744227,53.000000,0.000000,4306.538574,4298.205078,4328.205078,4313.846191,4327.051270,4302.563965,4323.589844,4325.256348,4323.461426,4330.641113,4477.179688,4493.077148,4375.897461,4422.307617,0.000000,0.000000,5.000000,,,,0.000000,2.000000,2.000000,0.000000,2.000000,2.000000,2.000000,0.000000,2.000000,4.000000,4.000000,4.000000,4.000000,2.000000,4.000000,16.666666,,,,,,,,,,,,,,,,,,,,,,,,,,,,
1732083687.750810,1732083687.752235,54.000000,0.000000,4297.820313,4292.179688,4326.538574,4308.974121,4313.077148,4299.230957,4324.871582,4333.333496,4326.282227,4327.692383,4473.589844,4488.077148,4374.230957,4415.000000,0.000000,0.000000,5.000000,,,,0.000000,2.000000,2.000000,0.000000,2.000000,2.000000,2.000000,0.000000,2.000000,4.000000,4.000000,4.000000,4.000000,2.000000,4.000000,16.666666,,,,,,,,,,,,,,,,,,,,,,,,,,,,
1732083687.758618,1732083687.760043,55.000000,0.000000,4310.897461,4301.153809,4327.051270,4311.410156,4292.948730,4299.615234,4323.974121,4335.641113,4319.743652,4318.077148,4472.307617,4489.743652,4381.794922,4420.897461,0.000000,0.000000,5.000000,,,,0.000000,2.000000,2.000000,0.000000,2.000000,2.000000,2.000000,0.000000,2.000000,4.000000,4.000000,4.000000,4.000000,2.000000,4.000000,16.666666,,,,,,,,,,,,,,,,,,,,,,,,,,,,
1732083687.766427,1732083687.767952,56.000000,0.000000,4315.897461,4305.256348,4324.358887,4314.615234,4305.641113,4298.589844,4320.128418,4313.717773,4306.025879,4311.153809,4463.974121,4486.153809,4381.794922,4421.538574,0.000000,0.000000,5.000000,,,,0.000000,2.000000,2.000000,0.000000,2.000000,2.000000,2.000000,0.000000,2.000000,4.000000,4.000000,4.000000,4.000000,2.000000,4.000000,16.666666,,,,,,,,,,,,,,,,,14.000000,0.000000,0.541714,0.333923,-0.657776,0.402954,0.976193,-0.176291,-0.081065,-81.266251,46.641727,23.341047
1732083687.774235,1732083687.775760,57.000000,0.000000,4304.230957,4295.897461,4323.717773,4312.948730,4314.487305,4301.666504,4323.974121,4318.846191,4311.410156,4312.692383,4458.461426,4479.871582,4371.153809,4414.358887,0.000000,0.000000,5.000000,,,,0.000000,2.000000,2.000000,0.000000,2.000000,2.000000,2.000000,0.000000,2.000000,4.000000,4.000000,4.000000,4.000000,2.000000,4.000000,16.666666,,,,,,,,,,,,,,,,,,,,,,,,,,,,
1732083687.782043,1732083687.783768,58.000000,0.000000,4306.410156,4294.487305,4325.769043,4313.974121,4305.769043,4305.000000,4326.410156,4336.538574,4319.102539,4316.282227,4461.922852,4478.461426,4372.179688,4413.205078,0.000000,0.000000,5.000000,,,,0.000000,2.000000,2.000000,0.000000,2.000000,2.000000,2.000000,0.000000,2.000000,4.000000,4.000000,4.000000,4.000000,2.000000,4.000000,16.666666,,,,,,,,,,,,,,,,,,,,,,,,,,,,
1732083687.789852,1732083687.791576,59.000000,0.000000,4308.974121,4298.717773,4326.153809,4313.333496,4319.230957,4301.153809,4321.410156,4325.128418,4309.487305,4309.743652,4459.358887,4476.410156,4371.922852,4413.846191,0.000000,0.000000,5.000000,,,,0.000000,2.000000,2.000000,0.000000,2.000000,2.000000,2.000000,0.000000,2.000000,4.000000,4.000000,4.000000,4.000000,2.000000,4.000000,16.666666,,,,,,,,,,,,,,,,,,,,,,,,,,,,
1732083687.797660,1732083687.799484,60.000000,0.000000,4298.205078,4296.025879,4325.256348,4309.743652,4322.307617,4308.333496,4321.794922,4324.871582,4309.871582,4307.179688,4460.000000,4483.077148,4367.307617,4415.512695,0.000000,0.000000,5.000000,,,,0.000000,2.000000,2.000000,0.000000,2.000000,2.000000,2.000000,0.000000,2.000000,4.000000,4.000000,4.000000,4.000000,2.000000,4.000000,16.666666,,,,,,,,,,,,,,,,,15.000000,0.000000,0.541626,0.333496,-0.657654,0.403625,0.970333,-0.183128,-0.092785,-81.262329,46.441463,23.387915
1732083687.805468,1732083687.807292,61.000000,0.000000,4300.641113,4294.871582,4323.333496,4311.025879,4297.307617,4315.512695,4329.743652,4337.179688,4324.230957,4321.153809,4472.179688,4493.333496,4376.794922,4423.974121,0.000000,0.000000,5.000000,,,,0.000000,2.000000,2.000000,0.000000,2.000000,2.000000,2.000000,0.000000,2.000000,4.000000,4.000000,4.000000,4.000000,2.000000,4.000000,16.666666,,,,,,,,,,,,,,,,,,,,,,,,,,,,
1732083687.813276,1732083687.815300,62.000000,0.000000,4312.948730,4298.717773,4324.358887,4313.589844,4299.358887,4303.077148,4325.641113,4331.666504,4323.717773,4328.717773,4475.384766,4493.461426,4381.538574,4427.051270,0.000000,0.000000,5.000000,,,,0.000000,2.000000,2.000000,0.000000,2.000000,2.000000,2.000000,0.000000,2.000000,4.000000,4.000000,4.000000,4.000000,2.000000,4.000000,16.666666,,,,,,,,,,,,,,,,,,,,,,,,,,,,
1732083687.821085,1732083687.823108,63.000000,0.000000,4309.102539,4296.410156,4328.205078,4311.153809,4315.769043,4296.794922,4319.743652,4330.256348,4317.179688,4317.179688,4471.666504,4491.794922,4373.846191,4423.205078,0.000000,0.000000,5.000000,,,,0.000000,2.000000,2.000000,0.000000,2.000000,2.000000,2.000000,0.000000,2.000000,4.000000,4.000000,4.000000,4.000000,2.000000,4.000000,16.666666,,,,,,,,,,,,,,,,,,,,,,,,,,,,
1732083687.828893,1732083687.831017,64.000000,0.000000,4304.358887,4292.307617,4328.589844,4311.025879,4309.102539,4303.589844,4322.179688,4334.871582,4317.563965,4312.307617,4474.230957,4493.333496,4370.512695,4423.974121,0.000000,0.000000,5.000000,,,,0.000000,2.000000,2.000000,0.000000,2.000000,2.000000,2.000000,0.000000,2.000000,4.000000,4.000000,4.000000,4.000000,2.000000,4.000000,16.666666,,,,,,,,,,,,,,,,,16.000000,0.000000,0.541479,0.333069,-0.657166,0.404968,0.960078,-0.172873,-0.077158,-81.470818,46.370918,23.250877
1732083687.836701,1732083687.838825,65.000000,0.000000,4309.358887,4295.897461,4325.512695,4313.974121,4313.717773,4302.307617,4327.307617,4326.153809,4317.179688,4323.846191,4470.769043,4490.897461,4372.051270,4422.820313,1322.000000,0.000000,5.000000,,,,0.000000,2.000000,2.000000,0.000000,2.000000,2.000000,2.000000,0.000000,2.000000,4.000000,4.000000,4.000000,4.000000,2.000000,4.000000,16.666666,,,,,,,,,,,,,,,,,,,,,,,,,,,,
1732083687.844509,1732083687.846833,66.000000,0.000000,4307.948730,4295.256348,4325.641113,4312.436035,4329.358887,4302.436035,4325.000000,4329.615234,4324.871582,4330.256348,4467.307617,4487.820313,4373.333496,4420.000000,1240.000000,0.000000,5.000000,,,,0.000000,2.000000,2.000000,0.000000,2.000000,2.000000,2.000000,0.000000,2.000000,4.000000,4.000000,4.000000,4.000000,2.000000,4.000000,16.666666,,,,,,,,,,,,,,,,,,,,,,,,,,,,
1732083687.852318,1732083687.854641,67.000000,0.000000,4297.948730,4286.538574,4324.871582,4309.102539,4311.282227,4311.666504,4323.846191,4341.538574,4331.666504,4322.692383,4467.692383,4485.641113,4371.666504,4417.948730,1202.000000,0.000000,5.000000,,,,0.000000,2.000000,2.000000,0.000000,2.000000,2.000000,2.000000,0.000000,2.000000,4.000000,4.000000,4.000000,4.000000,2.000000,4.000000,16.666666,,,,,,,,,,,,,,,,,,,,,,,,,,,,
1732083687.860126,1732083687.862349,68.000000,0.000000,4294.615234,4286.025879,4323.461426,4307.820313,4293.974121,4314.487305,4323.846191,4328.974121,4319.358887,4313.589844,4461.922852,4481.410156,4365.641113,4415.128418,1209.000000,0.000000,5.000000,,,,0.000000,2.000000,2.000000,0.000000,2.000000,2.000000,2.000000,0.000000,2.000000,4.000000,4.000000,4.000000,4.000000,2.000000,4.000000,16.666666,,,,,,,,,,,,,,,,,17.000000,0.000000,0.541425,0.333313,-0.656860,0.405334,0.964473,-0.174826,-0.083506,-81.616364,46.320446,23.333212
1732083687.867934,1732083687.870158,69.000000,0.000000,4300.000000,4295.641113,4325.384766,4314.358887,4310.641113,4311.025879,4323.077148,4316.282227,4306.153809,4306.922852,4456.282227,4480.256348,4363.974121,4414.487305,1072.000000,0.000000,5.000000,,,,0.000000,2.000000,2.000000,0.000000,2.000000,2.000000,2.000000,0.000000,2.000000,4.000000,4.000000,4.000000,4.000000,2.000000,4.000000,16.666666,,,,,,,,,,,,,,,,,,,,,,,,,,,,
1732083687.875743,1732083687.877766,70.000000,0.000000,4302.051270,4298.846191,4326.153809,4321.410156,4318.846191,4308.717773,4322.692383,4324.743652,4312.307617,4307.436035,4460.512695,4484.743652,4368.846191,4415.000000,0.000000,0.000000,5.000000,,,,0.000000,2.000000,2.000000,0.000000,2.000000,2.000000,2.000000,0.000000,2.000000,4.000000,4.000000,4.000000,4.000000,2.000000,4.000000,16.666666,,,,,,,,,,,,,,,,,,,,,,,,,,,,
1732083687.883551,1732083687.885574,71.000000,0.000000,4299.358887,4288.589844,4327.179688,4316.922852,4306.153809,4310.641113,4323.333496,4331.025879,4318.974121,4314.230957,4463.077148,4484.102539,4366.282227,4411.922852,1189.000000,0.000000,5.000000,,,,0.000000,2.000000,2.000000,0.000000,2.000000,2.000000,2.000000,0.000000,2.000000,4.000000,4.000000,4.000000,4.000000,2.000000,4.000000,16.666666,,,,,,,,,,,,,,,,,,,,,,,,,,,,
1732083687.891359,1732083687.893282,72.000000,0.000000,4296.153809,4282.051270,4327.307617,4309.743652,4315.384766,4313.974121,4323.461426,4325.897461,4311.794922,4311.153809,4458.205078,4482.692383,4358.461426,4408.205078,1377.000000,0.000000,5.000000,,,,0.000000,2.000000,2.000000,0.000000,2.000000,2.000000,2.000000,0.000000,2.000000,4.000000,4.000000,4.000000,4.000000,2.000000,4.000000,16.666666,,,,,,,,,,,,,,,,,18.000000,0.000000,0.541527,0.333801,-0.656189,0.405884,0.959590,-0.172873,-0.091808,-81.657585,46.164562,23.143234
1732083687.899167,1732083687.901091,73.000000,0.000000,4295.384766,4284.230957,4324.487305,4306.922852,4327.179688,4309.743652,4321.922852,4325.128418,4310.512695,4305.769043,4457.179688,4482.179688,4357.307617,4408.205078,1523.000000,0.000000,5.000000,,,,0.000000,2.000000,2.000000,0.000000,2.000000,2.000000,2.000000,0.000000,2.000000,4.000000,4.000000,4.000000,4.000000,2.000000,4.000000,16.666666,,,,,,,,,,,,,,,,,,,,,,,,,,,,
1732083687.906976,1732083687.908699,74.000000,0.000000,4295.512695,4284.230957,4321.922852,4303.333496,4307.563965,4307.563965,4323.974121,4336.922852,4322.051270,4313.717773,4459.230957,4481.922852,4358.974121,4406.538574,1382.000000,0.000000,5.000000,,,,0.000000,2.000000,2.000000,0.000000,2.000000,2.000000,2.000000,0.000000,2.000000,4.000000,4.000000,4.000000,4.000000,2.000000,4.000000,16.666666,,,,,,,,,,,,,,,,,,,,,,,,,,,,
1732083687.914784,1732083687.916507,75.000000,0.000000,4295.769043,4280.256348,4324.487305,4301.410156,4294.743652,4310.384766,4325.384766,4342.179688,4330.512695,4320.897461,4460.128418,4483.974121,4360.384766,4406.282227,1519.000000,0.000000,5.000000,,,,0.000000,2.000000,2.000000,0.000000,2.000000,2.000000,2.000000,0.000000,2.000000,4.000000,4.000000,4.000000,4.000000,2.000000,4.000000,16.666666,,,,,,,,,,,,,,,,,,,,,,,,,,,,
1732083687.922592,1732083687.924216,76.000000,0.000000,4294.871582,4279.871582,4326.025879,4302.051270,4303.333496,4310.384766,4324.358887,4330.512695,4323.461426,4319.230957,4459.230957,4480.641113,4360.641113,4403.589844,1741.000000,0.000000,5.000000,,,,0.000000,2.000000,2.000000,0.000000,2.000000,2.000000,2.000000,0.000000,2.000000,4.000000,4.000000,4.000000,4.000000,2.000000,4.000000,16.666666,,,,,,,,,,,,,,,,,19.000000,0.000000,0.542196,0.334534,-0.654846,0.406555,0.974728,-0.170431,-0.083506,-81.464317,46.111626,23.121019
1732083687.930400,1732083687.932024,77.000000,0.000000,4293.717773,4281.282227,4323.974121,4301.410156,4306.153809,4309.358887,4319.743652,4323.077148,4316.666504,4320.769043,4458.589844,4476.410156,4358.077148,4398.205078,1556.000000,0.000000,5.000000,,,,0.000000,2.000000,2.000000,0.000000,2.000000,2.000000,2.000000,0.000000,2.000000,4.000000,4.000000,4.000000,4.000000,2.000000,4.000000,16.666666,,,,,,,,,,,,,,,,,,,,,,,,,,,,
1732083687.938209,1732083687.939632,78.000000,0.000000,4294.871582,4281.922852,4321.410156,4304.230957,4307.179688,4311.410156,4320.256348,4330.000000,4323.205078,4320.000000,4462.692383,4477.051270,4358.589844,4399.743652,1382.000000,0.000000,5.000000,,,,0.000000,2.000000,2.000000,0.000000,2.000000,2.000000,2.000000,0.000000,2.000000,4.000000,4.000000,4.000000,4.000000,2.000000,4.000000,16.666666,1.000000,16.666666,2.000000,2.000000,0.000000,2.000000,2.000000,2.000000,0.000000,2.000000,4.000000,4.000000,4.000000,4.000000,2.000000,4.000000,,,,,,,,,,,,
1732083687.946017,1732083687.947440,79.000000,0.000000,4296.538574,4287.436035,4324.230957,4311.025879,4309.871582,4311.794922,4323.974121,4328.846191,4321.282227,4306.025879,4460.000000,4474.358887,4356.282227,4402.436035,1519.000000,0.000000,5.000000,,,,0.000000,2.000000,2.000000,0.000000,2.000000,2.000000,2.000000,0.000000,2.000000,4.000000,4.000000,4.000000,4.000000,2.000000,4.000000,16.666666,,,,,,,,,,,,,,,,,,,,,,,,,,,,
1732083687.953825,1732083687.955149,80.000000,0.000000,4296.794922,4287.563965,4328.205078,4312.692383,4309.358887,4311.922852,4326.153809,4324.871582,4310.384766,4295.769043,4448.205078,4469.102539,4346.922852,4394.871582,1741.000000,0.000000,5.000000,,,,0.000000,2.000000,2.000000,0.000000,2.000000,2.000000,2.000000,0.000000,2.000000,4.000000,4.000000,4.000000,4.000000,2.000000,4.000000,16.666666,,,,,,,,,,,,,,,,,20.000000,0.000000,0.542909,0.334839,-0.654175,0.406433,0.964962,-0.156269,-0.089366,-81.267761,45.997086,23.124693
1732083687.961634,1732083687.962957,81.000000,0.000000,4292.563965,4281.025879,4325.512695,4309.615234,4321.025879,4312.051270,4324.743652,4332.948730,4310.641113,4301.025879,4444.487305,4475.000000,4343.077148,4390.384766,1556.000000,0.000000,5.000000,,,,0.000000,2.000000,2.000000,0.000000,2.000000,2.000000,2.000000,0.000000,2.000000,4.000000,4.000000,4.000000,4.000000,2.000000,4.000000,16.666666,,,,,,,,,,,,,,,,,,,,,,,,,,,,
1732083687.969442,1732083687.970965,82.000000,0.000000,4288.205078,4279.743652,4323.589844,4308.846191,4322.307617,4312.179688,4327.051270,4337.563965,4318.461426,4308.333496,4449.358887,4480.897461,4350.256348,4397.436035,1382.000000,0.000000,5.000000,,,,0.000000,2.000000,2.000000,0.000000,2.000000,2.000000,2.000000,0.000000,2.000000,4.000000,4.000000,4.000000,4.000000,2.000000,4.000000,16.666666,,,,,,,,,,,,,,,,,,,,,,,,,,,,
1732083687.977250,1732083687.978773,83.000000,0.000000,4285.769043,4282.179688,4325.641113,4309.487305,4301.410156,4316.282227,4326.538574,4331.410156,4319.358887,4308.589844,4447.436035,4474.358887,4349.615234,4393.846191,1519.000000,0.000000,5.000000,,,,0.000000,2.000000,2.000000,0.000000,2.000000,2.000000,2.000000,0.000000,2.000000,4.000000,4.000000,4.000000,4.000000,2.000000,4.000000,16.666666,,,,,,,,,,,,,,,,,,,,,,,,,,,,
1732083687.985058,1732083687.986681,84.000000,0.000000,4283.333496,4282.179688,4325.641113,4307.179688,4300.128418,4318.974121,4323.717773,4329.871582,4319.230957,4306.410156,4442.563965,4470.897461,4339.358887,4382.563965,1741.000000,0.000000,5.000000,,,,0.000000,2.000000,2.000000,0.000000,2.000000,2.000000,2.000000,0.000000,2.000000,4.000000,4.000000,4.000000,4.000000,2.000000,4.000000,16.666666,,,,,,,,,,,,,,,,,21.000000,0.000000,0.543185,0.334778,-0.654053,0.406311,0.968868,-0.180198,-0.069833,-81.406883,45.775970,23.227667
1732083687.992867,1732083687.994489,85.000000,0.000000,4287.563965,4279.743652,4322.563965,4307.179688,4314.230957,4320.641113,4325.128418,4335.897461,4325.256348,4307.179688,4445.000000,4472.307617,4338.717773,4385.000000,1556.000000,0.000000,5.000000,,,,0.000000,2.000000,2.000000,0.000000,2.000000,2.000000,2.000000,0.000000,2.000000,4.000000,4.000000,4.000000,4.000000,2.000000,4.000000,16.666666,,,,,,,,,,,,,,,,,,,,,,,,,,,,
1732083688.000675,1732083688.002098,86.000000,0.000000,4295.256348,4285.512695,4323.846191,4312.436035,4312.563965,4320.769043,4327.948730,4333.846191,4323.077148,4305.641113,4446.666504,4469.743652,4343.205078,4389.487305,1382.000000,0.000000,5.000000,,,,0.000000,2.000000,2.000000,0.000000,2.000000,2.000000,2.000000,0.000000,2.000000,4.000000,4.000000,4.000000,4.000000,2.000000,4.000000,16.666666,,,,,,,,,,,,,,,,,,,,,,,,,,,,
1732083688.008483,1732083688.009906,87.000000,0.000000,4297.179688,4293.589844,4325.897461,4314.487305,4303.589844,4315.128418,4325.256348,4326.922852,4312.307617,4300.256348,4446.666504,4471.410156,4344.358887,4388.333496,1519.000000,0.000000,5.000000,,,,0.000000,2.000000,2.000000,0.000000,2.000000,2.000000,2.000000,0.000000,2.000000,4.000000,4.000000,4.000000,4.000000,2.000000,4.000000,16.666666,,,,,,,,,,,,,,,,,,,,,,,,,,,,
1732083688.016291,1732083688.017614,88.000000,0.000000,4295.512695,4288.461426,4325.769043,4312.179688,4313.333496,4309.487305,4321.410156,4325.256348,4307.948730,4297.820313,4444.102539,4478.974121,4343.205078,4390.256348,1741.000000,0.000000,5.000000,,,,0.000000,2.000000,2.000000,0.000000,2.000000,2.000000,2.000000,0.000000,2.000000,4.000000,4.000000,4.000000,4.000000,2.000000,4.000000,16.666666,,,,,,,,,,,,,,,,,22.000000,0.000000,0.543737,0.334656,-0.653809,0.406067,0.970333,-0.168966,-0.058113,-81.437912,45.913536,23.247744
1732083688.024099,1732083688.025423,89.000000,0.000000,4296.666504,4282.820313,4323.589844,4312.948730,4327.179688,4311.410156,4323.846191,4324.230957,4309.743652,4293.461426,4441.666504,4480.384766,4339.871582,4391.538574,1556.000000,0.000000,5.000000,,,,0.000000,2.000000,2.000000,0.000000,2.000000,2.000000,2.000000,0.000000,2.000000,4.000000,4.000000,4.000000,4.000000,2.000000,4.000000,16.666666,,,,,,,,,,,,,,,,,,,,,,,,,,,,
1732083688.031908,1732083688.033031,90.000000,0.000000,4297.948730,4288.461426,4325.512695,4314.230957,4315.512695,4315.256348,4326.794922,4327.179688,4311.410156,4291.410156,4451.410156,4479.743652,4343.333496,4392.692383,1382.000000,0.000000,5.000000,,,,0.000000,2.000000,2.000000,0.000000,2.000000,2.000000,2.000000,0.000000,2.000000,4.000000,4.000000,4.000000,4.000000,2.000000,4.000000,16.666666,,,,,,,,,,,,,,,,,,,,,,,,,,,,
1732083688.039716,1732083688.040839,91.000000,0.000000,4296.410156,4290.769043,4328.717773,4311.666504,4295.897461,4312.820313,4326.025879,4331.922852,4311.922852,4298.974121,4459.743652,4484.358887,4352.436035,4398.461426,1519.000000,0.000000,5.000000,,,,0.000000,2.000000,2.000000,0.000000,2.000000,2.000000,2.000000,0.000000,2.000000,4.000000,4.000000,4.000000,4.000000,2.000000,4.000000,16.666666,,,,,,,,,,,,,,,,,,,,,,,,,,,,
1732083688.047524,1732083688.048548,92.000000,0.000000,4294.615234,4284.358887,4327.307617,4310.000000,4300.897461,4312.948730,4321.666504,4328.461426,4311.666504,4301.025879,4454.487305,4484.871582,4349.358887,4396.025879,1741.000000,0.000000,5.000000,,,,0.000000,2.000000,2.000000,0.000000,2.000000,2.000000,2.000000,0.000000,2.000000,4.000000,4.000000,4.000000,4.000000,2.000000,4.000000,16.666666,,,,,,,,,,,,,,,,,23.000000,0.000000,0.544114,0.335144,-0.653320,0.405945,0.974728,-0.152362,-0.074716,-81.363045,46.008297,23.280672
1732083688.055333,1732083688.056356,93.000000,0.000000,4291.538574,4281.922852,4323.589844,4310.000000,4308.333496,4316.153809,4323.846191,4327.820313,4314.230957,4296.538574,4453.589844,4478.717773,4342.563965,4389.487305,1556.000000,0.000000,5.000000,,,,0.000000,2.000000,2.000000,0.000000,2.000000,2.000000,2.000000,0.000000,2.000000,4.000000,4.000000,4.000000,4.000000,2.000000,4.000000,16.666666,,,,,,,,,,,,,,,,,,,,,,,,,,,,
1732083688.063141,1732083688.064364,94.000000,0.000000,4290.000000,4281.410156,4323.077148,4306.794922,4302.307617,4315.000000,4326.538574,4334.102539,4322.820313,4307.307617,4459.871582,4477.051270,4347.692383,4391.794922,1382.000000,0.000000,5.000000,,,,0.000000,2.000000,2.000000,0.000000,2.000000,2.000000,2.000000,0.000000,2.000000,4.000000,4.000000,4.000000,4.000000,2.000000,4.000000,16.666666,,,,,,,,,,,,,,,,,,,,,,,,,,,,
1732083688.070949,1732083688.072172,95.000000,0.000000,4291.282227,4280.000000,4325.128418,4302.436035,4304.487305,4312.563965,4325.769043,4335.384766,4324.871582,4318.333496,4456.794922,4476.922852,4349.487305,4389.230957,1519.000000,0.000000,5.000000,,,,0.000000,2.000000,2.000000,0.000000,2.000000,2.000000,2.000000,0.000000,2.000000,4.000000,4.000000,4.000000,4.000000,2.000000,4.000000,16.666666,,,,,,,,,,,,,,,,,,,,,,,,,,,,
1732083688.078757,1732083688.080080,96.000000,0.000000,4290.256348,4281.410156,4324.358887,4301.410156,4302.820313,4312.307617,4325.000000,4338.205078,4323.974121,4311.666504,4451.025879,4477.307617,4345.128418,4381.922852,1741.000000,0.000000,5.000000,,,,0.000000,2.000000,2.000000,0.000000,2.000000,2.000000,2.000000,0.000000,2.000000,4.000000,4.000000,4.000000,4.000000,2.000000,4.000000,16.666666,,,,,,,,,,,,,,,,,24.000000,0.000000,0.544203,0.335266,-0.653259,0.405823,0.965450,-0.147967,-0.081553,-81.429062,46.040054,23.200678
1732083688.086566,1732083688.087888,97.000000,0.000000,4287.179688,4280.128418,4322.436035,4303.717773,4305.128418,4310.769043,4326.538574,4338.589844,4322.563965,4307.563965,4454.743652,4480.000000,4349.487305,4384.358887,1556.000000,0.000000,5.000000,,,,0.000000,2.000000,2.000000,0.000000,2.000000,2.000000,2.000000,0.000000,2.000000,4.000000,4.000000,4.000000,4.000000,2.000000,4.000000,16.666666,,,,,,,,,,,,,,,,,,,,,,,,,,,,
1732083688.094374,1732083688.095896,98.000000,0.000000,4288.077148,4281.025879,4322.436035,4306.922852,4322.948730,4310.769043,4323.846191,4330.512695,4316.794922,4311.922852,4457.820313,4481.794922,4352.051270,4387.692383,1382.000000,0.000000,5.000000,,,,0.000000,2.000000,2.000000,0.000000,2.000000,2.000000,2.000000,0.000000,2.000000,4.000000,4.000000,4.000000,4.000000,2.000000,4.000000,16.666666,,,,,,,,,,,,,,,,,,,,,,,,,,,,
1732083688.102182,1732083688.103705,99.000000,0.000000,4292.051270,4285.000000,4322.948730,4310.641113,4313.846191,4313.589844,4325.128418,4330.769043,4314.487305,4306.410156,4454.743652,4481.922852,4346.538574,4385.769043,1519.000000,0.000000,5.000000,,,,0.000000,2.000000,2.000000,0.000000,2.000000,2.000000,2.000000,0.000000,2.000000,4.000000,4.000000,4.000000,4.000000,2.000000,4.000000,16.666666,,,,,,,,,,,,,,,,,,,,,,,,,,,,
1732083688.109990,1732083688.111613,100.000000,0.000000,4296.922852,4285.000000,4322.179688,4312.307617,4291.153809,4312.179688,4327.563965,4336.282227,4316.538574,4300.256348,4453.205078,4483.205078,4347.051270,4387.179688,1741.000000,0.000000,5.000000,,,,0.000000,2.000000,2.000000,0.000000,2.000000,2.000000,2.000000,0.000000,2.000000,4.000000,4.000000,4.000000,4.000000,2.000000,4.000000,16.666666,,,,,,,,,,,,,,,,,25.000000,0.000000,0.544454,0.335510,-0.653076,0.405579,0.964962,-0.157246,-0.079600,-81.239204,46.064110,23.300882
1732083688.117799,1732083688.119421,101.000000,0.000000,4296.410156,4282.820313,4322.436035,4310.128418,4298.974121,4311.025879,4326.538574,4335.641113,4318.461426,4305.641113,4452.307617,4481.282227,4348.974121,4387.692383,1556.000000,0.000000,5.000000,,,,0.000000,2.000000,2.000000,0.000000,2.000000,2.000000,2.000000,0.000000,2.000000,4.000000,4.000000,4.000000,4.000000,2.000000,4.000000,16.666666,,,,,,,,,,,,,,,,,,,,,,,,,,,,
1732083688.125607,1732083688.127429,102.000000,0.000000,4291.922852,4281.410156,4324.102539,4310.384766,4309.615234,4310.256348,4324.230957,4332.820313,4318.717773,4308.077148,4450.897461,4476.153809,4346.282227,4382.563965,1382.000000,0.000000,5.000000,,,,0.000000,2.000000,2.000000,0.000000,2.000000,2.000000,2.000000,0.000000,2.000000,4.000000,4.000000,4.000000,4.000000,2.000000,4.000000,16.666666,,,,,,,,,,,,,,,,,,,,,,,,,,,,
1732083688.133415,1732083688.135237,103.000000,0.000000,4290.769043,4281.922852,4323.846191,4311.794922,4298.333496,4305.512695,4324.102539,4330.769043,4318.589844,4309.358887,4452.563965,4478.205078,4347.179688,4382.307617,1519.000000,0.000000,5.000000,,,,0.000000,2.000000,2.000000,0.000000,2.000000,2.000000,2.000000,0.000000,2.000000,4.000000,4.000000,4.000000,4.000000,2.000000,4.000000,16.666666,,,,,,,,,,,,,,,,,,,,,,,,,,,,
1732083688.141224,1732083688.143145,104.000000,0.000000,4294.358887,4285.384766,4322.051270,4310.897461,4306.025879,4306.153809,4325.128418,4332.563965,4320.641113,4314.358887,4456.410156,4480.256348,4350.641113,4385.384766,1741.000000,0.000000,5.000000,,,,0.000000,2.000000,2.000000,0.000000,2.000000,2.000000,2.000000,0.000000,2.000000,4.000000,4.000000,4.000000,4.000000,2.000000,4.000000,16.666666,,,,,,,,,,,,,,,,,26.000000,0.000000,0.545064,0.335999,-0.652771,0.404846,0.960566,-0.141619,-0.080576,-81.385422,45.956932,23.542048
1732083688.149032,1732083688.150953,105.000000,0.000000,4291.922852,4285.769043,4321.410156,4311.410156,4322.820313,4311.282227,4325.000000,4334.871582,4320.000000,4308.589844,4453.461426,4474.871582,4348.717773,4381.666504,1556.000000,0.000000,5.000000,,,,0.000000,2.000000,2.000000,0.000000,2.000000,2.000000,2.000000,0.000000,2.000000,4.000000,4.000000,4.000000,4.000000,2.000000,4.000000,16.666666,,,,,,,,,,,,,,,,,,,,,,,,,,,,
1732083688.156840,1732083688.158961,106.000000,0.000000,4286.666504,4284.358887,4321.153809,4313.461426,4308.205078,4316.153809,4325.897461,4333.461426,4314.743652,4300.128418,4447.051270,4468.205078,4345.128418,4377.179688,1382.000000,0.000000,5.000000,,,,0.000000,2.000000,2.000000,0.000000,2.000000,2.000000,2.000000,0.000000,2.000000,4.000000,4.000000,4.000000,4.000000,2.000000,4.000000,16.666666,,,,,,,,,,,,,,,,,,,,,,,,,,,,
1732083688.164648,1732083688.166770,107.000000,0.000000,4287.692383,4283.461426,4322.051270,4311.922852,4293.589844,4318.077148,4326.025879,4337.307617,4314.871582,4303.846191,4447.820313,4470.256348,4344.871582,4381.282227,1519.000000,0.000000,5.000000,,,,0.000000,2.000000,2.000000,0.000000,2.000000,2.000000,2.000000,0.000000,2.000000,4.000000,4.000000,4.000000,4.000000,2.000000,4.000000,16.666666,,,,,,,,,,,,,,,,,,,,,,,,,,,,
1732083688.172457,1732083688.174678,108.000000,0.000000,4288.974121,4282.436035,4320.512695,4312.307617,4302.948730,4315.000000,4328.461426,4340.641113,4318.333496,4305.641113,4448.846191,4476.538574,4343.974121,4385.769043,1741.000000,0.000000,5.000000,,,,0.000000,2.000000,2.000000,0.000000,2.000000,2.000000,2.000000,0.000000,2.000000,4.000000,4.000000,4.000000,4.000000,2.000000,4.000000,16.666666,,,,,,,,,,,,,,,,,27.000000,0.000000,0.545375,0.336426,-0.652405,0.404663,0.960078,-0.145526,-0.075204,-81.470528,45.870113,23.737392
1732083688.180265,1732083688.182486,109.000000,0.000000,4290.897461,4283.717773,4321.282227,4317.692383,4308.974121,4312.307617,4326.282227,4331.153809,4314.487305,4301.538574,4448.205078,4477.436035,4343.717773,4386.153809,1556.000000,0.000000,5.000000,,,,0.000000,2.000000,2.000000,0.000000,2.000000,2.000000,2.000000,0.000000,2.000000,4.000000,4.000000,4.000000,4.000000,2.000000,4.000000,16.666666,,,,,,,,,,,,,,,,,,,,,,,,,,,,
1732083688.188073,1732083688.190494,110.000000,0.000000,4290.897461,4284.871582,4321.410156,4317.692383,4302.179688,4312.436035,4324.743652,4336.410156,4314.871582,4300.769043,4447.051270,4473.717773,4343.077148,4380.897461,1382.000000,0.000000,5.000000,,,,0.000000,2.000000,2.000000,0.000000,2.000000,2.000000,2.000000,0.000000,2.000000,4.000000,4.000000,4.000000,4.000000,2.000000,4.000000,16.666666,,,,,,,,,,,,,,,,,,,,,,,,,,,,
1732083688.195881,1732083688.198302,111.000000,0.000000,4284.615234,4282.436035,4320.384766,4311.153809,4301.153809,4313.589844,4324.230957,4352.307617,4322.307617,4300.256348,4444.358887,4470.256348,4339.743652,4373.205078,1519.000000,0.000000,5.000000,,,,0.000000,2.000000,2.000000,0.000000,2.000000,2.000000,2.000000,0.000000,2.000000,4.000000,4.000000,4.000000,4.000000,2.000000,4.000000,16.666666,,,,,,,,,,,,,,,,,,,,,,,,,,,,
1732083688.203690,1732083688.206210,112.000000,0.000000,4284.487305,4285.897461,4323.717773,4310.641113,4305.384766,4311.410156,4324.358887,4335.256348,4317.820313,4302.179688,4443.205078,4470.384766,4341.410156,4377.436035,1741.000000,0.000000,5.000000,,,,0.000000,2.000000,2.000000,0.000000,2.000000,2.000000,2.000000,0.000000,2.000000,4.000000,4.000000,4.000000,4.000000,2.000000,4.000000,16.666666,,,,,,,,,,,,,,,,,28.000000,0.000000,0.545659,0.336731,-0.652161,0.404419,0.960078,-0.145526,-0.075204,-81.412796,45.768124,23.502289
1732083688.211498,1732083688.214018,113.000000,0.000000,4295.128418,4293.974121,4325.512695,4317.179688,4306.153809,4303.717773,4322.563965,4309.230957,4309.230957,4304.487305,4446.282227,4474.487305,4350.000000,4391.538574,1556.000000,0.000000,5.000000,,,,0.000000,2.000000,2.000000,0.000000,2.000000,2.000000,2.000000,0.000000,2.000000,4.000000,4.000000,4.000000,4.000000,2.000000,4.000000,16.666666,,,,,,,,,,,,,,,,,,,,,,,,,,,,
1732083688.219306,1732083688.222026,114.000000,0.000000,4300.641113,4297.179688,4323.589844,4318.077148,4300.256348,4300.000000,4322.820313,4313.333496,4308.461426,4303.077148,4448.077148,4474.358887,4353.589844,4394.615234,1382.000000,0.000000,5.000000,,,,0.000000,2.000000,2.000000,0.000000,2.000000,2.000000,2.000000,0.000000,2.000000,4.000000,4.000000,4.000000,4.000000,2.000000,4.000000,16.666666,,,,,,,,,,,,,,,,,,,,,,,,,,,,
1732083688.227115,1732083688.229835,115.000000,0.000000,4295.512695,4295.128418,4323.333496,4312.051270,4301.922852,4309.102539,4324.358887,4329.871582,4312.179688,4305.512695,4444.487305,4468.974121,4349.615234,4388.077148,1519.000000,0.000000,5.000000,,,,0.000000,2.000000,2.000000,0.000000,2.000000,2.000000,2.000000,0.000000,2.000000,4.000000,4.000000,4.000000,4.000000,2.000000,4.000000,16.666666,,,,,,,,,,,,,,,,,,,,,,,,,,,,
1732083688.234923,1732083688.237543,116.000000,0.000000,4288.846191,4288.846191,4324.871582,4308.077148,4316.282227,4315.128418,4325.641113,4339.743652,4315.384766,4302.436035,4443.846191,4467.948730,4345.384766,4384.871582,1741.000000,0.000000,5.000000,,,,0.000000,2.000000,2.000000,0.000000,2.000000,2.000000,2.000000,0.000000,2.000000,4.000000,4.000000,4.000000,4.000000,2.000000,4.000000,16.666666,,,,,,,,,,,,,,,,,29.000000,0.000000,0.546292,0.337280,-0.651611,0.403992,0.968380,-0.142107,-0.083506,-81.472694,45.730515,23.351852
1732083688.242731,1732083688.245351,117.000000,0.000000,4287.692383,4287.051270,4321.538574,4313.205078,4312.307617,4311.666504,4322.563965,4338.333496,4313.846191,4292.307617,4444.102539,4472.307617,4344.871582,4387.436035,1556.000000,0.000000,5.000000,,,,0.000000,2.000000,2.000000,0.000000,2.000000,2.000000,2.000000,0.000000,2.000000,4.000000,4.000000,4.000000,4.000000,2.000000,4.000000,16.666666,,,,,,,,,,,,,,,,,,,,,,,,,,,,
1732083688.250539,1732083688.252960,118.000000,0.000000,4292.179688,4296.153809,4322.179688,4317.820313,4294.743652,4311.666504,4320.769043,4327.436035,4309.871582,4297.179688,4443.333496,4470.000000,4346.538574,4388.461426,1382.000000,0.000000,5.000000,,,,0.000000,2.000000,2.000000,0.000000,2.000000,2.000000,2.000000,0.000000,2.000000,4.000000,4.000000,4.000000,4.000000,2.000000,4.000000,16.666666,,,,,,,,,,,,,,,,,,,,,,,,,,,,
1732083688.258348,1732083688.260768,119.000000,0.000000,4296.538574,4297.692383,4325.384766,4313.333496,4294.871582,4314.743652,4325.256348,4323.333496,4310.384766,4308.461426,4442.051270,4468.333496,4347.436035,4385.384766,1519.000000,0.000000,5.000000,,,,0.000000,2.000000,2.000000,0.000000,2.000000,2.000000,2.000000,0.000000,2.000000,4.000000,4.000000,4.000000,4.000000,2.000000,4.000000,16.666666,,,,,,,,,,,,,,,,,,,,,,,,,,,,
1732083688.266156,1732083688.268476,120.000000,0.000000,4294.871582,4285.256348,4324.230957,4310.384766,4300.128418,4313.461426,4326.153809,4332.692383,4317.436035,4309.358887,4442.179688,4478.461426,4348.846191,4382.820313,1741.000000,0.000000,5.000000,,,,0.000000,2.000000,2.000000,0.000000,2.000000,2.000000,2.000000,0.000000,2.000000,4.000000,4.000000,4.000000,4.000000,2.000000,4.000000,16.666666,,,,,,,,,,,,,,,,,30.000000,0.000000,0.546641,0.337524,-0.651306,0.403809,0.965938,-0.130387,-0.083506,-81.531219,45.838383,23.328335
1732083688.273964,1732083688.276284,121.000000,0.000000,4290.384766,4280.769043,4320.897461,4311.282227,4294.102539,4307.436035,4324.102539,4340.512695,4324.358887,4310.641113,4449.615234,4481.410156,4351.282227,4384.615234,1556.000000,0.000000,5.000000,,,,0.000000,2.000000,2.000000,0.000000,2.000000,2.000000,2.000000,0.000000,2.000000,4.000000,4.000000,4.000000,4.000000,2.000000,4.000000,16.666666,,,,,,,,,,,,,,,,,,,,,,,,,,,,
1732083688.281772,1732083688.283893,122.000000,0.000000,4287.436035,4285.256348,4320.897461,4307.179688,4295.897461,4304.487305,4325.384766,4342.307617,4326.025879,4316.282227,4455.641113,4475.384766,4351.538574,4385.769043,1382.000000,0.000000,5.000000,,,,0.000000,2.000000,2.000000,0.000000,2.000000,2.000000,2.000000,0.000000,2.000000,4.000000,4.000000,4.000000,4.000000,2.000000,4.000000,16.666666,,,,,,,,,,,,,,,,,,,,,,,,,,,,
1732083688.289581,1732083688.291701,123.000000,0.000000,4285.641113,4284.230957,4323.717773,4305.641113,4298.846191,4306.922852,4326.922852,4335.000000,4321.282227,4315.384766,4450.128418,4473.974121,4350.000000,4384.358887,1519.000000,0.000000,5.000000,,,,0.000000,2.000000,2.000000,0.000000,2.000000,2.000000,2.000000,0.000000,2.000000,4.000000,4.000000,4.000000,4.000000,2.000000,4.000000,16.666666,,,,,,,,,,,,,,,,,,,,,,,,,,,,
1732083688.297389,1732083688.299409,124.000000,0.000000,4288.717773,4281.922852,4324.102539,4310.128418,4294.102539,4303.205078,4322.179688,4318.717773,4313.589844,4312.179688,4444.358887,4475.256348,4351.794922,4388.974121,1741.000000,0.000000,5.000000,,,,0.000000,2.000000,2.000000,0.000000,2.000000,2.000000,2.000000,0.000000,2.000000,4.000000,4.000000,4.000000,4.000000,2.000000,4.000000,16.666666,,,,,,,,,,,,,,,,,31.000000,0.000000,0.546949,0.337524,-0.651123,0.403687,0.960078,-0.142107,-0.081065,-81.388618,45.895756,23.314283
1732083688.305197,1732083688.307217,125.000000,0.000000,4289.102539,4281.922852,4322.692383,4306.794922,4303.846191,4295.897461,4320.769043,4317.563965,4311.153809,4308.461426,4446.282227,4472.820313,4350.000000,4391.666504,1556.000000,0.000000,5.000000,,,,0.000000,2.000000,2.000000,0.000000,2.000000,2.000000,2.000000,0.000000,2.000000,4.000000,4.000000,4.000000,4.000000,2.000000,4.000000,16.666666,,,,,,,,,,,,,,,,,,,,,,,,,,,,
1732083688.313005,1732083688.314826,126.000000,0.000000,4288.846191,4282.692383,4322.179688,4303.333496,4310.256348,4302.692383,4322.436035,4333.717773,4315.641113,4303.717773,4446.153809,4477.948730,4344.230957,4388.077148,1382.000000,0.000000,5.000000,,,,0.000000,2.000000,2.000000,0.000000,2.000000,2.000000,2.000000,0.000000,2.000000,4.000000,4.000000,4.000000,4.000000,2.000000,4.000000,16.666666,,,,,,,,,,,,,,,,,,,,,,,,,,,,
1732083688.320814,1732083688.322634,127.000000,0.000000,4293.846191,4283.846191,4323.205078,4312.179688,4296.538574,4314.743652,4324.487305,4336.922852,4317.948730,4301.538574,4443.717773,4483.077148,4342.820313,4387.307617,5.000000,0.000000,5.000000,,,,0.000000,2.000000,2.000000,0.000000,2.000000,2.000000,2.000000,0.000000,2.000000,4.000000,4.000000,4.000000,4.000000,2.000000,4.000000,16.666666,,,,,,,,,,,,,,,,,,,,,,,,,,,,
1732083688.328622,1732083688.330342,0.000000,0.000000,4295.897461,4283.846191,4323.077148,4312.436035,4288.717773,4310.512695,4322.051270,4321.282227,4310.897461,4304.871582,4443.333496,4475.000000,4344.487305,4389.230957,0.000000,0.000000,5.000000,,,,0.000000,2.000000,2.000000,0.000000,2.000000,2.000000,2.000000,0.000000,2.000000,4.000000,4.000000,4.000000,4.000000,2.000000,4.000000,16.666666,,,,,,,,,,,,,,,,,0.000000,0.000000,0.547049,0.337524,-0.651001,0.403748,0.970822,-0.155292,-0.074228,-81.409782,46.263897,23.381237
1732083688.336430,1732083688.338151,1.000000,0.000000,4293.717773,4280.641113,4322.436035,4302.948730,4296.538574,4302.820313,4321.153809,4316.666504,4303.589844,4300.769043,4440.256348,4466.410156,4341.282227,4383.461426,1327.000000,0.000000,5.000000,,,,0.000000,2.000000,2.000000,0.000000,2.000000,2.000000,2.000000,0.000000,2.000000,4.000000,4.000000,4.000000,4.000000,2.000000,4.000000,16.666666,,,,,,,,,,,,,,,,,,,,,,,,,,,,
1732083688.344238,1732083688.346159,2.000000,0.000000,4292.307617,4280.256348,4323.205078,4303.717773,4300.000000,4309.743652,4324.358887,4331.153809,4308.974121,4288.974121,4438.717773,4468.461426,4337.436035,4375.641113,1245.000000,0.000000,5.000000,,,,0.000000,2.000000,2.000000,0.000000,2.000000,2.000000,2.000000,0.000000,2.000000,4.000000,4.000000,4.000000,4.000000,2.000000,4.000000,16.666666,,,,,,,,,,,,,,,,,,,,,,,,,,,,
1732083688.352047,1732083688.353967,3.000000,0.000000,4290.384766,4282.692383,4321.410156,4306.153809,4292.948730,4311.538574,4328.461426,4339.615234,4315.769043,4292.948730,4442.179688,4471.666504,4338.333496,4379.230957,1209.000000,0.000000,5.000000,,,,0.000000,2.000000,2.000000,0.000000,2.000000,2.000000,2.000000,0.000000,2.000000,4.000000,4.000000,4.000000,4.000000,2.000000,4.000000,16.666666,,,,,,,,,,,,,,,,,,,,,,,,,,,,
1732083688.359855,1732083688.361675,4.000000,0.000000,4286.538574,4280.512695,4318.974121,4300.128418,4295.769043,4298.205078,4324.615234,4331.922852,4314.230957,4308.077148,4443.846191,4470.000000,4339.358887,4383.205078,1205.000000,0.000000,5.000000,,,,0.000000,2.000000,2.000000,0.000000,2.000000,2.000000,2.000000,0.000000,2.000000,4.000000,4.000000,4.000000,4.000000,2.000000,4.000000,16.666666,,,,,,,,,,,,,,,,,1.000000,0.000000,0.548073,0.336670,-0.650696,0.403564,0.958613,-0.146502,-0.072763,-81.401924,46.112091,23.447136
1732083688.367663,1732083688.369483,5.000000,0.000000,4290.256348,4279.615234,4319.871582,4298.077148,4307.820313,4294.871582,4321.282227,4324.487305,4311.025879,4308.205078,4444.615234,4467.307617,4340.256348,4383.333496,1078.000000,0.000000,5.000000,,,,0.000000,2.000000,2.000000,0.000000,2.000000,2.000000,2.000000,0.000000,2.000000,4.000000,4.000000,4.000000,4.000000,2.000000,4.000000,16.666666,,,,,,,,,,,,,,,,,,,,,,,,,,,,
1732083688.375471,1732083688.377092,6.000000,0.000000,4294.743652,4282.436035,4321.410156,4304.871582,4306.025879,4303.077148,4324.487305,4328.077148,4312.563965,4303.461426,4446.922852,4469.743652,4342.307617,4382.563965,0.000000,0.000000,5.000000,,,,0.000000,2.000000,2.000000,0.000000,2.000000,2.000000,2.000000,0.000000,2.000000,4.000000,4.000000,4.000000,4.000000,2.000000,4.000000,16.666666,,,,,,,,,,,,,,,,,,,,,,,,,,,,
1732083688.383280,1732083688.384900,7.000000,0.000000,4293.461426,4282.820313,4322.307617,4310.769043,4291.282227,4305.769043,4326.794922,4336.666504,4317.436035,4307.692383,4447.307617,4471.922852,4341.794922,4381.794922,1163.000000,0.000000,5.000000,,,,0.000000,2.000000,2.000000,0.000000,2.000000,2.000000,2.000000,0.000000,2.000000,4.000000,4.000000,4.000000,4.000000,2.000000,4.000000,16.666666,,,,,,,,,,,,,,,,,,,,,,,,,,,,
1732083688.391088,1732083688.392808,8.000000,0.000000,4293.461426,4282.307617,4323.077148,4311.025879,4290.000000,4308.717773,4324.230957,4337.307617,4317.051270,4304.230957,4445.256348,4467.948730,4339.487305,4382.307617,1361.000000,0.000000,5.000000,,,,0.000000,2.000000,2.000000,0.000000,2.000000,2.000000,2.000000,0.000000,2.000000,4.000000,4.000000,4.000000,4.000000,2.000000,4.000000,16.666666,,,,,,,,,,,,,,,,,2.000000,0.000000,0.548523,0.336365,-0.650513,0.403503,0.966427,-0.144549,-0.066414,-81.462227,45.960793,23.567179
1732083688.398896,1732083688.400616,9.000000,0.000000,4292.179688,4283.846191,4323.717773,4309.102539,4298.974121,4312.051270,4321.666504,4329.487305,4311.153809,4297.436035,4443.077148,4460.641113,4339.871582,4380.000000,1514.000000,0.000000,5.000000,,,,0.000000,2.000000,2.000000,0.000000,2.000000,2.000000,2.000000,0.000000,2.000000,4.000000,4.000000,4.000000,4.000000,2.000000,4.000000,16.666666,,,,,,,,,,,,,,,,,,,,,,,,,,,,
1732083688.406705,1732083688.408624,10.000000,0.000000,4290.384766,4287.948730,4321.538574,4308.717773,4296.153809,4308.589844,4326.282227,4330.384766,4314.102539,4300.769043,4443.717773,4459.230957,4341.922852,4374.230957,1382.000000,0.000000,5.000000,,,,0.000000,2.000000,2.000000,0.000000,2.000000,2.000000,2.000000,0.000000,2.000000,4.000000,4.000000,4.000000,4.000000,2.000000,4.000000,16.666666,,,,,,,,,,,,,,,,,,,,,,,,,,,,
1732083688.414513,1732083688.416432,11.000000,0.000000,4291.410156,4288.846191,4319.102539,4310.769043,4293.974121,4302.436035,4325.384766,4335.769043,4319.743652,4300.512695,4441.153809,4463.333496,4338.077148,4374.358887,1519.000000,0.000000,5.000000,,,,0.000000,2.000000,2.000000,0.000000,2.000000,2.000000,2.000000,0.000000,2.000000,4.000000,4.000000,4.000000,4.000000,2.000000,4.000000,16.666666,,,,,,,,,,,,,,,,,,,,,,,,,,,,
1732083688.422321,1732083688.424141,12.000000,0.000000,4290.128418,4284.615234,4319.615234,4309.743652,4296.282227,4297.436035,4321.410156,4330.641113,4310.256348,4293.717773,4435.897461,4466.025879,4332.948730,4381.025879,1743.000000,0.000000,5.000000,,,,0.000000,2.000000,2.000000,0.000000,2.000000,2.000000,2.000000,0.000000,2.000000,4.000000,4.000000,4.000000,4.000000,2.000000,4.000000,16.666666,,,,,,,,,,,,,,,,,3.000000,0.000000,0.548523,0.336365,-0.650513,0.403503,0.977658,-0.144549,-0.074716,-81.511070,46.033241,23.619415
1732083688.430129,1732083688.431949,13.000000,0.000000,4293.333496,4285.384766,4323.717773,4310.128418,4290.256348,4298.974121,4321.410156,4324.743652,4305.384766,4296.538574,4439.102539,4470.897461,4336.282227,4383.461426,1546.000000,0.000000,5.000000,,,,0.000000,2.000000,2.000000,0.000000,2.000000,2.000000,2.000000,0.000000,2.000000,4.000000,4.000000,4.000000,4.000000,2.000000,4.000000,16.666666,,,,,,,,,,,,,,,,,,,,,,,,,,,,
1732083688.437938,1732083688.439957,14.000000,0.000000,4298.333496,4291.794922,4325.512695,4311.922852,4298.333496,4303.205078,4324.487305,4330.384766,4313.974121,4306.794922,4446.922852,4473.846191,4339.871582,4382.563965,1382.000000,0.000000,5.000000,,,,0.000000,2.000000,2.000000,0.000000,2.000000,2.000000,2.000000,0.000000,2.000000,4.000000,4.000000,4.000000,4.000000,2.000000,4.000000,16.666666,1.000000,16.666666,2.000000,2.000000,0.000000,2.000000,2.000000,2.000000,0.000000,2.000000,4.000000,4.000000,4.000000,4.000000,2.000000,4.000000,,,,,,,,,,,,
1732083688.445746,1732083688.447765,15.000000,0.000000,4296.025879,4292.948730,4321.538574,4311.538574,4313.589844,4300.256348,4322.563965,4337.820313,4314.230957,4310.000000,4446.794922,4471.282227,4335.641113,4384.871582,1519.000000,0.000000,5.000000,,,,0.000000,2.000000,2.000000,0.000000,2.000000,2.000000,2.000000,0.000000,2.000000,4.000000,4.000000,4.000000,4.000000,2.000000,4.000000,16.666666,,,,,,,,,,,,,,,,,,,,,,,,,,,,
1732083688.453554,1732083688.455673,16.000000,0.000000,4294.487305,4292.948730,4321.025879,4311.282227,4298.589844,4300.128418,4321.922852,4332.307617,4308.077148,4302.179688,4443.077148,4469.487305,4334.743652,4387.948730,0.000000,0.000000,5.000000,,,,0.000000,2.000000,2.000000,0.000000,2.000000,2.000000,2.000000,0.000000,2.000000,4.000000,4.000000,4.000000,4.000000,2.000000,4.000000,16.666666,,,,,,,,,,,,,,,,,4.000000,0.000000,0.549118,0.335999,-0.650085,0.403687,0.969845,-0.156269,-0.067391,-81.628967,45.955261,23.720060
1732083688.461362,1732083688.463481,17.000000,0.000000,4297.820313,4292.179688,4325.000000,4312.051270,4277.051270,4304.487305,4321.410156,4325.641113,4308.333496,4294.487305,4445.641113,4470.897461,4340.641113,4387.820313,0.000000,0.000000,5.000000,,,,0.000000,2.000000,2.000000,0.000000,2.000000,2.000000,2.000000,0.000000,2.000000,4.000000,4.000000,4.000000,4.000000,2.000000,4.000000,16.666666,,,,,,,,,,,,,,,,,,,,,,,,,,,,
1732083688.469171,1732083688.471489,18.000000,0.000000,4295.512695,4284.615234,4324.102539,4307.692383,4286.410156,4302.179688,4323.717773,4327.948730,4311.538574,4299.230957,4445.769043,4470.512695,4340.256348,4384.487305,0.000000,0.000000,5.000000,,,,0.000000,2.000000,2.000000,0.000000,2.000000,2.000000,2.000000,0.000000,2.000000,4.000000,4.000000,4.000000,4.000000,2.000000,4.000000,16.666666,,,,,,,,,,,,,,,,,,,,,,,,,,,,
1732083688.476979,1732083688.479298,19.000000,0.000000,4293.333496,4281.794922,4319.230957,4304.230957,4299.230957,4300.641113,4328.205078,4335.128418,4315.641113,4309.743652,4441.666504,4470.512695,4336.282227,4384.743652,0.000000,0.000000,5.000000,,,,0.000000,2.000000,2.000000,0.000000,2.000000,2.000000,2.000000,0.000000,2.000000,4.000000,4.000000,4.000000,4.000000,2.000000,4.000000,16.666666,,,,,,,,,,,,,,,,,,,,,,,,,,,,
1732083688.484787,1732083688.487206,20.000000,0.000000,4298.333496,4288.077148,4320.512695,4310.128418,4292.563965,4304.487305,4327.436035,4338.717773,4319.102539,4308.461426,4442.179688,4473.077148,4335.641113,4387.820313,0.000000,0.000000,5.000000,,,,0.000000,2.000000,2.000000,0.000000,2.000000,2.000000,2.000000,0.000000,2.000000,4.000000,4.000000,4.000000,4.000000,2.000000,4.000000,16.666666,,,,,,,,,,,,,,,,,5.000000,0.000000,0.549464,0.335388,-0.650146,0.403625,0.972775,-0.140642,-0.061043,-81.537796,45.925426,23.759914
1732083688.492596,1732083688.495014,21.000000,0.000000,4297.692383,4291.538574,4324.230957,4313.205078,4291.922852,4304.358887,4321.922852,4332.051270,4314.102539,4297.563965,4443.974121,4470.897461,4334.230957,4383.333496,0.000000,0.000000,5.000000,,,,0.000000,2.000000,2.000000,0.000000,2.000000,2.000000,2.000000,0.000000,2.000000,4.000000,4.000000,4.000000,4.000000,2.000000,4.000000,16.666666,,,,,,,,,,,,,,,,,,,,,,,,,,,,
1732083688.500404,1732083688.503022,22.000000,0.000000,4294.102539,4293.077148,4322.436035,4310.128418,4297.307617,4303.333496,4321.538574,4324.871582,4308.974121,4292.563965,4438.333496,4465.897461,4332.051270,4377.563965,0.000000,0.000000,5.000000,,,,0.000000,2.000000,2.000000,0.000000,2.000000,2.000000,2.000000,0.000000,2.000000,4.000000,4.000000,4.000000,4.000000,2.000000,4.000000,16.666666,,,,,,,,,,,,,,,,,,,,,,,,,,,,
1732083688.508212,1732083688.510830,23.000000,0.000000,4297.692383,4295.512695,4319.615234,4311.025879,4295.769043,4302.820313,4324.358887,4328.974121,4311.410156,4299.358887,4434.358887,4468.589844,4333.846191,4378.589844,0.000000,0.000000,5.000000,,,,0.000000,2.000000,2.000000,0.000000,2.000000,2.000000,2.000000,0.000000,2.000000,4.000000,4.000000,4.000000,4.000000,2.000000,4.000000,16.666666,,,,,,,,,,,,,,,,,,,,,,,,,,,,
1732083688.516020,1732083688.518738,24.000000,0.000000,4296.410156,4295.641113,4320.641113,4313.205078,4297.179688,4300.256348,4324.871582,4336.153809,4315.256348,4306.025879,4440.512695,4473.589844,4335.897461,4381.025879,0.000000,0.000000,5.000000,,,,0.000000,2.000000,2.000000,0.000000,2.000000,2.000000,2.000000,0.000000,2.000000,4.000000,4.000000,4.000000,4.000000,2.000000,4.000000,16.666666,,,,,,,,,,,,,,,,,6.000000,0.000000,0.549399,0.335510,-0.650024,0.403809,0.966915,-0.153339,-0.069833,-81.470612,46.182930,23.652199
1732083688.523829,1732083688.526547,25.000000,0.000000,4287.563965,4293.846191,4319.743652,4311.666504,4298.974121,4306.282227,4327.692383,4334.230957,4314.358887,4302.948730,4444.358887,4471.794922,4334.102539,4380.384766,0.000000,0.000000,5.000000,,,,0.000000,2.000000,2.000000,0.000000,2.000000,2.000000,2.000000,0.000000,2.000000,4.000000,4.000000,4.000000,4.000000,2.000000,4.000000,16.666666,,,,,,,,,,,,,,,,,,,,,,,,,,,,
1732083688.531637,1732083688.534555,26.000000,0.000000,4285.769043,4287.820313,4319.102539,4310.512695,4292.563965,4309.615234,4326.794922,4333.205078,4311.025879,4302.948730,4442.179688,4475.512695,4336.153809,4381.153809,0.000000,0.000000,5.000000,,,,0.000000,2.000000,2.000000,0.000000,2.000000,2.000000,2.000000,0.000000,2.000000,4.000000,4.000000,4.000000,4.000000,2.000000,4.000000,16.666666,,,,,,,,,,,,,,,,,,,,,,,,,,,,
1732083688.539445,1732083688.542363,27.000000,0.000000,4285.897461,4278.717773,4320.256348,4307.563965,4295.384766,4300.897461,4322.948730,4336.666504,4311.794922,4305.256348,4440.128418,4480.641113,4335.897461,4380.256348,0.000000,0.000000,5.000000,,,,0.000000,2.000000,2.000000,0.000000,2.000000,2.000000,2.000000,0.000000,2.000000,4.000000,4.000000,4.000000,4.000000,2.000000,4.000000,16.666666,,,,,,,,,,,,,,,,,,,,,,,,,,,,
1732083688.547253,1732083688.550071,28.000000,0.000000,4281.538574,4278.333496,4317.820313,4305.512695,4304.615234,4295.769043,4320.897461,4331.153809,4312.820313,4298.077148,4436.282227,4474.358887,4327.563965,4378.333496,0.000000,0.000000,5.000000,,,,0.000000,2.000000,2.000000,0.000000,2.000000,2.000000,2.000000,0.000000,2.000000,4.000000,4.000000,4.000000,4.000000,2.000000,4.000000,16.666666,,,,,,,,,,,,,,,,,7.000000,0.000000,0.549491,0.335388,-0.650085,0.403687,0.966915,-0.153339,-0.069833,-81.286194,46.116505,23.876614
1732083688.555062,1732083688.557879,29.000000,0.000000,4282.179688,4282.692383,4315.769043,4308.974121,4293.717773,4298.205078,4325.128418,4322.436035,4307.307617,4290.000000,4431.666504,4470.128418,4324.615234,4381.794922,0.000000,0.000000,5.000000,,,,0.000000,2.000000,2.000000,0.000000,2.000000,2.000000,2.000000,0.000000,2.000000,4.000000,4.000000,4.000000,4.000000,2.000000,4.000000,16.666666,,,,,,,,,,,,,,,,,,,,,,,,,,,,
1732083688.562870,1732083688.565488,30.000000,0.000000,4283.461426,4282.563965,4320.384766,4312.179688,4281.666504,4297.692383,4325.769043,4326.410156,4305.897461,4289.743652,4435.769043,4475.641113,4328.205078,4383.589844,0.000000,0.000000,5.000000,,,,0.000000,2.000000,2.000000,0.000000,2.000000,2.000000,2.000000,0.000000,2.000000,4.000000,4.000000,4.000000,4.000000,2.000000,4.000000,16.666666,,,,,,,,,,,,,,,,,,,,,,,,,,,,
1732083688.570678,1732083688.573296,31.000000,0.000000,4279.487305,4279.487305,4325.128418,4310.897461,4292.307617,4296.538574,4326.153809,4337.179688,4311.666504,4293.205078,4441.538574,4476.410156,4327.436035,4381.410156,0.000000,0.000000,5.000000,,,,0.000000,2.000000,2.000000,0.000000,2.000000,2.000000,2.000000,0.000000,2.000000,4.000000,4.000000,4.000000,4.000000,2.000000,4.000000,16.666666,,,,,,,,,,,,,,,,,,,,,,,,,,,,
1732083688.578486,1732083688.581004,32.000000,0.000000,4283.461426,4282.051270,4323.205078,4311.538574,4302.179688,4298.846191,4324.358887,4337.563965,4312.436035,4296.025879,4442.051270,4479.230957,4327.563965,4384.615234,0.000000,0.000000,5.000000,,,,0.000000,2.000000,2.000000,0.000000,2.000000,2.000000,2.000000,0.000000,2.000000,4.000000,4.000000,4.000000,4.000000,2.000000,4.000000,16.666666,,,,,,,,,,,,,,,,,8.000000,0.000000,0.549317,0.335571,-0.650024,0.403870,0.978635,-0.161641,-0.069344,-81.408485,46.051037,23.836723
1732083688.586295,1732083688.588812,33.000000,0.000000,4294.230957,4292.436035,4322.948730,4312.820313,4293.717773,4298.077148,4323.717773,4330.000000,4309.615234,4296.025879,4443.333496,4485.897461,4334.615234,4390.512695,0.000000,0.000000,5.000000,,,,0.000000,2.000000,2.000000,0.000000,2.000000,2.000000,2.000000,0.000000,2.000000,4.000000,4.000000,4.000000,4.000000,2.000000,4.000000,16.666666,,,,,,,,,,,,,,,,,,,,,,,,,,,,
