title:nine, start timestamp:1732081986.977431, stop timestamp:1732082019.147457, headset type:EPOCX, headset serial:E5020C3A, headset firmware:730, channels:67, sampling rate:eeg_128;mot_32, samples:4121      , version:2.2, 
Timestamp,OriginalTimestamp,EEG.Counter,EEG.Interpolated,EEG.AF3,EEG.F7,EEG.F3,EEG.FC5,EEG.T7,EEG.P7,EEG.O1,EEG.O2,EEG.P8,EEG.T8,EEG.FC6,EEG.F4,EEG.F8,EEG.AF4,EEG.RawCq,EEG.Battery,EEG.BatteryPercent,MarkerIndex,MarkerType,MarkerValueInt,EEG.MarkerHardware,CQ.AF3,CQ.F7,CQ.F3,CQ.FC5,CQ.T7,CQ.P7,CQ.O1,CQ.O2,CQ.P8,CQ.T8,CQ.FC6,CQ.F4,CQ.F8,CQ.AF4,CQ.Overall,EQ.SampleRateQuality,EQ.OVERALL,EQ.AF3,EQ.F7,EQ.F3,EQ.FC5,EQ.T7,EQ.P7,EQ.O1,EQ.O2,EQ.P8,EQ.T8,EQ.FC6,EQ.F4,EQ.F8,EQ.AF4,MOT.CounterMems,MOT.InterpolatedMems,MOT.Q0,MOT.Q1,MOT.Q2,MOT.Q3,MOT.AccX,MOT.AccY,MOT.AccZ,MOT.MagX,MOT.MagY,MOT.MagZ
1732081986.977431,1732081986.979993,93.000000,0.000000,4341.922852,4326.666504,4325.256348,4338.717773,4338.589844,4335.000000,4314.743652,4356.410156,4344.743652,4333.589844,4445.769043,4465.512695,4352.563965,4403.974121,1678.000000,0.000000,11.000000,,,,0.000000,2.000000,2.000000,0.000000,2.000000,2.000000,2.000000,1.000000,2.000000,4.000000,4.000000,4.000000,4.000000,2.000000,4.000000,25.000000,,,,,,,,,,,,,,,,,,,,,,,,,,,,
1732081986.985239,1732081986.987601,94.000000,0.000000,4337.563965,4324.102539,4327.051270,4333.333496,4326.538574,4333.333496,4317.179688,4353.589844,4346.282227,4336.538574,4444.230957,4471.794922,4353.461426,4404.358887,1372.000000,0.000000,11.000000,,,,0.000000,2.000000,2.000000,0.000000,2.000000,2.000000,2.000000,1.000000,2.000000,4.000000,4.000000,4.000000,4.000000,2.000000,4.000000,25.000000,,,,,,,,,,,,,,,,,,,,,,,,,,,,
1732081986.993047,1732081986.995410,95.000000,0.000000,4334.615234,4323.974121,4323.333496,4335.641113,4331.922852,4332.692383,4317.563965,4355.384766,4348.589844,4335.256348,4442.179688,4472.179688,4354.358887,4402.948730,1492.000000,0.000000,11.000000,,,,0.000000,2.000000,2.000000,0.000000,2.000000,2.000000,2.000000,1.000000,2.000000,4.000000,4.000000,4.000000,4.000000,2.000000,4.000000,25.000000,,,,,,,,,,,,,,,,,,,,,,,,,,,,
1732081987.000856,1732081987.003118,96.000000,0.000000,4334.871582,4326.410156,4323.333496,4340.128418,4338.205078,4333.846191,4314.230957,4358.589844,4347.948730,4333.717773,4443.333496,4467.948730,4353.589844,4402.692383,1720.000000,0.000000,11.000000,,,,0.000000,2.000000,2.000000,0.000000,2.000000,2.000000,2.000000,1.000000,2.000000,4.000000,4.000000,4.000000,4.000000,2.000000,4.000000,25.000000,,,,,,,,,,,,,,,,,24.000000,0.000000,0.638511,0.403625,-0.591736,0.281494,0.966915,0.162618,-0.018557,-73.701332,68.209999,29.621664
1732081987.008664,1732081987.010926,97.000000,0.000000,4337.179688,4325.641113,4325.384766,4336.666504,4329.487305,4335.000000,4316.410156,4361.410156,4350.256348,4335.000000,4446.282227,4473.589844,4355.128418,4406.794922,1678.000000,0.000000,11.000000,,,,0.000000,2.000000,2.000000,0.000000,2.000000,2.000000,2.000000,1.000000,2.000000,4.000000,4.000000,4.000000,4.000000,2.000000,4.000000,25.000000,,,,,,,,,,,,,,,,,,,,,,,,,,,,
1732081987.016472,1732081987.018934,98.000000,0.000000,4341.410156,4322.436035,4325.769043,4330.128418,4328.461426,4333.717773,4320.256348,4362.307617,4350.769043,4334.230957,4446.410156,4479.615234,4356.153809,4407.692383,1372.000000,0.000000,11.000000,,,,0.000000,2.000000,2.000000,0.000000,2.000000,2.000000,2.000000,1.000000,2.000000,4.000000,4.000000,4.000000,4.000000,2.000000,4.000000,25.000000,,,,,,,,,,,,,,,,,,,,,,,,,,,,
1732081987.024280,1732081987.026742,99.000000,0.000000,4342.948730,4321.666504,4324.230957,4327.179688,4341.282227,4331.794922,4316.538574,4361.153809,4346.410156,4333.974121,4442.692383,4472.179688,4354.871582,4403.205078,1492.000000,0.000000,11.000000,,,,0.000000,2.000000,2.000000,0.000000,2.000000,2.000000,2.000000,1.000000,2.000000,4.000000,4.000000,4.000000,4.000000,2.000000,4.000000,25.000000,,,,,,,,,,,,,,,,,,,,,,,,,,,,
1732081987.032088,1732081987.034451,100.000000,0.000000,4339.358887,4322.179688,4323.717773,4329.358887,4337.179688,4333.717773,4316.410156,4358.846191,4346.794922,4335.641113,4443.205078,4466.025879,4354.487305,4402.179688,1720.000000,0.000000,11.000000,,,,0.000000,2.000000,2.000000,0.000000,2.000000,2.000000,2.000000,1.000000,2.000000,4.000000,4.000000,4.000000,4.000000,2.000000,4.000000,25.000000,,,,,,,,,,,,,,,,,25.000000,0.000000,0.637497,0.403992,-0.592346,0.281982,0.969357,0.167013,-0.020510,-73.869751,67.881767,29.510214
1732081987.039897,1732081987.042259,101.000000,0.000000,4335.897461,4322.307617,4323.461426,4331.538574,4321.794922,4335.641113,4321.538574,4358.717773,4349.743652,4331.153809,4447.820313,4471.025879,4356.153809,4404.743652,1678.000000,0.000000,11.000000,,,,0.000000,2.000000,2.000000,0.000000,2.000000,2.000000,2.000000,1.000000,2.000000,4.000000,4.000000,4.000000,4.000000,2.000000,4.000000,25.000000,,,,,,,,,,,,,,,,,,,,,,,,,,,,
1732081987.047705,1732081987.050267,102.000000,0.000000,4333.717773,4324.358887,4324.102539,4331.025879,4325.000000,4334.487305,4321.666504,4358.846191,4346.538574,4326.666504,4445.769043,4473.717773,4357.820313,4404.743652,1372.000000,0.000000,11.000000,,,,0.000000,2.000000,2.000000,0.000000,2.000000,2.000000,2.000000,1.000000,2.000000,4.000000,4.000000,4.000000,4.000000,2.000000,4.000000,25.000000,,,,,,,,,,,,,,,,,,,,,,,,,,,,
1732081987.055513,1732081987.058075,103.000000,0.000000,4336.153809,4325.897461,4324.743652,4332.051270,4334.358887,4334.230957,4318.717773,4357.692383,4344.358887,4328.717773,4440.897461,4471.538574,4356.922852,4401.794922,1492.000000,0.000000,11.000000,,,,0.000000,2.000000,2.000000,0.000000,2.000000,2.000000,2.000000,1.000000,2.000000,4.000000,4.000000,4.000000,4.000000,2.000000,4.000000,25.000000,,,,,,,,,,,,,,,,,,,,,,,,,,,,
1732081987.063321,1732081987.065983,104.000000,0.000000,4338.717773,4325.384766,4323.974121,4333.461426,4330.641113,4335.512695,4314.743652,4357.820313,4347.179688,4332.436035,4436.666504,4472.051270,4353.461426,4400.769043,1720.000000,0.000000,11.000000,,,,0.000000,2.000000,2.000000,0.000000,2.000000,2.000000,2.000000,1.000000,2.000000,4.000000,4.000000,4.000000,4.000000,2.000000,4.000000,25.000000,,,,,,,,,,,,,,,,,26.000000,0.000000,0.637077,0.404297,-0.592590,0.281982,0.956660,0.192406,-0.019534,-74.147827,67.587563,29.444941
1732081987.071130,1732081987.073791,105.000000,0.000000,4332.436035,4326.282227,4322.948730,4332.948730,4328.974121,4333.589844,4313.205078,4356.922852,4347.179688,4330.769043,4434.487305,4472.436035,4350.897461,4398.589844,1678.000000,0.000000,11.000000,,,,0.000000,2.000000,2.000000,0.000000,2.000000,2.000000,2.000000,1.000000,2.000000,4.000000,4.000000,4.000000,4.000000,2.000000,4.000000,25.000000,,,,,,,,,,,,,,,,,,,,,,,,,,,,
1732081987.078938,1732081987.081799,106.000000,0.000000,4329.358887,4329.487305,4321.922852,4335.000000,4334.102539,4333.077148,4314.615234,4357.051270,4346.538574,4326.282227,4437.563965,4467.179688,4349.358887,4393.846191,1372.000000,0.000000,11.000000,,,,0.000000,2.000000,2.000000,0.000000,2.000000,2.000000,2.000000,1.000000,2.000000,4.000000,4.000000,4.000000,4.000000,2.000000,4.000000,25.000000,,,,,,,,,,,,,,,,,,,,,,,,,,,,
1732081987.086746,1732081987.089608,107.000000,0.000000,4337.051270,4331.153809,4323.589844,4337.692383,4329.358887,4336.666504,4315.512695,4358.846191,4348.461426,4328.077148,4440.641113,4463.717773,4351.794922,4396.538574,1492.000000,0.000000,11.000000,,,,0.000000,2.000000,2.000000,0.000000,2.000000,2.000000,2.000000,1.000000,2.000000,4.000000,4.000000,4.000000,4.000000,2.000000,4.000000,25.000000,,,,,,,,,,,,,,,,,,,,,,,,,,,,
1732081987.094555,1732081987.097516,108.000000,0.000000,4340.000000,4330.128418,4325.256348,4337.563965,4326.922852,4334.487305,4312.307617,4358.974121,4348.205078,4335.128418,4439.487305,4469.615234,4358.589844,4406.538574,1720.000000,0.000000,11.000000,,,,0.000000,2.000000,2.000000,0.000000,2.000000,2.000000,2.000000,1.000000,2.000000,4.000000,4.000000,4.000000,4.000000,2.000000,4.000000,25.000000,,,,,,,,,,,,,,,,,27.000000,0.000000,0.636154,0.404968,-0.593384,0.281433,0.957148,0.203150,-0.042486,-74.079742,67.587593,29.395401
1732081987.102363,1732081987.105324,109.000000,0.000000,4338.077148,4330.897461,4325.128418,4337.563965,4337.948730,4326.153809,4312.692383,4354.102539,4344.487305,4332.692383,4442.051270,4472.051270,4358.589844,4407.179688,1678.000000,0.000000,11.000000,,,,0.000000,2.000000,2.000000,0.000000,2.000000,2.000000,2.000000,1.000000,2.000000,4.000000,4.000000,4.000000,4.000000,2.000000,4.000000,25.000000,,,,,,,,,,,,,,,,,,,,,,,,,,,,
1732081987.110171,1732081987.113332,110.000000,0.000000,4342.563965,4329.871582,4323.333496,4334.871582,4336.538574,4328.461426,4314.102539,4351.282227,4343.077148,4326.025879,4445.641113,4462.692383,4355.512695,4398.974121,1372.000000,0.000000,11.000000,,,,0.000000,2.000000,2.000000,0.000000,2.000000,2.000000,2.000000,1.000000,2.000000,4.000000,4.000000,4.000000,4.000000,2.000000,4.000000,25.000000,,,,,,,,,,,,,,,,,,,,,,,,,,,,
1732081987.117979,1732081987.121140,111.000000,0.000000,4341.153809,4325.512695,4324.743652,4331.922852,4318.077148,4336.666504,4316.538574,4352.563965,4342.436035,4326.922852,4441.538574,4461.538574,4357.307617,4398.205078,1492.000000,0.000000,11.000000,,,,0.000000,2.000000,2.000000,0.000000,2.000000,2.000000,2.000000,1.000000,2.000000,4.000000,4.000000,4.000000,4.000000,2.000000,4.000000,25.000000,,,,,,,,,,,,,,,,,,,,,,,,,,,,
1732081987.125788,1732081987.129048,112.000000,0.000000,4333.717773,4325.128418,4322.563965,4333.717773,4313.461426,4335.256348,4318.461426,4351.282227,4342.051270,4328.077148,4438.846191,4466.666504,4360.641113,4404.358887,1720.000000,0.000000,11.000000,,,,0.000000,2.000000,2.000000,0.000000,2.000000,2.000000,2.000000,1.000000,2.000000,4.000000,4.000000,4.000000,4.000000,2.000000,4.000000,25.000000,,,,,,,,,,,,,,,,,28.000000,0.000000,0.634986,0.408569,-0.593262,0.279114,0.947381,0.268099,-0.062019,-74.074593,67.670952,29.321941
1732081987.133596,1732081987.136856,113.000000,0.000000,4334.358887,4327.436035,4320.641113,4331.538574,4317.948730,4332.563965,4319.230957,4351.153809,4345.000000,4326.410156,4443.461426,4467.563965,4362.820313,4405.384766,1678.000000,0.000000,11.000000,,,,0.000000,2.000000,2.000000,0.000000,2.000000,2.000000,2.000000,1.000000,2.000000,4.000000,4.000000,4.000000,4.000000,2.000000,4.000000,25.000000,,,,,,,,,,,,,,,,,,,,,,,,,,,,
1732081987.141404,1732081987.144864,114.000000,0.000000,4337.436035,4326.025879,4319.871582,4324.487305,4323.205078,4334.871582,4316.922852,4352.436035,4346.025879,4328.333496,4447.179688,4472.948730,4364.487305,4404.871582,1372.000000,0.000000,11.000000,,,,0.000000,2.000000,2.000000,0.000000,2.000000,2.000000,2.000000,1.000000,2.000000,4.000000,4.000000,4.000000,4.000000,2.000000,4.000000,25.000000,,,,,,,,,,,,,,,,,,,,,,,,,,,,
1732081987.149212,1732081987.152673,115.000000,0.000000,4332.692383,4321.410156,4322.563965,4323.205078,4329.743652,4332.436035,4316.666504,4351.666504,4341.666504,4328.717773,4445.897461,4474.615234,4362.179688,4404.487305,1492.000000,0.000000,11.000000,,,,0.000000,2.000000,2.000000,0.000000,2.000000,2.000000,2.000000,1.000000,2.000000,4.000000,4.000000,4.000000,4.000000,2.000000,4.000000,25.000000,,,,,,,,,,,,,,,,,,,,,,,,,,,,
1732081987.157021,1732081987.160381,116.000000,0.000000,4331.666504,4324.871582,4325.897461,4330.769043,4322.436035,4330.512695,4318.846191,4353.461426,4343.589844,4328.077148,4439.871582,4472.051270,4358.333496,4401.666504,1720.000000,0.000000,11.000000,,,,0.000000,2.000000,2.000000,0.000000,2.000000,2.000000,2.000000,1.000000,2.000000,4.000000,4.000000,4.000000,4.000000,2.000000,4.000000,25.000000,,,,,,,,,,,,,,,,,29.000000,0.000000,0.633906,0.412537,-0.592529,0.277283,0.975217,0.208522,-0.064461,-74.183754,67.728470,29.225773
1732081987.164829,1732081987.168189,117.000000,0.000000,4335.897461,4333.333496,4328.077148,4335.256348,4309.230957,4336.025879,4320.128418,4357.051270,4349.358887,4330.512695,4440.128418,4477.436035,4361.666504,4400.512695,1678.000000,0.000000,11.000000,,,,0.000000,2.000000,2.000000,0.000000,2.000000,2.000000,2.000000,1.000000,2.000000,4.000000,4.000000,4.000000,4.000000,2.000000,4.000000,25.000000,,,,,,,,,,,,,,,,,,,,,,,,,,,,
1732081987.172637,1732081987.175798,118.000000,0.000000,4331.538574,4330.256348,4327.436035,4328.589844,4312.692383,4336.922852,4319.615234,4354.743652,4345.384766,4329.358887,4447.051270,4475.384766,4367.307617,4403.077148,1372.000000,0.000000,11.000000,,,,0.000000,2.000000,2.000000,0.000000,2.000000,2.000000,2.000000,1.000000,2.000000,4.000000,4.000000,4.000000,4.000000,2.000000,4.000000,25.000000,,,,,,,,,,,,,,,,,,,,,,,,,,,,
1732081987.180445,1732081987.183606,119.000000,0.000000,4325.512695,4323.205078,4325.384766,4323.717773,4316.025879,4329.743652,4317.179688,4350.769043,4342.436035,4328.333496,4447.051270,4463.846191,4365.641113,4404.487305,1492.000000,0.000000,11.000000,,,,0.000000,2.000000,2.000000,0.000000,2.000000,2.000000,2.000000,1.000000,2.000000,4.000000,4.000000,4.000000,4.000000,2.000000,4.000000,25.000000,,,,,,,,,,,,,,,,,,,,,,,,,,,,
1732081987.188254,1732081987.191314,120.000000,0.000000,4327.436035,4326.538574,4328.333496,4327.948730,4310.128418,4327.692383,4320.128418,4351.153809,4345.256348,4329.230957,4442.563965,4466.410156,4359.230957,4400.256348,1720.000000,0.000000,11.000000,,,,0.000000,2.000000,2.000000,0.000000,2.000000,2.000000,2.000000,1.000000,2.000000,4.000000,4.000000,4.000000,4.000000,2.000000,4.000000,25.000000,,,,,,,,,,,,,,,,,30.000000,0.000000,0.633301,0.413330,-0.592651,0.277222,0.975217,0.208522,-0.064461,-74.592171,67.716728,28.802876
1732081987.196062,1732081987.199122,121.000000,0.000000,4328.974121,4328.717773,4327.179688,4329.230957,4310.512695,4330.000000,4321.666504,4351.410156,4343.205078,4328.974121,4443.974121,4467.179688,4359.358887,4398.589844,1678.000000,0.000000,11.000000,,,,0.000000,2.000000,2.000000,0.000000,2.000000,2.000000,2.000000,1.000000,2.000000,4.000000,4.000000,4.000000,4.000000,2.000000,4.000000,25.000000,,,,,,,,,,,,,,,,,,,,,,,,,,,,
1732081987.203870,1732081987.206731,122.000000,0.000000,4324.871582,4321.153809,4323.717773,4322.820313,4312.307617,4331.025879,4320.769043,4349.230957,4337.436035,4330.897461,4442.820313,4458.205078,4359.487305,4398.333496,1372.000000,0.000000,11.000000,,,,0.000000,2.000000,2.000000,0.000000,2.000000,2.000000,2.000000,1.000000,2.000000,4.000000,4.000000,4.000000,4.000000,2.000000,4.000000,25.000000,,,,,,,,,,,,,,,,,,,,,,,,,,,,
1732081987.211678,1732081987.214539,123.000000,0.000000,4325.128418,4319.487305,4321.410156,4322.563965,4313.717773,4331.025879,4319.230957,4348.589844,4338.974121,4333.333496,4436.153809,4459.743652,4355.897461,4398.461426,1492.000000,0.000000,11.000000,,,,0.000000,2.000000,2.000000,0.000000,2.000000,2.000000,2.000000,1.000000,2.000000,4.000000,4.000000,4.000000,4.000000,2.000000,4.000000,25.000000,,,,,,,,,,,,,,,,,,,,,,,,,,,,
1732081987.219487,1732081987.222247,124.000000,0.000000,4328.974121,4325.000000,4325.128418,4325.897461,4314.871582,4334.871582,4321.794922,4350.000000,4346.282227,4333.717773,4434.487305,4465.512695,4354.615234,4400.000000,1720.000000,0.000000,11.000000,,,,0.000000,2.000000,2.000000,0.000000,2.000000,2.000000,2.000000,1.000000,2.000000,4.000000,4.000000,4.000000,4.000000,2.000000,4.000000,25.000000,,,,,,,,,,,,,,,,,31.000000,0.000000,0.629293,0.412048,-0.596252,0.280518,0.988402,0.171896,-0.057136,-74.341324,67.415550,28.463663
1732081987.227295,1732081987.230055,125.000000,0.000000,4328.974121,4324.615234,4323.717773,4324.615234,4317.820313,4340.128418,4322.563965,4350.897461,4347.307617,4333.589844,4432.692383,4460.897461,4352.563965,4397.051270,1678.000000,0.000000,11.000000,,,,0.000000,2.000000,2.000000,0.000000,2.000000,2.000000,2.000000,1.000000,2.000000,4.000000,4.000000,4.000000,4.000000,2.000000,4.000000,25.000000,,,,,,,,,,,,,,,,,,,,,,,,,,,,
1732081987.235103,1732081987.237664,126.000000,0.000000,4324.358887,4320.256348,4321.538574,4321.025879,4331.794922,4336.282227,4321.922852,4350.897461,4342.436035,4331.410156,4425.000000,4455.769043,4346.025879,4391.666504,1372.000000,0.000000,11.000000,,,,0.000000,2.000000,2.000000,0.000000,2.000000,2.000000,2.000000,1.000000,2.000000,4.000000,4.000000,4.000000,4.000000,2.000000,4.000000,25.000000,,,,,,,,,,,,,,,,,,,,,,,,,,,,
1732081987.242911,1732081987.245472,127.000000,0.000000,4323.205078,4320.256348,4320.641113,4320.384766,4331.025879,4331.025879,4322.051270,4350.769043,4340.128418,4328.205078,4422.051270,4458.333496,4343.846191,4393.461426,11.000000,0.000000,11.000000,,,,0.000000,2.000000,2.000000,0.000000,2.000000,2.000000,2.000000,1.000000,2.000000,4.000000,4.000000,4.000000,4.000000,2.000000,4.000000,25.000000,,,,,,,,,,,,,,,,,,,,,,,,,,,,
1732081987.250720,1732081987.253180,0.000000,0.000000,4325.512695,4321.922852,4321.025879,4320.512695,4315.000000,4334.487305,4323.205078,4349.871582,4342.051270,4331.153809,4429.358887,4456.666504,4349.102539,4398.205078,0.000000,0.000000,11.000000,,,,0.000000,2.000000,2.000000,0.000000,2.000000,2.000000,2.000000,1.000000,2.000000,4.000000,4.000000,4.000000,4.000000,2.000000,4.000000,25.000000,,,,,,,,,,,,,,,,,0.000000,0.000000,0.627124,0.409546,-0.598755,0.283691,0.955683,0.151386,-0.051764,-74.354805,67.434929,28.480568
1732081987.258528,1732081987.260989,1.000000,0.000000,4325.897461,4320.512695,4318.717773,4321.666504,4315.000000,4338.205078,4321.153809,4350.384766,4345.641113,4337.436035,4437.563965,4451.025879,4352.692383,4394.487305,1282.000000,0.000000,11.000000,,,,0.000000,2.000000,2.000000,0.000000,2.000000,2.000000,2.000000,1.000000,2.000000,4.000000,4.000000,4.000000,4.000000,2.000000,4.000000,25.000000,,,,,,,,,,,,,,,,,,,,,,,,,,,,
1732081987.266336,1732081987.268597,2.000000,0.000000,4328.589844,4321.153809,4314.871582,4324.615234,4323.077148,4332.051270,4314.615234,4351.538574,4346.922852,4335.897461,4437.051270,4450.769043,4353.077148,4392.948730,1209.000000,0.000000,11.000000,,,,0.000000,2.000000,2.000000,0.000000,2.000000,2.000000,2.000000,1.000000,2.000000,4.000000,4.000000,4.000000,4.000000,2.000000,4.000000,25.000000,,,,,,,,,,,,,,,,,,,,,,,,,,,,
1732081987.274145,1732081987.276405,3.000000,0.000000,4334.615234,4324.230957,4314.871582,4326.410156,4320.000000,4328.717773,4310.384766,4350.641113,4347.307617,4334.871582,4435.128418,4457.563965,4353.461426,4398.846191,1162.000000,0.000000,11.000000,,,,0.000000,2.000000,2.000000,0.000000,2.000000,2.000000,2.000000,1.000000,2.000000,4.000000,4.000000,4.000000,4.000000,2.000000,4.000000,25.000000,,,,,,,,,,,,,,,,,,,,,,,,,,,,
1732081987.281953,1732081987.284113,4.000000,0.000000,4336.794922,4323.461426,4314.487305,4328.205078,4318.717773,4336.025879,4312.051270,4350.769043,4346.922852,4336.538574,4439.743652,4465.897461,4355.641113,4400.897461,1190.000000,0.000000,11.000000,,,,0.000000,2.000000,2.000000,0.000000,2.000000,2.000000,2.000000,1.000000,2.000000,4.000000,4.000000,4.000000,4.000000,2.000000,4.000000,25.000000,,,,,,,,,,,,,,,,,1.000000,0.000000,0.626046,0.408081,-0.600098,0.285339,0.949335,0.148456,-0.067391,-74.287392,67.345627,28.324259
1732081987.289761,1732081987.291922,5.000000,0.000000,4337.179688,4323.974121,4316.666504,4331.153809,4326.025879,4336.666504,4314.487305,4350.512695,4345.641113,4331.538574,4442.563965,4467.436035,4353.974121,4402.051270,1067.000000,0.000000,11.000000,,,,0.000000,2.000000,2.000000,0.000000,2.000000,2.000000,2.000000,1.000000,2.000000,4.000000,4.000000,4.000000,4.000000,2.000000,4.000000,25.000000,,,,,,,,,,,,,,,,,,,,,,,,,,,,
1732081987.297569,1732081987.299930,6.000000,0.000000,4337.692383,4328.589844,4317.692383,4332.436035,4323.589844,4331.410156,4312.051270,4349.102539,4346.153809,4329.358887,4440.128418,4462.948730,4353.077148,4407.307617,202.000000,0.000000,11.000000,,,,0.000000,2.000000,2.000000,0.000000,2.000000,2.000000,2.000000,1.000000,2.000000,4.000000,4.000000,4.000000,4.000000,2.000000,4.000000,25.000000,,,,,,,,,,,,,,,,,,,,,,,,,,,,
1732081987.305378,1732081987.307738,7.000000,0.000000,4339.102539,4328.333496,4318.461426,4329.230957,4316.666504,4332.179688,4311.153809,4348.077148,4347.051270,4330.769043,4443.461426,4468.205078,4360.384766,4412.051270,1195.000000,0.000000,11.000000,,,,0.000000,2.000000,2.000000,0.000000,2.000000,2.000000,2.000000,1.000000,2.000000,4.000000,4.000000,4.000000,4.000000,2.000000,4.000000,25.000000,,,,,,,,,,,,,,,,,,,,,,,,,,,,
1732081987.313186,1732081987.315646,8.000000,0.000000,4352.179688,4326.794922,4312.179688,4328.077148,4317.692383,4333.589844,4308.333496,4344.871582,4341.410156,4326.794922,4447.436035,4480.000000,4363.333496,4419.358887,1337.000000,0.000000,11.000000,,,,0.000000,2.000000,2.000000,0.000000,2.000000,2.000000,2.000000,1.000000,2.000000,4.000000,4.000000,4.000000,4.000000,2.000000,4.000000,25.000000,,,,,,,,,,,,,,,,,2.000000,0.000000,0.624027,0.405212,-0.602417,0.288940,0.941521,0.132829,-0.051764,-74.201126,66.804955,27.977650
1732081987.320994,1732081987.323454,9.000000,0.000000,4368.846191,4329.871582,4309.615234,4329.487305,4317.307617,4328.205078,4301.282227,4340.512695,4333.461426,4322.436035,4443.461426,4480.384766,4360.897461,4427.692383,1469.000000,0.000000,11.000000,,,,0.000000,2.000000,2.000000,0.000000,2.000000,2.000000,2.000000,1.000000,2.000000,4.000000,4.000000,4.000000,4.000000,2.000000,4.000000,25.000000,,,,,,,,,,,,,,,,,,,,,,,,,,,,
1732081987.328802,1732081987.331462,10.000000,0.000000,4372.307617,4331.153809,4309.487305,4329.102539,4313.333496,4320.512695,4295.512695,4338.589844,4337.051270,4326.282227,4448.974121,4473.205078,4363.205078,4433.461426,1366.000000,0.000000,11.000000,,,,0.000000,2.000000,2.000000,0.000000,2.000000,2.000000,2.000000,1.000000,2.000000,4.000000,4.000000,4.000000,4.000000,2.000000,4.000000,25.000000,,,,,,,,,,,,,,,,,,,,,,,,,,,,
1732081987.336611,1732081987.339270,11.000000,0.000000,4371.538574,4328.846191,4309.358887,4327.948730,4313.461426,4317.307617,4298.846191,4339.615234,4341.153809,4326.538574,4460.000000,4473.461426,4369.487305,4438.333496,1489.000000,0.000000,11.000000,,,,0.000000,2.000000,2.000000,0.000000,2.000000,2.000000,2.000000,1.000000,2.000000,4.000000,4.000000,4.000000,4.000000,2.000000,4.000000,25.000000,,,,,,,,,,,,,,,,,,,,,,,,,,,,
1732081987.344419,1732081987.346979,12.000000,0.000000,4385.384766,4330.128418,4309.102539,4327.820313,4318.077148,4315.641113,4301.025879,4340.897461,4338.077148,4321.922852,4458.333496,4474.487305,4375.000000,4443.589844,1715.000000,0.000000,11.000000,,,,0.000000,2.000000,2.000000,0.000000,2.000000,2.000000,2.000000,1.000000,2.000000,4.000000,4.000000,4.000000,4.000000,2.000000,4.000000,25.000000,,,,,,,,,,,,,,,,,3.000000,0.000000,0.620356,0.401550,-0.604858,0.296753,0.952753,0.111830,-0.077158,-74.349579,66.415352,27.745230
1732081987.352227,1732081987.354787,13.000000,0.000000,4396.922852,4332.948730,4312.436035,4328.589844,4313.461426,4316.153809,4300.897461,4340.897461,4339.358887,4319.743652,4455.128418,4470.641113,4377.179688,4446.794922,1688.000000,0.000000,11.000000,,,,0.000000,2.000000,2.000000,0.000000,2.000000,2.000000,2.000000,1.000000,2.000000,4.000000,4.000000,4.000000,4.000000,2.000000,4.000000,25.000000,,,,,,,,,,,,,,,,,,,,,,,,,,,,
1732081987.360035,1732081987.362395,14.000000,0.000000,4393.846191,4332.692383,4316.794922,4329.358887,4312.563965,4316.282227,4301.666504,4340.897461,4340.128418,4317.051270,4455.512695,4465.000000,4374.743652,4446.282227,1366.000000,0.000000,11.000000,,,,0.000000,2.000000,2.000000,0.000000,2.000000,2.000000,2.000000,1.000000,2.000000,4.000000,4.000000,4.000000,4.000000,2.000000,4.000000,25.000000,1.000000,25.000000,2.000000,2.000000,0.000000,2.000000,2.000000,2.000000,1.000000,2.000000,3.000000,4.000000,4.000000,4.000000,2.000000,4.000000,,,,,,,,,,,,
1732081987.367844,1732081987.370204,15.000000,0.000000,4395.000000,4331.025879,4316.410156,4327.820313,4323.077148,4313.974121,4304.102539,4340.641113,4335.384766,4312.948730,4446.025879,4466.666504,4368.589844,4444.743652,1489.000000,0.000000,11.000000,,,,0.000000,2.000000,2.000000,0.000000,2.000000,2.000000,2.000000,1.000000,2.000000,4.000000,4.000000,4.000000,4.000000,2.000000,4.000000,25.000000,,,,,,,,,,,,,,,,,,,,,,,,,,,,
1732081987.375652,1732081987.378112,16.000000,0.000000,4405.384766,4330.000000,4312.692383,4325.384766,4317.179688,4315.128418,4303.717773,4341.666504,4334.615234,4310.384766,4444.358887,4471.025879,4368.846191,4448.077148,0.000000,0.000000,11.000000,,,,0.000000,2.000000,2.000000,0.000000,2.000000,2.000000,2.000000,1.000000,2.000000,4.000000,4.000000,4.000000,4.000000,2.000000,4.000000,25.000000,,,,,,,,,,,,,,,,,4.000000,0.000000,0.618271,0.400391,-0.604736,0.302856,0.971310,0.074716,-0.052252,-74.509827,65.998100,27.571970
1732081987.383460,1732081987.385920,17.000000,0.000000,4406.922852,4330.000000,4315.641113,4323.846191,4299.871582,4316.922852,4304.743652,4343.205078,4335.769043,4311.153809,4452.948730,4470.641113,4374.487305,4458.077148,0.000000,0.000000,11.000000,,,,0.000000,2.000000,2.000000,0.000000,2.000000,2.000000,2.000000,1.000000,2.000000,4.000000,4.000000,4.000000,4.000000,2.000000,4.000000,25.000000,,,,,,,,,,,,,,,,,,,,,,,,,,,,
1732081987.391268,1732081987.393928,18.000000,0.000000,4405.384766,4335.769043,4325.769043,4326.538574,4302.051270,4314.230957,4305.769043,4343.589844,4332.179688,4313.589844,4449.102539,4480.000000,4373.077148,4461.282227,0.000000,0.000000,11.000000,,,,0.000000,2.000000,2.000000,0.000000,2.000000,2.000000,2.000000,1.000000,2.000000,4.000000,4.000000,4.000000,4.000000,2.000000,4.000000,25.000000,,,,,,,,,,,,,,,,,,,,,,,,,,,,
1732081987.399077,1732081987.401736,19.000000,0.000000,4413.461426,4339.358887,4327.051270,4332.051270,4315.128418,4310.384766,4305.256348,4343.717773,4330.384766,4316.922852,4450.512695,4492.436035,4372.051270,4459.487305,0.000000,0.000000,11.000000,,,,0.000000,2.000000,2.000000,0.000000,2.000000,2.000000,2.000000,1.000000,2.000000,4.000000,4.000000,4.000000,4.000000,2.000000,4.000000,25.000000,,,,,,,,,,,,,,,,,,,,,,,,,,,,
1732081987.406885,1732081987.409644,20.000000,0.000000,4417.179688,4333.717773,4323.333496,4330.384766,4311.922852,4309.871582,4305.641113,4342.692383,4330.000000,4321.666504,4462.692383,4491.794922,4379.743652,4466.410156,0.000000,0.000000,11.000000,,,,0.000000,2.000000,2.000000,0.000000,2.000000,2.000000,2.000000,1.000000,2.000000,4.000000,4.000000,4.000000,4.000000,2.000000,4.000000,25.000000,,,,,,,,,,,,,,,,,5.000000,0.000000,0.618271,0.400391,-0.604736,0.302856,0.939568,0.088390,-0.042486,-74.744621,65.525124,27.521629
1732081987.414693,1732081987.417452,21.000000,0.000000,4412.436035,4328.846191,4324.743652,4324.230957,4306.794922,4311.410156,4308.077148,4339.102539,4328.205078,4321.025879,4459.871582,4486.282227,4382.179688,4467.820313,0.000000,0.000000,11.000000,,,,0.000000,2.000000,2.000000,0.000000,2.000000,2.000000,2.000000,1.000000,2.000000,4.000000,4.000000,4.000000,4.000000,2.000000,4.000000,25.000000,,,,,,,,,,,,,,,,,,,,,,,,,,,,
1732081987.422501,1732081987.425460,22.000000,0.000000,4410.000000,4330.897461,4327.948730,4327.436035,4311.666504,4311.025879,4309.102539,4336.794922,4328.461426,4314.615234,4451.282227,4486.794922,4375.897461,4461.666504,0.000000,0.000000,11.000000,,,,0.000000,2.000000,2.000000,0.000000,2.000000,2.000000,2.000000,1.000000,2.000000,4.000000,4.000000,4.000000,4.000000,2.000000,4.000000,25.000000,,,,,,,,,,,,,,,,,,,,,,,,,,,,
1732081987.430310,1732081987.433269,23.000000,0.000000,4414.487305,4335.384766,4326.153809,4334.358887,4314.871582,4310.384766,4308.077148,4338.077148,4328.846191,4313.461426,4458.205078,4488.846191,4379.230957,4463.205078,0.000000,0.000000,11.000000,,,,0.000000,2.000000,2.000000,0.000000,2.000000,2.000000,2.000000,1.000000,2.000000,4.000000,4.000000,4.000000,4.000000,2.000000,4.000000,25.000000,,,,,,,,,,,,,,,,,,,,,,,,,,,,
1732081987.438118,1732081987.441177,24.000000,0.000000,4417.051270,4332.436035,4326.538574,4333.461426,4311.538574,4312.563965,4308.974121,4338.461426,4328.205078,4316.410156,4462.692383,4492.820313,4385.256348,4470.641113,0.000000,0.000000,11.000000,,,,0.000000,2.000000,2.000000,0.000000,2.000000,2.000000,2.000000,1.000000,2.000000,4.000000,4.000000,4.000000,4.000000,2.000000,4.000000,25.000000,,,,,,,,,,,,,,,,,6.000000,0.000000,0.618433,0.400330,-0.602234,0.307556,0.962520,0.135270,-0.048346,-74.856476,65.203690,27.705853
1732081987.445926,1732081987.448985,25.000000,0.000000,4411.666504,4327.179688,4328.589844,4331.666504,4308.589844,4312.820313,4307.820313,4337.051270,4328.077148,4315.897461,4458.717773,4494.487305,4382.692383,4471.282227,0.000000,0.000000,11.000000,,,,0.000000,2.000000,2.000000,0.000000,2.000000,2.000000,2.000000,1.000000,2.000000,4.000000,4.000000,4.000000,4.000000,2.000000,4.000000,25.000000,,,,,,,,,,,,,,,,,,,,,,,,,,,,
1732081987.453735,1732081987.456593,26.000000,0.000000,4407.051270,4327.436035,4328.077148,4329.487305,4316.153809,4303.846191,4304.743652,4334.230957,4323.333496,4311.538574,4459.615234,4490.769043,4381.282227,4469.487305,0.000000,0.000000,11.000000,,,,0.000000,2.000000,2.000000,0.000000,2.000000,2.000000,2.000000,1.000000,2.000000,4.000000,4.000000,4.000000,4.000000,2.000000,4.000000,25.000000,,,,,,,,,,,,,,,,,,,,,,,,,,,,
1732081987.461543,1732081987.464402,27.000000,0.000000,4412.948730,4330.512695,4326.025879,4330.000000,4317.820313,4300.897461,4302.307617,4333.846191,4321.410156,4308.461426,4461.282227,4491.282227,4382.051270,4471.666504,0.000000,0.000000,11.000000,,,,0.000000,2.000000,2.000000,0.000000,2.000000,2.000000,2.000000,1.000000,2.000000,4.000000,4.000000,4.000000,4.000000,2.000000,4.000000,25.000000,,,,,,,,,,,,,,,,,,,,,,,,,,,,
1732081987.469351,1732081987.472310,28.000000,0.000000,4419.358887,4330.512695,4327.563965,4337.051270,4301.410156,4310.128418,4307.436035,4336.153809,4325.128418,4311.025879,4458.461426,4496.794922,4382.820313,4474.102539,0.000000,0.000000,11.000000,,,,0.000000,2.000000,2.000000,0.000000,2.000000,2.000000,2.000000,1.000000,2.000000,4.000000,4.000000,4.000000,4.000000,2.000000,4.000000,25.000000,,,,,,,,,,,,,,,,,7.000000,0.000000,0.619263,0.402710,-0.599915,0.307312,1.021121,0.119644,-0.037602,-75.130417,64.859985,27.741741
1732081987.477159,1732081987.480118,29.000000,0.000000,4415.897461,4328.589844,4330.128418,4337.051270,4294.871582,4314.230957,4315.256348,4337.307617,4327.820313,4314.102539,4458.974121,4498.846191,4385.769043,4477.563965,0.000000,0.000000,11.000000,,,,0.000000,2.000000,2.000000,0.000000,2.000000,2.000000,2.000000,1.000000,2.000000,4.000000,4.000000,4.000000,4.000000,2.000000,4.000000,25.000000,,,,,,,,,,,,,,,,,,,,,,,,,,,,
1732081987.484968,1732081987.488126,30.000000,0.000000,4411.410156,4329.358887,4329.871582,4331.666504,4303.846191,4311.153809,4316.538574,4339.615234,4327.436035,4312.051270,4461.282227,4493.333496,4384.230957,4473.333496,0.000000,0.000000,11.000000,,,,0.000000,2.000000,2.000000,0.000000,2.000000,2.000000,2.000000,1.000000,2.000000,4.000000,4.000000,4.000000,4.000000,2.000000,4.000000,25.000000,,,,,,,,,,,,,,,,,,,,,,,,,,,,
1732081987.492776,1732081987.495934,31.000000,0.000000,4413.846191,4330.256348,4330.769043,4334.102539,4303.589844,4311.153809,4311.922852,4339.230957,4325.641113,4309.743652,4460.256348,4493.333496,4380.641113,4466.666504,0.000000,0.000000,11.000000,,,,0.000000,2.000000,2.000000,0.000000,2.000000,2.000000,2.000000,1.000000,2.000000,4.000000,4.000000,4.000000,4.000000,2.000000,4.000000,25.000000,,,,,,,,,,,,,,,,,,,,,,,,,,,,
1732081987.500584,1732081987.503842,32.000000,0.000000,4416.666504,4330.256348,4336.538574,4338.717773,4292.563965,4311.410156,4313.846191,4337.051270,4324.871582,4313.717773,4461.538574,4506.153809,4383.205078,4472.051270,0.000000,0.000000,11.000000,,,,0.000000,2.000000,2.000000,0.000000,2.000000,2.000000,2.000000,1.000000,2.000000,4.000000,4.000000,4.000000,4.000000,2.000000,4.000000,25.000000,,,,,,,,,,,,,,,,,8.000000,0.000000,0.619350,0.403076,-0.599609,0.307251,1.021121,0.119644,-0.037602,-75.422302,64.569923,27.695810
1732081987.508392,1732081987.511650,33.000000,0.000000,4414.743652,4327.051270,4337.436035,4337.563965,4294.230957,4307.820313,4318.077148,4340.000000,4327.436035,4321.282227,4463.846191,4514.102539,4384.102539,4477.948730,0.000000,0.000000,11.000000,,,,0.000000,2.000000,2.000000,0.000000,2.000000,2.000000,2.000000,1.000000,2.000000,4.000000,4.000000,4.000000,4.000000,2.000000,4.000000,25.000000,,,,,,,,,,,,,,,,,,,,,,,,,,,,
1732081987.516200,1732081987.519658,34.000000,0.000000,4412.436035,4324.102539,4336.538574,4333.589844,4309.358887,4305.769043,4316.666504,4339.615234,4327.563965,4322.563965,4460.512695,4508.846191,4379.487305,4475.512695,0.000000,0.000000,11.000000,,,,0.000000,2.000000,2.000000,0.000000,2.000000,2.000000,2.000000,1.000000,2.000000,4.000000,4.000000,4.000000,4.000000,2.000000,4.000000,25.000000,,,,,,,,,,,,,,,,,,,,,,,,,,,,
1732081987.524009,1732081987.527467,35.000000,0.000000,4411.410156,4323.846191,4336.538574,4330.512695,4309.487305,4307.563965,4315.000000,4337.563965,4327.051270,4322.051270,4459.230957,4502.179688,4377.051270,4472.948730,0.000000,0.000000,11.000000,,,,0.000000,2.000000,2.000000,0.000000,2.000000,2.000000,2.000000,1.000000,2.000000,4.000000,4.000000,4.000000,4.000000,2.000000,4.000000,25.000000,,,,,,,,,,,,,,,,,,,,,,,,,,,,
1732081987.531817,1732081987.535375,36.000000,0.000000,4408.846191,4322.307617,4337.820313,4331.410156,4295.256348,4310.512695,4315.897461,4340.384766,4331.538574,4328.717773,4464.743652,4502.179688,4378.333496,4477.820313,0.000000,0.000000,11.000000,,,,0.000000,2.000000,2.000000,0.000000,2.000000,2.000000,2.000000,1.000000,2.000000,4.000000,4.000000,4.000000,4.000000,2.000000,4.000000,25.000000,,,,,,,,,,,,,,,,,9.000000,0.000000,0.619291,0.402893,-0.599731,0.307373,1.040166,0.062508,-0.037602,-75.500397,64.271637,27.796940
1732081987.539625,1732081987.543183,37.000000,0.000000,4406.794922,4323.333496,4337.051270,4333.461426,4297.692383,4309.230957,4316.153809,4337.820313,4330.641113,4332.820313,4462.692383,4502.179688,4377.948730,4476.922852,0.000000,0.000000,11.000000,,,,0.000000,2.000000,2.000000,0.000000,2.000000,2.000000,2.000000,1.000000,2.000000,4.000000,4.000000,4.000000,4.000000,2.000000,4.000000,25.000000,,,,,,,,,,,,,,,,,,,,,,,,,,,,
1732081987.547434,1732081987.551191,38.000000,0.000000,4400.769043,4321.153809,4334.871582,4330.769043,4312.820313,4307.948730,4316.153809,4332.436035,4324.615234,4325.897461,4452.307617,4494.615234,4375.512695,4466.922852,0.000000,0.000000,11.000000,,,,0.000000,2.000000,2.000000,0.000000,2.000000,2.000000,2.000000,1.000000,2.000000,4.000000,4.000000,4.000000,4.000000,2.000000,4.000000,25.000000,,,,,,,,,,,,,,,,,,,,,,,,,,,,
1732081987.555242,1732081987.558999,39.000000,0.000000,4391.922852,4314.743652,4334.487305,4329.358887,4313.717773,4311.282227,4317.563965,4338.846191,4325.897461,4324.230957,4448.077148,4482.179688,4374.615234,4460.384766,0.000000,0.000000,11.000000,,,,0.000000,2.000000,2.000000,0.000000,2.000000,2.000000,2.000000,1.000000,2.000000,4.000000,4.000000,4.000000,4.000000,2.000000,4.000000,25.000000,,,,,,,,,,,,,,,,,,,,,,,,,,,,
1732081987.563050,1732081987.566907,40.000000,0.000000,4393.077148,4317.051270,4335.769043,4332.948730,4310.897461,4311.538574,4316.282227,4341.538574,4329.871582,4328.846191,4443.846191,4475.512695,4373.846191,4459.871582,0.000000,0.000000,11.000000,,,,0.000000,2.000000,2.000000,0.000000,2.000000,2.000000,2.000000,1.000000,2.000000,4.000000,4.000000,4.000000,4.000000,2.000000,4.000000,25.000000,,,,,,,,,,,,,,,,,10.000000,0.000000,0.616902,0.399231,-0.604187,0.308228,0.955683,0.105970,-0.063973,-75.620323,64.073357,27.688854
1732081987.570858,1732081987.574715,41.000000,0.000000,4399.871582,4320.256348,4336.538574,4333.846191,4309.230957,4312.563965,4317.692383,4332.948730,4328.846191,4329.743652,4442.820313,4475.128418,4371.794922,4459.230957,0.000000,0.000000,11.000000,,,,0.000000,2.000000,2.000000,0.000000,2.000000,2.000000,2.000000,1.000000,2.000000,4.000000,4.000000,4.000000,4.000000,2.000000,4.000000,25.000000,,,,,,,,,,,,,,,,,,,,,,,,,,,,
1732081987.578667,1732081987.582324,42.000000,0.000000,4396.282227,4318.333496,4333.717773,4329.487305,4309.871582,4315.769043,4317.307617,4332.179688,4330.000000,4332.820313,4453.974121,4477.051270,4376.538574,4458.205078,0.000000,0.000000,11.000000,,,,0.000000,2.000000,2.000000,0.000000,2.000000,2.000000,2.000000,1.000000,2.000000,4.000000,4.000000,4.000000,4.000000,2.000000,4.000000,25.000000,,,,,,,,,,,,,,,,,,,,,,,,,,,,
1732081987.586475,1732081987.590132,43.000000,0.000000,4389.358887,4317.051270,4330.000000,4325.384766,4321.410156,4314.230957,4313.846191,4339.358887,4335.897461,4334.871582,4463.589844,4485.000000,4382.563965,4458.846191,0.000000,0.000000,11.000000,,,,0.000000,2.000000,2.000000,0.000000,2.000000,2.000000,2.000000,1.000000,2.000000,4.000000,4.000000,4.000000,4.000000,2.000000,4.000000,25.000000,,,,,,,,,,,,,,,,,,,,,,,,,,,,
1732081987.594283,1732081987.597840,44.000000,0.000000,4388.974121,4317.820313,4326.282227,4325.769043,4316.153809,4314.358887,4312.436035,4340.641113,4338.333496,4330.769043,4460.769043,4492.051270,4381.538574,4457.948730,0.000000,0.000000,11.000000,,,,0.000000,2.000000,2.000000,0.000000,2.000000,2.000000,2.000000,1.000000,2.000000,4.000000,4.000000,4.000000,4.000000,2.000000,4.000000,25.000000,,,,,,,,,,,,,,,,,11.000000,0.000000,0.616189,0.398438,-0.605469,0.308167,0.955683,0.105970,-0.063973,-75.815796,63.987755,27.459639
1732081987.602091,1732081987.605649,45.000000,0.000000,4388.717773,4318.717773,4326.282227,4324.487305,4297.436035,4320.384766,4316.666504,4338.333496,4337.307617,4326.794922,4457.307617,4489.487305,4379.230957,4452.948730,0.000000,0.000000,11.000000,,,,0.000000,2.000000,2.000000,0.000000,2.000000,2.000000,2.000000,1.000000,2.000000,4.000000,4.000000,4.000000,4.000000,2.000000,4.000000,25.000000,,,,,,,,,,,,,,,,,,,,,,,,,,,,
1732081987.609900,1732081987.613257,46.000000,0.000000,4385.897461,4320.641113,4329.230957,4323.077148,4303.589844,4320.128418,4318.205078,4340.769043,4336.410156,4325.769043,4459.871582,4487.820313,4380.897461,4450.897461,0.000000,0.000000,11.000000,,,,0.000000,2.000000,2.000000,0.000000,2.000000,2.000000,2.000000,1.000000,2.000000,4.000000,4.000000,4.000000,4.000000,2.000000,4.000000,25.000000,,,,,,,,,,,,,,,,,,,,,,,,,,,,
1732081987.617708,1732081987.621065,47.000000,0.000000,4384.743652,4319.358887,4330.641113,4325.384766,4318.717773,4313.846191,4315.897461,4343.333496,4335.897461,4324.358887,4460.128418,4492.436035,4381.153809,4455.769043,0.000000,0.000000,11.000000,,,,0.000000,2.000000,2.000000,0.000000,2.000000,2.000000,2.000000,1.000000,2.000000,4.000000,4.000000,4.000000,4.000000,2.000000,4.000000,25.000000,,,,,,,,,,,,,,,,,,,,,,,,,,,,
1732081987.625516,1732081987.628773,48.000000,0.000000,4388.077148,4319.743652,4328.461426,4326.410156,4308.333496,4312.179688,4313.333496,4341.794922,4336.410156,4323.461426,4459.871582,4489.487305,4381.922852,4461.538574,0.000000,0.000000,11.000000,,,,0.000000,2.000000,2.000000,0.000000,2.000000,2.000000,2.000000,1.000000,2.000000,4.000000,4.000000,4.000000,4.000000,2.000000,4.000000,25.000000,,,,,,,,,,,,,,,,,12.000000,0.000000,0.614020,0.397278,-0.608582,0.307861,0.961055,0.116713,-0.077158,-76.040794,64.401749,27.657307
1732081987.633325,1732081987.636582,49.000000,0.000000,4390.128418,4325.897461,4327.051270,4324.871582,4300.769043,4315.256348,4315.384766,4341.666504,4337.948730,4323.846191,4460.128418,4483.589844,4384.487305,4456.666504,0.000000,0.000000,11.000000,,,,0.000000,2.000000,2.000000,0.000000,2.000000,2.000000,2.000000,1.000000,2.000000,4.000000,4.000000,4.000000,4.000000,2.000000,4.000000,25.000000,,,,,,,,,,,,,,,,,,,,,,,,,,,,
1732081987.641133,1732081987.644190,50.000000,0.000000,4382.436035,4325.512695,4325.512695,4328.205078,4319.743652,4317.307617,4317.436035,4343.461426,4338.974121,4325.256348,4458.717773,4488.205078,4381.282227,4449.871582,0.000000,0.000000,11.000000,,,,0.000000,2.000000,2.000000,0.000000,2.000000,2.000000,2.000000,1.000000,2.000000,4.000000,4.000000,4.000000,4.000000,2.000000,4.000000,25.000000,,,,,,,,,,,,,,,,,,,,,,,,,,,,
1732081987.648941,1732081987.651998,51.000000,0.000000,4378.461426,4324.487305,4325.256348,4331.666504,4324.230957,4316.153809,4313.974121,4341.538574,4339.230957,4328.077148,4459.743652,4493.333496,4380.512695,4452.051270,0.000000,0.000000,11.000000,,,,0.000000,2.000000,2.000000,0.000000,2.000000,2.000000,2.000000,1.000000,2.000000,4.000000,4.000000,4.000000,4.000000,2.000000,4.000000,25.000000,,,,,,,,,,,,,,,,,,,,,,,,,,,,
1732081987.656749,1732081987.659707,52.000000,0.000000,4387.051270,4328.461426,4327.179688,4329.615234,4309.743652,4311.538574,4308.205078,4340.769043,4339.871582,4327.692383,4461.025879,4490.897461,4387.820313,4453.589844,0.000000,0.000000,11.000000,,,,0.000000,2.000000,2.000000,0.000000,2.000000,2.000000,2.000000,1.000000,2.000000,4.000000,4.000000,4.000000,4.000000,2.000000,4.000000,25.000000,,,,,,,,,,,,,,,,,13.000000,0.000000,0.611549,0.397766,-0.610962,0.307434,0.966427,0.130387,-0.081553,-76.009712,64.135414,27.540752
1732081987.664557,1732081987.667515,53.000000,0.000000,4390.128418,4325.384766,4330.641113,4328.205078,4304.487305,4311.538574,4309.102539,4343.205078,4338.205078,4325.256348,4460.384766,4493.846191,4388.974121,4449.871582,0.000000,0.000000,11.000000,,,,0.000000,2.000000,2.000000,0.000000,2.000000,2.000000,2.000000,1.000000,2.000000,4.000000,4.000000,4.000000,4.000000,2.000000,4.000000,25.000000,,,,,,,,,,,,,,,,,,,,,,,,,,,,
1732081987.672366,1732081987.675123,54.000000,0.000000,4388.205078,4324.487305,4331.922852,4331.410156,4308.461426,4315.769043,4312.692383,4343.974121,4337.692383,4325.512695,4459.487305,4501.666504,4381.922852,4450.641113,0.000000,0.000000,11.000000,,,,0.000000,2.000000,2.000000,0.000000,2.000000,2.000000,2.000000,1.000000,2.000000,4.000000,4.000000,4.000000,4.000000,2.000000,4.000000,25.000000,,,,,,,,,,,,,,,,,,,,,,,,,,,,
1732081987.680174,1732081987.682931,55.000000,0.000000,4389.230957,4330.769043,4331.153809,4333.717773,4312.179688,4318.717773,4312.563965,4341.922852,4336.153809,4324.230957,4455.128418,4498.974121,4380.384766,4449.743652,0.000000,0.000000,11.000000,,,,0.000000,2.000000,2.000000,0.000000,2.000000,2.000000,2.000000,1.000000,2.000000,4.000000,4.000000,4.000000,4.000000,2.000000,4.000000,25.000000,,,,,,,,,,,,,,,,,,,,,,,,,,,,
1732081987.687982,1732081987.690640,56.000000,0.000000,4383.461426,4331.282227,4329.487305,4329.871582,4317.179688,4324.102539,4310.384766,4339.230957,4330.256348,4318.077148,4447.307617,4485.384766,4383.205078,4439.358887,0.000000,0.000000,11.000000,,,,0.000000,2.000000,2.000000,0.000000,2.000000,2.000000,2.000000,1.000000,2.000000,4.000000,4.000000,4.000000,4.000000,2.000000,4.000000,25.000000,,,,,,,,,,,,,,,,,14.000000,0.000000,0.610736,0.397888,-0.611572,0.307678,0.949335,0.097668,-0.073251,-76.117867,63.903019,27.613008
1732081987.695790,1732081987.698448,57.000000,0.000000,4378.846191,4327.948730,4327.692383,4331.794922,4320.512695,4324.487305,4306.794922,4336.538574,4328.846191,4314.743652,4441.794922,4480.512695,4381.153809,4437.563965,0.000000,0.000000,11.000000,,,,0.000000,2.000000,2.000000,0.000000,2.000000,2.000000,2.000000,1.000000,2.000000,4.000000,4.000000,4.000000,4.000000,2.000000,4.000000,25.000000,,,,,,,,,,,,,,,,,,,,,,,,,,,,
1732081987.703599,1732081987.706056,58.000000,0.000000,4382.948730,4332.179688,4329.615234,4338.589844,4320.256348,4316.025879,4305.256348,4332.948730,4333.333496,4319.230957,4446.410156,4487.179688,4381.922852,4447.436035,0.000000,0.000000,11.000000,,,,0.000000,2.000000,2.000000,0.000000,2.000000,2.000000,2.000000,1.000000,2.000000,4.000000,4.000000,4.000000,4.000000,2.000000,4.000000,25.000000,,,,,,,,,,,,,,,,,,,,,,,,,,,,
1732081987.711407,1732081987.713865,59.000000,0.000000,4381.538574,4332.051270,4330.897461,4335.000000,4315.641113,4315.128418,4307.692383,4334.230957,4333.077148,4323.333496,4455.000000,4490.769043,4387.820313,4448.077148,0.000000,0.000000,11.000000,,,,0.000000,2.000000,2.000000,0.000000,2.000000,2.000000,2.000000,1.000000,2.000000,4.000000,4.000000,4.000000,4.000000,2.000000,4.000000,25.000000,,,,,,,,,,,,,,,,,,,,,,,,,,,,
1732081987.719215,1732081987.721773,60.000000,0.000000,4378.717773,4327.692383,4328.589844,4329.230957,4307.563965,4317.436035,4311.666504,4339.230957,4330.000000,4323.333496,4457.563965,4490.256348,4385.641113,4443.461426,0.000000,0.000000,11.000000,,,,0.000000,2.000000,2.000000,0.000000,2.000000,2.000000,2.000000,1.000000,2.000000,4.000000,4.000000,4.000000,4.000000,2.000000,4.000000,25.000000,,,,,,,,,,,,,,,,,15.000000,0.000000,0.610285,0.397827,-0.611877,0.308044,0.970822,0.099622,-0.075204,-76.285469,63.541447,27.528204
1732081987.727023,1732081987.729581,61.000000,0.000000,4378.461426,4328.974121,4327.948730,4330.256348,4318.205078,4311.666504,4309.102539,4341.666504,4333.717773,4321.922852,4456.282227,4489.102539,4379.230957,4443.461426,0.000000,0.000000,11.000000,,,,0.000000,2.000000,2.000000,0.000000,2.000000,2.000000,2.000000,1.000000,2.000000,4.000000,4.000000,4.000000,4.000000,2.000000,4.000000,25.000000,,,,,,,,,,,,,,,,,,,,,,,,,,,,
1732081987.734832,1732081987.737589,62.000000,0.000000,4372.563965,4329.871582,4330.897461,4331.025879,4330.512695,4310.769043,4308.077148,4341.538574,4338.461426,4322.179688,4454.615234,4491.666504,4379.615234,4442.179688,0.000000,0.000000,11.000000,,,,0.000000,2.000000,2.000000,0.000000,2.000000,2.000000,2.000000,1.000000,2.000000,4.000000,4.000000,4.000000,4.000000,2.000000,4.000000,25.000000,,,,,,,,,,,,,,,,,,,,,,,,,,,,
1732081987.742640,1732081987.745397,63.000000,0.000000,4373.333496,4330.000000,4329.743652,4331.282227,4313.589844,4319.487305,4311.794922,4340.384766,4339.615234,4324.871582,4449.871582,4492.948730,4383.461426,4439.487305,0.000000,0.000000,11.000000,,,,0.000000,2.000000,2.000000,0.000000,2.000000,2.000000,2.000000,1.000000,2.000000,4.000000,4.000000,4.000000,4.000000,2.000000,4.000000,25.000000,,,,,,,,,,,,,,,,,,,,,,,,,,,,
1732081987.750448,1732081987.753105,64.000000,0.000000,4375.128418,4330.512695,4329.615234,4333.333496,4309.102539,4320.897461,4314.358887,4340.512695,4340.128418,4323.846191,4445.256348,4484.230957,4382.051270,4436.538574,0.000000,0.000000,11.000000,,,,0.000000,2.000000,2.000000,0.000000,2.000000,2.000000,2.000000,1.000000,2.000000,4.000000,4.000000,4.000000,4.000000,2.000000,4.000000,25.000000,,,,,,,,,,,,,,,,,16.000000,0.000000,0.609620,0.397339,-0.612427,0.308899,0.959590,0.111830,-0.073251,-76.379562,63.381905,27.412846
1732081987.758257,1732081987.760914,65.000000,0.000000,4365.641113,4326.922852,4332.051270,4332.179688,4336.282227,4316.282227,4310.512695,4339.102539,4337.307617,4316.666504,4443.205078,4471.922852,4378.205078,4429.871582,1285.000000,0.000000,11.000000,,,,0.000000,2.000000,2.000000,0.000000,2.000000,2.000000,2.000000,1.000000,2.000000,4.000000,4.000000,4.000000,4.000000,2.000000,4.000000,25.000000,,,,,,,,,,,,,,,,,,,,,,,,,,,,
1732081987.766065,1732081987.768522,66.000000,0.000000,4357.692383,4324.615234,4332.051270,4331.794922,4336.153809,4317.948730,4309.615234,4335.000000,4330.512695,4311.282227,4436.282227,4470.641113,4375.256348,4425.256348,1210.000000,0.000000,11.000000,,,,0.000000,2.000000,2.000000,0.000000,2.000000,2.000000,2.000000,1.000000,2.000000,4.000000,4.000000,4.000000,4.000000,2.000000,4.000000,25.000000,,,,,,,,,,,,,,,,,,,,,,,,,,,,
1732081987.773873,1732081987.776330,67.000000,0.000000,4361.922852,4326.666504,4327.307617,4334.743652,4311.025879,4324.487305,4310.384766,4333.589844,4327.692383,4312.179688,4433.846191,4475.897461,4374.615234,4425.000000,1163.000000,0.000000,11.000000,,,,0.000000,2.000000,2.000000,0.000000,2.000000,2.000000,2.000000,1.000000,2.000000,4.000000,4.000000,4.000000,4.000000,2.000000,4.000000,25.000000,,,,,,,,,,,,,,,,,,,,,,,,,,,,
1732081987.781681,1732081987.784039,68.000000,0.000000,4363.333496,4324.358887,4327.436035,4331.794922,4315.641113,4325.384766,4308.205078,4335.128418,4330.641113,4312.948730,4438.974121,4473.589844,4373.589844,4426.153809,1190.000000,0.000000,11.000000,,,,0.000000,2.000000,2.000000,0.000000,2.000000,2.000000,2.000000,1.000000,2.000000,4.000000,4.000000,4.000000,4.000000,2.000000,4.000000,25.000000,,,,,,,,,,,,,,,,,17.000000,0.000000,0.608635,0.395569,-0.613098,0.311768,0.975705,0.080576,-0.066414,-76.319115,63.074345,27.336071
1732081987.789490,1732081987.791847,69.000000,0.000000,4361.794922,4321.922852,4328.846191,4329.615234,4329.230957,4320.512695,4307.051270,4334.358887,4331.153809,4312.179688,4439.487305,4471.282227,4375.512695,4426.410156,1067.000000,0.000000,11.000000,,,,0.000000,2.000000,2.000000,0.000000,2.000000,2.000000,2.000000,1.000000,2.000000,4.000000,4.000000,4.000000,4.000000,2.000000,4.000000,25.000000,,,,,,,,,,,,,,,,,,,,,,,,,,,,
1732081987.797298,1732081987.799855,70.000000,0.000000,4362.436035,4324.358887,4329.358887,4332.436035,4317.692383,4321.282227,4308.974121,4333.717773,4333.717773,4316.666504,4439.487305,4475.384766,4379.743652,4426.282227,195.000000,0.000000,11.000000,,,,0.000000,2.000000,2.000000,0.000000,2.000000,2.000000,2.000000,0.000000,2.000000,4.000000,4.000000,4.000000,4.000000,2.000000,4.000000,16.666666,,,,,,,,,,,,,,,,,,,,,,,,,,,,
1732081987.805106,1732081987.807663,71.000000,0.000000,4362.948730,4323.589844,4330.000000,4333.205078,4321.666504,4324.743652,4310.769043,4340.000000,4339.615234,4321.410156,4443.846191,4478.333496,4379.487305,4428.077148,1195.000000,0.000000,11.000000,,,,0.000000,2.000000,2.000000,0.000000,2.000000,2.000000,2.000000,0.000000,2.000000,4.000000,4.000000,4.000000,4.000000,2.000000,4.000000,16.666666,,,,,,,,,,,,,,,,,,,,,,,,,,,,
1732081987.812914,1732081987.815571,72.000000,0.000000,4363.333496,4321.538574,4329.102539,4329.358887,4337.051270,4323.333496,4311.153809,4345.256348,4340.897461,4318.974121,4442.179688,4476.153809,4375.256348,4426.538574,1337.000000,0.000000,11.000000,,,,0.000000,2.000000,2.000000,0.000000,2.000000,2.000000,2.000000,0.000000,2.000000,4.000000,4.000000,4.000000,4.000000,2.000000,4.000000,16.666666,,,,,,,,,,,,,,,,,18.000000,0.000000,0.608484,0.395081,-0.613159,0.312561,0.972775,0.092296,-0.068368,-76.153481,62.866886,27.257217
1732081987.820723,1732081987.823379,73.000000,0.000000,4357.307617,4322.051270,4327.563965,4328.589844,4323.461426,4327.179688,4317.179688,4343.974121,4339.102539,4315.641113,4433.461426,4474.743652,4371.922852,4417.051270,1469.000000,0.000000,11.000000,,,,0.000000,2.000000,2.000000,0.000000,2.000000,2.000000,2.000000,0.000000,2.000000,4.000000,4.000000,4.000000,4.000000,2.000000,4.000000,16.666666,,,,,,,,,,,,,,,,,,,,,,,,,,,,
1732081987.828531,1732081987.831387,74.000000,0.000000,4355.128418,4322.436035,4328.461426,4332.948730,4314.871582,4331.794922,4319.615234,4339.871582,4338.333496,4314.743652,4430.641113,4476.666504,4370.769043,4415.897461,1364.000000,0.000000,11.000000,,,,0.000000,2.000000,2.000000,0.000000,2.000000,2.000000,2.000000,0.000000,2.000000,4.000000,4.000000,4.000000,4.000000,2.000000,4.000000,16.666666,,,,,,,,,,,,,,,,,,,,,,,,,,,,
1732081987.836339,1732081987.839196,75.000000,0.000000,4362.307617,4324.230957,4331.025879,4334.743652,4327.820313,4327.820313,4315.128418,4339.230957,4337.436035,4313.205078,4430.384766,4475.897461,4374.230957,4426.666504,1487.000000,0.000000,11.000000,,,,0.000000,2.000000,2.000000,0.000000,2.000000,2.000000,2.000000,0.000000,2.000000,4.000000,4.000000,4.000000,4.000000,2.000000,4.000000,16.666666,,,,,,,,,,,,,,,,,,,,,,,,,,,,
1732081987.844147,1732081987.847104,76.000000,0.000000,4366.025879,4325.769043,4330.256348,4334.743652,4331.025879,4326.794922,4310.641113,4342.051270,4337.051270,4314.743652,4426.538574,4478.077148,4378.333496,4429.743652,1718.000000,0.000000,11.000000,,,,0.000000,2.000000,2.000000,0.000000,2.000000,2.000000,2.000000,0.000000,2.000000,4.000000,4.000000,4.000000,4.000000,2.000000,4.000000,16.666666,,,,,,,,,,,,,,,,,19.000000,0.000000,0.608102,0.393738,-0.613403,0.314514,0.988402,0.062996,-0.069344,-76.345985,62.892178,27.525013
1732081987.851956,1732081987.854912,77.000000,0.000000,4361.666504,4321.538574,4326.538574,4333.717773,4334.871582,4326.025879,4310.641113,4340.641113,4336.794922,4319.743652,4426.282227,4477.820313,4374.743652,4422.948730,1688.000000,0.000000,11.000000,,,,0.000000,2.000000,2.000000,0.000000,2.000000,2.000000,2.000000,0.000000,2.000000,4.000000,4.000000,4.000000,4.000000,2.000000,4.000000,16.666666,,,,,,,,,,,,,,,,,,,,,,,,,,,,
1732081987.859764,1732081987.862520,78.000000,0.000000,4355.897461,4316.538574,4323.461426,4327.051270,4342.436035,4320.897461,4310.769043,4340.769043,4339.487305,4326.538574,4431.410156,4475.641113,4370.000000,4418.461426,1364.000000,0.000000,11.000000,,,,0.000000,2.000000,2.000000,0.000000,2.000000,2.000000,2.000000,0.000000,2.000000,4.000000,4.000000,4.000000,4.000000,2.000000,4.000000,16.666666,1.000000,8.333333,2.000000,2.000000,0.000000,1.000000,2.000000,2.000000,0.000000,2.000000,3.000000,3.000000,4.000000,4.000000,2.000000,4.000000,,,,,,,,,,,,
1732081987.867572,1732081987.870328,79.000000,0.000000,4352.307617,4315.128418,4325.769043,4320.897461,4330.897461,4326.282227,4317.307617,4350.512695,4347.307617,4333.077148,4433.846191,4486.666504,4371.666504,4415.769043,1487.000000,0.000000,11.000000,,,,0.000000,2.000000,2.000000,0.000000,2.000000,2.000000,2.000000,0.000000,2.000000,4.000000,4.000000,4.000000,4.000000,2.000000,4.000000,16.666666,,,,,,,,,,,,,,,,,,,,,,,,,,,,
1732081987.875380,1732081987.878237,80.000000,0.000000,4348.717773,4314.230957,4328.333496,4321.025879,4321.025879,4335.000000,4322.948730,4354.871582,4351.922852,4335.128418,4435.512695,4492.563965,4372.563965,4412.051270,1718.000000,0.000000,11.000000,,,,0.000000,2.000000,2.000000,0.000000,2.000000,2.000000,2.000000,0.000000,2.000000,4.000000,4.000000,4.000000,4.000000,2.000000,4.000000,16.666666,,,,,,,,,,,,,,,,,20.000000,0.000000,0.607417,0.389832,-0.614624,0.318298,0.988890,0.052741,-0.051764,-76.501915,62.912663,27.625261
1732081987.883189,1732081987.886045,81.000000,0.000000,4346.794922,4308.846191,4327.179688,4320.641113,4327.948730,4328.974121,4319.230957,4347.179688,4347.436035,4330.641113,4440.256348,4478.717773,4372.563965,4413.333496,1688.000000,0.000000,11.000000,,,,0.000000,2.000000,2.000000,0.000000,2.000000,2.000000,2.000000,0.000000,2.000000,4.000000,4.000000,4.000000,4.000000,2.000000,4.000000,16.666666,,,,,,,,,,,,,,,,,,,,,,,,,,,,
1732081987.890997,1732081987.894053,82.000000,0.000000,4347.563965,4310.641113,4326.153809,4321.025879,4327.179688,4324.102539,4315.512695,4343.461426,4344.615234,4329.487305,4437.563965,4472.820313,4373.461426,4415.256348,1364.000000,0.000000,11.000000,,,,0.000000,2.000000,2.000000,0.000000,2.000000,2.000000,2.000000,0.000000,2.000000,4.000000,4.000000,4.000000,4.000000,2.000000,4.000000,16.666666,,,,,,,,,,,,,,,,,,,,,,,,,,,,
1732081987.898805,1732081987.901861,83.000000,0.000000,4347.820313,4316.153809,4327.179688,4323.974121,4328.717773,4329.871582,4318.846191,4346.153809,4346.410156,4331.538574,4430.384766,4479.102539,4370.897461,4409.871582,1487.000000,0.000000,11.000000,,,,0.000000,2.000000,2.000000,0.000000,2.000000,2.000000,2.000000,0.000000,2.000000,4.000000,4.000000,4.000000,4.000000,2.000000,4.000000,16.666666,,,,,,,,,,,,,,,,,,,,,,,,,,,,
1732081987.906613,1732081987.909769,84.000000,0.000000,4343.717773,4312.179688,4325.384766,4319.615234,4342.307617,4328.974121,4316.794922,4343.589844,4344.358887,4328.974121,4432.563965,4477.051270,4369.743652,4407.436035,1718.000000,0.000000,11.000000,,,,0.000000,2.000000,2.000000,0.000000,2.000000,2.000000,2.000000,0.000000,2.000000,4.000000,4.000000,4.000000,4.000000,2.000000,4.000000,16.666666,,,,,,,,,,,,,,,,,21.000000,0.000000,0.607320,0.387024,-0.615479,0.320251,0.969357,0.062019,-0.040532,-76.411552,62.795925,27.551460
1732081987.914422,1732081987.917577,85.000000,0.000000,4343.974121,4308.717773,4325.384766,4317.692383,4338.333496,4321.410156,4312.307617,4339.487305,4340.897461,4326.666504,4436.153809,4476.538574,4374.358887,4411.666504,1688.000000,0.000000,11.000000,,,,0.000000,2.000000,2.000000,0.000000,2.000000,2.000000,2.000000,0.000000,2.000000,4.000000,4.000000,4.000000,4.000000,2.000000,4.000000,16.666666,,,,,,,,,,,,,,,,,,,,,,,,,,,,
1732081987.922230,1732081987.925585,86.000000,0.000000,4349.487305,4311.922852,4327.820313,4325.641113,4325.384766,4326.282227,4315.256348,4344.102539,4342.563965,4330.256348,4438.461426,4483.974121,4376.666504,4413.333496,1364.000000,0.000000,11.000000,,,,0.000000,2.000000,2.000000,0.000000,2.000000,2.000000,2.000000,0.000000,2.000000,4.000000,4.000000,4.000000,4.000000,2.000000,4.000000,16.666666,,,,,,,,,,,,,,,,,,,,,,,,,,,,
1732081987.930038,1732081987.933394,87.000000,0.000000,4347.307617,4312.948730,4327.307617,4326.153809,4327.563965,4333.077148,4315.769043,4351.153809,4347.563965,4333.589844,4441.794922,4488.717773,4372.692383,4410.384766,1487.000000,0.000000,11.000000,,,,0.000000,2.000000,2.000000,0.000000,2.000000,2.000000,2.000000,0.000000,2.000000,4.000000,4.000000,4.000000,4.000000,2.000000,4.000000,16.666666,,,,,,,,,,,,,,,,,,,,,,,,,,,,
1732081987.937847,1732081987.941102,88.000000,0.000000,4343.589844,4310.000000,4325.256348,4320.769043,4336.153809,4329.358887,4315.000000,4352.179688,4350.256348,4330.384766,4435.256348,4487.307617,4367.820313,4409.487305,1718.000000,0.000000,11.000000,,,,0.000000,2.000000,2.000000,0.000000,2.000000,2.000000,2.000000,0.000000,2.000000,4.000000,4.000000,4.000000,4.000000,2.000000,4.000000,16.666666,,,,,,,,,,,,,,,,,22.000000,0.000000,0.607334,0.386353,-0.615601,0.320801,0.980588,0.047857,-0.039067,-76.808357,62.518032,27.225018
1732081987.945655,1732081987.948910,89.000000,0.000000,4346.794922,4310.641113,4326.794922,4321.538574,4345.000000,4325.512695,4317.563965,4350.128418,4348.333496,4330.000000,4427.692383,4485.000000,4367.820313,4408.974121,1688.000000,0.000000,11.000000,,,,0.000000,2.000000,2.000000,0.000000,2.000000,2.000000,2.000000,0.000000,2.000000,4.000000,4.000000,4.000000,4.000000,2.000000,4.000000,16.666666,,,,,,,,,,,,,,,,,,,,,,,,,,,,
1732081987.953463,1732081987.956518,90.000000,0.000000,4348.077148,4312.692383,4329.102539,4323.461426,4342.051270,4327.692383,4320.256348,4351.025879,4344.743652,4333.846191,4437.563965,4482.692383,4370.512695,4407.692383,1364.000000,0.000000,11.000000,,,,0.000000,2.000000,2.000000,0.000000,2.000000,2.000000,2.000000,0.000000,2.000000,4.000000,4.000000,4.000000,4.000000,2.000000,4.000000,16.666666,,,,,,,,,,,,,,,,,,,,,,,,,,,,
1732081987.961271,1732081987.964327,91.000000,0.000000,4345.641113,4313.717773,4328.589844,4325.769043,4328.846191,4327.820313,4318.461426,4353.077148,4347.051270,4332.436035,4446.666504,4480.897461,4370.128418,4404.615234,1487.000000,0.000000,11.000000,,,,0.000000,2.000000,2.000000,0.000000,2.000000,2.000000,2.000000,0.000000,2.000000,4.000000,4.000000,4.000000,4.000000,2.000000,4.000000,16.666666,,,,,,,,,,,,,,,,,,,,,,,,,,,,
1732081987.969080,1732081987.972035,92.000000,0.000000,4342.692383,4313.077148,4328.589844,4328.846191,4327.820313,4327.051270,4319.871582,4350.769043,4352.436035,4328.205078,4438.589844,4479.358887,4367.820313,4400.128418,1718.000000,0.000000,11.000000,,,,0.000000,2.000000,2.000000,0.000000,2.000000,2.000000,2.000000,0.000000,2.000000,4.000000,4.000000,4.000000,4.000000,2.000000,4.000000,16.666666,,,,,,,,,,,,,,,,,23.000000,0.000000,0.607679,0.385254,-0.615662,0.321350,0.986449,0.076670,-0.034672,-77.094772,62.027939,27.220596
1732081987.976888,1732081987.979843,93.000000,0.000000,4341.282227,4310.000000,4329.487305,4327.948730,4334.230957,4329.871582,4320.897461,4350.897461,4351.153809,4330.000000,4437.307617,4478.205078,4369.230957,4404.487305,1688.000000,0.000000,11.000000,,,,0.000000,2.000000,2.000000,0.000000,2.000000,2.000000,2.000000,0.000000,2.000000,4.000000,4.000000,4.000000,4.000000,2.000000,4.000000,16.666666,,,,,,,,,,,,,,,,,,,,,,,,,,,,
1732081987.984696,1732081987.987452,94.000000,0.000000,4342.307617,4313.461426,4329.743652,4329.102539,4335.641113,4328.717773,4317.051270,4353.333496,4345.384766,4331.410156,4442.692383,4477.563965,4369.358887,4410.000000,1364.000000,0.000000,11.000000,,,,0.000000,2.000000,2.000000,0.000000,2.000000,2.000000,2.000000,0.000000,2.000000,4.000000,4.000000,4.000000,4.000000,2.000000,4.000000,16.666666,,,,,,,,,,,,,,,,,,,,,,,,,,,,
1732081987.992504,1732081987.995260,95.000000,0.000000,4341.153809,4317.051270,4327.179688,4329.871582,4343.846191,4324.487305,4311.922852,4348.205078,4341.025879,4325.512695,4435.769043,4475.384766,4366.025879,4403.589844,1487.000000,0.000000,11.000000,,,,0.000000,2.000000,2.000000,0.000000,2.000000,2.000000,2.000000,0.000000,2.000000,4.000000,4.000000,4.000000,4.000000,2.000000,4.000000,16.666666,,,,,,,,,,,,,,,,,,,,,,,,,,,,
1732081988.000313,1732081988.002968,96.000000,0.000000,4336.666504,4313.461426,4327.179688,4326.025879,4345.897461,4324.871582,4311.794922,4342.692383,4340.769043,4323.461426,4428.333496,4476.025879,4364.230957,4396.410156,1718.000000,0.000000,11.000000,,,,0.000000,2.000000,2.000000,0.000000,2.000000,2.000000,2.000000,0.000000,2.000000,4.000000,4.000000,4.000000,4.000000,2.000000,4.000000,16.666666,,,,,,,,,,,,,,,,,24.000000,0.000000,0.608305,0.384949,-0.615234,0.321350,0.980588,0.078623,-0.050299,-77.243431,61.880962,27.217016
1732081988.008121,1732081988.010776,97.000000,0.000000,4339.743652,4311.153809,4328.077148,4327.307617,4327.563965,4326.410156,4314.743652,4344.871582,4342.436035,4326.922852,4430.256348,4474.743652,4364.615234,4399.230957,1688.000000,0.000000,11.000000,,,,0.000000,2.000000,2.000000,0.000000,2.000000,2.000000,2.000000,0.000000,2.000000,4.000000,4.000000,4.000000,4.000000,2.000000,4.000000,16.666666,,,,,,,,,,,,,,,,,,,,,,,,,,,,
1732081988.015929,1732081988.018385,98.000000,0.000000,4339.743652,4310.128418,4327.820313,4327.948730,4325.897461,4326.922852,4316.794922,4347.692383,4341.666504,4326.666504,4428.589844,4469.871582,4361.922852,4397.051270,1364.000000,0.000000,11.000000,,,,0.000000,2.000000,2.000000,0.000000,2.000000,2.000000,2.000000,0.000000,2.000000,4.000000,4.000000,4.000000,4.000000,2.000000,4.000000,16.666666,,,,,,,,,,,,,,,,,,,,,,,,,,,,
1732081988.023737,1732081988.026193,99.000000,0.000000,4332.563965,4307.051270,4325.512695,4321.922852,4347.051270,4326.922852,4316.025879,4343.589844,4337.307617,4322.307617,4424.743652,4468.205078,4359.230957,4387.307617,1487.000000,0.000000,11.000000,,,,0.000000,2.000000,2.000000,0.000000,2.000000,2.000000,2.000000,0.000000,2.000000,4.000000,4.000000,4.000000,4.000000,2.000000,4.000000,16.666666,,,,,,,,,,,,,,,,,,,,,,,,,,,,
1732081988.031546,1732081988.033901,100.000000,0.000000,4330.256348,4306.282227,4325.897461,4319.743652,4347.692383,4325.897461,4318.205078,4343.974121,4335.256348,4318.846191,4429.358887,4468.846191,4360.641113,4388.974121,1718.000000,0.000000,11.000000,,,,0.000000,2.000000,2.000000,0.000000,2.000000,2.000000,2.000000,0.000000,2.000000,4.000000,4.000000,4.000000,4.000000,2.000000,4.000000,16.666666,,,,,,,,,,,,,,,,,25.000000,0.000000,0.608400,0.385193,-0.615051,0.321228,0.983030,0.083995,-0.043462,-77.320511,61.956913,27.237450
1732081988.039354,1732081988.041709,101.000000,0.000000,4330.769043,4312.051270,4327.051270,4325.256348,4331.282227,4325.641113,4319.615234,4350.256348,4337.179688,4320.641113,4430.256348,4474.358887,4364.871582,4397.436035,1688.000000,0.000000,11.000000,,,,0.000000,2.000000,2.000000,0.000000,2.000000,2.000000,2.000000,0.000000,2.000000,4.000000,4.000000,4.000000,4.000000,2.000000,4.000000,16.666666,,,,,,,,,,,,,,,,,,,,,,,,,,,,
1732081988.047162,1732081988.049717,102.000000,0.000000,4332.051270,4316.282227,4328.205078,4330.000000,4329.230957,4326.794922,4314.871582,4349.871582,4334.615234,4321.282227,4425.641113,4484.743652,4364.358887,4400.256348,1364.000000,0.000000,11.000000,,,,0.000000,2.000000,2.000000,0.000000,2.000000,2.000000,2.000000,0.000000,2.000000,4.000000,4.000000,4.000000,4.000000,2.000000,4.000000,16.666666,,,,,,,,,,,,,,,,,,,,,,,,,,,,
1732081988.054970,1732081988.057526,103.000000,0.000000,4335.769043,4314.871582,4327.436035,4327.948730,4334.102539,4325.384766,4311.282227,4340.897461,4330.641113,4317.179688,4427.948730,4487.692383,4361.025879,4398.589844,1487.000000,0.000000,11.000000,,,,0.000000,2.000000,2.000000,0.000000,2.000000,2.000000,2.000000,0.000000,2.000000,4.000000,4.000000,4.000000,4.000000,2.000000,4.000000,16.666666,,,,,,,,,,,,,,,,,,,,,,,,,,,,
1732081988.062779,1732081988.065434,104.000000,0.000000,4338.717773,4313.077148,4327.563965,4326.025879,4331.538574,4324.102539,4311.794922,4333.846191,4329.743652,4316.794922,4434.487305,4480.769043,4362.820313,4398.077148,1718.000000,0.000000,11.000000,,,,0.000000,2.000000,2.000000,0.000000,2.000000,2.000000,2.000000,0.000000,2.000000,4.000000,4.000000,4.000000,4.000000,2.000000,4.000000,16.666666,,,,,,,,,,,,,,,,,26.000000,0.000000,0.608474,0.385864,-0.614685,0.320984,0.982542,0.086436,-0.046881,-77.424614,61.713432,27.317335
1732081988.070587,1732081988.073242,105.000000,0.000000,4336.538574,4311.282227,4328.589844,4329.102539,4339.615234,4325.000000,4311.410156,4338.461426,4331.282227,4321.922852,4432.692383,4475.512695,4362.179688,4397.563965,1688.000000,0.000000,11.000000,,,,0.000000,2.000000,2.000000,0.000000,2.000000,2.000000,2.000000,0.000000,2.000000,4.000000,4.000000,4.000000,4.000000,2.000000,4.000000,16.666666,,,,,,,,,,,,,,,,,,,,,,,,,,,,
1732081988.078395,1732081988.080850,106.000000,0.000000,4332.051270,4311.282227,4326.922852,4327.436035,4344.871582,4321.794922,4311.538574,4341.922852,4334.102539,4323.077148,4428.461426,4476.922852,4357.948730,4397.563965,1364.000000,0.000000,11.000000,,,,0.000000,2.000000,2.000000,0.000000,2.000000,2.000000,2.000000,0.000000,2.000000,4.000000,4.000000,4.000000,4.000000,2.000000,4.000000,16.666666,,,,,,,,,,,,,,,,,,,,,,,,,,,,
1732081988.086203,1732081988.088659,107.000000,0.000000,4325.897461,4312.948730,4325.256348,4318.846191,4324.871582,4323.205078,4316.538574,4341.025879,4337.563965,4321.666504,4430.128418,4479.871582,4354.871582,4396.794922,1487.000000,0.000000,11.000000,,,,0.000000,2.000000,2.000000,0.000000,2.000000,2.000000,2.000000,0.000000,2.000000,4.000000,4.000000,4.000000,4.000000,2.000000,4.000000,16.666666,,,,,,,,,,,,,,,,,,,,,,,,,,,,
1732081988.094012,1732081988.096367,108.000000,0.000000,4322.051270,4310.641113,4327.692383,4320.128418,4314.743652,4330.128418,4317.307617,4346.538574,4337.051270,4322.692383,4428.205078,4481.282227,4350.512695,4390.384766,1718.000000,0.000000,11.000000,,,,0.000000,2.000000,2.000000,0.000000,2.000000,2.000000,2.000000,0.000000,2.000000,4.000000,4.000000,4.000000,4.000000,2.000000,4.000000,16.666666,,,,,,,,,,,,,,,,,27.000000,0.000000,0.607955,0.387451,-0.614136,0.321106,0.973263,0.083506,-0.062996,-77.623940,61.642879,27.142040
1732081988.101820,1732081988.104175,109.000000,0.000000,4320.897461,4306.410156,4328.205078,4324.487305,4326.538574,4330.769043,4318.077148,4351.025879,4333.974121,4319.230957,4425.128418,4476.025879,4348.333496,4385.000000,1688.000000,0.000000,11.000000,,,,0.000000,2.000000,2.000000,0.000000,2.000000,2.000000,2.000000,0.000000,2.000000,4.000000,4.000000,4.000000,4.000000,2.000000,4.000000,16.666666,,,,,,,,,,,,,,,,,,,,,,,,,,,,
1732081988.109628,1732081988.111784,110.000000,0.000000,4315.256348,4305.641113,4323.589844,4316.666504,4333.333496,4330.256348,4319.487305,4348.974121,4335.641113,4315.384766,4422.948730,4463.717773,4350.769043,4386.538574,1364.000000,0.000000,11.000000,,,,0.000000,2.000000,2.000000,0.000000,2.000000,2.000000,2.000000,0.000000,2.000000,4.000000,4.000000,4.000000,4.000000,2.000000,4.000000,16.666666,,,,,,,,,,,,,,,,,,,,,,,,,,,,
1732081988.117437,1732081988.119592,111.000000,0.000000,4312.436035,4304.358887,4324.487305,4310.384766,4331.282227,4335.256348,4317.563965,4351.282227,4337.563965,4316.538574,4418.077148,4462.948730,4347.563965,4386.794922,1487.000000,0.000000,11.000000,,,,0.000000,2.000000,2.000000,0.000000,2.000000,2.000000,2.000000,0.000000,2.000000,4.000000,4.000000,4.000000,4.000000,2.000000,4.000000,16.666666,,,,,,,,,,,,,,,,,,,,,,,,,,,,
1732081988.125245,1732081988.127300,112.000000,0.000000,4317.948730,4303.205078,4326.538574,4316.922852,4324.230957,4339.230957,4315.769043,4354.743652,4337.692383,4318.461426,4418.205078,4472.563965,4343.461426,4384.487305,1718.000000,0.000000,11.000000,,,,0.000000,2.000000,2.000000,0.000000,2.000000,2.000000,2.000000,0.000000,2.000000,4.000000,4.000000,4.000000,4.000000,2.000000,4.000000,16.666666,,,,,,,,,,,,,,,,,28.000000,0.000000,0.607758,0.387756,-0.614075,0.321228,0.969845,0.078135,-0.055671,-77.685387,61.652401,27.233387
1732081988.133053,1732081988.135108,113.000000,0.000000,4324.230957,4310.256348,4328.717773,4324.743652,4320.641113,4337.692383,4318.205078,4347.307617,4334.743652,4318.717773,4420.256348,4475.512695,4349.230957,4388.205078,1688.000000,0.000000,11.000000,,,,0.000000,2.000000,2.000000,0.000000,2.000000,2.000000,2.000000,0.000000,2.000000,4.000000,4.000000,4.000000,4.000000,2.000000,4.000000,16.666666,,,,,,,,,,,,,,,,,,,,,,,,,,,,
1732081988.140861,1732081988.143116,114.000000,0.000000,4324.102539,4316.153809,4331.794922,4324.230957,4323.077148,4333.333496,4315.384766,4340.128418,4330.000000,4319.871582,4420.641113,4473.205078,4352.436035,4393.461426,1364.000000,0.000000,11.000000,,,,0.000000,2.000000,2.000000,0.000000,2.000000,2.000000,2.000000,0.000000,2.000000,4.000000,4.000000,4.000000,4.000000,2.000000,4.000000,16.666666,,,,,,,,,,,,,,,,,,,,,,,,,,,,
1732081988.148670,1732081988.150924,115.000000,0.000000,4323.077148,4312.563965,4330.897461,4322.307617,4325.000000,4328.846191,4311.153809,4344.358887,4335.256348,4318.589844,4425.512695,4473.461426,4352.051270,4391.025879,1487.000000,0.000000,11.000000,,,,0.000000,2.000000,2.000000,0.000000,2.000000,2.000000,2.000000,0.000000,2.000000,4.000000,4.000000,4.000000,4.000000,2.000000,4.000000,16.666666,,,,,,,,,,,,,,,,,,,,,,,,,,,,
1732081988.156478,1732081988.158833,116.000000,0.000000,4323.846191,4309.487305,4324.230957,4322.307617,4330.256348,4325.128418,4313.333496,4349.487305,4337.563965,4314.487305,4430.897461,4475.256348,4351.666504,4389.487305,1718.000000,0.000000,11.000000,,,,0.000000,2.000000,2.000000,0.000000,2.000000,2.000000,2.000000,0.000000,2.000000,4.000000,4.000000,4.000000,4.000000,2.000000,4.000000,16.666666,,,,,,,,,,,,,,,,,29.000000,0.000000,0.607680,0.387634,-0.614197,0.321289,0.969845,0.078135,-0.055671,-77.808502,61.623444,27.632376
1732081988.164286,1732081988.166641,117.000000,0.000000,4320.128418,4308.717773,4323.974121,4316.538574,4330.000000,4325.641113,4316.025879,4349.743652,4331.410156,4314.615234,4423.974121,4471.794922,4346.410156,4385.769043,1688.000000,0.000000,11.000000,,,,0.000000,2.000000,2.000000,0.000000,2.000000,2.000000,2.000000,0.000000,2.000000,4.000000,4.000000,4.000000,4.000000,2.000000,4.000000,16.666666,,,,,,,,,,,,,,,,,,,,,,,,,,,,
1732081988.172094,1732081988.174249,118.000000,0.000000,4314.358887,4306.410156,4327.563965,4311.282227,4314.230957,4335.641113,4319.615234,4352.563965,4337.307617,4317.179688,4415.384766,4467.307617,4340.256348,4377.436035,1364.000000,0.000000,11.000000,,,,0.000000,2.000000,2.000000,0.000000,2.000000,2.000000,2.000000,0.000000,2.000000,4.000000,4.000000,4.000000,4.000000,2.000000,4.000000,16.666666,,,,,,,,,,,,,,,,,,,,,,,,,,,,
1732081988.179902,1732081988.182057,119.000000,0.000000,4312.563965,4307.948730,4324.487305,4312.948730,4313.205078,4341.025879,4322.436035,4356.666504,4350.000000,4318.589844,4416.025879,4463.589844,4340.384766,4376.282227,1487.000000,0.000000,11.000000,,,,0.000000,2.000000,2.000000,0.000000,2.000000,2.000000,2.000000,0.000000,2.000000,4.000000,4.000000,4.000000,4.000000,2.000000,4.000000,16.666666,,,,,,,,,,,,,,,,,,,,,,,,,,,,
1732081988.187711,1732081988.189766,120.000000,0.000000,4313.205078,4311.410156,4320.128418,4316.538574,4328.333496,4332.051270,4320.641113,4351.794922,4342.692383,4316.538574,4415.000000,4461.025879,4341.794922,4379.230957,1718.000000,0.000000,11.000000,,,,0.000000,2.000000,2.000000,0.000000,2.000000,2.000000,2.000000,0.000000,2.000000,4.000000,4.000000,4.000000,4.000000,2.000000,4.000000,16.666666,,,,,,,,,,,,,,,,,30.000000,0.000000,0.607056,0.387451,-0.614258,0.322571,0.983518,0.082530,-0.061043,-77.774887,61.518322,27.565557
1732081988.195519,1732081988.197574,121.000000,0.000000,4313.717773,4312.563965,4323.205078,4316.922852,4321.282227,4327.179688,4315.897461,4343.205078,4331.153809,4313.205078,4414.102539,4459.615234,4340.512695,4377.692383,1688.000000,0.000000,11.000000,,,,0.000000,2.000000,2.000000,0.000000,2.000000,2.000000,2.000000,0.000000,2.000000,4.000000,4.000000,4.000000,4.000000,2.000000,4.000000,16.666666,,,,,,,,,,,,,,,,,,,,,,,,,,,,
1732081988.203327,1732081988.205582,122.000000,0.000000,4315.128418,4311.153809,4325.128418,4313.974121,4318.461426,4329.230957,4314.102539,4340.769043,4335.128418,4311.666504,4412.563965,4455.512695,4339.871582,4373.717773,1364.000000,0.000000,11.000000,,,,0.000000,2.000000,2.000000,0.000000,2.000000,2.000000,2.000000,0.000000,2.000000,4.000000,4.000000,4.000000,4.000000,2.000000,4.000000,16.666666,,,,,,,,,,,,,,,,,,,,,,,,,,,,
1732081988.211136,1732081988.213390,123.000000,0.000000,4316.538574,4310.512695,4322.563965,4314.358887,4335.641113,4326.153809,4311.922852,4341.025879,4338.461426,4312.820313,4412.563965,4456.153809,4341.410156,4372.307617,1487.000000,0.000000,11.000000,,,,0.000000,2.000000,2.000000,0.000000,2.000000,2.000000,2.000000,0.000000,2.000000,4.000000,4.000000,4.000000,4.000000,2.000000,4.000000,16.666666,,,,,,,,,,,,,,,,,,,,,,,,,,,,
1732081988.218944,1732081988.221298,124.000000,0.000000,4317.179688,4312.307617,4322.820313,4317.948730,4328.205078,4324.743652,4312.307617,4340.641113,4333.846191,4312.051270,4415.384766,4470.000000,4342.563965,4377.051270,1718.000000,0.000000,11.000000,,,,0.000000,2.000000,2.000000,0.000000,2.000000,2.000000,2.000000,0.000000,2.000000,4.000000,4.000000,4.000000,4.000000,2.000000,4.000000,16.666666,,,,,,,,,,,,,,,,,31.000000,0.000000,0.606893,0.387085,-0.614136,0.323547,0.978635,0.055671,-0.052252,-77.845993,61.371510,27.483103
1732081988.226752,1732081988.229106,125.000000,0.000000,4316.922852,4312.692383,4325.384766,4319.358887,4311.794922,4327.820313,4313.077148,4342.179688,4332.436035,4311.922852,4414.743652,4475.256348,4342.179688,4379.743652,1688.000000,0.000000,11.000000,,,,0.000000,2.000000,2.000000,0.000000,2.000000,2.000000,2.000000,0.000000,2.000000,4.000000,4.000000,4.000000,4.000000,2.000000,4.000000,16.666666,,,,,,,,,,,,,,,,,,,,,,,,,,,,
1732081988.234560,1732081988.237114,126.000000,0.000000,4313.205078,4308.333496,4326.922852,4314.487305,4318.205078,4325.769043,4314.743652,4341.922852,4335.128418,4314.871582,4412.179688,4461.538574,4341.794922,4372.179688,1364.000000,0.000000,11.000000,,,,0.000000,2.000000,2.000000,0.000000,2.000000,2.000000,2.000000,0.000000,2.000000,4.000000,4.000000,4.000000,4.000000,2.000000,4.000000,16.666666,,,,,,,,,,,,,,,,,,,,,,,,,,,,
1732081988.242369,1732081988.244923,127.000000,0.000000,4308.333496,4305.897461,4326.794922,4310.000000,4322.692383,4324.743652,4317.692383,4341.666504,4336.666504,4316.153809,4413.461426,4456.794922,4341.282227,4367.179688,11.000000,0.000000,11.000000,,,,0.000000,2.000000,2.000000,0.000000,2.000000,2.000000,2.000000,0.000000,2.000000,4.000000,4.000000,4.000000,4.000000,2.000000,4.000000,16.666666,,,,,,,,,,,,,,,,,,,,,,,,,,,,
1732081988.250177,1732081988.252831,0.000000,0.000000,4306.410156,4308.589844,4325.256348,4307.692383,4324.487305,4329.615234,4318.333496,4343.846191,4335.256348,4313.461426,4414.230957,4463.717773,4338.717773,4370.641113,0.000000,0.000000,11.000000,,,,0.000000,2.000000,2.000000,0.000000,2.000000,2.000000,2.000000,0.000000,2.000000,4.000000,4.000000,4.000000,4.000000,2.000000,4.000000,16.666666,,,,,,,,,,,,,,,,,0.000000,0.000000,0.606665,0.387024,-0.614014,0.324280,0.985472,0.056648,-0.041997,-77.745255,61.335922,27.216312
1732081988.257985,1732081988.260639,1.000000,0.000000,4306.922852,4310.897461,4322.179688,4310.512695,4336.025879,4332.820313,4316.666504,4342.563965,4334.743652,4309.871582,4408.846191,4457.948730,4336.025879,4368.077148,1285.000000,0.000000,11.000000,,,,0.000000,2.000000,2.000000,0.000000,2.000000,2.000000,2.000000,0.000000,2.000000,4.000000,4.000000,4.000000,4.000000,2.000000,4.000000,16.666666,,,,,,,,,,,,,,,,,,,,,,,,,,,,
1732081988.265793,1732081988.268247,2.000000,0.000000,4307.436035,4309.743652,4322.307617,4313.205078,4327.436035,4328.589844,4317.436035,4340.256348,4333.205078,4308.717773,4409.871582,4452.563965,4335.256348,4366.538574,1212.000000,0.000000,11.000000,,,,0.000000,2.000000,2.000000,0.000000,2.000000,2.000000,2.000000,0.000000,2.000000,4.000000,4.000000,4.000000,4.000000,2.000000,4.000000,16.666666,,,,,,,,,,,,,,,,,,,,,,,,,,,,
1732081988.273602,1732081988.276056,3.000000,0.000000,4309.487305,4310.512695,4322.179688,4311.794922,4312.563965,4323.333496,4315.000000,4342.692383,4331.538574,4309.102539,4415.128418,4459.743652,4339.102539,4374.615234,1163.000000,0.000000,11.000000,,,,0.000000,2.000000,2.000000,0.000000,2.000000,2.000000,2.000000,0.000000,2.000000,4.000000,4.000000,4.000000,4.000000,2.000000,4.000000,16.666666,,,,,,,,,,,,,,,,,,,,,,,,,,,,
1732081988.281410,1732081988.283964,4.000000,0.000000,4312.179688,4312.692383,4323.846191,4314.487305,4324.743652,4327.179688,4313.205078,4340.897461,4330.000000,4306.410156,4407.692383,4457.051270,4338.333496,4373.974121,1195.000000,0.000000,11.000000,,,,0.000000,2.000000,2.000000,0.000000,2.000000,2.000000,2.000000,0.000000,2.000000,4.000000,4.000000,4.000000,4.000000,2.000000,4.000000,16.666666,,,,,,,,,,,,,,,,,1.000000,0.000000,0.606710,0.386902,-0.614014,0.324341,0.992309,0.051764,-0.053717,-77.793655,60.860432,27.016880
1732081988.289218,1732081988.291772,5.000000,0.000000,4311.153809,4312.179688,4324.871582,4317.436035,4331.410156,4330.256348,4316.538574,4334.871582,4329.487305,4304.615234,4400.769043,4445.769043,4331.794922,4364.230957,1067.000000,0.000000,11.000000,,,,0.000000,2.000000,2.000000,0.000000,2.000000,2.000000,2.000000,0.000000,2.000000,4.000000,4.000000,4.000000,4.000000,2.000000,4.000000,16.666666,,,,,,,,,,,,,,,,,,,,,,,,,,,,
1732081988.297027,1732081988.299780,6.000000,0.000000,4309.615234,4310.897461,4324.358887,4314.871582,4320.641113,4323.717773,4317.051270,4337.179688,4329.358887,4304.230957,4404.230957,4449.615234,4328.589844,4364.615234,197.000000,0.000000,11.000000,,,,0.000000,2.000000,2.000000,0.000000,2.000000,2.000000,2.000000,1.000000,2.000000,4.000000,4.000000,4.000000,4.000000,2.000000,4.000000,25.000000,,,,,,,,,,,,,,,,,,,,,,,,,,,,
1732081988.304835,1732081988.307588,7.000000,0.000000,4310.897461,4310.897461,4323.717773,4312.179688,4320.384766,4319.615234,4313.717773,4343.077148,4329.358887,4303.205078,4409.102539,4463.846191,4330.641113,4368.461426,1195.000000,0.000000,11.000000,,,,0.000000,2.000000,2.000000,0.000000,2.000000,2.000000,2.000000,1.000000,2.000000,4.000000,4.000000,4.000000,4.000000,2.000000,4.000000,25.000000,,,,,,,,,,,,,,,,,,,,,,,,,,,,
1732081988.312643,1732081988.315296,8.000000,0.000000,4309.487305,4306.410156,4325.000000,4309.230957,4317.692383,4324.102539,4315.000000,4342.179688,4329.871582,4304.743652,4412.179688,4463.589844,4334.487305,4367.820313,1337.000000,0.000000,11.000000,,,,0.000000,2.000000,2.000000,0.000000,2.000000,2.000000,2.000000,1.000000,2.000000,4.000000,4.000000,4.000000,4.000000,2.000000,4.000000,25.000000,,,,,,,,,,,,,,,,,2.000000,0.000000,0.606354,0.386658,-0.614197,0.324951,0.977658,0.053229,-0.052252,-77.591194,60.938614,27.025339
1732081988.320451,1732081988.323105,9.000000,0.000000,4302.692383,4302.692383,4323.974121,4306.922852,4311.794922,4327.436035,4320.000000,4340.897461,4331.666504,4310.769043,4413.717773,4449.615234,4339.615234,4367.563965,1469.000000,0.000000,11.000000,,,,0.000000,2.000000,2.000000,0.000000,2.000000,2.000000,2.000000,1.000000,2.000000,4.000000,4.000000,4.000000,4.000000,2.000000,4.000000,25.000000,,,,,,,,,,,,,,,,,,,,,,,,,,,,
1732081988.328259,1732081988.330713,10.000000,0.000000,4298.846191,4304.358887,4318.717773,4308.205078,4324.615234,4324.358887,4318.974121,4340.384766,4332.051270,4310.641113,4411.153809,4442.820313,4341.410156,4365.128418,1364.000000,0.000000,11.000000,,,,0.000000,2.000000,2.000000,0.000000,2.000000,2.000000,2.000000,1.000000,2.000000,4.000000,4.000000,4.000000,4.000000,2.000000,4.000000,25.000000,,,,,,,,,,,,,,,,,,,,,,,,,,,,
1732081988.336068,1732081988.338521,11.000000,0.000000,4299.358887,4302.948730,4316.410156,4307.179688,4327.307617,4325.641113,4319.102539,4340.128418,4329.743652,4305.641113,4410.641113,4445.000000,4337.051270,4361.410156,1491.000000,0.000000,11.000000,,,,0.000000,2.000000,2.000000,0.000000,2.000000,2.000000,2.000000,1.000000,2.000000,4.000000,4.000000,4.000000,4.000000,2.000000,4.000000,25.000000,,,,,,,,,,,,,,,,,,,,,,,,,,,,
1732081988.343876,1732081988.346429,12.000000,0.000000,4301.922852,4299.358887,4320.384766,4304.487305,4309.102539,4330.128418,4320.641113,4341.794922,4330.897461,4306.410156,4414.487305,4446.282227,4336.538574,4364.871582,1721.000000,0.000000,11.000000,,,,0.000000,2.000000,2.000000,0.000000,2.000000,2.000000,2.000000,1.000000,2.000000,4.000000,4.000000,4.000000,4.000000,2.000000,4.000000,25.000000,,,,,,,,,,,,,,,,,3.000000,0.000000,0.606360,0.386414,-0.614441,0.324768,0.983518,0.050299,-0.056159,-77.600533,60.903610,26.947191
1732081988.351684,1732081988.354238,13.000000,0.000000,4305.769043,4303.205078,4323.717773,4310.256348,4308.205078,4327.948730,4320.256348,4342.563965,4335.128418,4309.871582,4412.436035,4444.743652,4337.436035,4367.179688,1690.000000,0.000000,11.000000,,,,0.000000,2.000000,2.000000,0.000000,2.000000,2.000000,2.000000,1.000000,2.000000,4.000000,4.000000,4.000000,4.000000,2.000000,4.000000,25.000000,,,,,,,,,,,,,,,,,,,,,,,,,,,,
1732081988.359492,1732081988.361846,14.000000,0.000000,4308.205078,4309.743652,4322.051270,4315.769043,4320.769043,4323.974121,4319.743652,4342.436035,4337.307617,4307.692383,4413.846191,4445.512695,4333.077148,4363.846191,1364.000000,0.000000,11.000000,,,,0.000000,2.000000,2.000000,0.000000,2.000000,2.000000,2.000000,1.000000,2.000000,4.000000,4.000000,4.000000,4.000000,2.000000,4.000000,25.000000,1.000000,16.666666,2.000000,2.000000,0.000000,2.000000,2.000000,2.000000,0.000000,2.000000,4.000000,4.000000,4.000000,4.000000,2.000000,3.000000,,,,,,,,,,,,
1732081988.367301,1732081988.369654,15.000000,0.000000,4307.179688,4311.282227,4322.179688,4315.641113,4314.102539,4327.051270,4322.307617,4346.153809,4334.743652,4304.102539,4419.230957,4452.179688,4332.692383,4361.538574,1491.000000,0.000000,11.000000,,,,0.000000,2.000000,2.000000,0.000000,2.000000,2.000000,2.000000,1.000000,2.000000,4.000000,4.000000,4.000000,4.000000,2.000000,4.000000,25.000000,,,,,,,,,,,,,,,,,,,,,,,,,,,,
1732081988.375109,1732081988.377363,16.000000,0.000000,4308.461426,4310.641113,4322.307617,4318.974121,4313.589844,4326.666504,4319.743652,4348.205078,4330.641113,4303.333496,4412.307617,4456.153809,4335.512695,4360.769043,0.000000,0.000000,11.000000,,,,0.000000,2.000000,2.000000,0.000000,2.000000,2.000000,2.000000,1.000000,2.000000,4.000000,4.000000,4.000000,4.000000,2.000000,4.000000,25.000000,,,,,,,,,,,,,,,,,4.000000,0.000000,0.606360,0.386414,-0.614441,0.324768,0.980588,0.069833,-0.050787,-77.713097,60.740257,26.973892
1732081988.382917,1732081988.385171,17.000000,0.000000,4312.436035,4311.153809,4321.666504,4321.282227,4325.769043,4319.871582,4317.307617,4344.487305,4330.128418,4303.589844,4402.179688,4457.051270,4333.589844,4359.358887,0.000000,0.000000,11.000000,,,,0.000000,2.000000,2.000000,0.000000,2.000000,2.000000,2.000000,1.000000,2.000000,4.000000,4.000000,4.000000,4.000000,2.000000,4.000000,25.000000,,,,,,,,,,,,,,,,,,,,,,,,,,,,
1732081988.390725,1732081988.392779,18.000000,0.000000,4311.922852,4312.563965,4322.692383,4318.077148,4317.948730,4319.358887,4319.871582,4341.282227,4331.282227,4306.025879,4406.538574,4459.230957,4334.743652,4362.692383,0.000000,0.000000,11.000000,,,,0.000000,2.000000,2.000000,0.000000,2.000000,2.000000,2.000000,1.000000,2.000000,4.000000,4.000000,4.000000,4.000000,2.000000,4.000000,25.000000,,,,,,,,,,,,,,,,,,,,,,,,,,,,
1732081988.398534,1732081988.400587,19.000000,0.000000,4309.487305,4312.948730,4324.102539,4314.871582,4305.769043,4323.717773,4321.666504,4342.692383,4328.974121,4305.641113,4416.153809,4457.948730,4341.666504,4365.897461,0.000000,0.000000,11.000000,,,,0.000000,2.000000,2.000000,0.000000,2.000000,2.000000,2.000000,1.000000,2.000000,4.000000,4.000000,4.000000,4.000000,2.000000,4.000000,25.000000,,,,,,,,,,,,,,,,,,,,,,,,,,,,
1732081988.406342,1732081988.408296,20.000000,0.000000,4309.487305,4310.256348,4321.153809,4314.871582,4309.743652,4325.512695,4322.563965,4343.589844,4327.692383,4303.205078,4415.128418,4457.051270,4341.794922,4364.358887,0.000000,0.000000,11.000000,,,,0.000000,2.000000,2.000000,0.000000,2.000000,2.000000,2.000000,1.000000,2.000000,4.000000,4.000000,4.000000,4.000000,2.000000,4.000000,25.000000,,,,,,,,,,,,,,,,,5.000000,0.000000,0.606178,0.386597,-0.614441,0.324890,0.976682,0.070321,-0.045416,-77.480942,60.802944,27.062185
1732081988.414150,1732081988.416104,21.000000,0.000000,4309.871582,4308.461426,4319.358887,4312.436035,4314.102539,4321.410156,4321.410156,4340.128418,4330.384766,4306.666504,4412.051270,4461.538574,4338.205078,4363.205078,0.000000,0.000000,11.000000,,,,0.000000,2.000000,2.000000,0.000000,2.000000,2.000000,2.000000,1.000000,2.000000,4.000000,4.000000,4.000000,4.000000,2.000000,4.000000,25.000000,,,,,,,,,,,,,,,,,,,,,,,,,,,,
1732081988.421959,1732081988.423712,22.000000,0.000000,4309.487305,4309.743652,4320.256348,4311.282227,4310.641113,4316.538574,4319.230957,4338.589844,4331.282227,4311.538574,4413.974121,4456.794922,4341.538574,4365.256348,0.000000,0.000000,11.000000,,,,0.000000,2.000000,2.000000,0.000000,2.000000,2.000000,2.000000,1.000000,2.000000,4.000000,4.000000,4.000000,4.000000,2.000000,4.000000,25.000000,,,,,,,,,,,,,,,,,,,,,,,,,,,,
1732081988.429767,1732081988.431521,23.000000,0.000000,4308.717773,4309.487305,4322.179688,4314.358887,4305.897461,4319.871582,4321.282227,4343.077148,4330.384766,4309.487305,4414.102539,4448.333496,4340.641113,4363.717773,0.000000,0.000000,11.000000,,,,0.000000,2.000000,2.000000,0.000000,2.000000,2.000000,2.000000,1.000000,2.000000,4.000000,4.000000,4.000000,4.000000,2.000000,4.000000,25.000000,,,,,,,,,,,,,,,,,,,,,,,,,,,,
1732081988.437575,1732081988.439229,24.000000,0.000000,4308.717773,4307.307617,4321.153809,4312.820313,4310.897461,4321.282227,4323.717773,4343.846191,4328.589844,4302.820313,4414.230957,4450.897461,4335.897461,4358.589844,0.000000,0.000000,11.000000,,,,0.000000,2.000000,2.000000,0.000000,2.000000,2.000000,2.000000,1.000000,2.000000,4.000000,4.000000,4.000000,4.000000,2.000000,4.000000,25.000000,,,,,,,,,,,,,,,,,6.000000,0.000000,0.605976,0.386719,-0.614563,0.324890,0.992797,0.068368,-0.055671,-77.412895,60.842049,27.275370
1732081988.445383,1732081988.447037,25.000000,0.000000,4310.000000,4309.230957,4318.461426,4309.743652,4318.846191,4315.384766,4318.717773,4340.256348,4327.179688,4298.717773,4412.436035,4452.563965,4338.717773,4360.512695,0.000000,0.000000,11.000000,,,,0.000000,2.000000,2.000000,0.000000,2.000000,2.000000,2.000000,1.000000,2.000000,4.000000,4.000000,4.000000,4.000000,2.000000,4.000000,25.000000,,,,,,,,,,,,,,,,,,,,,,,,,,,,
1732081988.453192,1732081988.454645,26.000000,0.000000,4312.692383,4312.436035,4317.692383,4312.692383,4310.000000,4316.922852,4318.077148,4340.128418,4326.794922,4298.974121,4405.000000,4447.948730,4339.743652,4362.692383,0.000000,0.000000,11.000000,,,,0.000000,2.000000,2.000000,0.000000,2.000000,2.000000,2.000000,1.000000,2.000000,4.000000,4.000000,4.000000,4.000000,2.000000,4.000000,25.000000,,,,,,,,,,,,,,,,,,,,,,,,,,,,
1732081988.461000,1732081988.462454,27.000000,0.000000,4311.282227,4309.487305,4318.589844,4316.153809,4300.128418,4320.384766,4321.153809,4338.461426,4326.153809,4302.179688,4407.051270,4443.717773,4337.179688,4357.436035,0.000000,0.000000,11.000000,,,,0.000000,2.000000,2.000000,0.000000,2.000000,2.000000,2.000000,1.000000,2.000000,4.000000,4.000000,4.000000,4.000000,2.000000,4.000000,25.000000,,,,,,,,,,,,,,,,,,,,,,,,,,,,
1732081988.468808,1732081988.470162,28.000000,0.000000,4306.538574,4307.563965,4320.256348,4313.717773,4307.179688,4315.769043,4321.410156,4337.820313,4326.794922,4302.436035,4414.358887,4440.897461,4337.051270,4356.153809,0.000000,0.000000,11.000000,,,,0.000000,2.000000,2.000000,0.000000,2.000000,2.000000,2.000000,1.000000,2.000000,4.000000,4.000000,4.000000,4.000000,2.000000,4.000000,25.000000,,,,,,,,,,,,,,,,,7.000000,0.000000,0.605252,0.387390,-0.614563,0.325439,0.963008,0.068856,-0.055183,-77.442780,60.937061,27.258051
1732081988.476616,1732081988.477970,29.000000,0.000000,4304.871582,4308.077148,4320.256348,4311.922852,4318.333496,4315.769043,4319.230957,4339.358887,4327.820313,4300.769043,4404.743652,4443.333496,4335.128418,4361.410156,0.000000,0.000000,11.000000,,,,0.000000,2.000000,2.000000,0.000000,2.000000,2.000000,2.000000,1.000000,2.000000,4.000000,4.000000,4.000000,4.000000,2.000000,4.000000,25.000000,,,,,,,,,,,,,,,,,,,,,,,,,,,,
1732081988.484425,1732081988.485579,30.000000,0.000000,4305.769043,4306.922852,4320.512695,4312.820313,4320.897461,4318.333496,4321.666504,4333.461426,4323.333496,4298.846191,4396.282227,4447.692383,4333.717773,4362.179688,0.000000,0.000000,11.000000,,,,0.000000,2.000000,2.000000,0.000000,2.000000,2.000000,2.000000,1.000000,2.000000,4.000000,4.000000,4.000000,4.000000,2.000000,4.000000,25.000000,,,,,,,,,,,,,,,,,,,,,,,,,,,,
1732081988.492233,1732081988.493387,31.000000,0.000000,4305.384766,4305.384766,4320.641113,4309.871582,4309.102539,4315.384766,4322.563965,4329.615234,4320.384766,4300.512695,4407.436035,4443.717773,4336.025879,4358.717773,0.000000,0.000000,11.000000,,,,0.000000,2.000000,2.000000,0.000000,2.000000,2.000000,2.000000,1.000000,2.000000,4.000000,4.000000,4.000000,4.000000,2.000000,4.000000,25.000000,,,,,,,,,,,,,,,,,,,,,,,,,,,,
1732081988.500041,1732081988.501295,32.000000,0.000000,4302.436035,4303.333496,4319.358887,4306.666504,4297.051270,4314.615234,4322.563965,4335.128418,4324.230957,4301.282227,4411.025879,4439.230957,4336.538574,4356.666504,0.000000,0.000000,11.000000,,,,0.000000,2.000000,2.000000,0.000000,2.000000,2.000000,2.000000,1.000000,2.000000,4.000000,4.000000,4.000000,4.000000,2.000000,4.000000,25.000000,,,,,,,,,,,,,,,,,8.000000,0.000000,0.605252,0.387390,-0.614563,0.325439,0.963008,0.068856,-0.055183,-77.481987,61.059021,27.109020
1732081988.507849,1732081988.509103,33.000000,0.000000,4303.461426,4303.333496,4316.922852,4310.256348,4301.922852,4317.307617,4321.025879,4337.307617,4325.512695,4297.436035,4404.871582,4442.051270,4336.538574,4359.743652,0.000000,0.000000,11.000000,,,,0.000000,2.000000,2.000000,0.000000,2.000000,2.000000,2.000000,1.000000,2.000000,4.000000,4.000000,4.000000,4.000000,2.000000,4.000000,25.000000,,,,,,,,,,,,,,,,,,,,,,,,,,,,
1732081988.515658,1732081988.516712,34.000000,0.000000,4308.333496,4307.051270,4318.974121,4314.487305,4309.743652,4313.717773,4319.615234,4333.461426,4322.820313,4296.538574,4408.461426,4443.333496,4338.846191,4365.512695,0.000000,0.000000,11.000000,,,,0.000000,2.000000,2.000000,0.000000,2.000000,2.000000,2.000000,1.000000,2.000000,4.000000,4.000000,4.000000,4.000000,2.000000,4.000000,25.000000,,,,,,,,,,,,,,,,,,,,,,,,,,,,
1732081988.523466,1732081988.524520,35.000000,0.000000,4308.589844,4308.974121,4317.948730,4312.179688,4309.743652,4309.358887,4318.461426,4334.358887,4322.820313,4298.974121,4409.743652,4437.436035,4335.769043,4362.692383,0.000000,0.000000,11.000000,,,,0.000000,2.000000,2.000000,0.000000,2.000000,2.000000,2.000000,1.000000,2.000000,4.000000,4.000000,4.000000,4.000000,2.000000,4.000000,25.000000,,,,,,,,,,,,,,,,,,,,,,,,,,,,
1732081988.531274,1732081988.532228,36.000000,0.000000,4301.794922,4306.410156,4317.051270,4306.410156,4308.974121,4310.384766,4318.077148,4334.615234,4321.153809,4297.307617,4401.922852,4436.025879,4332.436035,4358.589844,0.000000,0.000000,11.000000,,,,0.000000,2.000000,2.000000,0.000000,2.000000,2.000000,2.000000,1.000000,2.000000,4.000000,4.000000,4.000000,4.000000,2.000000,4.000000,25.000000,,,,,,,,,,,,,,,,,9.000000,0.000000,0.604846,0.387756,-0.614441,0.325989,0.986937,0.048346,-0.050299,-77.513741,60.811138,26.858307
1732081988.539082,1732081988.540036,37.000000,0.000000,4297.563965,4305.128418,4319.102539,4306.794922,4300.512695,4312.436035,4318.461426,4332.563965,4320.897461,4297.179688,4396.538574,4444.102539,4336.025879,4364.230957,0.000000,0.000000,11.000000,,,,0.000000,2.000000,2.000000,0.000000,2.000000,2.000000,2.000000,1.000000,2.000000,4.000000,4.000000,4.000000,4.000000,2.000000,4.000000,25.000000,,,,,,,,,,,,,,,,,,,,,,,,,,,,
1732081988.546891,1732081988.548044,38.000000,0.000000,4298.205078,4305.769043,4320.128418,4311.153809,4295.769043,4314.102539,4318.974121,4333.717773,4323.717773,4300.384766,4397.179688,4448.205078,4332.563965,4365.128418,0.000000,0.000000,11.000000,,,,0.000000,2.000000,2.000000,0.000000,2.000000,2.000000,2.000000,1.000000,2.000000,4.000000,4.000000,4.000000,4.000000,2.000000,4.000000,25.000000,,,,,,,,,,,,,,,,,,,,,,,,,,,,
1732081988.554699,1732081988.555852,39.000000,0.000000,4298.461426,4307.692383,4318.461426,4311.666504,4307.436035,4313.461426,4321.153809,4333.717773,4322.436035,4298.333496,4400.769043,4437.692383,4325.512695,4358.077148,0.000000,0.000000,11.000000,,,,0.000000,2.000000,2.000000,0.000000,2.000000,2.000000,2.000000,1.000000,2.000000,4.000000,4.000000,4.000000,4.000000,2.000000,4.000000,25.000000,,,,,,,,,,,,,,,,,,,,,,,,,,,,
1732081988.562507,1732081988.563761,40.000000,0.000000,4298.205078,4307.563965,4318.077148,4310.769043,4309.230957,4312.563965,4318.461426,4334.615234,4318.333496,4297.051270,4402.820313,4428.205078,4331.922852,4360.641113,0.000000,0.000000,11.000000,,,,0.000000,2.000000,2.000000,0.000000,2.000000,2.000000,2.000000,1.000000,2.000000,4.000000,4.000000,4.000000,4.000000,2.000000,4.000000,25.000000,,,,,,,,,,,,,,,,,10.000000,0.000000,0.604784,0.387756,-0.614502,0.325989,0.970333,0.058601,-0.051764,-77.529465,60.605354,26.665228
1732081988.570315,1732081988.571569,41.000000,0.000000,4300.128418,4305.128418,4318.461426,4312.436035,4297.179688,4311.025879,4316.410156,4335.000000,4320.000000,4301.410156,4404.230957,4437.948730,4337.051270,4367.436035,0.000000,0.000000,11.000000,,,,0.000000,2.000000,2.000000,0.000000,2.000000,2.000000,2.000000,1.000000,2.000000,4.000000,4.000000,4.000000,4.000000,2.000000,4.000000,25.000000,,,,,,,,,,,,,,,,,,,,,,,,,,,,
1732081988.578124,1732081988.579177,42.000000,0.000000,4303.205078,4302.820313,4319.743652,4311.153809,4293.846191,4307.820313,4317.051270,4334.102539,4322.948730,4302.948730,4403.846191,4445.897461,4329.230957,4365.384766,0.000000,0.000000,11.000000,,,,0.000000,2.000000,2.000000,0.000000,2.000000,2.000000,2.000000,1.000000,2.000000,4.000000,4.000000,4.000000,4.000000,2.000000,4.000000,25.000000,,,,,,,,,,,,,,,,,,,,,,,,,,,,
1732081988.585932,1732081988.586985,43.000000,0.000000,4302.179688,4301.794922,4321.538574,4307.436035,4299.358887,4307.436035,4319.102539,4335.128418,4321.410156,4302.307617,4403.333496,4438.589844,4324.230957,4364.358887,0.000000,0.000000,11.000000,,,,0.000000,2.000000,2.000000,0.000000,2.000000,2.000000,2.000000,1.000000,2.000000,4.000000,4.000000,4.000000,4.000000,2.000000,4.000000,25.000000,,,,,,,,,,,,,,,,,,,,,,,,,,,,
1732081988.593740,1732081988.594694,44.000000,0.000000,4302.563965,4303.589844,4318.461426,4309.230957,4295.384766,4306.410156,4318.974121,4334.230957,4321.282227,4302.948730,4408.205078,4436.282227,4328.333496,4367.948730,0.000000,0.000000,11.000000,,,,0.000000,2.000000,2.000000,0.000000,2.000000,2.000000,2.000000,1.000000,2.000000,4.000000,4.000000,4.000000,4.000000,2.000000,4.000000,25.000000,,,,,,,,,,,,,,,,,11.000000,0.000000,0.604708,0.387817,-0.614441,0.326172,0.970333,0.058601,-0.051764,-77.208862,60.775337,26.455502
1732081988.601549,1732081988.602502,45.000000,0.000000,4306.794922,4305.128418,4317.692383,4308.461426,4292.948730,4301.282227,4319.358887,4331.794922,4322.051270,4302.692383,4410.384766,4445.384766,4328.333496,4368.974121,0.000000,0.000000,11.000000,,,,0.000000,2.000000,2.000000,0.000000,2.000000,2.000000,2.000000,1.000000,2.000000,4.000000,4.000000,4.000000,4.000000,2.000000,4.000000,25.000000,,,,,,,,,,,,,,,,,,,,,,,,,,,,
1732081988.609357,1732081988.610510,46.000000,0.000000,4307.692383,4301.922852,4320.512695,4298.589844,4304.871582,4300.512695,4320.769043,4329.487305,4322.051270,4303.461426,4402.179688,4449.871582,4324.230957,4368.333496,0.000000,0.000000,11.000000,,,,0.000000,2.000000,2.000000,0.000000,2.000000,2.000000,2.000000,1.000000,2.000000,4.000000,4.000000,4.000000,4.000000,2.000000,4.000000,25.000000,,,,,,,,,,,,,,,,,,,,,,,,,,,,
1732081988.617165,1732081988.618318,47.000000,0.000000,4304.487305,4298.717773,4320.256348,4294.487305,4304.871582,4307.436035,4321.153809,4329.230957,4323.717773,4306.282227,4399.230957,4447.692383,4326.922852,4369.230957,0.000000,0.000000,11.000000,,,,0.000000,2.000000,2.000000,0.000000,2.000000,2.000000,2.000000,1.000000,2.000000,4.000000,4.000000,4.000000,4.000000,2.000000,4.000000,25.000000,,,,,,,,,,,,,,,,,,,,,,,,,,,,
1732081988.624973,1732081988.626226,48.000000,0.000000,4304.871582,4299.358887,4317.436035,4299.615234,4294.358887,4311.153809,4319.230957,4331.794922,4325.000000,4308.589844,4410.512695,4444.743652,4333.205078,4372.436035,0.000000,0.000000,11.000000,,,,0.000000,2.000000,2.000000,0.000000,2.000000,2.000000,2.000000,1.000000,2.000000,4.000000,4.000000,4.000000,4.000000,2.000000,4.000000,25.000000,,,,,,,,,,,,,,,,,12.000000,0.000000,0.604445,0.388306,-0.614197,0.326538,0.970333,0.069833,-0.062996,-77.417511,60.681358,26.358957
1732081988.632782,1732081988.634034,49.000000,0.000000,4307.051270,4303.461426,4317.948730,4303.974121,4293.205078,4311.153809,4322.307617,4335.512695,4323.205078,4305.641113,4410.128418,4435.897461,4333.717773,4368.589844,0.000000,0.000000,11.000000,,,,0.000000,2.000000,2.000000,0.000000,2.000000,2.000000,2.000000,1.000000,2.000000,4.000000,4.000000,4.000000,4.000000,2.000000,4.000000,25.000000,,,,,,,,,,,,,,,,,,,,,,,,,,,,
1732081988.640590,1732081988.642042,50.000000,0.000000,4307.179688,4308.589844,4317.820313,4309.871582,4299.230957,4312.307617,4323.589844,4333.846191,4322.820313,4299.230957,4397.307617,4424.615234,4326.922852,4361.153809,0.000000,0.000000,11.000000,,,,0.000000,2.000000,2.000000,0.000000,2.000000,2.000000,2.000000,1.000000,2.000000,4.000000,4.000000,4.000000,4.000000,2.000000,4.000000,25.000000,,,,,,,,,,,,,,,,,,,,,,,,,,,,
1732081988.648398,1732081988.649851,51.000000,0.000000,4305.897461,4309.871582,4318.717773,4314.358887,4308.205078,4310.256348,4318.589844,4327.436035,4320.512695,4295.897461,4393.974121,4421.410156,4323.846191,4360.641113,0.000000,0.000000,11.000000,,,,0.000000,2.000000,2.000000,0.000000,2.000000,2.000000,2.000000,1.000000,2.000000,4.000000,4.000000,4.000000,4.000000,2.000000,4.000000,25.000000,,,,,,,,,,,,,,,,,,,,,,,,,,,,
1732081988.656206,1732081988.657759,52.000000,0.000000,4300.897461,4306.153809,4319.358887,4312.179688,4310.128418,4309.358887,4318.333496,4328.077148,4317.307617,4298.333496,4396.922852,4425.256348,4325.897461,4362.179688,0.000000,0.000000,11.000000,,,,0.000000,2.000000,2.000000,0.000000,2.000000,2.000000,2.000000,1.000000,2.000000,4.000000,4.000000,4.000000,4.000000,2.000000,4.000000,25.000000,,,,,,,,,,,,,,,,,13.000000,0.000000,0.604403,0.388184,-0.614380,0.326416,0.988402,0.064949,-0.053229,-77.569855,60.505234,26.164087
1732081988.664015,1732081988.665567,53.000000,0.000000,4298.589844,4301.538574,4318.846191,4310.384766,4296.666504,4313.461426,4324.358887,4333.589844,4320.641113,4301.922852,4398.974121,4431.153809,4325.512695,4359.487305,0.000000,0.000000,11.000000,,,,0.000000,2.000000,2.000000,0.000000,2.000000,2.000000,2.000000,1.000000,2.000000,4.000000,4.000000,4.000000,4.000000,2.000000,4.000000,25.000000,,,,,,,,,,,,,,,,,,,,,,,,,,,,
1732081988.671823,1732081988.673575,54.000000,0.000000,4298.589844,4298.717773,4316.794922,4311.410156,4288.461426,4315.128418,4323.974121,4334.615234,4323.846191,4299.487305,4397.563965,4432.948730,4324.743652,4360.256348,0.000000,0.000000,11.000000,,,,0.000000,2.000000,2.000000,0.000000,2.000000,2.000000,2.000000,1.000000,2.000000,4.000000,4.000000,4.000000,4.000000,2.000000,4.000000,25.000000,,,,,,,,,,,,,,,,,,,,,,,,,,,,
1732081988.679631,1732081988.681383,55.000000,0.000000,4294.871582,4298.974121,4317.948730,4307.436035,4300.000000,4312.307617,4321.538574,4332.948730,4321.666504,4296.282227,4394.358887,4430.256348,4322.692383,4361.025879,0.000000,0.000000,11.000000,,,,0.000000,2.000000,2.000000,0.000000,2.000000,2.000000,2.000000,1.000000,2.000000,4.000000,4.000000,4.000000,4.000000,2.000000,4.000000,25.000000,,,,,,,,,,,,,,,,,,,,,,,,,,,,
1732081988.687439,1732081988.689291,56.000000,0.000000,4294.487305,4300.897461,4317.948730,4300.897461,4299.230957,4312.307617,4324.230957,4333.846191,4323.077148,4301.410156,4397.307617,4426.025879,4324.871582,4357.820313,0.000000,0.000000,11.000000,,,,0.000000,2.000000,2.000000,0.000000,2.000000,2.000000,2.000000,1.000000,2.000000,4.000000,4.000000,4.000000,4.000000,2.000000,4.000000,25.000000,,,,,,,,,,,,,,,,,14.000000,0.000000,0.604476,0.388123,-0.614380,0.326355,0.984007,0.069833,-0.059089,-77.398247,60.567574,26.417912
1732081988.695248,1732081988.697099,57.000000,0.000000,4299.487305,4299.102539,4316.410156,4297.563965,4290.512695,4309.615234,4324.230957,4333.461426,4326.666504,4307.563965,4408.461426,4430.641113,4330.384766,4363.846191,0.000000,0.000000,11.000000,,,,0.000000,2.000000,2.000000,0.000000,2.000000,2.000000,2.000000,1.000000,2.000000,4.000000,4.000000,4.000000,4.000000,2.000000,4.000000,25.000000,,,,,,,,,,,,,,,,,,,,,,,,,,,,
1732081988.703056,1732081988.705107,58.000000,0.000000,4297.179688,4295.384766,4316.410156,4296.538574,4298.974121,4298.974121,4321.922852,4327.307617,4324.358887,4302.051270,4411.153809,4439.358887,4328.077148,4372.692383,0.000000,0.000000,11.000000,,,,0.000000,2.000000,2.000000,0.000000,2.000000,2.000000,2.000000,1.000000,2.000000,4.000000,4.000000,4.000000,4.000000,2.000000,4.000000,25.000000,,,,,,,,,,,,,,,,,,,,,,,,,,,,
1732081988.710864,1732081988.712916,59.000000,0.000000,4295.897461,4296.025879,4319.102539,4302.692383,4302.179688,4300.641113,4319.743652,4324.615234,4321.025879,4296.794922,4402.948730,4435.641113,4321.153809,4366.794922,0.000000,0.000000,11.000000,,,,0.000000,2.000000,2.000000,0.000000,2.000000,2.000000,2.000000,1.000000,2.000000,4.000000,4.000000,4.000000,4.000000,2.000000,4.000000,25.000000,,,,,,,,,,,,,,,,,,,,,,,,,,,,
1732081988.718672,1732081988.720624,60.000000,0.000000,4301.666504,4300.256348,4320.384766,4312.948730,4293.717773,4310.641113,4320.641113,4325.384766,4321.538574,4301.922852,4400.000000,4428.333496,4321.794922,4356.025879,0.000000,0.000000,11.000000,,,,0.000000,2.000000,2.000000,0.000000,2.000000,2.000000,2.000000,1.000000,2.000000,4.000000,4.000000,4.000000,4.000000,2.000000,4.000000,25.000000,,,,,,,,,,,,,,,,,15.000000,0.000000,0.604325,0.388306,-0.614380,0.326416,0.958125,0.062996,-0.053229,-77.639244,60.586399,26.275175
1732081988.726481,1732081988.728432,61.000000,0.000000,4298.974121,4302.179688,4317.436035,4312.051270,4292.051270,4306.282227,4322.307617,4324.102539,4321.794922,4304.358887,4400.897461,4435.000000,4325.641113,4357.179688,0.000000,0.000000,11.000000,,,,0.000000,2.000000,2.000000,0.000000,2.000000,2.000000,2.000000,1.000000,2.000000,4.000000,4.000000,4.000000,4.000000,2.000000,4.000000,25.000000,,,,,,,,,,,,,,,,,,,,,,,,,,,,
1732081988.734289,1732081988.736041,62.000000,0.000000,4295.512695,4301.282227,4317.307617,4304.102539,4295.641113,4305.000000,4324.871582,4325.641113,4320.512695,4301.025879,4403.461426,4441.794922,4323.205078,4363.333496,0.000000,0.000000,11.000000,,,,0.000000,2.000000,2.000000,0.000000,2.000000,2.000000,2.000000,1.000000,2.000000,4.000000,4.000000,4.000000,4.000000,2.000000,4.000000,25.000000,,,,,,,,,,,,,,,,,,,,,,,,,,,,
1732081988.742097,1732081988.743849,63.000000,0.000000,4303.077148,4304.743652,4318.461426,4305.384766,4298.205078,4308.717773,4321.922852,4328.333496,4320.512695,4302.436035,4406.666504,4440.256348,4326.282227,4366.282227,0.000000,0.000000,11.000000,,,,0.000000,2.000000,2.000000,0.000000,2.000000,2.000000,2.000000,1.000000,2.000000,4.000000,4.000000,4.000000,4.000000,2.000000,4.000000,25.000000,,,,,,,,,,,,,,,,,,,,,,,,,,,,
1732081988.749905,1732081988.751557,64.000000,0.000000,4306.410156,4309.358887,4320.128418,4309.487305,4303.717773,4301.025879,4319.871582,4328.461426,4319.487305,4305.128418,4399.871582,4440.128418,4330.641113,4365.897461,0.000000,0.000000,11.000000,,,,0.000000,2.000000,2.000000,0.000000,2.000000,2.000000,2.000000,1.000000,2.000000,4.000000,4.000000,4.000000,4.000000,2.000000,4.000000,25.000000,,,,,,,,,,,,,,,,,16.000000,0.000000,0.604193,0.388550,-0.614258,0.326599,0.974728,0.060554,-0.069344,-77.757790,60.644985,26.254559
1732081988.757714,1732081988.759365,65.000000,0.000000,4302.436035,4306.025879,4317.692383,4307.820313,4301.025879,4299.230957,4321.538574,4328.846191,4317.563965,4299.871582,4394.102539,4436.666504,4326.794922,4363.589844,1285.000000,0.000000,11.000000,,,,0.000000,2.000000,2.000000,0.000000,2.000000,2.000000,2.000000,1.000000,2.000000,4.000000,4.000000,4.000000,4.000000,2.000000,4.000000,25.000000,,,,,,,,,,,,,,,,,,,,,,,,,,,,
1732081988.765522,1732081988.766974,66.000000,0.000000,4304.102539,4301.538574,4316.025879,4308.333496,4289.615234,4311.538574,4324.615234,4328.974121,4318.846191,4296.410156,4400.897461,4433.589844,4325.000000,4367.051270,1212.000000,0.000000,11.000000,,,,0.000000,2.000000,2.000000,0.000000,2.000000,2.000000,2.000000,1.000000,2.000000,4.000000,4.000000,4.000000,4.000000,2.000000,4.000000,25.000000,,,,,,,,,,,,,,,,,,,,,,,,,,,,
1732081988.773330,1732081988.774782,67.000000,0.000000,4305.769043,4302.563965,4317.436035,4309.487305,4293.333496,4311.538574,4323.846191,4327.820313,4321.794922,4301.538574,4406.794922,4439.487305,4326.282227,4370.769043,1163.000000,0.000000,11.000000,,,,0.000000,2.000000,2.000000,0.000000,2.000000,2.000000,2.000000,1.000000,2.000000,4.000000,4.000000,4.000000,4.000000,2.000000,4.000000,25.000000,,,,,,,,,,,,,,,,,,,,,,,,,,,,
1732081988.781139,1732081988.782490,68.000000,0.000000,4298.333496,4301.282227,4319.871582,4306.153809,4298.333496,4303.077148,4322.179688,4328.589844,4322.179688,4305.256348,4401.410156,4438.846191,4325.256348,4360.128418,1195.000000,0.000000,11.000000,,,,0.000000,2.000000,2.000000,0.000000,2.000000,2.000000,2.000000,1.000000,2.000000,4.000000,4.000000,4.000000,4.000000,2.000000,4.000000,25.000000,,,,,,,,,,,,,,,,,17.000000,0.000000,0.604115,0.388672,-0.614258,0.326599,0.968380,0.076670,-0.066903,-77.915474,60.634102,26.221191
1732081988.788947,1732081988.790299,69.000000,0.000000,4296.410156,4301.538574,4317.179688,4308.589844,4291.794922,4307.692383,4323.461426,4331.794922,4322.051270,4305.512695,4396.794922,4428.461426,4323.846191,4352.436035,1067.000000,0.000000,11.000000,,,,0.000000,2.000000,2.000000,0.000000,2.000000,2.000000,2.000000,1.000000,2.000000,4.000000,4.000000,4.000000,4.000000,2.000000,4.000000,25.000000,,,,,,,,,,,,,,,,,,,,,,,,,,,,
1732081988.796755,1732081988.797907,70.000000,0.000000,4301.025879,4307.948730,4314.871582,4314.743652,4298.974121,4312.820313,4323.974121,4335.000000,4320.897461,4303.461426,4401.153809,4431.538574,4325.897461,4361.282227,202.000000,0.000000,11.000000,,,,0.000000,2.000000,2.000000,0.000000,2.000000,2.000000,2.000000,1.000000,2.000000,4.000000,4.000000,4.000000,4.000000,2.000000,4.000000,25.000000,,,,,,,,,,,,,,,,,,,,,,,,,,,,
1732081988.804563,1732081988.805715,71.000000,0.000000,4301.922852,4309.230957,4316.282227,4315.256348,4309.743652,4309.871582,4322.307617,4335.512695,4318.717773,4300.897461,4405.512695,4441.538574,4329.871582,4365.256348,1195.000000,0.000000,11.000000,,,,0.000000,2.000000,2.000000,0.000000,2.000000,2.000000,2.000000,1.000000,2.000000,4.000000,4.000000,4.000000,4.000000,2.000000,4.000000,25.000000,,,,,,,,,,,,,,,,,,,,,,,,,,,,
1732081988.812372,1732081988.813423,72.000000,0.000000,4302.692383,4304.871582,4317.948730,4313.461426,4298.717773,4307.436035,4322.051270,4329.743652,4317.948730,4302.179688,4403.717773,4435.384766,4331.922852,4358.077148,1337.000000,0.000000,11.000000,,,,0.000000,2.000000,2.000000,0.000000,2.000000,2.000000,2.000000,1.000000,2.000000,4.000000,4.000000,4.000000,4.000000,2.000000,4.000000,25.000000,,,,,,,,,,,,,,,,,18.000000,0.000000,0.604086,0.388672,-0.614319,0.326538,0.972775,0.054694,-0.062019,-77.818207,60.630291,26.294167
1732081988.820180,1732081988.821232,73.000000,0.000000,4302.692383,4306.666504,4318.333496,4314.487305,4289.102539,4307.820313,4325.512695,4324.615234,4316.922852,4301.666504,4398.077148,4427.179688,4326.025879,4358.205078,1469.000000,0.000000,11.000000,,,,0.000000,2.000000,2.000000,0.000000,2.000000,2.000000,2.000000,1.000000,2.000000,4.000000,4.000000,4.000000,4.000000,2.000000,4.000000,25.000000,,,,,,,,,,,,,,,,,,,,,,,,,,,,
1732081988.827988,1732081988.828840,74.000000,0.000000,4299.358887,4306.282227,4319.102539,4315.641113,4290.512695,4309.230957,4324.358887,4327.692383,4316.282227,4297.563965,4395.512695,4431.410156,4316.794922,4363.846191,1351.000000,0.000000,11.000000,,,,0.000000,2.000000,2.000000,0.000000,2.000000,2.000000,2.000000,1.000000,2.000000,4.000000,4.000000,4.000000,4.000000,2.000000,4.000000,25.000000,,,,,,,,,,,,,,,,,,,,,,,,,,,,
1732081988.835796,1732081988.836648,75.000000,0.000000,4295.512695,4301.410156,4317.948730,4313.077148,4297.436035,4308.205078,4321.410156,4328.717773,4315.256348,4294.743652,4394.230957,4426.922852,4316.538574,4360.769043,1492.000000,0.000000,11.000000,,,,0.000000,2.000000,2.000000,0.000000,2.000000,2.000000,2.000000,1.000000,2.000000,4.000000,4.000000,4.000000,4.000000,2.000000,4.000000,25.000000,,,,,,,,,,,,,,,,,,,,,,,,,,,,
1732081988.843604,1732081988.844357,76.000000,0.000000,4295.641113,4303.717773,4316.153809,4310.128418,4308.205078,4305.256348,4321.025879,4325.641113,4313.974121,4293.974121,4389.230957,4412.948730,4316.282227,4349.871582,1730.000000,0.000000,11.000000,,,,0.000000,2.000000,2.000000,0.000000,2.000000,2.000000,2.000000,1.000000,2.000000,4.000000,4.000000,4.000000,4.000000,2.000000,4.000000,25.000000,,,,,,,,,,,,,,,,,19.000000,0.000000,0.604139,0.388550,-0.614441,0.326355,0.989379,0.071298,-0.050299,-77.737747,60.628868,26.363274
1732081988.851413,1732081988.852165,77.000000,0.000000,4292.948730,4302.563965,4316.666504,4310.000000,4302.051270,4307.179688,4324.615234,4328.205078,4315.512695,4292.179688,4385.897461,4417.051270,4312.948730,4346.666504,1691.000000,0.000000,11.000000,,,,0.000000,2.000000,2.000000,0.000000,2.000000,2.000000,2.000000,1.000000,2.000000,4.000000,4.000000,4.000000,4.000000,2.000000,4.000000,25.000000,,,,,,,,,,,,,,,,,,,,,,,,,,,,
1732081988.859221,1732081988.859773,78.000000,0.000000,4290.897461,4297.820313,4315.897461,4310.128418,4286.025879,4312.563965,4325.512695,4331.410156,4318.589844,4294.230957,4391.410156,4426.666504,4314.230957,4355.512695,1351.000000,0.000000,11.000000,,,,0.000000,2.000000,2.000000,0.000000,2.000000,2.000000,2.000000,1.000000,2.000000,4.000000,4.000000,4.000000,4.000000,2.000000,4.000000,25.000000,1.000000,16.666666,2.000000,2.000000,0.000000,2.000000,2.000000,2.000000,0.000000,2.000000,4.000000,3.000000,4.000000,4.000000,2.000000,4.000000,,,,,,,,,,,,
1732081988.867029,1732081988.867581,79.000000,0.000000,4296.538574,4302.179688,4317.436035,4312.051270,4292.436035,4304.743652,4324.358887,4328.717773,4318.077148,4297.051270,4398.333496,4420.384766,4318.461426,4360.512695,1492.000000,0.000000,11.000000,,,,0.000000,2.000000,2.000000,0.000000,2.000000,2.000000,2.000000,1.000000,2.000000,4.000000,4.000000,4.000000,4.000000,2.000000,4.000000,25.000000,,,,,,,,,,,,,,,,,,,,,,,,,,,,
1732081988.874838,1732081988.875290,80.000000,0.000000,4302.692383,4309.358887,4318.205078,4315.512695,4298.333496,4295.769043,4322.692383,4325.897461,4317.563965,4298.205078,4397.563965,4421.666504,4324.102539,4361.282227,1730.000000,0.000000,11.000000,,,,0.000000,2.000000,2.000000,0.000000,2.000000,2.000000,2.000000,1.000000,2.000000,4.000000,4.000000,4.000000,4.000000,2.000000,4.000000,25.000000,,,,,,,,,,,,,,,,,20.000000,0.000000,0.604271,0.388306,-0.614563,0.326172,0.968380,0.059089,-0.054694,-77.867577,60.736050,26.460918
1732081988.882646,1732081988.883098,81.000000,0.000000,4302.563965,4304.358887,4317.179688,4311.922852,4290.769043,4303.333496,4322.436035,4327.948730,4319.615234,4299.230957,4397.436035,4438.333496,4324.871582,4362.948730,1691.000000,0.000000,11.000000,,,,0.000000,2.000000,2.000000,0.000000,2.000000,2.000000,2.000000,1.000000,2.000000,4.000000,4.000000,4.000000,4.000000,2.000000,4.000000,25.000000,,,,,,,,,,,,,,,,,,,,,,,,,,,,
1732081988.890454,1732081988.890706,82.000000,0.000000,4293.717773,4298.461426,4314.743652,4305.769043,4302.692383,4303.974121,4322.307617,4331.025879,4319.871582,4297.820313,4403.205078,4437.692383,4318.974121,4359.871582,1351.000000,0.000000,11.000000,,,,0.000000,2.000000,2.000000,0.000000,2.000000,2.000000,2.000000,1.000000,2.000000,4.000000,4.000000,4.000000,4.000000,2.000000,4.000000,25.000000,,,,,,,,,,,,,,,,,,,,,,,,,,,,
1732081988.898262,1732081988.898515,83.000000,0.000000,4292.307617,4304.102539,4315.769043,4307.820313,4304.615234,4295.000000,4324.487305,4334.230957,4321.666504,4298.589844,4405.641113,4431.922852,4317.051270,4362.307617,1492.000000,0.000000,11.000000,,,,0.000000,2.000000,2.000000,0.000000,2.000000,2.000000,2.000000,1.000000,2.000000,4.000000,4.000000,4.000000,4.000000,2.000000,4.000000,25.000000,,,,,,,,,,,,,,,,,,,,,,,,,,,,
1732081988.906071,1732081988.906223,84.000000,0.000000,4305.512695,4308.461426,4318.077148,4314.871582,4283.589844,4302.563965,4326.410156,4335.384766,4325.128418,4301.282227,4399.102539,4438.461426,4320.641113,4370.256348,1730.000000,0.000000,11.000000,,,,0.000000,2.000000,2.000000,0.000000,2.000000,2.000000,2.000000,1.000000,2.000000,4.000000,4.000000,4.000000,4.000000,2.000000,4.000000,25.000000,,,,,,,,,,,,,,,,,21.000000,0.000000,0.604323,0.388367,-0.614441,0.326233,0.970822,0.073251,-0.060554,-77.987732,60.912868,26.405010
1732081988.913879,1732081988.914031,85.000000,0.000000,4308.461426,4306.922852,4318.589844,4318.846191,4294.871582,4308.974121,4323.461426,4331.025879,4321.666504,4297.436035,4395.769043,4436.282227,4319.487305,4366.794922,1691.000000,0.000000,11.000000,,,,0.000000,2.000000,2.000000,0.000000,2.000000,2.000000,2.000000,1.000000,2.000000,4.000000,4.000000,4.000000,4.000000,2.000000,4.000000,25.000000,,,,,,,,,,,,,,,,,,,,,,,,,,,,
1732081988.921687,1732081988.922039,86.000000,0.000000,4297.948730,4306.794922,4315.384766,4315.000000,4314.358887,4300.512695,4323.589844,4329.487305,4316.410156,4294.871582,4398.205078,4425.256348,4314.871582,4355.641113,1351.000000,0.000000,11.000000,,,,0.000000,2.000000,2.000000,0.000000,2.000000,2.000000,2.000000,1.000000,2.000000,4.000000,4.000000,4.000000,4.000000,2.000000,4.000000,25.000000,,,,,,,,,,,,,,,,,,,,,,,,,,,,
1732081988.929495,1732081988.929847,87.000000,0.000000,4297.436035,4306.666504,4315.512695,4308.333496,4295.512695,4300.256348,4327.307617,4334.743652,4321.025879,4302.307617,4400.641113,4425.000000,4317.436035,4356.922852,1492.000000,0.000000,11.000000,,,,0.000000,2.000000,2.000000,0.000000,2.000000,2.000000,2.000000,1.000000,2.000000,4.000000,4.000000,4.000000,4.000000,2.000000,4.000000,25.000000,,,,,,,,,,,,,,,,,,,,,,,,,,,,
1732081988.937304,1732081988.937755,88.000000,0.000000,4300.897461,4303.846191,4318.846191,4308.333496,4278.589844,4304.615234,4326.666504,4334.487305,4325.000000,4305.512695,4399.871582,4431.025879,4322.307617,4360.512695,1730.000000,0.000000,11.000000,,,,0.000000,2.000000,2.000000,0.000000,2.000000,2.000000,2.000000,1.000000,2.000000,4.000000,4.000000,4.000000,4.000000,2.000000,4.000000,25.000000,,,,,,,,,,,,,,,,,22.000000,0.000000,0.604261,0.388367,-0.614502,0.326233,0.982542,0.070321,-0.055671,-77.908401,60.904423,26.373058
1732081988.945112,1732081988.945564,89.000000,0.000000,4296.025879,4302.820313,4317.692383,4311.025879,4294.102539,4300.384766,4322.820313,4325.769043,4319.487305,4298.974121,4398.205078,4428.077148,4318.974121,4356.410156,1691.000000,0.000000,11.000000,,,,0.000000,2.000000,2.000000,0.000000,2.000000,2.000000,2.000000,1.000000,2.000000,4.000000,4.000000,4.000000,4.000000,2.000000,4.000000,25.000000,,,,,,,,,,,,,,,,,,,,,,,,,,,,
1732081988.952920,1732081988.953572,90.000000,0.000000,4294.615234,4305.641113,4315.128418,4310.000000,4299.102539,4301.282227,4324.102539,4326.538574,4315.256348,4296.153809,4399.743652,4425.384766,4315.769043,4356.666504,1351.000000,0.000000,11.000000,,,,0.000000,2.000000,2.000000,0.000000,2.000000,2.000000,2.000000,1.000000,2.000000,4.000000,4.000000,4.000000,4.000000,2.000000,4.000000,25.000000,,,,,,,,,,,,,,,,,,,,,,,,,,,,
1732081988.960729,1732081988.961380,91.000000,0.000000,4297.692383,4304.743652,4314.871582,4312.563965,4289.230957,4302.820313,4323.846191,4333.589844,4317.051270,4295.512695,4400.512695,4425.000000,4320.641113,4361.025879,1492.000000,0.000000,11.000000,,,,0.000000,2.000000,2.000000,0.000000,2.000000,2.000000,2.000000,1.000000,2.000000,4.000000,4.000000,4.000000,4.000000,2.000000,4.000000,25.000000,,,,,,,,,,,,,,,,,,,,,,,,,,,,
1732081988.968537,1732081988.969288,92.000000,0.000000,4294.743652,4301.794922,4315.897461,4316.666504,4302.563965,4296.410156,4322.307617,4331.666504,4317.948730,4295.256348,4394.358887,4423.205078,4320.897461,4357.307617,1730.000000,0.000000,11.000000,,,,0.000000,2.000000,2.000000,0.000000,2.000000,2.000000,2.000000,1.000000,2.000000,4.000000,4.000000,4.000000,4.000000,2.000000,4.000000,25.000000,,,,,,,,,,,,,,,,,23.000000,0.000000,0.604744,0.388733,-0.613892,0.326050,0.970333,0.071786,-0.051276,-77.694138,60.880917,26.447178
1732081988.976345,1732081988.977096,93.000000,0.000000,4291.153809,4303.589844,4316.922852,4316.025879,4311.282227,4303.461426,4323.333496,4329.487305,4321.153809,4298.717773,4385.000000,4426.922852,4313.077148,4349.615234,1691.000000,0.000000,11.000000,,,,0.000000,2.000000,2.000000,0.000000,2.000000,2.000000,2.000000,1.000000,2.000000,4.000000,4.000000,4.000000,4.000000,2.000000,4.000000,25.000000,,,,,,,,,,,,,,,,,,,,,,,,,,,,
1732081988.984153,1732081988.985104,94.000000,0.000000,4292.436035,4302.820313,4316.666504,4313.846191,4289.358887,4313.974121,4328.205078,4334.743652,4325.897461,4302.179688,4387.820313,4430.128418,4315.897461,4350.897461,1351.000000,0.000000,11.000000,,,,0.000000,2.000000,2.000000,0.000000,2.000000,2.000000,2.000000,1.000000,2.000000,4.000000,4.000000,4.000000,4.000000,2.000000,4.000000,25.000000,,,,,,,,,,,,,,,,,,,,,,,,,,,,
1732081988.991961,1732081988.992912,95.000000,0.000000,4292.051270,4297.307617,4313.461426,4311.538574,4281.410156,4303.333496,4328.717773,4336.666504,4325.256348,4304.487305,4400.897461,4426.282227,4324.743652,4355.384766,1492.000000,0.000000,11.000000,,,,0.000000,2.000000,2.000000,0.000000,2.000000,2.000000,2.000000,1.000000,2.000000,4.000000,4.000000,4.000000,4.000000,2.000000,4.000000,25.000000,,,,,,,,,,,,,,,,,,,,,,,,,,,,
1732081988.999770,1732081989.000820,96.000000,0.000000,4288.077148,4293.974121,4313.589844,4307.820313,4298.461426,4295.641113,4327.307617,4332.179688,4321.794922,4303.461426,4403.205078,4421.922852,4322.948730,4353.974121,1730.000000,0.000000,11.000000,,,,0.000000,2.000000,2.000000,0.000000,2.000000,2.000000,2.000000,1.000000,2.000000,4.000000,4.000000,4.000000,4.000000,2.000000,4.000000,25.000000,,,,,,,,,,,,,,,,,24.000000,0.000000,0.605175,0.388550,-0.613647,0.325928,0.977170,0.068368,-0.044439,-77.407249,61.116875,26.452213
1732081989.007578,1732081989.008629,97.000000,0.000000,4288.717773,4296.153809,4314.743652,4306.666504,4297.051270,4304.358887,4328.461426,4332.307617,4322.179688,4299.102539,4397.820313,4422.436035,4322.307617,4353.846191,1691.000000,0.000000,11.000000,,,,0.000000,2.000000,2.000000,0.000000,2.000000,2.000000,2.000000,1.000000,2.000000,4.000000,4.000000,4.000000,4.000000,2.000000,4.000000,25.000000,,,,,,,,,,,,,,,,,,,,,,,,,,,,
