title:nine3, start timestamp:1732083637.332940, stop timestamp:1732083679.872369, headset type:EPOCX, headset serial:E5020C3A, headset firmware:730, channels:67, sampling rate:eeg_128;mot_32, samples:5449      , version:2.2, 
Timestamp,OriginalTimestamp,EEG.Counter,EEG.Interpolated,EEG.AF3,EEG.F7,EEG.F3,EEG.FC5,EEG.T7,EEG.P7,EEG.O1,EEG.O2,EEG.P8,EEG.T8,EEG.FC6,EEG.F4,EEG.F8,EEG.AF4,EEG.RawCq,EEG.Battery,EEG.BatteryPercent,MarkerIndex,MarkerType,MarkerValueInt,EEG.MarkerHardware,CQ.AF3,CQ.F7,CQ.F3,CQ.FC5,CQ.T7,CQ.P7,CQ.O1,CQ.O2,CQ.P8,CQ.T8,CQ.FC6,CQ.F4,CQ.F8,CQ.AF4,CQ.Overall,EQ.SampleRateQuality,EQ.OVERALL,EQ.AF3,EQ.F7,EQ.F3,EQ.FC5,EQ.T7,EQ.P7,EQ.O1,EQ.O2,EQ.P8,EQ.T8,EQ.FC6,EQ.F4,EQ.F8,EQ.AF4,MOT.CounterMems,MOT.InterpolatedMems,MOT.Q0,MOT.Q1,MOT.Q2,MOT.Q3,MOT.AccX,MOT.AccY,MOT.AccZ,MOT.MagX,MOT.MagY,MOT.MagZ
1732083637.332940,1732083637.335232,125.000000,0.000000,4305.384766,4278.974121,4317.692383,4310.641113,4298.205078,4300.128418,4319.487305,4335.000000,4317.179688,4307.820313,4455.512695,4502.179688,4355.641113,4402.436035,1553.000000,0.000000,6.000000,,,,0.000000,2.000000,2.000000,0.000000,2.000000,2.000000,2.000000,0.000000,2.000000,4.000000,4.000000,4.000000,4.000000,2.000000,4.000000,16.666666,,,,,,,,,,,,,,,,,,,,,,,,,,,,
1732083637.340748,1732083637.342840,126.000000,0.000000,4306.153809,4280.000000,4319.230957,4309.487305,4293.589844,4297.948730,4319.871582,4328.974121,4321.025879,4313.077148,4458.974121,4501.410156,4360.256348,4405.256348,1381.000000,0.000000,6.000000,,,,0.000000,2.000000,2.000000,0.000000,2.000000,2.000000,2.000000,0.000000,2.000000,4.000000,4.000000,4.000000,4.000000,2.000000,4.000000,16.666666,,,,,,,,,,,,,,,,,,,,,,,,,,,,
1732083637.348556,1732083637.350649,127.000000,0.000000,4306.153809,4282.692383,4313.461426,4312.051270,4294.871582,4297.948730,4319.871582,4327.948730,4320.128418,4314.358887,4463.077148,4498.205078,4356.410156,4403.846191,6.000000,0.000000,6.000000,,,,0.000000,2.000000,2.000000,0.000000,2.000000,2.000000,2.000000,0.000000,2.000000,4.000000,4.000000,4.000000,4.000000,2.000000,4.000000,16.666666,,,,,,,,,,,,,,,,,,,,,,,,,,,,
1732083637.356364,1732083637.358557,0.000000,0.000000,4303.589844,4279.102539,4314.487305,4312.307617,4295.512695,4298.077148,4321.922852,4332.563965,4316.153809,4309.102539,4460.641113,4498.461426,4352.692383,4398.461426,0.000000,0.000000,6.000000,,,,0.000000,2.000000,2.000000,0.000000,2.000000,2.000000,2.000000,0.000000,2.000000,4.000000,4.000000,4.000000,4.000000,2.000000,4.000000,16.666666,,,,,,,,,,,,,,,,,0.000000,0.000000,0.654398,0.398132,-0.576172,0.285095,0.960566,0.170431,0.025882,-72.315895,66.692383,32.211411
1732083637.364173,1732083637.366365,1.000000,0.000000,4302.436035,4279.102539,4318.205078,4310.512695,4291.153809,4297.051270,4320.256348,4330.256348,4313.205078,4306.025879,4455.641113,4496.025879,4354.230957,4397.692383,1327.000000,0.000000,6.000000,,,,0.000000,2.000000,2.000000,0.000000,2.000000,2.000000,2.000000,0.000000,2.000000,4.000000,4.000000,4.000000,4.000000,2.000000,4.000000,16.666666,,,,,,,,,,,,,,,,,,,,,,,,,,,,
1732083637.371981,1732083637.374373,2.000000,0.000000,4306.282227,4284.230957,4319.871582,4309.230957,4290.897461,4297.820313,4318.461426,4327.692383,4312.051270,4309.743652,4458.974121,4492.820313,4355.897461,4401.410156,1249.000000,0.000000,6.000000,,,,0.000000,2.000000,2.000000,0.000000,2.000000,2.000000,2.000000,0.000000,2.000000,4.000000,4.000000,4.000000,4.000000,2.000000,4.000000,16.666666,,,,,,,,,,,,,,,,,,,,,,,,,,,,
1732083637.379789,1732083637.382181,3.000000,0.000000,4314.743652,4284.871582,4317.948730,4313.205078,4295.512695,4296.410156,4317.948730,4329.230957,4315.897461,4314.871582,4467.820313,4493.846191,4357.436035,4405.897461,1205.000000,0.000000,6.000000,,,,0.000000,2.000000,2.000000,0.000000,2.000000,2.000000,2.000000,0.000000,2.000000,4.000000,4.000000,4.000000,4.000000,2.000000,4.000000,16.666666,,,,,,,,,,,,,,,,,,,,,,,,,,,,
1732083637.387597,1732083637.389890,4.000000,0.000000,4316.794922,4281.025879,4317.820313,4316.025879,4292.563965,4293.717773,4320.897461,4328.077148,4316.538574,4311.410156,4463.333496,4493.205078,4353.974121,4405.512695,1210.000000,0.000000,6.000000,,,,0.000000,2.000000,2.000000,0.000000,2.000000,2.000000,2.000000,0.000000,2.000000,4.000000,4.000000,4.000000,4.000000,2.000000,4.000000,16.666666,,,,,,,,,,,,,,,,,1.000000,0.000000,0.652361,0.397949,-0.577637,0.287048,0.946893,0.196801,-0.003418,-72.342545,66.845833,32.222912
1732083637.395406,1732083637.397698,5.000000,0.000000,4310.128418,4281.282227,4318.077148,4312.563965,4288.589844,4295.769043,4323.205078,4325.128418,4309.358887,4303.974121,4452.820313,4490.897461,4346.538574,4401.538574,1082.000000,0.000000,6.000000,,,,0.000000,2.000000,2.000000,0.000000,2.000000,2.000000,2.000000,0.000000,2.000000,4.000000,4.000000,4.000000,4.000000,2.000000,4.000000,16.666666,,,,,,,,,,,,,,,,,,,,,,,,,,,,
1732083637.403214,1732083637.405306,6.000000,0.000000,4310.897461,4284.871582,4317.307617,4310.512695,4291.153809,4299.615234,4321.538574,4325.512695,4309.615234,4309.487305,4459.487305,4497.179688,4349.102539,4406.025879,0.000000,0.000000,6.000000,,,,0.000000,2.000000,2.000000,0.000000,2.000000,2.000000,2.000000,0.000000,2.000000,4.000000,4.000000,4.000000,4.000000,2.000000,4.000000,16.666666,,,,,,,,,,,,,,,,,,,,,,,,,,,,
1732083637.411022,1732083637.413114,7.000000,0.000000,4319.102539,4285.512695,4317.179688,4311.922852,4291.410156,4297.436035,4318.846191,4329.871582,4319.871582,4316.282227,4470.769043,4504.102539,4358.717773,4411.666504,1170.000000,0.000000,6.000000,,,,0.000000,2.000000,2.000000,0.000000,2.000000,2.000000,2.000000,0.000000,2.000000,4.000000,4.000000,4.000000,4.000000,2.000000,4.000000,16.666666,,,,,,,,,,,,,,,,,,,,,,,,,,,,
1732083637.418831,1732083637.420823,8.000000,0.000000,4321.282227,4285.000000,4314.487305,4315.384766,4289.230957,4294.871582,4318.846191,4329.487305,4322.436035,4310.512695,4468.077148,4502.692383,4359.871582,4413.077148,1367.000000,0.000000,6.000000,,,,0.000000,2.000000,2.000000,0.000000,2.000000,2.000000,2.000000,0.000000,2.000000,4.000000,4.000000,4.000000,4.000000,2.000000,4.000000,16.666666,,,,,,,,,,,,,,,,,2.000000,0.000000,0.652361,0.397949,-0.577637,0.287048,0.946893,0.210475,-0.001953,-72.229126,66.865120,32.397224
1732083637.426639,1732083637.428631,9.000000,0.000000,4318.589844,4285.641113,4316.794922,4317.948730,4289.615234,4295.512695,4321.153809,4326.025879,4313.205078,4305.256348,4462.307617,4496.922852,4351.794922,4413.077148,1514.000000,0.000000,6.000000,,,,0.000000,2.000000,2.000000,0.000000,2.000000,2.000000,2.000000,0.000000,2.000000,4.000000,4.000000,4.000000,4.000000,2.000000,4.000000,16.666666,,,,,,,,,,,,,,,,,,,,,,,,,,,,
1732083637.434447,1732083637.436639,10.000000,0.000000,4318.589844,4285.897461,4318.589844,4314.487305,4288.974121,4297.948730,4320.000000,4330.769043,4310.769043,4307.307617,4460.641113,4493.205078,4344.871582,4413.461426,1381.000000,0.000000,6.000000,,,,0.000000,2.000000,2.000000,0.000000,2.000000,2.000000,2.000000,0.000000,2.000000,4.000000,4.000000,4.000000,4.000000,2.000000,4.000000,16.666666,,,,,,,,,,,,,,,,,,,,,,,,,,,,
1732083637.442255,1732083637.444447,11.000000,0.000000,4318.717773,4284.230957,4320.000000,4309.487305,4287.563965,4299.102539,4320.641113,4337.307617,4314.871582,4305.641113,4461.153809,4499.871582,4346.794922,4412.436035,1523.000000,0.000000,6.000000,,,,0.000000,2.000000,2.000000,0.000000,2.000000,2.000000,2.000000,0.000000,2.000000,4.000000,4.000000,4.000000,4.000000,2.000000,4.000000,16.666666,,,,,,,,,,,,,,,,,,,,,,,,,,,,
1732083637.450064,1732083637.452355,12.000000,0.000000,4317.820313,4285.000000,4315.384766,4312.051270,4286.794922,4296.282227,4321.153809,4336.282227,4313.461426,4302.436035,4462.051270,4503.333496,4350.512695,4411.794922,1746.000000,0.000000,6.000000,,,,0.000000,2.000000,2.000000,0.000000,2.000000,2.000000,2.000000,0.000000,2.000000,4.000000,4.000000,4.000000,4.000000,2.000000,4.000000,16.666666,,,,,,,,,,,,,,,,,3.000000,0.000000,0.650759,0.398804,-0.578247,0.288269,0.917104,0.246612,-0.018557,-72.153923,66.605751,32.321751
1732083637.457872,1732083637.460163,13.000000,0.000000,4318.077148,4286.922852,4316.794922,4313.077148,4286.025879,4294.487305,4322.692383,4334.102539,4312.948730,4304.102539,4463.333496,4497.820313,4349.743652,4410.384766,1554.000000,0.000000,6.000000,,,,0.000000,2.000000,2.000000,0.000000,2.000000,2.000000,2.000000,0.000000,2.000000,4.000000,4.000000,4.000000,4.000000,2.000000,4.000000,16.666666,,,,,,,,,,,,,,,,,,,,,,,,,,,,
1732083637.465680,1732083637.468171,14.000000,0.000000,4316.538574,4284.615234,4317.948730,4311.025879,4286.153809,4294.358887,4321.538574,4335.897461,4315.384766,4305.769043,4466.538574,4496.410156,4350.512695,4408.974121,1381.000000,0.000000,6.000000,,,,0.000000,2.000000,2.000000,0.000000,2.000000,2.000000,2.000000,0.000000,2.000000,4.000000,4.000000,4.000000,4.000000,2.000000,4.000000,16.666666,1.000000,16.666666,2.000000,2.000000,0.000000,2.000000,2.000000,2.000000,0.000000,2.000000,4.000000,4.000000,4.000000,4.000000,2.000000,4.000000,,,,,,,,,,,,
1732083637.473488,1732083637.475980,15.000000,0.000000,4312.436035,4280.000000,4316.153809,4309.358887,4281.666504,4293.461426,4320.512695,4335.000000,4314.615234,4302.820313,4465.641113,4500.897461,4352.820313,4408.717773,1523.000000,0.000000,6.000000,,,,0.000000,2.000000,2.000000,0.000000,2.000000,2.000000,2.000000,0.000000,2.000000,4.000000,4.000000,4.000000,4.000000,2.000000,4.000000,16.666666,,,,,,,,,,,,,,,,,,,,,,,,,,,,
1732083637.481297,1732083637.483888,16.000000,0.000000,4313.717773,4280.256348,4313.461426,4308.333496,4278.077148,4294.102539,4319.230957,4333.461426,4315.256348,4301.025879,4463.461426,4497.051270,4352.051270,4409.615234,0.000000,0.000000,6.000000,,,,0.000000,2.000000,2.000000,0.000000,2.000000,2.000000,2.000000,0.000000,2.000000,4.000000,4.000000,4.000000,4.000000,2.000000,4.000000,16.666666,,,,,,,,,,,,,,,,,4.000000,0.000000,0.650505,0.402771,-0.576721,0.286377,0.937614,0.268587,-0.022464,-72.271347,66.598991,32.335617
1732083637.489105,1732083637.491696,17.000000,0.000000,4316.410156,4284.102539,4318.717773,4306.410156,4280.384766,4297.820313,4321.282227,4334.230957,4318.717773,4302.307617,4465.897461,4492.051270,4351.410156,4410.641113,0.000000,0.000000,6.000000,,,,0.000000,2.000000,2.000000,0.000000,2.000000,2.000000,2.000000,0.000000,2.000000,4.000000,4.000000,4.000000,4.000000,2.000000,4.000000,16.666666,,,,,,,,,,,,,,,,,,,,,,,,,,,,
1732083637.496913,1732083637.499304,18.000000,0.000000,4312.948730,4281.025879,4320.256348,4305.512695,4280.128418,4301.153809,4322.563965,4336.538574,4317.179688,4303.717773,4469.487305,4498.717773,4352.436035,4411.153809,0.000000,0.000000,6.000000,,,,0.000000,2.000000,2.000000,0.000000,2.000000,2.000000,2.000000,0.000000,2.000000,4.000000,4.000000,4.000000,4.000000,2.000000,4.000000,16.666666,,,,,,,,,,,,,,,,,,,,,,,,,,,,
1732083637.504722,1732083637.507113,19.000000,0.000000,4310.000000,4276.666504,4320.000000,4307.820313,4278.333496,4299.743652,4321.794922,4336.922852,4312.820313,4302.563965,4467.051270,4501.153809,4352.179688,4412.051270,0.000000,0.000000,6.000000,,,,0.000000,2.000000,2.000000,0.000000,2.000000,2.000000,2.000000,0.000000,2.000000,4.000000,4.000000,4.000000,4.000000,2.000000,4.000000,16.666666,,,,,,,,,,,,,,,,,,,,,,,,,,,,
1732083637.512530,1732083637.514821,20.000000,0.000000,4312.563965,4280.641113,4321.410156,4313.846191,4274.615234,4298.589844,4322.436035,4329.871582,4310.769043,4300.512695,4462.692383,4498.974121,4353.205078,4413.846191,0.000000,0.000000,6.000000,,,,0.000000,2.000000,2.000000,0.000000,2.000000,2.000000,2.000000,0.000000,2.000000,4.000000,4.000000,4.000000,4.000000,2.000000,4.000000,16.666666,,,,,,,,,,,,,,,,,5.000000,0.000000,0.651049,0.404114,-0.575378,0.285950,0.965450,0.225125,-0.024905,-72.224792,66.515182,32.155186
1732083637.520338,1732083637.522629,21.000000,0.000000,4314.358887,4285.641113,4319.102539,4317.307617,4278.717773,4298.077148,4323.846191,4319.743652,4305.641113,4300.000000,4463.717773,4500.256348,4357.179688,4412.692383,0.000000,0.000000,6.000000,,,,0.000000,2.000000,2.000000,0.000000,2.000000,2.000000,2.000000,0.000000,2.000000,4.000000,4.000000,4.000000,4.000000,2.000000,4.000000,16.666666,,,,,,,,,,,,,,,,,,,,,,,,,,,,
1732083637.528146,1732083637.530637,22.000000,0.000000,4312.307617,4281.922852,4321.410156,4312.307617,4291.025879,4293.974121,4321.794922,4319.230957,4303.589844,4301.666504,4464.230957,4502.051270,4354.615234,4411.410156,0.000000,0.000000,6.000000,,,,0.000000,2.000000,2.000000,0.000000,2.000000,2.000000,2.000000,0.000000,2.000000,4.000000,4.000000,4.000000,4.000000,2.000000,4.000000,16.666666,,,,,,,,,,,,,,,,,,,,,,,,,,,,
1732083637.535954,1732083637.538445,23.000000,0.000000,4309.230957,4275.512695,4323.717773,4308.846191,4285.384766,4290.000000,4320.641113,4331.282227,4313.846191,4300.128418,4456.153809,4499.743652,4345.769043,4409.487305,0.000000,0.000000,6.000000,,,,0.000000,2.000000,2.000000,0.000000,2.000000,2.000000,2.000000,0.000000,2.000000,4.000000,4.000000,4.000000,4.000000,2.000000,4.000000,16.666666,,,,,,,,,,,,,,,,,,,,,,,,,,,,
1732083637.543763,1732083637.546353,24.000000,0.000000,4304.743652,4272.563965,4327.692383,4307.051270,4267.179688,4295.000000,4325.897461,4339.230957,4319.871582,4293.589844,4450.256348,4496.922852,4340.897461,4404.743652,0.000000,0.000000,6.000000,,,,0.000000,2.000000,2.000000,0.000000,2.000000,2.000000,2.000000,0.000000,2.000000,4.000000,4.000000,4.000000,4.000000,2.000000,4.000000,16.666666,,,,,,,,,,,,,,,,,6.000000,0.000000,0.651071,0.404297,-0.575073,0.286255,0.964962,0.225125,0.000488,-72.230415,66.902298,31.952366
1732083637.551571,1732083637.554162,25.000000,0.000000,4308.589844,4278.461426,4327.948730,4308.974121,4271.153809,4294.487305,4323.846191,4326.794922,4307.692383,4297.820313,4461.153809,4497.436035,4350.128418,4407.948730,0.000000,0.000000,6.000000,,,,0.000000,2.000000,2.000000,0.000000,2.000000,2.000000,2.000000,0.000000,2.000000,4.000000,4.000000,4.000000,4.000000,2.000000,4.000000,16.666666,,,,,,,,,,,,,,,,,,,,,,,,,,,,
1732083637.559379,1732083637.562170,26.000000,0.000000,4314.743652,4284.871582,4331.538574,4311.922852,4285.641113,4283.205078,4320.897461,4311.794922,4298.461426,4307.307617,4466.410156,4497.436035,4356.666504,4414.358887,0.000000,0.000000,6.000000,,,,0.000000,2.000000,2.000000,0.000000,2.000000,2.000000,2.000000,0.000000,2.000000,4.000000,4.000000,4.000000,4.000000,2.000000,4.000000,16.666666,,,,,,,,,,,,,,,,,,,,,,,,,,,,
1732083637.567187,1732083637.569978,27.000000,0.000000,4312.948730,4283.333496,4325.512695,4312.948730,4285.256348,4286.410156,4323.205078,4317.948730,4308.461426,4306.794922,4460.641113,4490.000000,4348.974121,4409.358887,0.000000,0.000000,6.000000,,,,0.000000,2.000000,2.000000,0.000000,2.000000,2.000000,2.000000,0.000000,2.000000,4.000000,4.000000,4.000000,4.000000,2.000000,4.000000,16.666666,,,,,,,,,,,,,,,,,,,,,,,,,,,,
1732083637.574996,1732083637.577886,28.000000,0.000000,4312.820313,4282.692383,4324.743652,4314.743652,4283.974121,4298.205078,4326.410156,4326.538574,4313.333496,4304.102539,4460.256348,4482.820313,4344.871582,4403.974121,0.000000,0.000000,6.000000,,,,0.000000,2.000000,2.000000,0.000000,2.000000,2.000000,2.000000,0.000000,2.000000,4.000000,4.000000,4.000000,4.000000,2.000000,4.000000,16.666666,,,,,,,,,,,,,,,,,7.000000,0.000000,0.650954,0.403748,-0.574768,0.287903,0.959101,0.171896,0.034184,-72.344971,66.635864,31.961416
1732083637.582804,1732083637.585694,29.000000,0.000000,4318.846191,4285.769043,4321.282227,4318.077148,4287.692383,4296.666504,4319.743652,4324.358887,4308.589844,4305.384766,4460.384766,4482.563965,4351.282227,4408.717773,0.000000,0.000000,6.000000,,,,0.000000,2.000000,2.000000,0.000000,2.000000,2.000000,2.000000,0.000000,2.000000,4.000000,4.000000,4.000000,4.000000,2.000000,4.000000,16.666666,,,,,,,,,,,,,,,,,,,,,,,,,,,,
1732083637.590612,1732083637.593702,30.000000,0.000000,4322.692383,4285.769043,4318.333496,4317.563965,4287.820313,4289.102539,4319.230957,4322.948730,4310.256348,4302.948730,4459.102539,4485.128418,4354.487305,4412.307617,0.000000,0.000000,6.000000,,,,0.000000,2.000000,2.000000,0.000000,2.000000,2.000000,2.000000,0.000000,2.000000,4.000000,4.000000,4.000000,4.000000,2.000000,4.000000,16.666666,,,,,,,,,,,,,,,,,,,,,,,,,,,,
1732083637.598421,1732083637.601510,31.000000,0.000000,4324.102539,4286.282227,4316.153809,4315.641113,4290.512695,4289.743652,4318.205078,4324.871582,4315.000000,4301.025879,4462.820313,4484.615234,4352.563965,4411.922852,0.000000,0.000000,6.000000,,,,0.000000,2.000000,2.000000,0.000000,2.000000,2.000000,2.000000,0.000000,2.000000,4.000000,4.000000,4.000000,4.000000,2.000000,4.000000,16.666666,,,,,,,,,,,,,,,,,,,,,,,,,,,,
1732083637.606229,1732083637.609418,32.000000,0.000000,4325.384766,4288.077148,4315.256348,4315.384766,4288.333496,4291.538574,4313.589844,4323.077148,4317.436035,4306.025879,4466.666504,4487.179688,4353.846191,4413.589844,0.000000,0.000000,6.000000,,,,0.000000,2.000000,2.000000,0.000000,2.000000,2.000000,2.000000,0.000000,2.000000,4.000000,4.000000,4.000000,4.000000,2.000000,4.000000,16.666666,,,,,,,,,,,,,,,,,8.000000,0.000000,0.650181,0.396606,-0.577271,0.294495,0.978635,0.137712,0.046392,-72.494423,66.230049,32.012081
1732083637.614037,1732083637.617227,33.000000,0.000000,4326.153809,4287.179688,4310.512695,4316.538574,4289.615234,4294.358887,4312.692383,4324.102539,4319.615234,4307.051270,4468.333496,4490.512695,4355.256348,4417.563965,0.000000,0.000000,6.000000,,,,0.000000,2.000000,2.000000,0.000000,2.000000,2.000000,2.000000,0.000000,2.000000,4.000000,4.000000,4.000000,4.000000,2.000000,4.000000,16.666666,,,,,,,,,,,,,,,,,,,,,,,,,,,,
1732083637.621845,1732083637.625235,34.000000,0.000000,4325.128418,4284.230957,4304.743652,4317.563965,4297.948730,4300.512695,4314.743652,4332.436035,4320.000000,4300.769043,4468.974121,4491.538574,4352.307617,4419.230957,0.000000,0.000000,6.000000,,,,0.000000,2.000000,2.000000,0.000000,2.000000,2.000000,2.000000,0.000000,2.000000,4.000000,4.000000,4.000000,4.000000,2.000000,4.000000,16.666666,,,,,,,,,,,,,,,,,,,,,,,,,,,,
1732083637.629654,1732083637.633043,35.000000,0.000000,4323.589844,4283.717773,4308.589844,4317.307617,4297.051270,4296.025879,4314.615234,4333.589844,4316.282227,4302.436035,4466.410156,4493.461426,4349.487305,4421.922852,0.000000,0.000000,6.000000,,,,0.000000,2.000000,2.000000,0.000000,2.000000,2.000000,2.000000,0.000000,2.000000,4.000000,4.000000,4.000000,4.000000,2.000000,4.000000,16.666666,,,,,,,,,,,,,,,,,,,,,,,,,,,,
1732083637.637462,1732083637.640951,36.000000,0.000000,4330.128418,4288.333496,4309.743652,4318.846191,4292.820313,4287.179688,4315.384766,4324.871582,4313.974121,4304.743652,4465.512695,4494.743652,4352.563965,4427.692383,0.000000,0.000000,6.000000,,,,0.000000,2.000000,2.000000,0.000000,2.000000,2.000000,2.000000,0.000000,2.000000,4.000000,4.000000,4.000000,4.000000,2.000000,4.000000,16.666666,,,,,,,,,,,,,,,,,9.000000,0.000000,0.649350,0.394226,-0.578552,0.296997,0.978635,0.137712,0.046392,-72.478813,65.918007,31.994785
1732083637.645270,1732083637.648759,37.000000,0.000000,4343.077148,4292.179688,4310.641113,4322.179688,4295.897461,4288.589844,4317.948730,4322.051270,4316.153809,4299.743652,4468.717773,4497.307617,4354.615234,4428.077148,0.000000,0.000000,6.000000,,,,0.000000,2.000000,2.000000,0.000000,2.000000,2.000000,2.000000,0.000000,2.000000,4.000000,4.000000,4.000000,4.000000,2.000000,4.000000,16.666666,,,,,,,,,,,,,,,,,,,,,,,,,,,,
1732083637.653078,1732083637.656667,38.000000,0.000000,4346.025879,4287.820313,4307.179688,4319.487305,4299.487305,4294.743652,4315.769043,4328.974121,4321.025879,4307.563965,4467.563965,4497.692383,4352.051270,4426.666504,0.000000,0.000000,6.000000,,,,0.000000,2.000000,2.000000,0.000000,2.000000,2.000000,2.000000,0.000000,2.000000,4.000000,4.000000,4.000000,4.000000,2.000000,4.000000,16.666666,,,,,,,,,,,,,,,,,,,,,,,,,,,,
1732083637.660887,1732083637.664475,39.000000,0.000000,4341.153809,4287.307617,4313.717773,4315.384766,4296.666504,4293.974121,4315.769043,4329.743652,4319.871582,4317.948730,4466.025879,4497.948730,4356.025879,4431.025879,0.000000,0.000000,6.000000,,,,0.000000,2.000000,2.000000,0.000000,2.000000,2.000000,2.000000,0.000000,2.000000,4.000000,4.000000,4.000000,4.000000,2.000000,4.000000,16.666666,,,,,,,,,,,,,,,,,,,,,,,,,,,,
1732083637.668695,1732083637.672184,40.000000,0.000000,4344.358887,4295.128418,4314.358887,4320.384766,4297.436035,4291.538574,4317.948730,4325.256348,4315.256348,4312.436035,4466.153809,4497.307617,4361.153809,4434.358887,0.000000,0.000000,6.000000,,,,0.000000,2.000000,2.000000,0.000000,2.000000,2.000000,2.000000,0.000000,2.000000,4.000000,4.000000,4.000000,4.000000,2.000000,4.000000,16.666666,,,,,,,,,,,,,,,,,10.000000,0.000000,0.647231,0.389465,-0.581299,0.302490,0.947870,0.099622,0.075204,-72.857841,65.680252,31.965776
1732083637.676503,1732083637.679992,41.000000,0.000000,4349.743652,4293.589844,4317.179688,4323.077148,4298.461426,4292.820313,4320.000000,4329.871582,4313.974121,4306.282227,4466.153809,4499.615234,4359.230957,4431.153809,0.000000,0.000000,6.000000,,,,0.000000,2.000000,2.000000,0.000000,2.000000,2.000000,2.000000,0.000000,2.000000,4.000000,4.000000,4.000000,4.000000,2.000000,4.000000,16.666666,,,,,,,,,,,,,,,,,,,,,,,,,,,,
1732083637.684312,1732083637.687600,42.000000,0.000000,4349.615234,4287.820313,4315.256348,4320.000000,4298.717773,4292.820313,4317.436035,4332.436035,4315.128418,4310.512695,4470.897461,4497.563965,4360.641113,4435.641113,0.000000,0.000000,6.000000,,,,0.000000,2.000000,2.000000,0.000000,2.000000,2.000000,2.000000,0.000000,2.000000,4.000000,4.000000,4.000000,4.000000,2.000000,4.000000,16.666666,,,,,,,,,,,,,,,,,,,,,,,,,,,,
1732083637.692120,1732083637.695409,43.000000,0.000000,4350.897461,4289.615234,4315.769043,4318.717773,4298.846191,4290.769043,4316.410156,4330.128418,4314.615234,4306.153809,4472.820313,4491.538574,4362.179688,4441.153809,0.000000,0.000000,6.000000,,,,0.000000,2.000000,2.000000,0.000000,2.000000,2.000000,2.000000,0.000000,2.000000,4.000000,4.000000,4.000000,4.000000,2.000000,4.000000,16.666666,,,,,,,,,,,,,,,,,,,,,,,,,,,,
1732083637.699928,1732083637.703117,44.000000,0.000000,4357.307617,4296.282227,4314.615234,4325.512695,4297.692383,4288.717773,4316.538574,4329.230957,4312.051270,4299.102539,4472.563965,4486.538574,4361.025879,4437.820313,0.000000,0.000000,6.000000,,,,0.000000,2.000000,2.000000,0.000000,2.000000,2.000000,2.000000,0.000000,2.000000,4.000000,4.000000,4.000000,4.000000,2.000000,4.000000,16.666666,,,,,,,,,,,,,,,,,11.000000,0.000000,0.642549,0.381104,-0.585999,0.313843,1.000122,0.100598,0.040532,-73.364853,65.304337,31.875612
1732083637.707736,1732083637.710925,45.000000,0.000000,4362.692383,4297.692383,4316.153809,4328.461426,4295.897461,4285.256348,4316.922852,4326.410156,4308.077148,4298.589844,4474.230957,4485.769043,4366.153809,4443.333496,0.000000,0.000000,6.000000,,,,0.000000,2.000000,2.000000,0.000000,2.000000,2.000000,2.000000,0.000000,2.000000,4.000000,4.000000,4.000000,4.000000,2.000000,4.000000,16.666666,,,,,,,,,,,,,,,,,,,,,,,,,,,,
1732083637.715545,1732083637.718534,46.000000,0.000000,4364.230957,4295.128418,4313.589844,4322.948730,4292.820313,4282.948730,4316.025879,4323.333496,4310.256348,4297.179688,4476.153809,4483.461426,4370.641113,4451.025879,0.000000,0.000000,6.000000,,,,0.000000,2.000000,2.000000,0.000000,2.000000,2.000000,2.000000,0.000000,2.000000,4.000000,4.000000,4.000000,4.000000,2.000000,4.000000,16.666666,,,,,,,,,,,,,,,,,,,,,,,,,,,,
1732083637.723353,1732083637.726342,47.000000,0.000000,4364.102539,4296.538574,4311.794922,4319.487305,4292.820313,4288.717773,4316.153809,4325.897461,4312.820313,4298.846191,4474.743652,4481.922852,4367.436035,4448.205078,0.000000,0.000000,6.000000,,,,0.000000,2.000000,2.000000,0.000000,2.000000,2.000000,2.000000,0.000000,2.000000,4.000000,4.000000,4.000000,4.000000,2.000000,4.000000,16.666666,,,,,,,,,,,,,,,,,,,,,,,,,,,,
1732083637.731161,1732083637.734050,48.000000,0.000000,4367.307617,4301.922852,4315.384766,4325.512695,4298.077148,4292.307617,4314.615234,4328.589844,4309.102539,4302.307617,4474.230957,4488.589844,4369.615234,4450.000000,0.000000,0.000000,6.000000,,,,0.000000,2.000000,2.000000,0.000000,2.000000,2.000000,2.000000,0.000000,2.000000,4.000000,4.000000,4.000000,4.000000,2.000000,4.000000,16.666666,,,,,,,,,,,,,,,,,12.000000,0.000000,0.637536,0.378540,-0.588257,0.322815,0.970822,0.104993,0.041021,-73.782196,64.701515,31.689245
1732083637.738969,1732083637.741858,49.000000,0.000000,4373.205078,4302.307617,4317.307617,4330.384766,4298.974121,4285.384766,4315.128418,4326.538574,4308.717773,4301.025879,4477.820313,4493.077148,4376.282227,4460.769043,0.000000,0.000000,6.000000,,,,0.000000,2.000000,2.000000,0.000000,2.000000,2.000000,2.000000,0.000000,2.000000,4.000000,4.000000,4.000000,4.000000,2.000000,4.000000,16.666666,,,,,,,,,,,,,,,,,,,,,,,,,,,,
1732083637.746778,1732083637.749467,50.000000,0.000000,4375.128418,4299.358887,4319.743652,4328.077148,4294.743652,4285.000000,4316.025879,4326.410156,4311.153809,4299.743652,4477.179688,4493.077148,4373.461426,4462.307617,0.000000,0.000000,6.000000,,,,0.000000,2.000000,2.000000,0.000000,2.000000,2.000000,2.000000,0.000000,2.000000,4.000000,4.000000,4.000000,4.000000,2.000000,4.000000,16.666666,,,,,,,,,,,,,,,,,,,,,,,,,,,,
1732083637.754586,1732083637.757275,51.000000,0.000000,4372.692383,4303.205078,4319.358887,4328.205078,4295.512695,4289.358887,4315.897461,4324.615234,4308.333496,4304.743652,4475.128418,4490.897461,4367.692383,4458.974121,0.000000,0.000000,6.000000,,,,0.000000,2.000000,2.000000,0.000000,2.000000,2.000000,2.000000,0.000000,2.000000,4.000000,4.000000,4.000000,4.000000,2.000000,4.000000,16.666666,,,,,,,,,,,,,,,,,,,,,,,,,,,,
1732083637.762394,1732083637.764983,52.000000,0.000000,4374.615234,4307.436035,4321.794922,4328.974121,4294.871582,4281.922852,4316.410156,4316.794922,4305.769043,4308.717773,4476.922852,4491.922852,4371.025879,4464.871582,0.000000,0.000000,6.000000,,,,0.000000,2.000000,2.000000,0.000000,2.000000,2.000000,2.000000,0.000000,2.000000,4.000000,4.000000,4.000000,4.000000,2.000000,4.000000,16.666666,,,,,,,,,,,,,,,,,13.000000,0.000000,0.635854,0.378479,-0.588501,0.325745,0.972775,0.099133,0.051764,-74.298576,63.839893,31.874956
1732083637.770203,1732083637.772791,53.000000,0.000000,4383.205078,4310.384766,4320.384766,4328.974121,4293.333496,4278.974121,4318.333496,4317.692383,4305.128418,4304.743652,4482.051270,4492.051270,4375.512695,4469.358887,0.000000,0.000000,6.000000,,,,0.000000,2.000000,2.000000,0.000000,2.000000,2.000000,2.000000,0.000000,2.000000,4.000000,4.000000,4.000000,4.000000,2.000000,4.000000,16.666666,,,,,,,,,,,,,,,,,,,,,,,,,,,,
1732083637.778011,1732083637.780799,54.000000,0.000000,4387.692383,4311.153809,4322.179688,4329.487305,4293.461426,4283.333496,4319.743652,4324.743652,4302.436035,4298.205078,4485.641113,4493.589844,4375.641113,4468.717773,0.000000,0.000000,6.000000,,,,0.000000,2.000000,2.000000,0.000000,2.000000,2.000000,2.000000,0.000000,2.000000,4.000000,4.000000,4.000000,4.000000,2.000000,4.000000,16.666666,,,,,,,,,,,,,,,,,,,,,,,,,,,,
1732083637.785819,1732083637.788608,55.000000,0.000000,4385.000000,4309.743652,4319.743652,4328.077148,4287.179688,4281.538574,4317.563965,4321.282227,4300.769043,4297.051270,4483.461426,4492.563965,4374.358887,4473.205078,0.000000,0.000000,6.000000,,,,0.000000,2.000000,2.000000,0.000000,2.000000,2.000000,2.000000,0.000000,2.000000,4.000000,4.000000,4.000000,4.000000,2.000000,4.000000,16.666666,,,,,,,,,,,,,,,,,,,,,,,,,,,,
1732083637.793627,1732083637.796316,56.000000,0.000000,4381.538574,4310.641113,4321.025879,4321.538574,4279.871582,4276.153809,4317.436035,4314.743652,4303.461426,4295.641113,4482.692383,4489.230957,4376.410156,4477.563965,0.000000,0.000000,6.000000,,,,0.000000,2.000000,2.000000,0.000000,2.000000,2.000000,2.000000,0.000000,2.000000,4.000000,4.000000,4.000000,4.000000,2.000000,4.000000,16.666666,,,,,,,,,,,,,,,,,14.000000,0.000000,0.629212,0.378784,-0.589294,0.336670,1.029423,0.053229,0.040044,-74.431847,63.238647,31.790380
1732083637.801436,1732083637.804124,57.000000,0.000000,4382.179688,4311.410156,4318.846191,4319.615234,4281.538574,4279.487305,4317.563965,4317.948730,4305.256348,4295.384766,4486.153809,4486.025879,4379.358887,4475.128418,0.000000,0.000000,6.000000,,,,0.000000,2.000000,2.000000,0.000000,2.000000,2.000000,2.000000,0.000000,2.000000,4.000000,4.000000,4.000000,4.000000,2.000000,4.000000,16.666666,,,,,,,,,,,,,,,,,,,,,,,,,,,,
1732083637.809244,1732083637.812132,58.000000,0.000000,4381.153809,4305.256348,4317.436035,4323.974121,4286.025879,4282.563965,4317.563965,4321.410156,4303.333496,4296.025879,4486.282227,4488.846191,4377.436035,4472.307617,0.000000,0.000000,6.000000,,,,0.000000,2.000000,2.000000,0.000000,2.000000,2.000000,2.000000,0.000000,2.000000,4.000000,4.000000,4.000000,4.000000,2.000000,4.000000,16.666666,,,,,,,,,,,,,,,,,,,,,,,,,,,,
1732083637.817052,1732083637.819940,59.000000,0.000000,4381.153809,4304.102539,4317.179688,4329.487305,4285.256348,4281.922852,4316.153809,4317.692383,4301.538574,4294.230957,4480.128418,4491.794922,4374.615234,4472.948730,0.000000,0.000000,6.000000,,,,0.000000,2.000000,2.000000,0.000000,2.000000,2.000000,2.000000,0.000000,2.000000,4.000000,4.000000,4.000000,4.000000,2.000000,4.000000,16.666666,,,,,,,,,,,,,,,,,,,,,,,,,,,,
1732083637.824860,1732083637.827649,60.000000,0.000000,4385.256348,4310.000000,4318.333496,4331.282227,4285.897461,4281.410156,4316.410156,4315.128418,4301.025879,4294.743652,4478.589844,4490.897461,4375.000000,4472.948730,0.000000,0.000000,6.000000,,,,0.000000,2.000000,2.000000,0.000000,2.000000,2.000000,2.000000,0.000000,2.000000,4.000000,4.000000,4.000000,4.000000,2.000000,4.000000,16.666666,,,,,,,,,,,,,,,,,15.000000,0.000000,0.625412,0.379700,-0.589905,0.341614,0.978635,0.083018,0.028324,-74.639801,62.714970,31.566875
1732083637.832669,1732083637.835457,61.000000,0.000000,4386.794922,4309.102539,4318.717773,4325.897461,4287.563965,4282.436035,4314.230957,4318.717773,4302.051270,4299.615234,4478.589844,4489.615234,4373.205078,4470.897461,0.000000,0.000000,6.000000,,,,0.000000,2.000000,2.000000,0.000000,2.000000,2.000000,2.000000,0.000000,2.000000,4.000000,4.000000,4.000000,4.000000,2.000000,4.000000,16.666666,,,,,,,,,,,,,,,,,,,,,,,,,,,,
1732083637.840477,1732083637.843065,62.000000,0.000000,4381.666504,4303.461426,4319.743652,4324.871582,4285.769043,4283.974121,4313.077148,4325.641113,4305.512695,4295.512695,4472.307617,4489.743652,4366.025879,4464.871582,0.000000,0.000000,6.000000,,,,0.000000,2.000000,2.000000,0.000000,2.000000,2.000000,2.000000,0.000000,2.000000,4.000000,4.000000,4.000000,4.000000,2.000000,4.000000,16.666666,,,,,,,,,,,,,,,,,,,,,,,,,,,,
1732083637.848285,1732083637.850874,63.000000,0.000000,4382.179688,4304.871582,4320.384766,4331.153809,4285.641113,4282.563965,4313.077148,4326.410156,4310.128418,4292.436035,4477.948730,4493.974121,4369.230957,4466.666504,0.000000,0.000000,6.000000,,,,0.000000,2.000000,2.000000,0.000000,2.000000,2.000000,2.000000,0.000000,2.000000,4.000000,4.000000,4.000000,4.000000,2.000000,4.000000,16.666666,,,,,,,,,,,,,,,,,,,,,,,,,,,,
1732083637.856093,1732083637.858782,64.000000,0.000000,4386.922852,4308.461426,4320.769043,4330.897461,4283.589844,4278.717773,4313.974121,4316.666504,4307.051270,4302.307617,4487.051270,4496.666504,4377.692383,4477.436035,0.000000,0.000000,6.000000,,,,0.000000,2.000000,2.000000,0.000000,2.000000,2.000000,2.000000,0.000000,2.000000,4.000000,4.000000,4.000000,4.000000,2.000000,4.000000,16.666666,,,,,,,,,,,,,,,,,16.000000,0.000000,0.623746,0.380432,-0.590027,0.343628,0.973263,0.082530,0.033696,-74.926567,62.264126,31.234169
1732083637.863902,1732083637.866590,65.000000,0.000000,4385.256348,4309.487305,4323.077148,4326.538574,4279.487305,4277.179688,4312.692383,4308.717773,4300.000000,4305.128418,4478.205078,4492.563965,4372.692383,4476.666504,1327.000000,0.000000,6.000000,,,,0.000000,2.000000,2.000000,0.000000,2.000000,2.000000,2.000000,0.000000,2.000000,4.000000,4.000000,4.000000,4.000000,2.000000,4.000000,16.666666,,,,,,,,,,,,,,,,,,,,,,,,,,,,
1732083637.871710,1732083637.874598,66.000000,0.000000,4379.615234,4311.538574,4323.717773,4327.692383,4279.743652,4280.256348,4313.461426,4314.230957,4302.948730,4300.512695,4473.333496,4493.717773,4370.000000,4468.974121,1242.000000,0.000000,6.000000,,,,0.000000,2.000000,2.000000,0.000000,2.000000,2.000000,2.000000,0.000000,2.000000,4.000000,4.000000,4.000000,4.000000,2.000000,4.000000,16.666666,,,,,,,,,,,,,,,,,,,,,,,,,,,,
1732083637.879518,1732083637.882406,67.000000,0.000000,4376.410156,4312.692383,4323.846191,4328.333496,4282.563965,4282.563965,4316.794922,4321.794922,4308.846191,4305.384766,4484.743652,4501.025879,4379.102539,4472.307617,1207.000000,0.000000,6.000000,,,,0.000000,2.000000,2.000000,0.000000,2.000000,2.000000,2.000000,0.000000,2.000000,4.000000,4.000000,4.000000,4.000000,2.000000,4.000000,16.666666,,,,,,,,,,,,,,,,,,,,,,,,,,,,
1732083637.887326,1732083637.890314,68.000000,0.000000,4376.153809,4311.794922,4325.000000,4329.102539,4282.563965,4282.307617,4319.615234,4322.692383,4307.820313,4305.512695,4484.743652,4500.512695,4380.384766,4476.922852,1210.000000,0.000000,6.000000,,,,0.000000,2.000000,2.000000,0.000000,2.000000,2.000000,2.000000,0.000000,2.000000,4.000000,4.000000,4.000000,4.000000,2.000000,4.000000,16.666666,,,,,,,,,,,,,,,,,17.000000,0.000000,0.620447,0.382019,-0.590515,0.346985,0.984495,0.083018,0.021487,-75.320518,61.643940,30.873011
1732083637.895135,1732083637.898122,69.000000,0.000000,4378.205078,4310.384766,4325.128418,4330.512695,4280.256348,4282.563965,4317.820313,4322.179688,4306.666504,4297.051270,4476.153809,4500.512695,4370.384766,4473.974121,1077.000000,0.000000,6.000000,,,,0.000000,2.000000,2.000000,0.000000,2.000000,2.000000,2.000000,0.000000,2.000000,4.000000,4.000000,4.000000,4.000000,2.000000,4.000000,16.666666,,,,,,,,,,,,,,,,,,,,,,,,,,,,
1732083637.902943,1732083637.905731,70.000000,0.000000,4380.384766,4309.230957,4325.512695,4326.922852,4280.128418,4282.051270,4317.692383,4321.922852,4309.487305,4296.666504,4479.871582,4507.692383,4368.205078,4474.487305,0.000000,0.000000,6.000000,,,,0.000000,2.000000,2.000000,0.000000,2.000000,2.000000,2.000000,0.000000,2.000000,4.000000,4.000000,4.000000,4.000000,2.000000,4.000000,16.666666,,,,,,,,,,,,,,,,,,,,,,,,,,,,
1732083637.910751,1732083637.913539,71.000000,0.000000,4378.077148,4307.051270,4325.128418,4324.615234,4277.307617,4280.641113,4316.922852,4318.461426,4310.128418,4302.051270,4486.794922,4504.358887,4372.179688,4476.410156,1172.000000,0.000000,6.000000,,,,0.000000,2.000000,2.000000,0.000000,2.000000,2.000000,2.000000,0.000000,2.000000,4.000000,4.000000,4.000000,4.000000,2.000000,4.000000,16.666666,,,,,,,,,,,,,,,,,,,,,,,,,,,,
1732083637.918559,1732083637.921247,72.000000,0.000000,4377.563965,4306.153809,4323.333496,4326.025879,4275.769043,4280.000000,4312.692383,4317.563965,4306.153809,4299.743652,4484.230957,4493.205078,4373.589844,4476.282227,1372.000000,0.000000,6.000000,,,,0.000000,2.000000,2.000000,0.000000,2.000000,2.000000,2.000000,0.000000,2.000000,4.000000,4.000000,4.000000,4.000000,2.000000,4.000000,16.666666,,,,,,,,,,,,,,,,,18.000000,0.000000,0.614774,0.382690,-0.593445,0.351318,0.985960,0.053717,0.022952,-75.544624,61.204926,30.452139
1732083637.926368,1732083637.929056,73.000000,0.000000,4380.256348,4307.692383,4326.282227,4326.153809,4277.692383,4283.205078,4316.666504,4321.025879,4302.692383,4298.846191,4480.384766,4497.179688,4369.230957,4476.025879,1523.000000,0.000000,6.000000,,,,0.000000,2.000000,2.000000,0.000000,2.000000,2.000000,2.000000,0.000000,2.000000,4.000000,4.000000,4.000000,4.000000,2.000000,4.000000,16.666666,,,,,,,,,,,,,,,,,,,,,,,,,,,,
1732083637.934176,1732083637.937064,74.000000,0.000000,4381.538574,4310.512695,4326.922852,4328.717773,4280.384766,4287.436035,4319.230957,4321.666504,4303.846191,4303.846191,4484.487305,4506.153809,4368.589844,4476.153809,1384.000000,0.000000,6.000000,,,,0.000000,2.000000,2.000000,0.000000,2.000000,2.000000,2.000000,0.000000,2.000000,4.000000,4.000000,4.000000,4.000000,2.000000,4.000000,16.666666,,,,,,,,,,,,,,,,,,,,,,,,,,,,
1732083637.941984,1732083637.944872,75.000000,0.000000,4382.436035,4313.589844,4325.769043,4331.794922,4279.230957,4283.717773,4316.025879,4318.589844,4305.641113,4302.820313,4492.179688,4506.282227,4378.589844,4478.205078,1518.000000,0.000000,6.000000,,,,0.000000,2.000000,2.000000,0.000000,2.000000,2.000000,2.000000,0.000000,2.000000,4.000000,4.000000,4.000000,4.000000,2.000000,4.000000,16.666666,,,,,,,,,,,,,,,,,,,,,,,,,,,,
1732083637.949793,1732083637.952780,76.000000,0.000000,4381.794922,4310.512695,4325.897461,4330.256348,4277.563965,4277.948730,4316.666504,4316.666504,4306.922852,4301.538574,4491.153809,4505.641113,4380.897461,4477.563965,1748.000000,0.000000,6.000000,,,,0.000000,2.000000,2.000000,0.000000,2.000000,2.000000,2.000000,0.000000,2.000000,4.000000,4.000000,4.000000,4.000000,2.000000,4.000000,16.666666,,,,,,,,,,,,,,,,,19.000000,0.000000,0.610788,0.380676,-0.597717,0.353210,0.979123,0.033696,0.005372,-75.909477,60.732658,30.247898
1732083637.957601,1732083637.960588,77.000000,0.000000,4376.025879,4304.102539,4326.666504,4327.307617,4280.384766,4282.179688,4321.025879,4315.897461,4308.974121,4307.179688,4484.358887,4503.205078,4375.000000,4473.589844,1556.000000,0.000000,6.000000,,,,0.000000,2.000000,2.000000,0.000000,2.000000,2.000000,2.000000,0.000000,2.000000,4.000000,4.000000,4.000000,4.000000,2.000000,4.000000,16.666666,,,,,,,,,,,,,,,,,,,,,,,,,,,,
1732083637.965409,1732083637.968596,78.000000,0.000000,4369.615234,4305.512695,4322.436035,4327.820313,4281.282227,4286.538574,4316.282227,4316.153809,4310.384766,4310.769043,4484.230957,4494.743652,4377.307617,4470.897461,1384.000000,0.000000,6.000000,,,,0.000000,2.000000,2.000000,0.000000,2.000000,2.000000,2.000000,0.000000,2.000000,4.000000,4.000000,4.000000,4.000000,2.000000,4.000000,16.666666,1.000000,16.666666,2.000000,2.000000,0.000000,2.000000,2.000000,2.000000,0.000000,2.000000,3.000000,4.000000,4.000000,4.000000,2.000000,4.000000,,,,,,,,,,,,
1732083637.973217,1732083637.976404,79.000000,0.000000,4369.487305,4310.897461,4323.333496,4328.205078,4281.922852,4282.179688,4314.230957,4317.436035,4312.307617,4309.871582,4486.153809,4490.128418,4379.102539,4468.333496,1518.000000,0.000000,6.000000,,,,0.000000,2.000000,2.000000,0.000000,2.000000,2.000000,2.000000,0.000000,2.000000,4.000000,4.000000,4.000000,4.000000,2.000000,4.000000,16.666666,,,,,,,,,,,,,,,,,,,,,,,,,,,,
1732083637.981026,1732083637.984312,80.000000,0.000000,4371.025879,4312.051270,4326.666504,4330.128418,4284.615234,4280.256348,4316.538574,4321.025879,4318.205078,4312.563965,4487.051270,4493.205078,4374.358887,4467.436035,1748.000000,0.000000,6.000000,,,,0.000000,2.000000,2.000000,0.000000,2.000000,2.000000,2.000000,0.000000,2.000000,4.000000,4.000000,4.000000,4.000000,2.000000,4.000000,16.666666,,,,,,,,,,,,,,,,,20.000000,0.000000,0.609527,0.379822,-0.599365,0.353516,0.949823,0.070809,0.003907,-76.180008,60.403454,30.137465
1732083637.988834,1732083637.992121,81.000000,0.000000,4368.333496,4311.282227,4322.563965,4331.153809,4285.000000,4286.538574,4313.589844,4321.153809,4319.871582,4314.102539,4484.230957,4490.128418,4376.282227,4466.153809,1556.000000,0.000000,6.000000,,,,0.000000,2.000000,2.000000,0.000000,2.000000,2.000000,2.000000,0.000000,2.000000,4.000000,4.000000,4.000000,4.000000,2.000000,4.000000,16.666666,,,,,,,,,,,,,,,,,,,,,,,,,,,,
1732083637.996642,1732083637.999729,82.000000,0.000000,4364.743652,4310.897461,4320.641113,4330.641113,4283.717773,4289.743652,4309.871582,4317.563965,4310.384766,4307.563965,4479.615234,4487.051270,4381.025879,4460.641113,1384.000000,0.000000,6.000000,,,,0.000000,2.000000,2.000000,0.000000,2.000000,2.000000,2.000000,0.000000,2.000000,4.000000,4.000000,4.000000,4.000000,2.000000,4.000000,16.666666,,,,,,,,,,,,,,,,,,,,,,,,,,,,
1732083638.004450,1732083638.007537,83.000000,0.000000,4363.077148,4311.282227,4323.333496,4331.922852,4281.666504,4288.077148,4314.230957,4318.205078,4304.871582,4302.692383,4479.102539,4491.410156,4374.615234,4456.922852,1518.000000,0.000000,6.000000,,,,0.000000,2.000000,2.000000,0.000000,2.000000,2.000000,2.000000,0.000000,2.000000,4.000000,4.000000,4.000000,4.000000,2.000000,4.000000,16.666666,,,,,,,,,,,,,,,,,,,,,,,,,,,,
1732083638.012259,1732083638.015245,84.000000,0.000000,4362.179688,4310.128418,4321.794922,4330.384766,4287.563965,4290.000000,4315.256348,4318.846191,4307.436035,4304.743652,4477.820313,4494.102539,4371.410156,4459.615234,1748.000000,0.000000,6.000000,,,,0.000000,2.000000,2.000000,0.000000,2.000000,2.000000,2.000000,0.000000,2.000000,4.000000,4.000000,4.000000,4.000000,2.000000,4.000000,16.666666,,,,,,,,,,,,,,,,,21.000000,0.000000,0.604712,0.378601,-0.604309,0.354675,0.997192,0.070809,-0.023929,-76.404144,59.980129,29.794680
1732083638.020067,1732083638.023054,85.000000,0.000000,4358.461426,4305.641113,4317.692383,4324.615234,4297.820313,4288.846191,4311.666504,4314.615234,4308.205078,4302.051270,4475.641113,4491.666504,4375.000000,4455.384766,1556.000000,0.000000,6.000000,,,,0.000000,2.000000,2.000000,0.000000,2.000000,2.000000,2.000000,0.000000,2.000000,4.000000,4.000000,4.000000,4.000000,2.000000,4.000000,16.666666,,,,,,,,,,,,,,,,,,,,,,,,,,,,
1732083638.027875,1732083638.030662,86.000000,0.000000,4357.307617,4304.230957,4318.589844,4323.846191,4291.410156,4283.077148,4312.307617,4315.641113,4308.589844,4301.025879,4475.769043,4491.410156,4375.641113,4448.974121,1384.000000,0.000000,6.000000,,,,0.000000,2.000000,2.000000,0.000000,2.000000,2.000000,2.000000,0.000000,2.000000,4.000000,4.000000,4.000000,4.000000,2.000000,4.000000,16.666666,,,,,,,,,,,,,,,,,,,,,,,,,,,,
1732083638.035684,1732083638.038470,87.000000,0.000000,4360.641113,4310.384766,4318.461426,4327.179688,4276.153809,4284.102539,4313.205078,4319.743652,4308.846191,4311.025879,4477.436035,4494.871582,4376.794922,4454.358887,1518.000000,0.000000,6.000000,,,,0.000000,2.000000,2.000000,0.000000,2.000000,2.000000,2.000000,0.000000,2.000000,4.000000,4.000000,4.000000,4.000000,2.000000,4.000000,16.666666,,,,,,,,,,,,,,,,,,,,,,,,,,,,
1732083638.043492,1732083638.046179,88.000000,0.000000,4363.717773,4312.436035,4318.717773,4325.384766,4280.512695,4288.461426,4309.615234,4319.358887,4309.358887,4318.333496,4476.794922,4497.948730,4380.897461,4458.077148,1748.000000,0.000000,6.000000,,,,0.000000,2.000000,2.000000,0.000000,2.000000,2.000000,2.000000,0.000000,2.000000,4.000000,4.000000,4.000000,4.000000,2.000000,4.000000,16.666666,,,,,,,,,,,,,,,,,22.000000,0.000000,0.598420,0.376770,-0.610107,0.357361,0.946893,0.030765,-0.043462,-76.640686,59.500572,29.800358
1732083638.051300,1732083638.053987,89.000000,0.000000,4362.692383,4309.358887,4318.974121,4323.974121,4291.153809,4290.769043,4308.846191,4318.846191,4307.692383,4312.051270,4478.461426,4497.820313,4379.358887,4454.487305,1556.000000,0.000000,6.000000,,,,0.000000,2.000000,2.000000,0.000000,2.000000,2.000000,2.000000,0.000000,2.000000,4.000000,4.000000,4.000000,4.000000,2.000000,4.000000,16.666666,,,,,,,,,,,,,,,,,,,,,,,,,,,,
1732083638.059108,1732083638.061595,90.000000,0.000000,4358.717773,4309.871582,4318.974121,4325.000000,4291.153809,4293.974121,4314.102539,4318.974121,4301.666504,4305.384766,4476.025879,4493.205078,4373.333496,4451.538574,1384.000000,0.000000,6.000000,,,,0.000000,2.000000,2.000000,0.000000,2.000000,2.000000,2.000000,0.000000,2.000000,4.000000,4.000000,4.000000,4.000000,2.000000,4.000000,16.666666,,,,,,,,,,,,,,,,,,,,,,,,,,,,
1732083638.066917,1732083638.069403,91.000000,0.000000,4356.153809,4311.153809,4318.846191,4322.307617,4291.153809,4295.769043,4314.102539,4315.641113,4298.461426,4307.051270,4473.077148,4487.692383,4372.692383,4447.948730,1518.000000,0.000000,6.000000,,,,0.000000,2.000000,2.000000,0.000000,2.000000,2.000000,2.000000,0.000000,2.000000,4.000000,4.000000,4.000000,4.000000,2.000000,4.000000,16.666666,,,,,,,,,,,,,,,,,,,,,,,,,,,,
1732083638.074725,1732083638.077112,92.000000,0.000000,4355.000000,4309.871582,4322.820313,4319.358887,4291.153809,4295.128418,4312.179688,4315.000000,4303.333496,4305.641113,4473.077148,4489.230957,4371.666504,4444.743652,1748.000000,0.000000,6.000000,,,,0.000000,2.000000,2.000000,0.000000,2.000000,2.000000,2.000000,0.000000,2.000000,4.000000,4.000000,4.000000,4.000000,2.000000,4.000000,16.666666,,,,,,,,,,,,,,,,,23.000000,0.000000,0.595967,0.375916,-0.612244,0.358704,0.946893,0.030765,-0.043462,-76.922287,59.022129,29.453289
1732083638.082533,1732083638.084920,93.000000,0.000000,4356.666504,4310.512695,4324.230957,4319.743652,4286.922852,4293.077148,4310.128418,4316.025879,4306.025879,4305.256348,4472.436035,4493.205078,4372.051270,4450.128418,1556.000000,0.000000,6.000000,,,,0.000000,2.000000,2.000000,0.000000,2.000000,2.000000,2.000000,0.000000,2.000000,4.000000,4.000000,4.000000,4.000000,2.000000,4.000000,16.666666,,,,,,,,,,,,,,,,,,,,,,,,,,,,
1732083638.090341,1732083638.092528,94.000000,0.000000,4357.820313,4311.410156,4327.051270,4320.512695,4285.641113,4285.256348,4311.538574,4312.436035,4303.589844,4306.922852,4476.410156,4494.487305,4378.974121,4456.922852,1384.000000,0.000000,6.000000,,,,0.000000,2.000000,2.000000,0.000000,2.000000,2.000000,2.000000,0.000000,2.000000,4.000000,4.000000,4.000000,4.000000,2.000000,4.000000,16.666666,,,,,,,,,,,,,,,,,,,,,,,,,,,,
1732083638.098150,1732083638.100337,95.000000,0.000000,4357.436035,4311.282227,4329.102539,4324.102539,4287.436035,4280.384766,4312.563965,4309.615234,4305.512695,4309.102539,4480.769043,4493.461426,4381.153809,4456.153809,1518.000000,0.000000,6.000000,,,,0.000000,2.000000,2.000000,0.000000,2.000000,2.000000,2.000000,0.000000,2.000000,4.000000,4.000000,4.000000,4.000000,2.000000,4.000000,16.666666,,,,,,,,,,,,,,,,,,,,,,,,,,,,
1732083638.105958,1732083638.108045,96.000000,0.000000,4353.846191,4310.769043,4332.563965,4324.358887,4289.743652,4286.666504,4314.102539,4312.436035,4304.871582,4307.820313,4479.102539,4493.077148,4373.974121,4451.025879,1748.000000,0.000000,6.000000,,,,0.000000,2.000000,2.000000,0.000000,2.000000,2.000000,2.000000,0.000000,2.000000,4.000000,4.000000,4.000000,4.000000,2.000000,4.000000,16.666666,,,,,,,,,,,,,,,,,24.000000,0.000000,0.593253,0.375305,-0.614319,0.360291,0.956660,0.022952,-0.060554,-77.112053,58.589592,29.097164
1732083638.113766,1732083638.115853,97.000000,0.000000,4345.641113,4306.666504,4335.897461,4315.384766,4291.410156,4293.077148,4317.692383,4317.563965,4303.846191,4298.461426,4475.256348,4493.077148,4368.717773,4445.128418,1556.000000,0.000000,6.000000,,,,0.000000,2.000000,2.000000,0.000000,2.000000,2.000000,2.000000,0.000000,2.000000,4.000000,4.000000,4.000000,4.000000,2.000000,4.000000,16.666666,,,,,,,,,,,,,,,,,,,,,,,,,,,,
1732083638.121574,1732083638.123462,98.000000,0.000000,4336.922852,4302.051270,4333.333496,4307.307617,4290.897461,4296.025879,4324.358887,4321.538574,4308.846191,4296.282227,4472.179688,4485.641113,4369.487305,4437.692383,1384.000000,0.000000,6.000000,,,,0.000000,2.000000,2.000000,0.000000,2.000000,2.000000,2.000000,0.000000,2.000000,4.000000,4.000000,4.000000,4.000000,2.000000,4.000000,16.666666,,,,,,,,,,,,,,,,,,,,,,,,,,,,
1732083638.129383,1732083638.131270,99.000000,0.000000,4336.282227,4305.000000,4331.794922,4308.589844,4290.641113,4297.051270,4322.307617,4318.589844,4308.589844,4303.589844,4470.512695,4480.512695,4371.794922,4436.282227,1518.000000,0.000000,6.000000,,,,0.000000,2.000000,2.000000,0.000000,2.000000,2.000000,2.000000,0.000000,2.000000,4.000000,4.000000,4.000000,4.000000,2.000000,4.000000,16.666666,,,,,,,,,,,,,,,,,,,,,,,,,,,,
1732083638.137191,1732083638.138978,100.000000,0.000000,4342.179688,4309.743652,4330.769043,4316.025879,4292.307617,4294.871582,4316.153809,4314.102539,4304.743652,4308.846191,4472.820313,4485.897461,4372.051270,4442.436035,1748.000000,0.000000,6.000000,,,,0.000000,2.000000,2.000000,0.000000,2.000000,2.000000,2.000000,0.000000,2.000000,4.000000,4.000000,4.000000,4.000000,2.000000,4.000000,16.666666,,,,,,,,,,,,,,,,,25.000000,0.000000,0.581918,0.372192,-0.622803,0.367371,0.959590,-0.038579,-0.078135,-77.255768,58.004234,28.673702
1732083638.144999,1732083638.146786,101.000000,0.000000,4344.743652,4310.641113,4327.820313,4318.717773,4293.846191,4294.230957,4315.384766,4316.794922,4307.436035,4308.589844,4475.769043,4492.307617,4372.820313,4444.358887,1556.000000,0.000000,6.000000,,,,0.000000,2.000000,2.000000,0.000000,2.000000,2.000000,2.000000,0.000000,2.000000,4.000000,4.000000,4.000000,4.000000,2.000000,4.000000,16.666666,,,,,,,,,,,,,,,,,,,,,,,,,,,,
1732083638.152807,1732083638.154395,102.000000,0.000000,4346.666504,4311.666504,4321.794922,4317.436035,4293.333496,4294.102539,4314.743652,4316.794922,4310.256348,4307.436035,4475.641113,4490.384766,4378.205078,4443.333496,1384.000000,0.000000,6.000000,,,,0.000000,2.000000,2.000000,0.000000,2.000000,2.000000,2.000000,0.000000,2.000000,4.000000,4.000000,4.000000,4.000000,2.000000,4.000000,16.666666,,,,,,,,,,,,,,,,,,,,,,,,,,,,
1732083638.160616,1732083638.162203,103.000000,0.000000,4346.025879,4312.692383,4321.538574,4315.897461,4292.051270,4292.307617,4312.179688,4311.538574,4306.410156,4304.871582,4476.025879,4489.871582,4379.615234,4444.230957,1518.000000,0.000000,6.000000,,,,0.000000,2.000000,2.000000,0.000000,2.000000,2.000000,2.000000,0.000000,2.000000,4.000000,4.000000,4.000000,4.000000,2.000000,4.000000,16.666666,,,,,,,,,,,,,,,,,,,,,,,,,,,,
1732083638.168424,1732083638.169911,104.000000,0.000000,4340.256348,4310.641113,4318.589844,4317.179688,4291.153809,4292.436035,4310.384766,4312.307617,4307.692383,4300.128418,4473.589844,4485.769043,4372.692383,4442.307617,1748.000000,0.000000,6.000000,,,,0.000000,2.000000,2.000000,0.000000,2.000000,2.000000,2.000000,0.000000,2.000000,4.000000,4.000000,4.000000,4.000000,2.000000,4.000000,16.666666,,,,,,,,,,,,,,,,,26.000000,0.000000,0.578930,0.371155,-0.624939,0.369507,0.959590,-0.038579,-0.078135,-77.523834,57.360096,28.065699
1732083638.176232,1732083638.177719,105.000000,0.000000,4340.769043,4309.615234,4316.922852,4318.717773,4286.153809,4286.922852,4309.230957,4313.205078,4308.846191,4300.641113,4470.128418,4480.512695,4372.692383,4441.153809,1556.000000,0.000000,6.000000,,,,0.000000,2.000000,2.000000,0.000000,2.000000,2.000000,2.000000,0.000000,2.000000,4.000000,4.000000,4.000000,4.000000,2.000000,4.000000,16.666666,,,,,,,,,,,,,,,,,,,,,,,,,,,,
1732083638.184040,1732083638.185328,106.000000,0.000000,4346.922852,4312.820313,4317.307617,4316.666504,4283.974121,4279.871582,4307.051270,4307.179688,4306.153809,4302.820313,4472.051270,4485.128418,4381.153809,4444.487305,1384.000000,0.000000,6.000000,,,,0.000000,2.000000,2.000000,0.000000,2.000000,2.000000,2.000000,0.000000,2.000000,4.000000,4.000000,4.000000,4.000000,2.000000,4.000000,16.666666,,,,,,,,,,,,,,,,,,,,,,,,,,,,
1732083638.191849,1732083638.193136,107.000000,0.000000,4340.000000,4307.307617,4318.846191,4313.717773,4287.948730,4289.487305,4311.538574,4310.641113,4307.948730,4299.871582,4474.743652,4490.128418,4376.282227,4440.512695,1518.000000,0.000000,6.000000,,,,0.000000,2.000000,2.000000,0.000000,2.000000,2.000000,2.000000,0.000000,2.000000,4.000000,4.000000,4.000000,4.000000,2.000000,4.000000,16.666666,,,,,,,,,,,,,,,,,,,,,,,,,,,,
1732083638.199657,1732083638.201044,108.000000,0.000000,4326.025879,4296.538574,4318.333496,4312.307617,4292.563965,4302.179688,4314.615234,4321.410156,4312.948730,4298.717773,4471.153809,4488.461426,4366.282227,4433.333496,1748.000000,0.000000,6.000000,,,,0.000000,2.000000,2.000000,0.000000,2.000000,2.000000,2.000000,0.000000,2.000000,4.000000,4.000000,4.000000,4.000000,2.000000,4.000000,16.666666,,,,,,,,,,,,,,,,,27.000000,0.000000,0.569853,0.365662,-0.632324,0.376465,0.988402,-0.087413,-0.095226,-77.899307,56.373344,27.451550
1732083638.207465,1732083638.208852,109.000000,0.000000,4321.794922,4295.769043,4319.102539,4311.538574,4295.000000,4298.846191,4316.538574,4321.794922,4310.000000,4301.153809,4461.282227,4486.410156,4364.487305,4429.358887,1556.000000,0.000000,6.000000,,,,0.000000,2.000000,2.000000,0.000000,2.000000,2.000000,2.000000,0.000000,2.000000,4.000000,4.000000,4.000000,4.000000,2.000000,4.000000,16.666666,,,,,,,,,,,,,,,,,,,,,,,,,,,,
1732083638.215274,1732083638.216461,110.000000,0.000000,4323.974121,4297.307617,4318.205078,4310.641113,4298.717773,4299.102539,4318.589844,4319.102539,4307.820313,4299.358887,4456.794922,4488.717773,4363.589844,4424.871582,1384.000000,0.000000,6.000000,,,,0.000000,2.000000,2.000000,0.000000,2.000000,2.000000,2.000000,0.000000,2.000000,4.000000,4.000000,4.000000,4.000000,2.000000,4.000000,16.666666,,,,,,,,,,,,,,,,,,,,,,,,,,,,
1732083638.223082,1732083638.224269,111.000000,0.000000,4324.615234,4296.922852,4320.512695,4311.410156,4295.256348,4305.256348,4316.282227,4316.153809,4311.538574,4296.538574,4459.487305,4491.538574,4362.436035,4427.820313,1518.000000,0.000000,6.000000,,,,0.000000,2.000000,2.000000,0.000000,2.000000,2.000000,2.000000,0.000000,2.000000,4.000000,4.000000,4.000000,4.000000,2.000000,4.000000,16.666666,,,,,,,,,,,,,,,,,,,,,,,,,,,,
1732083638.230890,1732083638.231977,112.000000,0.000000,4325.897461,4302.563965,4326.922852,4313.333496,4283.333496,4292.692383,4309.358887,4308.589844,4311.410156,4304.102539,4463.717773,4491.794922,4368.333496,4438.461426,1748.000000,0.000000,6.000000,,,,0.000000,2.000000,2.000000,0.000000,2.000000,2.000000,2.000000,0.000000,2.000000,4.000000,4.000000,4.000000,4.000000,2.000000,4.000000,16.666666,,,,,,,,,,,,,,,,,28.000000,0.000000,0.558341,0.355896,-0.642639,0.385498,0.980100,-0.130875,-0.106947,-78.281769,55.335743,27.075756
1732083638.238698,1732083638.239785,113.000000,0.000000,4329.102539,4306.666504,4325.000000,4312.436035,4280.000000,4279.230957,4310.384766,4310.000000,4311.153809,4312.051270,4471.410156,4491.666504,4374.615234,4442.563965,1556.000000,0.000000,6.000000,,,,0.000000,2.000000,2.000000,0.000000,2.000000,2.000000,2.000000,0.000000,2.000000,4.000000,4.000000,4.000000,4.000000,2.000000,4.000000,16.666666,,,,,,,,,,,,,,,,,,,,,,,,,,,,
1732083638.246507,1732083638.247793,114.000000,0.000000,4328.717773,4302.820313,4322.436035,4310.769043,4282.051270,4283.333496,4314.615234,4317.820313,4313.461426,4309.230957,4476.153809,4496.410156,4373.717773,4440.897461,1384.000000,0.000000,6.000000,,,,0.000000,2.000000,2.000000,0.000000,2.000000,2.000000,2.000000,0.000000,2.000000,4.000000,4.000000,4.000000,4.000000,2.000000,4.000000,16.666666,,,,,,,,,,,,,,,,,,,,,,,,,,,,
1732083638.254315,1732083638.255602,115.000000,0.000000,4324.230957,4300.384766,4321.794922,4309.358887,4281.282227,4284.487305,4315.000000,4315.512695,4311.282227,4305.641113,4471.410156,4498.846191,4371.666504,4440.769043,1518.000000,0.000000,6.000000,,,,0.000000,2.000000,2.000000,0.000000,2.000000,2.000000,2.000000,0.000000,2.000000,4.000000,4.000000,4.000000,4.000000,2.000000,4.000000,16.666666,,,,,,,,,,,,,,,,,,,,,,,,,,,,
1732083638.262123,1732083638.263310,116.000000,0.000000,4322.692383,4301.410156,4323.846191,4308.461426,4284.743652,4281.538574,4313.717773,4307.948730,4306.410156,4305.512695,4467.563965,4491.794922,4371.538574,4438.077148,1748.000000,0.000000,6.000000,,,,0.000000,2.000000,2.000000,0.000000,2.000000,2.000000,2.000000,0.000000,2.000000,4.000000,4.000000,4.000000,4.000000,2.000000,4.000000,16.666666,,,,,,,,,,,,,,,,,29.000000,0.000000,0.551769,0.347534,-0.649536,0.390991,0.948846,-0.168966,-0.091320,-78.659904,54.096951,26.464695
1732083638.269931,1732083638.271118,117.000000,0.000000,4323.205078,4302.179688,4321.922852,4312.179688,4294.487305,4289.358887,4315.897461,4311.538574,4310.384766,4305.769043,4466.794922,4487.307617,4371.025879,4429.743652,1556.000000,0.000000,6.000000,,,,0.000000,2.000000,2.000000,0.000000,2.000000,2.000000,2.000000,0.000000,2.000000,4.000000,4.000000,4.000000,4.000000,2.000000,4.000000,16.666666,,,,,,,,,,,,,,,,,,,,,,,,,,,,
1732083638.277740,1732083638.279126,118.000000,0.000000,4318.717773,4300.384766,4323.205078,4313.333496,4298.974121,4297.948730,4317.820313,4316.666504,4314.743652,4304.743652,4461.282227,4491.025879,4365.769043,4421.922852,1384.000000,0.000000,6.000000,,,,0.000000,2.000000,2.000000,0.000000,2.000000,2.000000,2.000000,0.000000,2.000000,4.000000,4.000000,4.000000,4.000000,2.000000,4.000000,16.666666,,,,,,,,,,,,,,,,,,,,,,,,,,,,
1732083638.285548,1732083638.286934,119.000000,0.000000,4315.128418,4296.025879,4323.589844,4310.000000,4301.025879,4299.487305,4316.153809,4313.846191,4311.282227,4303.461426,4460.384766,4489.102539,4364.743652,4424.871582,1518.000000,0.000000,6.000000,,,,0.000000,2.000000,2.000000,0.000000,2.000000,2.000000,2.000000,0.000000,2.000000,4.000000,4.000000,4.000000,4.000000,2.000000,4.000000,16.666666,,,,,,,,,,,,,,,,,,,,,,,,,,,,
1732083638.293356,1732083638.294843,120.000000,0.000000,4316.025879,4297.179688,4325.641113,4310.384766,4304.358887,4298.205078,4315.000000,4314.230957,4310.897461,4299.871582,4464.487305,4485.128418,4367.436035,4430.769043,1748.000000,0.000000,6.000000,,,,0.000000,2.000000,2.000000,0.000000,2.000000,2.000000,2.000000,0.000000,2.000000,4.000000,4.000000,4.000000,4.000000,2.000000,4.000000,16.666666,,,,,,,,,,,,,,,,,30.000000,0.000000,0.551769,0.347534,-0.649536,0.390991,0.949335,-0.167989,-0.092296,-79.116188,53.048531,25.969736
1732083638.301165,1732083638.302651,121.000000,0.000000,4315.769043,4301.282227,4323.333496,4313.333496,4303.846191,4299.358887,4314.871582,4317.436035,4311.282227,4292.948730,4459.358887,4485.128418,4364.743652,4426.538574,1556.000000,0.000000,6.000000,,,,0.000000,2.000000,2.000000,0.000000,2.000000,2.000000,2.000000,0.000000,2.000000,4.000000,4.000000,4.000000,4.000000,2.000000,4.000000,16.666666,,,,,,,,,,,,,,,,,,,,,,,,,,,,
1732083638.308973,1732083638.310659,122.000000,0.000000,4318.717773,4297.948730,4321.282227,4310.897461,4299.743652,4302.179688,4313.205078,4314.487305,4307.948730,4293.205078,4458.077148,4487.179688,4365.641113,4427.051270,1384.000000,0.000000,6.000000,,,,0.000000,2.000000,2.000000,0.000000,2.000000,2.000000,2.000000,0.000000,2.000000,4.000000,4.000000,4.000000,4.000000,2.000000,4.000000,16.666666,,,,,,,,,,,,,,,,,,,,,,,,,,,,
1732083638.316781,1732083638.318467,123.000000,0.000000,4324.615234,4296.922852,4321.666504,4309.230957,4295.641113,4293.974121,4310.512695,4310.897461,4310.000000,4303.077148,4472.179688,4489.102539,4372.948730,4438.333496,1518.000000,0.000000,6.000000,,,,0.000000,2.000000,2.000000,0.000000,2.000000,2.000000,2.000000,0.000000,2.000000,4.000000,4.000000,4.000000,4.000000,2.000000,4.000000,16.666666,,,,,,,,,,,,,,,,,,,,,,,,,,,,
1732083638.324589,1732083638.326175,124.000000,0.000000,4321.794922,4298.077148,4323.205078,4310.641113,4293.589844,4278.589844,4313.974121,4310.256348,4316.153809,4305.641113,4479.615234,4495.256348,4375.641113,4440.128418,1748.000000,0.000000,6.000000,,,,0.000000,2.000000,2.000000,0.000000,2.000000,2.000000,2.000000,0.000000,2.000000,4.000000,4.000000,4.000000,4.000000,2.000000,4.000000,16.666666,,,,,,,,,,,,,,,,,31.000000,0.000000,0.548547,0.341980,-0.653320,0.394104,0.952753,-0.176779,-0.102063,-79.522446,51.999310,25.710487
1732083638.332398,1732083638.333983,125.000000,0.000000,4313.974121,4294.743652,4322.563965,4305.897461,4292.692383,4284.743652,4316.153809,4311.666504,4318.717773,4302.179688,4473.846191,4499.102539,4370.641113,4431.025879,1556.000000,0.000000,6.000000,,,,0.000000,2.000000,2.000000,0.000000,2.000000,2.000000,2.000000,0.000000,2.000000,4.000000,4.000000,4.000000,4.000000,2.000000,4.000000,16.666666,,,,,,,,,,,,,,,,,,,,,,,,,,,,
1732083638.340206,1732083638.341991,126.000000,0.000000,4310.897461,4292.307617,4324.230957,4297.948730,4293.846191,4301.666504,4318.974121,4323.974121,4323.974121,4305.641113,4471.282227,4495.641113,4366.282227,4430.256348,1384.000000,0.000000,6.000000,,,,0.000000,2.000000,2.000000,0.000000,2.000000,2.000000,2.000000,0.000000,2.000000,4.000000,4.000000,4.000000,4.000000,2.000000,4.000000,16.666666,,,,,,,,,,,,,,,,,,,,,,,,,,,,
1732083638.348014,1732083638.349800,127.000000,0.000000,4309.102539,4293.205078,4323.974121,4299.102539,4298.205078,4301.025879,4318.846191,4337.820313,4328.846191,4310.384766,4474.102539,4498.717773,4367.948730,4437.692383,6.000000,0.000000,6.000000,,,,0.000000,2.000000,2.000000,0.000000,2.000000,2.000000,2.000000,0.000000,2.000000,4.000000,4.000000,4.000000,4.000000,2.000000,4.000000,16.666666,,,,,,,,,,,,,,,,,,,,,,,,,,,,
1732083638.355822,1732083638.357708,0.000000,0.000000,4308.461426,4294.871582,4321.153809,4306.538574,4296.410156,4295.641113,4316.922852,4329.230957,4323.205078,4306.410156,4474.615234,4501.922852,4369.102539,4436.538574,0.000000,0.000000,6.000000,,,,0.000000,2.000000,2.000000,0.000000,2.000000,2.000000,2.000000,0.000000,2.000000,4.000000,4.000000,4.000000,4.000000,2.000000,4.000000,16.666666,,,,,,,,,,,,,,,,,0.000000,0.000000,0.543479,0.330078,-0.660156,0.399841,0.956660,-0.189965,-0.095715,-80.028183,50.936108,25.473827
1732083638.363631,1732083638.365516,1.000000,0.000000,4308.974121,4296.282227,4323.205078,4307.563965,4300.256348,4296.538574,4314.871582,4311.025879,4314.743652,4301.025879,4471.153809,4494.487305,4366.025879,4431.025879,1327.000000,0.000000,6.000000,,,,0.000000,2.000000,2.000000,0.000000,2.000000,2.000000,2.000000,0.000000,2.000000,4.000000,4.000000,4.000000,4.000000,2.000000,4.000000,16.666666,,,,,,,,,,,,,,,,,,,,,,,,,,,,
1732083638.371439,1732083638.373524,2.000000,0.000000,4307.051270,4296.538574,4322.436035,4302.563965,4314.487305,4292.948730,4313.461426,4305.897461,4310.512695,4301.025879,4465.256348,4485.384766,4364.743652,4430.384766,1242.000000,0.000000,6.000000,,,,0.000000,2.000000,2.000000,0.000000,2.000000,2.000000,2.000000,0.000000,2.000000,4.000000,4.000000,4.000000,4.000000,2.000000,4.000000,16.666666,,,,,,,,,,,,,,,,,,,,,,,,,,,,
1732083638.379247,1732083638.381332,3.000000,0.000000,4304.743652,4293.846191,4321.282227,4301.922852,4308.333496,4291.410156,4312.948730,4312.948730,4311.410156,4303.205078,4462.820313,4492.436035,4366.794922,4430.897461,1204.000000,0.000000,6.000000,,,,0.000000,2.000000,2.000000,0.000000,2.000000,2.000000,2.000000,0.000000,2.000000,4.000000,4.000000,4.000000,4.000000,2.000000,4.000000,16.666666,,,,,,,,,,,,,,,,,,,,,,,,,,,,
1732083638.387055,1732083638.389240,4.000000,0.000000,4304.230957,4293.974121,4321.025879,4304.487305,4292.179688,4297.051270,4316.666504,4320.384766,4318.974121,4308.846191,4470.384766,4501.025879,4368.589844,4429.871582,1210.000000,0.000000,6.000000,,,,0.000000,2.000000,2.000000,0.000000,2.000000,2.000000,2.000000,0.000000,2.000000,4.000000,4.000000,4.000000,4.000000,2.000000,4.000000,16.666666,,,,,,,,,,,,,,,,,1.000000,0.000000,0.542029,0.326721,-0.661682,0.402039,0.965450,-0.166524,-0.089855,-80.426163,49.791580,25.157133
1732083638.394864,1732083638.397049,5.000000,0.000000,4307.307617,4295.000000,4325.384766,4303.974121,4297.436035,4297.307617,4317.051270,4319.871582,4326.153809,4313.974121,4476.666504,4500.384766,4371.794922,4429.358887,1077.000000,0.000000,6.000000,,,,0.000000,2.000000,2.000000,0.000000,2.000000,2.000000,2.000000,0.000000,2.000000,4.000000,4.000000,4.000000,4.000000,2.000000,4.000000,16.666666,,,,,,,,,,,,,,,,,,,,,,,,,,,,
1732083638.402672,1732083638.405057,6.000000,0.000000,4308.974121,4288.205078,4322.820313,4301.666504,4308.589844,4295.897461,4314.615234,4318.589844,4322.948730,4311.922852,4470.512695,4499.230957,4372.051270,4429.230957,0.000000,0.000000,6.000000,,,,0.000000,2.000000,2.000000,0.000000,2.000000,2.000000,2.000000,0.000000,2.000000,4.000000,4.000000,4.000000,4.000000,2.000000,4.000000,16.666666,,,,,,,,,,,,,,,,,,,,,,,,,,,,
1732083638.410480,1732083638.412865,7.000000,0.000000,4302.820313,4281.538574,4322.179688,4298.333496,4305.128418,4303.974121,4321.282227,4330.641113,4321.794922,4305.128418,4466.282227,4503.333496,4365.641113,4427.307617,1174.000000,0.000000,6.000000,,,,0.000000,2.000000,2.000000,0.000000,2.000000,2.000000,2.000000,0.000000,2.000000,4.000000,4.000000,4.000000,4.000000,2.000000,4.000000,16.666666,,,,,,,,,,,,,,,,,,,,,,,,,,,,
1732083638.418288,1732083638.420773,8.000000,0.000000,4296.410156,4282.563965,4324.230957,4295.897461,4304.230957,4312.436035,4326.025879,4338.974121,4327.179688,4309.487305,4468.589844,4504.230957,4363.461426,4422.563965,1369.000000,0.000000,6.000000,,,,0.000000,2.000000,2.000000,0.000000,2.000000,2.000000,2.000000,0.000000,2.000000,4.000000,4.000000,4.000000,4.000000,2.000000,4.000000,16.666666,,,,,,,,,,,,,,,,,2.000000,0.000000,0.542029,0.326721,-0.661682,0.402039,0.973263,-0.178733,-0.090831,-80.883522,48.849514,24.810612
1732083638.426097,1732083638.428581,9.000000,0.000000,4297.051270,4281.538574,4326.282227,4296.922852,4304.358887,4307.436035,4320.000000,4327.307617,4325.384766,4313.717773,4465.512695,4497.307617,4365.641113,4418.077148,1511.000000,0.000000,6.000000,,,,0.000000,2.000000,2.000000,0.000000,2.000000,2.000000,2.000000,0.000000,2.000000,4.000000,4.000000,4.000000,4.000000,2.000000,4.000000,16.666666,,,,,,,,,,,,,,,,,,,,,,,,,,,,
1732083638.433905,1732083638.436589,10.000000,0.000000,4300.897461,4284.230957,4327.563965,4298.077148,4298.974121,4296.410156,4314.102539,4316.922852,4321.794922,4309.615234,4465.256348,4498.589844,4365.769043,4422.051270,1382.000000,0.000000,6.000000,,,,0.000000,2.000000,2.000000,0.000000,2.000000,2.000000,2.000000,0.000000,2.000000,4.000000,4.000000,4.000000,4.000000,2.000000,4.000000,16.666666,,,,,,,,,,,,,,,,,,,,,,,,,,,,
1732083638.441713,1732083638.444397,11.000000,0.000000,4302.692383,4291.922852,4329.358887,4295.897461,4301.538574,4293.333496,4316.282227,4317.051270,4323.461426,4310.897461,4473.205078,4507.563965,4365.128418,4426.282227,1516.000000,0.000000,6.000000,,,,0.000000,2.000000,2.000000,0.000000,2.000000,2.000000,2.000000,0.000000,2.000000,4.000000,4.000000,4.000000,4.000000,2.000000,4.000000,16.666666,,,,,,,,,,,,,,,,,,,,,,,,,,,,
1732083638.449521,1732083638.452106,12.000000,0.000000,4304.102539,4291.282227,4327.307617,4297.692383,4303.205078,4298.717773,4315.897461,4320.641113,4324.230957,4317.563965,4475.128418,4508.205078,4363.974121,4424.871582,1748.000000,0.000000,6.000000,,,,0.000000,2.000000,2.000000,0.000000,2.000000,2.000000,2.000000,0.000000,2.000000,4.000000,4.000000,4.000000,4.000000,2.000000,4.000000,16.666666,,,,,,,,,,,,,,,,,3.000000,0.000000,0.539356,0.322449,-0.663574,0.405945,0.965938,-0.206568,-0.090343,-81.140656,48.004772,24.839930
1732083638.457330,1732083638.459914,13.000000,0.000000,4303.461426,4289.615234,4323.333496,4301.282227,4302.563965,4300.897461,4315.128418,4320.256348,4321.153809,4317.563965,4471.410156,4502.948730,4361.794922,4422.563965,1549.000000,0.000000,6.000000,,,,0.000000,2.000000,2.000000,0.000000,2.000000,2.000000,2.000000,0.000000,2.000000,4.000000,4.000000,4.000000,4.000000,2.000000,4.000000,16.666666,,,,,,,,,,,,,,,,,,,,,,,,,,,,
1732083638.465138,1732083638.467522,14.000000,0.000000,4302.692383,4290.897461,4324.743652,4298.461426,4314.358887,4297.563965,4314.615234,4318.589844,4321.282227,4312.820313,4469.102539,4503.205078,4356.794922,4418.717773,1382.000000,0.000000,6.000000,,,,0.000000,2.000000,2.000000,0.000000,2.000000,2.000000,2.000000,0.000000,2.000000,4.000000,4.000000,4.000000,4.000000,2.000000,4.000000,16.666666,1.000000,16.666666,2.000000,2.000000,0.000000,2.000000,2.000000,2.000000,0.000000,2.000000,4.000000,4.000000,4.000000,4.000000,2.000000,4.000000,,,,,,,,,,,,
1732083638.472946,1732083638.475330,15.000000,0.000000,4299.487305,4283.461426,4326.794922,4295.000000,4318.846191,4298.461426,4317.948730,4322.436035,4321.410156,4308.205078,4462.820313,4505.769043,4350.512695,4413.461426,1516.000000,0.000000,6.000000,,,,0.000000,2.000000,2.000000,0.000000,2.000000,2.000000,2.000000,0.000000,2.000000,4.000000,4.000000,4.000000,4.000000,2.000000,4.000000,16.666666,,,,,,,,,,,,,,,,,,,,,,,,,,,,
1732083638.480755,1732083638.483039,16.000000,0.000000,4294.871582,4279.871582,4328.333496,4297.692383,4301.666504,4304.230957,4320.256348,4331.025879,4321.666504,4305.128418,4459.615234,4504.230957,4349.102539,4412.948730,0.000000,0.000000,6.000000,,,,0.000000,2.000000,2.000000,0.000000,2.000000,2.000000,2.000000,0.000000,2.000000,4.000000,4.000000,4.000000,4.000000,2.000000,4.000000,16.666666,,,,,,,,,,,,,,,,,4.000000,0.000000,0.537321,0.320007,-0.664795,0.408569,0.958613,-0.226590,-0.079111,-81.355598,47.125534,24.760342
1732083638.488563,1732083638.490847,17.000000,0.000000,4294.230957,4287.179688,4326.538574,4299.358887,4294.615234,4310.000000,4320.384766,4333.974121,4327.563965,4309.230957,4462.820313,4500.512695,4351.153809,4414.358887,0.000000,0.000000,6.000000,,,,0.000000,2.000000,2.000000,0.000000,2.000000,2.000000,2.000000,0.000000,2.000000,4.000000,4.000000,4.000000,4.000000,2.000000,4.000000,16.666666,,,,,,,,,,,,,,,,,,,,,,,,,,,,
1732083638.496371,1732083638.498455,18.000000,0.000000,4295.384766,4285.512695,4324.871582,4297.436035,4304.487305,4308.717773,4318.461426,4323.589844,4325.128418,4308.589844,4459.743652,4499.358887,4348.846191,4412.692383,0.000000,0.000000,6.000000,,,,0.000000,2.000000,2.000000,0.000000,2.000000,2.000000,2.000000,0.000000,2.000000,4.000000,4.000000,4.000000,4.000000,2.000000,4.000000,16.666666,,,,,,,,,,,,,,,,,,,,,,,,,,,,
1732083638.504179,1732083638.506264,19.000000,0.000000,4295.000000,4280.769043,4322.436035,4299.102539,4303.717773,4301.410156,4319.102539,4324.358887,4320.512695,4300.000000,4459.871582,4498.846191,4345.897461,4412.563965,0.000000,0.000000,6.000000,,,,0.000000,2.000000,2.000000,0.000000,2.000000,2.000000,2.000000,0.000000,2.000000,4.000000,4.000000,4.000000,4.000000,2.000000,4.000000,16.666666,,,,,,,,,,,,,,,,,,,,,,,,,,,,
1732083638.511988,1732083638.513972,20.000000,0.000000,4295.641113,4288.461426,4327.820313,4303.333496,4299.743652,4295.769043,4317.436035,4329.615234,4324.358887,4304.102539,4464.743652,4499.743652,4352.051270,4415.128418,0.000000,0.000000,6.000000,,,,0.000000,2.000000,2.000000,0.000000,2.000000,2.000000,2.000000,0.000000,2.000000,4.000000,4.000000,4.000000,4.000000,2.000000,4.000000,16.666666,,,,,,,,,,,,,,,,,5.000000,0.000000,0.536743,0.319153,-0.665222,0.409302,0.961055,-0.226590,-0.086925,-81.478035,46.373348,24.710876
1732083638.519796,1732083638.521780,21.000000,0.000000,4302.051270,4298.333496,4331.794922,4307.436035,4301.025879,4295.512695,4311.410156,4313.589844,4321.538574,4310.000000,4462.307617,4498.974121,4358.589844,4420.897461,0.000000,0.000000,6.000000,,,,0.000000,2.000000,2.000000,0.000000,2.000000,2.000000,2.000000,0.000000,2.000000,4.000000,4.000000,4.000000,4.000000,2.000000,4.000000,16.666666,,,,,,,,,,,,,,,,,,,,,,,,,,,,
1732083638.527604,1732083638.529388,22.000000,0.000000,4302.820313,4295.384766,4328.333496,4304.743652,4295.897461,4294.230957,4310.384766,4305.384766,4312.692383,4305.897461,4464.230957,4498.717773,4356.538574,4421.794922,0.000000,0.000000,6.000000,,,,0.000000,2.000000,2.000000,0.000000,2.000000,2.000000,2.000000,0.000000,2.000000,4.000000,4.000000,4.000000,4.000000,2.000000,4.000000,16.666666,,,,,,,,,,,,,,,,,,,,,,,,,,,,
1732083638.535412,1732083638.537197,23.000000,0.000000,4296.922852,4286.794922,4322.436035,4297.948730,4297.179688,4293.717773,4314.358887,4317.948730,4314.871582,4307.436035,4472.563965,4498.589844,4355.641113,4418.333496,0.000000,0.000000,6.000000,,,,0.000000,2.000000,2.000000,0.000000,2.000000,2.000000,2.000000,0.000000,2.000000,4.000000,4.000000,4.000000,4.000000,2.000000,4.000000,16.666666,,,,,,,,,,,,,,,,,,,,,,,,,,,,
1732083638.543221,1732083638.544905,24.000000,0.000000,4295.641113,4288.974121,4322.051270,4296.282227,4309.743652,4302.179688,4317.692383,4320.512695,4321.922852,4307.563965,4468.461426,4496.282227,4358.589844,4415.000000,0.000000,0.000000,6.000000,,,,0.000000,2.000000,2.000000,0.000000,2.000000,2.000000,2.000000,0.000000,2.000000,4.000000,4.000000,4.000000,4.000000,2.000000,4.000000,16.666666,,,,,,,,,,,,,,,,,6.000000,0.000000,0.535869,0.317444,-0.665955,0.410583,0.946893,-0.232939,-0.089366,-81.868874,45.585747,24.615810
1732083638.551029,1732083638.552713,25.000000,0.000000,4296.794922,4294.743652,4324.743652,4299.358887,4314.102539,4310.512695,4316.922852,4319.230957,4322.692383,4296.153809,4458.461426,4492.692383,4356.153809,4411.922852,0.000000,0.000000,6.000000,,,,0.000000,2.000000,2.000000,0.000000,2.000000,2.000000,2.000000,0.000000,2.000000,4.000000,4.000000,4.000000,4.000000,2.000000,4.000000,16.666666,,,,,,,,,,,,,,,,,,,,,,,,,,,,
1732083638.558837,1732083638.560322,26.000000,0.000000,4295.384766,4292.307617,4325.512695,4296.922852,4309.358887,4308.077148,4317.563965,4332.948730,4325.512695,4295.641113,4460.897461,4491.666504,4352.948730,4410.897461,0.000000,0.000000,6.000000,,,,0.000000,2.000000,2.000000,0.000000,2.000000,2.000000,2.000000,0.000000,2.000000,4.000000,4.000000,4.000000,4.000000,2.000000,4.000000,16.666666,,,,,,,,,,,,,,,,,,,,,,,,,,,,
1732083638.566646,1732083638.568130,27.000000,0.000000,4293.974121,4290.512695,4324.358887,4294.743652,4305.641113,4305.897461,4317.948730,4331.922852,4326.922852,4310.128418,4466.922852,4494.230957,4359.487305,4411.666504,0.000000,0.000000,6.000000,,,,0.000000,2.000000,2.000000,0.000000,2.000000,2.000000,2.000000,0.000000,2.000000,4.000000,4.000000,4.000000,4.000000,2.000000,4.000000,16.666666,,,,,,,,,,,,,,,,,,,,,,,,,,,,
1732083638.574454,1732083638.575838,28.000000,0.000000,4291.282227,4293.846191,4322.307617,4299.743652,4315.897461,4307.436035,4318.974121,4321.538574,4322.563965,4313.589844,4468.974121,4494.358887,4366.538574,4413.717773,0.000000,0.000000,6.000000,,,,0.000000,2.000000,2.000000,0.000000,2.000000,2.000000,2.000000,0.000000,2.000000,4.000000,4.000000,4.000000,4.000000,2.000000,4.000000,16.666666,,,,,,,,,,,,,,,,,7.000000,0.000000,0.534274,0.315002,-0.666809,0.413147,0.949335,-0.247100,-0.088390,-81.998787,45.066120,24.545473
1732083638.582262,1732083638.583646,29.000000,0.000000,4289.358887,4294.102539,4323.077148,4300.897461,4321.282227,4305.384766,4318.717773,4332.820313,4328.846191,4312.820313,4472.179688,4497.563965,4367.051270,4416.794922,0.000000,0.000000,6.000000,,,,0.000000,2.000000,2.000000,0.000000,2.000000,2.000000,2.000000,0.000000,2.000000,4.000000,4.000000,4.000000,4.000000,2.000000,4.000000,16.666666,,,,,,,,,,,,,,,,,,,,,,,,,,,,
1732083638.590070,1732083638.591255,30.000000,0.000000,4291.794922,4291.666504,4323.205078,4299.615234,4304.102539,4307.436035,4320.512695,4340.512695,4336.666504,4317.563965,4473.333496,4504.102539,4363.717773,4417.820313,0.000000,0.000000,6.000000,,,,0.000000,2.000000,2.000000,0.000000,2.000000,2.000000,2.000000,0.000000,2.000000,4.000000,4.000000,4.000000,4.000000,2.000000,4.000000,16.666666,,,,,,,,,,,,,,,,,,,,,,,,,,,,
1732083638.597879,1732083638.599063,31.000000,0.000000,4292.436035,4292.948730,4323.846191,4300.256348,4294.487305,4311.025879,4319.230957,4332.179688,4331.153809,4315.128418,4475.000000,4506.410156,4359.615234,4415.128418,0.000000,0.000000,6.000000,,,,0.000000,2.000000,2.000000,0.000000,2.000000,2.000000,2.000000,0.000000,2.000000,4.000000,4.000000,4.000000,4.000000,2.000000,4.000000,16.666666,,,,,,,,,,,,,,,,,,,,,,,,,,,,
1732083638.605687,1732083638.606971,32.000000,0.000000,4293.205078,4295.384766,4325.256348,4299.743652,4304.487305,4303.205078,4317.179688,4324.358887,4324.230957,4309.871582,4474.230957,4501.922852,4357.563965,4413.846191,0.000000,0.000000,6.000000,,,,0.000000,2.000000,2.000000,0.000000,2.000000,2.000000,2.000000,0.000000,2.000000,4.000000,4.000000,4.000000,4.000000,2.000000,4.000000,16.666666,,,,,,,,,,,,,,,,,8.000000,0.000000,0.533920,0.314270,-0.666870,0.414063,0.962031,-0.224148,-0.084483,-81.915688,44.621891,24.506834
1732083638.613495,1732083638.614779,33.000000,0.000000,4297.179688,4297.563965,4326.025879,4298.077148,4305.384766,4298.846191,4316.538574,4324.230957,4328.333496,4311.794922,4465.256348,4497.563965,4359.102539,4411.922852,0.000000,0.000000,6.000000,,,,0.000000,2.000000,2.000000,0.000000,2.000000,2.000000,2.000000,0.000000,2.000000,4.000000,4.000000,4.000000,4.000000,2.000000,4.000000,16.666666,,,,,,,,,,,,,,,,,,,,,,,,,,,,
1732083638.621303,1732083638.622388,34.000000,0.000000,4292.436035,4295.384766,4323.461426,4298.974121,4301.410156,4308.333496,4318.205078,4332.692383,4333.333496,4315.384766,4460.000000,4494.487305,4358.461426,4406.153809,0.000000,0.000000,6.000000,,,,0.000000,2.000000,2.000000,0.000000,2.000000,2.000000,2.000000,0.000000,2.000000,4.000000,4.000000,4.000000,4.000000,2.000000,4.000000,16.666666,,,,,,,,,,,,,,,,,,,,,,,,,,,,
1732083638.629112,1732083638.630196,35.000000,0.000000,4282.692383,4293.205078,4323.589844,4298.205078,4306.922852,4310.897461,4318.461426,4332.307617,4327.563965,4312.307617,4462.179688,4492.692383,4352.307617,4407.692383,0.000000,0.000000,6.000000,,,,0.000000,2.000000,2.000000,0.000000,2.000000,2.000000,2.000000,0.000000,2.000000,4.000000,4.000000,4.000000,4.000000,2.000000,4.000000,16.666666,,,,,,,,,,,,,,,,,,,,,,,,,,,,
1732083638.636920,1732083638.637904,36.000000,0.000000,4281.282227,4293.333496,4323.589844,4294.871582,4300.384766,4307.307617,4318.717773,4320.897461,4321.025879,4303.846191,4461.282227,4496.153809,4349.358887,4410.384766,0.000000,0.000000,6.000000,,,,0.000000,2.000000,2.000000,0.000000,2.000000,2.000000,2.000000,0.000000,2.000000,4.000000,4.000000,4.000000,4.000000,2.000000,4.000000,16.666666,,,,,,,,,,,,,,,,,9.000000,0.000000,0.533696,0.314087,-0.666870,0.414490,0.962031,-0.224148,-0.084483,-81.953369,44.277065,24.535536
1732083638.644728,1732083638.645712,37.000000,0.000000,4284.230957,4293.974121,4321.794922,4296.794922,4298.974121,4307.692383,4317.436035,4319.230957,4322.820313,4303.846191,4458.205078,4499.230957,4350.512695,4405.384766,0.000000,0.000000,6.000000,,,,0.000000,2.000000,2.000000,0.000000,2.000000,2.000000,2.000000,0.000000,2.000000,4.000000,4.000000,4.000000,4.000000,2.000000,4.000000,16.666666,,,,,,,,,,,,,,,,,,,,,,,,,,,,
1732083638.652537,1732083638.653720,38.000000,0.000000,4283.077148,4294.615234,4322.948730,4299.230957,4316.538574,4304.230957,4315.641113,4326.794922,4325.769043,4313.974121,4459.230957,4493.846191,4352.307617,4406.410156,0.000000,0.000000,6.000000,,,,0.000000,2.000000,2.000000,0.000000,2.000000,2.000000,2.000000,0.000000,2.000000,4.000000,4.000000,4.000000,4.000000,2.000000,4.000000,16.666666,,,,,,,,,,,,,,,,,,,,,,,,,,,,
1732083638.660345,1732083638.661529,39.000000,0.000000,4283.205078,4295.384766,4325.384766,4295.000000,4309.871582,4304.102539,4318.717773,4331.538574,4327.179688,4315.897461,4460.512695,4497.948730,4353.717773,4413.461426,0.000000,0.000000,6.000000,,,,0.000000,2.000000,2.000000,0.000000,2.000000,2.000000,2.000000,0.000000,2.000000,4.000000,4.000000,4.000000,4.000000,2.000000,4.000000,16.666666,,,,,,,,,,,,,,,,,,,,,,,,,,,,
1732083638.668153,1732083638.669437,40.000000,0.000000,4289.358887,4296.410156,4325.384766,4292.563965,4290.128418,4308.717773,4321.153809,4336.666504,4332.307617,4309.743652,4465.128418,4510.128418,4353.846191,4413.333496,0.000000,0.000000,6.000000,,,,0.000000,2.000000,2.000000,0.000000,2.000000,2.000000,2.000000,0.000000,2.000000,4.000000,4.000000,4.000000,4.000000,2.000000,4.000000,16.666666,,,,,,,,,,,,,,,,,10.000000,0.000000,0.532912,0.313904,-0.666748,0.415833,0.957636,-0.243194,-0.081065,-82.307228,43.849422,24.398783
1732083638.675961,1732083638.677245,41.000000,0.000000,4292.563965,4297.307617,4322.692383,4300.512695,4295.897461,4310.641113,4321.282227,4337.692383,4332.563965,4312.948730,4468.461426,4507.179688,4355.384766,4411.666504,0.000000,0.000000,6.000000,,,,0.000000,2.000000,2.000000,0.000000,2.000000,2.000000,2.000000,0.000000,2.000000,4.000000,4.000000,4.000000,4.000000,2.000000,4.000000,16.666666,,,,,,,,,,,,,,,,,,,,,,,,,,,,
1732083638.683770,1732083638.685253,42.000000,0.000000,4286.666504,4297.563965,4321.666504,4305.256348,4307.948730,4312.436035,4319.871582,4328.846191,4322.692383,4318.974121,4462.563965,4498.205078,4354.102539,4412.820313,0.000000,0.000000,6.000000,,,,0.000000,2.000000,2.000000,0.000000,2.000000,2.000000,2.000000,0.000000,2.000000,4.000000,4.000000,4.000000,4.000000,2.000000,4.000000,16.666666,,,,,,,,,,,,,,,,,,,,,,,,,,,,
1732083638.691578,1732083638.693061,43.000000,0.000000,4283.333496,4295.384766,4321.282227,4297.948730,4300.000000,4311.025879,4320.769043,4330.000000,4325.641113,4317.051270,4459.358887,4501.025879,4351.538574,4411.025879,0.000000,0.000000,6.000000,,,,0.000000,2.000000,2.000000,0.000000,2.000000,2.000000,2.000000,0.000000,2.000000,4.000000,4.000000,4.000000,4.000000,2.000000,4.000000,16.666666,,,,,,,,,,,,,,,,,,,,,,,,,,,,
1732083638.699386,1732083638.700969,44.000000,0.000000,4285.000000,4293.205078,4322.307617,4295.256348,4295.384766,4310.384766,4320.512695,4341.282227,4337.563965,4316.282227,4462.692383,4503.461426,4350.000000,4407.307617,0.000000,0.000000,6.000000,,,,0.000000,2.000000,2.000000,0.000000,2.000000,2.000000,2.000000,0.000000,2.000000,4.000000,4.000000,4.000000,4.000000,2.000000,4.000000,16.666666,,,,,,,,,,,,,,,,,11.000000,0.000000,0.533022,0.313538,-0.666870,0.415771,0.956660,-0.221218,-0.079111,-82.560524,43.669701,24.454681
1732083638.707194,1732083638.708777,45.000000,0.000000,4286.794922,4294.743652,4324.487305,4301.666504,4301.282227,4315.000000,4321.410156,4332.307617,4328.589844,4315.256348,4462.948730,4497.179688,4352.307617,4407.948730,0.000000,0.000000,6.000000,,,,0.000000,2.000000,2.000000,0.000000,2.000000,2.000000,2.000000,0.000000,2.000000,4.000000,4.000000,4.000000,4.000000,2.000000,4.000000,16.666666,,,,,,,,,,,,,,,,,,,,,,,,,,,,
1732083638.715003,1732083638.716785,46.000000,0.000000,4287.563965,4296.410156,4322.948730,4302.692383,4300.000000,4311.025879,4320.128418,4316.282227,4317.051270,4312.436035,4461.153809,4495.000000,4355.256348,4408.717773,0.000000,0.000000,6.000000,,,,0.000000,2.000000,2.000000,0.000000,2.000000,2.000000,2.000000,0.000000,2.000000,4.000000,4.000000,4.000000,4.000000,2.000000,4.000000,16.666666,,,,,,,,,,,,,,,,,,,,,,,,,,,,
1732083638.722811,1732083638.724594,47.000000,0.000000,4286.538574,4295.769043,4317.692383,4296.025879,4296.282227,4299.743652,4319.615234,4323.717773,4323.589844,4310.897461,4461.922852,4496.025879,4351.282227,4405.769043,0.000000,0.000000,6.000000,,,,0.000000,2.000000,2.000000,0.000000,2.000000,2.000000,2.000000,0.000000,2.000000,4.000000,4.000000,4.000000,4.000000,2.000000,4.000000,16.666666,,,,,,,,,,,,,,,,,,,,,,,,,,,,
1732083638.730619,1732083638.732302,48.000000,0.000000,4286.538574,4295.897461,4318.846191,4294.871582,4297.692383,4300.641113,4318.846191,4332.051270,4327.307617,4311.025879,4462.563965,4495.769043,4350.897461,4405.128418,0.000000,0.000000,6.000000,,,,0.000000,2.000000,2.000000,0.000000,2.000000,2.000000,2.000000,0.000000,2.000000,4.000000,4.000000,4.000000,4.000000,2.000000,4.000000,16.666666,,,,,,,,,,,,,,,,,12.000000,0.000000,0.532934,0.313477,-0.666931,0.415833,0.948358,-0.231474,-0.091808,-82.327354,43.289124,24.368292
1732083638.738427,1732083638.740110,49.000000,0.000000,4288.846191,4296.538574,4322.692383,4300.000000,4298.461426,4308.077148,4320.769043,4326.794922,4324.358887,4316.282227,4462.820313,4500.897461,4357.563965,4408.974121,0.000000,0.000000,6.000000,,,,0.000000,2.000000,2.000000,0.000000,2.000000,2.000000,2.000000,0.000000,2.000000,4.000000,4.000000,4.000000,4.000000,2.000000,4.000000,16.666666,,,,,,,,,,,,,,,,,,,,,,,,,,,,
1732083638.746235,1732083638.748118,50.000000,0.000000,4290.384766,4297.307617,4322.948730,4301.794922,4300.000000,4309.358887,4321.025879,4327.820313,4329.102539,4322.948730,4463.846191,4505.128418,4357.948730,4410.769043,0.000000,0.000000,6.000000,,,,0.000000,2.000000,2.000000,0.000000,2.000000,2.000000,2.000000,0.000000,2.000000,4.000000,4.000000,4.000000,4.000000,2.000000,4.000000,16.666666,,,,,,,,,,,,,,,,,,,,,,,,,,,,
1732083638.754044,1732083638.755926,51.000000,0.000000,4287.563965,4299.358887,4321.025879,4301.282227,4311.153809,4309.358887,4319.358887,4334.230957,4331.666504,4316.794922,4462.436035,4495.256348,4350.512695,4406.025879,0.000000,0.000000,6.000000,,,,0.000000,2.000000,2.000000,0.000000,2.000000,2.000000,2.000000,0.000000,2.000000,4.000000,4.000000,4.000000,4.000000,2.000000,4.000000,16.666666,,,,,,,,,,,,,,,,,,,,,,,,,,,,
1732083638.761852,1732083638.763835,52.000000,0.000000,4288.846191,4298.077148,4320.641113,4302.307617,4313.205078,4310.384766,4317.051270,4330.128418,4327.051270,4309.871582,4460.384766,4488.717773,4349.743652,4405.512695,0.000000,0.000000,6.000000,,,,0.000000,2.000000,2.000000,0.000000,2.000000,2.000000,2.000000,0.000000,2.000000,4.000000,4.000000,4.000000,4.000000,2.000000,4.000000,16.666666,,,,,,,,,,,,,,,,,13.000000,0.000000,0.533032,0.313293,-0.667053,0.415649,0.967892,-0.213405,-0.083018,-82.043495,43.075855,24.456650
1732083638.769660,1732083638.771643,53.000000,0.000000,4292.563965,4297.563965,4320.769043,4304.102539,4296.922852,4311.794922,4317.307617,4326.410156,4325.512695,4315.769043,4459.487305,4496.538574,4353.974121,4408.974121,0.000000,0.000000,6.000000,,,,0.000000,2.000000,2.000000,0.000000,2.000000,2.000000,2.000000,0.000000,2.000000,4.000000,4.000000,4.000000,4.000000,2.000000,4.000000,16.666666,,,,,,,,,,,,,,,,,,,,,,,,,,,,
1732083638.777469,1732083638.779651,54.000000,0.000000,4288.461426,4301.153809,4322.948730,4306.666504,4291.666504,4311.666504,4318.974121,4330.128418,4327.436035,4316.538574,4457.948730,4498.333496,4351.922852,4410.641113,0.000000,0.000000,6.000000,,,,0.000000,2.000000,2.000000,0.000000,2.000000,2.000000,2.000000,0.000000,2.000000,4.000000,4.000000,4.000000,4.000000,2.000000,4.000000,16.666666,,,,,,,,,,,,,,,,,,,,,,,,,,,,
1732083638.785277,1732083638.787459,55.000000,0.000000,4284.487305,4301.410156,4323.205078,4305.512695,4298.589844,4310.000000,4320.641113,4334.358887,4329.230957,4307.436035,4457.692383,4495.384766,4350.128418,4408.717773,0.000000,0.000000,6.000000,,,,0.000000,2.000000,2.000000,0.000000,2.000000,2.000000,2.000000,0.000000,2.000000,4.000000,4.000000,4.000000,4.000000,2.000000,4.000000,16.666666,,,,,,,,,,,,,,,,,,,,,,,,,,,,
1732083638.793085,1732083638.795367,56.000000,0.000000,4286.538574,4295.384766,4319.487305,4297.692383,4298.589844,4311.410156,4321.282227,4339.743652,4328.461426,4306.666504,4458.077148,4498.077148,4349.615234,4402.307617,0.000000,0.000000,6.000000,,,,0.000000,2.000000,2.000000,0.000000,2.000000,2.000000,2.000000,0.000000,2.000000,4.000000,4.000000,4.000000,4.000000,2.000000,4.000000,16.666666,,,,,,,,,,,,,,,,,14.000000,0.000000,0.532579,0.313660,-0.666748,0.416443,0.947870,-0.221218,-0.098645,-81.933563,43.219776,24.528219
1732083638.800893,1732083638.803175,57.000000,0.000000,4289.615234,4294.743652,4321.410156,4295.512695,4293.589844,4310.128418,4317.948730,4334.871582,4323.974121,4313.589844,4456.410156,4497.436035,4349.487305,4398.974121,0.000000,0.000000,6.000000,,,,0.000000,2.000000,2.000000,0.000000,2.000000,2.000000,2.000000,0.000000,2.000000,4.000000,4.000000,4.000000,4.000000,2.000000,4.000000,16.666666,,,,,,,,,,,,,,,,,,,,,,,,,,,,
1732083638.808702,1732083638.811183,58.000000,0.000000,4285.897461,4298.974121,4324.871582,4304.871582,4294.230957,4308.589844,4318.846191,4327.179688,4322.436035,4315.769043,4456.153809,4492.948730,4350.384766,4401.025879,0.000000,0.000000,6.000000,,,,0.000000,2.000000,2.000000,0.000000,2.000000,2.000000,2.000000,0.000000,2.000000,4.000000,4.000000,4.000000,4.000000,2.000000,4.000000,16.666666,,,,,,,,,,,,,,,,,,,,,,,,,,,,
1732083638.816510,1732083638.818991,59.000000,0.000000,4280.769043,4296.282227,4323.846191,4306.410156,4307.179688,4308.205078,4320.128418,4334.487305,4326.538574,4311.025879,4459.615234,4495.384766,4349.743652,4400.384766,0.000000,0.000000,6.000000,,,,0.000000,2.000000,2.000000,0.000000,2.000000,2.000000,2.000000,0.000000,2.000000,4.000000,4.000000,4.000000,4.000000,2.000000,4.000000,16.666666,,,,,,,,,,,,,,,,,,,,,,,,,,,,
1732083638.824318,1732083638.826700,60.000000,0.000000,4282.563965,4290.384766,4320.641113,4296.410156,4311.410156,4306.922852,4319.743652,4340.000000,4330.384766,4309.871582,4459.615234,4495.000000,4350.000000,4400.000000,0.000000,0.000000,6.000000,,,,0.000000,2.000000,2.000000,0.000000,2.000000,2.000000,2.000000,0.000000,2.000000,4.000000,4.000000,4.000000,4.000000,2.000000,4.000000,16.666666,,,,,,,,,,,,,,,,,15.000000,0.000000,0.532438,0.313721,-0.666565,0.416870,0.950311,-0.226590,-0.090831,-82.011185,43.353020,24.469524
1732083638.832127,1732083638.834508,61.000000,0.000000,4287.436035,4291.025879,4322.436035,4296.666504,4292.820313,4307.820313,4318.077148,4328.461426,4327.307617,4311.922852,4457.051270,4487.307617,4350.769043,4405.769043,0.000000,0.000000,6.000000,,,,0.000000,2.000000,2.000000,0.000000,2.000000,2.000000,2.000000,0.000000,2.000000,4.000000,4.000000,4.000000,4.000000,2.000000,4.000000,16.666666,,,,,,,,,,,,,,,,,,,,,,,,,,,,
1732083638.839935,1732083638.842116,62.000000,0.000000,4287.179688,4293.846191,4323.077148,4307.948730,4284.871582,4311.153809,4318.589844,4317.820313,4318.846191,4307.820313,4456.538574,4481.410156,4351.282227,4406.666504,0.000000,0.000000,6.000000,,,,0.000000,2.000000,2.000000,0.000000,2.000000,2.000000,2.000000,0.000000,2.000000,4.000000,4.000000,4.000000,4.000000,2.000000,4.000000,16.666666,,,,,,,,,,,,,,,,,,,,,,,,,,,,
1732083638.847743,1732083638.849925,63.000000,0.000000,4286.410156,4290.000000,4321.025879,4305.641113,4296.666504,4313.077148,4318.717773,4325.512695,4318.461426,4301.410156,4452.563965,4479.487305,4350.256348,4397.436035,0.000000,0.000000,6.000000,,,,0.000000,2.000000,2.000000,0.000000,2.000000,2.000000,2.000000,0.000000,2.000000,4.000000,4.000000,4.000000,4.000000,2.000000,4.000000,16.666666,,,,,,,,,,,,,,,,,,,,,,,,,,,,
1732083638.855551,1732083638.857633,64.000000,0.000000,4287.563965,4288.205078,4320.384766,4293.589844,4297.820313,4309.230957,4318.077148,4334.487305,4322.436035,4300.256348,4445.641113,4479.615234,4350.256348,4390.000000,0.000000,0.000000,6.000000,,,,0.000000,2.000000,2.000000,0.000000,2.000000,2.000000,2.000000,0.000000,2.000000,4.000000,4.000000,4.000000,4.000000,2.000000,4.000000,16.666666,,,,,,,,,,,,,,,,,16.000000,0.000000,0.532393,0.313538,-0.666687,0.416870,0.964962,-0.232939,-0.096203,-82.104057,43.317612,24.728647
1732083638.863360,1732083638.865441,65.000000,0.000000,4284.102539,4291.282227,4322.820313,4296.025879,4290.897461,4311.153809,4318.461426,4331.153809,4318.205078,4300.384766,4445.384766,4481.410156,4349.871582,4391.538574,1325.000000,0.000000,6.000000,,,,0.000000,2.000000,2.000000,0.000000,2.000000,2.000000,2.000000,0.000000,2.000000,4.000000,4.000000,4.000000,4.000000,2.000000,4.000000,16.666666,,,,,,,,,,,,,,,,,,,,,,,,,,,,
1732083638.871168,1732083638.873050,66.000000,0.000000,4282.948730,4293.589844,4323.205078,4308.205078,4293.333496,4318.077148,4321.153809,4327.051270,4315.384766,4297.436035,4448.205078,4483.846191,4347.436035,4394.743652,1242.000000,0.000000,6.000000,,,,0.000000,2.000000,2.000000,0.000000,2.000000,2.000000,2.000000,0.000000,2.000000,4.000000,4.000000,4.000000,4.000000,2.000000,4.000000,16.666666,,,,,,,,,,,,,,,,,,,,,,,,,,,,
1732083638.878976,1732083638.880858,67.000000,0.000000,4286.666504,4294.615234,4322.563965,4307.948730,4302.948730,4313.333496,4318.974121,4330.641113,4321.282227,4296.025879,4446.025879,4484.871582,4344.871582,4392.820313,1204.000000,0.000000,6.000000,,,,0.000000,2.000000,2.000000,0.000000,2.000000,2.000000,2.000000,0.000000,2.000000,4.000000,4.000000,4.000000,4.000000,2.000000,4.000000,16.666666,,,,,,,,,,,,,,,,,,,,,,,,,,,,
1732083638.886784,1732083638.888566,68.000000,0.000000,4288.205078,4293.333496,4322.436035,4300.512695,4307.692383,4307.820313,4316.666504,4337.692383,4324.871582,4295.512695,4442.563965,4485.641113,4343.077148,4391.666504,1212.000000,0.000000,6.000000,,,,0.000000,2.000000,2.000000,0.000000,2.000000,2.000000,2.000000,0.000000,2.000000,4.000000,4.000000,4.000000,4.000000,2.000000,4.000000,16.666666,,,,,,,,,,,,,,,,,17.000000,0.000000,0.532756,0.313293,-0.666626,0.416687,0.973263,-0.229032,-0.086436,-82.440956,43.418934,24.676872
1732083638.894593,1732083638.896374,69.000000,0.000000,4290.000000,4292.948730,4321.025879,4301.922852,4298.461426,4314.358887,4317.948730,4336.794922,4323.589844,4295.512695,4445.897461,4488.974121,4345.769043,4396.025879,1075.000000,0.000000,6.000000,,,,0.000000,2.000000,2.000000,0.000000,2.000000,2.000000,2.000000,0.000000,2.000000,4.000000,4.000000,4.000000,4.000000,2.000000,4.000000,16.666666,,,,,,,,,,,,,,,,,,,,,,,,,,,,
1732083638.902401,1732083638.903983,70.000000,0.000000,4294.487305,4294.230957,4320.512695,4308.974121,4290.128418,4316.922852,4320.384766,4326.666504,4321.538574,4298.333496,4449.871582,4488.974121,4351.025879,4400.641113,0.000000,0.000000,6.000000,,,,0.000000,2.000000,2.000000,0.000000,2.000000,2.000000,2.000000,0.000000,2.000000,4.000000,4.000000,4.000000,4.000000,2.000000,4.000000,16.666666,,,,,,,,,,,,,,,,,,,,,,,,,,,,
1732083638.910209,1732083638.911791,71.000000,0.000000,4294.358887,4294.615234,4322.436035,4308.717773,4296.282227,4310.128418,4318.589844,4324.743652,4320.769043,4297.436035,4446.794922,4486.410156,4352.051270,4398.589844,1175.000000,0.000000,6.000000,,,,0.000000,2.000000,2.000000,0.000000,2.000000,2.000000,2.000000,0.000000,2.000000,4.000000,4.000000,4.000000,4.000000,2.000000,4.000000,16.666666,,,,,,,,,,,,,,,,,,,,,,,,,,,,
1732083638.918018,1732083638.919499,72.000000,0.000000,4294.230957,4293.846191,4324.487305,4304.102539,4298.077148,4310.769043,4316.410156,4335.512695,4325.897461,4297.436035,4449.102539,4489.230957,4349.230957,4396.025879,1369.000000,0.000000,6.000000,,,,0.000000,2.000000,2.000000,0.000000,2.000000,2.000000,2.000000,0.000000,2.000000,4.000000,4.000000,4.000000,4.000000,2.000000,4.000000,16.666666,,,,,,,,,,,,,,,,,18.000000,0.000000,0.533164,0.312988,-0.666748,0.416199,0.957148,-0.217800,-0.085948,-82.485504,43.317669,24.904932
1732083638.925826,1732083638.927307,73.000000,0.000000,4296.282227,4295.897461,4323.974121,4307.436035,4295.256348,4315.000000,4319.358887,4335.256348,4326.922852,4304.358887,4456.922852,4495.128418,4350.384766,4396.538574,1518.000000,0.000000,6.000000,,,,0.000000,2.000000,2.000000,0.000000,2.000000,2.000000,2.000000,0.000000,2.000000,4.000000,4.000000,4.000000,4.000000,2.000000,4.000000,16.666666,,,,,,,,,,,,,,,,,,,,,,,,,,,,
1732083638.933634,1732083638.934916,74.000000,0.000000,4296.794922,4296.666504,4323.846191,4310.897461,4297.563965,4313.461426,4320.000000,4327.436035,4324.102539,4304.615234,4457.436035,4499.230957,4353.846191,4400.000000,1379.000000,0.000000,6.000000,,,,0.000000,2.000000,2.000000,0.000000,2.000000,2.000000,2.000000,0.000000,2.000000,4.000000,4.000000,4.000000,4.000000,2.000000,4.000000,16.666666,,,,,,,,,,,,,,,,,,,,,,,,,,,,
1732083638.941442,1732083638.942724,75.000000,0.000000,4293.717773,4293.846191,4323.205078,4308.974121,4290.512695,4313.077148,4319.615234,4331.538574,4328.846191,4297.436035,4457.051270,4497.948730,4352.820313,4401.282227,1516.000000,0.000000,6.000000,,,,0.000000,2.000000,2.000000,0.000000,2.000000,2.000000,2.000000,0.000000,2.000000,4.000000,4.000000,4.000000,4.000000,2.000000,4.000000,16.666666,,,,,,,,,,,,,,,,,,,,,,,,,,,,
1732083638.949251,1732083638.950432,76.000000,0.000000,4294.487305,4293.974121,4323.205078,4309.743652,4294.487305,4309.615234,4316.282227,4334.615234,4329.871582,4298.717773,4456.282227,4493.589844,4350.897461,4393.974121,1750.000000,0.000000,6.000000,,,,0.000000,2.000000,2.000000,0.000000,2.000000,2.000000,2.000000,0.000000,2.000000,4.000000,4.000000,4.000000,4.000000,2.000000,4.000000,16.666666,,,,,,,,,,,,,,,,,19.000000,0.000000,0.533164,0.312988,-0.666748,0.416199,0.954706,-0.217312,-0.082041,-82.731598,43.115646,24.954662
1732083638.957059,1732083638.958241,77.000000,0.000000,4298.205078,4295.897461,4322.563965,4311.794922,4311.922852,4305.128418,4315.897461,4330.128418,4320.512695,4304.615234,4448.461426,4493.205078,4348.717773,4389.102539,1556.000000,0.000000,6.000000,,,,0.000000,2.000000,2.000000,0.000000,2.000000,2.000000,2.000000,0.000000,2.000000,4.000000,4.000000,4.000000,4.000000,2.000000,4.000000,16.666666,,,,,,,,,,,,,,,,,,,,,,,,,,,,
1732083638.964867,1732083638.965849,78.000000,0.000000,4297.948730,4295.256348,4322.563965,4309.230957,4300.000000,4307.436035,4315.897461,4330.897461,4320.384766,4303.589844,4449.230957,4497.436035,4348.974121,4393.589844,1379.000000,0.000000,6.000000,,,,0.000000,2.000000,2.000000,0.000000,2.000000,2.000000,2.000000,0.000000,2.000000,4.000000,4.000000,4.000000,4.000000,2.000000,4.000000,16.666666,1.000000,16.666666,2.000000,2.000000,0.000000,2.000000,2.000000,2.000000,0.000000,2.000000,4.000000,4.000000,4.000000,4.000000,2.000000,4.000000,,,,,,,,,,,,
1732083638.972675,1732083638.973657,79.000000,0.000000,4294.230957,4292.563965,4320.897461,4306.025879,4280.769043,4311.666504,4317.820313,4334.871582,4329.102539,4303.077148,4460.128418,4496.538574,4350.769043,4392.948730,1516.000000,0.000000,6.000000,,,,0.000000,2.000000,2.000000,0.000000,2.000000,2.000000,2.000000,0.000000,2.000000,4.000000,4.000000,4.000000,4.000000,2.000000,4.000000,16.666666,,,,,,,,,,,,,,,,,,,,,,,,,,,,
1732083638.980484,1732083638.981565,80.000000,0.000000,4296.538574,4292.692383,4323.077148,4311.666504,4291.666504,4312.948730,4319.230957,4330.512695,4328.974121,4306.538574,4453.974121,4497.436035,4350.641113,4389.230957,1750.000000,0.000000,6.000000,,,,0.000000,2.000000,2.000000,0.000000,2.000000,2.000000,2.000000,0.000000,2.000000,4.000000,4.000000,4.000000,4.000000,2.000000,4.000000,16.666666,,,,,,,,,,,,,,,,,20.000000,0.000000,0.533996,0.313354,-0.666443,0.415344,0.961543,-0.218777,-0.092785,-82.614258,43.102005,24.973276
1732083638.988292,1732083638.989373,81.000000,0.000000,4302.307617,4297.051270,4326.410156,4318.589844,4303.205078,4311.410156,4322.692383,4328.846191,4324.230957,4301.025879,4442.692383,4500.000000,4349.615234,4392.820313,1556.000000,0.000000,6.000000,,,,0.000000,2.000000,2.000000,0.000000,2.000000,2.000000,2.000000,0.000000,2.000000,4.000000,4.000000,4.000000,4.000000,2.000000,4.000000,16.666666,,,,,,,,,,,,,,,,,,,,,,,,,,,,
1732083638.996100,1732083638.996982,82.000000,0.000000,4299.102539,4296.025879,4323.205078,4316.025879,4293.333496,4312.307617,4325.128418,4339.358887,4326.794922,4294.230957,4449.358887,4495.512695,4349.358887,4392.051270,1379.000000,0.000000,6.000000,,,,0.000000,2.000000,2.000000,0.000000,2.000000,2.000000,2.000000,0.000000,2.000000,4.000000,4.000000,4.000000,4.000000,2.000000,4.000000,16.666666,,,,,,,,,,,,,,,,,,,,,,,,,,,,
1732083639.003908,1732083639.004790,83.000000,0.000000,4293.077148,4290.769043,4319.871582,4310.000000,4291.922852,4312.948730,4321.282227,4342.692383,4329.871582,4299.358887,4457.051270,4492.179688,4350.384766,4388.205078,1516.000000,0.000000,6.000000,,,,0.000000,2.000000,2.000000,0.000000,2.000000,2.000000,2.000000,0.000000,2.000000,4.000000,4.000000,4.000000,4.000000,2.000000,4.000000,16.666666,,,,,,,,,,,,,,,,,,,,,,,,,,,,
1732083639.011717,1732083639.012698,84.000000,0.000000,4293.846191,4291.794922,4322.051270,4309.102539,4299.871582,4310.384766,4317.436035,4333.846191,4328.461426,4306.538574,4456.538574,4494.871582,4350.641113,4394.230957,1750.000000,0.000000,6.000000,,,,0.000000,2.000000,2.000000,0.000000,2.000000,2.000000,2.000000,0.000000,2.000000,4.000000,4.000000,4.000000,4.000000,2.000000,4.000000,16.666666,,,,,,,,,,,,,,,,,21.000000,0.000000,0.534520,0.313660,-0.666260,0.414734,0.955683,-0.216823,-0.090831,-82.405884,43.105957,24.950020
1732083639.019525,1732083639.020506,85.000000,0.000000,4295.384766,4296.666504,4325.384766,4312.563965,4295.384766,4311.153809,4321.025879,4329.615234,4327.692383,4305.384766,4453.077148,4495.256348,4349.871582,4395.641113,1556.000000,0.000000,6.000000,,,,0.000000,2.000000,2.000000,0.000000,2.000000,2.000000,2.000000,0.000000,2.000000,4.000000,4.000000,4.000000,4.000000,2.000000,4.000000,16.666666,,,,,,,,,,,,,,,,,,,,,,,,,,,,
1732083639.027333,1732083639.028514,86.000000,0.000000,4295.769043,4296.282227,4325.512695,4315.000000,4297.820313,4309.102539,4320.512695,4327.307617,4325.512695,4298.846191,4450.000000,4489.230957,4349.487305,4392.692383,1379.000000,0.000000,6.000000,,,,0.000000,2.000000,2.000000,0.000000,2.000000,2.000000,2.000000,0.000000,2.000000,4.000000,4.000000,4.000000,4.000000,2.000000,4.000000,16.666666,,,,,,,,,,,,,,,,,,,,,,,,,,,,
1732083639.035141,1732083639.036323,87.000000,0.000000,4298.461426,4295.256348,4325.384766,4314.743652,4310.384766,4301.794922,4314.743652,4320.128418,4319.871582,4294.615234,4452.051270,4484.358887,4351.025879,4395.384766,1516.000000,0.000000,6.000000,,,,0.000000,2.000000,2.000000,0.000000,2.000000,2.000000,2.000000,0.000000,2.000000,4.000000,4.000000,4.000000,4.000000,2.000000,4.000000,16.666666,,,,,,,,,,,,,,,,,,,,,,,,,,,,
1732083639.042950,1732083639.044231,88.000000,0.000000,4298.205078,4295.256348,4323.461426,4312.563965,4307.948730,4304.615234,4317.820313,4331.153809,4322.692383,4298.077148,4458.077148,4489.487305,4350.769043,4392.563965,1750.000000,0.000000,6.000000,,,,0.000000,2.000000,2.000000,0.000000,2.000000,2.000000,2.000000,0.000000,2.000000,4.000000,4.000000,4.000000,4.000000,2.000000,4.000000,16.666666,,,,,,,,,,,,,,,,,22.000000,0.000000,0.534965,0.313904,-0.666016,0.414368,0.956660,-0.212917,-0.091808,-82.363762,43.177494,24.924517
1732083639.050758,1732083639.052039,89.000000,0.000000,4294.358887,4292.307617,4323.333496,4310.256348,4291.922852,4315.769043,4324.358887,4348.717773,4333.333496,4306.922852,4458.461426,4496.538574,4348.333496,4387.307617,1556.000000,0.000000,6.000000,,,,0.000000,2.000000,2.000000,0.000000,2.000000,2.000000,2.000000,0.000000,2.000000,4.000000,4.000000,4.000000,4.000000,2.000000,4.000000,16.666666,,,,,,,,,,,,,,,,,,,,,,,,,,,,
1732083639.058566,1732083639.060047,90.000000,0.000000,4294.743652,4291.282227,4324.358887,4310.641113,4291.282227,4312.692383,4323.974121,4337.179688,4333.077148,4304.615234,4458.077148,4491.666504,4350.000000,4391.922852,1379.000000,0.000000,6.000000,,,,0.000000,2.000000,2.000000,0.000000,2.000000,2.000000,2.000000,0.000000,2.000000,4.000000,4.000000,4.000000,4.000000,2.000000,4.000000,16.666666,,,,,,,,,,,,,,,,,,,,,,,,,,,,
1732083639.066374,1732083639.067855,91.000000,0.000000,4296.922852,4295.384766,4323.461426,4312.436035,4294.871582,4303.846191,4319.230957,4322.051270,4325.000000,4298.589844,4461.410156,4483.461426,4351.922852,4396.282227,1516.000000,0.000000,6.000000,,,,0.000000,2.000000,2.000000,0.000000,2.000000,2.000000,2.000000,0.000000,2.000000,4.000000,4.000000,4.000000,4.000000,2.000000,4.000000,16.666666,,,,,,,,,,,,,,,,,,,,,,,,,,,,
1732083639.074183,1732083639.075763,92.000000,0.000000,4297.436035,4293.974121,4322.051270,4310.897461,4293.077148,4306.794922,4320.384766,4331.794922,4322.692383,4301.538574,4453.974121,4481.410156,4347.563965,4390.641113,1750.000000,0.000000,6.000000,,,,0.000000,2.000000,2.000000,0.000000,2.000000,2.000000,2.000000,0.000000,2.000000,4.000000,4.000000,4.000000,4.000000,2.000000,4.000000,16.666666,,,,,,,,,,,,,,,,,23.000000,0.000000,0.535218,0.313843,-0.665955,0.414185,0.956660,-0.212917,-0.091808,-82.421318,42.985435,25.065525
1732083639.081991,1732083639.083571,93.000000,0.000000,4297.051270,4288.077148,4323.589844,4307.051270,4304.615234,4311.153809,4321.282227,4335.897461,4320.000000,4297.692383,4448.077148,4480.256348,4345.384766,4388.974121,1556.000000,0.000000,6.000000,,,,0.000000,2.000000,2.000000,0.000000,2.000000,2.000000,2.000000,0.000000,2.000000,4.000000,4.000000,4.000000,4.000000,2.000000,4.000000,16.666666,,,,,,,,,,,,,,,,,,,,,,,,,,,,
1732083639.089799,1732083639.091579,94.000000,0.000000,4296.666504,4289.230957,4322.563965,4308.589844,4307.436035,4310.000000,4320.769043,4324.230957,4316.794922,4292.179688,4456.153809,4481.153809,4350.256348,4395.256348,1379.000000,0.000000,6.000000,,,,0.000000,2.000000,2.000000,0.000000,2.000000,2.000000,2.000000,0.000000,2.000000,4.000000,4.000000,4.000000,4.000000,2.000000,4.000000,16.666666,,,,,,,,,,,,,,,,,,,,,,,,,,,,
1732083639.097607,1732083639.099388,95.000000,0.000000,4296.922852,4295.256348,4319.871582,4308.205078,4289.871582,4307.436035,4318.974121,4327.692383,4325.000000,4302.692383,4461.410156,4486.282227,4352.948730,4399.615234,1516.000000,0.000000,6.000000,,,,0.000000,2.000000,2.000000,0.000000,2.000000,2.000000,2.000000,0.000000,2.000000,4.000000,4.000000,4.000000,4.000000,2.000000,4.000000,16.666666,,,,,,,,,,,,,,,,,,,,,,,,,,,,
1732083639.105416,1732083639.107296,96.000000,0.000000,4295.769043,4292.563965,4321.666504,4301.025879,4285.256348,4307.692383,4320.384766,4339.743652,4332.051270,4310.128418,4458.077148,4483.846191,4351.153809,4397.692383,1750.000000,0.000000,6.000000,,,,0.000000,2.000000,2.000000,0.000000,2.000000,2.000000,2.000000,0.000000,2.000000,4.000000,4.000000,4.000000,4.000000,2.000000,4.000000,16.666666,,,,,,,,,,,,,,,,,24.000000,0.000000,0.535783,0.314575,-0.665344,0.413879,0.959101,-0.219753,-0.093273,-82.617935,43.029869,24.913074
1732083639.113224,1732083639.115104,97.000000,0.000000,4295.256348,4284.743652,4325.769043,4299.487305,4295.384766,4309.743652,4320.897461,4334.358887,4326.922852,4297.820313,4456.282227,4482.692383,4351.410156,4397.051270,1556.000000,0.000000,6.000000,,,,0.000000,2.000000,2.000000,0.000000,2.000000,2.000000,2.000000,0.000000,2.000000,4.000000,4.000000,4.000000,4.000000,2.000000,4.000000,16.666666,,,,,,,,,,,,,,,,,,,,,,,,,,,,
1732083639.121032,1732083639.123112,98.000000,0.000000,4296.282227,4286.794922,4322.948730,4306.153809,4295.256348,4311.538574,4319.358887,4328.974121,4322.820313,4292.179688,4457.692383,4489.358887,4350.769043,4398.846191,1379.000000,0.000000,6.000000,,,,0.000000,2.000000,2.000000,0.000000,2.000000,2.000000,2.000000,0.000000,2.000000,4.000000,4.000000,4.000000,4.000000,2.000000,4.000000,16.666666,,,,,,,,,,,,,,,,,,,,,,,,,,,,
1732083639.128841,1732083639.130920,99.000000,0.000000,4295.384766,4293.333496,4321.666504,4310.512695,4290.256348,4314.230957,4320.512695,4334.487305,4328.077148,4305.256348,4459.102539,4491.538574,4349.743652,4397.179688,1516.000000,0.000000,6.000000,,,,0.000000,2.000000,2.000000,0.000000,2.000000,2.000000,2.000000,0.000000,2.000000,4.000000,4.000000,4.000000,4.000000,2.000000,4.000000,16.666666,,,,,,,,,,,,,,,,,,,,,,,,,,,,
1732083639.136649,1732083639.138828,100.000000,0.000000,4292.692383,4296.410156,4325.256348,4310.897461,4304.615234,4313.974121,4322.051270,4334.871582,4328.589844,4311.538574,4460.641113,4486.922852,4354.230957,4396.666504,1750.000000,0.000000,6.000000,,,,0.000000,2.000000,2.000000,0.000000,2.000000,2.000000,2.000000,0.000000,2.000000,4.000000,4.000000,4.000000,4.000000,2.000000,4.000000,16.666666,,,,,,,,,,,,,,,,,25.000000,0.000000,0.535993,0.314636,-0.665222,0.413757,0.958125,-0.194848,-0.086925,-82.610527,42.999195,24.952925
1732083639.144457,1732083639.146637,101.000000,0.000000,4294.615234,4292.948730,4324.102539,4308.974121,4315.512695,4310.000000,4320.256348,4335.384766,4324.102539,4306.410156,4458.333496,4484.743652,4354.230957,4397.307617,1556.000000,0.000000,6.000000,,,,0.000000,2.000000,2.000000,0.000000,2.000000,2.000000,2.000000,0.000000,2.000000,4.000000,4.000000,4.000000,4.000000,2.000000,4.000000,16.666666,,,,,,,,,,,,,,,,,,,,,,,,,,,,
1732083639.152265,1732083639.154645,102.000000,0.000000,4297.307617,4286.410156,4321.922852,4306.922852,4299.871582,4311.794922,4320.897461,4342.051270,4330.000000,4305.897461,4457.692383,4488.333496,4349.102539,4396.794922,1379.000000,0.000000,6.000000,,,,0.000000,2.000000,2.000000,0.000000,2.000000,2.000000,2.000000,0.000000,2.000000,4.000000,4.000000,4.000000,4.000000,2.000000,4.000000,16.666666,,,,,,,,,,,,,,,,,,,,,,,,,,,,
1732083639.160074,1732083639.162453,103.000000,0.000000,4295.256348,4285.256348,4322.692383,4308.589844,4287.436035,4317.179688,4323.717773,4343.205078,4334.743652,4305.384766,4459.615234,4488.333496,4350.000000,4394.487305,1516.000000,0.000000,6.000000,,,,0.000000,2.000000,2.000000,0.000000,2.000000,2.000000,2.000000,0.000000,2.000000,4.000000,4.000000,4.000000,4.000000,2.000000,4.000000,16.666666,,,,,,,,,,,,,,,,,,,,,,,,,,,,
1732083639.167882,1732083639.170161,104.000000,0.000000,4291.794922,4288.846191,4325.641113,4310.000000,4295.641113,4314.743652,4321.538574,4339.871582,4326.282227,4296.922852,4456.794922,4484.358887,4349.871582,4388.205078,1750.000000,0.000000,6.000000,,,,0.000000,2.000000,2.000000,0.000000,2.000000,2.000000,2.000000,0.000000,2.000000,4.000000,4.000000,4.000000,4.000000,2.000000,4.000000,16.666666,,,,,,,,,,,,,,,,,26.000000,0.000000,0.536297,0.314697,-0.665100,0.413513,0.958125,-0.194848,-0.086925,-82.719528,43.089348,25.091869
1732083639.175690,1732083639.177969,105.000000,0.000000,4293.205078,4295.512695,4327.179688,4310.769043,4300.000000,4310.897461,4319.615234,4332.563965,4320.128418,4298.461426,4455.256348,4482.692383,4343.846191,4385.000000,1556.000000,0.000000,6.000000,,,,0.000000,2.000000,2.000000,0.000000,2.000000,2.000000,2.000000,0.000000,2.000000,4.000000,4.000000,4.000000,4.000000,2.000000,4.000000,16.666666,,,,,,,,,,,,,,,,,,,,,,,,,,,,
1732083639.183499,1732083639.185578,106.000000,0.000000,4298.333496,4293.846191,4325.512695,4306.153809,4295.897461,4311.153809,4318.846191,4325.641113,4324.358887,4306.538574,4457.307617,4485.000000,4346.282227,4389.102539,1379.000000,0.000000,6.000000,,,,0.000000,2.000000,2.000000,0.000000,2.000000,2.000000,2.000000,0.000000,2.000000,4.000000,4.000000,4.000000,4.000000,2.000000,4.000000,16.666666,,,,,,,,,,,,,,,,,,,,,,,,,,,,
1732083639.191307,1732083639.193386,107.000000,0.000000,4297.051270,4284.487305,4318.589844,4297.051270,4294.230957,4311.666504,4320.897461,4333.077148,4328.205078,4304.102539,4457.563965,4486.794922,4353.333496,4391.410156,1516.000000,0.000000,6.000000,,,,0.000000,2.000000,2.000000,0.000000,2.000000,2.000000,2.000000,0.000000,2.000000,4.000000,4.000000,4.000000,4.000000,2.000000,4.000000,16.666666,,,,,,,,,,,,,,,,,,,,,,,,,,,,
1732083639.199115,1732083639.201094,108.000000,0.000000,4293.205078,4285.512695,4318.974121,4297.820313,4294.615234,4311.410156,4321.794922,4340.384766,4326.410156,4298.846191,4451.153809,4484.102539,4349.358887,4386.666504,1750.000000,0.000000,6.000000,,,,0.000000,2.000000,2.000000,0.000000,2.000000,2.000000,2.000000,0.000000,2.000000,4.000000,4.000000,4.000000,4.000000,2.000000,4.000000,16.666666,,,,,,,,,,,,,,,,,27.000000,0.000000,0.537027,0.315369,-0.664307,0.413330,0.966427,-0.210963,-0.079600,-82.522820,43.210705,24.826080
1732083639.206923,1732083639.208902,109.000000,0.000000,4297.051270,4293.077148,4324.230957,4305.897461,4306.282227,4305.256348,4320.897461,4330.512695,4323.461426,4298.974121,4444.615234,4480.000000,4346.025879,4383.461426,1556.000000,0.000000,6.000000,,,,0.000000,2.000000,2.000000,0.000000,2.000000,2.000000,2.000000,0.000000,2.000000,4.000000,4.000000,4.000000,4.000000,2.000000,4.000000,16.666666,,,,,,,,,,,,,,,,,,,,,,,,,,,,
1732083639.214732,1732083639.216511,110.000000,0.000000,4303.077148,4291.922852,4322.948730,4308.846191,4309.102539,4300.000000,4319.487305,4327.948730,4322.563965,4303.589844,4450.128418,4480.897461,4350.128418,4388.333496,1379.000000,0.000000,6.000000,,,,0.000000,2.000000,2.000000,0.000000,2.000000,2.000000,2.000000,0.000000,2.000000,4.000000,4.000000,4.000000,4.000000,2.000000,4.000000,16.666666,,,,,,,,,,,,,,,,,,,,,,,,,,,,
1732083639.222540,1732083639.224319,111.000000,0.000000,4301.538574,4286.794922,4320.641113,4308.333496,4291.666504,4307.436035,4321.282227,4340.641113,4325.769043,4304.615234,4455.641113,4485.000000,4350.641113,4394.102539,1516.000000,0.000000,6.000000,,,,0.000000,2.000000,2.000000,0.000000,2.000000,2.000000,2.000000,0.000000,2.000000,4.000000,4.000000,4.000000,4.000000,2.000000,4.000000,16.666666,,,,,,,,,,,,,,,,,,,,,,,,,,,,
1732083639.230348,1732083639.232027,112.000000,0.000000,4295.256348,4287.179688,4322.692383,4310.128418,4286.666504,4314.743652,4320.769043,4338.589844,4325.641113,4297.948730,4448.461426,4485.256348,4347.820313,4395.384766,1750.000000,0.000000,6.000000,,,,0.000000,2.000000,2.000000,0.000000,2.000000,2.000000,2.000000,0.000000,2.000000,4.000000,4.000000,4.000000,4.000000,2.000000,4.000000,16.666666,,,,,,,,,,,,,,,,,28.000000,0.000000,0.537685,0.315979,-0.663635,0.413086,0.970822,-0.201685,-0.082530,-82.623482,43.535671,24.800793
1732083639.238156,1732083639.239836,113.000000,0.000000,4296.410156,4289.615234,4323.974121,4312.051270,4297.051270,4310.769043,4321.153809,4326.282227,4318.589844,4293.461426,4445.384766,4481.666504,4346.794922,4394.358887,1556.000000,0.000000,6.000000,,,,0.000000,2.000000,2.000000,0.000000,2.000000,2.000000,2.000000,0.000000,2.000000,4.000000,4.000000,4.000000,4.000000,2.000000,4.000000,16.666666,,,,,,,,,,,,,,,,,,,,,,,,,,,,
1732083639.245965,1732083639.247444,114.000000,0.000000,4301.282227,4287.307617,4326.153809,4312.563965,4297.179688,4308.333496,4322.179688,4325.769043,4316.922852,4297.051270,4454.743652,4483.077148,4347.436035,4395.000000,1379.000000,0.000000,6.000000,,,,0.000000,2.000000,2.000000,0.000000,2.000000,2.000000,2.000000,0.000000,2.000000,4.000000,4.000000,4.000000,4.000000,2.000000,4.000000,16.666666,,,,,,,,,,,,,,,,,,,,,,,,,,,,
1732083639.253773,1732083639.255252,115.000000,0.000000,4299.743652,4286.282227,4328.589844,4312.179688,4289.358887,4310.769043,4322.307617,4332.563965,4322.692383,4299.102539,4457.436035,4488.589844,4347.692383,4398.077148,1516.000000,0.000000,6.000000,,,,0.000000,2.000000,2.000000,0.000000,2.000000,2.000000,2.000000,0.000000,2.000000,4.000000,4.000000,4.000000,4.000000,2.000000,4.000000,16.666666,,,,,,,,,,,,,,,,,,,,,,,,,,,,
1732083639.261581,1732083639.262960,116.000000,0.000000,4297.563965,4287.948730,4326.153809,4311.538574,4298.974121,4312.307617,4321.025879,4332.820313,4323.846191,4295.256348,4448.333496,4489.358887,4348.205078,4398.333496,1750.000000,0.000000,6.000000,,,,0.000000,2.000000,2.000000,0.000000,2.000000,2.000000,2.000000,0.000000,2.000000,4.000000,4.000000,4.000000,4.000000,2.000000,4.000000,16.666666,,,,,,,,,,,,,,,,,29.000000,0.000000,0.537685,0.315979,-0.663635,0.413086,0.946893,-0.198266,-0.074716,-82.720016,43.663895,24.840307
1732083639.269389,1732083639.270769,117.000000,0.000000,4299.615234,4287.820313,4323.717773,4311.666504,4312.436035,4312.436035,4321.410156,4328.461426,4321.025879,4294.743652,4444.102539,4484.230957,4345.256348,4395.512695,1556.000000,0.000000,6.000000,,,,0.000000,2.000000,2.000000,0.000000,2.000000,2.000000,2.000000,0.000000,2.000000,4.000000,4.000000,4.000000,4.000000,2.000000,4.000000,16.666666,,,,,,,,,,,,,,,,,,,,,,,,,,,,
1732083639.277198,1732083639.278377,118.000000,0.000000,4298.717773,4285.256348,4324.230957,4311.153809,4301.794922,4310.256348,4322.307617,4331.282227,4323.333496,4298.717773,4452.692383,4483.589844,4344.230957,4395.128418,1379.000000,0.000000,6.000000,,,,0.000000,2.000000,2.000000,0.000000,2.000000,2.000000,2.000000,0.000000,2.000000,4.000000,4.000000,4.000000,4.000000,2.000000,4.000000,16.666666,,,,,,,,,,,,,,,,,,,,,,,,,,,,
1732083639.285006,1732083639.286185,119.000000,0.000000,4296.666504,4283.205078,4323.846191,4311.153809,4286.282227,4312.563965,4323.974121,4338.589844,4326.282227,4302.948730,4461.922852,4488.974121,4351.025879,4401.282227,1516.000000,0.000000,6.000000,,,,0.000000,2.000000,2.000000,0.000000,2.000000,2.000000,2.000000,0.000000,2.000000,4.000000,4.000000,4.000000,4.000000,2.000000,4.000000,16.666666,,,,,,,,,,,,,,,,,,,,,,,,,,,,
1732083639.292814,1732083639.293894,120.000000,0.000000,4298.846191,4281.538574,4320.897461,4311.153809,4291.794922,4316.794922,4323.589844,4335.512695,4322.820313,4299.102539,4455.256348,4487.307617,4350.769043,4402.436035,1750.000000,0.000000,6.000000,,,,0.000000,2.000000,2.000000,0.000000,2.000000,2.000000,2.000000,0.000000,2.000000,4.000000,4.000000,4.000000,4.000000,2.000000,4.000000,16.666666,,,,,,,,,,,,,,,,,30.000000,0.000000,0.538439,0.316040,-0.663147,0.412842,0.968380,-0.196801,-0.073739,-82.329880,43.411087,24.775650
1732083639.300622,1732083639.301702,121.000000,0.000000,4297.307617,4280.128418,4320.641113,4309.871582,4297.563965,4310.897461,4319.102539,4328.846191,4322.436035,4293.461426,4445.256348,4480.512695,4341.153809,4396.410156,1556.000000,0.000000,6.000000,,,,0.000000,2.000000,2.000000,0.000000,2.000000,2.000000,2.000000,0.000000,2.000000,4.000000,4.000000,4.000000,4.000000,2.000000,4.000000,16.666666,,,,,,,,,,,,,,,,,,,,,,,,,,,,
1732083639.308431,1732083639.309310,122.000000,0.000000,4294.358887,4285.000000,4321.666504,4310.000000,4292.307617,4303.077148,4319.358887,4334.102539,4327.820313,4300.000000,4451.666504,4480.128418,4341.922852,4395.641113,1379.000000,0.000000,6.000000,,,,0.000000,2.000000,2.000000,0.000000,2.000000,2.000000,2.000000,0.000000,2.000000,4.000000,4.000000,4.000000,4.000000,2.000000,4.000000,16.666666,,,,,,,,,,,,,,,,,,,,,,,,,,,,
1732083639.316239,1732083639.317118,123.000000,0.000000,4294.230957,4284.743652,4323.846191,4312.307617,4296.410156,4305.128418,4322.563965,4338.846191,4331.410156,4307.307617,4459.615234,4485.897461,4349.358887,4398.846191,1516.000000,0.000000,6.000000,,,,0.000000,2.000000,2.000000,0.000000,2.000000,2.000000,2.000000,0.000000,2.000000,4.000000,4.000000,4.000000,4.000000,2.000000,4.000000,16.666666,,,,,,,,,,,,,,,,,,,,,,,,,,,,
1732083639.324047,1732083639.324827,124.000000,0.000000,4291.538574,4280.000000,4322.692383,4311.025879,4295.128418,4310.000000,4326.025879,4333.589844,4327.820313,4305.256348,4457.307617,4487.820313,4344.871582,4397.563965,1750.000000,0.000000,6.000000,,,,0.000000,2.000000,2.000000,0.000000,2.000000,2.000000,2.000000,0.000000,2.000000,4.000000,4.000000,4.000000,4.000000,2.000000,4.000000,16.666666,,,,,,,,,,,,,,,,,31.000000,0.000000,0.539034,0.315857,-0.662903,0.412598,0.970333,-0.208033,-0.070809,-82.078873,43.537979,24.674942
1732083639.331855,1732083639.332635,125.000000,0.000000,4292.820313,4281.666504,4320.897461,4304.871582,4291.666504,4309.487305,4321.922852,4332.436035,4325.256348,4302.692383,4458.205078,4485.000000,4340.128418,4394.615234,1556.000000,0.000000,6.000000,,,,0.000000,2.000000,2.000000,0.000000,2.000000,2.000000,2.000000,0.000000,2.000000,4.000000,4.000000,4.000000,4.000000,2.000000,4.000000,16.666666,,,,,,,,,,,,,,,,,,,,,,,,,,,,
1732083639.339664,1732083639.340243,126.000000,0.000000,4294.615234,4281.410156,4322.307617,4304.230957,4306.922852,4308.461426,4321.025879,4340.897461,4327.692383,4305.897461,4456.538574,4482.179688,4343.461426,4395.000000,1379.000000,0.000000,6.000000,,,,0.000000,2.000000,2.000000,0.000000,2.000000,2.000000,2.000000,0.000000,2.000000,4.000000,4.000000,4.000000,4.000000,2.000000,4.000000,16.666666,,,,,,,,,,,,,,,,,,,,,,,,,,,,
1732083639.347472,1732083639.348052,127.000000,0.000000,4292.051270,4281.922852,4325.256348,4309.871582,4308.333496,4311.794922,4324.743652,4341.153809,4327.692383,4308.589844,4449.743652,4483.461426,4342.179688,4392.948730,6.000000,0.000000,6.000000,,,,0.000000,2.000000,2.000000,0.000000,2.000000,2.000000,2.000000,0.000000,2.000000,4.000000,4.000000,4.000000,4.000000,2.000000,4.000000,16.666666,,,,,,,,,,,,,,,,,,,,,,,,,,,,
1732083639.355280,1732083639.355760,0.000000,0.000000,4292.692383,4286.922852,4324.358887,4312.307617,4292.948730,4313.205078,4325.512695,4333.974121,4325.256348,4303.077148,4450.384766,4485.128418,4340.897461,4390.769043,0.000000,0.000000,6.000000,,,,0.000000,2.000000,2.000000,0.000000,2.000000,2.000000,2.000000,0.000000,2.000000,4.000000,4.000000,4.000000,4.000000,2.000000,4.000000,16.666666,,,,,,,,,,,,,,,,,0.000000,0.000000,0.539066,0.315979,-0.662781,0.412659,0.951776,-0.187523,-0.083995,-81.855553,43.709099,24.611704
1732083639.363088,1732083639.363568,1.000000,0.000000,4297.563965,4288.461426,4322.307617,4311.666504,4290.897461,4308.846191,4322.307617,4335.512695,4325.256348,4297.563965,4453.717773,4483.205078,4346.153809,4392.436035,1325.000000,0.000000,6.000000,,,,0.000000,2.000000,2.000000,0.000000,2.000000,2.000000,2.000000,0.000000,2.000000,4.000000,4.000000,4.000000,4.000000,2.000000,4.000000,16.666666,,,,,,,,,,,,,,,,,,,,,,,,,,,,
