title:nine2, start timestamp:1732082025.675255, stop timestamp:1732082053.285262, headset type:EPOCX, headset serial:E5020C3A, headset firmware:730, channels:67, sampling rate:eeg_128;mot_32, samples:3537      , version:2.2, 
Timestamp,OriginalTimestamp,EEG.Counter,EEG.Interpolated,EEG.AF3,EEG.F7,EEG.F3,EEG.FC5,EEG.T7,EEG.P7,EEG.O1,EEG.O2,EEG.P8,EEG.T8,EEG.FC6,EEG.F4,EEG.F8,EEG.AF4,EEG.RawCq,EEG.Battery,EEG.BatteryPercent,MarkerIndex,MarkerType,MarkerValueInt,EEG.MarkerHardware,CQ.AF3,CQ.F7,CQ.F3,CQ.FC5,CQ.T7,CQ.P7,CQ.O1,CQ.O2,CQ.P8,CQ.T8,CQ.FC6,CQ.F4,CQ.F8,CQ.AF4,CQ.Overall,EQ.SampleRateQuality,EQ.OVERALL,EQ.AF3,EQ.F7,EQ.F3,EQ.FC5,EQ.T7,EQ.P7,EQ.O1,EQ.O2,EQ.P8,EQ.T8,EQ.FC6,EQ.F4,EQ.F8,EQ.AF4,MOT.CounterMems,MOT.InterpolatedMems,MOT.Q0,MOT.Q1,MOT.Q2,MOT.Q3,MOT.AccX,MOT.AccY,MOT.AccZ,MOT.MagX,MOT.MagY,MOT.MagZ
1732082025.675255,1732082025.676777,57.000000,0.000000,4320.897461,4302.179688,4320.512695,4324.230957,4312.051270,4319.358887,4315.512695,4339.487305,4330.512695,4319.615234,4445.769043,4451.666504,4351.153809,4381.794922,0.000000,0.000000,11.000000,,,,0.000000,2.000000,2.000000,0.000000,2.000000,2.000000,2.000000,0.000000,2.000000,4.000000,4.000000,4.000000,4.000000,2.000000,4.000000,16.666666,,,,,,,,,,,,,,,,,,,,,,,,,,,,
1732082025.683063,1732082025.684385,58.000000,0.000000,4326.282227,4301.666504,4317.948730,4327.051270,4315.769043,4320.128418,4313.461426,4343.333496,4332.820313,4324.102539,4445.512695,4448.974121,4353.717773,4388.205078,0.000000,0.000000,11.000000,,,,0.000000,2.000000,2.000000,0.000000,2.000000,2.000000,2.000000,0.000000,2.000000,4.000000,4.000000,4.000000,4.000000,2.000000,4.000000,16.666666,,,,,,,,,,,,,,,,,,,,,,,,,,,,
1732082025.690871,1732082025.692193,59.000000,0.000000,4331.666504,4311.666504,4320.641113,4329.743652,4330.769043,4316.153809,4313.205078,4340.128418,4330.897461,4326.794922,4437.436035,4450.769043,4355.641113,4393.077148,0.000000,0.000000,11.000000,,,,0.000000,2.000000,2.000000,0.000000,2.000000,2.000000,2.000000,0.000000,2.000000,4.000000,4.000000,4.000000,4.000000,2.000000,4.000000,16.666666,,,,,,,,,,,,,,,,,,,,,,,,,,,,
1732082025.698679,1732082025.699902,60.000000,0.000000,4328.974121,4315.128418,4318.846191,4331.538574,4325.512695,4315.769043,4314.615234,4336.922852,4328.077148,4321.025879,4437.692383,4459.358887,4356.410156,4392.307617,0.000000,0.000000,11.000000,,,,0.000000,2.000000,2.000000,0.000000,2.000000,2.000000,2.000000,0.000000,2.000000,4.000000,4.000000,4.000000,4.000000,2.000000,4.000000,16.666666,,,,,,,,,,,,,,,,,15.000000,0.000000,0.627591,0.406860,-0.600037,0.283813,0.975217,0.155781,-0.062508,-75.028488,66.329735,28.338593
1732082025.706488,1732082025.707710,61.000000,0.000000,4327.051270,4311.538574,4317.948730,4335.000000,4305.000000,4317.820313,4315.897461,4341.410156,4330.512695,4319.230957,4454.871582,4469.230957,4356.922852,4397.436035,0.000000,0.000000,11.000000,,,,0.000000,2.000000,2.000000,0.000000,2.000000,2.000000,2.000000,0.000000,2.000000,4.000000,4.000000,4.000000,4.000000,2.000000,4.000000,16.666666,,,,,,,,,,,,,,,,,,,,,,,,,,,,
1732082025.714296,1732082025.715318,62.000000,0.000000,4330.000000,4312.692383,4320.897461,4333.461426,4306.666504,4318.974121,4316.153809,4344.615234,4331.282227,4323.846191,4457.820313,4468.333496,4358.974121,4400.000000,0.000000,0.000000,11.000000,,,,0.000000,2.000000,2.000000,0.000000,2.000000,2.000000,2.000000,0.000000,2.000000,4.000000,4.000000,4.000000,4.000000,2.000000,4.000000,16.666666,,,,,,,,,,,,,,,,,,,,,,,,,,,,
1732082025.722104,1732082025.723126,63.000000,0.000000,4329.487305,4315.256348,4325.128418,4329.487305,4319.743652,4318.846191,4317.051270,4340.128418,4328.205078,4325.000000,4446.025879,4462.692383,4360.897461,4396.794922,0.000000,0.000000,11.000000,,,,0.000000,2.000000,2.000000,0.000000,2.000000,2.000000,2.000000,0.000000,2.000000,4.000000,4.000000,4.000000,4.000000,2.000000,4.000000,16.666666,,,,,,,,,,,,,,,,,,,,,,,,,,,,
1732082025.729912,1732082025.731035,64.000000,0.000000,4326.410156,4312.563965,4320.384766,4329.487305,4312.692383,4313.205078,4316.666504,4338.205078,4329.615234,4325.512695,4452.307617,4464.358887,4362.307617,4400.256348,1.000000,0.000000,11.000000,,,,0.000000,2.000000,2.000000,0.000000,2.000000,2.000000,2.000000,0.000000,2.000000,4.000000,4.000000,4.000000,4.000000,2.000000,4.000000,16.666666,,,,,,,,,,,,,,,,,16.000000,0.000000,0.627031,0.407288,-0.600159,0.284180,0.968380,0.162618,-0.062996,-74.928070,66.488747,28.337593
1732082025.737721,1732082025.738843,65.000000,0.000000,4325.897461,4307.563965,4319.230957,4326.410156,4306.153809,4311.410156,4315.000000,4341.282227,4331.025879,4326.538574,4457.820313,4469.230957,4360.512695,4403.333496,1294.000000,0.000000,11.000000,,,,0.000000,2.000000,2.000000,0.000000,2.000000,2.000000,2.000000,0.000000,2.000000,4.000000,4.000000,4.000000,4.000000,2.000000,4.000000,16.666666,,,,,,,,,,,,,,,,,,,,,,,,,,,,
1732082025.745529,1732082025.746851,66.000000,0.000000,4325.512695,4308.077148,4323.205078,4322.179688,4314.871582,4320.128418,4314.615234,4342.563965,4331.666504,4325.897461,4448.974121,4467.692383,4361.282227,4399.743652,1215.000000,0.000000,11.000000,,,,0.000000,2.000000,2.000000,0.000000,2.000000,2.000000,2.000000,0.000000,2.000000,4.000000,4.000000,4.000000,4.000000,2.000000,4.000000,16.666666,,,,,,,,,,,,,,,,,,,,,,,,,,,,
1732082025.753337,1732082025.754659,67.000000,0.000000,4322.307617,4310.769043,4325.384766,4324.743652,4313.589844,4323.974121,4316.666504,4343.333496,4337.563965,4331.282227,4449.743652,4463.846191,4366.538574,4401.025879,1174.000000,0.000000,11.000000,,,,0.000000,2.000000,2.000000,0.000000,2.000000,2.000000,2.000000,0.000000,2.000000,4.000000,4.000000,4.000000,4.000000,2.000000,4.000000,16.666666,,,,,,,,,,,,,,,,,,,,,,,,,,,,
1732082025.761145,1732082025.762367,68.000000,0.000000,4320.769043,4309.358887,4323.846191,4327.692383,4317.820313,4318.077148,4318.974121,4343.846191,4338.846191,4331.410156,4449.102539,4463.589844,4363.717773,4399.871582,1192.000000,0.000000,11.000000,,,,0.000000,2.000000,2.000000,0.000000,2.000000,2.000000,2.000000,0.000000,2.000000,4.000000,4.000000,4.000000,4.000000,2.000000,4.000000,16.666666,,,,,,,,,,,,,,,,,17.000000,0.000000,0.626514,0.407288,-0.600525,0.284546,0.970822,0.155781,-0.054206,-74.980072,66.584221,28.420118
1732082025.768954,1732082025.770176,69.000000,0.000000,4320.000000,4308.461426,4321.153809,4325.256348,4328.461426,4313.717773,4317.179688,4342.051270,4332.692383,4325.256348,4438.717773,4462.563965,4357.179688,4393.717773,1067.000000,0.000000,11.000000,,,,0.000000,2.000000,2.000000,0.000000,2.000000,2.000000,2.000000,0.000000,2.000000,4.000000,4.000000,4.000000,4.000000,2.000000,4.000000,16.666666,,,,,,,,,,,,,,,,,,,,,,,,,,,,
1732082025.776762,1732082025.777784,70.000000,0.000000,4319.358887,4312.563965,4319.230957,4322.179688,4313.589844,4315.384766,4316.538574,4339.487305,4330.128418,4325.641113,4442.436035,4466.153809,4358.846191,4395.384766,200.000000,0.000000,11.000000,,,,0.000000,2.000000,2.000000,0.000000,2.000000,2.000000,2.000000,1.000000,2.000000,4.000000,4.000000,4.000000,4.000000,2.000000,4.000000,25.000000,,,,,,,,,,,,,,,,,,,,,,,,,,,,
1732082025.784570,1732082025.785592,71.000000,0.000000,4321.922852,4312.307617,4316.153809,4320.897461,4297.820313,4316.282227,4317.051270,4340.641113,4331.153809,4325.256348,4451.282227,4467.179688,4362.563965,4400.384766,1190.000000,0.000000,11.000000,,,,0.000000,2.000000,2.000000,0.000000,2.000000,2.000000,2.000000,1.000000,2.000000,4.000000,4.000000,4.000000,4.000000,2.000000,4.000000,25.000000,,,,,,,,,,,,,,,,,,,,,,,,,,,,
1732082025.792379,1732082025.793300,72.000000,0.000000,4324.615234,4306.025879,4320.000000,4320.000000,4309.871582,4315.641113,4317.820313,4341.666504,4330.000000,4318.461426,4446.666504,4459.487305,4358.333496,4397.692383,1341.000000,0.000000,11.000000,,,,0.000000,2.000000,2.000000,0.000000,2.000000,2.000000,2.000000,1.000000,2.000000,4.000000,4.000000,4.000000,4.000000,2.000000,4.000000,25.000000,,,,,,,,,,,,,,,,,18.000000,0.000000,0.626295,0.407227,-0.600708,0.284729,0.964473,0.153827,-0.063973,-74.762192,66.504883,28.498629
1732082025.800187,1732082025.801109,73.000000,0.000000,4327.563965,4305.897461,4323.846191,4323.717773,4319.358887,4315.384766,4316.794922,4340.897461,4328.717773,4317.563965,4445.897461,4461.538574,4351.794922,4396.794922,1471.000000,0.000000,11.000000,,,,0.000000,2.000000,2.000000,0.000000,2.000000,2.000000,2.000000,1.000000,2.000000,4.000000,4.000000,4.000000,4.000000,2.000000,4.000000,25.000000,,,,,,,,,,,,,,,,,,,,,,,,,,,,
1732082025.807995,1732082025.808717,74.000000,0.000000,4329.230957,4310.000000,4324.871582,4326.025879,4309.102539,4314.615234,4317.692383,4342.179688,4331.282227,4321.410156,4447.820313,4472.051270,4352.563965,4400.256348,1361.000000,0.000000,11.000000,,,,0.000000,2.000000,2.000000,0.000000,2.000000,2.000000,2.000000,1.000000,2.000000,4.000000,4.000000,4.000000,4.000000,2.000000,4.000000,25.000000,,,,,,,,,,,,,,,,,,,,,,,,,,,,
1732082025.815803,1732082025.816525,75.000000,0.000000,4328.205078,4310.512695,4320.128418,4324.615234,4311.282227,4315.256348,4318.589844,4343.461426,4335.256348,4320.000000,4444.358887,4468.846191,4358.461426,4399.358887,1487.000000,0.000000,11.000000,,,,0.000000,2.000000,2.000000,0.000000,2.000000,2.000000,2.000000,1.000000,2.000000,4.000000,4.000000,4.000000,4.000000,2.000000,4.000000,25.000000,,,,,,,,,,,,,,,,,,,,,,,,,,,,
1732082025.823612,1732082025.824433,76.000000,0.000000,4328.974121,4308.589844,4320.897461,4327.051270,4321.282227,4315.769043,4319.230957,4342.307617,4335.512695,4320.256348,4443.846191,4461.410156,4359.615234,4395.000000,1708.000000,0.000000,11.000000,,,,0.000000,2.000000,2.000000,0.000000,2.000000,2.000000,2.000000,1.000000,2.000000,4.000000,4.000000,4.000000,4.000000,2.000000,4.000000,25.000000,,,,,,,,,,,,,,,,,19.000000,0.000000,0.625912,0.407104,-0.601074,0.284973,0.956660,0.175803,-0.068856,-74.934044,66.123955,28.815556
1732082025.831420,1732082025.832242,77.000000,0.000000,4332.179688,4310.256348,4324.230957,4332.307617,4315.128418,4316.025879,4316.153809,4341.666504,4334.358887,4322.307617,4441.794922,4461.410156,4353.717773,4393.846191,1698.000000,0.000000,11.000000,,,,0.000000,2.000000,2.000000,0.000000,2.000000,2.000000,2.000000,1.000000,2.000000,4.000000,4.000000,4.000000,4.000000,2.000000,4.000000,25.000000,,,,,,,,,,,,,,,,,,,,,,,,,,,,
1732082025.839228,1732082025.840250,78.000000,0.000000,4328.974121,4309.743652,4325.769043,4329.871582,4314.358887,4311.794922,4315.000000,4341.282227,4333.205078,4316.538574,4439.615234,4457.307617,4350.512695,4394.743652,1361.000000,0.000000,11.000000,,,,0.000000,2.000000,2.000000,0.000000,2.000000,2.000000,2.000000,1.000000,2.000000,4.000000,4.000000,4.000000,4.000000,2.000000,4.000000,25.000000,1.000000,0.000000,2.000000,2.000000,0.000000,2.000000,2.000000,1.000000,0.000000,0.000000,0.000000,1.000000,4.000000,4.000000,2.000000,4.000000,,,,,,,,,,,,
1732082025.847036,1732082025.848058,79.000000,0.000000,4323.974121,4308.205078,4320.897461,4323.846191,4319.230957,4305.512695,4316.794922,4335.128418,4328.589844,4311.794922,4444.871582,4456.538574,4353.717773,4395.000000,1487.000000,0.000000,11.000000,,,,0.000000,2.000000,2.000000,0.000000,2.000000,2.000000,2.000000,1.000000,2.000000,4.000000,4.000000,4.000000,4.000000,2.000000,4.000000,25.000000,,,,,,,,,,,,,,,,,,,,,,,,,,,,
1732082025.854845,1732082025.855966,80.000000,0.000000,4328.589844,4311.922852,4318.717773,4324.230957,4307.692383,4305.897461,4318.589844,4331.153809,4327.179688,4315.769043,4446.538574,4462.307617,4356.153809,4394.871582,1708.000000,0.000000,11.000000,,,,0.000000,2.000000,2.000000,0.000000,2.000000,2.000000,2.000000,1.000000,2.000000,4.000000,4.000000,4.000000,4.000000,2.000000,4.000000,25.000000,,,,,,,,,,,,,,,,,20.000000,0.000000,0.626443,0.408447,-0.600159,0.283813,0.929313,0.202661,-0.083506,-75.043243,66.055405,28.732267
1732082025.862653,1732082025.863774,81.000000,0.000000,4331.282227,4311.666504,4318.717773,4326.282227,4295.256348,4311.666504,4317.307617,4336.922852,4331.922852,4321.922852,4442.692383,4460.769043,4355.512695,4395.512695,1698.000000,0.000000,11.000000,,,,0.000000,2.000000,2.000000,0.000000,2.000000,2.000000,2.000000,1.000000,2.000000,4.000000,4.000000,4.000000,4.000000,2.000000,4.000000,25.000000,,,,,,,,,,,,,,,,,,,,,,,,,,,,
1732082025.870461,1732082025.871782,82.000000,0.000000,4322.948730,4306.794922,4319.230957,4321.282227,4303.589844,4314.358887,4316.410156,4341.666504,4333.077148,4321.025879,4443.846191,4460.256348,4355.384766,4394.743652,1361.000000,0.000000,11.000000,,,,0.000000,2.000000,2.000000,0.000000,2.000000,2.000000,2.000000,1.000000,2.000000,4.000000,4.000000,4.000000,4.000000,2.000000,4.000000,25.000000,,,,,,,,,,,,,,,,,,,,,,,,,,,,
1732082025.878269,1732082025.879590,83.000000,0.000000,4320.641113,4308.333496,4321.153809,4320.384766,4312.820313,4311.153809,4315.641113,4337.820313,4329.743652,4319.487305,4446.410156,4466.410156,4357.692383,4393.974121,1487.000000,0.000000,11.000000,,,,0.000000,2.000000,2.000000,0.000000,2.000000,2.000000,2.000000,1.000000,2.000000,4.000000,4.000000,4.000000,4.000000,2.000000,4.000000,25.000000,,,,,,,,,,,,,,,,,,,,,,,,,,,,
1732082025.886078,1732082025.887498,84.000000,0.000000,4326.025879,4312.563965,4323.077148,4327.563965,4305.128418,4308.846191,4315.384766,4335.128418,4330.000000,4321.025879,4445.769043,4469.230957,4361.153809,4396.282227,1708.000000,0.000000,11.000000,,,,0.000000,2.000000,2.000000,0.000000,2.000000,2.000000,2.000000,1.000000,2.000000,4.000000,4.000000,4.000000,4.000000,2.000000,4.000000,25.000000,,,,,,,,,,,,,,,,,21.000000,0.000000,0.627622,0.410156,-0.598450,0.282349,0.929801,0.238310,-0.065926,-75.313362,65.994881,28.731470
1732082025.893886,1732082025.895307,85.000000,0.000000,4327.179688,4312.820313,4322.179688,4329.102539,4300.641113,4310.128418,4318.077148,4338.077148,4330.512695,4319.487305,4450.512695,4462.820313,4362.051270,4398.846191,1698.000000,0.000000,11.000000,,,,0.000000,2.000000,2.000000,0.000000,2.000000,2.000000,2.000000,1.000000,2.000000,4.000000,4.000000,4.000000,4.000000,2.000000,4.000000,25.000000,,,,,,,,,,,,,,,,,,,,,,,,,,,,
1732082025.901694,1732082025.903315,86.000000,0.000000,4324.487305,4315.641113,4322.692383,4326.410156,4305.512695,4312.692383,4317.051270,4341.153809,4329.487305,4317.563965,4451.410156,4458.717773,4361.538574,4396.922852,1361.000000,0.000000,11.000000,,,,0.000000,2.000000,2.000000,0.000000,2.000000,2.000000,2.000000,1.000000,2.000000,4.000000,4.000000,4.000000,4.000000,2.000000,4.000000,25.000000,,,,,,,,,,,,,,,,,,,,,,,,,,,,
1732082025.909502,1732082025.911123,87.000000,0.000000,4321.153809,4317.307617,4325.512695,4327.692383,4304.102539,4312.436035,4317.948730,4341.538574,4330.897461,4315.128418,4441.410156,4463.333496,4358.077148,4391.538574,1487.000000,0.000000,11.000000,,,,0.000000,2.000000,2.000000,0.000000,2.000000,2.000000,2.000000,1.000000,2.000000,4.000000,4.000000,4.000000,4.000000,2.000000,4.000000,25.000000,,,,,,,,,,,,,,,,,,,,,,,,,,,,
1732082025.917311,1732082025.919031,88.000000,0.000000,4320.641113,4313.589844,4324.615234,4328.589844,4306.922852,4310.256348,4318.717773,4337.436035,4330.256348,4312.563965,4437.307617,4463.717773,4352.563965,4385.641113,1708.000000,0.000000,11.000000,,,,0.000000,2.000000,2.000000,0.000000,2.000000,2.000000,2.000000,1.000000,2.000000,4.000000,4.000000,4.000000,4.000000,2.000000,4.000000,25.000000,,,,,,,,,,,,,,,,,22.000000,0.000000,0.628455,0.411194,-0.597351,0.281311,0.931266,0.251496,-0.060066,-74.973824,66.247520,28.679157
1732082025.925119,1732082025.926839,89.000000,0.000000,4322.692383,4312.051270,4326.025879,4325.256348,4315.000000,4308.333496,4319.102539,4333.589844,4325.897461,4309.871582,4442.948730,4456.025879,4352.436035,4384.230957,1698.000000,0.000000,11.000000,,,,0.000000,2.000000,2.000000,0.000000,2.000000,2.000000,2.000000,1.000000,2.000000,4.000000,4.000000,4.000000,4.000000,2.000000,4.000000,25.000000,,,,,,,,,,,,,,,,,,,,,,,,,,,,
1732082025.932927,1732082025.934847,90.000000,0.000000,4326.282227,4314.230957,4327.692383,4327.051270,4306.410156,4311.794922,4317.436035,4338.717773,4324.615234,4308.205078,4443.974121,4451.282227,4356.538574,4390.000000,1361.000000,0.000000,11.000000,,,,0.000000,2.000000,2.000000,0.000000,2.000000,2.000000,2.000000,1.000000,2.000000,4.000000,4.000000,4.000000,4.000000,2.000000,4.000000,25.000000,,,,,,,,,,,,,,,,,,,,,,,,,,,,
1732082025.940735,1732082025.942655,91.000000,0.000000,4328.333496,4314.487305,4329.871582,4331.282227,4292.179688,4320.000000,4321.538574,4344.871582,4327.307617,4306.922852,4439.615234,4455.000000,4356.922852,4390.769043,1487.000000,0.000000,11.000000,,,,0.000000,2.000000,2.000000,0.000000,2.000000,2.000000,2.000000,1.000000,2.000000,4.000000,4.000000,4.000000,4.000000,2.000000,4.000000,25.000000,,,,,,,,,,,,,,,,,,,,,,,,,,,,
1732082025.948544,1732082025.950364,92.000000,0.000000,4331.025879,4312.307617,4330.512695,4331.538574,4297.436035,4321.282227,4325.897461,4344.487305,4330.512695,4310.128418,4441.153809,4454.230957,4357.563965,4388.333496,1708.000000,0.000000,11.000000,,,,0.000000,2.000000,2.000000,0.000000,2.000000,2.000000,2.000000,1.000000,2.000000,4.000000,4.000000,4.000000,4.000000,2.000000,4.000000,25.000000,,,,,,,,,,,,,,,,,23.000000,0.000000,0.631503,0.417114,-0.591919,0.277222,0.944451,0.230985,-0.057624,-74.755463,66.517159,28.468451
1732082025.956352,1732082025.958172,93.000000,0.000000,4330.897461,4313.717773,4334.358887,4329.743652,4302.692383,4317.179688,4328.333496,4343.333496,4331.666504,4314.487305,4445.000000,4453.717773,4361.922852,4394.102539,1698.000000,0.000000,11.000000,,,,0.000000,2.000000,2.000000,0.000000,2.000000,2.000000,2.000000,1.000000,2.000000,4.000000,4.000000,4.000000,4.000000,2.000000,4.000000,25.000000,,,,,,,,,,,,,,,,,,,,,,,,,,,,
1732082025.964160,1732082025.965780,94.000000,0.000000,4329.871582,4319.102539,4333.589844,4329.358887,4293.077148,4314.487305,4328.077148,4343.717773,4332.948730,4315.000000,4448.205078,4460.000000,4363.461426,4399.358887,1361.000000,0.000000,11.000000,,,,0.000000,2.000000,2.000000,0.000000,2.000000,2.000000,2.000000,1.000000,2.000000,4.000000,4.000000,4.000000,4.000000,2.000000,4.000000,25.000000,,,,,,,,,,,,,,,,,,,,,,,,,,,,
1732082025.971969,1732082025.973589,95.000000,0.000000,4330.512695,4317.436035,4329.358887,4328.974121,4288.589844,4315.769043,4328.333496,4342.436035,4332.307617,4313.974121,4445.512695,4460.769043,4358.717773,4395.512695,1487.000000,0.000000,11.000000,,,,0.000000,2.000000,2.000000,0.000000,2.000000,2.000000,2.000000,1.000000,2.000000,4.000000,4.000000,4.000000,4.000000,2.000000,4.000000,25.000000,,,,,,,,,,,,,,,,,,,,,,,,,,,,
1732082025.979777,1732082025.981297,96.000000,0.000000,4327.563965,4311.538574,4329.487305,4327.051270,4290.128418,4318.077148,4329.358887,4342.563965,4329.102539,4315.641113,4439.230957,4458.077148,4358.589844,4394.358887,1708.000000,0.000000,11.000000,,,,0.000000,2.000000,2.000000,0.000000,2.000000,2.000000,2.000000,1.000000,2.000000,4.000000,4.000000,4.000000,4.000000,2.000000,4.000000,25.000000,,,,,,,,,,,,,,,,,24.000000,0.000000,0.632895,0.419128,-0.589661,0.275818,0.965450,0.197290,-0.046392,-74.395256,66.818893,28.664444
1732082025.987585,1732082025.989105,97.000000,0.000000,4329.615234,4313.077148,4332.436035,4324.615234,4286.666504,4316.153809,4325.256348,4341.666504,4326.025879,4316.922852,4443.205078,4461.153809,4363.333496,4401.538574,1698.000000,0.000000,11.000000,,,,0.000000,2.000000,2.000000,0.000000,2.000000,2.000000,2.000000,1.000000,2.000000,4.000000,4.000000,4.000000,4.000000,2.000000,4.000000,25.000000,,,,,,,,,,,,,,,,,,,,,,,,,,,,
1732082025.995393,1732082025.996713,98.000000,0.000000,4340.384766,4315.641113,4330.641113,4325.000000,4286.922852,4312.179688,4323.717773,4337.948730,4324.487305,4312.307617,4448.717773,4464.358887,4362.820313,4406.282227,1361.000000,0.000000,11.000000,,,,0.000000,2.000000,2.000000,0.000000,2.000000,2.000000,2.000000,1.000000,2.000000,4.000000,4.000000,4.000000,4.000000,2.000000,4.000000,25.000000,,,,,,,,,,,,,,,,,,,,,,,,,,,,
1732082026.003202,1732082026.004522,99.000000,0.000000,4348.077148,4313.589844,4327.307617,4328.333496,4290.128418,4313.333496,4326.794922,4336.282227,4324.871582,4309.615234,4443.846191,4462.692383,4361.410156,4408.974121,1487.000000,0.000000,11.000000,,,,0.000000,2.000000,2.000000,0.000000,2.000000,2.000000,2.000000,1.000000,2.000000,4.000000,4.000000,4.000000,4.000000,2.000000,4.000000,25.000000,,,,,,,,,,,,,,,,,,,,,,,,,,,,
1732082026.011010,1732082026.012230,100.000000,0.000000,4351.410156,4313.333496,4329.358887,4329.358887,4294.358887,4314.230957,4329.743652,4337.948730,4325.897461,4312.307617,4441.410156,4463.077148,4365.384766,4415.641113,1708.000000,0.000000,11.000000,,,,0.000000,2.000000,2.000000,0.000000,2.000000,2.000000,2.000000,1.000000,2.000000,4.000000,4.000000,4.000000,4.000000,2.000000,4.000000,25.000000,,,,,,,,,,,,,,,,,25.000000,0.000000,0.632895,0.419128,-0.589661,0.275818,1.002075,0.183616,-0.050787,-74.283493,67.123306,28.883200
1732082026.018818,1732082026.020038,101.000000,0.000000,4358.077148,4314.743652,4328.077148,4329.487305,4293.077148,4311.538574,4326.538574,4339.487305,4325.000000,4314.743652,4451.666504,4464.487305,4371.153809,4427.692383,1698.000000,0.000000,11.000000,,,,0.000000,2.000000,2.000000,0.000000,2.000000,2.000000,2.000000,1.000000,2.000000,4.000000,4.000000,4.000000,4.000000,2.000000,4.000000,25.000000,,,,,,,,,,,,,,,,,,,,,,,,,,,,
1732082026.026626,1732082026.027647,102.000000,0.000000,4362.692383,4314.230957,4328.077148,4329.102539,4287.307617,4311.153809,4322.820313,4337.563965,4320.512695,4312.692383,4458.846191,4464.230957,4372.051270,4432.692383,1361.000000,0.000000,11.000000,,,,0.000000,2.000000,2.000000,0.000000,2.000000,2.000000,2.000000,1.000000,2.000000,4.000000,4.000000,4.000000,4.000000,2.000000,4.000000,25.000000,,,,,,,,,,,,,,,,,,,,,,,,,,,,
1732082026.034435,1732082026.035455,103.000000,0.000000,4363.846191,4312.692383,4325.128418,4324.615234,4285.512695,4307.692383,4318.974121,4333.333496,4320.384766,4309.487305,4452.307617,4464.487305,4367.820313,4426.410156,1487.000000,0.000000,11.000000,,,,0.000000,2.000000,2.000000,0.000000,2.000000,2.000000,2.000000,1.000000,2.000000,4.000000,4.000000,4.000000,4.000000,2.000000,4.000000,25.000000,,,,,,,,,,,,,,,,,,,,,,,,,,,,
1732082026.042243,1732082026.043163,104.000000,0.000000,4369.871582,4309.615234,4325.384766,4321.666504,4287.436035,4307.948730,4323.846191,4336.794922,4323.846191,4311.282227,4446.666504,4466.794922,4367.436035,4429.615234,1708.000000,0.000000,11.000000,,,,0.000000,2.000000,2.000000,0.000000,2.000000,2.000000,2.000000,1.000000,2.000000,4.000000,4.000000,4.000000,4.000000,2.000000,4.000000,25.000000,,,,,,,,,,,,,,,,,26.000000,0.000000,0.633970,0.416748,-0.589478,0.277344,1.005005,0.090343,-0.002442,-74.039627,67.144875,28.690392
1732082026.050051,1732082026.050971,105.000000,0.000000,4376.282227,4307.948730,4325.256348,4324.230957,4291.666504,4318.333496,4328.974121,4346.410156,4324.615234,4318.974121,4454.358887,4477.436035,4377.051270,4442.051270,1698.000000,0.000000,11.000000,,,,0.000000,2.000000,2.000000,0.000000,2.000000,2.000000,2.000000,1.000000,2.000000,4.000000,4.000000,4.000000,4.000000,2.000000,4.000000,25.000000,,,,,,,,,,,,,,,,,,,,,,,,,,,,
1732082026.057859,1732082026.058580,106.000000,0.000000,4379.871582,4308.205078,4325.000000,4325.512695,4290.384766,4314.743652,4321.025879,4344.487305,4323.333496,4324.102539,4462.820313,4484.102539,4379.871582,4448.846191,1361.000000,0.000000,11.000000,,,,0.000000,2.000000,2.000000,0.000000,2.000000,2.000000,2.000000,1.000000,2.000000,4.000000,4.000000,4.000000,4.000000,2.000000,4.000000,25.000000,,,,,,,,,,,,,,,,,,,,,,,,,,,,
1732082026.065668,1732082026.066388,107.000000,0.000000,4386.538574,4307.307617,4321.025879,4325.641113,4287.179688,4303.461426,4310.256348,4335.641113,4323.717773,4325.641113,4461.410156,4481.025879,4374.358887,4452.307617,1487.000000,0.000000,11.000000,,,,0.000000,2.000000,2.000000,0.000000,2.000000,2.000000,2.000000,1.000000,2.000000,4.000000,4.000000,4.000000,4.000000,2.000000,4.000000,25.000000,,,,,,,,,,,,,,,,,,,,,,,,,,,,
1732082026.073476,1732082026.074096,108.000000,0.000000,4391.282227,4306.922852,4321.794922,4327.436035,4299.358887,4301.538574,4313.589844,4332.307617,4326.794922,4327.563965,4457.948730,4483.461426,4380.769043,4454.358887,1708.000000,0.000000,11.000000,,,,0.000000,2.000000,2.000000,0.000000,2.000000,2.000000,2.000000,1.000000,2.000000,4.000000,4.000000,4.000000,4.000000,2.000000,4.000000,25.000000,,,,,,,,,,,,,,,,,27.000000,0.000000,0.633240,0.408997,-0.593506,0.281921,0.942010,0.164083,-0.024905,-73.858765,67.184021,28.587551
1732082026.081284,1732082026.081904,109.000000,0.000000,4390.256348,4307.692383,4321.025879,4325.641113,4310.769043,4296.922852,4315.641113,4332.307617,4327.820313,4326.666504,4459.358887,4483.333496,4386.538574,4454.871582,1698.000000,0.000000,11.000000,,,,0.000000,2.000000,2.000000,0.000000,2.000000,2.000000,2.000000,1.000000,2.000000,4.000000,4.000000,4.000000,4.000000,2.000000,4.000000,25.000000,,,,,,,,,,,,,,,,,,,,,,,,,,,,
1732082026.089092,1732082026.089513,110.000000,0.000000,4391.025879,4307.820313,4318.974121,4322.820313,4300.641113,4295.769043,4311.153809,4336.922852,4327.948730,4321.025879,4459.615234,4475.641113,4380.000000,4455.769043,1361.000000,0.000000,11.000000,,,,0.000000,2.000000,2.000000,0.000000,2.000000,2.000000,2.000000,1.000000,2.000000,4.000000,4.000000,4.000000,4.000000,2.000000,4.000000,25.000000,,,,,,,,,,,,,,,,,,,,,,,,,,,,
1732082026.096901,1732082026.097321,111.000000,0.000000,4399.743652,4308.717773,4320.000000,4328.077148,4296.410156,4310.769043,4312.820313,4345.769043,4332.307617,4314.871582,4456.666504,4482.692383,4374.871582,4459.230957,1487.000000,0.000000,11.000000,,,,0.000000,2.000000,2.000000,0.000000,2.000000,2.000000,2.000000,1.000000,2.000000,4.000000,4.000000,4.000000,4.000000,2.000000,4.000000,25.000000,,,,,,,,,,,,,,,,,,,,,,,,,,,,
1732082026.104709,1732082026.105029,112.000000,0.000000,4407.820313,4308.077148,4319.230957,4332.820313,4305.641113,4311.282227,4315.128418,4345.128418,4335.641113,4313.333496,4465.512695,4497.179688,4381.538574,4466.666504,1708.000000,0.000000,11.000000,,,,0.000000,2.000000,2.000000,0.000000,2.000000,2.000000,2.000000,1.000000,2.000000,4.000000,4.000000,4.000000,4.000000,2.000000,4.000000,25.000000,,,,,,,,,,,,,,,,,28.000000,0.000000,0.631404,0.404114,-0.597656,0.284302,0.982542,0.168478,-0.043462,-73.810600,67.109055,28.527582
1732082026.112517,1732082026.112838,113.000000,0.000000,4408.717773,4307.948730,4322.051270,4329.358887,4300.256348,4296.410156,4309.743652,4335.128418,4328.846191,4312.820313,4476.025879,4497.563965,4389.358887,4473.717773,1698.000000,0.000000,11.000000,,,,0.000000,2.000000,2.000000,0.000000,2.000000,2.000000,2.000000,1.000000,2.000000,4.000000,4.000000,4.000000,4.000000,2.000000,4.000000,25.000000,,,,,,,,,,,,,,,,,,,,,,,,,,,,
1732082026.120325,1732082026.120446,114.000000,0.000000,4411.153809,4312.051270,4319.615234,4327.820313,4292.179688,4296.410156,4304.230957,4327.307617,4316.538574,4305.256348,4471.282227,4487.820313,4390.641113,4470.897461,1361.000000,0.000000,11.000000,,,,0.000000,2.000000,2.000000,0.000000,2.000000,2.000000,2.000000,1.000000,2.000000,4.000000,4.000000,4.000000,4.000000,2.000000,4.000000,25.000000,,,,,,,,,,,,,,,,,,,,,,,,,,,,
1732082026.128134,1732082026.128254,115.000000,0.000000,4414.615234,4312.948730,4315.256348,4330.000000,4294.358887,4298.205078,4304.230957,4325.256348,4312.179688,4302.563965,4466.922852,4480.769043,4391.922852,4466.666504,1487.000000,0.000000,11.000000,,,,0.000000,2.000000,2.000000,0.000000,2.000000,2.000000,2.000000,1.000000,2.000000,4.000000,4.000000,4.000000,4.000000,2.000000,4.000000,25.000000,,,,,,,,,,,,,,,,,,,,,,,,,,,,
1732082026.135942,1732082026.136162,116.000000,0.000000,4415.769043,4310.897461,4309.102539,4332.692383,4295.256348,4297.820313,4306.025879,4331.282227,4319.743652,4311.025879,4477.179688,4482.051270,4393.974121,4472.692383,1708.000000,0.000000,11.000000,,,,0.000000,2.000000,2.000000,0.000000,2.000000,2.000000,2.000000,1.000000,2.000000,4.000000,4.000000,4.000000,4.000000,2.000000,4.000000,25.000000,,,,,,,,,,,,,,,,,29.000000,0.000000,0.630358,0.402893,-0.599060,0.285400,0.982542,0.168478,-0.043462,-73.941589,66.739998,28.554008
1732082026.143750,1732082026.143971,117.000000,0.000000,4414.871582,4312.820313,4308.333496,4333.974121,4294.102539,4302.179688,4304.743652,4336.666504,4326.153809,4316.282227,4480.384766,4486.025879,4395.384766,4478.333496,1698.000000,0.000000,11.000000,,,,0.000000,2.000000,2.000000,0.000000,2.000000,2.000000,2.000000,1.000000,2.000000,4.000000,4.000000,4.000000,4.000000,2.000000,4.000000,25.000000,,,,,,,,,,,,,,,,,,,,,,,,,,,,
1732082026.151559,1732082026.151979,118.000000,0.000000,4415.512695,4316.666504,4303.205078,4334.871582,4299.615234,4304.615234,4296.410156,4333.461426,4324.615234,4318.205078,4472.307617,4482.563965,4393.589844,4471.282227,1361.000000,0.000000,11.000000,,,,0.000000,2.000000,2.000000,0.000000,2.000000,2.000000,2.000000,1.000000,2.000000,4.000000,4.000000,4.000000,4.000000,2.000000,4.000000,25.000000,,,,,,,,,,,,,,,,,,,,,,,,,,,,
1732082026.159367,1732082026.159787,119.000000,0.000000,4415.384766,4315.641113,4302.820313,4334.358887,4301.922852,4305.000000,4295.384766,4335.641113,4327.307617,4324.230957,4472.051270,4483.461426,4389.230957,4463.333496,1487.000000,0.000000,11.000000,,,,0.000000,2.000000,2.000000,0.000000,2.000000,2.000000,2.000000,1.000000,2.000000,4.000000,4.000000,4.000000,4.000000,2.000000,4.000000,25.000000,,,,,,,,,,,,,,,,,,,,,,,,,,,,
1732082026.167175,1732082026.167695,120.000000,0.000000,4414.102539,4313.846191,4306.666504,4335.769043,4303.846191,4304.743652,4300.256348,4341.794922,4332.563965,4325.512695,4477.307617,4490.384766,4385.897461,4468.589844,1708.000000,0.000000,11.000000,,,,0.000000,2.000000,2.000000,0.000000,2.000000,2.000000,2.000000,1.000000,2.000000,4.000000,4.000000,4.000000,4.000000,2.000000,4.000000,25.000000,,,,,,,,,,,,,,,,,30.000000,0.000000,0.627267,0.398804,-0.601501,0.292725,0.922476,0.111342,-0.026859,-74.099350,66.464401,28.493748
1732082026.174983,1732082026.175503,121.000000,0.000000,4411.666504,4314.102539,4309.102539,4331.410156,4318.205078,4300.897461,4300.128418,4337.179688,4330.384766,4320.512695,4476.282227,4491.410156,4385.384766,4472.692383,1698.000000,0.000000,11.000000,,,,0.000000,2.000000,2.000000,0.000000,2.000000,2.000000,2.000000,1.000000,2.000000,4.000000,4.000000,4.000000,4.000000,2.000000,4.000000,25.000000,,,,,,,,,,,,,,,,,,,,,,,,,,,,
1732082026.182792,1732082026.183111,122.000000,0.000000,4408.077148,4313.717773,4306.666504,4323.717773,4327.307617,4299.871582,4297.820313,4331.282227,4328.717773,4318.589844,4472.179688,4486.666504,4387.820313,4465.256348,1361.000000,0.000000,11.000000,,,,0.000000,2.000000,2.000000,0.000000,2.000000,2.000000,2.000000,1.000000,2.000000,4.000000,4.000000,4.000000,4.000000,2.000000,4.000000,25.000000,,,,,,,,,,,,,,,,,,,,,,,,,,,,
1732082026.190600,1732082026.190920,123.000000,0.000000,4405.128418,4313.461426,4308.717773,4325.000000,4315.256348,4304.102539,4300.897461,4333.333496,4327.692383,4318.077148,4473.205078,4485.897461,4387.820313,4460.384766,1487.000000,0.000000,11.000000,,,,0.000000,2.000000,2.000000,0.000000,2.000000,2.000000,2.000000,1.000000,2.000000,4.000000,4.000000,4.000000,4.000000,2.000000,4.000000,25.000000,,,,,,,,,,,,,,,,,,,,,,,,,,,,
1732082026.198408,1732082026.198628,124.000000,0.000000,4404.230957,4312.820313,4316.922852,4328.205078,4305.128418,4301.922852,4301.153809,4336.666504,4324.871582,4317.563965,4476.153809,4489.230957,4387.307617,4462.051270,1708.000000,0.000000,11.000000,,,,0.000000,2.000000,2.000000,0.000000,2.000000,2.000000,2.000000,1.000000,2.000000,4.000000,4.000000,4.000000,4.000000,2.000000,4.000000,25.000000,,,,,,,,,,,,,,,,,31.000000,0.000000,0.626889,0.397339,-0.600891,0.296753,0.950311,0.123550,-0.031742,-74.285477,66.199501,28.599936
1732082026.206216,1732082026.206436,125.000000,0.000000,4401.282227,4312.179688,4320.512695,4325.256348,4313.717773,4299.743652,4299.358887,4335.897461,4325.897461,4315.128418,4472.179688,4491.025879,4386.153809,4457.436035,1698.000000,0.000000,11.000000,,,,0.000000,2.000000,2.000000,0.000000,2.000000,2.000000,2.000000,1.000000,2.000000,4.000000,4.000000,4.000000,4.000000,2.000000,4.000000,25.000000,,,,,,,,,,,,,,,,,,,,,,,,,,,,
1732082026.214025,1732082026.214444,126.000000,0.000000,4391.794922,4309.230957,4318.589844,4321.666504,4317.436035,4303.077148,4302.820313,4332.948730,4327.051270,4309.230957,4464.871582,4489.230957,4379.743652,4449.102539,1361.000000,0.000000,11.000000,,,,0.000000,2.000000,2.000000,0.000000,2.000000,2.000000,2.000000,1.000000,2.000000,4.000000,4.000000,4.000000,4.000000,2.000000,4.000000,25.000000,,,,,,,,,,,,,,,,,,,,,,,,,,,,
1732082026.221833,1732082026.222252,127.000000,0.000000,4383.077148,4304.615234,4318.974121,4318.846191,4313.846191,4308.846191,4310.256348,4337.179688,4327.563965,4305.384766,4459.230957,4484.358887,4370.128418,4443.846191,11.000000,0.000000,11.000000,,,,0.000000,2.000000,2.000000,0.000000,2.000000,2.000000,2.000000,1.000000,2.000000,4.000000,4.000000,4.000000,4.000000,2.000000,4.000000,25.000000,,,,,,,,,,,,,,,,,,,,,,,,,,,,
1732082026.229641,1732082026.230161,0.000000,0.000000,4384.615234,4303.077148,4323.077148,4317.436035,4320.128418,4312.436035,4311.794922,4342.436035,4330.641113,4307.307617,4457.692383,4483.717773,4370.512695,4441.538574,0.000000,0.000000,11.000000,,,,0.000000,2.000000,2.000000,0.000000,2.000000,2.000000,2.000000,1.000000,2.000000,4.000000,4.000000,4.000000,4.000000,2.000000,4.000000,25.000000,,,,,,,,,,,,,,,,,0.000000,0.000000,0.626905,0.397095,-0.600098,0.298645,0.951776,0.124039,-0.031254,-74.526237,65.894928,28.554281
1732082026.237449,1732082026.237969,1.000000,0.000000,4390.897461,4307.436035,4322.051270,4321.153809,4316.538574,4309.102539,4308.974121,4338.461426,4330.641113,4311.794922,4462.179688,4488.717773,4381.025879,4445.512695,1287.000000,0.000000,11.000000,,,,0.000000,2.000000,2.000000,0.000000,2.000000,2.000000,2.000000,1.000000,2.000000,4.000000,4.000000,4.000000,4.000000,2.000000,4.000000,25.000000,,,,,,,,,,,,,,,,,,,,,,,,,,,,
1732082026.245258,1732082026.245977,2.000000,0.000000,4392.051270,4310.512695,4325.384766,4327.948730,4314.743652,4307.179688,4309.230957,4333.717773,4325.512695,4311.153809,4464.743652,4490.384766,4377.307617,4447.692383,1205.000000,0.000000,11.000000,,,,0.000000,2.000000,2.000000,0.000000,2.000000,2.000000,2.000000,1.000000,2.000000,4.000000,4.000000,4.000000,4.000000,2.000000,4.000000,25.000000,,,,,,,,,,,,,,,,,,,,,,,,,,,,
1732082026.253066,1732082026.253785,3.000000,0.000000,4386.794922,4310.897461,4331.538574,4333.205078,4332.948730,4309.871582,4312.051270,4336.666504,4323.717773,4308.846191,4461.282227,4484.615234,4366.922852,4444.358887,1160.000000,0.000000,11.000000,,,,0.000000,2.000000,2.000000,0.000000,2.000000,2.000000,2.000000,1.000000,2.000000,4.000000,4.000000,4.000000,4.000000,2.000000,4.000000,25.000000,,,,,,,,,,,,,,,,,,,,,,,,,,,,
1732082026.260874,1732082026.261693,4.000000,0.000000,4386.282227,4311.666504,4331.666504,4333.846191,4331.922852,4310.256348,4313.846191,4336.666504,4327.563965,4310.769043,4465.256348,4481.410156,4373.974121,4445.256348,1185.000000,0.000000,11.000000,,,,0.000000,2.000000,2.000000,0.000000,2.000000,2.000000,2.000000,1.000000,2.000000,4.000000,4.000000,4.000000,4.000000,2.000000,4.000000,25.000000,,,,,,,,,,,,,,,,,1.000000,0.000000,0.627271,0.397522,-0.597778,0.301941,0.946893,0.130875,-0.018557,-74.679581,65.661560,28.670633
1732082026.268682,1732082026.269501,5.000000,0.000000,4392.179688,4310.000000,4330.000000,4330.000000,4309.358887,4308.077148,4314.871582,4334.102539,4330.384766,4315.000000,4468.974121,4483.333496,4383.717773,4447.820313,1067.000000,0.000000,11.000000,,,,0.000000,2.000000,2.000000,0.000000,2.000000,2.000000,2.000000,1.000000,2.000000,4.000000,4.000000,4.000000,4.000000,2.000000,4.000000,25.000000,,,,,,,,,,,,,,,,,,,,,,,,,,,,
1732082026.276491,1732082026.277509,6.000000,0.000000,4389.871582,4309.358887,4332.692383,4329.102539,4307.307617,4308.717773,4317.563965,4339.102539,4328.461426,4315.256348,4461.538574,4486.153809,4377.179688,4444.871582,197.000000,0.000000,11.000000,,,,0.000000,2.000000,2.000000,0.000000,2.000000,2.000000,2.000000,1.000000,2.000000,4.000000,4.000000,4.000000,4.000000,2.000000,4.000000,25.000000,,,,,,,,,,,,,,,,,,,,,,,,,,,,
1732082026.284299,1732082026.285317,7.000000,0.000000,4379.871582,4309.487305,4335.256348,4330.641113,4319.615234,4310.769043,4318.333496,4343.717773,4327.051270,4314.487305,4458.205078,4490.128418,4371.538574,4441.922852,1190.000000,0.000000,11.000000,,,,0.000000,2.000000,2.000000,0.000000,2.000000,2.000000,2.000000,1.000000,2.000000,4.000000,4.000000,4.000000,4.000000,2.000000,4.000000,25.000000,,,,,,,,,,,,,,,,,,,,,,,,,,,,
1732082026.292107,1732082026.293226,8.000000,0.000000,4377.692383,4305.000000,4334.358887,4329.871582,4317.948730,4310.641113,4319.102539,4340.641113,4329.102539,4314.358887,4459.102539,4491.666504,4374.615234,4437.563965,1341.000000,0.000000,11.000000,,,,0.000000,2.000000,2.000000,0.000000,2.000000,2.000000,2.000000,1.000000,2.000000,4.000000,4.000000,4.000000,4.000000,2.000000,4.000000,25.000000,,,,,,,,,,,,,,,,,2.000000,0.000000,0.627409,0.400757,-0.593567,0.305664,1.011842,0.100110,-0.001465,-75.097130,65.645859,28.568214
1732082026.299915,1732082026.301034,9.000000,0.000000,4378.461426,4303.974121,4333.974121,4328.974121,4317.563965,4311.153809,4318.077148,4335.641113,4327.307617,4311.666504,4455.128418,4489.615234,4373.077148,4427.948730,1469.000000,0.000000,11.000000,,,,0.000000,2.000000,2.000000,0.000000,2.000000,2.000000,2.000000,1.000000,2.000000,4.000000,4.000000,4.000000,4.000000,2.000000,4.000000,25.000000,,,,,,,,,,,,,,,,,,,,,,,,,,,,
1732082026.307724,1732082026.309042,10.000000,0.000000,4375.897461,4311.794922,4336.538574,4332.179688,4319.487305,4311.410156,4318.589844,4335.000000,4321.538574,4311.794922,4458.077148,4490.641113,4368.333496,4425.641113,1357.000000,0.000000,11.000000,,,,0.000000,2.000000,2.000000,0.000000,2.000000,2.000000,2.000000,1.000000,2.000000,4.000000,4.000000,4.000000,4.000000,2.000000,4.000000,25.000000,,,,,,,,,,,,,,,,,,,,,,,,,,,,
1732082026.315532,1732082026.316850,11.000000,0.000000,4376.666504,4313.205078,4338.974121,4338.589844,4320.384766,4311.025879,4319.102539,4335.384766,4322.692383,4315.641113,4460.000000,4487.051270,4367.179688,4428.461426,1487.000000,0.000000,11.000000,,,,0.000000,2.000000,2.000000,0.000000,2.000000,2.000000,2.000000,1.000000,2.000000,4.000000,4.000000,4.000000,4.000000,2.000000,4.000000,25.000000,,,,,,,,,,,,,,,,,,,,,,,,,,,,
1732082026.323340,1732082026.324758,12.000000,0.000000,4375.000000,4304.358887,4339.358887,4338.205078,4335.128418,4311.922852,4321.538574,4333.846191,4326.666504,4318.589844,4447.563965,4478.461426,4362.692383,4423.205078,1720.000000,0.000000,11.000000,,,,0.000000,2.000000,2.000000,0.000000,2.000000,2.000000,2.000000,1.000000,2.000000,4.000000,4.000000,4.000000,4.000000,2.000000,4.000000,25.000000,,,,,,,,,,,,,,,,,3.000000,0.000000,0.627409,0.400757,-0.593567,0.305664,1.016237,0.114272,0.001465,-75.405342,65.483147,28.455254
1732082026.331149,1732082026.332566,13.000000,0.000000,4367.307617,4303.205078,4337.051270,4331.410156,4338.461426,4312.307617,4320.641113,4334.230957,4326.410156,4319.871582,4446.153809,4476.282227,4361.666504,4420.128418,1691.000000,0.000000,11.000000,,,,0.000000,2.000000,2.000000,0.000000,2.000000,2.000000,2.000000,1.000000,2.000000,4.000000,4.000000,4.000000,4.000000,2.000000,4.000000,25.000000,,,,,,,,,,,,,,,,,,,,,,,,,,,,
1732082026.338957,1732082026.340574,14.000000,0.000000,4362.692383,4307.563965,4338.461426,4332.436035,4319.487305,4311.794922,4321.410156,4336.025879,4324.102539,4320.641113,4460.000000,4478.077148,4364.358887,4423.205078,1357.000000,0.000000,11.000000,,,,0.000000,2.000000,2.000000,0.000000,2.000000,2.000000,2.000000,1.000000,2.000000,4.000000,4.000000,4.000000,4.000000,2.000000,4.000000,25.000000,1.000000,0.000000,2.000000,2.000000,0.000000,2.000000,2.000000,2.000000,0.000000,0.000000,0.000000,3.000000,4.000000,4.000000,2.000000,4.000000,,,,,,,,,,,,
1732082026.346765,1732082026.348383,15.000000,0.000000,4363.846191,4307.051270,4336.922852,4338.205078,4314.743652,4315.384766,4324.871582,4336.666504,4326.282227,4322.051270,4462.820313,4479.743652,4363.333496,4425.256348,1487.000000,0.000000,11.000000,,,,0.000000,2.000000,2.000000,0.000000,2.000000,2.000000,2.000000,1.000000,2.000000,4.000000,4.000000,4.000000,4.000000,2.000000,4.000000,25.000000,,,,,,,,,,,,,,,,,,,,,,,,,,,,
1732082026.354573,1732082026.356291,16.000000,0.000000,4361.922852,4305.384766,4331.794922,4336.922852,4335.000000,4316.153809,4321.025879,4336.410156,4330.256348,4324.615234,4458.589844,4480.128418,4364.358887,4426.794922,0.000000,0.000000,11.000000,,,,0.000000,2.000000,2.000000,0.000000,2.000000,2.000000,2.000000,1.000000,2.000000,4.000000,4.000000,4.000000,4.000000,2.000000,4.000000,25.000000,,,,,,,,,,,,,,,,,4.000000,0.000000,0.626431,0.403076,-0.592651,0.306396,0.991332,0.140642,-0.026859,-75.486656,65.169685,28.273754
1732082026.362382,1732082026.364099,17.000000,0.000000,4359.102539,4306.794922,4328.846191,4335.641113,4340.769043,4310.256348,4313.974121,4334.487305,4327.692383,4325.000000,4460.256348,4478.205078,4368.589844,4430.384766,0.000000,0.000000,11.000000,,,,0.000000,2.000000,2.000000,0.000000,2.000000,2.000000,2.000000,1.000000,2.000000,4.000000,4.000000,4.000000,4.000000,2.000000,4.000000,25.000000,,,,,,,,,,,,,,,,,,,,,,,,,,,,
1732082026.370190,1732082026.372107,18.000000,0.000000,4361.025879,4308.461426,4329.615234,4339.743652,4319.871582,4308.717773,4316.794922,4334.230957,4323.205078,4320.641113,4461.666504,4479.871582,4368.077148,4428.077148,0.000000,0.000000,11.000000,,,,0.000000,2.000000,2.000000,0.000000,2.000000,2.000000,2.000000,1.000000,2.000000,4.000000,4.000000,4.000000,4.000000,2.000000,4.000000,25.000000,,,,,,,,,,,,,,,,,,,,,,,,,,,,
1732082026.377998,1732082026.379915,19.000000,0.000000,4361.538574,4309.743652,4328.589844,4341.282227,4309.102539,4311.794922,4323.077148,4339.230957,4326.922852,4322.051270,4460.769043,4483.717773,4364.487305,4419.358887,0.000000,0.000000,11.000000,,,,0.000000,2.000000,2.000000,0.000000,2.000000,2.000000,2.000000,1.000000,2.000000,4.000000,4.000000,4.000000,4.000000,2.000000,4.000000,25.000000,,,,,,,,,,,,,,,,,,,,,,,,,,,,
1732082026.385806,1732082026.387623,20.000000,0.000000,4357.179688,4308.205078,4326.410156,4337.307617,4318.589844,4312.307617,4320.128418,4343.461426,4331.922852,4325.641113,4456.282227,4482.948730,4364.871582,4412.820313,0.000000,0.000000,11.000000,,,,0.000000,2.000000,2.000000,0.000000,2.000000,2.000000,2.000000,1.000000,2.000000,4.000000,4.000000,4.000000,4.000000,2.000000,4.000000,25.000000,,,,,,,,,,,,,,,,,5.000000,0.000000,0.624959,0.405701,-0.593201,0.304871,0.975217,0.126480,-0.027835,-75.457527,65.160774,28.285074
1732082026.393615,1732082026.395432,21.000000,0.000000,4356.922852,4302.051270,4326.922852,4333.205078,4324.358887,4313.461426,4317.948730,4342.436035,4332.563965,4320.769043,4450.897461,4479.487305,4365.897461,4407.436035,0.000000,0.000000,11.000000,,,,0.000000,2.000000,2.000000,0.000000,2.000000,2.000000,2.000000,1.000000,2.000000,4.000000,4.000000,4.000000,4.000000,2.000000,4.000000,25.000000,,,,,,,,,,,,,,,,,,,,,,,,,,,,
1732082026.401423,1732082026.403040,22.000000,0.000000,4358.846191,4297.948730,4326.922852,4330.128418,4316.666504,4314.102539,4318.589844,4340.384766,4331.025879,4318.974121,4452.563965,4480.256348,4363.589844,4407.436035,0.000000,0.000000,11.000000,,,,0.000000,2.000000,2.000000,0.000000,2.000000,2.000000,2.000000,1.000000,2.000000,4.000000,4.000000,4.000000,4.000000,2.000000,4.000000,25.000000,,,,,,,,,,,,,,,,,,,,,,,,,,,,
1732082026.409231,1732082026.410848,23.000000,0.000000,4355.512695,4302.948730,4325.641113,4330.641113,4314.487305,4312.563965,4317.563965,4340.128418,4330.897461,4322.179688,4451.282227,4481.282227,4359.358887,4413.717773,0.000000,0.000000,11.000000,,,,0.000000,2.000000,2.000000,0.000000,2.000000,2.000000,2.000000,1.000000,2.000000,4.000000,4.000000,4.000000,4.000000,2.000000,4.000000,25.000000,,,,,,,,,,,,,,,,,,,,,,,,,,,,
1732082026.417039,1732082026.418557,24.000000,0.000000,4355.641113,4307.820313,4324.615234,4333.846191,4329.871582,4314.230957,4315.512695,4336.282227,4330.128418,4317.692383,4443.333496,4478.333496,4356.666504,4414.102539,0.000000,0.000000,11.000000,,,,0.000000,2.000000,2.000000,0.000000,2.000000,2.000000,2.000000,1.000000,2.000000,4.000000,4.000000,4.000000,4.000000,2.000000,4.000000,25.000000,,,,,,,,,,,,,,,,,6.000000,0.000000,0.623984,0.405396,-0.595215,0.303345,0.944451,0.126480,-0.030765,-75.400597,65.120232,28.410912
1732082026.424847,1732082026.426365,25.000000,0.000000,4358.333496,4305.641113,4324.358887,4336.153809,4336.153809,4319.615234,4318.461426,4338.205078,4327.948730,4310.897461,4447.692383,4475.512695,4357.820313,4407.051270,0.000000,0.000000,11.000000,,,,0.000000,2.000000,2.000000,0.000000,2.000000,2.000000,2.000000,1.000000,2.000000,4.000000,4.000000,4.000000,4.000000,2.000000,4.000000,25.000000,,,,,,,,,,,,,,,,,,,,,,,,,,,,
1732082026.432656,1732082026.433973,26.000000,0.000000,4353.461426,4303.846191,4322.436035,4337.051270,4319.615234,4325.641113,4321.282227,4347.436035,4328.461426,4313.461426,4456.025879,4470.256348,4355.256348,4404.230957,0.000000,0.000000,11.000000,,,,0.000000,2.000000,2.000000,0.000000,2.000000,2.000000,2.000000,1.000000,2.000000,4.000000,4.000000,4.000000,4.000000,2.000000,4.000000,25.000000,,,,,,,,,,,,,,,,,,,,,,,,,,,,
1732082026.440464,1732082026.441781,27.000000,0.000000,4348.846191,4303.589844,4322.948730,4336.153809,4310.641113,4325.512695,4320.384766,4350.000000,4333.077148,4317.948730,4450.384766,4458.846191,4353.077148,4405.256348,0.000000,0.000000,11.000000,,,,0.000000,2.000000,2.000000,0.000000,2.000000,2.000000,2.000000,1.000000,2.000000,4.000000,4.000000,4.000000,4.000000,2.000000,4.000000,25.000000,,,,,,,,,,,,,,,,,,,,,,,,,,,,
1732082026.448272,1732082026.449490,28.000000,0.000000,4352.051270,4301.153809,4323.846191,4334.358887,4318.461426,4318.333496,4317.179688,4348.461426,4338.589844,4320.256348,4447.692383,4457.563965,4358.589844,4404.871582,0.000000,0.000000,11.000000,,,,0.000000,2.000000,2.000000,0.000000,2.000000,2.000000,2.000000,1.000000,2.000000,4.000000,4.000000,4.000000,4.000000,2.000000,4.000000,25.000000,,,,,,,,,,,,,,,,,7.000000,0.000000,0.623694,0.404907,-0.596130,0.302795,0.944451,0.126480,-0.030765,-75.451149,65.002388,28.269505
1732082026.456081,1732082026.457298,29.000000,0.000000,4351.666504,4298.333496,4325.384766,4331.794922,4319.358887,4315.769043,4315.641113,4349.358887,4337.436035,4322.820313,4453.333496,4471.282227,4361.025879,4407.051270,0.000000,0.000000,11.000000,,,,0.000000,2.000000,2.000000,0.000000,2.000000,2.000000,2.000000,1.000000,2.000000,4.000000,4.000000,4.000000,4.000000,2.000000,4.000000,25.000000,,,,,,,,,,,,,,,,,,,,,,,,,,,,
1732082026.463889,1732082026.464906,30.000000,0.000000,4352.307617,4301.153809,4324.358887,4333.717773,4318.461426,4321.153809,4315.641113,4344.615234,4331.282227,4321.410156,4450.897461,4471.794922,4357.692383,4406.666504,0.000000,0.000000,11.000000,,,,0.000000,2.000000,2.000000,0.000000,2.000000,2.000000,2.000000,1.000000,2.000000,4.000000,4.000000,4.000000,4.000000,2.000000,4.000000,25.000000,,,,,,,,,,,,,,,,,,,,,,,,,,,,
1732082026.471697,1732082026.472714,31.000000,0.000000,4356.282227,4302.051270,4323.717773,4335.769043,4325.769043,4324.743652,4320.256348,4336.153809,4327.820313,4316.410156,4443.717773,4456.922852,4357.563965,4401.666504,0.000000,0.000000,11.000000,,,,0.000000,2.000000,2.000000,0.000000,2.000000,2.000000,2.000000,1.000000,2.000000,4.000000,4.000000,4.000000,4.000000,2.000000,4.000000,25.000000,,,,,,,,,,,,,,,,,,,,,,,,,,,,
1732082026.479505,1732082026.480423,32.000000,0.000000,4349.615234,4298.077148,4323.333496,4331.922852,4326.282227,4322.563965,4322.563965,4343.461426,4333.846191,4314.615234,4444.487305,4456.025879,4355.000000,4396.794922,0.000000,0.000000,11.000000,,,,0.000000,2.000000,2.000000,0.000000,2.000000,2.000000,2.000000,1.000000,2.000000,4.000000,4.000000,4.000000,4.000000,2.000000,4.000000,25.000000,,,,,,,,,,,,,,,,,8.000000,0.000000,0.623393,0.404297,-0.597168,0.302185,0.979123,0.153339,-0.074228,-75.635429,64.955269,28.411633
1732082026.487314,1732082026.488231,33.000000,0.000000,4344.102539,4300.256348,4324.743652,4327.948730,4321.282227,4319.871582,4319.230957,4351.282227,4335.512695,4315.000000,4446.922852,4465.769043,4348.205078,4394.487305,0.000000,0.000000,11.000000,,,,0.000000,2.000000,2.000000,0.000000,2.000000,2.000000,2.000000,1.000000,2.000000,4.000000,4.000000,4.000000,4.000000,2.000000,4.000000,25.000000,,,,,,,,,,,,,,,,,,,,,,,,,,,,
1732082026.495122,1732082026.495839,34.000000,0.000000,4353.461426,4306.666504,4327.692383,4330.641113,4314.615234,4318.333496,4317.563965,4343.846191,4327.051270,4313.461426,4445.384766,4472.436035,4353.333496,4397.307617,0.000000,0.000000,11.000000,,,,0.000000,2.000000,2.000000,0.000000,2.000000,2.000000,2.000000,1.000000,2.000000,4.000000,4.000000,4.000000,4.000000,2.000000,4.000000,25.000000,,,,,,,,,,,,,,,,,,,,,,,,,,,,
1732082026.502930,1732082026.503648,35.000000,0.000000,4358.974121,4310.128418,4329.743652,4335.897461,4305.769043,4317.436035,4318.589844,4340.641113,4326.282227,4313.205078,4448.846191,4476.410156,4365.128418,4401.666504,0.000000,0.000000,11.000000,,,,0.000000,2.000000,2.000000,0.000000,2.000000,2.000000,2.000000,1.000000,2.000000,4.000000,4.000000,4.000000,4.000000,2.000000,4.000000,25.000000,,,,,,,,,,,,,,,,,,,,,,,,,,,,
1732082026.510738,1732082026.511556,36.000000,0.000000,4349.487305,4307.179688,4327.820313,4331.282227,4316.794922,4315.384766,4316.794922,4342.179688,4330.256348,4315.769043,4453.974121,4470.128418,4362.436035,4399.871582,0.000000,0.000000,11.000000,,,,0.000000,2.000000,2.000000,0.000000,2.000000,2.000000,2.000000,1.000000,2.000000,4.000000,4.000000,4.000000,4.000000,2.000000,4.000000,25.000000,,,,,,,,,,,,,,,,,9.000000,0.000000,0.621234,0.401917,-0.601196,0.301819,0.971310,0.138200,-0.074716,-75.541367,64.782097,28.250088
1732082026.518547,1732082026.519364,37.000000,0.000000,4342.307617,4304.487305,4324.487305,4325.000000,4328.589844,4317.436035,4315.897461,4342.692383,4331.282227,4319.358887,4449.102539,4464.615234,4354.871582,4396.410156,0.000000,0.000000,11.000000,,,,0.000000,2.000000,2.000000,0.000000,2.000000,2.000000,2.000000,1.000000,2.000000,4.000000,4.000000,4.000000,4.000000,2.000000,4.000000,25.000000,,,,,,,,,,,,,,,,,,,,,,,,,,,,
1732082026.526355,1732082026.526972,38.000000,0.000000,4345.384766,4305.512695,4325.384766,4329.871582,4315.512695,4320.769043,4320.256348,4345.641113,4336.794922,4323.717773,4441.153809,4467.436035,4355.256348,4396.794922,0.000000,0.000000,11.000000,,,,0.000000,2.000000,2.000000,0.000000,2.000000,2.000000,2.000000,1.000000,2.000000,4.000000,4.000000,4.000000,4.000000,2.000000,4.000000,25.000000,,,,,,,,,,,,,,,,,,,,,,,,,,,,
1732082026.534163,1732082026.534781,39.000000,0.000000,4348.205078,4308.077148,4327.436035,4336.538574,4305.384766,4318.589844,4319.871582,4346.282227,4341.666504,4329.102539,4449.743652,4466.666504,4359.871582,4399.871582,0.000000,0.000000,11.000000,,,,0.000000,2.000000,2.000000,0.000000,2.000000,2.000000,2.000000,1.000000,2.000000,4.000000,4.000000,4.000000,4.000000,2.000000,4.000000,25.000000,,,,,,,,,,,,,,,,,,,,,,,,,,,,
1732082026.541972,1732082026.542489,40.000000,0.000000,4348.077148,4308.205078,4326.410156,4332.436035,4313.846191,4315.897461,4315.256348,4335.897461,4336.410156,4331.666504,4463.333496,4468.589844,4367.436035,4402.692383,0.000000,0.000000,11.000000,,,,0.000000,2.000000,2.000000,0.000000,2.000000,2.000000,2.000000,1.000000,2.000000,4.000000,4.000000,4.000000,4.000000,2.000000,4.000000,25.000000,,,,,,,,,,,,,,,,,10.000000,0.000000,0.620404,0.401367,-0.601990,0.302673,0.971310,0.138200,-0.074716,-75.541840,64.641830,27.944239
1732082026.549780,1732082026.550297,41.000000,0.000000,4350.256348,4309.102539,4326.153809,4330.000000,4318.717773,4315.512695,4312.820313,4331.282227,4332.051270,4328.589844,4458.846191,4475.512695,4367.051270,4403.974121,0.000000,0.000000,11.000000,,,,0.000000,2.000000,2.000000,0.000000,2.000000,2.000000,2.000000,1.000000,2.000000,4.000000,4.000000,4.000000,4.000000,2.000000,4.000000,25.000000,,,,,,,,,,,,,,,,,,,,,,,,,,,,
1732082026.557588,1732082026.558305,42.000000,0.000000,4350.641113,4311.538574,4328.717773,4334.358887,4318.333496,4318.077148,4319.102539,4339.102539,4331.666504,4320.384766,4447.948730,4477.948730,4356.666504,4400.512695,0.000000,0.000000,11.000000,,,,0.000000,2.000000,2.000000,0.000000,2.000000,2.000000,2.000000,1.000000,2.000000,4.000000,4.000000,4.000000,4.000000,2.000000,4.000000,25.000000,,,,,,,,,,,,,,,,,,,,,,,,,,,,
1732082026.565396,1732082026.566113,43.000000,0.000000,4346.666504,4310.000000,4328.077148,4334.358887,4322.051270,4319.871582,4322.563965,4342.948730,4330.000000,4316.666504,4448.974121,4476.410156,4354.871582,4398.205078,0.000000,0.000000,11.000000,,,,0.000000,2.000000,2.000000,0.000000,2.000000,2.000000,2.000000,1.000000,2.000000,4.000000,4.000000,4.000000,4.000000,2.000000,4.000000,25.000000,,,,,,,,,,,,,,,,,,,,,,,,,,,,
1732082026.573205,1732082026.574021,44.000000,0.000000,4342.307617,4307.051270,4325.256348,4330.769043,4321.922852,4315.256348,4318.589844,4341.922852,4331.153809,4316.922852,4452.692383,4476.538574,4360.512695,4399.743652,0.000000,0.000000,11.000000,,,,0.000000,2.000000,2.000000,0.000000,2.000000,2.000000,2.000000,1.000000,2.000000,4.000000,4.000000,4.000000,4.000000,2.000000,4.000000,25.000000,,,,,,,,,,,,,,,,,11.000000,0.000000,0.618163,0.399292,-0.603821,0.306335,0.961055,0.122574,-0.058601,-75.628891,64.519882,27.574833
1732082026.581013,1732082026.581830,45.000000,0.000000,4342.820313,4308.205078,4324.743652,4330.641113,4318.333496,4310.384766,4314.358887,4340.384766,4332.820313,4313.974121,4451.666504,4474.487305,4358.589844,4398.974121,0.000000,0.000000,11.000000,,,,0.000000,2.000000,2.000000,0.000000,2.000000,2.000000,2.000000,1.000000,2.000000,4.000000,4.000000,4.000000,4.000000,2.000000,4.000000,25.000000,,,,,,,,,,,,,,,,,,,,,,,,,,,,
1732082026.588821,1732082026.589838,46.000000,0.000000,4347.179688,4308.333496,4328.205078,4334.102539,4316.153809,4312.179688,4317.179688,4338.077148,4330.512695,4313.589844,4450.641113,4473.974121,4356.025879,4398.333496,0.000000,0.000000,11.000000,,,,0.000000,2.000000,2.000000,0.000000,2.000000,2.000000,2.000000,1.000000,2.000000,4.000000,4.000000,4.000000,4.000000,2.000000,4.000000,25.000000,,,,,,,,,,,,,,,,,,,,,,,,,,,,
1732082026.596629,1732082026.597646,47.000000,0.000000,4350.769043,4310.128418,4330.641113,4336.666504,4326.922852,4313.974121,4317.307617,4337.307617,4329.487305,4313.333496,4447.948730,4473.461426,4355.769043,4398.077148,0.000000,0.000000,11.000000,,,,0.000000,2.000000,2.000000,0.000000,2.000000,2.000000,2.000000,1.000000,2.000000,4.000000,4.000000,4.000000,4.000000,2.000000,4.000000,25.000000,,,,,,,,,,,,,,,,,,,,,,,,,,,,
1732082026.604437,1732082026.605554,48.000000,0.000000,4346.153809,4312.692383,4330.256348,4334.743652,4333.717773,4310.384766,4314.487305,4338.974121,4330.641113,4307.563965,4443.077148,4470.512695,4351.922852,4393.461426,0.000000,0.000000,11.000000,,,,0.000000,2.000000,2.000000,0.000000,2.000000,2.000000,2.000000,1.000000,2.000000,4.000000,4.000000,4.000000,4.000000,2.000000,4.000000,25.000000,,,,,,,,,,,,,,,,,12.000000,0.000000,0.616572,0.397949,-0.604370,0.310181,0.955195,0.094738,-0.042486,-75.676071,64.222771,27.468948
1732082026.612246,1732082026.613362,49.000000,0.000000,4341.538574,4311.410156,4326.538574,4331.922852,4316.538574,4311.794922,4317.820313,4341.538574,4334.358887,4310.000000,4444.615234,4474.230957,4352.692383,4392.692383,0.000000,0.000000,11.000000,,,,0.000000,2.000000,2.000000,0.000000,2.000000,2.000000,2.000000,1.000000,2.000000,4.000000,4.000000,4.000000,4.000000,2.000000,4.000000,25.000000,,,,,,,,,,,,,,,,,,,,,,,,,,,,
1732082026.620054,1732082026.621370,50.000000,0.000000,4344.615234,4310.384766,4327.307617,4335.384766,4310.128418,4318.974121,4322.307617,4342.179688,4339.743652,4317.051270,4449.743652,4475.641113,4356.922852,4396.153809,0.000000,0.000000,11.000000,,,,0.000000,2.000000,2.000000,0.000000,2.000000,2.000000,2.000000,1.000000,2.000000,4.000000,4.000000,4.000000,4.000000,2.000000,4.000000,25.000000,,,,,,,,,,,,,,,,,,,,,,,,,,,,
1732082026.627862,1732082026.629178,51.000000,0.000000,4346.410156,4311.410156,4331.410156,4340.256348,4321.410156,4321.410156,4320.384766,4341.666504,4335.000000,4313.077148,4444.615234,4472.692383,4351.538574,4390.769043,0.000000,0.000000,11.000000,,,,0.000000,2.000000,2.000000,0.000000,2.000000,2.000000,2.000000,1.000000,2.000000,4.000000,4.000000,4.000000,4.000000,2.000000,4.000000,25.000000,,,,,,,,,,,,,,,,,,,,,,,,,,,,
1732082026.635671,1732082026.637086,52.000000,0.000000,4345.384766,4311.410156,4330.384766,4337.436035,4319.615234,4318.333496,4317.436035,4339.615234,4325.512695,4306.922852,4440.384766,4472.307617,4347.948730,4385.128418,0.000000,0.000000,11.000000,,,,0.000000,2.000000,2.000000,0.000000,2.000000,2.000000,2.000000,1.000000,2.000000,4.000000,4.000000,4.000000,4.000000,2.000000,4.000000,25.000000,,,,,,,,,,,,,,,,,13.000000,0.000000,0.616410,0.397705,-0.603943,0.311646,0.974728,0.090343,-0.053229,-75.580948,63.932114,27.174849
1732082026.643479,1732082026.644895,53.000000,0.000000,4345.128418,4308.205078,4328.589844,4330.897461,4321.282227,4315.128418,4318.589844,4337.692383,4326.282227,4304.615234,4443.974121,4472.307617,4351.282227,4390.769043,0.000000,0.000000,11.000000,,,,0.000000,2.000000,2.000000,0.000000,2.000000,2.000000,2.000000,1.000000,2.000000,4.000000,4.000000,4.000000,4.000000,2.000000,4.000000,25.000000,,,,,,,,,,,,,,,,,,,,,,,,,,,,
1732082026.651287,1732082026.652903,54.000000,0.000000,4345.384766,4307.179688,4329.615234,4332.692383,4328.205078,4315.000000,4320.641113,4341.153809,4331.538574,4301.794922,4444.871582,4473.846191,4350.384766,4395.897461,0.000000,0.000000,11.000000,,,,0.000000,2.000000,2.000000,0.000000,2.000000,2.000000,2.000000,1.000000,2.000000,4.000000,4.000000,4.000000,4.000000,2.000000,4.000000,25.000000,,,,,,,,,,,,,,,,,,,,,,,,,,,,
1732082026.659095,1732082026.660711,55.000000,0.000000,4343.846191,4309.615234,4331.153809,4338.205078,4314.358887,4317.948730,4322.051270,4347.179688,4328.461426,4306.282227,4444.358887,4477.436035,4350.128418,4395.641113,0.000000,0.000000,11.000000,,,,0.000000,2.000000,2.000000,0.000000,2.000000,2.000000,2.000000,1.000000,2.000000,4.000000,4.000000,4.000000,4.000000,2.000000,4.000000,25.000000,,,,,,,,,,,,,,,,,,,,,,,,,,,,
1732082026.666904,1732082026.668619,56.000000,0.000000,4340.256348,4309.487305,4330.897461,4333.589844,4305.769043,4316.538574,4320.641113,4347.436035,4329.487305,4313.461426,4449.358887,4476.666504,4355.000000,4397.692383,0.000000,0.000000,11.000000,,,,0.000000,2.000000,2.000000,0.000000,2.000000,2.000000,2.000000,1.000000,2.000000,4.000000,4.000000,4.000000,4.000000,2.000000,4.000000,25.000000,,,,,,,,,,,,,,,,,14.000000,0.000000,0.616285,0.397461,-0.603821,0.312439,0.977658,0.087901,-0.048834,-75.787231,63.755013,26.983294
1732082026.674712,1732082026.676427,57.000000,0.000000,4337.051270,4308.846191,4331.025879,4327.820313,4318.717773,4311.922852,4319.487305,4344.743652,4337.948730,4313.846191,4450.641113,4472.948730,4352.820313,4399.102539,0.000000,0.000000,11.000000,,,,0.000000,2.000000,2.000000,0.000000,2.000000,2.000000,2.000000,1.000000,2.000000,4.000000,4.000000,4.000000,4.000000,2.000000,4.000000,25.000000,,,,,,,,,,,,,,,,,,,,,,,,,,,,
1732082026.682520,1732082026.684435,58.000000,0.000000,4337.436035,4308.974121,4331.025879,4330.897461,4313.461426,4313.589844,4317.563965,4345.128418,4339.487305,4314.487305,4444.615234,4476.025879,4347.307617,4398.461426,0.000000,0.000000,11.000000,,,,0.000000,2.000000,2.000000,0.000000,2.000000,2.000000,2.000000,1.000000,2.000000,4.000000,4.000000,4.000000,4.000000,2.000000,4.000000,25.000000,,,,,,,,,,,,,,,,,,,,,,,,,,,,
1732082026.690328,1732082026.692243,59.000000,0.000000,4339.487305,4309.615234,4330.641113,4333.461426,4307.692383,4317.307617,4316.922852,4344.102539,4335.769043,4315.897461,4443.717773,4476.025879,4351.282227,4398.077148,0.000000,0.000000,11.000000,,,,0.000000,2.000000,2.000000,0.000000,2.000000,2.000000,2.000000,1.000000,2.000000,4.000000,4.000000,4.000000,4.000000,2.000000,4.000000,25.000000,,,,,,,,,,,,,,,,,,,,,,,,,,,,
1732082026.698137,1732082026.700151,60.000000,0.000000,4337.179688,4307.692383,4327.436035,4331.922852,4330.769043,4318.077148,4315.769043,4341.410156,4334.487305,4314.871582,4445.384766,4466.922852,4351.282227,4396.410156,0.000000,0.000000,11.000000,,,,0.000000,2.000000,2.000000,0.000000,2.000000,2.000000,2.000000,1.000000,2.000000,4.000000,4.000000,4.000000,4.000000,2.000000,4.000000,25.000000,,,,,,,,,,,,,,,,,15.000000,0.000000,0.615890,0.396729,-0.603882,0.314026,0.992797,0.082041,-0.053229,-75.965996,63.558228,26.986467
1732082026.705945,1732082026.707960,61.000000,0.000000,4334.230957,4307.051270,4324.743652,4330.897461,4335.000000,4321.410156,4317.948730,4341.794922,4335.897461,4317.692383,4444.871582,4465.641113,4342.820313,4394.102539,0.000000,0.000000,11.000000,,,,0.000000,2.000000,2.000000,0.000000,2.000000,2.000000,2.000000,1.000000,2.000000,4.000000,4.000000,4.000000,4.000000,2.000000,4.000000,25.000000,,,,,,,,,,,,,,,,,,,,,,,,,,,,
1732082026.713753,1732082026.715568,62.000000,0.000000,4337.179688,4308.077148,4325.000000,4331.922852,4313.589844,4322.307617,4319.102539,4341.025879,4334.487305,4321.410156,4443.077148,4471.025879,4344.358887,4395.384766,0.000000,0.000000,11.000000,,,,0.000000,2.000000,2.000000,0.000000,2.000000,2.000000,2.000000,1.000000,2.000000,4.000000,4.000000,4.000000,4.000000,2.000000,4.000000,25.000000,,,,,,,,,,,,,,,,,,,,,,,,,,,,
1732082026.721562,1732082026.723376,63.000000,0.000000,4337.563965,4304.871582,4326.922852,4331.153809,4313.077148,4317.307617,4318.333496,4342.307617,4333.589844,4319.230957,4439.871582,4476.666504,4350.000000,4397.179688,0.000000,0.000000,11.000000,,,,0.000000,2.000000,2.000000,0.000000,2.000000,2.000000,2.000000,1.000000,2.000000,4.000000,4.000000,4.000000,4.000000,2.000000,4.000000,25.000000,,,,,,,,,,,,,,,,,,,,,,,,,,,,
1732082026.729370,1732082026.731085,64.000000,0.000000,4330.641113,4303.589844,4326.794922,4331.025879,4324.743652,4317.692383,4319.102539,4347.948730,4339.230957,4320.641113,4440.000000,4486.666504,4342.179688,4395.512695,0.000000,0.000000,11.000000,,,,0.000000,2.000000,2.000000,0.000000,2.000000,2.000000,2.000000,1.000000,2.000000,4.000000,4.000000,4.000000,4.000000,2.000000,4.000000,25.000000,,,,,,,,,,,,,,,,,16.000000,0.000000,0.615322,0.393555,-0.605103,0.316772,0.975217,0.070321,-0.029300,-76.052452,63.393829,27.292372
1732082026.737178,1732082026.738893,65.000000,0.000000,4332.179688,4306.922852,4328.333496,4332.051270,4328.077148,4316.282227,4319.230957,4345.384766,4338.846191,4323.717773,4443.205078,4493.846191,4339.487305,4396.410156,1290.000000,0.000000,11.000000,,,,0.000000,2.000000,2.000000,0.000000,2.000000,2.000000,2.000000,1.000000,2.000000,4.000000,4.000000,4.000000,4.000000,2.000000,4.000000,25.000000,,,,,,,,,,,,,,,,,,,,,,,,,,,,
1732082026.744986,1732082026.746501,66.000000,0.000000,4339.615234,4309.230957,4328.589844,4332.692383,4328.461426,4310.128418,4315.384766,4338.846191,4331.922852,4318.461426,4444.230957,4490.256348,4347.820313,4399.230957,1207.000000,0.000000,11.000000,,,,0.000000,2.000000,2.000000,0.000000,2.000000,2.000000,2.000000,1.000000,2.000000,4.000000,4.000000,4.000000,4.000000,2.000000,4.000000,25.000000,,,,,,,,,,,,,,,,,,,,,,,,,,,,
1732082026.752795,1732082026.754309,67.000000,0.000000,4336.153809,4307.179688,4327.179688,4330.641113,4320.897461,4309.230957,4311.025879,4339.743652,4330.000000,4315.641113,4443.589844,4487.948730,4347.436035,4397.436035,1162.000000,0.000000,11.000000,,,,0.000000,2.000000,2.000000,0.000000,2.000000,2.000000,2.000000,1.000000,2.000000,4.000000,4.000000,4.000000,4.000000,2.000000,4.000000,25.000000,,,,,,,,,,,,,,,,,,,,,,,,,,,,
1732082026.760603,1732082026.762018,68.000000,0.000000,4330.769043,4307.820313,4325.641113,4329.102539,4309.487305,4313.589844,4313.333496,4341.025879,4332.948730,4319.102539,4446.282227,4492.307617,4345.000000,4397.948730,1197.000000,0.000000,11.000000,,,,0.000000,2.000000,2.000000,0.000000,2.000000,2.000000,2.000000,1.000000,2.000000,4.000000,4.000000,4.000000,4.000000,2.000000,4.000000,25.000000,,,,,,,,,,,,,,,,,17.000000,0.000000,0.615245,0.392761,-0.605408,0.317322,0.988402,0.074716,-0.036137,-76.195824,63.284000,27.371822
1732082026.768411,1732082026.769826,69.000000,0.000000,4333.333496,4311.794922,4327.820313,4332.436035,4318.589844,4318.077148,4315.769043,4337.179688,4332.820313,4318.461426,4445.769043,4488.333496,4348.333496,4396.922852,1067.000000,0.000000,11.000000,,,,0.000000,2.000000,2.000000,0.000000,2.000000,2.000000,2.000000,1.000000,2.000000,4.000000,4.000000,4.000000,4.000000,2.000000,4.000000,25.000000,,,,,,,,,,,,,,,,,,,,,,,,,,,,
1732082026.776219,1732082026.777434,70.000000,0.000000,4333.333496,4310.641113,4329.102539,4331.025879,4335.769043,4318.846191,4314.871582,4333.974121,4329.615234,4311.153809,4438.717773,4479.102539,4345.000000,4387.307617,195.000000,0.000000,11.000000,,,,0.000000,2.000000,2.000000,0.000000,2.000000,2.000000,2.000000,0.000000,2.000000,4.000000,4.000000,4.000000,4.000000,2.000000,4.000000,16.666666,,,,,,,,,,,,,,,,,,,,,,,,,,,,
1732082026.784027,1732082026.785243,71.000000,0.000000,4329.743652,4305.897461,4324.615234,4324.871582,4333.205078,4318.589844,4315.641113,4333.974121,4327.948730,4309.102539,4437.307617,4475.384766,4339.871582,4381.538574,1190.000000,0.000000,11.000000,,,,0.000000,2.000000,2.000000,0.000000,2.000000,2.000000,2.000000,0.000000,2.000000,4.000000,4.000000,4.000000,4.000000,2.000000,4.000000,16.666666,,,,,,,,,,,,,,,,,,,,,,,,,,,,
1732082026.791836,1732082026.793151,72.000000,0.000000,4327.948730,4303.846191,4323.717773,4326.282227,4321.410156,4321.025879,4318.846191,4339.615234,4330.128418,4312.179688,4441.282227,4477.948730,4341.538574,4385.256348,1341.000000,0.000000,11.000000,,,,0.000000,2.000000,2.000000,0.000000,2.000000,2.000000,2.000000,0.000000,2.000000,4.000000,4.000000,4.000000,4.000000,2.000000,4.000000,16.666666,,,,,,,,,,,,,,,,,18.000000,0.000000,0.615158,0.391357,-0.605957,0.318176,0.973752,0.074228,-0.028324,-76.031952,63.071709,27.617842
1732082026.799644,1732082026.800959,73.000000,0.000000,4326.153809,4306.153809,4328.205078,4330.384766,4320.897461,4318.846191,4317.179688,4344.102539,4333.333496,4312.179688,4440.897461,4475.897461,4341.410156,4386.025879,1469.000000,0.000000,11.000000,,,,0.000000,2.000000,2.000000,0.000000,2.000000,2.000000,2.000000,0.000000,2.000000,4.000000,4.000000,4.000000,4.000000,2.000000,4.000000,16.666666,,,,,,,,,,,,,,,,,,,,,,,,,,,,
1732082026.807452,1732082026.808567,74.000000,0.000000,4321.538574,4307.692383,4329.358887,4327.307617,4329.487305,4312.051270,4316.794922,4340.769043,4331.153809,4313.077148,4440.384766,4473.205078,4341.410156,4386.410156,1357.000000,0.000000,11.000000,,,,0.000000,2.000000,2.000000,0.000000,2.000000,2.000000,2.000000,0.000000,2.000000,4.000000,4.000000,4.000000,4.000000,2.000000,4.000000,16.666666,,,,,,,,,,,,,,,,,,,,,,,,,,,,
1732082026.815261,1732082026.816376,75.000000,0.000000,4320.512695,4306.538574,4325.641113,4325.897461,4323.717773,4311.922852,4319.487305,4339.102539,4331.025879,4317.307617,4444.871582,4482.948730,4348.205078,4391.922852,1487.000000,0.000000,11.000000,,,,0.000000,2.000000,2.000000,0.000000,2.000000,2.000000,2.000000,0.000000,2.000000,4.000000,4.000000,4.000000,4.000000,2.000000,4.000000,16.666666,,,,,,,,,,,,,,,,,,,,,,,,,,,,
1732082026.823069,1732082026.824084,76.000000,0.000000,4325.897461,4306.025879,4327.179688,4330.512695,4316.153809,4315.256348,4318.077148,4342.051270,4336.666504,4319.358887,4445.128418,4491.410156,4349.743652,4392.179688,1718.000000,0.000000,11.000000,,,,0.000000,2.000000,2.000000,0.000000,2.000000,2.000000,2.000000,0.000000,2.000000,4.000000,4.000000,4.000000,4.000000,2.000000,4.000000,16.666666,,,,,,,,,,,,,,,,,19.000000,0.000000,0.615956,0.389526,-0.606262,0.318298,0.985472,0.076181,-0.023929,-76.199211,62.799751,27.667118
1732082026.830877,1732082026.831892,77.000000,0.000000,4328.205078,4307.436035,4327.179688,4329.358887,4332.051270,4311.666504,4311.666504,4341.410156,4337.436035,4318.589844,4441.153809,4488.333496,4344.358887,4387.179688,1686.000000,0.000000,11.000000,,,,0.000000,2.000000,2.000000,0.000000,2.000000,2.000000,2.000000,0.000000,2.000000,4.000000,4.000000,4.000000,4.000000,2.000000,4.000000,16.666666,,,,,,,,,,,,,,,,,,,,,,,,,,,,
1732082026.838685,1732082026.839900,78.000000,0.000000,4325.641113,4306.922852,4325.512695,4325.256348,4334.487305,4310.128418,4315.641113,4339.487305,4334.487305,4317.563965,4440.384766,4488.077148,4343.205078,4386.666504,1357.000000,0.000000,11.000000,,,,0.000000,2.000000,2.000000,0.000000,2.000000,2.000000,2.000000,0.000000,2.000000,4.000000,4.000000,4.000000,4.000000,2.000000,4.000000,16.666666,1.000000,8.333333,2.000000,1.000000,0.000000,2.000000,2.000000,2.000000,0.000000,1.000000,1.000000,4.000000,4.000000,4.000000,2.000000,4.000000,,,,,,,,,,,,
1732082026.846494,1732082026.847708,79.000000,0.000000,4324.487305,4306.282227,4325.641113,4330.128418,4320.000000,4316.922852,4322.948730,4342.179688,4333.205078,4316.282227,4440.641113,4491.282227,4347.307617,4387.563965,1487.000000,0.000000,11.000000,,,,0.000000,2.000000,2.000000,0.000000,2.000000,2.000000,2.000000,0.000000,2.000000,4.000000,4.000000,4.000000,4.000000,2.000000,4.000000,16.666666,,,,,,,,,,,,,,,,,,,,,,,,,,,,
1732082026.854302,1732082026.855616,80.000000,0.000000,4323.974121,4307.820313,4327.179688,4333.077148,4325.512695,4322.307617,4323.461426,4345.384766,4331.922852,4313.974121,4441.153809,4488.717773,4346.410156,4385.641113,1718.000000,0.000000,11.000000,,,,0.000000,2.000000,2.000000,0.000000,2.000000,2.000000,2.000000,0.000000,2.000000,4.000000,4.000000,4.000000,4.000000,2.000000,4.000000,16.666666,,,,,,,,,,,,,,,,,20.000000,0.000000,0.617167,0.389038,-0.606079,0.316895,0.970822,0.095715,-0.026370,-76.488029,62.539463,27.555367
1732082026.862110,1732082026.863425,81.000000,0.000000,4323.846191,4307.820313,4328.077148,4330.769043,4330.897461,4320.384766,4321.538574,4349.615234,4330.128418,4315.384766,4440.256348,4487.692383,4343.717773,4387.692383,1686.000000,0.000000,11.000000,,,,0.000000,2.000000,2.000000,0.000000,2.000000,2.000000,2.000000,0.000000,2.000000,4.000000,4.000000,4.000000,4.000000,2.000000,4.000000,16.666666,,,,,,,,,,,,,,,,,,,,,,,,,,,,
1732082026.869918,1732082026.871433,82.000000,0.000000,4323.333496,4306.794922,4327.692383,4329.871582,4324.743652,4318.846191,4321.794922,4351.666504,4333.461426,4315.769043,4438.461426,4492.436035,4345.000000,4390.512695,1357.000000,0.000000,11.000000,,,,0.000000,2.000000,2.000000,0.000000,2.000000,2.000000,2.000000,0.000000,2.000000,4.000000,4.000000,4.000000,4.000000,2.000000,4.000000,16.666666,,,,,,,,,,,,,,,,,,,,,,,,,,,,
1732082026.877727,1732082026.879241,83.000000,0.000000,4319.743652,4307.692383,4324.743652,4328.205078,4333.333496,4318.589844,4321.282227,4346.410156,4337.307617,4313.974121,4438.205078,4487.692383,4345.256348,4387.692383,1487.000000,0.000000,11.000000,,,,0.000000,2.000000,2.000000,0.000000,2.000000,2.000000,2.000000,0.000000,2.000000,4.000000,4.000000,4.000000,4.000000,2.000000,4.000000,16.666666,,,,,,,,,,,,,,,,,,,,,,,,,,,,
1732082026.885535,1732082026.887149,84.000000,0.000000,4314.358887,4304.230957,4326.282227,4324.102539,4336.666504,4316.666504,4318.846191,4341.794922,4333.333496,4315.384766,4437.948730,4482.051270,4343.589844,4387.692383,1718.000000,0.000000,11.000000,,,,0.000000,2.000000,2.000000,0.000000,2.000000,2.000000,2.000000,0.000000,2.000000,4.000000,4.000000,4.000000,4.000000,2.000000,4.000000,16.666666,,,,,,,,,,,,,,,,,21.000000,0.000000,0.617520,0.389160,-0.605896,0.316406,1.002075,0.096691,-0.032719,-76.648636,62.500301,27.481514
1732082026.893343,1732082026.894957,85.000000,0.000000,4315.897461,4302.436035,4328.974121,4323.077148,4316.666504,4315.512695,4318.589844,4342.820313,4328.846191,4317.563965,4440.384766,4483.205078,4346.538574,4394.102539,1686.000000,0.000000,11.000000,,,,0.000000,2.000000,2.000000,0.000000,2.000000,2.000000,2.000000,0.000000,2.000000,4.000000,4.000000,4.000000,4.000000,2.000000,4.000000,16.666666,,,,,,,,,,,,,,,,,,,,,,,,,,,,
1732082026.901152,1732082026.902566,86.000000,0.000000,4320.384766,4308.717773,4326.282227,4326.410156,4312.436035,4313.974121,4318.589844,4342.692383,4330.897461,4315.384766,4440.384766,4485.769043,4350.256348,4393.589844,1357.000000,0.000000,11.000000,,,,0.000000,2.000000,2.000000,0.000000,2.000000,2.000000,2.000000,0.000000,2.000000,4.000000,4.000000,4.000000,4.000000,2.000000,4.000000,16.666666,,,,,,,,,,,,,,,,,,,,,,,,,,,,
1732082026.908960,1732082026.910374,87.000000,0.000000,4317.948730,4308.461426,4322.948730,4326.025879,4328.333496,4314.230957,4318.461426,4342.307617,4333.589844,4314.615234,4431.922852,4482.436035,4345.000000,4384.102539,1487.000000,0.000000,11.000000,,,,0.000000,2.000000,2.000000,0.000000,2.000000,2.000000,2.000000,0.000000,2.000000,4.000000,4.000000,4.000000,4.000000,2.000000,4.000000,16.666666,,,,,,,,,,,,,,,,,,,,,,,,,,,,
1732082026.916768,1732082026.918282,88.000000,0.000000,4315.128418,4303.589844,4324.743652,4322.179688,4333.461426,4322.051270,4318.717773,4347.692383,4334.871582,4320.641113,4427.179688,4477.820313,4341.282227,4382.948730,1718.000000,0.000000,11.000000,,,,0.000000,2.000000,2.000000,0.000000,2.000000,2.000000,2.000000,0.000000,2.000000,4.000000,4.000000,4.000000,4.000000,2.000000,4.000000,16.666666,,,,,,,,,,,,,,,,,22.000000,0.000000,0.618312,0.389221,-0.605591,0.315369,0.982542,0.102063,-0.031254,-76.808731,62.648575,27.406693
1732082026.924576,1732082026.926090,89.000000,0.000000,4315.641113,4306.666504,4326.794922,4322.307617,4325.897461,4329.102539,4323.205078,4352.179688,4335.641113,4321.025879,4431.666504,4478.205078,4342.692383,4388.205078,1686.000000,0.000000,11.000000,,,,0.000000,2.000000,2.000000,0.000000,2.000000,2.000000,2.000000,0.000000,2.000000,4.000000,4.000000,4.000000,4.000000,2.000000,4.000000,16.666666,,,,,,,,,,,,,,,,,,,,,,,,,,,,
1732082026.932384,1732082026.934098,90.000000,0.000000,4315.384766,4312.307617,4326.025879,4328.974121,4330.256348,4326.153809,4322.948730,4348.461426,4331.794922,4314.615234,4432.820313,4477.948730,4342.436035,4382.179688,1357.000000,0.000000,11.000000,,,,0.000000,2.000000,2.000000,0.000000,2.000000,2.000000,2.000000,0.000000,2.000000,4.000000,4.000000,4.000000,4.000000,2.000000,4.000000,16.666666,,,,,,,,,,,,,,,,,,,,,,,,,,,,
1732082026.940193,1732082026.941906,91.000000,0.000000,4316.538574,4311.922852,4326.666504,4334.487305,4344.358887,4323.461426,4320.128418,4343.333496,4327.948730,4310.641113,4427.820313,4473.461426,4341.538574,4372.179688,1487.000000,0.000000,11.000000,,,,0.000000,2.000000,2.000000,0.000000,2.000000,2.000000,2.000000,0.000000,2.000000,4.000000,4.000000,4.000000,4.000000,2.000000,4.000000,16.666666,,,,,,,,,,,,,,,,,,,,,,,,,,,,
1732082026.948001,1732082026.949814,92.000000,0.000000,4319.743652,4311.666504,4327.179688,4332.051270,4338.974121,4324.615234,4318.974121,4342.307617,4330.769043,4310.256348,4424.102539,4472.051270,4341.538574,4373.846191,1718.000000,0.000000,11.000000,,,,0.000000,2.000000,2.000000,0.000000,2.000000,2.000000,2.000000,0.000000,2.000000,4.000000,4.000000,4.000000,4.000000,2.000000,4.000000,16.666666,,,,,,,,,,,,,,,,,23.000000,0.000000,0.619052,0.389832,-0.604980,0.314331,0.990355,0.113783,-0.043951,-76.988403,62.902012,27.512754
1732082026.955809,1732082026.957623,93.000000,0.000000,4316.794922,4312.948730,4326.153809,4330.000000,4318.717773,4322.692383,4316.794922,4343.333496,4332.307617,4312.563965,4423.974121,4473.589844,4340.897461,4378.077148,1686.000000,0.000000,11.000000,,,,0.000000,2.000000,2.000000,0.000000,2.000000,2.000000,2.000000,0.000000,2.000000,4.000000,4.000000,4.000000,4.000000,2.000000,4.000000,16.666666,,,,,,,,,,,,,,,,,,,,,,,,,,,,
1732082026.963617,1732082026.965631,94.000000,0.000000,4312.820313,4312.563965,4323.589844,4332.307617,4320.000000,4321.410156,4314.615234,4342.563965,4327.948730,4312.563965,4427.820313,4470.641113,4343.589844,4373.974121,1357.000000,0.000000,11.000000,,,,0.000000,2.000000,2.000000,0.000000,2.000000,2.000000,2.000000,0.000000,2.000000,4.000000,4.000000,4.000000,4.000000,2.000000,4.000000,16.666666,,,,,,,,,,,,,,,,,,,,,,,,,,,,
1732082026.971426,1732082026.973439,95.000000,0.000000,4313.589844,4310.000000,4324.871582,4328.717773,4339.743652,4320.897461,4317.179688,4340.897461,4325.000000,4306.153809,4426.794922,4469.358887,4338.974121,4368.974121,1487.000000,0.000000,11.000000,,,,0.000000,2.000000,2.000000,0.000000,2.000000,2.000000,2.000000,0.000000,2.000000,4.000000,4.000000,4.000000,4.000000,2.000000,4.000000,16.666666,,,,,,,,,,,,,,,,,,,,,,,,,,,,
1732082026.979234,1732082026.981347,96.000000,0.000000,4310.256348,4308.333496,4324.358887,4324.743652,4341.153809,4321.410156,4318.461426,4344.615234,4329.743652,4305.128418,4421.666504,4470.384766,4330.384766,4370.256348,1718.000000,0.000000,11.000000,,,,0.000000,2.000000,2.000000,0.000000,2.000000,2.000000,2.000000,0.000000,2.000000,4.000000,4.000000,4.000000,4.000000,2.000000,4.000000,16.666666,,,,,,,,,,,,,,,,,24.000000,0.000000,0.619014,0.389893,-0.604980,0.314331,0.990355,0.113783,-0.043951,-76.978943,62.710632,27.808664
1732082026.987042,1732082026.989155,97.000000,0.000000,4308.717773,4309.230957,4323.461426,4327.307617,4327.436035,4326.153809,4319.102539,4351.666504,4331.538574,4312.948730,4424.871582,4470.000000,4337.051270,4378.205078,1686.000000,0.000000,11.000000,,,,0.000000,2.000000,2.000000,0.000000,2.000000,2.000000,2.000000,0.000000,2.000000,4.000000,4.000000,4.000000,4.000000,2.000000,4.000000,16.666666,,,,,,,,,,,,,,,,,,,,,,,,,,,,
1732082026.994851,1732082026.996764,98.000000,0.000000,4313.717773,4310.769043,4324.487305,4332.436035,4322.307617,4330.128418,4324.487305,4350.128418,4328.077148,4316.538574,4431.410156,4475.256348,4346.538574,4383.333496,1357.000000,0.000000,11.000000,,,,0.000000,2.000000,2.000000,0.000000,2.000000,2.000000,2.000000,0.000000,2.000000,4.000000,4.000000,4.000000,4.000000,2.000000,4.000000,16.666666,,,,,,,,,,,,,,,,,,,,,,,,,,,,
1732082027.002659,1732082027.004572,99.000000,0.000000,4316.282227,4312.051270,4326.794922,4331.922852,4335.000000,4321.922852,4325.769043,4342.563965,4327.179688,4314.230957,4431.153809,4478.077148,4343.717773,4381.666504,1487.000000,0.000000,11.000000,,,,0.000000,2.000000,2.000000,0.000000,2.000000,2.000000,2.000000,0.000000,2.000000,4.000000,4.000000,4.000000,4.000000,2.000000,4.000000,16.666666,,,,,,,,,,,,,,,,,,,,,,,,,,,,
1732082027.010467,1732082027.012480,100.000000,0.000000,4311.794922,4310.897461,4325.384766,4329.230957,4345.000000,4313.205078,4319.871582,4343.205078,4327.820313,4311.666504,4428.589844,4473.333496,4339.615234,4379.102539,1718.000000,0.000000,11.000000,,,,0.000000,2.000000,2.000000,0.000000,2.000000,2.000000,2.000000,0.000000,2.000000,4.000000,4.000000,4.000000,4.000000,2.000000,4.000000,16.666666,,,,,,,,,,,,,,,,,25.000000,0.000000,0.619083,0.389832,-0.604980,0.314270,0.967403,0.095715,-0.039067,-76.666275,62.448944,27.908352
1732082027.018275,1732082027.020288,101.000000,0.000000,4307.051270,4307.563965,4325.000000,4332.948730,4331.794922,4318.717773,4318.077148,4349.871582,4329.615234,4312.692383,4430.512695,4474.743652,4338.333496,4379.230957,1686.000000,0.000000,11.000000,,,,0.000000,2.000000,2.000000,0.000000,2.000000,2.000000,2.000000,0.000000,2.000000,4.000000,4.000000,4.000000,4.000000,2.000000,4.000000,16.666666,,,,,,,,,,,,,,,,,,,,,,,,,,,,
1732082027.026084,1732082027.028296,102.000000,0.000000,4310.512695,4309.871582,4326.153809,4336.282227,4319.230957,4323.461426,4322.563965,4350.641113,4334.102539,4317.692383,4428.077148,4480.000000,4340.256348,4381.666504,1357.000000,0.000000,11.000000,,,,0.000000,2.000000,2.000000,0.000000,2.000000,2.000000,2.000000,0.000000,2.000000,4.000000,4.000000,4.000000,4.000000,2.000000,4.000000,16.666666,,,,,,,,,,,,,,,,,,,,,,,,,,,,
1732082027.033892,1732082027.036104,103.000000,0.000000,4312.307617,4309.743652,4327.051270,4333.205078,4324.871582,4318.589844,4321.666504,4348.333496,4335.384766,4321.666504,4424.487305,4477.307617,4346.922852,4382.692383,1487.000000,0.000000,11.000000,,,,0.000000,2.000000,2.000000,0.000000,2.000000,2.000000,2.000000,0.000000,2.000000,4.000000,4.000000,4.000000,4.000000,2.000000,4.000000,16.666666,,,,,,,,,,,,,,,,,,,,,,,,,,,,
1732082027.041700,1732082027.044012,104.000000,0.000000,4306.666504,4304.743652,4325.641113,4328.717773,4327.307617,4317.563965,4319.358887,4347.820313,4332.307617,4322.563965,4430.256348,4474.743652,4348.974121,4378.077148,1718.000000,0.000000,11.000000,,,,0.000000,2.000000,2.000000,0.000000,2.000000,2.000000,2.000000,0.000000,2.000000,4.000000,4.000000,4.000000,4.000000,2.000000,4.000000,16.666666,,,,,,,,,,,,,,,,,26.000000,0.000000,0.618691,0.389954,-0.604858,0.315125,0.983518,0.105482,-0.038091,-76.458015,62.436977,27.864098
1732082027.049508,1732082027.051821,105.000000,0.000000,4304.358887,4303.077148,4323.717773,4326.794922,4324.102539,4322.948730,4320.641113,4348.589844,4332.820313,4323.333496,4436.538574,4473.461426,4348.077148,4373.333496,1686.000000,0.000000,11.000000,,,,0.000000,2.000000,2.000000,0.000000,2.000000,2.000000,2.000000,0.000000,2.000000,4.000000,4.000000,4.000000,4.000000,2.000000,4.000000,16.666666,,,,,,,,,,,,,,,,,,,,,,,,,,,,
1732082027.057317,1732082027.059829,106.000000,0.000000,4305.897461,4304.102539,4325.512695,4322.307617,4332.436035,4321.666504,4322.179688,4350.256348,4337.820313,4323.974121,4432.692383,4471.538574,4348.461426,4374.358887,1357.000000,0.000000,11.000000,,,,0.000000,2.000000,2.000000,0.000000,2.000000,2.000000,2.000000,0.000000,2.000000,4.000000,4.000000,4.000000,4.000000,2.000000,4.000000,16.666666,,,,,,,,,,,,,,,,,,,,,,,,,,,,
1732082027.065125,1732082027.067637,107.000000,0.000000,4304.871582,4304.615234,4324.358887,4317.820313,4332.179688,4315.769043,4320.512695,4347.179688,4335.769043,4319.871582,4427.820313,4473.974121,4342.948730,4377.179688,1487.000000,0.000000,11.000000,,,,0.000000,2.000000,2.000000,0.000000,2.000000,2.000000,2.000000,0.000000,2.000000,4.000000,4.000000,4.000000,4.000000,2.000000,4.000000,16.666666,,,,,,,,,,,,,,,,,,,,,,,,,,,,
1732082027.072933,1732082027.075345,108.000000,0.000000,4303.974121,4307.563965,4321.538574,4321.794922,4314.102539,4319.358887,4323.461426,4341.410156,4329.358887,4315.256348,4430.000000,4476.025879,4340.256348,4376.410156,1718.000000,0.000000,11.000000,,,,0.000000,2.000000,2.000000,0.000000,2.000000,2.000000,2.000000,0.000000,2.000000,4.000000,4.000000,4.000000,4.000000,2.000000,4.000000,16.666666,,,,,,,,,,,,,,,,,27.000000,0.000000,0.618349,0.390381,-0.604614,0.315735,0.977658,0.090831,-0.036137,-76.294327,62.523952,28.024920
1732082027.080742,1732082027.083153,109.000000,0.000000,4306.538574,4310.897461,4321.922852,4328.974121,4316.410156,4326.538574,4322.692383,4341.538574,4328.717773,4315.128418,4430.000000,4470.512695,4341.538574,4373.717773,1686.000000,0.000000,11.000000,,,,0.000000,2.000000,2.000000,0.000000,2.000000,2.000000,2.000000,0.000000,2.000000,4.000000,4.000000,4.000000,4.000000,2.000000,4.000000,16.666666,,,,,,,,,,,,,,,,,,,,,,,,,,,,
1732082027.088550,1732082027.090762,110.000000,0.000000,4306.666504,4308.717773,4324.871582,4329.615234,4337.948730,4318.589844,4317.820313,4344.230957,4329.358887,4314.102539,4426.025879,4468.077148,4337.436035,4372.436035,1357.000000,0.000000,11.000000,,,,0.000000,2.000000,2.000000,0.000000,2.000000,2.000000,2.000000,0.000000,2.000000,4.000000,4.000000,4.000000,4.000000,2.000000,4.000000,16.666666,,,,,,,,,,,,,,,,,,,,,,,,,,,,
1732082027.096358,1732082027.098570,111.000000,0.000000,4305.897461,4306.538574,4322.051270,4324.358887,4335.897461,4310.897461,4317.563965,4342.436035,4328.717773,4313.077148,4423.205078,4473.717773,4337.179688,4372.051270,1487.000000,0.000000,11.000000,,,,0.000000,2.000000,2.000000,0.000000,2.000000,2.000000,2.000000,0.000000,2.000000,4.000000,4.000000,4.000000,4.000000,2.000000,4.000000,16.666666,,,,,,,,,,,,,,,,,,,,,,,,,,,,
1732082027.104166,1732082027.106278,112.000000,0.000000,4306.538574,4309.743652,4321.410156,4324.230957,4318.974121,4317.820313,4319.743652,4340.641113,4329.871582,4315.000000,4420.384766,4475.641113,4341.153809,4372.307617,1718.000000,0.000000,11.000000,,,,0.000000,2.000000,2.000000,0.000000,2.000000,2.000000,2.000000,0.000000,2.000000,4.000000,4.000000,4.000000,4.000000,2.000000,4.000000,16.666666,,,,,,,,,,,,,,,,,28.000000,0.000000,0.618217,0.390442,-0.604614,0.315918,0.977658,0.090831,-0.036137,-76.238403,62.424400,27.956852
1732082027.111974,1732082027.114086,113.000000,0.000000,4306.153809,4310.000000,4325.384766,4327.179688,4315.641113,4321.025879,4320.641113,4345.897461,4332.179688,4317.563965,4422.692383,4473.205078,4340.256348,4374.230957,1686.000000,0.000000,11.000000,,,,0.000000,2.000000,2.000000,0.000000,2.000000,2.000000,2.000000,0.000000,2.000000,4.000000,4.000000,4.000000,4.000000,2.000000,4.000000,16.666666,,,,,,,,,,,,,,,,,,,,,,,,,,,,
1732082027.119783,1732082027.121695,114.000000,0.000000,4303.077148,4305.512695,4325.384766,4321.025879,4323.461426,4320.384766,4322.948730,4350.128418,4333.717773,4319.487305,4421.153809,4475.512695,4337.692383,4372.692383,1357.000000,0.000000,11.000000,,,,0.000000,2.000000,2.000000,0.000000,2.000000,2.000000,2.000000,0.000000,2.000000,4.000000,4.000000,4.000000,4.000000,2.000000,4.000000,16.666666,,,,,,,,,,,,,,,,,,,,,,,,,,,,
1732082027.127591,1732082027.129503,115.000000,0.000000,4297.436035,4306.666504,4320.128418,4313.077148,4338.205078,4325.384766,4324.230957,4349.487305,4335.512695,4320.641113,4413.589844,4472.948730,4337.051270,4368.205078,1487.000000,0.000000,11.000000,,,,0.000000,2.000000,2.000000,0.000000,2.000000,2.000000,2.000000,0.000000,2.000000,4.000000,4.000000,4.000000,4.000000,2.000000,4.000000,16.666666,,,,,,,,,,,,,,,,,,,,,,,,,,,,
1732082027.135399,1732082027.137211,116.000000,0.000000,4295.384766,4309.487305,4322.179688,4316.410156,4335.384766,4326.282227,4323.974121,4348.717773,4335.769043,4319.871582,4416.282227,4465.512695,4335.769043,4366.025879,1718.000000,0.000000,11.000000,,,,0.000000,2.000000,2.000000,0.000000,2.000000,2.000000,2.000000,0.000000,2.000000,4.000000,4.000000,4.000000,4.000000,2.000000,4.000000,16.666666,,,,,,,,,,,,,,,,,29.000000,0.000000,0.617919,0.390564,-0.604553,0.316467,0.971798,0.084483,-0.027347,-76.253105,62.458767,28.158382
1732082027.143207,1732082027.145020,117.000000,0.000000,4296.922852,4303.974121,4326.794922,4323.589844,4317.563965,4323.717773,4325.641113,4350.769043,4334.487305,4318.974121,4427.692383,4466.282227,4336.153809,4368.589844,1686.000000,0.000000,11.000000,,,,0.000000,2.000000,2.000000,0.000000,2.000000,2.000000,2.000000,0.000000,2.000000,4.000000,4.000000,4.000000,4.000000,2.000000,4.000000,16.666666,,,,,,,,,,,,,,,,,,,,,,,,,,,,
1732082027.151016,1732082027.152628,118.000000,0.000000,4299.230957,4302.051270,4325.000000,4327.051270,4320.128418,4326.025879,4324.871582,4351.025879,4336.666504,4318.589844,4427.820313,4469.743652,4336.794922,4374.358887,1357.000000,0.000000,11.000000,,,,0.000000,2.000000,2.000000,0.000000,2.000000,2.000000,2.000000,0.000000,2.000000,4.000000,4.000000,4.000000,4.000000,2.000000,4.000000,16.666666,,,,,,,,,,,,,,,,,,,,,,,,,,,,
1732082027.158824,1732082027.160436,119.000000,0.000000,4299.743652,4308.589844,4323.333496,4327.179688,4332.051270,4327.436035,4323.974121,4347.179688,4336.025879,4315.384766,4417.436035,4466.538574,4332.563965,4373.077148,1487.000000,0.000000,11.000000,,,,0.000000,2.000000,2.000000,0.000000,2.000000,2.000000,2.000000,0.000000,2.000000,4.000000,4.000000,4.000000,4.000000,2.000000,4.000000,16.666666,,,,,,,,,,,,,,,,,,,,,,,,,,,,
1732082027.166632,1732082027.168344,120.000000,0.000000,4300.897461,4309.487305,4325.128418,4327.051270,4326.538574,4324.615234,4325.256348,4347.436035,4330.897461,4314.230957,4412.692383,4467.307617,4329.743652,4369.871582,1718.000000,0.000000,11.000000,,,,0.000000,2.000000,2.000000,0.000000,2.000000,2.000000,2.000000,0.000000,2.000000,4.000000,4.000000,4.000000,4.000000,2.000000,4.000000,16.666666,,,,,,,,,,,,,,,,,30.000000,0.000000,0.618023,0.390259,-0.604675,0.316406,0.976193,0.096691,-0.032719,-76.321686,62.343266,28.148291
1732082027.174441,1732082027.176153,121.000000,0.000000,4305.384766,4306.794922,4325.512695,4328.205078,4328.589844,4319.743652,4324.102539,4350.000000,4330.769043,4315.641113,4418.077148,4475.128418,4332.948730,4378.461426,1686.000000,0.000000,11.000000,,,,0.000000,2.000000,2.000000,0.000000,2.000000,2.000000,2.000000,0.000000,2.000000,4.000000,4.000000,4.000000,4.000000,2.000000,4.000000,16.666666,,,,,,,,,,,,,,,,,,,,,,,,,,,,
1732082027.182249,1732082027.184161,122.000000,0.000000,4308.333496,4309.230957,4324.743652,4330.128418,4337.563965,4316.922852,4320.512695,4349.358887,4334.487305,4317.820313,4425.512695,4479.358887,4338.846191,4386.538574,1357.000000,0.000000,11.000000,,,,0.000000,2.000000,2.000000,0.000000,2.000000,2.000000,2.000000,0.000000,2.000000,4.000000,4.000000,4.000000,4.000000,2.000000,4.000000,16.666666,,,,,,,,,,,,,,,,,,,,,,,,,,,,
1732082027.190057,1732082027.191969,123.000000,0.000000,4306.922852,4309.615234,4327.436035,4330.641113,4327.948730,4320.641113,4323.974121,4348.077148,4331.922852,4318.333496,4426.025879,4473.333496,4337.307617,4377.948730,1487.000000,0.000000,11.000000,,,,0.000000,2.000000,2.000000,0.000000,2.000000,2.000000,2.000000,0.000000,2.000000,4.000000,4.000000,4.000000,4.000000,2.000000,4.000000,16.666666,,,,,,,,,,,,,,,,,,,,,,,,,,,,
1732082027.197865,1732082027.199677,124.000000,0.000000,4306.282227,4308.589844,4326.153809,4330.384766,4319.487305,4327.179688,4325.641113,4350.256348,4328.077148,4314.615234,4422.179688,4465.512695,4332.179688,4369.102539,1718.000000,0.000000,11.000000,,,,0.000000,2.000000,2.000000,0.000000,2.000000,2.000000,2.000000,0.000000,2.000000,4.000000,4.000000,4.000000,4.000000,2.000000,4.000000,16.666666,,,,,,,,,,,,,,,,,31.000000,0.000000,0.618023,0.390259,-0.604675,0.316406,0.987914,0.095226,-0.039067,-76.587227,62.249714,28.020115
1732082027.205674,1732082027.207485,125.000000,0.000000,4302.436035,4307.948730,4322.692383,4328.589844,4328.461426,4329.743652,4325.256348,4352.563965,4334.358887,4313.205078,4418.717773,4467.948730,4332.820313,4368.974121,1686.000000,0.000000,11.000000,,,,0.000000,2.000000,2.000000,0.000000,2.000000,2.000000,2.000000,0.000000,2.000000,4.000000,4.000000,4.000000,4.000000,2.000000,4.000000,16.666666,,,,,,,,,,,,,,,,,,,,,,,,,,,,
1732082027.213482,1732082027.215094,126.000000,0.000000,4297.051270,4306.410156,4320.256348,4325.384766,4342.307617,4325.384766,4326.794922,4351.410156,4338.077148,4318.461426,4416.922852,4471.282227,4336.922852,4367.179688,1357.000000,0.000000,11.000000,,,,0.000000,2.000000,2.000000,0.000000,2.000000,2.000000,2.000000,0.000000,2.000000,4.000000,4.000000,4.000000,4.000000,2.000000,4.000000,16.666666,,,,,,,,,,,,,,,,,,,,,,,,,,,,
1732082027.221290,1732082027.222902,127.000000,0.000000,4302.179688,4307.436035,4322.820313,4323.077148,4337.051270,4321.153809,4329.358887,4350.769043,4335.000000,4322.948730,4427.820313,4469.230957,4341.538574,4370.256348,11.000000,0.000000,11.000000,,,,0.000000,2.000000,2.000000,0.000000,2.000000,2.000000,2.000000,0.000000,2.000000,4.000000,4.000000,4.000000,4.000000,2.000000,4.000000,16.666666,,,,,,,,,,,,,,,,,,,,,,,,,,,,
1732082027.229098,1732082027.230610,0.000000,0.000000,4309.871582,4310.256348,4323.717773,4326.666504,4321.794922,4324.743652,4329.743652,4351.538574,4338.461426,4324.743652,4442.436035,4473.077148,4343.974121,4379.487305,0.000000,0.000000,11.000000,,,,0.000000,2.000000,2.000000,0.000000,2.000000,2.000000,2.000000,0.000000,2.000000,4.000000,4.000000,4.000000,4.000000,2.000000,4.000000,16.666666,,,,,,,,,,,,,,,,,0.000000,0.000000,0.617615,0.390747,-0.604553,0.316833,0.966915,0.093273,-0.031742,-76.587326,62.415600,27.852961
1732082027.236907,1732082027.238418,1.000000,0.000000,4307.692383,4309.615234,4322.051270,4329.743652,4320.256348,4329.487305,4329.871582,4352.307617,4339.615234,4323.589844,4438.717773,4483.846191,4343.077148,4382.307617,1290.000000,0.000000,11.000000,,,,0.000000,2.000000,2.000000,0.000000,2.000000,2.000000,2.000000,0.000000,2.000000,4.000000,4.000000,4.000000,4.000000,2.000000,4.000000,16.666666,,,,,,,,,,,,,,,,,,,,,,,,,,,,
1732082027.244715,1732082027.246027,2.000000,0.000000,4304.358887,4307.051270,4321.666504,4328.589844,4327.948730,4326.410156,4328.974121,4349.230957,4331.666504,4318.461426,4429.615234,4484.615234,4340.128418,4378.974121,1207.000000,0.000000,11.000000,,,,0.000000,2.000000,2.000000,0.000000,2.000000,2.000000,2.000000,0.000000,2.000000,4.000000,4.000000,4.000000,4.000000,2.000000,4.000000,16.666666,,,,,,,,,,,,,,,,,,,,,,,,,,,,
1732082027.252523,1732082027.253835,3.000000,0.000000,4305.897461,4308.205078,4325.000000,4328.205078,4333.717773,4321.794922,4324.358887,4343.461426,4327.051270,4313.846191,4430.128418,4474.102539,4339.487305,4378.205078,1162.000000,0.000000,11.000000,,,,0.000000,2.000000,2.000000,0.000000,2.000000,2.000000,2.000000,0.000000,2.000000,4.000000,4.000000,4.000000,4.000000,2.000000,4.000000,16.666666,,,,,,,,,,,,,,,,,,,,,,,,,,,,
1732082027.260332,1732082027.261743,4.000000,0.000000,4306.922852,4308.461426,4326.025879,4329.487305,4332.051270,4323.205078,4321.666504,4340.384766,4329.615234,4314.102539,4431.666504,4472.307617,4341.538574,4380.769043,1204.000000,0.000000,11.000000,,,,0.000000,2.000000,2.000000,0.000000,2.000000,2.000000,2.000000,0.000000,2.000000,4.000000,4.000000,4.000000,4.000000,2.000000,4.000000,16.666666,,,,,,,,,,,,,,,,,1.000000,0.000000,0.617016,0.391541,-0.604492,0.317139,0.971310,0.095226,-0.043951,-76.465729,62.466637,27.789230
1732082027.268140,1732082027.269551,5.000000,0.000000,4306.922852,4306.410156,4324.358887,4327.563965,4319.102539,4322.051270,4322.179688,4342.179688,4330.769043,4317.179688,4430.000000,4482.692383,4343.974121,4383.205078,1067.000000,0.000000,11.000000,,,,0.000000,2.000000,2.000000,0.000000,2.000000,2.000000,2.000000,0.000000,2.000000,4.000000,4.000000,4.000000,4.000000,2.000000,4.000000,16.666666,,,,,,,,,,,,,,,,,,,,,,,,,,,,
1732082027.275948,1732082027.277559,6.000000,0.000000,4309.358887,4306.153809,4322.820313,4325.641113,4311.282227,4318.077148,4323.846191,4345.641113,4329.743652,4319.230957,4430.641113,4488.077148,4346.922852,4385.256348,193.000000,0.000000,11.000000,,,,0.000000,2.000000,2.000000,0.000000,2.000000,2.000000,2.000000,0.000000,2.000000,4.000000,4.000000,4.000000,4.000000,2.000000,4.000000,16.666666,,,,,,,,,,,,,,,,,,,,,,,,,,,,
1732082027.283756,1732082027.285368,7.000000,0.000000,4309.358887,4307.948730,4323.461426,4326.666504,4316.025879,4319.615234,4322.307617,4343.974121,4330.128418,4320.769043,4434.871582,4485.000000,4350.897461,4387.820313,1190.000000,0.000000,11.000000,,,,0.000000,2.000000,2.000000,0.000000,2.000000,2.000000,2.000000,0.000000,2.000000,4.000000,4.000000,4.000000,4.000000,2.000000,4.000000,16.666666,,,,,,,,,,,,,,,,,,,,,,,,,,,,
1732082027.291564,1732082027.293276,8.000000,0.000000,4305.641113,4309.358887,4325.384766,4326.922852,4319.487305,4326.410156,4324.230957,4343.846191,4331.153809,4323.333496,4432.692383,4481.538574,4349.102539,4386.410156,1341.000000,0.000000,11.000000,,,,0.000000,2.000000,2.000000,0.000000,2.000000,2.000000,2.000000,0.000000,2.000000,4.000000,4.000000,4.000000,4.000000,2.000000,4.000000,16.666666,,,,,,,,,,,,,,,,,2.000000,0.000000,0.616654,0.391907,-0.604431,0.317505,0.984495,0.090343,-0.038091,-76.443909,62.416309,27.737610
1732082027.299373,1732082027.301084,9.000000,0.000000,4304.230957,4307.692383,4323.077148,4324.487305,4329.871582,4326.282227,4326.922852,4349.230957,4332.948730,4322.948730,4428.205078,4482.563965,4342.692383,4381.794922,1469.000000,0.000000,11.000000,,,,0.000000,2.000000,2.000000,0.000000,2.000000,2.000000,2.000000,0.000000,2.000000,4.000000,4.000000,4.000000,4.000000,2.000000,4.000000,16.666666,,,,,,,,,,,,,,,,,,,,,,,,,,,,
1732082027.307181,1732082027.309092,10.000000,0.000000,4305.000000,4306.153809,4320.641113,4322.692383,4329.743652,4322.948730,4326.794922,4352.436035,4336.153809,4319.230957,4435.512695,4486.794922,4342.948730,4379.871582,1352.000000,0.000000,11.000000,,,,0.000000,2.000000,2.000000,0.000000,2.000000,2.000000,2.000000,0.000000,2.000000,4.000000,4.000000,4.000000,4.000000,2.000000,4.000000,16.666666,,,,,,,,,,,,,,,,,,,,,,,,,,,,
1732082027.314989,1732082027.316900,11.000000,0.000000,4303.846191,4308.846191,4322.563965,4322.948730,4311.922852,4325.384766,4325.897461,4350.769043,4340.256348,4320.769043,4443.846191,4483.974121,4344.743652,4381.153809,1487.000000,0.000000,11.000000,,,,0.000000,2.000000,2.000000,0.000000,2.000000,2.000000,2.000000,0.000000,2.000000,4.000000,4.000000,4.000000,4.000000,2.000000,4.000000,16.666666,,,,,,,,,,,,,,,,,,,,,,,,,,,,
1732082027.322797,1732082027.324608,12.000000,0.000000,4300.128418,4309.230957,4325.769043,4322.051270,4314.743652,4325.641113,4326.538574,4350.128418,4340.000000,4325.256348,4438.333496,4477.051270,4342.436035,4378.717773,1720.000000,0.000000,11.000000,,,,0.000000,2.000000,2.000000,0.000000,2.000000,2.000000,2.000000,0.000000,2.000000,4.000000,4.000000,4.000000,4.000000,2.000000,4.000000,16.666666,,,,,,,,,,,,,,,,,3.000000,0.000000,0.616654,0.391907,-0.604431,0.317505,0.976193,0.094738,-0.045904,-76.471237,62.450542,27.740797
1732082027.330606,1732082027.332417,13.000000,0.000000,4303.974121,4308.077148,4323.589844,4322.307617,4325.256348,4321.794922,4324.487305,4352.179688,4338.974121,4325.897461,4436.922852,4476.666504,4343.717773,4374.102539,1690.000000,0.000000,11.000000,,,,0.000000,2.000000,2.000000,0.000000,2.000000,2.000000,2.000000,0.000000,2.000000,4.000000,4.000000,4.000000,4.000000,2.000000,4.000000,16.666666,,,,,,,,,,,,,,,,,,,,,,,,,,,,
1732082027.338414,1732082027.340425,14.000000,0.000000,4306.025879,4310.256348,4321.794922,4325.512695,4323.846191,4321.153809,4324.102539,4349.615234,4339.102539,4321.922852,4439.487305,4469.487305,4346.922852,4370.769043,1352.000000,0.000000,11.000000,,,,0.000000,2.000000,2.000000,0.000000,2.000000,2.000000,2.000000,0.000000,2.000000,4.000000,4.000000,4.000000,4.000000,2.000000,4.000000,16.666666,1.000000,0.000000,2.000000,0.000000,0.000000,2.000000,2.000000,2.000000,0.000000,1.000000,1.000000,4.000000,4.000000,4.000000,2.000000,4.000000,,,,,,,,,,,,
1732082027.346222,1732082027.348233,15.000000,0.000000,4298.846191,4314.230957,4320.384766,4326.153809,4332.307617,4323.077148,4323.717773,4345.000000,4333.461426,4315.000000,4430.512695,4452.179688,4342.051270,4367.692383,1487.000000,0.000000,11.000000,,,,0.000000,2.000000,2.000000,0.000000,2.000000,2.000000,2.000000,0.000000,2.000000,4.000000,4.000000,4.000000,4.000000,2.000000,4.000000,16.666666,,,,,,,,,,,,,,,,,,,,,,,,,,,,
1732082027.354030,1732082027.356141,16.000000,0.000000,4297.692383,4314.230957,4321.153809,4324.743652,4331.282227,4323.333496,4322.948730,4342.692383,4329.102539,4313.461426,4423.077148,4451.794922,4336.666504,4370.512695,0.000000,0.000000,11.000000,,,,0.000000,2.000000,2.000000,0.000000,2.000000,2.000000,2.000000,0.000000,2.000000,4.000000,4.000000,4.000000,4.000000,2.000000,4.000000,16.666666,,,,,,,,,,,,,,,,,4.000000,0.000000,0.615698,0.392761,-0.604370,0.318420,0.967892,0.091320,-0.041021,-76.678368,62.491608,27.670046
1732082027.361839,1732082027.363949,17.000000,0.000000,4301.666504,4311.153809,4321.153809,4329.230957,4311.794922,4323.077148,4325.897461,4342.051270,4331.282227,4319.102539,4424.871582,4462.820313,4338.717773,4372.820313,0.000000,0.000000,11.000000,,,,0.000000,2.000000,2.000000,0.000000,2.000000,2.000000,2.000000,0.000000,2.000000,4.000000,4.000000,4.000000,4.000000,2.000000,4.000000,16.666666,,,,,,,,,,,,,,,,,,,,,,,,,,,,
1732082027.369647,1732082027.371957,18.000000,0.000000,4300.769043,4309.871582,4322.692383,4332.436035,4313.205078,4325.000000,4329.230957,4342.307617,4332.820313,4320.769043,4426.153809,4459.230957,4340.384766,4370.897461,0.000000,0.000000,11.000000,,,,0.000000,2.000000,2.000000,0.000000,2.000000,2.000000,2.000000,0.000000,2.000000,4.000000,4.000000,4.000000,4.000000,2.000000,4.000000,16.666666,,,,,,,,,,,,,,,,,,,,,,,,,,,,
1732082027.377455,1732082027.379765,19.000000,0.000000,4299.358887,4311.922852,4325.641113,4329.743652,4328.717773,4326.282227,4329.358887,4346.538574,4331.153809,4315.897461,4427.563965,4458.974121,4336.153809,4375.384766,0.000000,0.000000,11.000000,,,,0.000000,2.000000,2.000000,0.000000,2.000000,2.000000,2.000000,0.000000,2.000000,4.000000,4.000000,4.000000,4.000000,2.000000,4.000000,16.666666,,,,,,,,,,,,,,,,,,,,,,,,,,,,
1732082027.385264,1732082027.387673,20.000000,0.000000,4299.615234,4314.230957,4326.922852,4330.128418,4325.641113,4324.358887,4329.358887,4351.666504,4332.051270,4315.769043,4429.871582,4472.051270,4332.179688,4379.615234,0.000000,0.000000,11.000000,,,,0.000000,2.000000,2.000000,0.000000,2.000000,2.000000,2.000000,0.000000,2.000000,4.000000,4.000000,4.000000,4.000000,2.000000,4.000000,16.666666,,,,,,,,,,,,,,,,,5.000000,0.000000,0.615265,0.392761,-0.604553,0.318909,0.975217,0.084971,-0.046881,-76.906143,62.339867,27.716070
1732082027.393072,1732082027.395482,21.000000,0.000000,4297.692383,4312.948730,4324.230957,4333.717773,4318.205078,4322.179688,4329.102539,4349.615234,4334.230957,4318.461426,4427.820313,4479.615234,4335.384766,4379.358887,0.000000,0.000000,11.000000,,,,0.000000,2.000000,2.000000,0.000000,2.000000,2.000000,2.000000,0.000000,2.000000,4.000000,4.000000,4.000000,4.000000,2.000000,4.000000,16.666666,,,,,,,,,,,,,,,,,,,,,,,,,,,,
1732082027.400880,1732082027.403490,22.000000,0.000000,4299.615234,4309.743652,4322.948730,4328.846191,4328.589844,4322.436035,4327.051270,4346.538574,4333.717773,4316.153809,4426.153809,4475.641113,4334.871582,4379.358887,0.000000,0.000000,11.000000,,,,0.000000,2.000000,2.000000,0.000000,2.000000,2.000000,2.000000,0.000000,2.000000,4.000000,4.000000,4.000000,4.000000,2.000000,4.000000,16.666666,,,,,,,,,,,,,,,,,,,,,,,,,,,,
1732082027.408688,1732082027.411298,23.000000,0.000000,4300.128418,4306.538574,4325.256348,4319.743652,4331.153809,4322.948730,4328.589844,4350.769043,4335.897461,4317.820313,4427.563965,4474.358887,4330.000000,4377.436035,0.000000,0.000000,11.000000,,,,0.000000,2.000000,2.000000,0.000000,2.000000,2.000000,2.000000,0.000000,2.000000,4.000000,4.000000,4.000000,4.000000,2.000000,4.000000,16.666666,,,,,,,,,,,,,,,,,,,,,,,,,,,,
1732082027.416497,1732082027.419206,24.000000,0.000000,4295.769043,4305.641113,4325.384766,4318.205078,4313.077148,4325.256348,4329.230957,4353.717773,4340.000000,4325.256348,4430.897461,4476.794922,4336.025879,4373.205078,0.000000,0.000000,11.000000,,,,0.000000,2.000000,2.000000,0.000000,2.000000,2.000000,2.000000,0.000000,2.000000,4.000000,4.000000,4.000000,4.000000,2.000000,4.000000,16.666666,,,,,,,,,,,,,,,,,6.000000,0.000000,0.614881,0.392700,-0.604919,0.319031,0.977170,0.095715,-0.056648,-76.938972,62.240292,27.805017
1732082027.424305,1732082027.427014,25.000000,0.000000,4297.692383,4308.077148,4324.102539,4323.461426,4308.717773,4327.436035,4330.384766,4348.717773,4338.333496,4325.769043,4430.256348,4473.333496,4342.692383,4371.282227,0.000000,0.000000,11.000000,,,,0.000000,2.000000,2.000000,0.000000,2.000000,2.000000,2.000000,0.000000,2.000000,4.000000,4.000000,4.000000,4.000000,2.000000,4.000000,16.666666,,,,,,,,,,,,,,,,,,,,,,,,,,,,
1732082027.432113,1732082027.435022,26.000000,0.000000,4302.179688,4308.974121,4323.077148,4327.307617,4319.871582,4327.307617,4332.692383,4348.717773,4336.922852,4321.922852,4428.717773,4470.641113,4340.384766,4372.563965,0.000000,0.000000,11.000000,,,,0.000000,2.000000,2.000000,0.000000,2.000000,2.000000,2.000000,0.000000,2.000000,4.000000,4.000000,4.000000,4.000000,2.000000,4.000000,16.666666,,,,,,,,,,,,,,,,,,,,,,,,,,,,
1732082027.439921,1732082027.442830,27.000000,0.000000,4302.307617,4307.436035,4323.333496,4325.384766,4317.820313,4327.692383,4332.948730,4352.051270,4336.538574,4320.641113,4428.461426,4474.102539,4339.358887,4378.333496,0.000000,0.000000,11.000000,,,,0.000000,2.000000,2.000000,0.000000,2.000000,2.000000,2.000000,0.000000,2.000000,4.000000,4.000000,4.000000,4.000000,2.000000,4.000000,16.666666,,,,,,,,,,,,,,,,,,,,,,,,,,,,
1732082027.447730,1732082027.450738,28.000000,0.000000,4302.692383,4309.615234,4321.922852,4320.897461,4321.922852,4325.384766,4327.179688,4345.128418,4331.025879,4317.051270,4430.000000,4474.358887,4341.922852,4383.846191,0.000000,0.000000,11.000000,,,,0.000000,2.000000,2.000000,0.000000,2.000000,2.000000,2.000000,0.000000,2.000000,4.000000,4.000000,4.000000,4.000000,2.000000,4.000000,16.666666,,,,,,,,,,,,,,,,,7.000000,0.000000,0.614881,0.392700,-0.604919,0.319031,0.977170,0.095715,-0.056648,-76.920570,62.189636,27.877064
1732082027.455538,1732082027.458547,29.000000,0.000000,4303.589844,4311.794922,4324.743652,4322.563965,4331.282227,4320.256348,4326.538574,4339.743652,4325.512695,4313.461426,4437.436035,4470.897461,4342.179688,4380.641113,0.000000,0.000000,11.000000,,,,0.000000,2.000000,2.000000,0.000000,2.000000,2.000000,2.000000,0.000000,2.000000,4.000000,4.000000,4.000000,4.000000,2.000000,4.000000,16.666666,,,,,,,,,,,,,,,,,,,,,,,,,,,,
1732082027.463346,1732082027.466555,30.000000,0.000000,4305.897461,4310.769043,4327.692383,4329.102539,4316.025879,4325.512695,4329.743652,4343.846191,4328.974121,4314.615234,4444.230957,4469.230957,4341.794922,4376.794922,0.000000,0.000000,11.000000,,,,0.000000,2.000000,2.000000,0.000000,2.000000,2.000000,2.000000,0.000000,2.000000,4.000000,4.000000,4.000000,4.000000,2.000000,4.000000,16.666666,,,,,,,,,,,,,,,,,,,,,,,,,,,,
1732082027.471154,1732082027.474363,31.000000,0.000000,4304.615234,4310.128418,4324.102539,4327.820313,4306.794922,4333.205078,4328.974121,4347.820313,4334.487305,4315.641113,4435.897461,4466.538574,4341.410156,4375.000000,0.000000,0.000000,11.000000,,,,0.000000,2.000000,2.000000,0.000000,2.000000,2.000000,2.000000,0.000000,2.000000,4.000000,4.000000,4.000000,4.000000,2.000000,4.000000,16.666666,,,,,,,,,,,,,,,,,,,,,,,,,,,,
1732082027.478963,1732082027.482271,32.000000,0.000000,4298.589844,4310.769043,4318.333496,4322.692383,4323.717773,4329.615234,4326.282227,4345.897461,4335.641113,4318.589844,4427.948730,4460.384766,4342.307617,4372.051270,0.000000,0.000000,11.000000,,,,0.000000,2.000000,2.000000,0.000000,2.000000,2.000000,2.000000,0.000000,2.000000,4.000000,4.000000,4.000000,4.000000,2.000000,4.000000,16.666666,,,,,,,,,,,,,,,,,8.000000,0.000000,0.614818,0.392334,-0.605286,0.318909,0.970822,0.085948,-0.044439,-76.862328,62.201939,28.013756
1732082027.486771,1732082027.490079,33.000000,0.000000,4295.897461,4312.692383,4321.794922,4324.615234,4328.846191,4323.589844,4326.794922,4343.205078,4333.205078,4321.538574,4434.615234,4462.051270,4344.230957,4374.871582,0.000000,0.000000,11.000000,,,,0.000000,2.000000,2.000000,0.000000,2.000000,2.000000,2.000000,0.000000,2.000000,4.000000,4.000000,4.000000,4.000000,2.000000,4.000000,16.666666,,,,,,,,,,,,,,,,,,,,,,,,,,,,
1732082027.494579,1732082027.497688,34.000000,0.000000,4303.589844,4314.358887,4325.512695,4328.333496,4312.563965,4324.743652,4326.922852,4342.563965,4330.000000,4318.589844,4435.897461,4470.769043,4345.128418,4380.384766,0.000000,0.000000,11.000000,,,,0.000000,2.000000,2.000000,0.000000,2.000000,2.000000,2.000000,0.000000,2.000000,4.000000,4.000000,4.000000,4.000000,2.000000,4.000000,16.666666,,,,,,,,,,,,,,,,,,,,,,,,,,,,
1732082027.502387,1732082027.505496,35.000000,0.000000,4310.256348,4314.358887,4324.743652,4328.205078,4306.410156,4322.692383,4326.025879,4341.666504,4329.102539,4315.128418,4430.641113,4474.358887,4343.333496,4377.692383,0.000000,0.000000,11.000000,,,,0.000000,2.000000,2.000000,0.000000,2.000000,2.000000,2.000000,0.000000,2.000000,4.000000,4.000000,4.000000,4.000000,2.000000,4.000000,16.666666,,,,,,,,,,,,,,,,,,,,,,,,,,,,
1732082027.510196,1732082027.513204,36.000000,0.000000,4305.128418,4312.436035,4324.743652,4325.000000,4320.641113,4311.922852,4325.512695,4338.717773,4328.589844,4312.948730,4430.512695,4472.563965,4338.205078,4374.615234,0.000000,0.000000,11.000000,,,,0.000000,2.000000,2.000000,0.000000,2.000000,2.000000,2.000000,0.000000,2.000000,4.000000,4.000000,4.000000,4.000000,2.000000,4.000000,16.666666,,,,,,,,,,,,,,,,,9.000000,0.000000,0.614694,0.392517,-0.605164,0.319153,0.976682,0.097180,-0.041509,-76.785156,62.326904,27.902809
1732082027.518004,1732082027.521012,37.000000,0.000000,4297.436035,4311.025879,4327.692383,4324.871582,4325.000000,4311.282227,4324.487305,4337.179688,4327.436035,4310.128418,4428.846191,4478.077148,4332.948730,4378.333496,0.000000,0.000000,11.000000,,,,0.000000,2.000000,2.000000,0.000000,2.000000,2.000000,2.000000,0.000000,2.000000,4.000000,4.000000,4.000000,4.000000,2.000000,4.000000,16.666666,,,,,,,,,,,,,,,,,,,,,,,,,,,,
1732082027.525812,1732082027.528621,38.000000,0.000000,4296.025879,4311.410156,4327.179688,4327.820313,4311.794922,4320.769043,4326.282227,4341.794922,4330.512695,4309.871582,4425.641113,4478.333496,4332.820313,4376.666504,0.000000,0.000000,11.000000,,,,0.000000,2.000000,2.000000,0.000000,2.000000,2.000000,2.000000,0.000000,2.000000,4.000000,4.000000,4.000000,4.000000,2.000000,4.000000,16.666666,,,,,,,,,,,,,,,,,,,,,,,,,,,,
1732082027.533620,1732082027.536429,39.000000,0.000000,4298.717773,4313.205078,4323.717773,4328.974121,4306.794922,4322.563965,4328.589844,4341.666504,4331.794922,4313.077148,4429.487305,4466.153809,4338.205078,4370.000000,0.000000,0.000000,11.000000,,,,0.000000,2.000000,2.000000,0.000000,2.000000,2.000000,2.000000,0.000000,2.000000,4.000000,4.000000,4.000000,4.000000,2.000000,4.000000,16.666666,,,,,,,,,,,,,,,,,,,,,,,,,,,,
1732082027.541429,1732082027.544137,40.000000,0.000000,4300.256348,4314.487305,4323.077148,4325.897461,4316.410156,4320.384766,4328.846191,4339.230957,4330.512695,4315.512695,4432.692383,4466.794922,4344.102539,4372.307617,0.000000,0.000000,11.000000,,,,0.000000,2.000000,2.000000,0.000000,2.000000,2.000000,2.000000,0.000000,2.000000,4.000000,4.000000,4.000000,4.000000,2.000000,4.000000,16.666666,,,,,,,,,,,,,,,,,10.000000,0.000000,0.614666,0.392517,-0.605225,0.319092,0.976682,0.097180,-0.041509,-76.735977,62.178127,27.979609
1732082027.549237,1732082027.551945,41.000000,0.000000,4302.179688,4313.205078,4322.307617,4323.461426,4326.794922,4320.000000,4325.384766,4341.538574,4330.512695,4314.743652,4428.974121,4478.461426,4343.461426,4379.230957,0.000000,0.000000,11.000000,,,,0.000000,2.000000,2.000000,0.000000,2.000000,2.000000,2.000000,0.000000,2.000000,4.000000,4.000000,4.000000,4.000000,2.000000,4.000000,16.666666,,,,,,,,,,,,,,,,,,,,,,,,,,,,
1732082027.557045,1732082027.559554,42.000000,0.000000,4302.179688,4312.692383,4323.461426,4326.025879,4320.384766,4318.205078,4324.487305,4343.461426,4330.897461,4312.436035,4427.692383,4478.974121,4338.974121,4380.384766,0.000000,0.000000,11.000000,,,,0.000000,2.000000,2.000000,0.000000,2.000000,2.000000,2.000000,0.000000,2.000000,4.000000,4.000000,4.000000,4.000000,2.000000,4.000000,16.666666,,,,,,,,,,,,,,,,,,,,,,,,,,,,
1732082027.564854,1732082027.567362,43.000000,0.000000,4302.948730,4313.717773,4324.230957,4329.871582,4306.922852,4322.179688,4323.589844,4344.230957,4332.692383,4314.871582,4427.563965,4472.820313,4338.589844,4378.974121,0.000000,0.000000,11.000000,,,,0.000000,2.000000,2.000000,0.000000,2.000000,2.000000,2.000000,0.000000,2.000000,4.000000,4.000000,4.000000,4.000000,2.000000,4.000000,16.666666,,,,,,,,,,,,,,,,,,,,,,,,,,,,
1732082027.572662,1732082027.575070,44.000000,0.000000,4303.717773,4313.077148,4323.077148,4326.282227,4314.230957,4328.974121,4322.563965,4343.846191,4331.153809,4316.282227,4426.538574,4466.153809,4339.358887,4375.769043,0.000000,0.000000,11.000000,,,,0.000000,2.000000,2.000000,0.000000,2.000000,2.000000,2.000000,0.000000,2.000000,4.000000,4.000000,4.000000,4.000000,2.000000,4.000000,16.666666,,,,,,,,,,,,,,,,,11.000000,0.000000,0.614765,0.392273,-0.605347,0.318970,0.970822,0.089366,-0.041021,-76.909470,62.167614,27.768482
1732082027.580470,1732082027.582879,45.000000,0.000000,4297.307617,4311.153809,4321.538574,4320.384766,4325.256348,4327.436035,4323.205078,4342.436035,4329.743652,4313.846191,4426.153809,4457.692383,4336.666504,4372.692383,0.000000,0.000000,11.000000,,,,0.000000,2.000000,2.000000,0.000000,2.000000,2.000000,2.000000,0.000000,2.000000,4.000000,4.000000,4.000000,4.000000,2.000000,4.000000,16.666666,,,,,,,,,,,,,,,,,,,,,,,,,,,,
1732082027.588278,1732082027.590887,46.000000,0.000000,4294.102539,4310.128418,4323.717773,4323.846191,4314.487305,4325.641113,4325.641113,4343.589844,4333.717773,4316.153809,4420.641113,4458.717773,4335.512695,4375.256348,0.000000,0.000000,11.000000,,,,0.000000,2.000000,2.000000,0.000000,2.000000,2.000000,2.000000,0.000000,2.000000,4.000000,4.000000,4.000000,4.000000,2.000000,4.000000,16.666666,,,,,,,,,,,,,,,,,,,,,,,,,,,,
1732082027.596087,1732082027.598695,47.000000,0.000000,4303.717773,4312.179688,4323.205078,4331.153809,4308.974121,4327.179688,4323.717773,4342.307617,4333.589844,4320.641113,4418.974121,4461.538574,4340.641113,4380.000000,0.000000,0.000000,11.000000,,,,0.000000,2.000000,2.000000,0.000000,2.000000,2.000000,2.000000,0.000000,2.000000,4.000000,4.000000,4.000000,4.000000,2.000000,4.000000,16.666666,,,,,,,,,,,,,,,,,,,,,,,,,,,,
1732082027.603895,1732082027.606403,48.000000,0.000000,4309.487305,4314.102539,4321.410156,4331.922852,4316.410156,4325.128418,4323.461426,4337.948730,4323.589844,4316.666504,4427.692383,4457.948730,4343.974121,4380.384766,0.000000,0.000000,11.000000,,,,0.000000,2.000000,2.000000,0.000000,2.000000,2.000000,2.000000,0.000000,2.000000,4.000000,4.000000,4.000000,4.000000,2.000000,4.000000,16.666666,,,,,,,,,,,,,,,,,12.000000,0.000000,0.614649,0.392395,-0.605225,0.319275,0.975217,0.082530,-0.047369,-77.016670,62.159103,27.564138
1732082027.611703,1732082027.614211,49.000000,0.000000,4299.358887,4312.051270,4321.410156,4330.256348,4322.692383,4324.487305,4327.436035,4336.794922,4321.666504,4309.871582,4430.128418,4460.512695,4339.487305,4375.897461,0.000000,0.000000,11.000000,,,,0.000000,2.000000,2.000000,0.000000,2.000000,2.000000,2.000000,0.000000,2.000000,4.000000,4.000000,4.000000,4.000000,2.000000,4.000000,16.666666,,,,,,,,,,,,,,,,,,,,,,,,,,,,
1732082027.619511,1732082027.621820,50.000000,0.000000,4294.487305,4310.512695,4321.153809,4328.461426,4330.897461,4326.153809,4325.769043,4338.974121,4330.128418,4313.205078,4425.512695,4463.589844,4337.820313,4373.077148,0.000000,0.000000,11.000000,,,,0.000000,2.000000,2.000000,0.000000,2.000000,2.000000,2.000000,0.000000,2.000000,4.000000,4.000000,4.000000,4.000000,2.000000,4.000000,16.666666,,,,,,,,,,,,,,,,,,,,,,,,,,,,
1732082027.627320,1732082027.629628,51.000000,0.000000,4300.641113,4312.692383,4320.512695,4328.333496,4324.230957,4326.410156,4322.563965,4339.615234,4332.563965,4323.333496,4427.692383,4461.153809,4344.743652,4373.077148,0.000000,0.000000,11.000000,,,,0.000000,2.000000,2.000000,0.000000,2.000000,2.000000,2.000000,0.000000,2.000000,4.000000,4.000000,4.000000,4.000000,2.000000,4.000000,16.666666,,,,,,,,,,,,,,,,,,,,,,,,,,,,
1732082027.635128,1732082027.637336,52.000000,0.000000,4299.743652,4315.897461,4322.179688,4330.000000,4308.461426,4324.230957,4323.333496,4338.717773,4330.128418,4328.333496,4430.256348,4460.769043,4346.794922,4372.307617,0.000000,0.000000,11.000000,,,,0.000000,2.000000,2.000000,0.000000,2.000000,2.000000,2.000000,0.000000,2.000000,4.000000,4.000000,4.000000,4.000000,2.000000,4.000000,16.666666,,,,,,,,,,,,,,,,,13.000000,0.000000,0.614567,0.392517,-0.605164,0.319397,0.978635,0.094738,-0.037602,-76.665169,61.970539,27.488619
1732082027.642936,1732082027.645145,53.000000,0.000000,4299.102539,4318.077148,4321.282227,4329.871582,4311.410156,4323.846191,4325.769043,4338.717773,4331.666504,4326.153809,4427.692383,4461.153809,4344.487305,4373.333496,0.000000,0.000000,11.000000,,,,0.000000,2.000000,2.000000,0.000000,2.000000,2.000000,2.000000,0.000000,2.000000,4.000000,4.000000,4.000000,4.000000,2.000000,4.000000,16.666666,,,,,,,,,,,,,,,,,,,,,,,,,,,,
1732082027.650744,1732082027.652753,54.000000,0.000000,4304.615234,4315.769043,4322.692383,4329.102539,4324.230957,4325.641113,4325.641113,4341.025879,4335.128418,4325.641113,4428.333496,4463.333496,4346.282227,4379.102539,0.000000,0.000000,11.000000,,,,0.000000,2.000000,2.000000,0.000000,2.000000,2.000000,2.000000,0.000000,2.000000,4.000000,4.000000,4.000000,4.000000,2.000000,4.000000,16.666666,,,,,,,,,,,,,,,,,,,,,,,,,,,,
1732082027.658553,1732082027.660561,55.000000,0.000000,4304.871582,4315.256348,4324.871582,4330.256348,4330.641113,4321.025879,4323.974121,4342.692383,4333.589844,4327.051270,4427.820313,4467.692383,4346.153809,4379.871582,0.000000,0.000000,11.000000,,,,0.000000,2.000000,2.000000,0.000000,2.000000,2.000000,2.000000,0.000000,2.000000,4.000000,4.000000,4.000000,4.000000,2.000000,4.000000,16.666666,,,,,,,,,,,,,,,,,,,,,,,,,,,,
1732082027.666361,1732082027.668469,56.000000,0.000000,4301.410156,4316.538574,4323.077148,4328.974121,4323.461426,4315.769043,4321.025879,4338.717773,4331.922852,4326.410156,4430.384766,4465.384766,4348.077148,4379.102539,0.000000,0.000000,11.000000,,,,0.000000,2.000000,2.000000,0.000000,2.000000,2.000000,2.000000,0.000000,2.000000,4.000000,4.000000,4.000000,4.000000,2.000000,4.000000,16.666666,,,,,,,,,,,,,,,,,14.000000,0.000000,0.614546,0.392456,-0.605225,0.319397,0.973752,0.103528,-0.051764,-76.855453,62.007805,27.554113
1732082027.674169,1732082027.676277,57.000000,0.000000,4302.692383,4315.128418,4322.051270,4327.436035,4308.974121,4322.307617,4322.692383,4337.436035,4332.948730,4325.128418,4435.000000,4459.743652,4351.922852,4382.051270,0.000000,0.000000,11.000000,,,,0.000000,2.000000,2.000000,0.000000,2.000000,2.000000,2.000000,0.000000,2.000000,4.000000,4.000000,4.000000,4.000000,2.000000,4.000000,16.666666,,,,,,,,,,,,,,,,,,,,,,,,,,,,
1732082027.681977,1732082027.684285,58.000000,0.000000,4303.589844,4314.615234,4321.922852,4330.256348,4312.563965,4326.666504,4324.487305,4341.410156,4329.743652,4322.948730,4430.641113,4459.230957,4349.615234,4381.794922,0.000000,0.000000,11.000000,,,,0.000000,2.000000,2.000000,0.000000,2.000000,2.000000,2.000000,0.000000,2.000000,4.000000,4.000000,4.000000,4.000000,2.000000,4.000000,16.666666,,,,,,,,,,,,,,,,,,,,,,,,,,,,
1732082027.689786,1732082027.692094,59.000000,0.000000,4301.282227,4316.922852,4321.794922,4329.615234,4321.538574,4321.538574,4325.641113,4342.948730,4328.461426,4321.282227,4430.000000,4460.256348,4349.871582,4381.282227,0.000000,0.000000,11.000000,,,,0.000000,2.000000,2.000000,0.000000,2.000000,2.000000,2.000000,0.000000,2.000000,4.000000,4.000000,4.000000,4.000000,2.000000,4.000000,16.666666,,,,,,,,,,,,,,,,,,,,,,,,,,,,
1732082027.697594,1732082027.700002,60.000000,0.000000,4300.256348,4317.307617,4320.641113,4325.512695,4320.128418,4320.000000,4325.512695,4343.974121,4333.974121,4323.846191,4432.436035,4460.256348,4351.666504,4378.333496,0.000000,0.000000,11.000000,,,,0.000000,2.000000,2.000000,0.000000,2.000000,2.000000,2.000000,0.000000,2.000000,4.000000,4.000000,4.000000,4.000000,2.000000,4.000000,16.666666,,,,,,,,,,,,,,,,,15.000000,0.000000,0.614578,0.392273,-0.605408,0.319214,0.978147,0.087413,-0.040532,-76.822922,62.084656,27.623833
1732082027.705402,1732082027.707810,61.000000,0.000000,4300.256348,4314.871582,4321.794922,4326.153809,4329.615234,4318.717773,4323.589844,4340.256348,4332.948730,4322.051270,4426.538574,4460.512695,4344.871582,4373.846191,0.000000,0.000000,11.000000,,,,0.000000,2.000000,2.000000,0.000000,2.000000,2.000000,2.000000,0.000000,2.000000,4.000000,4.000000,4.000000,4.000000,2.000000,4.000000,16.666666,,,,,,,,,,,,,,,,,,,,,,,,,,,,
