title:1seven, start timestamp:1732158368.497785, stop timestamp:1732158412.099058, headset type:EPOCX, headset serial:E5020C3A, headset firmware:730, channels:67, sampling rate:eeg_128;mot_32, samples:5585      , version:2.2, 
Timestamp,OriginalTimestamp,EEG.Counter,EEG.Interpolated,EEG.AF3,EEG.F7,EEG.F3,EEG.FC5,EEG.T7,EEG.P7,EEG.O1,EEG.O2,EEG.P8,EEG.T8,EEG.FC6,EEG.F4,EEG.F8,EEG.AF4,EEG.RawCq,EEG.Battery,EEG.BatteryPercent,MarkerIndex,MarkerType,MarkerValueInt,EEG.MarkerHardware,CQ.AF3,CQ.F7,CQ.F3,CQ.FC5,CQ.T7,CQ.P7,CQ.O1,CQ.O2,CQ.P8,CQ.T8,CQ.FC6,CQ.F4,CQ.F8,CQ.AF4,CQ.Overall,EQ.SampleRateQuality,EQ.OVERALL,EQ.AF3,EQ.F7,EQ.F3,EQ.FC5,EQ.T7,EQ.P7,EQ.O1,EQ.O2,EQ.P8,EQ.T8,EQ.FC6,EQ.F4,EQ.F8,EQ.AF4,MOT.CounterMems,MOT.InterpolatedMems,MOT.Q0,MOT.Q1,MOT.Q2,MOT.Q3,MOT.AccX,MOT.AccY,MOT.AccZ,MOT.MagX,MOT.MagY,MOT.MagZ
1732158368.497785,1732158368.501146,125.000000,0.000000,4276.538574,4263.974121,4313.461426,4296.025879,4277.051270,4278.717773,4338.461426,4402.436035,4297.436035,4281.282227,4477.563965,4511.282227,4341.025879,4415.384766,1583.000000,1.000000,20.000000,,,,0.000000,2.000000,2.000000,0.000000,4.000000,2.000000,2.000000,0.000000,0.000000,4.000000,4.000000,4.000000,4.000000,4.000000,4.000000,0.000000,,,,,,,,,,,,,,,,,,,,,,,,,,,,
1732158368.505593,1732158368.508754,126.000000,0.000000,4278.461426,4263.333496,4311.666504,4293.717773,4278.846191,4279.230957,4335.256348,4401.794922,4295.512695,4281.538574,4484.615234,4507.563965,4341.666504,4413.974121,1553.000000,1.000000,20.000000,,,,0.000000,2.000000,2.000000,0.000000,4.000000,2.000000,2.000000,0.000000,0.000000,4.000000,4.000000,4.000000,4.000000,4.000000,4.000000,0.000000,,,,,,,,,,,,,,,,,,,,,,,,,,,,
1732158368.513402,1732158368.516562,127.000000,0.000000,4276.025879,4264.230957,4311.922852,4291.794922,4273.461426,4279.871582,4334.743652,4402.436035,4298.205078,4281.666504,4481.410156,4507.692383,4341.025879,4411.794922,20.000000,1.000000,20.000000,,,,0.000000,2.000000,2.000000,0.000000,4.000000,2.000000,2.000000,0.000000,0.000000,4.000000,4.000000,4.000000,4.000000,4.000000,4.000000,0.000000,,,,,,,,,,,,,,,,,,,,,,,,,,,,
1732158368.521210,1732158368.524271,0.000000,0.000000,4272.692383,4264.615234,4315.897461,4292.051270,4278.974121,4278.077148,4335.512695,4403.717773,4298.717773,4281.025879,4473.846191,4506.922852,4342.820313,4411.025879,0.000000,1.000000,20.000000,,,,0.000000,2.000000,2.000000,0.000000,4.000000,2.000000,2.000000,0.000000,0.000000,4.000000,4.000000,4.000000,4.000000,4.000000,4.000000,0.000000,,,,,,,,,,,,,,,,,0.000000,0.000000,0.501771,0.495972,-0.539246,0.459839,0.967892,-0.005860,-0.059089,-35.556572,45.464500,30.647448
1732158368.529018,1732158368.532079,1.000000,0.000000,4274.487305,4262.563965,4314.230957,4291.794922,4290.641113,4276.282227,4334.358887,4400.512695,4292.948730,4280.256348,4476.794922,4505.128418,4341.794922,4410.000000,1608.000000,1.000000,20.000000,,,,0.000000,2.000000,2.000000,0.000000,4.000000,2.000000,2.000000,0.000000,0.000000,4.000000,4.000000,4.000000,4.000000,4.000000,4.000000,0.000000,,,,,,,,,,,,,,,,,,,,,,,,,,,,
1732158368.536826,1732158368.539687,2.000000,0.000000,4279.230957,4262.820313,4311.538574,4293.333496,4275.897461,4278.974121,4334.871582,4398.461426,4293.461426,4279.487305,4479.743652,4504.743652,4340.641113,4410.384766,1364.000000,1.000000,20.000000,,,,0.000000,2.000000,2.000000,0.000000,4.000000,2.000000,2.000000,0.000000,0.000000,4.000000,4.000000,4.000000,4.000000,4.000000,4.000000,0.000000,,,,,,,,,,,,,,,,,,,,,,,,,,,,
1732158368.544635,1732158368.547495,3.000000,0.000000,4278.589844,4264.743652,4313.717773,4295.512695,4257.948730,4283.589844,4336.538574,4401.794922,4307.179688,4282.692383,4476.410156,4506.025879,4340.000000,4412.436035,1427.000000,1.000000,20.000000,,,,0.000000,2.000000,2.000000,0.000000,4.000000,2.000000,2.000000,0.000000,0.000000,4.000000,4.000000,4.000000,4.000000,4.000000,4.000000,0.000000,,,,,,,,,,,,,,,,,,,,,,,,,,,,
1732158368.552443,1732158368.555204,4.000000,0.000000,4272.563965,4263.717773,4315.256348,4292.307617,4265.256348,4282.563965,4335.128418,4403.717773,4312.179688,4286.282227,4478.205078,4506.538574,4337.179688,4412.820313,1432.000000,1.000000,20.000000,,,,0.000000,2.000000,2.000000,0.000000,4.000000,2.000000,2.000000,0.000000,0.000000,4.000000,4.000000,4.000000,4.000000,4.000000,4.000000,0.000000,,,,,,,,,,,,,,,,,1.000000,0.000000,0.503946,0.497314,-0.537537,0.458008,0.976682,0.023440,-0.080576,-35.609158,45.509579,30.639433
1732158368.560251,1732158368.563012,5.000000,0.000000,4271.666504,4262.436035,4311.666504,4289.615234,4269.358887,4278.846191,4334.487305,4400.897461,4300.128418,4283.461426,4480.897461,4500.000000,4337.820313,4413.846191,1204.000000,1.000000,20.000000,,,,0.000000,2.000000,2.000000,0.000000,4.000000,2.000000,2.000000,0.000000,0.000000,4.000000,4.000000,4.000000,4.000000,4.000000,4.000000,0.000000,,,,,,,,,,,,,,,,,,,,,,,,,,,,
1732158368.568059,1732158368.570620,6.000000,0.000000,4276.282227,4263.589844,4309.358887,4293.333496,4265.384766,4280.384766,4335.128418,4399.743652,4294.102539,4279.615234,4477.436035,4496.153809,4340.000000,4414.230957,0.000000,1.000000,20.000000,,,,0.000000,2.000000,2.000000,0.000000,4.000000,2.000000,2.000000,0.000000,0.000000,4.000000,4.000000,4.000000,4.000000,4.000000,4.000000,0.000000,,,,,,,,,,,,,,,,,,,,,,,,,,,,
1732158368.575868,1732158368.578429,7.000000,0.000000,4274.871582,4264.358887,4311.538574,4294.358887,4273.846191,4283.461426,4336.282227,4400.000000,4298.077148,4280.512695,4475.128418,4502.563965,4336.153809,4411.153809,0.000000,1.000000,20.000000,,,,0.000000,2.000000,2.000000,0.000000,4.000000,2.000000,2.000000,0.000000,0.000000,4.000000,4.000000,4.000000,4.000000,4.000000,4.000000,0.000000,,,,,,,,,,,,,,,,,,,,,,,,,,,,
1732158368.583676,1732158368.586137,8.000000,0.000000,4267.307617,4262.436035,4313.846191,4291.410156,4281.922852,4281.666504,4336.410156,4398.333496,4297.051270,4281.410156,4477.051270,4504.487305,4334.871582,4410.512695,1534.000000,1.000000,20.000000,,,,0.000000,2.000000,2.000000,0.000000,4.000000,2.000000,2.000000,0.000000,0.000000,4.000000,4.000000,4.000000,4.000000,4.000000,4.000000,0.000000,,,,,,,,,,,,,,,,,2.000000,0.000000,0.504907,0.498413,-0.536499,0.456970,0.981077,0.040044,-0.076670,-35.488419,45.366093,30.566275
1732158368.591484,1732158368.593945,9.000000,0.000000,4265.897461,4261.282227,4311.025879,4291.794922,4278.846191,4279.615234,4335.128418,4399.487305,4295.897461,4280.769043,4479.358887,4504.615234,4340.128418,4413.974121,1693.000000,1.000000,20.000000,,,,0.000000,2.000000,2.000000,0.000000,4.000000,2.000000,2.000000,0.000000,0.000000,4.000000,4.000000,4.000000,4.000000,4.000000,4.000000,0.000000,,,,,,,,,,,,,,,,,,,,,,,,,,,,
1732158368.599292,1732158368.601553,10.000000,0.000000,4267.948730,4262.692383,4309.358887,4291.410156,4273.717773,4281.282227,4334.743652,4402.563965,4302.948730,4280.384766,4479.358887,4507.436035,4336.282227,4410.256348,1553.000000,1.000000,20.000000,,,,0.000000,2.000000,2.000000,0.000000,4.000000,2.000000,2.000000,0.000000,0.000000,4.000000,4.000000,4.000000,4.000000,4.000000,4.000000,0.000000,,,,,,,,,,,,,,,,,,,,,,,,,,,,
1732158368.607101,1732158368.609362,11.000000,0.000000,4266.025879,4262.179688,4311.666504,4288.077148,4280.128418,4278.846191,4335.256348,4402.051270,4305.256348,4278.974121,4475.769043,4500.256348,4329.102539,4400.641113,1558.000000,1.000000,20.000000,,,,0.000000,2.000000,2.000000,0.000000,4.000000,2.000000,2.000000,0.000000,0.000000,4.000000,4.000000,4.000000,4.000000,4.000000,4.000000,0.000000,,,,,,,,,,,,,,,,,,,,,,,,,,,,
1732158368.614909,1732158368.617070,12.000000,0.000000,4266.410156,4260.641113,4310.384766,4290.512695,4288.717773,4277.948730,4334.743652,4399.743652,4299.230957,4277.307617,4476.922852,4493.589844,4332.692383,4401.538574,1708.000000,1.000000,20.000000,,,,0.000000,2.000000,2.000000,0.000000,4.000000,2.000000,2.000000,0.000000,0.000000,4.000000,4.000000,4.000000,4.000000,4.000000,4.000000,0.000000,,,,,,,,,,,,,,,,,3.000000,0.000000,0.504907,0.498413,-0.536499,0.456970,0.982542,0.053229,-0.085460,-35.510620,45.399868,30.507015
1732158368.622717,1732158368.624878,13.000000,0.000000,4272.436035,4262.692383,4309.102539,4295.641113,4274.871582,4284.487305,4334.358887,4400.128418,4305.000000,4279.871582,4483.461426,4503.077148,4337.820313,4408.461426,1584.000000,1.000000,20.000000,,,,0.000000,2.000000,2.000000,0.000000,4.000000,2.000000,2.000000,0.000000,0.000000,4.000000,4.000000,4.000000,4.000000,4.000000,4.000000,0.000000,,,,,,,,,,,,,,,,,,,,,,,,,,,,
1732158368.630525,1732158368.632487,14.000000,0.000000,4277.948730,4264.487305,4313.717773,4296.025879,4257.307617,4286.538574,4334.487305,4401.666504,4313.717773,4281.282227,4482.692383,4510.897461,4334.615234,4405.897461,1553.000000,1.000000,20.000000,,,,0.000000,2.000000,2.000000,0.000000,4.000000,2.000000,2.000000,0.000000,0.000000,4.000000,4.000000,4.000000,4.000000,4.000000,4.000000,0.000000,1.000000,0.000000,2.000000,2.000000,0.000000,1.000000,2.000000,2.000000,0.000000,0.000000,4.000000,4.000000,4.000000,4.000000,4.000000,4.000000,,,,,,,,,,,,
1732158368.638334,1732158368.640295,15.000000,0.000000,4276.922852,4264.102539,4313.717773,4299.871582,4267.307617,4282.307617,4334.487305,4401.153809,4305.641113,4277.307617,4476.666504,4501.538574,4328.589844,4399.102539,1558.000000,1.000000,20.000000,,,,0.000000,2.000000,2.000000,0.000000,4.000000,2.000000,2.000000,0.000000,0.000000,4.000000,4.000000,4.000000,4.000000,4.000000,4.000000,0.000000,,,,,,,,,,,,,,,,,,,,,,,,,,,,
1732158368.646142,1732158368.648003,16.000000,0.000000,4274.358887,4264.871582,4309.487305,4303.205078,4277.948730,4280.897461,4334.487305,4399.487305,4300.769043,4277.179688,4478.205078,4495.000000,4327.436035,4398.205078,0.000000,1.000000,20.000000,,,,0.000000,2.000000,2.000000,0.000000,4.000000,2.000000,2.000000,0.000000,0.000000,4.000000,4.000000,4.000000,4.000000,4.000000,4.000000,0.000000,,,,,,,,,,,,,,,,,4.000000,0.000000,0.505394,0.500793,-0.534912,0.455688,0.957148,0.043462,-0.077646,-35.251934,45.512226,30.574017
1732158368.653950,1732158368.655811,17.000000,0.000000,4276.025879,4265.384766,4309.487305,4298.589844,4273.461426,4282.051270,4334.487305,4398.077148,4308.974121,4279.358887,4481.538574,4497.436035,4328.333496,4399.615234,0.000000,1.000000,20.000000,,,,0.000000,2.000000,2.000000,0.000000,4.000000,2.000000,2.000000,0.000000,0.000000,4.000000,4.000000,4.000000,4.000000,4.000000,4.000000,0.000000,,,,,,,,,,,,,,,,,,,,,,,,,,,,
1732158368.661758,1732158368.663420,18.000000,0.000000,4278.333496,4265.000000,4312.179688,4298.846191,4273.717773,4281.538574,4334.615234,4397.692383,4304.871582,4275.641113,4478.974121,4497.820313,4332.179688,4398.846191,0.000000,1.000000,20.000000,,,,0.000000,2.000000,2.000000,0.000000,4.000000,2.000000,2.000000,0.000000,0.000000,4.000000,4.000000,4.000000,4.000000,4.000000,4.000000,0.000000,,,,,,,,,,,,,,,,,,,,,,,,,,,,
1732158368.669567,1732158368.671228,19.000000,0.000000,4278.077148,4265.769043,4307.692383,4303.205078,4273.717773,4281.922852,4334.615234,4398.717773,4292.820313,4272.820313,4475.641113,4497.051270,4334.871582,4397.436035,0.000000,1.000000,20.000000,,,,0.000000,2.000000,2.000000,0.000000,4.000000,2.000000,2.000000,0.000000,0.000000,4.000000,4.000000,4.000000,4.000000,4.000000,4.000000,0.000000,,,,,,,,,,,,,,,,,,,,,,,,,,,,
1732158368.677375,1732158368.679136,20.000000,0.000000,4277.692383,4265.000000,4303.461426,4299.230957,4271.153809,4282.436035,4334.358887,4399.615234,4294.358887,4274.358887,4474.102539,4495.641113,4332.820313,4395.256348,0.000000,1.000000,20.000000,,,,0.000000,2.000000,2.000000,0.000000,4.000000,2.000000,2.000000,0.000000,0.000000,4.000000,4.000000,4.000000,4.000000,4.000000,4.000000,0.000000,,,,,,,,,,,,,,,,,5.000000,0.000000,0.505054,0.501221,-0.534729,0.455811,0.957148,0.010255,-0.075204,-35.249065,45.623238,30.551619
1732158368.685183,1732158368.686944,21.000000,0.000000,4278.461426,4262.436035,4305.128418,4294.230957,4277.820313,4282.436035,4335.128418,4399.102539,4299.102539,4275.512695,4473.333496,4491.538574,4328.974121,4394.743652,0.000000,1.000000,20.000000,,,,0.000000,2.000000,2.000000,0.000000,4.000000,2.000000,2.000000,0.000000,0.000000,4.000000,4.000000,4.000000,4.000000,4.000000,4.000000,0.000000,,,,,,,,,,,,,,,,,,,,,,,,,,,,
1732158368.692991,1732158368.694553,22.000000,0.000000,4278.205078,4263.846191,4305.641113,4296.538574,4282.820313,4283.205078,4333.974121,4397.692383,4297.051270,4273.974121,4473.333496,4489.871582,4327.563965,4395.769043,0.000000,1.000000,20.000000,,,,0.000000,2.000000,2.000000,0.000000,4.000000,2.000000,2.000000,0.000000,0.000000,4.000000,4.000000,4.000000,4.000000,4.000000,4.000000,0.000000,,,,,,,,,,,,,,,,,,,,,,,,,,,,
1732158368.700800,1732158368.702361,23.000000,0.000000,4278.205078,4264.871582,4303.333496,4298.717773,4280.000000,4281.794922,4333.717773,4397.179688,4296.794922,4275.384766,4473.333496,4491.282227,4328.077148,4396.666504,0.000000,1.000000,20.000000,,,,0.000000,2.000000,2.000000,0.000000,4.000000,2.000000,2.000000,0.000000,0.000000,4.000000,4.000000,4.000000,4.000000,4.000000,4.000000,0.000000,,,,,,,,,,,,,,,,,,,,,,,,,,,,
1732158368.708608,1732158368.710069,24.000000,0.000000,4278.461426,4262.436035,4303.461426,4298.974121,4277.307617,4281.282227,4333.461426,4397.948730,4297.563965,4277.179688,4475.641113,4491.794922,4327.692383,4398.717773,0.000000,1.000000,20.000000,,,,0.000000,2.000000,2.000000,0.000000,4.000000,2.000000,2.000000,0.000000,0.000000,4.000000,4.000000,4.000000,4.000000,4.000000,4.000000,0.000000,,,,,,,,,,,,,,,,,6.000000,0.000000,0.504856,0.499512,-0.535889,0.456543,0.960566,0.006348,-0.072274,-35.320076,45.774822,30.500145
1732158368.716416,1732158368.717877,25.000000,0.000000,4277.563965,4261.922852,4305.000000,4297.820313,4276.538574,4281.153809,4330.256348,4397.563965,4297.307617,4272.179688,4476.282227,4494.871582,4326.922852,4398.846191,0.000000,1.000000,20.000000,,,,0.000000,2.000000,2.000000,0.000000,4.000000,2.000000,2.000000,0.000000,0.000000,4.000000,4.000000,4.000000,4.000000,4.000000,4.000000,0.000000,,,,,,,,,,,,,,,,,,,,,,,,,,,,
1732158368.724224,1732158368.725486,26.000000,0.000000,4278.717773,4263.589844,4303.717773,4294.743652,4276.282227,4279.230957,4330.000000,4395.000000,4295.256348,4265.641113,4474.358887,4497.051270,4327.307617,4399.102539,0.000000,1.000000,20.000000,,,,0.000000,2.000000,2.000000,0.000000,4.000000,2.000000,2.000000,0.000000,0.000000,4.000000,4.000000,4.000000,4.000000,4.000000,4.000000,0.000000,,,,,,,,,,,,,,,,,,,,,,,,,,,,
1732158368.732033,1732158368.733294,27.000000,0.000000,4280.641113,4262.948730,4303.461426,4294.487305,4276.922852,4278.077148,4333.589844,4394.230957,4294.358887,4265.769043,4474.487305,4497.563965,4327.948730,4404.102539,0.000000,1.000000,20.000000,,,,0.000000,2.000000,2.000000,0.000000,4.000000,2.000000,2.000000,0.000000,0.000000,4.000000,4.000000,4.000000,4.000000,4.000000,4.000000,0.000000,,,,,,,,,,,,,,,,,,,,,,,,,,,,
1732158368.739841,1732158368.741202,28.000000,0.000000,4279.487305,4261.025879,4304.487305,4295.897461,4275.256348,4281.410156,4334.871582,4397.179688,4297.179688,4265.897461,4474.871582,4498.846191,4324.615234,4404.230957,0.000000,1.000000,20.000000,,,,0.000000,2.000000,2.000000,0.000000,4.000000,2.000000,2.000000,0.000000,0.000000,4.000000,4.000000,4.000000,4.000000,4.000000,4.000000,0.000000,,,,,,,,,,,,,,,,,7.000000,0.000000,0.504680,0.498840,-0.536316,0.456970,0.960566,0.006348,-0.072274,-35.322598,45.595940,30.405117
1732158368.747649,1732158368.749010,29.000000,0.000000,4278.717773,4261.025879,4304.358887,4297.051270,4276.025879,4285.000000,4333.717773,4399.102539,4296.282227,4262.563965,4474.743652,4498.077148,4323.589844,4401.153809,0.000000,1.000000,20.000000,,,,0.000000,2.000000,2.000000,0.000000,4.000000,2.000000,2.000000,0.000000,0.000000,4.000000,4.000000,4.000000,4.000000,4.000000,4.000000,0.000000,,,,,,,,,,,,,,,,,,,,,,,,,,,,
1732158368.755458,1732158368.757018,30.000000,0.000000,4280.641113,4261.794922,4302.436035,4296.410156,4280.000000,4284.615234,4334.230957,4396.666504,4296.153809,4268.077148,4474.743652,4500.256348,4331.282227,4404.615234,0.000000,1.000000,20.000000,,,,0.000000,2.000000,2.000000,0.000000,4.000000,2.000000,2.000000,0.000000,0.000000,4.000000,4.000000,4.000000,4.000000,4.000000,4.000000,0.000000,,,,,,,,,,,,,,,,,,,,,,,,,,,,
1732158368.763266,1732158368.764827,31.000000,0.000000,4282.820313,4264.487305,4303.333496,4296.538574,4280.641113,4282.820313,4334.487305,4395.769043,4303.205078,4279.615234,4477.948730,4507.948730,4340.128418,4412.436035,0.000000,1.000000,20.000000,,,,0.000000,2.000000,2.000000,0.000000,4.000000,2.000000,2.000000,0.000000,0.000000,4.000000,4.000000,4.000000,4.000000,4.000000,4.000000,0.000000,,,,,,,,,,,,,,,,,,,,,,,,,,,,
1732158368.771074,1732158368.772735,32.000000,0.000000,4282.692383,4266.282227,4305.384766,4300.641113,4278.974121,4282.051270,4333.846191,4397.692383,4305.384766,4283.461426,4486.282227,4505.512695,4342.051270,4414.743652,0.000000,1.000000,20.000000,,,,0.000000,2.000000,2.000000,0.000000,4.000000,2.000000,2.000000,0.000000,0.000000,4.000000,4.000000,4.000000,4.000000,4.000000,4.000000,0.000000,,,,,,,,,,,,,,,,,8.000000,0.000000,0.504625,0.495483,-0.538330,0.458313,0.992309,0.004883,-0.051276,-35.347969,45.607712,30.593145
1732158368.778882,1732158368.780543,33.000000,0.000000,4281.153809,4265.512695,4304.615234,4303.717773,4281.410156,4280.897461,4335.000000,4398.717773,4298.205078,4278.717773,4486.410156,4494.743652,4337.948730,4406.666504,0.000000,1.000000,20.000000,,,,0.000000,2.000000,2.000000,0.000000,4.000000,2.000000,2.000000,0.000000,0.000000,4.000000,4.000000,4.000000,4.000000,4.000000,4.000000,0.000000,,,,,,,,,,,,,,,,,,,,,,,,,,,,
1732158368.786690,1732158368.788551,34.000000,0.000000,4279.871582,4263.717773,4306.538574,4299.487305,4277.436035,4279.487305,4335.384766,4399.871582,4295.000000,4277.051270,4478.461426,4494.230957,4335.000000,4396.922852,0.000000,1.000000,20.000000,,,,0.000000,2.000000,2.000000,0.000000,4.000000,2.000000,2.000000,0.000000,0.000000,4.000000,4.000000,4.000000,4.000000,4.000000,4.000000,0.000000,,,,,,,,,,,,,,,,,,,,,,,,,,,,
1732158368.794499,1732158368.796359,35.000000,0.000000,4279.358887,4261.794922,4308.974121,4293.846191,4274.615234,4279.743652,4336.025879,4401.666504,4296.153809,4277.820313,4476.666504,4495.512695,4333.461426,4397.692383,0.000000,1.000000,20.000000,,,,0.000000,2.000000,2.000000,0.000000,4.000000,2.000000,2.000000,0.000000,0.000000,4.000000,4.000000,4.000000,4.000000,4.000000,4.000000,0.000000,,,,,,,,,,,,,,,,,,,,,,,,,,,,
1732158368.802307,1732158368.804267,36.000000,0.000000,4278.717773,4260.897461,4309.871582,4293.974121,4288.589844,4279.487305,4335.256348,4400.641113,4294.615234,4270.769043,4477.179688,4490.384766,4335.128418,4401.538574,0.000000,1.000000,20.000000,,,,0.000000,2.000000,2.000000,0.000000,4.000000,2.000000,2.000000,0.000000,0.000000,4.000000,4.000000,4.000000,4.000000,4.000000,4.000000,0.000000,,,,,,,,,,,,,,,,,9.000000,0.000000,0.504738,0.493774,-0.539429,0.458740,0.989379,0.003907,-0.071786,-35.156857,45.678913,30.475447
1732158368.810115,1732158368.812075,37.000000,0.000000,4281.153809,4262.563965,4312.948730,4294.743652,4289.358887,4278.333496,4335.000000,4399.615234,4292.692383,4267.692383,4474.487305,4492.436035,4339.102539,4398.461426,0.000000,1.000000,20.000000,,,,0.000000,2.000000,2.000000,0.000000,4.000000,2.000000,2.000000,0.000000,0.000000,4.000000,4.000000,4.000000,4.000000,4.000000,4.000000,0.000000,,,,,,,,,,,,,,,,,,,,,,,,,,,,
1732158368.817923,1732158368.820083,38.000000,0.000000,4283.717773,4264.743652,4314.743652,4293.846191,4267.051270,4278.589844,4336.410156,4401.153809,4293.205078,4275.512695,4476.794922,4502.436035,4338.205078,4401.666504,0.000000,1.000000,20.000000,,,,0.000000,2.000000,2.000000,0.000000,4.000000,2.000000,2.000000,0.000000,0.000000,4.000000,4.000000,4.000000,4.000000,4.000000,4.000000,0.000000,,,,,,,,,,,,,,,,,,,,,,,,,,,,
1732158368.825732,1732158368.827892,39.000000,0.000000,4281.025879,4263.974121,4309.615234,4294.230957,4257.820313,4280.128418,4335.769043,4400.000000,4295.256348,4279.102539,4480.897461,4507.179688,4336.282227,4412.051270,0.000000,1.000000,20.000000,,,,0.000000,2.000000,2.000000,0.000000,4.000000,2.000000,2.000000,0.000000,0.000000,4.000000,4.000000,4.000000,4.000000,4.000000,4.000000,0.000000,,,,,,,,,,,,,,,,,,,,,,,,,,,,
1732158368.833540,1732158368.835800,40.000000,0.000000,4284.102539,4264.102539,4309.358887,4296.282227,4266.153809,4281.410156,4333.846191,4398.717773,4296.922852,4275.897461,4480.769043,4506.922852,4340.641113,4414.871582,0.000000,1.000000,20.000000,,,,0.000000,2.000000,2.000000,0.000000,4.000000,2.000000,2.000000,0.000000,0.000000,4.000000,4.000000,4.000000,4.000000,4.000000,4.000000,0.000000,,,,,,,,,,,,,,,,,10.000000,0.000000,0.504679,0.493408,-0.539612,0.458984,0.974728,0.014650,-0.067879,-35.348721,45.529919,30.598446
1732158368.841348,1732158368.843608,41.000000,0.000000,4291.794922,4263.846191,4312.692383,4296.282227,4269.358887,4279.615234,4334.487305,4400.256348,4297.948730,4278.077148,4481.025879,4505.641113,4344.487305,4413.974121,0.000000,1.000000,20.000000,,,,0.000000,2.000000,2.000000,0.000000,4.000000,2.000000,2.000000,0.000000,0.000000,4.000000,4.000000,4.000000,4.000000,4.000000,4.000000,0.000000,,,,,,,,,,,,,,,,,,,,,,,,,,,,
1732158368.849157,1732158368.851616,42.000000,0.000000,4287.820313,4263.205078,4309.743652,4293.717773,4270.641113,4278.333496,4336.538574,4398.717773,4296.282227,4276.666504,4478.846191,4502.820313,4339.102539,4413.974121,0.000000,1.000000,20.000000,,,,0.000000,2.000000,2.000000,0.000000,4.000000,2.000000,2.000000,0.000000,0.000000,4.000000,4.000000,4.000000,4.000000,4.000000,4.000000,0.000000,,,,,,,,,,,,,,,,,,,,,,,,,,,,
1732158368.856965,1732158368.859424,43.000000,0.000000,4278.974121,4259.230957,4309.230957,4292.692383,4271.410156,4280.769043,4336.666504,4396.538574,4294.615234,4268.589844,4476.666504,4499.615234,4335.769043,4411.922852,0.000000,1.000000,20.000000,,,,0.000000,2.000000,2.000000,0.000000,4.000000,2.000000,2.000000,0.000000,0.000000,4.000000,4.000000,4.000000,4.000000,4.000000,4.000000,0.000000,,,,,,,,,,,,,,,,,,,,,,,,,,,,
1732158368.864773,1732158368.867332,44.000000,0.000000,4279.487305,4251.025879,4313.205078,4290.128418,4276.666504,4280.641113,4335.000000,4398.974121,4294.615234,4265.769043,4477.307617,4494.487305,4336.282227,4410.769043,0.000000,1.000000,20.000000,,,,0.000000,2.000000,2.000000,0.000000,4.000000,2.000000,2.000000,0.000000,0.000000,4.000000,4.000000,4.000000,4.000000,4.000000,4.000000,0.000000,,,,,,,,,,,,,,,,,11.000000,0.000000,0.504728,0.492920,-0.539856,0.459167,0.980100,0.002442,-0.073739,-35.377464,45.587566,30.674742
1732158368.872581,1732158368.875140,45.000000,0.000000,4283.333496,4253.205078,4313.717773,4289.743652,4292.563965,4276.794922,4334.743652,4399.487305,4294.358887,4266.922852,4481.282227,4489.230957,4338.461426,4411.666504,0.000000,1.000000,20.000000,,,,0.000000,2.000000,2.000000,0.000000,4.000000,2.000000,2.000000,0.000000,0.000000,4.000000,4.000000,4.000000,4.000000,4.000000,4.000000,0.000000,,,,,,,,,,,,,,,,,,,,,,,,,,,,
1732158368.880389,1732158368.883148,46.000000,0.000000,4282.692383,4263.333496,4314.358887,4294.743652,4284.358887,4277.307617,4336.025879,4398.333496,4293.974121,4268.077148,4483.205078,4496.410156,4341.282227,4410.384766,0.000000,1.000000,20.000000,,,,0.000000,2.000000,2.000000,0.000000,4.000000,2.000000,2.000000,0.000000,0.000000,4.000000,4.000000,4.000000,4.000000,4.000000,4.000000,0.000000,,,,,,,,,,,,,,,,,,,,,,,,,,,,
1732158368.888198,1732158368.890957,47.000000,0.000000,4279.871582,4263.077148,4316.666504,4296.794922,4258.461426,4278.717773,4336.410156,4400.000000,4293.205078,4266.282227,4478.333496,4503.974121,4337.820313,4408.974121,0.000000,1.000000,20.000000,,,,0.000000,2.000000,2.000000,0.000000,4.000000,2.000000,2.000000,0.000000,0.000000,4.000000,4.000000,4.000000,4.000000,4.000000,4.000000,0.000000,,,,,,,,,,,,,,,,,,,,,,,,,,,,
1732158368.896006,1732158368.898865,48.000000,0.000000,4280.000000,4259.102539,4315.641113,4292.692383,4256.794922,4276.794922,4335.256348,4400.512695,4292.051270,4263.589844,4475.769043,4499.487305,4334.871582,4410.384766,0.000000,1.000000,20.000000,,,,0.000000,2.000000,2.000000,0.000000,4.000000,2.000000,2.000000,0.000000,0.000000,4.000000,4.000000,4.000000,4.000000,4.000000,4.000000,0.000000,,,,,,,,,,,,,,,,,12.000000,0.000000,0.505712,0.491699,-0.540100,0.459106,0.990844,0.011232,-0.063973,-35.369080,45.622597,30.893208
1732158368.903814,1732158368.906673,49.000000,0.000000,4281.794922,4263.461426,4314.102539,4292.436035,4268.077148,4277.692383,4334.615234,4400.512695,4292.436035,4263.974121,4477.179688,4499.487305,4332.051270,4411.538574,0.000000,1.000000,20.000000,,,,0.000000,2.000000,2.000000,0.000000,4.000000,2.000000,2.000000,0.000000,0.000000,4.000000,4.000000,4.000000,4.000000,4.000000,4.000000,0.000000,,,,,,,,,,,,,,,,,,,,,,,,,,,,
1732158368.911622,1732158368.914281,50.000000,0.000000,4281.410156,4264.487305,4315.128418,4295.897461,4266.025879,4280.512695,4335.128418,4400.641113,4295.897461,4266.410156,4479.230957,4505.512695,4327.179688,4410.897461,0.000000,1.000000,20.000000,,,,0.000000,2.000000,2.000000,0.000000,4.000000,2.000000,2.000000,0.000000,0.000000,4.000000,4.000000,4.000000,4.000000,4.000000,4.000000,0.000000,,,,,,,,,,,,,,,,,,,,,,,,,,,,
1732158368.919431,1732158368.922090,51.000000,0.000000,4283.846191,4261.794922,4312.179688,4296.794922,4263.205078,4282.436035,4335.256348,4397.820313,4297.051270,4266.794922,4480.384766,4507.692383,4330.512695,4411.922852,0.000000,1.000000,20.000000,,,,0.000000,2.000000,2.000000,0.000000,4.000000,2.000000,2.000000,0.000000,0.000000,4.000000,4.000000,4.000000,4.000000,4.000000,4.000000,0.000000,,,,,,,,,,,,,,,,,,,,,,,,,,,,
1732158368.927239,1732158368.929798,52.000000,0.000000,4292.436035,4265.641113,4310.000000,4297.436035,4267.179688,4282.051270,4334.487305,4399.102539,4295.769043,4266.410156,4482.179688,4505.512695,4337.948730,4415.256348,0.000000,1.000000,20.000000,,,,0.000000,2.000000,2.000000,0.000000,4.000000,2.000000,2.000000,0.000000,0.000000,4.000000,4.000000,4.000000,4.000000,4.000000,4.000000,0.000000,,,,,,,,,,,,,,,,,13.000000,0.000000,0.505712,0.491699,-0.540100,0.459106,0.985960,-0.002442,-0.048346,-35.377285,45.620972,30.980164
1732158368.935047,1732158368.937606,53.000000,0.000000,4295.000000,4266.538574,4312.692383,4296.794922,4264.743652,4278.461426,4335.000000,4404.358887,4295.641113,4265.769043,4483.974121,4504.871582,4335.769043,4413.974121,0.000000,1.000000,20.000000,,,,0.000000,2.000000,2.000000,0.000000,4.000000,2.000000,2.000000,0.000000,0.000000,4.000000,4.000000,4.000000,4.000000,4.000000,4.000000,0.000000,,,,,,,,,,,,,,,,,,,,,,,,,,,,
1732158368.942855,1732158368.945215,54.000000,0.000000,4295.000000,4265.256348,4311.538574,4296.025879,4264.358887,4276.025879,4335.897461,4400.769043,4293.717773,4263.333496,4486.922852,4504.230957,4334.230957,4411.153809,0.000000,1.000000,20.000000,,,,0.000000,2.000000,2.000000,0.000000,4.000000,2.000000,2.000000,0.000000,0.000000,4.000000,4.000000,4.000000,4.000000,4.000000,4.000000,0.000000,,,,,,,,,,,,,,,,,,,,,,,,,,,,
1732158368.950664,1732158368.953023,55.000000,0.000000,4300.000000,4267.179688,4310.384766,4298.333496,4267.948730,4277.307617,4334.871582,4396.538574,4294.102539,4265.000000,4489.358887,4505.256348,4344.102539,4418.589844,0.000000,1.000000,20.000000,,,,0.000000,2.000000,2.000000,0.000000,4.000000,2.000000,2.000000,0.000000,0.000000,4.000000,4.000000,4.000000,4.000000,4.000000,4.000000,0.000000,,,,,,,,,,,,,,,,,,,,,,,,,,,,
1732158368.958472,1732158368.960931,56.000000,0.000000,4300.512695,4266.025879,4313.205078,4299.615234,4264.487305,4279.743652,4334.358887,4402.948730,4296.922852,4268.077148,4491.025879,4507.820313,4351.922852,4428.077148,0.000000,1.000000,20.000000,,,,0.000000,2.000000,2.000000,0.000000,4.000000,2.000000,2.000000,0.000000,0.000000,4.000000,4.000000,4.000000,4.000000,4.000000,4.000000,0.000000,,,,,,,,,,,,,,,,,14.000000,0.000000,0.506719,0.490295,-0.540588,0.458923,0.959590,0.017580,-0.065926,-35.622269,45.217987,31.015600
1732158368.966280,1732158368.968739,57.000000,0.000000,4298.333496,4262.179688,4315.000000,4298.333496,4260.128418,4275.897461,4335.641113,4406.282227,4291.666504,4266.282227,4494.102539,4508.205078,4355.256348,4431.410156,0.000000,1.000000,20.000000,,,,0.000000,2.000000,2.000000,0.000000,4.000000,2.000000,2.000000,0.000000,0.000000,4.000000,4.000000,4.000000,4.000000,4.000000,4.000000,0.000000,,,,,,,,,,,,,,,,,,,,,,,,,,,,
1732158368.974088,1732158368.976347,58.000000,0.000000,4301.666504,4261.922852,4313.846191,4296.794922,4261.666504,4267.820313,4335.641113,4400.512695,4283.717773,4263.461426,4491.025879,4509.102539,4354.743652,4432.307617,0.000000,1.000000,20.000000,,,,0.000000,2.000000,2.000000,0.000000,4.000000,2.000000,2.000000,0.000000,0.000000,4.000000,4.000000,4.000000,4.000000,4.000000,4.000000,0.000000,,,,,,,,,,,,,,,,,,,,,,,,,,,,
1732158368.981897,1732158368.984156,59.000000,0.000000,4305.384766,4263.333496,4314.743652,4294.615234,4258.205078,4264.358887,4335.000000,4397.436035,4286.538574,4264.102539,4488.717773,4510.000000,4353.717773,4436.153809,0.000000,1.000000,20.000000,,,,0.000000,2.000000,2.000000,0.000000,4.000000,2.000000,2.000000,0.000000,0.000000,4.000000,4.000000,4.000000,4.000000,4.000000,4.000000,0.000000,,,,,,,,,,,,,,,,,,,,,,,,,,,,
1732158368.989705,1732158368.991864,60.000000,0.000000,4307.051270,4263.333496,4315.769043,4294.615234,4248.333496,4266.282227,4335.641113,4399.102539,4289.871582,4263.974121,4495.256348,4508.205078,4359.487305,4441.153809,0.000000,1.000000,20.000000,,,,0.000000,2.000000,2.000000,0.000000,4.000000,2.000000,2.000000,0.000000,0.000000,4.000000,4.000000,4.000000,4.000000,4.000000,4.000000,0.000000,,,,,,,,,,,,,,,,,15.000000,0.000000,0.506811,0.489197,-0.540771,0.459778,0.987914,0.008302,-0.071786,-35.705704,45.273235,30.769302
1732158368.997513,1732158368.999672,61.000000,0.000000,4309.230957,4262.692383,4315.769043,4293.589844,4247.307617,4266.282227,4336.025879,4399.615234,4285.128418,4262.179688,4494.615234,4507.563965,4361.666504,4442.563965,0.000000,1.000000,20.000000,,,,0.000000,2.000000,2.000000,0.000000,4.000000,2.000000,2.000000,0.000000,0.000000,4.000000,4.000000,4.000000,4.000000,4.000000,4.000000,0.000000,,,,,,,,,,,,,,,,,,,,,,,,,,,,
1732158369.005321,1732158369.007281,62.000000,0.000000,4310.384766,4262.948730,4316.025879,4286.666504,4251.538574,4265.256348,4336.025879,4399.358887,4288.077148,4262.820313,4490.897461,4510.641113,4360.256348,4443.589844,0.000000,1.000000,20.000000,,,,0.000000,2.000000,2.000000,0.000000,4.000000,2.000000,2.000000,0.000000,0.000000,4.000000,4.000000,4.000000,4.000000,4.000000,4.000000,0.000000,,,,,,,,,,,,,,,,,,,,,,,,,,,,
1732158369.013130,1732158369.015089,63.000000,0.000000,4307.948730,4261.794922,4314.871582,4278.846191,4250.256348,4266.666504,4336.538574,4399.487305,4296.025879,4264.358887,4497.820313,4516.410156,4364.871582,4446.538574,0.000000,1.000000,20.000000,,,,0.000000,2.000000,2.000000,0.000000,4.000000,2.000000,2.000000,0.000000,0.000000,4.000000,4.000000,4.000000,4.000000,4.000000,4.000000,0.000000,,,,,,,,,,,,,,,,,,,,,,,,,,,,
1732158369.020938,1732158369.022997,64.000000,0.000000,4308.333496,4261.282227,4314.102539,4280.128418,4248.333496,4266.282227,4336.666504,4400.512695,4295.384766,4264.487305,4506.538574,4516.282227,4369.615234,4446.538574,0.000000,1.000000,20.000000,,,,0.000000,2.000000,2.000000,0.000000,4.000000,2.000000,2.000000,0.000000,0.000000,4.000000,4.000000,4.000000,4.000000,4.000000,4.000000,0.000000,,,,,,,,,,,,,,,,,16.000000,0.000000,0.505550,0.487732,-0.541870,0.461426,0.977658,-0.017580,-0.070321,-35.683289,45.447987,30.564802
1732158369.028746,1732158369.030805,65.000000,0.000000,4313.589844,4263.974121,4318.205078,4287.051270,4248.974121,4267.051270,4336.153809,4400.897461,4292.179688,4262.307617,4503.846191,4512.436035,4366.922852,4445.641113,1613.000000,1.000000,20.000000,,,,0.000000,2.000000,2.000000,0.000000,4.000000,2.000000,2.000000,0.000000,0.000000,4.000000,4.000000,4.000000,4.000000,4.000000,4.000000,0.000000,,,,,,,,,,,,,,,,,,,,,,,,,,,,
1732158369.036554,1732158369.038813,66.000000,0.000000,4318.589844,4266.794922,4322.051270,4289.743652,4248.589844,4268.974121,4336.282227,4399.230957,4293.846191,4261.538574,4501.666504,4516.282227,4369.487305,4451.666504,1364.000000,1.000000,20.000000,,,,0.000000,2.000000,2.000000,0.000000,4.000000,2.000000,2.000000,0.000000,0.000000,4.000000,4.000000,4.000000,4.000000,4.000000,4.000000,0.000000,,,,,,,,,,,,,,,,,,,,,,,,,,,,
1732158369.044363,1732158369.046621,67.000000,0.000000,4319.615234,4266.282227,4320.641113,4291.153809,4249.743652,4266.025879,4336.282227,4399.871582,4295.128418,4265.897461,4507.820313,4522.692383,4379.358887,4458.077148,1429.000000,1.000000,20.000000,,,,0.000000,2.000000,2.000000,0.000000,4.000000,2.000000,2.000000,0.000000,0.000000,4.000000,4.000000,4.000000,4.000000,4.000000,4.000000,0.000000,,,,,,,,,,,,,,,,,,,,,,,,,,,,
1732158369.052171,1732158369.054330,68.000000,0.000000,4321.666504,4265.256348,4319.615234,4293.077148,4249.358887,4263.717773,4336.282227,4401.666504,4295.000000,4269.102539,4510.256348,4522.307617,4382.307617,4457.692383,1432.000000,1.000000,20.000000,,,,0.000000,2.000000,2.000000,0.000000,4.000000,2.000000,2.000000,0.000000,0.000000,4.000000,4.000000,4.000000,4.000000,4.000000,4.000000,0.000000,,,,,,,,,,,,,,,,,17.000000,0.000000,0.504916,0.487366,-0.542114,0.462219,0.977658,-0.017580,-0.070321,-35.616795,45.426205,30.520823
1732158369.059979,1732158369.062138,69.000000,0.000000,4325.769043,4266.025879,4321.538574,4293.717773,4247.307617,4265.256348,4337.563965,4402.820313,4296.025879,4267.692383,4508.077148,4521.153809,4381.410156,4460.384766,1204.000000,1.000000,20.000000,,,,0.000000,2.000000,2.000000,0.000000,4.000000,2.000000,2.000000,0.000000,0.000000,4.000000,4.000000,4.000000,4.000000,4.000000,4.000000,0.000000,,,,,,,,,,,,,,,,,,,,,,,,,,,,
1732158369.067788,1732158369.070146,70.000000,0.000000,4326.538574,4266.538574,4321.666504,4294.871582,4248.077148,4266.282227,4339.615234,4403.461426,4288.717773,4266.538574,4506.153809,4523.333496,4383.077148,4463.205078,0.000000,1.000000,20.000000,,,,0.000000,2.000000,2.000000,0.000000,4.000000,2.000000,2.000000,0.000000,0.000000,4.000000,4.000000,4.000000,4.000000,4.000000,4.000000,0.000000,,,,,,,,,,,,,,,,,,,,,,,,,,,,
1732158369.075596,1732158369.077954,71.000000,0.000000,4325.384766,4267.820313,4318.717773,4294.743652,4249.743652,4264.615234,4339.743652,4401.282227,4279.358887,4267.179688,4504.743652,4520.641113,4382.051270,4460.000000,0.000000,1.000000,20.000000,,,,0.000000,2.000000,2.000000,0.000000,4.000000,2.000000,2.000000,0.000000,0.000000,4.000000,4.000000,4.000000,4.000000,4.000000,4.000000,0.000000,,,,,,,,,,,,,,,,,,,,,,,,,,,,
1732158369.083404,1732158369.085862,72.000000,0.000000,4325.128418,4268.333496,4320.256348,4292.692383,4247.948730,4263.205078,4340.384766,4402.179688,4282.820313,4266.666504,4506.538574,4523.461426,4383.846191,4462.563965,1538.000000,1.000000,20.000000,,,,0.000000,2.000000,2.000000,0.000000,4.000000,2.000000,2.000000,0.000000,0.000000,4.000000,4.000000,4.000000,4.000000,4.000000,4.000000,0.000000,,,,,,,,,,,,,,,,,18.000000,0.000000,0.504345,0.487000,-0.542297,0.463013,0.981565,-0.018557,-0.060554,-35.646271,45.525223,30.656866
1732158369.091212,1732158369.093670,73.000000,0.000000,4326.794922,4265.128418,4324.102539,4293.077148,4247.436035,4263.846191,4341.666504,4406.922852,4287.563965,4265.897461,4506.666504,4533.333496,4390.512695,4471.410156,1698.000000,1.000000,20.000000,,,,0.000000,2.000000,2.000000,0.000000,4.000000,2.000000,2.000000,0.000000,0.000000,4.000000,4.000000,4.000000,4.000000,4.000000,4.000000,0.000000,,,,,,,,,,,,,,,,,,,,,,,,,,,,
1732158369.099020,1732158369.101678,74.000000,0.000000,4327.820313,4264.230957,4315.769043,4292.307617,4251.282227,4263.717773,4338.333496,4402.948730,4281.922852,4265.897461,4509.871582,4533.205078,4394.743652,4473.974121,1551.000000,1.000000,20.000000,,,,0.000000,2.000000,2.000000,0.000000,4.000000,2.000000,2.000000,0.000000,0.000000,4.000000,4.000000,4.000000,4.000000,4.000000,4.000000,0.000000,,,,,,,,,,,,,,,,,,,,,,,,,,,,
1732158369.106829,1732158369.109487,75.000000,0.000000,4326.025879,4264.743652,4323.461426,4283.077148,4246.666504,4263.077148,4342.179688,4401.794922,4278.717773,4266.538574,4517.179688,4533.333496,4394.743652,4472.307617,1554.000000,1.000000,20.000000,,,,0.000000,2.000000,2.000000,0.000000,4.000000,2.000000,2.000000,0.000000,0.000000,4.000000,4.000000,4.000000,4.000000,4.000000,4.000000,0.000000,,,,,,,,,,,,,,,,,,,,,,,,,,,,
1732158369.114637,1732158369.117395,76.000000,0.000000,4324.358887,4254.871582,4360.128418,4276.153809,4238.589844,4263.589844,4353.077148,4413.717773,4282.820313,4267.179688,4514.615234,4542.436035,4391.282227,4473.205078,1701.000000,1.000000,20.000000,,,,0.000000,2.000000,2.000000,0.000000,4.000000,2.000000,2.000000,0.000000,0.000000,4.000000,4.000000,4.000000,4.000000,4.000000,4.000000,0.000000,,,,,,,,,,,,,,,,,19.000000,0.000000,0.502765,0.484863,-0.543640,0.465393,0.985472,-0.031254,-0.046392,-35.420147,45.438766,31.067062
1732158369.122445,1732158369.125203,77.000000,0.000000,4325.128418,4247.692383,4361.410156,4278.077148,4250.256348,4262.820313,4349.358887,4416.410156,4279.615234,4263.333496,4503.974121,4537.948730,4387.179688,4474.230957,1579.000000,1.000000,20.000000,,,,0.000000,2.000000,2.000000,0.000000,4.000000,2.000000,2.000000,0.000000,0.000000,4.000000,4.000000,4.000000,4.000000,4.000000,4.000000,0.000000,,,,,,,,,,,,,,,,,,,,,,,,,,,,
1732158369.130253,1732158369.133211,78.000000,0.000000,4324.743652,4257.563965,4318.333496,4279.230957,4255.641113,4260.512695,4335.384766,4405.384766,4278.846191,4262.307617,4509.487305,4525.000000,4391.410156,4473.461426,1551.000000,1.000000,20.000000,,,,0.000000,2.000000,2.000000,0.000000,4.000000,2.000000,2.000000,0.000000,0.000000,4.000000,4.000000,4.000000,4.000000,4.000000,4.000000,0.000000,1.000000,0.000000,2.000000,2.000000,0.000000,4.000000,2.000000,2.000000,0.000000,0.000000,4.000000,4.000000,4.000000,4.000000,4.000000,4.000000,,,,,,,,,,,,
1732158369.138062,1732158369.141019,79.000000,0.000000,4323.589844,4267.820313,4306.922852,4283.077148,4237.563965,4261.282227,4332.307617,4401.410156,4291.282227,4272.307617,4522.179688,4528.717773,4401.666504,4475.512695,1554.000000,1.000000,20.000000,,,,0.000000,2.000000,2.000000,0.000000,4.000000,2.000000,2.000000,0.000000,0.000000,4.000000,4.000000,4.000000,4.000000,4.000000,4.000000,0.000000,,,,,,,,,,,,,,,,,,,,,,,,,,,,
1732158369.145870,1732158369.148927,80.000000,0.000000,4325.000000,4262.820313,4322.820313,4291.282227,4232.820313,4263.974121,4335.897461,4402.436035,4296.153809,4279.102539,4522.051270,4538.461426,4403.077148,4478.974121,1701.000000,1.000000,20.000000,,,,0.000000,2.000000,2.000000,0.000000,4.000000,2.000000,2.000000,0.000000,0.000000,4.000000,4.000000,4.000000,4.000000,4.000000,4.000000,0.000000,,,,,,,,,,,,,,,,,20.000000,0.000000,0.502332,0.484314,-0.544006,0.466003,0.985472,-0.031254,-0.046392,-35.336987,45.240398,31.122654
1732158369.153678,1732158369.156735,81.000000,0.000000,4326.153809,4258.589844,4318.205078,4293.589844,4247.563965,4263.461426,4335.384766,4401.153809,4287.179688,4276.666504,4521.410156,4538.077148,4398.846191,4480.128418,1579.000000,1.000000,20.000000,,,,0.000000,2.000000,2.000000,0.000000,4.000000,2.000000,2.000000,0.000000,0.000000,4.000000,4.000000,4.000000,4.000000,4.000000,4.000000,0.000000,,,,,,,,,,,,,,,,,,,,,,,,,,,,
1732158369.161487,1732158369.164743,82.000000,0.000000,4325.512695,4260.897461,4310.128418,4288.846191,4248.333496,4263.461426,4335.512695,4401.282227,4286.282227,4276.666504,4524.871582,4534.358887,4398.717773,4478.974121,1551.000000,1.000000,20.000000,,,,0.000000,2.000000,2.000000,0.000000,4.000000,2.000000,2.000000,0.000000,0.000000,4.000000,4.000000,4.000000,4.000000,4.000000,4.000000,0.000000,,,,,,,,,,,,,,,,,,,,,,,,,,,,
1732158369.169295,1732158369.172552,83.000000,0.000000,4326.922852,4257.563965,4316.025879,4284.230957,4236.666504,4264.615234,4336.025879,4404.358887,4295.641113,4279.102539,4524.230957,4536.410156,4398.974121,4478.461426,1554.000000,1.000000,20.000000,,,,0.000000,2.000000,2.000000,0.000000,4.000000,2.000000,2.000000,0.000000,0.000000,4.000000,4.000000,4.000000,4.000000,4.000000,4.000000,0.000000,,,,,,,,,,,,,,,,,,,,,,,,,,,,
1732158369.177103,1732158369.180460,84.000000,0.000000,4325.384766,4255.641113,4316.538574,4280.769043,4247.307617,4264.102539,4335.256348,4405.641113,4297.563965,4281.025879,4523.461426,4538.461426,4398.846191,4479.358887,1701.000000,1.000000,20.000000,,,,0.000000,2.000000,2.000000,0.000000,4.000000,2.000000,2.000000,0.000000,0.000000,4.000000,4.000000,4.000000,4.000000,4.000000,4.000000,0.000000,,,,,,,,,,,,,,,,,21.000000,0.000000,0.501137,0.482056,-0.545593,0.467773,0.975217,-0.046392,-0.058601,-35.367958,45.353058,31.162683
1732158369.184911,1732158369.188268,85.000000,0.000000,4318.717773,4260.641113,4314.871582,4280.897461,4265.641113,4262.436035,4335.384766,4403.205078,4293.974121,4282.179688,4523.077148,4531.666504,4397.436035,4475.256348,1579.000000,1.000000,20.000000,,,,0.000000,2.000000,2.000000,0.000000,4.000000,2.000000,2.000000,0.000000,0.000000,4.000000,4.000000,4.000000,4.000000,4.000000,4.000000,0.000000,,,,,,,,,,,,,,,,,,,,,,,,,,,,
1732158369.192719,1732158369.196276,86.000000,0.000000,4321.410156,4264.487305,4314.230957,4288.461426,4253.846191,4261.538574,4334.615234,4401.666504,4293.461426,4279.102539,4520.256348,4523.333496,4396.922852,4472.692383,1551.000000,1.000000,20.000000,,,,0.000000,2.000000,2.000000,0.000000,4.000000,2.000000,2.000000,0.000000,0.000000,4.000000,4.000000,4.000000,4.000000,4.000000,4.000000,0.000000,,,,,,,,,,,,,,,,,,,,,,,,,,,,
1732158369.200528,1732158369.204084,87.000000,0.000000,4329.615234,4265.256348,4314.102539,4294.615234,4231.538574,4262.563965,4334.615234,4402.692383,4293.461426,4275.512695,4517.179688,4522.820313,4396.538574,4475.000000,1554.000000,1.000000,20.000000,,,,0.000000,2.000000,2.000000,0.000000,4.000000,2.000000,2.000000,0.000000,0.000000,4.000000,4.000000,4.000000,4.000000,4.000000,4.000000,0.000000,,,,,,,,,,,,,,,,,,,,,,,,,,,,
1732158369.208336,1732158369.211992,88.000000,0.000000,4328.205078,4265.128418,4314.743652,4294.230957,4237.692383,4265.000000,4335.641113,4401.794922,4296.922852,4278.846191,4518.846191,4522.948730,4397.307617,4474.743652,1701.000000,1.000000,20.000000,,,,0.000000,2.000000,2.000000,0.000000,4.000000,2.000000,2.000000,0.000000,0.000000,4.000000,4.000000,4.000000,4.000000,4.000000,4.000000,0.000000,,,,,,,,,,,,,,,,,22.000000,0.000000,0.499007,0.479858,-0.547485,0.470093,0.984007,-0.046392,-0.068856,-35.546379,45.455975,31.056772
1732158369.216144,1732158369.219801,89.000000,0.000000,4325.256348,4266.666504,4315.512695,4295.384766,4253.589844,4267.307617,4335.641113,4399.871582,4296.538574,4281.282227,4523.077148,4523.846191,4395.769043,4475.512695,1579.000000,1.000000,20.000000,,,,0.000000,2.000000,2.000000,0.000000,4.000000,2.000000,2.000000,0.000000,0.000000,4.000000,4.000000,4.000000,4.000000,4.000000,4.000000,0.000000,,,,,,,,,,,,,,,,,,,,,,,,,,,,
1732158369.223952,1732158369.227809,90.000000,0.000000,4327.307617,4271.153809,4315.000000,4297.692383,4249.487305,4267.436035,4334.743652,4399.871582,4284.871582,4277.948730,4518.974121,4527.563965,4388.205078,4471.794922,1551.000000,1.000000,20.000000,,,,0.000000,2.000000,2.000000,0.000000,4.000000,2.000000,2.000000,0.000000,0.000000,4.000000,4.000000,4.000000,4.000000,4.000000,4.000000,0.000000,,,,,,,,,,,,,,,,,,,,,,,,,,,,
1732158369.231761,1732158369.235617,91.000000,0.000000,4325.897461,4273.846191,4312.692383,4297.307617,4249.230957,4266.794922,4334.743652,4399.102539,4281.025879,4276.025879,4509.871582,4528.333496,4386.410156,4464.230957,1554.000000,1.000000,20.000000,,,,0.000000,2.000000,2.000000,0.000000,4.000000,2.000000,2.000000,0.000000,0.000000,4.000000,4.000000,4.000000,4.000000,4.000000,4.000000,0.000000,,,,,,,,,,,,,,,,,,,,,,,,,,,,
1732158369.239569,1732158369.243525,92.000000,0.000000,4322.948730,4267.436035,4312.820313,4295.512695,4253.205078,4267.051270,4334.743652,4399.358887,4295.512695,4280.128418,4509.871582,4533.461426,4390.512695,4463.333496,1701.000000,1.000000,20.000000,,,,0.000000,2.000000,2.000000,0.000000,4.000000,2.000000,2.000000,0.000000,0.000000,4.000000,4.000000,4.000000,4.000000,4.000000,4.000000,0.000000,,,,,,,,,,,,,,,,,23.000000,0.000000,0.498064,0.479004,-0.548096,0.471252,0.980588,-0.059578,-0.040044,-35.752567,45.214340,31.162653
1732158369.247377,1732158369.251333,93.000000,0.000000,4321.153809,4263.205078,4315.897461,4293.717773,4249.487305,4266.922852,4333.461426,4403.205078,4297.820313,4283.589844,4510.512695,4542.820313,4386.666504,4466.153809,1579.000000,1.000000,20.000000,,,,0.000000,2.000000,2.000000,0.000000,4.000000,2.000000,2.000000,0.000000,0.000000,4.000000,4.000000,4.000000,4.000000,4.000000,4.000000,0.000000,,,,,,,,,,,,,,,,,,,,,,,,,,,,
1732158369.255185,1732158369.259341,94.000000,0.000000,4315.641113,4265.384766,4317.563965,4291.666504,4254.871582,4267.051270,4334.102539,4403.461426,4283.846191,4275.897461,4505.641113,4535.256348,4380.000000,4458.717773,1551.000000,1.000000,20.000000,,,,0.000000,2.000000,2.000000,0.000000,4.000000,2.000000,2.000000,0.000000,0.000000,4.000000,4.000000,4.000000,4.000000,4.000000,4.000000,0.000000,,,,,,,,,,,,,,,,,,,,,,,,,,,,
1732158369.262994,1732158369.267149,95.000000,0.000000,4311.538574,4264.358887,4317.051270,4290.897461,4262.563965,4267.948730,4335.128418,4398.589844,4283.205078,4266.153809,4506.153809,4524.871582,4380.512695,4450.897461,1554.000000,1.000000,20.000000,,,,0.000000,2.000000,2.000000,0.000000,4.000000,2.000000,2.000000,0.000000,0.000000,4.000000,4.000000,4.000000,4.000000,4.000000,4.000000,0.000000,,,,,,,,,,,,,,,,,,,,,,,,,,,,
1732158369.270802,1732158369.274858,96.000000,0.000000,4313.205078,4262.820313,4317.307617,4289.615234,4263.589844,4267.436035,4335.128418,4396.922852,4289.487305,4265.384766,4507.051270,4525.512695,4380.256348,4454.358887,1701.000000,1.000000,20.000000,,,,0.000000,2.000000,2.000000,0.000000,4.000000,2.000000,2.000000,0.000000,0.000000,4.000000,4.000000,4.000000,4.000000,4.000000,4.000000,0.000000,,,,,,,,,,,,,,,,,24.000000,0.000000,0.497824,0.478394,-0.548584,0.471558,0.982542,-0.074716,-0.058113,-35.672913,45.078617,31.416748
1732158369.278610,1732158369.282666,97.000000,0.000000,4316.666504,4264.871582,4316.666504,4291.794922,4259.743652,4265.384766,4334.743652,4401.666504,4281.282227,4265.769043,4501.794922,4528.205078,4378.974121,4459.230957,1579.000000,1.000000,20.000000,,,,0.000000,2.000000,2.000000,0.000000,4.000000,2.000000,2.000000,0.000000,0.000000,4.000000,4.000000,4.000000,4.000000,4.000000,4.000000,0.000000,,,,,,,,,,,,,,,,,,,,,,,,,,,,
1732158369.286419,1732158369.290274,98.000000,0.000000,4322.307617,4267.307617,4315.512695,4297.692383,4259.102539,4265.897461,4334.230957,4403.589844,4278.077148,4265.128418,4503.589844,4532.563965,4382.948730,4462.179688,1551.000000,1.000000,20.000000,,,,0.000000,2.000000,2.000000,0.000000,4.000000,2.000000,2.000000,0.000000,0.000000,4.000000,4.000000,4.000000,4.000000,4.000000,4.000000,0.000000,,,,,,,,,,,,,,,,,,,,,,,,,,,,
1732158369.294227,1732158369.298082,99.000000,0.000000,4327.563965,4269.358887,4316.794922,4298.333496,4272.436035,4266.025879,4333.589844,4399.358887,4286.794922,4265.256348,4508.077148,4538.589844,4383.717773,4463.461426,1554.000000,1.000000,20.000000,,,,0.000000,2.000000,2.000000,0.000000,4.000000,2.000000,2.000000,0.000000,0.000000,4.000000,4.000000,4.000000,4.000000,4.000000,4.000000,0.000000,,,,,,,,,,,,,,,,,,,,,,,,,,,,
1732158369.302035,1732158369.305791,100.000000,0.000000,4327.563965,4272.179688,4318.205078,4295.256348,4275.384766,4264.102539,4334.230957,4400.384766,4286.538574,4264.871582,4505.641113,4543.717773,4380.641113,4468.589844,1701.000000,1.000000,20.000000,,,,0.000000,2.000000,2.000000,0.000000,4.000000,2.000000,2.000000,0.000000,0.000000,4.000000,4.000000,4.000000,4.000000,4.000000,4.000000,0.000000,,,,,,,,,,,,,,,,,25.000000,0.000000,0.497384,0.477478,-0.549255,0.472168,0.982053,-0.061531,-0.044927,-35.513393,44.873680,31.147566
1732158369.309843,1732158369.313599,101.000000,0.000000,4327.051270,4275.256348,4317.692383,4300.000000,4253.846191,4265.384766,4335.256348,4405.769043,4285.641113,4270.256348,4505.512695,4545.384766,4381.410156,4475.641113,1579.000000,1.000000,20.000000,,,,0.000000,2.000000,2.000000,0.000000,4.000000,2.000000,2.000000,0.000000,0.000000,4.000000,4.000000,4.000000,4.000000,4.000000,4.000000,0.000000,,,,,,,,,,,,,,,,,,,,,,,,,,,,
1732158369.317651,1732158369.321207,102.000000,0.000000,4328.333496,4278.589844,4316.025879,4305.512695,4241.538574,4267.179688,4334.358887,4405.641113,4294.230957,4279.102539,4509.743652,4540.128418,4383.461426,4471.922852,1551.000000,1.000000,20.000000,,,,0.000000,2.000000,2.000000,0.000000,4.000000,2.000000,2.000000,0.000000,0.000000,4.000000,4.000000,4.000000,4.000000,4.000000,4.000000,0.000000,,,,,,,,,,,,,,,,,,,,,,,,,,,,
1732158369.325460,1732158369.329016,103.000000,0.000000,4326.794922,4277.051270,4315.897461,4299.871582,4253.717773,4264.871582,4334.358887,4399.230957,4296.538574,4278.974121,4511.538574,4536.282227,4382.948730,4463.205078,1554.000000,1.000000,20.000000,,,,0.000000,2.000000,2.000000,0.000000,4.000000,2.000000,2.000000,0.000000,0.000000,4.000000,4.000000,4.000000,4.000000,4.000000,4.000000,0.000000,,,,,,,,,,,,,,,,,,,,,,,,,,,,
1732158369.333268,1732158369.336724,104.000000,0.000000,4321.282227,4269.102539,4318.077148,4295.256348,4261.666504,4263.205078,4335.897461,4397.563965,4294.743652,4277.820313,4510.256348,4539.487305,4382.307617,4459.230957,1701.000000,1.000000,20.000000,,,,0.000000,2.000000,2.000000,0.000000,4.000000,2.000000,2.000000,0.000000,0.000000,4.000000,4.000000,4.000000,4.000000,4.000000,4.000000,0.000000,,,,,,,,,,,,,,,,,26.000000,0.000000,0.496234,0.476379,-0.549988,0.473633,0.981077,-0.077646,-0.051764,-35.622517,44.772678,30.932861
1732158369.341076,1732158369.344532,105.000000,0.000000,4318.589844,4269.615234,4317.692383,4300.641113,4261.922852,4265.641113,4336.025879,4403.846191,4292.692383,4281.282227,4507.436035,4535.128418,4380.769043,4460.000000,1579.000000,1.000000,20.000000,,,,0.000000,2.000000,2.000000,0.000000,4.000000,2.000000,2.000000,0.000000,0.000000,4.000000,4.000000,4.000000,4.000000,4.000000,4.000000,0.000000,,,,,,,,,,,,,,,,,,,,,,,,,,,,
1732158369.348884,1732158369.352140,106.000000,0.000000,4320.000000,4278.717773,4314.871582,4302.179688,4266.153809,4265.256348,4334.871582,4406.282227,4287.692383,4279.615234,4505.641113,4529.743652,4379.230957,4460.000000,1551.000000,1.000000,20.000000,,,,0.000000,2.000000,2.000000,0.000000,4.000000,2.000000,2.000000,0.000000,0.000000,4.000000,4.000000,4.000000,4.000000,4.000000,4.000000,0.000000,,,,,,,,,,,,,,,,,,,,,,,,,,,,
1732158369.356693,1732158369.359949,107.000000,0.000000,4319.358887,4279.615234,4312.436035,4297.563965,4266.025879,4263.461426,4335.000000,4401.153809,4288.846191,4277.563965,4509.102539,4533.205078,4380.897461,4455.384766,1554.000000,1.000000,20.000000,,,,0.000000,2.000000,2.000000,0.000000,4.000000,2.000000,2.000000,0.000000,0.000000,4.000000,4.000000,4.000000,4.000000,4.000000,4.000000,0.000000,,,,,,,,,,,,,,,,,,,,,,,,,,,,
1732158369.364501,1732158369.367657,108.000000,0.000000,4313.717773,4275.769043,4315.128418,4296.025879,4266.025879,4265.769043,4335.128418,4399.871582,4298.077148,4281.282227,4510.769043,4529.487305,4379.615234,4446.410156,1701.000000,1.000000,20.000000,,,,0.000000,2.000000,2.000000,0.000000,4.000000,2.000000,2.000000,0.000000,0.000000,4.000000,4.000000,4.000000,4.000000,4.000000,4.000000,0.000000,,,,,,,,,,,,,,,,,27.000000,0.000000,0.495933,0.476318,-0.550049,0.473938,0.984984,-0.048346,-0.056159,-35.835903,44.635872,30.870619
1732158369.372309,1732158369.375465,109.000000,0.000000,4307.307617,4277.051270,4317.436035,4296.025879,4266.538574,4267.692383,4334.358887,4401.922852,4295.897461,4282.820313,4505.512695,4521.538574,4374.743652,4441.666504,1579.000000,1.000000,20.000000,,,,0.000000,2.000000,2.000000,0.000000,4.000000,2.000000,2.000000,0.000000,0.000000,4.000000,4.000000,4.000000,4.000000,4.000000,4.000000,0.000000,,,,,,,,,,,,,,,,,,,,,,,,,,,,
1732158369.380118,1732158369.383074,110.000000,0.000000,4306.922852,4280.641113,4315.512695,4298.333496,4264.358887,4266.794922,4335.000000,4400.641113,4291.410156,4281.282227,4501.922852,4520.897461,4373.333496,4443.461426,1551.000000,1.000000,20.000000,,,,0.000000,2.000000,2.000000,0.000000,4.000000,2.000000,2.000000,0.000000,0.000000,4.000000,4.000000,4.000000,4.000000,4.000000,4.000000,0.000000,,,,,,,,,,,,,,,,,,,,,,,,,,,,
1732158369.387926,1732158369.390882,111.000000,0.000000,4311.025879,4282.436035,4317.179688,4305.384766,4266.794922,4266.025879,4333.717773,4398.974121,4294.358887,4280.641113,4506.538574,4523.846191,4374.102539,4440.128418,1554.000000,1.000000,20.000000,,,,0.000000,2.000000,2.000000,0.000000,4.000000,2.000000,2.000000,0.000000,0.000000,4.000000,4.000000,4.000000,4.000000,4.000000,4.000000,0.000000,,,,,,,,,,,,,,,,,,,,,,,,,,,,
1732158369.395734,1732158369.398590,112.000000,0.000000,4311.282227,4282.436035,4318.333496,4305.384766,4269.102539,4265.384766,4332.051270,4401.666504,4287.179688,4276.794922,4504.871582,4523.974121,4372.948730,4435.897461,1701.000000,1.000000,20.000000,,,,0.000000,2.000000,2.000000,0.000000,4.000000,2.000000,2.000000,0.000000,0.000000,4.000000,4.000000,4.000000,4.000000,4.000000,4.000000,0.000000,,,,,,,,,,,,,,,,,28.000000,0.000000,0.495771,0.475952,-0.550354,0.474121,0.996215,-0.066903,-0.053229,-35.867081,44.641724,31.116867
1732158369.403542,1732158369.406398,113.000000,0.000000,4307.051270,4278.974121,4314.871582,4298.333496,4267.563965,4264.358887,4333.333496,4403.077148,4278.205078,4273.974121,4494.871582,4522.179688,4372.563965,4438.974121,1579.000000,1.000000,20.000000,,,,0.000000,2.000000,2.000000,0.000000,4.000000,2.000000,2.000000,0.000000,0.000000,4.000000,4.000000,4.000000,4.000000,4.000000,4.000000,0.000000,,,,,,,,,,,,,,,,,,,,,,,,,,,,
1732158369.411350,1732158369.414007,114.000000,0.000000,4305.128418,4278.589844,4314.743652,4299.230957,4264.615234,4264.743652,4335.512695,4402.436035,4283.589844,4275.897461,4496.794922,4524.615234,4373.717773,4443.205078,1551.000000,1.000000,20.000000,,,,0.000000,2.000000,2.000000,0.000000,4.000000,2.000000,2.000000,0.000000,0.000000,4.000000,4.000000,4.000000,4.000000,4.000000,4.000000,0.000000,,,,,,,,,,,,,,,,,,,,,,,,,,,,
1732158369.419159,1732158369.421815,115.000000,0.000000,4310.641113,4283.333496,4318.205078,4301.794922,4261.538574,4265.384766,4334.358887,4401.794922,4287.307617,4279.102539,4509.230957,4533.333496,4374.102539,4445.128418,1554.000000,1.000000,20.000000,,,,0.000000,2.000000,2.000000,0.000000,4.000000,2.000000,2.000000,0.000000,0.000000,4.000000,4.000000,4.000000,4.000000,4.000000,4.000000,0.000000,,,,,,,,,,,,,,,,,,,,,,,,,,,,
1732158369.426967,1732158369.429523,116.000000,0.000000,4312.436035,4281.153809,4315.769043,4297.436035,4270.128418,4263.846191,4333.205078,4401.538574,4282.820313,4277.563965,4506.538574,4534.230957,4372.563965,4445.641113,1701.000000,1.000000,20.000000,,,,0.000000,2.000000,2.000000,0.000000,4.000000,2.000000,2.000000,0.000000,0.000000,4.000000,4.000000,4.000000,4.000000,4.000000,4.000000,0.000000,,,,,,,,,,,,,,,,,29.000000,0.000000,0.495734,0.475891,-0.550598,0.473938,0.972775,-0.042974,-0.049811,-35.794003,44.559795,31.194662
1732158369.434775,1732158369.437331,117.000000,0.000000,4303.205078,4270.897461,4313.077148,4292.948730,4279.743652,4266.025879,4334.487305,4401.538574,4286.794922,4273.077148,4491.153809,4524.358887,4367.051270,4438.333496,1579.000000,1.000000,20.000000,,,,0.000000,2.000000,2.000000,0.000000,4.000000,2.000000,2.000000,0.000000,0.000000,4.000000,4.000000,4.000000,4.000000,4.000000,4.000000,0.000000,,,,,,,,,,,,,,,,,,,,,,,,,,,,
1732158369.442583,1732158369.445339,118.000000,0.000000,4298.974121,4269.487305,4316.794922,4294.358887,4267.820313,4274.743652,4335.897461,4400.256348,4295.897461,4274.230957,4488.205078,4521.282227,4362.563965,4428.461426,1551.000000,1.000000,20.000000,,,,0.000000,2.000000,2.000000,0.000000,4.000000,2.000000,2.000000,0.000000,0.000000,4.000000,4.000000,4.000000,4.000000,4.000000,4.000000,0.000000,,,,,,,,,,,,,,,,,,,,,,,,,,,,
1732158369.450392,1732158369.453148,119.000000,0.000000,4306.410156,4278.077148,4317.820313,4298.333496,4253.589844,4282.436035,4336.025879,4398.461426,4298.589844,4278.333496,4495.128418,4528.205078,4363.846191,4435.000000,1554.000000,1.000000,20.000000,,,,0.000000,2.000000,2.000000,0.000000,4.000000,2.000000,2.000000,0.000000,0.000000,4.000000,4.000000,4.000000,4.000000,4.000000,4.000000,0.000000,,,,,,,,,,,,,,,,,,,,,,,,,,,,
1732158369.458200,1732158369.461056,120.000000,0.000000,4309.102539,4281.538574,4314.743652,4298.205078,4259.871582,4280.897461,4335.000000,4397.307617,4294.102539,4277.820313,4492.948730,4530.641113,4366.538574,4442.307617,1701.000000,1.000000,20.000000,,,,0.000000,2.000000,2.000000,0.000000,4.000000,2.000000,2.000000,0.000000,0.000000,4.000000,4.000000,4.000000,4.000000,4.000000,4.000000,0.000000,,,,,,,,,,,,,,,,,30.000000,0.000000,0.495712,0.476257,-0.550354,0.473877,0.977170,-0.041021,-0.050787,-35.843143,44.508434,31.281010
1732158369.466008,1732158369.468864,121.000000,0.000000,4303.974121,4278.589844,4315.897461,4296.794922,4267.948730,4270.000000,4335.641113,4397.948730,4285.512695,4275.000000,4489.487305,4525.641113,4366.282227,4433.717773,1579.000000,1.000000,20.000000,,,,0.000000,2.000000,2.000000,0.000000,4.000000,2.000000,2.000000,0.000000,0.000000,4.000000,4.000000,4.000000,4.000000,4.000000,4.000000,0.000000,,,,,,,,,,,,,,,,,,,,,,,,,,,,
1732158369.473817,1732158369.476872,122.000000,0.000000,4307.563965,4280.384766,4316.922852,4301.282227,4263.589844,4263.974121,4336.922852,4397.948730,4285.769043,4276.922852,4498.205078,4523.205078,4365.384766,4428.846191,1551.000000,1.000000,20.000000,,,,0.000000,2.000000,2.000000,0.000000,4.000000,2.000000,2.000000,0.000000,0.000000,4.000000,4.000000,4.000000,4.000000,4.000000,4.000000,0.000000,,,,,,,,,,,,,,,,,,,,,,,,,,,,
1732158369.481625,1732158369.484680,123.000000,0.000000,4313.974121,4283.589844,4314.358887,4305.256348,4260.897461,4270.384766,4334.487305,4398.205078,4294.358887,4280.384766,4508.461426,4524.871582,4368.333496,4434.102539,1554.000000,1.000000,20.000000,,,,0.000000,2.000000,2.000000,0.000000,4.000000,2.000000,2.000000,0.000000,0.000000,4.000000,4.000000,4.000000,4.000000,4.000000,4.000000,0.000000,,,,,,,,,,,,,,,,,,,,,,,,,,,,
1732158369.489433,1732158369.492588,124.000000,0.000000,4306.794922,4281.153809,4314.102539,4299.358887,4274.102539,4274.230957,4332.692383,4401.025879,4295.769043,4280.641113,4501.922852,4524.743652,4370.128418,4433.333496,1701.000000,1.000000,20.000000,,,,0.000000,2.000000,2.000000,0.000000,4.000000,2.000000,2.000000,0.000000,0.000000,4.000000,4.000000,4.000000,4.000000,4.000000,4.000000,0.000000,,,,,,,,,,,,,,,,,31.000000,0.000000,0.495594,0.476379,-0.550354,0.473877,0.977658,-0.053229,-0.065438,-35.587944,44.728497,31.417618
1732158369.497241,1732158369.500397,125.000000,0.000000,4297.307617,4279.358887,4318.333496,4294.487305,4286.538574,4274.743652,4334.615234,4400.512695,4295.641113,4281.538574,4490.769043,4522.179688,4366.666504,4427.820313,1579.000000,1.000000,20.000000,,,,0.000000,2.000000,2.000000,0.000000,4.000000,2.000000,2.000000,0.000000,0.000000,4.000000,4.000000,4.000000,4.000000,4.000000,4.000000,0.000000,,,,,,,,,,,,,,,,,,,,,,,,,,,,
1732158369.505050,1732158369.508405,126.000000,0.000000,4296.666504,4280.512695,4318.077148,4296.282227,4271.282227,4275.641113,4335.256348,4397.307617,4297.820313,4282.307617,4490.000000,4521.025879,4364.358887,4429.358887,1551.000000,1.000000,20.000000,,,,0.000000,2.000000,2.000000,0.000000,4.000000,2.000000,2.000000,0.000000,0.000000,4.000000,4.000000,4.000000,4.000000,4.000000,4.000000,0.000000,,,,,,,,,,,,,,,,,,,,,,,,,,,,
1732158369.512858,1732158369.516213,127.000000,0.000000,4298.461426,4280.512695,4315.128418,4296.538574,4253.077148,4271.025879,4333.333496,4398.461426,4294.102539,4282.307617,4494.615234,4521.922852,4366.794922,4432.307617,20.000000,1.000000,20.000000,,,,0.000000,2.000000,2.000000,0.000000,4.000000,2.000000,2.000000,0.000000,0.000000,4.000000,4.000000,4.000000,4.000000,4.000000,4.000000,0.000000,,,,,,,,,,,,,,,,,,,,,,,,,,,,
1732158369.520666,1732158369.524121,0.000000,0.000000,4295.256348,4278.846191,4317.179688,4295.000000,4262.179688,4270.769043,4333.205078,4401.794922,4292.436035,4281.794922,4495.000000,4519.871582,4365.641113,4431.410156,0.000000,1.000000,20.000000,,,,0.000000,2.000000,2.000000,0.000000,4.000000,2.000000,2.000000,0.000000,0.000000,4.000000,4.000000,4.000000,4.000000,4.000000,4.000000,0.000000,,,,,,,,,,,,,,,,,0.000000,0.000000,0.495505,0.476624,-0.550171,0.473938,0.973263,-0.051764,-0.058113,-35.606236,44.765083,31.228271
1732158369.528474,1732158369.531929,1.000000,0.000000,4292.692383,4279.743652,4317.307617,4295.641113,4271.025879,4277.948730,4334.487305,4400.256348,4296.922852,4280.641113,4491.282227,4514.102539,4361.794922,4428.461426,1608.000000,1.000000,20.000000,,,,0.000000,2.000000,2.000000,0.000000,4.000000,2.000000,2.000000,0.000000,0.000000,4.000000,4.000000,4.000000,4.000000,4.000000,4.000000,0.000000,,,,,,,,,,,,,,,,,,,,,,,,,,,,
1732158369.536282,1732158369.539937,2.000000,0.000000,4294.615234,4280.512695,4313.846191,4297.307617,4265.000000,4275.769043,4334.487305,4399.487305,4290.256348,4277.179688,4488.717773,4514.102539,4363.461426,4428.077148,1359.000000,1.000000,20.000000,,,,0.000000,2.000000,2.000000,0.000000,4.000000,2.000000,2.000000,0.000000,0.000000,4.000000,4.000000,4.000000,4.000000,4.000000,4.000000,0.000000,,,,,,,,,,,,,,,,,,,,,,,,,,,,
1732158369.544091,1732158369.547745,3.000000,0.000000,4295.641113,4280.000000,4314.358887,4297.692383,4264.358887,4270.897461,4334.230957,4400.641113,4278.205078,4275.128418,4490.512695,4522.179688,4366.282227,4430.128418,1422.000000,1.000000,20.000000,,,,0.000000,2.000000,2.000000,0.000000,4.000000,2.000000,2.000000,0.000000,0.000000,4.000000,4.000000,4.000000,4.000000,4.000000,4.000000,0.000000,,,,,,,,,,,,,,,,,,,,,,,,,,,,
1732158369.551899,1732158369.555653,4.000000,0.000000,4294.487305,4281.666504,4315.128418,4296.025879,4271.794922,4278.846191,4333.717773,4399.102539,4281.153809,4277.563965,4493.205078,4522.179688,4365.769043,4427.563965,1434.000000,1.000000,20.000000,,,,0.000000,2.000000,2.000000,0.000000,4.000000,2.000000,2.000000,0.000000,0.000000,4.000000,4.000000,4.000000,4.000000,4.000000,4.000000,0.000000,,,,,,,,,,,,,,,,,1.000000,0.000000,0.495324,0.477173,-0.549805,0.473999,0.970333,-0.051764,-0.045904,-35.637718,44.694717,31.058233
1732158369.559707,1732158369.563462,5.000000,0.000000,4293.589844,4282.563965,4315.769043,4294.871582,4277.948730,4281.025879,4333.846191,4397.948730,4291.922852,4280.000000,4492.051270,4514.487305,4364.102539,4422.948730,1204.000000,1.000000,20.000000,,,,0.000000,2.000000,2.000000,0.000000,4.000000,2.000000,2.000000,0.000000,0.000000,4.000000,4.000000,4.000000,4.000000,4.000000,4.000000,0.000000,,,,,,,,,,,,,,,,,,,,,,,,,,,,
1732158369.567515,1732158369.571470,6.000000,0.000000,4294.102539,4281.666504,4317.179688,4296.794922,4275.128418,4270.128418,4334.102539,4398.205078,4291.666504,4280.256348,4491.794922,4515.384766,4364.102539,4425.384766,0.000000,1.000000,20.000000,,,,0.000000,2.000000,2.000000,0.000000,4.000000,2.000000,2.000000,0.000000,0.000000,4.000000,4.000000,4.000000,4.000000,4.000000,4.000000,0.000000,,,,,,,,,,,,,,,,,,,,,,,,,,,,
1732158369.575324,1732158369.579278,7.000000,0.000000,4295.384766,4281.153809,4316.922852,4298.077148,4269.871582,4267.820313,4333.589844,4398.846191,4289.358887,4280.769043,4495.128418,4523.333496,4367.436035,4430.512695,0.000000,1.000000,20.000000,,,,0.000000,2.000000,2.000000,0.000000,4.000000,2.000000,2.000000,0.000000,0.000000,4.000000,4.000000,4.000000,4.000000,4.000000,4.000000,0.000000,,,,,,,,,,,,,,,,,,,,,,,,,,,,
1732158369.583132,1732158369.587186,8.000000,0.000000,4296.666504,4281.025879,4317.436035,4297.563965,4276.538574,4277.692383,4334.358887,4399.230957,4294.871582,4281.153809,4494.871582,4524.230957,4368.461426,4431.410156,1538.000000,1.000000,20.000000,,,,0.000000,2.000000,2.000000,0.000000,4.000000,2.000000,2.000000,0.000000,0.000000,4.000000,4.000000,4.000000,4.000000,4.000000,4.000000,0.000000,,,,,,,,,,,,,,,,,2.000000,0.000000,0.495383,0.477112,-0.549805,0.473999,0.970333,-0.051764,-0.045904,-35.596550,44.737720,31.065502
1732158369.590940,1732158369.594994,9.000000,0.000000,4296.282227,4281.025879,4318.846191,4297.692383,4283.461426,4280.384766,4333.717773,4398.846191,4294.743652,4279.615234,4490.256348,4516.666504,4360.641113,4429.358887,1696.000000,1.000000,20.000000,,,,0.000000,2.000000,2.000000,0.000000,4.000000,2.000000,2.000000,0.000000,0.000000,4.000000,4.000000,4.000000,4.000000,4.000000,4.000000,0.000000,,,,,,,,,,,,,,,,,,,,,,,,,,,,
1732158369.598749,1732158369.603002,10.000000,0.000000,4294.358887,4280.384766,4316.410156,4297.307617,4270.897461,4270.256348,4332.692383,4399.230957,4288.974121,4278.846191,4489.871582,4514.102539,4356.025879,4428.333496,1548.000000,1.000000,20.000000,,,,0.000000,2.000000,2.000000,0.000000,4.000000,2.000000,2.000000,0.000000,0.000000,4.000000,4.000000,4.000000,4.000000,4.000000,4.000000,0.000000,,,,,,,,,,,,,,,,,,,,,,,,,,,,
1732158369.606557,1732158369.610810,11.000000,0.000000,4293.333496,4278.589844,4313.974121,4295.769043,4267.179688,4269.358887,4334.230957,4399.358887,4291.025879,4280.000000,4493.077148,4520.641113,4361.153809,4427.179688,1554.000000,1.000000,20.000000,,,,0.000000,2.000000,2.000000,0.000000,4.000000,2.000000,2.000000,0.000000,0.000000,4.000000,4.000000,4.000000,4.000000,4.000000,4.000000,0.000000,,,,,,,,,,,,,,,,,,,,,,,,,,,,
1732158369.614365,1732158369.618519,12.000000,0.000000,4293.974121,4279.615234,4317.436035,4296.410156,4288.717773,4276.282227,4331.538574,4399.871582,4294.487305,4280.641113,4492.436035,4525.769043,4361.538574,4426.153809,1695.000000,1.000000,20.000000,,,,0.000000,2.000000,2.000000,0.000000,4.000000,2.000000,2.000000,0.000000,0.000000,4.000000,4.000000,4.000000,4.000000,4.000000,4.000000,0.000000,,,,,,,,,,,,,,,,,3.000000,0.000000,0.495432,0.477051,-0.549866,0.473938,0.992797,-0.050787,-0.058113,-35.656540,44.687553,31.183056
1732158369.622173,1732158369.626327,13.000000,0.000000,4294.743652,4282.563965,4318.589844,4298.205078,4289.743652,4276.025879,4329.102539,4401.922852,4292.051270,4283.589844,4488.974121,4520.256348,4356.410156,4427.179688,1579.000000,1.000000,20.000000,,,,0.000000,2.000000,2.000000,0.000000,4.000000,2.000000,2.000000,0.000000,0.000000,4.000000,4.000000,4.000000,4.000000,4.000000,4.000000,0.000000,,,,,,,,,,,,,,,,,,,,,,,,,,,,
1732158369.629981,1732158369.633935,14.000000,0.000000,4295.256348,4282.563965,4316.666504,4298.077148,4264.358887,4276.794922,4332.692383,4400.384766,4293.461426,4290.384766,4489.102539,4513.333496,4357.179688,4427.307617,1548.000000,1.000000,20.000000,,,,0.000000,2.000000,2.000000,0.000000,4.000000,2.000000,2.000000,0.000000,0.000000,4.000000,4.000000,4.000000,4.000000,4.000000,4.000000,0.000000,1.000000,0.000000,2.000000,2.000000,0.000000,4.000000,2.000000,2.000000,0.000000,0.000000,4.000000,4.000000,4.000000,4.000000,4.000000,4.000000,,,,,,,,,,,,
1732158369.637790,1732158369.641743,15.000000,0.000000,4295.128418,4281.794922,4316.538574,4298.333496,4257.179688,4281.025879,4335.769043,4396.410156,4294.871582,4296.666504,4491.666504,4518.461426,4359.487305,4427.436035,1554.000000,1.000000,20.000000,,,,0.000000,2.000000,2.000000,0.000000,4.000000,2.000000,2.000000,0.000000,0.000000,4.000000,4.000000,4.000000,4.000000,4.000000,4.000000,0.000000,,,,,,,,,,,,,,,,,,,,,,,,,,,,
1732158369.645598,1732158369.649452,16.000000,0.000000,4294.230957,4283.333496,4315.384766,4296.794922,4271.538574,4280.256348,4333.077148,4399.487305,4294.743652,4294.358887,4492.563965,4526.025879,4355.384766,4427.948730,0.000000,1.000000,20.000000,,,,0.000000,2.000000,2.000000,0.000000,4.000000,2.000000,2.000000,0.000000,0.000000,4.000000,4.000000,4.000000,4.000000,4.000000,4.000000,0.000000,,,,,,,,,,,,,,,,,4.000000,0.000000,0.495184,0.476685,-0.550354,0.473999,0.972287,-0.055671,-0.062019,-35.790131,44.706921,31.159943
1732158369.653406,1732158369.657260,17.000000,0.000000,4294.358887,4282.820313,4316.282227,4294.358887,4272.051270,4277.051270,4330.897461,4402.563965,4293.589844,4284.871582,4491.153809,4518.846191,4350.512695,4423.205078,0.000000,1.000000,20.000000,,,,0.000000,2.000000,2.000000,0.000000,4.000000,2.000000,2.000000,0.000000,0.000000,4.000000,4.000000,4.000000,4.000000,4.000000,4.000000,0.000000,,,,,,,,,,,,,,,,,,,,,,,,,,,,
1732158369.661214,1732158369.664868,18.000000,0.000000,4294.871582,4280.641113,4317.307617,4299.487305,4270.000000,4278.333496,4329.102539,4400.769043,4285.769043,4279.358887,4485.128418,4509.487305,4348.974121,4415.769043,0.000000,1.000000,20.000000,,,,0.000000,2.000000,2.000000,0.000000,4.000000,2.000000,2.000000,0.000000,0.000000,4.000000,4.000000,4.000000,4.000000,4.000000,4.000000,0.000000,,,,,,,,,,,,,,,,,,,,,,,,,,,,
1732158369.669023,1732158369.672677,19.000000,0.000000,4294.487305,4281.794922,4316.538574,4302.692383,4289.102539,4278.077148,4327.820313,4400.128418,4281.794922,4280.897461,4478.077148,4515.897461,4348.974121,4418.077148,0.000000,1.000000,20.000000,,,,0.000000,2.000000,2.000000,0.000000,4.000000,2.000000,2.000000,0.000000,0.000000,4.000000,4.000000,4.000000,4.000000,4.000000,4.000000,0.000000,,,,,,,,,,,,,,,,,,,,,,,,,,,,
1732158369.676831,1732158369.680385,20.000000,0.000000,4295.897461,4281.153809,4316.153809,4296.922852,4292.948730,4276.410156,4331.666504,4399.871582,4288.333496,4282.692383,4482.051270,4520.000000,4349.230957,4423.846191,0.000000,1.000000,20.000000,,,,0.000000,2.000000,2.000000,0.000000,4.000000,2.000000,2.000000,0.000000,0.000000,4.000000,4.000000,4.000000,4.000000,4.000000,4.000000,0.000000,,,,,,,,,,,,,,,,,5.000000,0.000000,0.494656,0.476929,-0.550354,0.474304,0.976193,-0.044439,-0.063484,-35.770004,44.672604,30.881220
1732158369.684639,1732158369.688193,21.000000,0.000000,4297.051270,4280.384766,4317.436035,4295.769043,4269.615234,4277.820313,4335.641113,4399.358887,4288.717773,4281.282227,4490.897461,4514.230957,4349.743652,4417.436035,0.000000,1.000000,20.000000,,,,0.000000,2.000000,2.000000,0.000000,4.000000,2.000000,2.000000,0.000000,0.000000,4.000000,4.000000,4.000000,4.000000,4.000000,4.000000,0.000000,,,,,,,,,,,,,,,,,,,,,,,,,,,,
1732158369.692448,1732158369.696201,22.000000,0.000000,4293.205078,4284.358887,4318.205078,4298.461426,4259.615234,4280.769043,4333.974121,4401.666504,4279.871582,4279.743652,4488.333496,4512.692383,4348.974121,4414.487305,0.000000,1.000000,20.000000,,,,0.000000,2.000000,2.000000,0.000000,4.000000,2.000000,2.000000,0.000000,0.000000,4.000000,4.000000,4.000000,4.000000,4.000000,4.000000,0.000000,,,,,,,,,,,,,,,,,,,,,,,,,,,,
1732158369.700256,1732158369.704009,23.000000,0.000000,4291.666504,4289.871582,4316.922852,4297.692383,4274.230957,4277.820313,4328.846191,4402.948730,4282.692383,4279.102539,4485.641113,4515.769043,4349.102539,4423.461426,0.000000,1.000000,20.000000,,,,0.000000,2.000000,2.000000,0.000000,4.000000,2.000000,2.000000,0.000000,0.000000,4.000000,4.000000,4.000000,4.000000,4.000000,4.000000,0.000000,,,,,,,,,,,,,,,,,,,,,,,,,,,,
1732158369.708064,1732158369.711917,24.000000,0.000000,4295.769043,4290.256348,4315.512695,4298.846191,4275.897461,4273.846191,4327.820313,4400.256348,4292.307617,4281.282227,4490.000000,4519.615234,4353.077148,4425.256348,0.000000,1.000000,20.000000,,,,0.000000,2.000000,2.000000,0.000000,4.000000,2.000000,2.000000,0.000000,0.000000,4.000000,4.000000,4.000000,4.000000,4.000000,4.000000,0.000000,,,,,,,,,,,,,,,,,6.000000,0.000000,0.494548,0.476990,-0.550293,0.474426,0.976193,-0.044439,-0.063484,-35.592037,44.544811,30.872122
1732158369.715872,1732158369.719726,25.000000,0.000000,4295.000000,4286.153809,4316.282227,4300.641113,4269.358887,4277.307617,4334.230957,4398.589844,4289.487305,4283.589844,4485.384766,4524.102539,4353.974121,4421.666504,0.000000,1.000000,20.000000,,,,0.000000,2.000000,2.000000,0.000000,4.000000,2.000000,2.000000,0.000000,0.000000,4.000000,4.000000,4.000000,4.000000,4.000000,4.000000,0.000000,,,,,,,,,,,,,,,,,,,,,,,,,,,,
1732158369.723681,1732158369.727334,26.000000,0.000000,4291.794922,4287.692383,4317.436035,4297.436035,4291.538574,4278.333496,4335.512695,4398.205078,4280.256348,4280.769043,4480.641113,4518.461426,4350.512695,4426.153809,0.000000,1.000000,20.000000,,,,0.000000,2.000000,2.000000,0.000000,4.000000,2.000000,2.000000,0.000000,0.000000,4.000000,4.000000,4.000000,4.000000,4.000000,4.000000,0.000000,,,,,,,,,,,,,,,,,,,,,,,,,,,,
1732158369.731489,1732158369.735142,27.000000,0.000000,4293.717773,4294.230957,4317.051270,4297.051270,4300.256348,4275.897461,4330.384766,4399.230957,4278.333496,4279.358887,4488.461426,4511.282227,4350.384766,4429.743652,0.000000,1.000000,20.000000,,,,0.000000,2.000000,2.000000,0.000000,4.000000,2.000000,2.000000,0.000000,0.000000,4.000000,4.000000,4.000000,4.000000,4.000000,4.000000,0.000000,,,,,,,,,,,,,,,,,,,,,,,,,,,,
1732158369.739297,1732158369.742851,28.000000,0.000000,4294.358887,4292.436035,4316.410156,4297.948730,4269.487305,4278.461426,4329.871582,4401.153809,4287.051270,4282.692383,4492.820313,4518.717773,4352.948730,4425.512695,0.000000,1.000000,20.000000,,,,0.000000,2.000000,2.000000,0.000000,4.000000,2.000000,2.000000,0.000000,0.000000,4.000000,4.000000,4.000000,4.000000,4.000000,4.000000,0.000000,,,,,,,,,,,,,,,,,7.000000,0.000000,0.493928,0.476685,-0.550903,0.474670,0.988890,-0.061043,-0.057136,-35.666218,44.689629,30.963085
1732158369.747105,1732158369.750659,29.000000,0.000000,4292.179688,4285.641113,4316.794922,4294.615234,4262.179688,4277.948730,4333.846191,4399.743652,4287.820313,4283.717773,4485.256348,4521.282227,4352.307617,4419.487305,0.000000,1.000000,20.000000,,,,0.000000,2.000000,2.000000,0.000000,4.000000,2.000000,2.000000,0.000000,0.000000,4.000000,4.000000,4.000000,4.000000,4.000000,4.000000,0.000000,,,,,,,,,,,,,,,,,,,,,,,,,,,,
1732158369.754913,1732158369.758267,30.000000,0.000000,4292.563965,4290.000000,4315.384766,4297.436035,4287.692383,4273.974121,4334.487305,4398.461426,4282.948730,4280.641113,4484.102539,4513.077148,4350.769043,4415.641113,0.000000,1.000000,20.000000,,,,0.000000,2.000000,2.000000,0.000000,4.000000,2.000000,2.000000,0.000000,0.000000,4.000000,4.000000,4.000000,4.000000,4.000000,4.000000,0.000000,,,,,,,,,,,,,,,,,,,,,,,,,,,,
1732158369.762722,1732158369.766075,31.000000,0.000000,4293.333496,4296.794922,4315.512695,4302.051270,4282.563965,4278.589844,4333.461426,4398.717773,4286.410156,4279.102539,4484.743652,4509.230957,4351.153809,4416.666504,0.000000,1.000000,20.000000,,,,0.000000,2.000000,2.000000,0.000000,4.000000,2.000000,2.000000,0.000000,0.000000,4.000000,4.000000,4.000000,4.000000,4.000000,4.000000,0.000000,,,,,,,,,,,,,,,,,,,,,,,,,,,,
1732158369.770530,1732158369.773984,32.000000,0.000000,4291.922852,4293.077148,4317.307617,4299.487305,4260.128418,4284.615234,4333.846191,4399.358887,4287.948730,4278.846191,4478.333496,4510.000000,4349.615234,4418.589844,0.000000,1.000000,20.000000,,,,0.000000,2.000000,2.000000,0.000000,4.000000,2.000000,2.000000,0.000000,0.000000,4.000000,4.000000,4.000000,4.000000,4.000000,4.000000,0.000000,,,,,,,,,,,,,,,,,8.000000,0.000000,0.493903,0.476501,-0.551453,0.474243,0.985960,-0.054206,-0.071786,-35.834637,44.733601,31.030100
1732158369.778338,1732158369.781792,33.000000,0.000000,4293.333496,4290.769043,4316.666504,4296.025879,4271.538574,4281.282227,4331.153809,4399.615234,4281.538574,4279.102539,4476.282227,4506.153809,4348.333496,4415.897461,0.000000,1.000000,20.000000,,,,0.000000,2.000000,2.000000,0.000000,4.000000,2.000000,2.000000,0.000000,0.000000,4.000000,4.000000,4.000000,4.000000,4.000000,4.000000,0.000000,,,,,,,,,,,,,,,,,,,,,,,,,,,,
1732158369.786147,1732158369.789800,34.000000,0.000000,4293.205078,4292.563965,4315.897461,4297.307617,4282.948730,4277.692383,4329.358887,4399.102539,4282.563965,4281.282227,4480.384766,4504.615234,4349.615234,4414.230957,0.000000,1.000000,20.000000,,,,0.000000,2.000000,2.000000,0.000000,4.000000,2.000000,2.000000,0.000000,0.000000,4.000000,4.000000,4.000000,4.000000,4.000000,4.000000,0.000000,,,,,,,,,,,,,,,,,,,,,,,,,,,,
1732158369.793955,1732158369.797608,35.000000,0.000000,4287.307617,4290.000000,4315.897461,4297.436035,4273.461426,4281.666504,4332.820313,4398.333496,4293.589844,4282.563965,4485.641113,4508.846191,4351.153809,4416.410156,0.000000,1.000000,20.000000,,,,0.000000,2.000000,2.000000,0.000000,4.000000,2.000000,2.000000,0.000000,0.000000,4.000000,4.000000,4.000000,4.000000,4.000000,4.000000,0.000000,,,,,,,,,,,,,,,,,,,,,,,,,,,,
1732158369.801763,1732158369.805516,36.000000,0.000000,4286.794922,4288.846191,4313.974121,4295.769043,4280.256348,4283.333496,4334.615234,4399.487305,4296.538574,4281.794922,4489.102539,4510.897461,4351.025879,4418.589844,0.000000,1.000000,20.000000,,,,0.000000,2.000000,2.000000,0.000000,4.000000,2.000000,2.000000,0.000000,0.000000,4.000000,4.000000,4.000000,4.000000,4.000000,4.000000,0.000000,,,,,,,,,,,,,,,,,9.000000,0.000000,0.493903,0.476501,-0.551453,0.474243,0.963008,-0.053717,-0.058601,-35.821056,44.784214,30.979380
1732158369.809571,1732158369.813324,37.000000,0.000000,4286.922852,4290.000000,4311.538574,4296.025879,4291.794922,4279.487305,4332.948730,4401.922852,4291.922852,4281.410156,4488.974121,4507.820313,4350.897461,4415.384766,0.000000,1.000000,20.000000,,,,0.000000,2.000000,2.000000,0.000000,4.000000,2.000000,2.000000,0.000000,0.000000,4.000000,4.000000,4.000000,4.000000,4.000000,4.000000,0.000000,,,,,,,,,,,,,,,,,,,,,,,,,,,,
1732158369.817380,1732158369.821332,38.000000,0.000000,4283.205078,4287.436035,4314.230957,4295.384766,4278.717773,4277.820313,4332.436035,4401.538574,4294.743652,4282.692383,4487.051270,4506.153809,4351.410156,4411.410156,0.000000,1.000000,20.000000,,,,0.000000,2.000000,2.000000,0.000000,4.000000,2.000000,2.000000,0.000000,0.000000,4.000000,4.000000,4.000000,4.000000,4.000000,4.000000,0.000000,,,,,,,,,,,,,,,,,,,,,,,,,,,,
1732158369.825188,1732158369.829140,39.000000,0.000000,4288.461426,4285.641113,4317.051270,4296.666504,4259.743652,4280.256348,4334.230957,4400.897461,4298.461426,4282.820313,4488.846191,4509.743652,4352.436035,4413.974121,0.000000,1.000000,20.000000,,,,0.000000,2.000000,2.000000,0.000000,4.000000,2.000000,2.000000,0.000000,0.000000,4.000000,4.000000,4.000000,4.000000,4.000000,4.000000,0.000000,,,,,,,,,,,,,,,,,,,,,,,,,,,,
1732158369.832996,1732158369.836849,40.000000,0.000000,4291.794922,4285.128418,4314.615234,4297.692383,4262.948730,4281.538574,4335.128418,4402.436035,4289.358887,4280.256348,4489.102539,4510.897461,4351.922852,4415.641113,0.000000,1.000000,20.000000,,,,0.000000,2.000000,2.000000,0.000000,4.000000,2.000000,2.000000,0.000000,0.000000,4.000000,4.000000,4.000000,4.000000,4.000000,4.000000,0.000000,,,,,,,,,,,,,,,,,10.000000,0.000000,0.493825,0.476563,-0.551575,0.474121,0.978635,-0.038579,-0.071786,-35.801720,44.775215,30.913298
1732158369.840804,1732158369.844657,41.000000,0.000000,4281.922852,4282.820313,4313.333496,4295.641113,4278.461426,4279.487305,4334.743652,4401.538574,4277.692383,4277.307617,4483.717773,4507.563965,4350.256348,4412.307617,0.000000,1.000000,20.000000,,,,0.000000,2.000000,2.000000,0.000000,4.000000,2.000000,2.000000,0.000000,0.000000,4.000000,4.000000,4.000000,4.000000,4.000000,4.000000,0.000000,,,,,,,,,,,,,,,,,,,,,,,,,,,,
1732158369.848612,1732158369.852265,42.000000,0.000000,4280.897461,4280.897461,4317.692383,4294.487305,4276.538574,4277.948730,4333.717773,4400.897461,4280.512695,4276.666504,4477.179688,4508.589844,4349.102539,4411.410156,0.000000,1.000000,20.000000,,,,0.000000,2.000000,2.000000,0.000000,4.000000,2.000000,2.000000,0.000000,0.000000,4.000000,4.000000,4.000000,4.000000,4.000000,4.000000,0.000000,,,,,,,,,,,,,,,,,,,,,,,,,,,,
1732158369.856421,1732158369.860074,43.000000,0.000000,4288.077148,4282.692383,4319.230957,4296.282227,4275.512695,4280.000000,4333.846191,4401.282227,4287.692383,4279.487305,4476.922852,4511.794922,4350.384766,4414.102539,0.000000,1.000000,20.000000,,,,0.000000,2.000000,2.000000,0.000000,4.000000,2.000000,2.000000,0.000000,0.000000,4.000000,4.000000,4.000000,4.000000,4.000000,4.000000,0.000000,,,,,,,,,,,,,,,,,,,,,,,,,,,,
1732158369.864229,1732158369.867982,44.000000,0.000000,4283.974121,4286.666504,4315.000000,4295.769043,4292.692383,4281.282227,4335.641113,4399.743652,4290.000000,4281.025879,4485.641113,4513.846191,4351.538574,4413.846191,0.000000,1.000000,20.000000,,,,0.000000,2.000000,2.000000,0.000000,4.000000,2.000000,2.000000,0.000000,0.000000,4.000000,4.000000,4.000000,4.000000,4.000000,4.000000,0.000000,,,,,,,,,,,,,,,,,11.000000,0.000000,0.493598,0.476807,-0.551514,0.474182,0.973752,-0.044439,-0.070809,-35.889393,44.712925,31.004772
1732158369.872037,1732158369.875790,45.000000,0.000000,4281.922852,4286.538574,4314.615234,4296.410156,4288.846191,4278.589844,4335.384766,4399.102539,4293.333496,4278.846191,4490.769043,4514.615234,4352.436035,4414.358887,0.000000,1.000000,20.000000,,,,0.000000,2.000000,2.000000,0.000000,4.000000,2.000000,2.000000,0.000000,0.000000,4.000000,4.000000,4.000000,4.000000,4.000000,4.000000,0.000000,,,,,,,,,,,,,,,,,,,,,,,,,,,,
1732158369.879846,1732158369.883798,46.000000,0.000000,4287.948730,4283.077148,4319.102539,4302.307617,4262.692383,4278.846191,4333.333496,4400.641113,4293.461426,4277.820313,4486.025879,4516.538574,4355.256348,4415.128418,0.000000,1.000000,20.000000,,,,0.000000,2.000000,2.000000,0.000000,4.000000,2.000000,2.000000,0.000000,0.000000,4.000000,4.000000,4.000000,4.000000,4.000000,4.000000,0.000000,,,,,,,,,,,,,,,,,,,,,,,,,,,,
1732158369.887654,1732158369.891606,47.000000,0.000000,4288.077148,4283.333496,4318.974121,4301.922852,4259.615234,4282.051270,4332.179688,4400.256348,4290.128418,4280.897461,4484.871582,4518.333496,4357.820313,4414.102539,0.000000,1.000000,20.000000,,,,0.000000,2.000000,2.000000,0.000000,4.000000,2.000000,2.000000,0.000000,0.000000,4.000000,4.000000,4.000000,4.000000,4.000000,4.000000,0.000000,,,,,,,,,,,,,,,,,,,,,,,,,,,,
1732158369.895462,1732158369.899514,48.000000,0.000000,4288.333496,4289.615234,4314.230957,4296.153809,4278.717773,4281.410156,4333.461426,4399.615234,4293.974121,4282.820313,4490.769043,4520.384766,4359.358887,4415.384766,0.000000,1.000000,20.000000,,,,0.000000,2.000000,2.000000,0.000000,4.000000,2.000000,2.000000,0.000000,0.000000,4.000000,4.000000,4.000000,4.000000,4.000000,4.000000,0.000000,,,,,,,,,,,,,,,,,12.000000,0.000000,0.493363,0.476929,-0.551514,0.474304,0.978147,-0.041021,-0.069344,-36.067078,44.714134,30.977198
1732158369.903270,1732158369.907322,49.000000,0.000000,4291.666504,4292.692383,4315.384766,4297.307617,4277.179688,4279.615234,4335.000000,4401.410156,4298.333496,4281.025879,4487.051270,4521.153809,4357.948730,4417.179688,0.000000,1.000000,20.000000,,,,0.000000,2.000000,2.000000,0.000000,4.000000,2.000000,2.000000,0.000000,0.000000,4.000000,4.000000,4.000000,4.000000,4.000000,4.000000,0.000000,,,,,,,,,,,,,,,,,,,,,,,,,,,,
1732158369.911079,1732158369.915330,50.000000,0.000000,4287.948730,4288.077148,4318.974121,4298.589844,4272.820313,4279.230957,4334.743652,4399.102539,4293.333496,4279.358887,4478.974121,4514.615234,4350.897461,4414.871582,0.000000,1.000000,20.000000,,,,0.000000,2.000000,2.000000,0.000000,4.000000,2.000000,2.000000,0.000000,0.000000,4.000000,4.000000,4.000000,4.000000,4.000000,4.000000,0.000000,,,,,,,,,,,,,,,,,,,,,,,,,,,,
1732158369.918887,1732158369.923139,51.000000,0.000000,4281.410156,4285.256348,4316.794922,4297.436035,4291.410156,4279.230957,4333.974121,4395.897461,4289.230957,4278.461426,4480.897461,4511.922852,4347.179688,4412.563965,0.000000,1.000000,20.000000,,,,0.000000,2.000000,2.000000,0.000000,4.000000,2.000000,2.000000,0.000000,0.000000,4.000000,4.000000,4.000000,4.000000,4.000000,4.000000,0.000000,,,,,,,,,,,,,,,,,,,,,,,,,,,,
1732158369.926695,1732158369.930847,52.000000,0.000000,4283.333496,4286.922852,4312.948730,4297.948730,4290.769043,4281.282227,4335.000000,4401.153809,4293.589844,4279.615234,4490.384766,4521.153809,4353.717773,4414.871582,0.000000,1.000000,20.000000,,,,0.000000,2.000000,2.000000,0.000000,4.000000,2.000000,2.000000,0.000000,0.000000,4.000000,4.000000,4.000000,4.000000,4.000000,4.000000,0.000000,,,,,,,,,,,,,,,,,13.000000,0.000000,0.493363,0.476929,-0.551514,0.474304,0.977170,-0.060066,-0.055183,-36.255997,44.640118,31.029863
1732158369.934503,1732158369.938655,53.000000,0.000000,4290.128418,4285.769043,4314.230957,4300.128418,4266.538574,4283.077148,4335.384766,4403.077148,4294.230957,4279.871582,4491.538574,4526.538574,4356.153809,4415.897461,0.000000,1.000000,20.000000,,,,0.000000,2.000000,2.000000,0.000000,4.000000,2.000000,2.000000,0.000000,0.000000,4.000000,4.000000,4.000000,4.000000,4.000000,4.000000,0.000000,,,,,,,,,,,,,,,,,,,,,,,,,,,,
1732158369.942311,1732158369.946663,54.000000,0.000000,4294.230957,4281.410156,4316.666504,4304.230957,4263.205078,4282.820313,4333.589844,4399.487305,4291.794922,4279.230957,4481.538574,4524.615234,4349.358887,4414.102539,0.000000,1.000000,20.000000,,,,0.000000,2.000000,2.000000,0.000000,4.000000,2.000000,2.000000,0.000000,0.000000,4.000000,4.000000,4.000000,4.000000,4.000000,4.000000,0.000000,,,,,,,,,,,,,,,,,,,,,,,,,,,,
1732158369.950120,1732158369.954471,55.000000,0.000000,4293.589844,4280.641113,4319.102539,4306.025879,4281.410156,4283.077148,4333.589844,4403.717773,4294.102539,4280.641113,4478.589844,4524.871582,4348.205078,4414.230957,0.000000,1.000000,20.000000,,,,0.000000,2.000000,2.000000,0.000000,4.000000,2.000000,2.000000,0.000000,0.000000,4.000000,4.000000,4.000000,4.000000,4.000000,4.000000,0.000000,,,,,,,,,,,,,,,,,,,,,,,,,,,,
1732158369.957928,1732158369.962380,56.000000,0.000000,4295.128418,4280.897461,4317.692383,4298.846191,4284.743652,4281.794922,4335.897461,4406.153809,4294.230957,4281.538574,4486.282227,4520.512695,4354.743652,4414.358887,0.000000,1.000000,20.000000,,,,0.000000,2.000000,2.000000,0.000000,4.000000,2.000000,2.000000,0.000000,0.000000,4.000000,4.000000,4.000000,4.000000,4.000000,4.000000,0.000000,,,,,,,,,,,,,,,,,14.000000,0.000000,0.493100,0.476868,-0.551697,0.474426,0.967403,-0.069344,-0.061531,-36.230694,44.621826,30.917522
1732158369.965736,1732158369.970188,57.000000,0.000000,4294.743652,4278.333496,4313.974121,4294.230957,4272.948730,4280.128418,4335.512695,4400.769043,4292.436035,4281.666504,4493.077148,4514.487305,4359.102539,4415.897461,0.000000,1.000000,20.000000,,,,0.000000,2.000000,2.000000,0.000000,4.000000,2.000000,2.000000,0.000000,0.000000,4.000000,4.000000,4.000000,4.000000,4.000000,4.000000,0.000000,,,,,,,,,,,,,,,,,,,,,,,,,,,,
1732158369.973544,1732158369.978196,58.000000,0.000000,4288.205078,4279.358887,4315.000000,4297.820313,4278.205078,4281.025879,4333.461426,4400.000000,4295.769043,4281.794922,4485.769043,4514.358887,4356.666504,4415.000000,0.000000,1.000000,20.000000,,,,0.000000,2.000000,2.000000,0.000000,4.000000,2.000000,2.000000,0.000000,0.000000,4.000000,4.000000,4.000000,4.000000,4.000000,4.000000,0.000000,,,,,,,,,,,,,,,,,,,,,,,,,,,,
1732158369.981353,1732158369.986004,59.000000,0.000000,4283.461426,4279.743652,4318.333496,4297.563965,4295.128418,4277.436035,4332.820313,4403.077148,4296.538574,4280.128418,4475.384766,4514.487305,4350.897461,4408.717773,0.000000,1.000000,20.000000,,,,0.000000,2.000000,2.000000,0.000000,4.000000,2.000000,2.000000,0.000000,0.000000,4.000000,4.000000,4.000000,4.000000,4.000000,4.000000,0.000000,,,,,,,,,,,,,,,,,,,,,,,,,,,,
1732158369.989161,1732158369.993712,60.000000,0.000000,4283.717773,4277.820313,4316.922852,4294.615234,4288.333496,4277.436035,4333.461426,4401.922852,4292.948730,4278.333496,4475.512695,4511.025879,4347.307617,4403.974121,0.000000,1.000000,20.000000,,,,0.000000,2.000000,2.000000,0.000000,4.000000,2.000000,2.000000,0.000000,0.000000,4.000000,4.000000,4.000000,4.000000,4.000000,4.000000,0.000000,,,,,,,,,,,,,,,,,15.000000,0.000000,0.493093,0.476501,-0.552124,0.474304,0.979612,-0.061043,-0.073739,-36.311859,44.555347,30.816526
1732158369.996969,1732158370.001520,61.000000,0.000000,4281.794922,4279.230957,4315.641113,4296.538574,4266.282227,4287.051270,4334.615234,4403.205078,4293.846191,4280.256348,4479.230957,4512.051270,4348.846191,4406.794922,0.000000,1.000000,20.000000,,,,0.000000,2.000000,2.000000,0.000000,4.000000,2.000000,2.000000,0.000000,0.000000,4.000000,4.000000,4.000000,4.000000,4.000000,4.000000,0.000000,,,,,,,,,,,,,,,,,,,,,,,,,,,,
1732158370.004778,1732158370.009528,62.000000,0.000000,4278.717773,4280.769043,4318.077148,4297.820313,4270.256348,4289.230957,4335.000000,4404.743652,4296.153809,4282.436035,4477.948730,4512.563965,4349.230957,4406.410156,0.000000,1.000000,20.000000,,,,0.000000,2.000000,2.000000,0.000000,4.000000,2.000000,2.000000,0.000000,0.000000,4.000000,4.000000,4.000000,4.000000,4.000000,4.000000,0.000000,,,,,,,,,,,,,,,,,,,,,,,,,,,,
1732158370.012586,1732158370.017337,63.000000,0.000000,4279.615234,4281.410156,4317.820313,4297.179688,4287.948730,4282.051270,4334.615234,4397.948730,4293.333496,4279.230957,4473.717773,4511.666504,4346.410156,4399.487305,0.000000,1.000000,20.000000,,,,0.000000,2.000000,2.000000,0.000000,4.000000,2.000000,2.000000,0.000000,0.000000,4.000000,4.000000,4.000000,4.000000,4.000000,4.000000,0.000000,,,,,,,,,,,,,,,,,,,,,,,,,,,,
1732158370.020394,1732158370.025045,64.000000,0.000000,4278.846191,4279.487305,4315.384766,4295.769043,4278.846191,4281.025879,4335.000000,4396.025879,4290.769043,4280.000000,4475.512695,4514.102539,4348.717773,4396.922852,0.000000,1.000000,20.000000,,,,0.000000,2.000000,2.000000,0.000000,4.000000,2.000000,2.000000,0.000000,0.000000,4.000000,4.000000,4.000000,4.000000,4.000000,4.000000,0.000000,,,,,,,,,,,,,,,,,16.000000,0.000000,0.493025,0.476501,-0.552185,0.474304,0.985960,-0.059578,-0.062508,-36.314274,44.559830,30.864719
1732158370.028202,1732158370.032853,65.000000,0.000000,4276.794922,4276.922852,4315.000000,4293.717773,4275.769043,4283.846191,4334.358887,4399.743652,4293.077148,4283.974121,4477.820313,4510.256348,4351.922852,4396.794922,1608.000000,1.000000,20.000000,,,,0.000000,2.000000,2.000000,0.000000,4.000000,2.000000,2.000000,0.000000,0.000000,4.000000,4.000000,4.000000,4.000000,4.000000,4.000000,0.000000,,,,,,,,,,,,,,,,,,,,,,,,,,,,
1732158370.036011,1732158370.040462,66.000000,0.000000,4277.820313,4278.077148,4315.512695,4292.051270,4297.692383,4281.410156,4332.436035,4400.256348,4295.512695,4284.102539,4474.871582,4504.487305,4345.897461,4396.025879,1359.000000,1.000000,20.000000,,,,0.000000,2.000000,2.000000,0.000000,4.000000,2.000000,2.000000,0.000000,0.000000,4.000000,4.000000,4.000000,4.000000,4.000000,4.000000,0.000000,,,,,,,,,,,,,,,,,,,,,,,,,,,,
1732158370.043819,1732158370.048270,67.000000,0.000000,4278.205078,4280.897461,4315.128418,4293.974121,4291.922852,4280.128418,4332.563965,4398.717773,4295.897461,4283.846191,4472.948730,4506.410156,4343.205078,4397.436035,1422.000000,1.000000,20.000000,,,,0.000000,2.000000,2.000000,0.000000,4.000000,2.000000,2.000000,0.000000,0.000000,4.000000,4.000000,4.000000,4.000000,4.000000,4.000000,0.000000,,,,,,,,,,,,,,,,,,,,,,,,,,,,
1732158370.051627,1732158370.055978,68.000000,0.000000,4278.077148,4280.384766,4314.615234,4297.307617,4268.333496,4282.820313,4335.897461,4398.589844,4296.538574,4285.128418,4477.436035,4514.487305,4351.410156,4398.974121,1434.000000,1.000000,20.000000,,,,0.000000,2.000000,2.000000,0.000000,4.000000,2.000000,2.000000,0.000000,0.000000,4.000000,4.000000,4.000000,4.000000,4.000000,4.000000,0.000000,,,,,,,,,,,,,,,,,17.000000,0.000000,0.493025,0.476501,-0.552185,0.474304,0.985960,-0.059578,-0.062508,-36.286228,44.548462,30.888756
1732158370.059435,1732158370.063786,69.000000,0.000000,4278.077148,4278.589844,4316.153809,4295.512695,4271.410156,4281.282227,4335.000000,4399.102539,4296.538574,4282.436035,4480.256348,4515.000000,4350.256348,4397.436035,1204.000000,1.000000,20.000000,,,,0.000000,2.000000,2.000000,0.000000,4.000000,2.000000,2.000000,0.000000,0.000000,4.000000,4.000000,4.000000,4.000000,4.000000,4.000000,0.000000,,,,,,,,,,,,,,,,,,,,,,,,,,,,
1732158370.067243,1732158370.071395,70.000000,0.000000,4278.205078,4281.025879,4317.179688,4294.871582,4281.538574,4283.333496,4329.743652,4400.384766,4294.743652,4280.000000,4476.025879,4508.589844,4341.025879,4395.641113,0.000000,1.000000,20.000000,,,,0.000000,2.000000,2.000000,0.000000,4.000000,2.000000,2.000000,0.000000,0.000000,4.000000,4.000000,4.000000,4.000000,4.000000,4.000000,0.000000,,,,,,,,,,,,,,,,,,,,,,,,,,,,
1732158370.075052,1732158370.079203,71.000000,0.000000,4278.589844,4282.307617,4316.922852,4300.512695,4286.666504,4289.871582,4329.615234,4399.871582,4293.717773,4281.922852,4474.743652,4508.333496,4341.538574,4396.538574,0.000000,1.000000,20.000000,,,,0.000000,2.000000,2.000000,0.000000,4.000000,2.000000,2.000000,0.000000,0.000000,4.000000,4.000000,4.000000,4.000000,4.000000,4.000000,0.000000,,,,,,,,,,,,,,,,,,,,,,,,,,,,
1732158370.082860,1732158370.086911,72.000000,0.000000,4280.641113,4282.051270,4317.563965,4302.307617,4299.871582,4286.794922,4333.333496,4399.615234,4296.025879,4281.922852,4477.436035,4506.794922,4342.948730,4396.538574,1538.000000,1.000000,20.000000,,,,0.000000,2.000000,2.000000,0.000000,4.000000,2.000000,2.000000,0.000000,0.000000,4.000000,4.000000,4.000000,4.000000,4.000000,4.000000,0.000000,,,,,,,,,,,,,,,,,18.000000,0.000000,0.493251,0.476379,-0.552246,0.474121,0.977170,-0.055183,-0.052252,-36.380177,44.562588,30.884893
1732158370.090668,1732158370.094719,73.000000,0.000000,4281.410156,4283.717773,4315.641113,4301.410156,4295.128418,4283.333496,4334.230957,4402.948730,4298.461426,4282.563965,4475.897461,4506.025879,4343.974121,4398.461426,1695.000000,1.000000,20.000000,,,,0.000000,2.000000,2.000000,0.000000,4.000000,2.000000,2.000000,0.000000,0.000000,4.000000,4.000000,4.000000,4.000000,4.000000,4.000000,0.000000,,,,,,,,,,,,,,,,,,,,,,,,,,,,
1732158370.098477,1732158370.102328,74.000000,0.000000,4279.102539,4285.256348,4312.948730,4302.692383,4272.948730,4286.025879,4334.358887,4404.230957,4297.820313,4283.717773,4473.846191,4510.256348,4349.487305,4398.461426,1548.000000,1.000000,20.000000,,,,0.000000,2.000000,2.000000,0.000000,4.000000,2.000000,2.000000,0.000000,0.000000,4.000000,4.000000,4.000000,4.000000,4.000000,4.000000,0.000000,,,,,,,,,,,,,,,,,,,,,,,,,,,,
1732158370.106285,1732158370.110136,75.000000,0.000000,4277.948730,4284.743652,4317.051270,4299.230957,4275.769043,4283.589844,4336.153809,4400.256348,4295.128418,4279.487305,4473.974121,4505.128418,4346.282227,4391.922852,1554.000000,1.000000,20.000000,,,,0.000000,2.000000,2.000000,0.000000,4.000000,2.000000,2.000000,0.000000,0.000000,4.000000,4.000000,4.000000,4.000000,4.000000,4.000000,0.000000,,,,,,,,,,,,,,,,,,,,,,,,,,,,
1732158370.114093,1732158370.118044,76.000000,0.000000,4278.717773,4282.948730,4321.153809,4295.256348,4283.205078,4285.641113,4335.512695,4399.615234,4294.358887,4277.179688,4473.461426,4495.128418,4339.102539,4387.563965,1695.000000,1.000000,20.000000,,,,0.000000,2.000000,2.000000,0.000000,4.000000,2.000000,2.000000,0.000000,0.000000,4.000000,4.000000,4.000000,4.000000,4.000000,4.000000,0.000000,,,,,,,,,,,,,,,,,19.000000,0.000000,0.493093,0.476624,-0.552124,0.474182,0.963985,-0.057136,-0.066414,-36.276279,44.742363,30.666763
1732158370.121901,1732158370.125852,77.000000,0.000000,4277.436035,4282.179688,4318.205078,4297.563965,4283.717773,4298.717773,4334.743652,4401.282227,4296.025879,4279.358887,4473.077148,4496.666504,4340.769043,4387.948730,1589.000000,1.000000,20.000000,,,,0.000000,2.000000,2.000000,0.000000,4.000000,2.000000,2.000000,0.000000,0.000000,4.000000,4.000000,4.000000,4.000000,4.000000,4.000000,0.000000,,,,,,,,,,,,,,,,,,,,,,,,,,,,
1732158370.129710,1732158370.133461,78.000000,0.000000,4276.025879,4280.384766,4315.000000,4297.692383,4296.922852,4292.948730,4335.128418,4400.512695,4295.384766,4277.948730,4472.948730,4500.384766,4339.871582,4389.358887,1548.000000,1.000000,20.000000,,,,0.000000,2.000000,2.000000,0.000000,4.000000,2.000000,2.000000,0.000000,0.000000,4.000000,4.000000,4.000000,4.000000,4.000000,4.000000,0.000000,1.000000,0.000000,2.000000,2.000000,0.000000,1.000000,2.000000,2.000000,0.000000,0.000000,4.000000,4.000000,4.000000,4.000000,4.000000,4.000000,,,,,,,,,,,,
1732158370.137518,1732158370.141269,79.000000,0.000000,4278.589844,4278.717773,4315.384766,4293.333496,4292.692383,4278.717773,4333.717773,4398.205078,4294.743652,4278.333496,4475.769043,4501.538574,4337.563965,4392.307617,1554.000000,1.000000,20.000000,,,,0.000000,2.000000,2.000000,0.000000,4.000000,2.000000,2.000000,0.000000,0.000000,4.000000,4.000000,4.000000,4.000000,4.000000,4.000000,0.000000,,,,,,,,,,,,,,,,,,,,,,,,,,,,
1732158370.145326,1732158370.148977,80.000000,0.000000,4280.384766,4279.487305,4315.384766,4295.641113,4273.589844,4287.436035,4334.230957,4399.230957,4297.692383,4283.846191,4477.692383,4506.410156,4341.922852,4396.282227,1695.000000,1.000000,20.000000,,,,0.000000,2.000000,2.000000,0.000000,4.000000,2.000000,2.000000,0.000000,0.000000,4.000000,4.000000,4.000000,4.000000,4.000000,4.000000,0.000000,,,,,,,,,,,,,,,,,20.000000,0.000000,0.492876,0.476868,-0.552002,0.474304,0.963985,-0.057136,-0.066414,-36.318787,44.727982,30.730078
1732158370.153134,1732158370.156786,81.000000,0.000000,4280.641113,4281.410156,4315.512695,4299.358887,4275.384766,4291.666504,4335.128418,4402.436035,4297.179688,4283.974121,4473.974121,4507.820313,4343.717773,4398.077148,1589.000000,1.000000,20.000000,,,,0.000000,2.000000,2.000000,0.000000,4.000000,2.000000,2.000000,0.000000,0.000000,4.000000,4.000000,4.000000,4.000000,4.000000,4.000000,0.000000,,,,,,,,,,,,,,,,,,,,,,,,,,,,
1732158370.160942,1732158370.164394,82.000000,0.000000,4283.077148,4283.205078,4315.897461,4299.487305,4280.128418,4281.410156,4334.230957,4400.256348,4294.358887,4281.794922,4479.358887,4507.179688,4343.974121,4399.487305,1548.000000,1.000000,20.000000,,,,0.000000,2.000000,2.000000,0.000000,4.000000,2.000000,2.000000,0.000000,0.000000,4.000000,4.000000,4.000000,4.000000,4.000000,4.000000,0.000000,,,,,,,,,,,,,,,,,,,,,,,,,,,,
1732158370.168751,1732158370.172202,83.000000,0.000000,4283.846191,4280.512695,4315.256348,4296.794922,4283.333496,4278.974121,4333.974121,4396.538574,4292.563965,4283.205078,4486.025879,4507.948730,4345.512695,4400.256348,1554.000000,1.000000,20.000000,,,,0.000000,2.000000,2.000000,0.000000,4.000000,2.000000,2.000000,0.000000,0.000000,4.000000,4.000000,4.000000,4.000000,4.000000,4.000000,0.000000,,,,,,,,,,,,,,,,,,,,,,,,,,,,
1732158370.176559,1732158370.179910,84.000000,0.000000,4281.025879,4278.077148,4313.717773,4293.205078,4288.846191,4280.512695,4335.512695,4398.589844,4294.487305,4287.692383,4480.897461,4507.820313,4344.487305,4398.846191,1695.000000,1.000000,20.000000,,,,0.000000,2.000000,2.000000,0.000000,4.000000,2.000000,2.000000,0.000000,0.000000,4.000000,4.000000,4.000000,4.000000,4.000000,4.000000,0.000000,,,,,,,,,,,,,,,,,21.000000,0.000000,0.492875,0.476990,-0.552002,0.474182,0.983030,-0.041509,-0.072763,-36.653217,44.846333,30.773029
1732158370.184367,1732158370.187719,85.000000,0.000000,4280.512695,4279.358887,4313.077148,4293.461426,4275.897461,4281.282227,4334.487305,4399.230957,4300.256348,4294.102539,4481.153809,4514.615234,4346.922852,4398.846191,1589.000000,1.000000,20.000000,,,,0.000000,2.000000,2.000000,0.000000,4.000000,2.000000,2.000000,0.000000,0.000000,4.000000,4.000000,4.000000,4.000000,4.000000,4.000000,0.000000,,,,,,,,,,,,,,,,,,,,,,,,,,,,
1732158370.192176,1732158370.195727,86.000000,0.000000,4282.307617,4280.769043,4312.948730,4295.769043,4263.333496,4286.794922,4333.333496,4398.461426,4303.333496,4297.051270,4492.179688,4518.717773,4350.641113,4400.384766,1548.000000,1.000000,20.000000,,,,0.000000,2.000000,2.000000,0.000000,4.000000,2.000000,2.000000,0.000000,0.000000,4.000000,4.000000,4.000000,4.000000,4.000000,4.000000,0.000000,,,,,,,,,,,,,,,,,,,,,,,,,,,,
1732158370.199984,1732158370.203535,87.000000,0.000000,4281.282227,4280.256348,4314.743652,4297.563965,4275.256348,4287.948730,4334.230957,4401.794922,4297.820313,4292.820313,4488.717773,4513.589844,4347.436035,4399.358887,1554.000000,1.000000,20.000000,,,,0.000000,2.000000,2.000000,0.000000,4.000000,2.000000,2.000000,0.000000,0.000000,4.000000,4.000000,4.000000,4.000000,4.000000,4.000000,0.000000,,,,,,,,,,,,,,,,,,,,,,,,,,,,
1732158370.207792,1732158370.211443,88.000000,0.000000,4280.128418,4280.769043,4314.871582,4298.077148,4284.230957,4282.692383,4335.000000,4402.820313,4292.948730,4285.641113,4473.974121,4514.102539,4339.615234,4397.820313,1695.000000,1.000000,20.000000,,,,0.000000,2.000000,2.000000,0.000000,4.000000,2.000000,2.000000,0.000000,0.000000,4.000000,4.000000,4.000000,4.000000,4.000000,4.000000,0.000000,,,,,,,,,,,,,,,,,22.000000,0.000000,0.492747,0.477112,-0.552063,0.474121,0.968868,-0.043951,-0.069344,-36.740772,44.942196,30.924488
1732158370.215600,1732158370.219251,89.000000,0.000000,4280.641113,4281.410156,4313.333496,4297.179688,4280.897461,4283.589844,4334.615234,4398.461426,4295.256348,4283.717773,4472.820313,4514.230957,4335.512695,4397.948730,1589.000000,1.000000,20.000000,,,,0.000000,2.000000,2.000000,0.000000,4.000000,2.000000,2.000000,0.000000,0.000000,4.000000,4.000000,4.000000,4.000000,4.000000,4.000000,0.000000,,,,,,,,,,,,,,,,,,,,,,,,,,,,
1732158370.223409,1732158370.227259,90.000000,0.000000,4279.615234,4280.897461,4312.692383,4296.153809,4279.358887,4287.820313,4334.615234,4398.717773,4297.436035,4284.102539,4478.846191,4506.410156,4336.922852,4394.615234,1548.000000,1.000000,20.000000,,,,0.000000,2.000000,2.000000,0.000000,4.000000,2.000000,2.000000,0.000000,0.000000,4.000000,4.000000,4.000000,4.000000,4.000000,4.000000,0.000000,,,,,,,,,,,,,,,,,,,,,,,,,,,,
1732158370.231217,1732158370.235067,91.000000,0.000000,4275.128418,4280.256348,4314.615234,4292.563965,4287.051270,4287.948730,4334.871582,4400.641113,4294.871582,4281.153809,4476.922852,4505.384766,4337.820313,4388.974121,1554.000000,1.000000,20.000000,,,,0.000000,2.000000,2.000000,0.000000,4.000000,2.000000,2.000000,0.000000,0.000000,4.000000,4.000000,4.000000,4.000000,4.000000,4.000000,0.000000,,,,,,,,,,,,,,,,,,,,,,,,,,,,
1732158370.239025,1732158370.242776,92.000000,0.000000,4273.717773,4278.589844,4314.871582,4290.128418,4301.282227,4285.256348,4334.615234,4398.333496,4291.666504,4277.948730,4474.743652,4510.384766,4337.179688,4391.794922,1695.000000,1.000000,20.000000,,,,0.000000,2.000000,2.000000,0.000000,4.000000,2.000000,2.000000,0.000000,0.000000,4.000000,4.000000,4.000000,4.000000,4.000000,4.000000,0.000000,,,,,,,,,,,,,,,,,23.000000,0.000000,0.492865,0.477051,-0.552063,0.474060,0.971798,-0.051764,-0.067879,-36.726692,44.921513,30.812168
1732158370.246833,1732158370.250584,93.000000,0.000000,4277.820313,4277.948730,4312.948730,4293.333496,4291.282227,4282.436035,4335.384766,4397.948730,4293.205078,4280.000000,4481.538574,4509.487305,4340.256348,4399.102539,1589.000000,1.000000,20.000000,,,,0.000000,2.000000,2.000000,0.000000,4.000000,2.000000,2.000000,0.000000,0.000000,4.000000,4.000000,4.000000,4.000000,4.000000,4.000000,0.000000,,,,,,,,,,,,,,,,,,,,,,,,,,,,
1732158370.254642,1732158370.258192,94.000000,0.000000,4280.512695,4280.512695,4312.820313,4295.897461,4265.384766,4282.307617,4336.410156,4399.358887,4296.666504,4282.948730,4483.461426,4507.948730,4344.871582,4399.487305,1548.000000,1.000000,20.000000,,,,0.000000,2.000000,2.000000,0.000000,4.000000,2.000000,2.000000,0.000000,0.000000,4.000000,4.000000,4.000000,4.000000,4.000000,4.000000,0.000000,,,,,,,,,,,,,,,,,,,,,,,,,,,,
1732158370.262450,1732158370.266001,95.000000,0.000000,4278.461426,4281.538574,4313.205078,4295.128418,4263.974121,4283.077148,4336.153809,4398.461426,4295.897461,4284.487305,4474.743652,4506.282227,4343.077148,4395.512695,1554.000000,1.000000,20.000000,,,,0.000000,2.000000,2.000000,0.000000,4.000000,2.000000,2.000000,0.000000,0.000000,4.000000,4.000000,4.000000,4.000000,4.000000,4.000000,0.000000,,,,,,,,,,,,,,,,,,,,,,,,,,,,
1732158370.270258,1732158370.273909,96.000000,0.000000,4277.948730,4280.000000,4312.307617,4295.641113,4279.615234,4281.153809,4336.153809,4398.205078,4296.153809,4285.128418,4476.153809,4506.538574,4339.743652,4395.512695,1695.000000,1.000000,20.000000,,,,0.000000,2.000000,2.000000,0.000000,4.000000,2.000000,2.000000,0.000000,0.000000,4.000000,4.000000,4.000000,4.000000,4.000000,4.000000,0.000000,,,,,,,,,,,,,,,,,24.000000,0.000000,0.492828,0.476807,-0.552307,0.474060,0.974728,-0.069833,-0.064949,-36.620285,44.746426,30.562857
1732158370.278066,1732158370.281717,97.000000,0.000000,4278.717773,4280.000000,4313.333496,4295.000000,4291.282227,4282.563965,4335.128418,4399.102539,4297.692383,4283.077148,4483.333496,4508.846191,4339.615234,4397.692383,1589.000000,1.000000,20.000000,,,,0.000000,2.000000,2.000000,0.000000,4.000000,2.000000,2.000000,0.000000,0.000000,4.000000,4.000000,4.000000,4.000000,4.000000,4.000000,0.000000,,,,,,,,,,,,,,,,,,,,,,,,,,,,
1732158370.285874,1732158370.289725,98.000000,0.000000,4277.820313,4280.641113,4315.384766,4293.846191,4286.410156,4285.256348,4333.846191,4399.102539,4294.615234,4280.897461,4479.743652,4507.820313,4339.743652,4397.948730,1548.000000,1.000000,20.000000,,,,0.000000,2.000000,2.000000,0.000000,4.000000,2.000000,2.000000,0.000000,0.000000,4.000000,4.000000,4.000000,4.000000,4.000000,4.000000,0.000000,,,,,,,,,,,,,,,,,,,,,,,,,,,,
1732158370.293683,1732158370.297533,99.000000,0.000000,4278.461426,4279.358887,4314.358887,4296.282227,4270.384766,4285.897461,4334.358887,4397.307617,4293.333496,4281.794922,4475.512695,4504.487305,4340.384766,4397.179688,1554.000000,1.000000,20.000000,,,,0.000000,2.000000,2.000000,0.000000,4.000000,2.000000,2.000000,0.000000,0.000000,4.000000,4.000000,4.000000,4.000000,4.000000,4.000000,0.000000,,,,,,,,,,,,,,,,,,,,,,,,,,,,
1732158370.301491,1732158370.305441,100.000000,0.000000,4281.025879,4278.974121,4312.692383,4297.948730,4266.153809,4291.025879,4335.000000,4397.948730,4293.974121,4283.333496,4477.051270,4505.384766,4336.282227,4396.922852,1695.000000,1.000000,20.000000,,,,0.000000,2.000000,2.000000,0.000000,4.000000,2.000000,2.000000,0.000000,0.000000,4.000000,4.000000,4.000000,4.000000,4.000000,4.000000,0.000000,,,,,,,,,,,,,,,,,25.000000,0.000000,0.492586,0.476257,-0.552734,0.474365,0.992309,-0.054694,-0.076670,-36.540764,44.914604,30.550913
1732158370.309299,1732158370.313249,101.000000,0.000000,4280.384766,4280.000000,4313.077148,4297.820313,4283.974121,4293.461426,4333.846191,4399.743652,4283.974121,4281.922852,4475.512695,4507.051270,4332.436035,4396.153809,1589.000000,1.000000,20.000000,,,,0.000000,2.000000,2.000000,0.000000,4.000000,2.000000,2.000000,0.000000,0.000000,4.000000,4.000000,4.000000,4.000000,4.000000,4.000000,0.000000,,,,,,,,,,,,,,,,,,,,,,,,,,,,
1732158370.317108,1732158370.321257,102.000000,0.000000,4277.563965,4275.256348,4314.871582,4295.128418,4293.717773,4283.717773,4333.846191,4397.948730,4277.436035,4280.128418,4473.717773,4506.153809,4334.743652,4393.846191,1548.000000,1.000000,20.000000,,,,0.000000,2.000000,2.000000,0.000000,4.000000,2.000000,2.000000,0.000000,0.000000,4.000000,4.000000,4.000000,4.000000,4.000000,4.000000,0.000000,,,,,,,,,,,,,,,,,,,,,,,,,,,,
1732158370.324916,1732158370.329066,103.000000,0.000000,4277.307617,4272.436035,4314.871582,4293.077148,4278.205078,4277.820313,4335.256348,4397.436035,4287.948730,4283.846191,4475.512695,4507.692383,4336.410156,4393.333496,1554.000000,1.000000,20.000000,,,,0.000000,2.000000,2.000000,0.000000,4.000000,2.000000,2.000000,0.000000,0.000000,4.000000,4.000000,4.000000,4.000000,4.000000,4.000000,0.000000,,,,,,,,,,,,,,,,,,,,,,,,,,,,
1732158370.332724,1732158370.336974,104.000000,0.000000,4279.102539,4278.461426,4313.589844,4296.025879,4264.230957,4283.461426,4334.871582,4402.051270,4295.000000,4289.102539,4475.897461,4509.102539,4334.102539,4395.769043,1695.000000,1.000000,20.000000,,,,0.000000,2.000000,2.000000,0.000000,4.000000,2.000000,2.000000,0.000000,0.000000,4.000000,4.000000,4.000000,4.000000,4.000000,4.000000,0.000000,,,,,,,,,,,,,,,,,26.000000,0.000000,0.492537,0.476318,-0.552673,0.474426,0.974728,-0.055183,-0.061531,-36.513020,44.764164,30.541241
1732158370.340532,1732158370.344782,105.000000,0.000000,4278.974121,4280.384766,4312.563965,4297.179688,4265.128418,4283.333496,4333.974121,4401.282227,4290.384766,4289.230957,4475.256348,4505.641113,4336.153809,4398.717773,1589.000000,1.000000,20.000000,,,,0.000000,2.000000,2.000000,0.000000,4.000000,2.000000,2.000000,0.000000,0.000000,4.000000,4.000000,4.000000,4.000000,4.000000,4.000000,0.000000,,,,,,,,,,,,,,,,,,,,,,,,,,,,
1732158370.348341,1732158370.352490,106.000000,0.000000,4278.974121,4275.769043,4313.974121,4294.871582,4275.641113,4278.717773,4334.358887,4396.282227,4290.897461,4289.230957,4478.077148,4504.871582,4343.589844,4400.641113,1548.000000,1.000000,20.000000,,,,0.000000,2.000000,2.000000,0.000000,4.000000,2.000000,2.000000,0.000000,0.000000,4.000000,4.000000,4.000000,4.000000,4.000000,4.000000,0.000000,,,,,,,,,,,,,,,,,,,,,,,,,,,,
1732158370.356149,1732158370.360298,107.000000,0.000000,4280.769043,4277.307617,4314.743652,4293.974121,4290.512695,4279.871582,4334.102539,4399.102539,4295.897461,4288.974121,4476.153809,4508.461426,4343.974121,4398.974121,1554.000000,1.000000,20.000000,,,,0.000000,2.000000,2.000000,0.000000,4.000000,2.000000,2.000000,0.000000,0.000000,4.000000,4.000000,4.000000,4.000000,4.000000,4.000000,0.000000,,,,,,,,,,,,,,,,,,,,,,,,,,,,
1732158370.363957,1732158370.368007,108.000000,0.000000,4282.692383,4281.538574,4314.102539,4294.487305,4293.589844,4281.666504,4333.974121,4401.025879,4296.410156,4288.589844,4473.846191,4508.333496,4340.641113,4397.179688,1695.000000,1.000000,20.000000,,,,0.000000,2.000000,2.000000,0.000000,4.000000,2.000000,2.000000,0.000000,0.000000,4.000000,4.000000,4.000000,4.000000,4.000000,4.000000,0.000000,,,,,,,,,,,,,,,,,27.000000,0.000000,0.492546,0.476379,-0.552612,0.474426,0.972287,-0.044927,-0.072274,-36.415546,44.492306,30.653404
1732158370.371765,1732158370.375815,109.000000,0.000000,4283.205078,4281.153809,4314.871582,4297.051270,4273.974121,4281.794922,4335.000000,4398.205078,4296.410156,4293.205078,4479.615234,4507.436035,4343.717773,4399.102539,1589.000000,1.000000,20.000000,,,,0.000000,2.000000,2.000000,0.000000,4.000000,2.000000,2.000000,0.000000,0.000000,4.000000,4.000000,4.000000,4.000000,4.000000,4.000000,0.000000,,,,,,,,,,,,,,,,,,,,,,,,,,,,
1732158370.379573,1732158370.383423,110.000000,0.000000,4281.410156,4280.384766,4314.871582,4298.717773,4262.051270,4282.051270,4335.000000,4398.717773,4296.282227,4295.512695,4481.666504,4510.000000,4345.384766,4400.769043,1548.000000,1.000000,20.000000,,,,0.000000,2.000000,2.000000,0.000000,4.000000,2.000000,2.000000,0.000000,0.000000,4.000000,4.000000,4.000000,4.000000,4.000000,4.000000,0.000000,,,,,,,,,,,,,,,,,,,,,,,,,,,,
1732158370.387382,1732158370.391232,111.000000,0.000000,4278.205078,4278.846191,4313.974121,4294.102539,4276.025879,4280.512695,4334.615234,4398.717773,4294.230957,4290.128418,4475.769043,4511.794922,4340.256348,4397.692383,1554.000000,1.000000,20.000000,,,,0.000000,2.000000,2.000000,0.000000,4.000000,2.000000,2.000000,0.000000,0.000000,4.000000,4.000000,4.000000,4.000000,4.000000,4.000000,0.000000,,,,,,,,,,,,,,,,,,,,,,,,,,,,
1732158370.395190,1732158370.398940,112.000000,0.000000,4278.205078,4277.436035,4314.358887,4291.538574,4283.717773,4279.871582,4334.487305,4398.461426,4292.563965,4290.512695,4475.769043,4509.358887,4338.461426,4395.000000,1695.000000,1.000000,20.000000,,,,0.000000,2.000000,2.000000,0.000000,4.000000,2.000000,2.000000,0.000000,0.000000,4.000000,4.000000,4.000000,4.000000,4.000000,4.000000,0.000000,,,,,,,,,,,,,,,,,28.000000,0.000000,0.492400,0.476440,-0.552795,0.474304,0.964473,-0.049322,-0.071786,-36.403259,44.547100,30.732592
1732158370.402998,1732158370.406748,113.000000,0.000000,4280.384766,4279.230957,4314.615234,4295.897461,4275.512695,4280.512695,4334.102539,4400.512695,4294.358887,4294.230957,4478.461426,4507.307617,4342.307617,4397.436035,1589.000000,1.000000,20.000000,,,,0.000000,2.000000,2.000000,0.000000,4.000000,2.000000,2.000000,0.000000,0.000000,4.000000,4.000000,4.000000,4.000000,4.000000,4.000000,0.000000,,,,,,,,,,,,,,,,,,,,,,,,,,,,
1732158370.410807,1732158370.414357,114.000000,0.000000,4277.692383,4278.461426,4313.205078,4295.000000,4274.871582,4280.384766,4333.589844,4400.641113,4295.769043,4287.179688,4475.000000,4508.846191,4342.051270,4399.102539,1548.000000,1.000000,20.000000,,,,0.000000,2.000000,2.000000,0.000000,4.000000,2.000000,2.000000,0.000000,0.000000,4.000000,4.000000,4.000000,4.000000,4.000000,4.000000,0.000000,,,,,,,,,,,,,,,,,,,,,,,,,,,,
1732158370.418615,1732158370.422165,115.000000,0.000000,4275.641113,4276.282227,4313.333496,4291.538574,4289.743652,4280.256348,4334.230957,4398.974121,4291.666504,4277.436035,4474.743652,4509.358887,4339.230957,4397.563965,1554.000000,1.000000,20.000000,,,,0.000000,2.000000,2.000000,0.000000,4.000000,2.000000,2.000000,0.000000,0.000000,4.000000,4.000000,4.000000,4.000000,4.000000,4.000000,0.000000,,,,,,,,,,,,,,,,,,,,,,,,,,,,
1732158370.426423,1732158370.429873,116.000000,0.000000,4281.025879,4278.589844,4314.230957,4296.922852,4291.410156,4280.000000,4335.256348,4401.025879,4290.000000,4279.743652,4480.000000,4506.794922,4342.051270,4398.974121,1695.000000,1.000000,20.000000,,,,0.000000,2.000000,2.000000,0.000000,4.000000,2.000000,2.000000,0.000000,0.000000,4.000000,4.000000,4.000000,4.000000,4.000000,4.000000,0.000000,,,,,,,,,,,,,,,,,29.000000,0.000000,0.492253,0.476379,-0.552979,0.474304,0.971798,-0.068856,-0.072274,-36.518307,44.516483,30.755066
1732158370.434231,1732158370.437681,117.000000,0.000000,4284.358887,4279.743652,4312.820313,4302.563965,4270.000000,4281.153809,4335.769043,4401.666504,4297.051270,4292.820313,4479.743652,4505.641113,4345.897461,4402.563965,1589.000000,1.000000,20.000000,,,,0.000000,2.000000,2.000000,0.000000,4.000000,2.000000,2.000000,0.000000,0.000000,4.000000,4.000000,4.000000,4.000000,4.000000,4.000000,0.000000,,,,,,,,,,,,,,,,,,,,,,,,,,,,
1732158370.442040,1732158370.445290,118.000000,0.000000,4280.641113,4276.922852,4311.025879,4298.589844,4265.000000,4282.436035,4335.384766,4400.769043,4300.769043,4296.922852,4476.153809,4505.512695,4340.769043,4400.384766,1548.000000,1.000000,20.000000,,,,0.000000,2.000000,2.000000,0.000000,4.000000,2.000000,2.000000,0.000000,0.000000,4.000000,4.000000,4.000000,4.000000,4.000000,4.000000,0.000000,,,,,,,,,,,,,,,,,,,,,,,,,,,,
1732158370.449848,1732158370.453098,119.000000,0.000000,4279.230957,4277.820313,4312.692383,4295.897461,4283.589844,4281.410156,4334.615234,4403.205078,4294.230957,4284.871582,4474.615234,4508.589844,4334.358887,4397.051270,1554.000000,1.000000,20.000000,,,,0.000000,2.000000,2.000000,0.000000,4.000000,2.000000,2.000000,0.000000,0.000000,4.000000,4.000000,4.000000,4.000000,4.000000,4.000000,0.000000,,,,,,,,,,,,,,,,,,,,,,,,,,,,
1732158370.457656,1732158370.460806,120.000000,0.000000,4281.282227,4280.256348,4314.358887,4298.333496,4279.615234,4280.897461,4335.512695,4402.179688,4291.666504,4278.461426,4472.563965,4513.333496,4336.794922,4399.358887,1695.000000,1.000000,20.000000,,,,0.000000,2.000000,2.000000,0.000000,4.000000,2.000000,2.000000,0.000000,0.000000,4.000000,4.000000,4.000000,4.000000,4.000000,4.000000,0.000000,,,,,,,,,,,,,,,,,30.000000,0.000000,0.492253,0.476379,-0.552979,0.474304,0.982053,-0.056648,-0.067391,-36.416496,44.686687,30.743269
1732158370.465464,1732158370.468614,121.000000,0.000000,4280.256348,4276.153809,4314.102539,4297.179688,4272.307617,4282.179688,4336.794922,4400.256348,4295.384766,4286.025879,4471.794922,4510.641113,4341.922852,4400.512695,1589.000000,1.000000,20.000000,,,,0.000000,2.000000,2.000000,0.000000,4.000000,2.000000,2.000000,0.000000,0.000000,4.000000,4.000000,4.000000,4.000000,4.000000,4.000000,0.000000,,,,,,,,,,,,,,,,,,,,,,,,,,,,
1732158370.473273,1732158370.476223,122.000000,0.000000,4278.333496,4273.205078,4314.358887,4294.230957,4294.871582,4282.436035,4335.512695,4401.794922,4296.153809,4287.820313,4475.769043,4505.769043,4343.589844,4398.205078,1548.000000,1.000000,20.000000,,,,0.000000,2.000000,2.000000,0.000000,4.000000,2.000000,2.000000,0.000000,0.000000,4.000000,4.000000,4.000000,4.000000,4.000000,4.000000,0.000000,,,,,,,,,,,,,,,,,,,,,,,,,,,,
1732158370.481081,1732158370.484031,123.000000,0.000000,4278.461426,4276.922852,4312.692383,4293.974121,4293.589844,4281.538574,4334.230957,4399.871582,4294.102539,4279.230957,4477.179688,4507.436035,4339.487305,4397.307617,1554.000000,1.000000,20.000000,,,,0.000000,2.000000,2.000000,0.000000,4.000000,2.000000,2.000000,0.000000,0.000000,4.000000,4.000000,4.000000,4.000000,4.000000,4.000000,0.000000,,,,,,,,,,,,,,,,,,,,,,,,,,,,
1732158370.488889,1732158370.491739,124.000000,0.000000,4279.871582,4281.025879,4312.692383,4299.743652,4265.512695,4281.282227,4335.384766,4396.410156,4293.461426,4277.820313,4473.077148,4508.717773,4335.128418,4397.948730,1695.000000,1.000000,20.000000,,,,0.000000,2.000000,2.000000,0.000000,4.000000,2.000000,2.000000,0.000000,0.000000,4.000000,4.000000,4.000000,4.000000,4.000000,4.000000,0.000000,,,,,,,,,,,,,,,,,31.000000,0.000000,0.492086,0.476501,-0.552917,0.474426,0.968380,-0.061531,-0.069344,-36.442360,44.547882,30.927048
1732158370.496697,1732158370.499548,125.000000,0.000000,4281.153809,4281.538574,4314.871582,4305.769043,4267.436035,4282.051270,4335.769043,4396.282227,4293.205078,4280.512695,4470.897461,4505.384766,4335.641113,4398.205078,1589.000000,1.000000,20.000000,,,,0.000000,2.000000,2.000000,0.000000,4.000000,2.000000,2.000000,0.000000,0.000000,4.000000,4.000000,4.000000,4.000000,4.000000,4.000000,0.000000,,,,,,,,,,,,,,,,,,,,,,,,,,,,
1732158370.504506,1732158370.507156,126.000000,0.000000,4280.769043,4281.282227,4315.256348,4301.153809,4280.897461,4284.358887,4334.615234,4397.820313,4291.538574,4278.205078,4474.102539,4506.282227,4335.769043,4398.974121,1548.000000,1.000000,20.000000,,,,0.000000,2.000000,2.000000,0.000000,4.000000,2.000000,2.000000,0.000000,0.000000,4.000000,4.000000,4.000000,4.000000,4.000000,4.000000,0.000000,,,,,,,,,,,,,,,,,,,,,,,,,,,,
1732158370.512314,1732158370.514964,127.000000,0.000000,4280.641113,4280.000000,4313.589844,4294.230957,4277.179688,4283.333496,4335.128418,4395.897461,4293.974121,4277.051270,4475.769043,4508.846191,4334.102539,4400.256348,20.000000,1.000000,20.000000,,,,0.000000,2.000000,2.000000,0.000000,4.000000,2.000000,2.000000,0.000000,0.000000,4.000000,4.000000,4.000000,4.000000,4.000000,4.000000,0.000000,,,,,,,,,,,,,,,,,,,,,,,,,,,,
1732158370.520122,1732158370.522672,0.000000,0.000000,4281.794922,4278.461426,4314.230957,4295.000000,4287.563965,4278.846191,4335.384766,4396.410156,4296.282227,4278.205078,4474.871582,4505.769043,4335.641113,4397.820313,0.000000,1.000000,20.000000,,,,0.000000,2.000000,2.000000,0.000000,4.000000,2.000000,2.000000,0.000000,0.000000,4.000000,4.000000,4.000000,4.000000,4.000000,4.000000,0.000000,,,,,,,,,,,,,,,,,0.000000,0.000000,0.492283,0.476196,-0.553162,0.474243,0.977170,-0.049811,-0.068856,-36.513313,44.352119,31.109243
1732158370.527930,1732158370.530481,1.000000,0.000000,4282.948730,4280.128418,4316.410156,4297.436035,4293.846191,4279.358887,4333.461426,4397.820313,4293.333496,4277.692383,4473.589844,4507.051270,4338.717773,4395.897461,1608.000000,1.000000,20.000000,,,,0.000000,2.000000,2.000000,0.000000,4.000000,2.000000,2.000000,0.000000,0.000000,4.000000,4.000000,4.000000,4.000000,4.000000,4.000000,0.000000,,,,,,,,,,,,,,,,,,,,,,,,,,,,
