title:2seven, start timestamp:1732158417.440247, stop timestamp:1732158475.377480, headset type:EPOCX, headset serial:E5020C3A, headset firmware:730, channels:67, sampling rate:eeg_128;mot_32, samples:7421      , version:2.2, 
Timestamp,OriginalTimestamp,EEG.Counter,EEG.Interpolated,EEG.AF3,EEG.F7,EEG.F3,EEG.FC5,EEG.T7,EEG.P7,EEG.O1,EEG.O2,EEG.P8,EEG.T8,EEG.FC6,EEG.F4,EEG.F8,EEG.AF4,EEG.RawCq,EEG.Battery,EEG.BatteryPercent,MarkerIndex,MarkerType,MarkerValueInt,EEG.MarkerHardware,CQ.AF3,CQ.F7,CQ.F3,CQ.FC5,CQ.T7,CQ.P7,CQ.O1,CQ.O2,CQ.P8,CQ.T8,CQ.FC6,CQ.F4,CQ.F8,CQ.AF4,CQ.Overall,EQ.SampleRateQuality,EQ.OVERALL,EQ.AF3,EQ.F7,EQ.F3,EQ.FC5,EQ.T7,EQ.P7,EQ.O1,EQ.O2,EQ.P8,EQ.T8,EQ.FC6,EQ.F4,EQ.F8,EQ.AF4,MOT.CounterMems,MOT.InterpolatedMems,MOT.Q0,MOT.Q1,MOT.Q2,MOT.Q3,MOT.AccX,MOT.AccY,MOT.AccZ,MOT.MagX,MOT.MagY,MOT.MagZ
1732158417.440247,1732158417.442797,121.000000,0.000000,4282.436035,4277.307617,4316.538574,4295.769043,4273.846191,4281.410156,4335.000000,4400.641113,4287.948730,4285.000000,4475.897461,4508.077148,4346.922852,4405.512695,1581.000000,1.000000,20.000000,,,,0.000000,2.000000,2.000000,0.000000,4.000000,2.000000,2.000000,0.000000,0.000000,4.000000,4.000000,4.000000,4.000000,4.000000,4.000000,0.000000,,,,,,,,,,,,,,,,,,,,,,,,,,,,
1732158417.448055,1732158417.450805,122.000000,0.000000,4287.692383,4277.692383,4315.128418,4295.128418,4277.692383,4280.128418,4334.358887,4401.025879,4288.461426,4285.256348,4473.974121,4506.025879,4348.589844,4407.179688,1551.000000,1.000000,20.000000,,,,0.000000,2.000000,2.000000,0.000000,4.000000,2.000000,2.000000,0.000000,0.000000,4.000000,4.000000,4.000000,4.000000,4.000000,4.000000,0.000000,,,,,,,,,,,,,,,,,,,,,,,,,,,,
1732158417.455863,1732158417.458613,123.000000,0.000000,4288.333496,4280.000000,4313.717773,4298.077148,4295.128418,4280.512695,4334.487305,4400.641113,4280.897461,4282.563965,4474.230957,4503.846191,4343.717773,4408.461426,1551.000000,1.000000,20.000000,,,,0.000000,2.000000,2.000000,0.000000,4.000000,2.000000,2.000000,0.000000,0.000000,4.000000,4.000000,4.000000,4.000000,4.000000,4.000000,0.000000,,,,,,,,,,,,,,,,,,,,,,,,,,,,
1732158417.463672,1732158417.466521,124.000000,0.000000,4288.589844,4281.282227,4313.461426,4303.077148,4285.256348,4282.820313,4335.256348,4401.666504,4283.461426,4290.128418,4477.051270,4508.717773,4343.333496,4407.820313,1696.000000,1.000000,20.000000,,,,0.000000,2.000000,2.000000,0.000000,4.000000,2.000000,2.000000,0.000000,0.000000,4.000000,4.000000,4.000000,4.000000,4.000000,4.000000,0.000000,,,,,,,,,,,,,,,,,31.000000,0.000000,0.521982,0.492126,-0.522705,0.460571,0.969845,0.014650,-0.031254,-35.285717,45.513088,31.959766
1732158417.471480,1732158417.474329,125.000000,0.000000,4294.230957,4281.538574,4313.974121,4307.307617,4261.922852,4282.307617,4335.897461,4402.051270,4294.615234,4295.384766,4478.333496,4515.897461,4350.897461,4411.153809,1581.000000,1.000000,20.000000,,,,0.000000,2.000000,2.000000,0.000000,4.000000,2.000000,2.000000,0.000000,0.000000,4.000000,4.000000,4.000000,4.000000,4.000000,4.000000,0.000000,,,,,,,,,,,,,,,,,,,,,,,,,,,,
1732158417.479288,1732158417.482337,126.000000,0.000000,4292.692383,4280.641113,4314.102539,4303.461426,4263.974121,4279.102539,4336.538574,4400.897461,4293.717773,4285.769043,4476.153809,4512.307617,4350.384766,4411.410156,1551.000000,1.000000,20.000000,,,,0.000000,2.000000,2.000000,0.000000,4.000000,2.000000,2.000000,0.000000,0.000000,4.000000,4.000000,4.000000,4.000000,4.000000,4.000000,0.000000,,,,,,,,,,,,,,,,,,,,,,,,,,,,
1732158417.487096,1732158417.490145,127.000000,0.000000,4289.102539,4277.820313,4312.692383,4295.512695,4271.538574,4278.846191,4335.897461,4401.282227,4286.282227,4280.000000,4475.512695,4504.487305,4346.410156,4407.948730,20.000000,1.000000,20.000000,,,,0.000000,2.000000,2.000000,0.000000,4.000000,2.000000,2.000000,0.000000,0.000000,4.000000,4.000000,4.000000,4.000000,4.000000,4.000000,0.000000,,,,,,,,,,,,,,,,,,,,,,,,,,,,
1732158417.494905,1732158417.498053,0.000000,0.000000,4292.436035,4276.922852,4313.205078,4294.230957,4265.769043,4279.743652,4336.025879,4403.077148,4286.794922,4284.102539,4479.358887,4510.256348,4350.128418,4410.641113,0.000000,1.000000,20.000000,,,,0.000000,2.000000,2.000000,0.000000,4.000000,2.000000,2.000000,0.000000,0.000000,4.000000,4.000000,4.000000,4.000000,4.000000,4.000000,0.000000,,,,,,,,,,,,,,,,,0.000000,0.000000,0.523396,0.492737,-0.521790,0.459351,0.960566,0.049811,-0.029300,-35.238098,45.535603,31.852411
1732158417.502713,1732158417.505862,1.000000,0.000000,4292.436035,4277.179688,4315.512695,4296.794922,4270.769043,4277.563965,4336.538574,4403.461426,4290.897461,4282.436035,4479.230957,4516.666504,4352.179688,4413.589844,1606.000000,1.000000,20.000000,,,,0.000000,2.000000,2.000000,0.000000,4.000000,2.000000,2.000000,0.000000,0.000000,4.000000,4.000000,4.000000,4.000000,4.000000,4.000000,0.000000,,,,,,,,,,,,,,,,,,,,,,,,,,,,
1732158417.510521,1732158417.513470,2.000000,0.000000,4291.410156,4276.538574,4315.641113,4295.000000,4280.897461,4276.794922,4335.769043,4402.948730,4294.871582,4281.794922,4476.153809,4509.615234,4349.358887,4410.384766,1359.000000,1.000000,20.000000,,,,0.000000,2.000000,2.000000,0.000000,4.000000,2.000000,2.000000,0.000000,0.000000,4.000000,4.000000,4.000000,4.000000,4.000000,4.000000,0.000000,,,,,,,,,,,,,,,,,,,,,,,,,,,,
1732158417.518329,1732158417.521278,3.000000,0.000000,4294.358887,4277.692383,4313.846191,4299.230957,4278.846191,4279.487305,4334.102539,4402.051270,4295.256348,4284.487305,4479.358887,4504.743652,4351.153809,4409.743652,1426.000000,1.000000,20.000000,,,,0.000000,2.000000,2.000000,0.000000,4.000000,2.000000,2.000000,0.000000,0.000000,4.000000,4.000000,4.000000,4.000000,4.000000,4.000000,0.000000,,,,,,,,,,,,,,,,,,,,,,,,,,,,
1732158417.526138,1732158417.528987,4.000000,0.000000,4294.743652,4280.641113,4313.333496,4308.461426,4277.692383,4281.282227,4334.743652,4400.384766,4291.666504,4280.641113,4482.179688,4508.205078,4351.538574,4411.282227,1429.000000,1.000000,20.000000,,,,0.000000,2.000000,2.000000,0.000000,4.000000,2.000000,2.000000,0.000000,0.000000,4.000000,4.000000,4.000000,4.000000,4.000000,4.000000,0.000000,,,,,,,,,,,,,,,,,1.000000,0.000000,0.523816,0.493042,-0.521240,0.459167,0.978635,0.068368,-0.023440,-35.259525,45.463837,31.705452
1732158417.533946,1732158417.536795,5.000000,0.000000,4294.230957,4281.538574,4315.000000,4304.358887,4278.589844,4280.128418,4336.282227,4400.641113,4291.410156,4278.077148,4477.820313,4508.717773,4344.871582,4410.000000,1207.000000,1.000000,20.000000,,,,0.000000,2.000000,2.000000,0.000000,4.000000,2.000000,2.000000,0.000000,0.000000,4.000000,4.000000,4.000000,4.000000,4.000000,4.000000,0.000000,,,,,,,,,,,,,,,,,,,,,,,,,,,,
1732158417.541754,1732158417.544803,6.000000,0.000000,4291.922852,4279.487305,4314.487305,4297.820313,4280.769043,4278.846191,4334.358887,4402.307617,4294.358887,4281.153809,4476.538574,4506.922852,4344.487305,4406.410156,0.000000,1.000000,20.000000,,,,0.000000,2.000000,2.000000,0.000000,4.000000,2.000000,2.000000,0.000000,0.000000,4.000000,4.000000,4.000000,4.000000,4.000000,4.000000,0.000000,,,,,,,,,,,,,,,,,,,,,,,,,,,,
1732158417.549562,1732158417.552611,7.000000,0.000000,4287.307617,4279.871582,4312.051270,4300.769043,4279.102539,4280.128418,4334.871582,4402.563965,4294.230957,4280.769043,4479.102539,4508.077148,4351.282227,4407.307617,0.000000,1.000000,20.000000,,,,0.000000,2.000000,2.000000,0.000000,4.000000,2.000000,2.000000,0.000000,0.000000,4.000000,4.000000,4.000000,4.000000,4.000000,4.000000,0.000000,,,,,,,,,,,,,,,,,,,,,,,,,,,,
1732158417.557371,1732158417.560319,8.000000,0.000000,4288.717773,4281.538574,4312.307617,4299.871582,4279.102539,4282.820313,4336.282227,4401.025879,4290.512695,4276.794922,4474.871582,4508.333496,4352.307617,4411.922852,1531.000000,1.000000,20.000000,,,,0.000000,2.000000,2.000000,0.000000,4.000000,2.000000,2.000000,0.000000,0.000000,4.000000,4.000000,4.000000,4.000000,4.000000,4.000000,0.000000,,,,,,,,,,,,,,,,,2.000000,0.000000,0.524631,0.493774,-0.520264,0.458557,0.987914,0.080576,-0.021487,-35.273548,45.660709,31.761417
1732158417.565179,1732158417.568127,9.000000,0.000000,4294.358887,4280.769043,4311.666504,4293.974121,4293.846191,4281.153809,4331.538574,4402.563965,4288.589844,4276.410156,4475.897461,4506.410156,4352.820313,4414.230957,1691.000000,1.000000,20.000000,,,,0.000000,2.000000,2.000000,0.000000,4.000000,2.000000,2.000000,0.000000,0.000000,4.000000,4.000000,4.000000,4.000000,4.000000,4.000000,0.000000,,,,,,,,,,,,,,,,,,,,,,,,,,,,
1732158417.572987,1732158417.575736,10.000000,0.000000,4296.282227,4279.743652,4309.102539,4297.051270,4293.846191,4278.589844,4329.615234,4402.948730,4295.384766,4282.692383,4488.589844,4506.282227,4359.615234,4414.871582,1566.000000,1.000000,20.000000,,,,0.000000,2.000000,2.000000,0.000000,4.000000,2.000000,2.000000,0.000000,0.000000,4.000000,4.000000,4.000000,4.000000,4.000000,4.000000,0.000000,,,,,,,,,,,,,,,,,,,,,,,,,,,,
1732158417.580795,1732158417.583544,11.000000,0.000000,4296.282227,4280.769043,4310.512695,4303.461426,4268.077148,4280.384766,4335.384766,4397.436035,4301.794922,4287.307617,4492.563965,4506.794922,4360.897461,4414.487305,1558.000000,1.000000,20.000000,,,,0.000000,2.000000,2.000000,0.000000,4.000000,2.000000,2.000000,0.000000,0.000000,4.000000,4.000000,4.000000,4.000000,4.000000,4.000000,0.000000,,,,,,,,,,,,,,,,,,,,,,,,,,,,
1732158417.588604,1732158417.591252,12.000000,0.000000,4296.666504,4281.410156,4309.487305,4306.410156,4260.897461,4282.820313,4335.769043,4395.897461,4298.461426,4283.974121,4488.205078,4507.436035,4358.589844,4413.461426,1700.000000,1.000000,20.000000,,,,0.000000,2.000000,2.000000,0.000000,4.000000,2.000000,2.000000,0.000000,0.000000,4.000000,4.000000,4.000000,4.000000,4.000000,4.000000,0.000000,,,,,,,,,,,,,,,,,3.000000,0.000000,0.524005,0.495483,-0.519592,0.458191,0.975705,0.050299,-0.029300,-35.023239,45.806839,31.865080
1732158417.596412,1732158417.599061,13.000000,0.000000,4297.692383,4279.615234,4305.384766,4309.102539,4279.615234,4281.922852,4329.230957,4399.871582,4293.205078,4278.974121,4489.358887,4507.948730,4359.102539,4414.615234,1586.000000,1.000000,20.000000,,,,0.000000,2.000000,2.000000,0.000000,4.000000,2.000000,2.000000,0.000000,0.000000,4.000000,4.000000,4.000000,4.000000,4.000000,4.000000,0.000000,,,,,,,,,,,,,,,,,,,,,,,,,,,,
1732158417.604220,1732158417.606669,14.000000,0.000000,4298.205078,4283.333496,4302.948730,4309.358887,4285.512695,4281.666504,4326.922852,4399.743652,4293.717773,4278.461426,4488.974121,4506.666504,4354.102539,4415.512695,1566.000000,1.000000,20.000000,,,,0.000000,2.000000,2.000000,0.000000,4.000000,2.000000,2.000000,0.000000,0.000000,4.000000,4.000000,4.000000,4.000000,4.000000,4.000000,0.000000,1.000000,0.000000,2.000000,2.000000,0.000000,4.000000,2.000000,2.000000,0.000000,0.000000,4.000000,4.000000,4.000000,4.000000,4.000000,4.000000,,,,,,,,,,,,
1732158417.612028,1732158417.614477,15.000000,0.000000,4297.820313,4287.179688,4300.897461,4308.974121,4278.974121,4281.922852,4328.717773,4396.666504,4296.025879,4279.487305,4482.563965,4504.743652,4349.743652,4413.717773,1558.000000,1.000000,20.000000,,,,0.000000,2.000000,2.000000,0.000000,4.000000,2.000000,2.000000,0.000000,0.000000,4.000000,4.000000,4.000000,4.000000,4.000000,4.000000,0.000000,,,,,,,,,,,,,,,,,,,,,,,,,,,,
1732158417.619837,1732158417.622186,16.000000,0.000000,4300.384766,4283.077148,4296.410156,4309.487305,4280.000000,4280.512695,4327.307617,4397.692383,4297.820313,4279.102539,4478.717773,4505.769043,4352.436035,4413.461426,0.000000,1.000000,20.000000,,,,0.000000,2.000000,2.000000,0.000000,4.000000,2.000000,2.000000,0.000000,0.000000,4.000000,4.000000,4.000000,4.000000,4.000000,4.000000,0.000000,,,,,,,,,,,,,,,,,4.000000,0.000000,0.522466,0.494629,-0.521790,0.458374,0.965450,0.004395,-0.024905,-35.038826,45.853542,31.809050
1732158417.627645,1732158417.629994,17.000000,0.000000,4303.461426,4280.128418,4296.410156,4308.974121,4282.179688,4280.897461,4324.615234,4397.948730,4299.230957,4279.230957,4479.487305,4508.589844,4353.205078,4414.230957,0.000000,1.000000,20.000000,,,,0.000000,2.000000,2.000000,0.000000,4.000000,2.000000,2.000000,0.000000,0.000000,4.000000,4.000000,4.000000,4.000000,4.000000,4.000000,0.000000,,,,,,,,,,,,,,,,,,,,,,,,,,,,
1732158417.635453,1732158417.638002,18.000000,0.000000,4300.128418,4283.205078,4296.666504,4309.358887,4282.948730,4282.563965,4323.974121,4397.692383,4296.538574,4278.974121,4482.563965,4502.563965,4349.871582,4412.051270,0.000000,1.000000,20.000000,,,,0.000000,2.000000,2.000000,0.000000,4.000000,2.000000,2.000000,0.000000,0.000000,4.000000,4.000000,4.000000,4.000000,4.000000,4.000000,0.000000,,,,,,,,,,,,,,,,,,,,,,,,,,,,
1732158417.643261,1732158417.645810,19.000000,0.000000,4296.025879,4282.948730,4298.846191,4308.717773,4282.563965,4282.436035,4327.179688,4397.820313,4293.974121,4278.589844,4485.384766,4495.769043,4347.948730,4408.846191,0.000000,1.000000,20.000000,,,,0.000000,2.000000,2.000000,0.000000,4.000000,2.000000,2.000000,0.000000,0.000000,4.000000,4.000000,4.000000,4.000000,4.000000,4.000000,0.000000,,,,,,,,,,,,,,,,,,,,,,,,,,,,
1732158417.651070,1732158417.653718,20.000000,0.000000,4296.025879,4279.487305,4305.897461,4305.128418,4280.256348,4281.282227,4331.025879,4398.461426,4298.717773,4280.897461,4487.563965,4501.538574,4350.641113,4409.871582,0.000000,1.000000,20.000000,,,,0.000000,2.000000,2.000000,0.000000,4.000000,2.000000,2.000000,0.000000,0.000000,4.000000,4.000000,4.000000,4.000000,4.000000,4.000000,0.000000,,,,,,,,,,,,,,,,,5.000000,0.000000,0.521779,0.494202,-0.522827,0.458435,0.969357,0.004883,-0.046881,-35.063114,45.628036,31.813663
1732158417.658878,1732158417.661526,21.000000,0.000000,4299.358887,4281.025879,4306.666504,4302.436035,4281.025879,4280.897461,4333.205078,4399.615234,4304.358887,4283.461426,4486.025879,4508.333496,4351.410156,4413.077148,0.000000,1.000000,20.000000,,,,0.000000,2.000000,2.000000,0.000000,4.000000,2.000000,2.000000,0.000000,0.000000,4.000000,4.000000,4.000000,4.000000,4.000000,4.000000,0.000000,,,,,,,,,,,,,,,,,,,,,,,,,,,,
1732158417.666686,1732158417.669534,22.000000,0.000000,4303.846191,4281.922852,4304.358887,4304.102539,4283.205078,4282.179688,4334.230957,4398.846191,4301.922852,4282.436035,4480.512695,4506.153809,4345.897461,4413.846191,0.000000,1.000000,20.000000,,,,0.000000,2.000000,2.000000,0.000000,4.000000,2.000000,2.000000,0.000000,0.000000,4.000000,4.000000,4.000000,4.000000,4.000000,4.000000,0.000000,,,,,,,,,,,,,,,,,,,,,,,,,,,,
1732158417.674494,1732158417.677342,23.000000,0.000000,4302.820313,4280.769043,4307.436035,4304.743652,4282.436035,4282.563965,4331.794922,4397.948730,4295.000000,4278.717773,4477.820313,4503.333496,4344.487305,4412.051270,0.000000,1.000000,20.000000,,,,0.000000,2.000000,2.000000,0.000000,4.000000,2.000000,2.000000,0.000000,0.000000,4.000000,4.000000,4.000000,4.000000,4.000000,4.000000,0.000000,,,,,,,,,,,,,,,,,,,,,,,,,,,,
1732158417.682303,1732158417.685051,24.000000,0.000000,4298.205078,4281.666504,4310.641113,4303.974121,4279.230957,4281.153809,4330.000000,4399.615234,4293.333496,4279.102539,4477.563965,4505.256348,4349.743652,4412.692383,0.000000,1.000000,20.000000,,,,0.000000,2.000000,2.000000,0.000000,4.000000,2.000000,2.000000,0.000000,0.000000,4.000000,4.000000,4.000000,4.000000,4.000000,4.000000,0.000000,,,,,,,,,,,,,,,,,6.000000,0.000000,0.520781,0.492981,-0.525024,0.458374,0.965450,0.004883,-0.053717,-34.989456,45.477043,31.869066
1732158417.690111,1732158417.692859,25.000000,0.000000,4296.538574,4281.410156,4309.743652,4304.102539,4278.205078,4280.128418,4332.948730,4399.615234,4294.615234,4282.051270,4478.077148,4506.666504,4349.230957,4415.384766,0.000000,1.000000,20.000000,,,,0.000000,2.000000,2.000000,0.000000,4.000000,2.000000,2.000000,0.000000,0.000000,4.000000,4.000000,4.000000,4.000000,4.000000,4.000000,0.000000,,,,,,,,,,,,,,,,,,,,,,,,,,,,
1732158417.697919,1732158417.700467,26.000000,0.000000,4297.051270,4282.179688,4308.717773,4304.871582,4280.512695,4281.282227,4334.743652,4397.948730,4294.102539,4282.307617,4484.102539,4507.436035,4347.692383,4415.000000,0.000000,1.000000,20.000000,,,,0.000000,2.000000,2.000000,0.000000,4.000000,2.000000,2.000000,0.000000,0.000000,4.000000,4.000000,4.000000,4.000000,4.000000,4.000000,0.000000,,,,,,,,,,,,,,,,,,,,,,,,,,,,
1732158417.705727,1732158417.708276,27.000000,0.000000,4300.000000,4286.794922,4308.846191,4307.051270,4278.461426,4282.307617,4332.820313,4396.794922,4293.589844,4281.282227,4490.128418,4508.589844,4351.794922,4416.666504,0.000000,1.000000,20.000000,,,,0.000000,2.000000,2.000000,0.000000,4.000000,2.000000,2.000000,0.000000,0.000000,4.000000,4.000000,4.000000,4.000000,4.000000,4.000000,0.000000,,,,,,,,,,,,,,,,,,,,,,,,,,,,
1732158417.713536,1732158417.715984,28.000000,0.000000,4304.743652,4287.563965,4310.256348,4306.922852,4274.358887,4281.282227,4332.692383,4399.615234,4294.102539,4281.666504,4489.230957,4510.000000,4351.922852,4424.871582,0.000000,1.000000,20.000000,,,,0.000000,2.000000,2.000000,0.000000,4.000000,2.000000,2.000000,0.000000,0.000000,4.000000,4.000000,4.000000,4.000000,4.000000,4.000000,0.000000,,,,,,,,,,,,,,,,,7.000000,0.000000,0.519225,0.490417,-0.528687,0.458679,0.972287,0.024417,-0.048834,-34.863125,45.288071,31.763945
1732158417.721344,1732158417.723792,29.000000,0.000000,4304.615234,4282.307617,4312.179688,4302.563965,4274.615234,4278.974121,4335.256348,4402.820313,4293.974121,4281.794922,4488.333496,4509.230957,4349.358887,4426.282227,0.000000,1.000000,20.000000,,,,0.000000,2.000000,2.000000,0.000000,4.000000,2.000000,2.000000,0.000000,0.000000,4.000000,4.000000,4.000000,4.000000,4.000000,4.000000,0.000000,,,,,,,,,,,,,,,,,,,,,,,,,,,,
1732158417.729152,1732158417.731800,30.000000,0.000000,4303.205078,4280.128418,4313.717773,4301.153809,4272.948730,4276.922852,4334.743652,4401.025879,4293.974121,4280.128418,4485.641113,4506.794922,4350.256348,4423.846191,0.000000,1.000000,20.000000,,,,0.000000,2.000000,2.000000,0.000000,4.000000,2.000000,2.000000,0.000000,0.000000,4.000000,4.000000,4.000000,4.000000,4.000000,4.000000,0.000000,,,,,,,,,,,,,,,,,,,,,,,,,,,,
1732158417.736960,1732158417.739608,31.000000,0.000000,4304.871582,4281.922852,4314.615234,4308.846191,4269.358887,4278.589844,4333.717773,4398.333496,4294.743652,4278.717773,4477.948730,4508.974121,4348.333496,4423.589844,0.000000,1.000000,20.000000,,,,0.000000,2.000000,2.000000,0.000000,4.000000,2.000000,2.000000,0.000000,0.000000,4.000000,4.000000,4.000000,4.000000,4.000000,4.000000,0.000000,,,,,,,,,,,,,,,,,,,,,,,,,,,,
1732158417.744769,1732158417.747516,32.000000,0.000000,4304.743652,4281.922852,4314.871582,4309.615234,4266.538574,4280.769043,4335.256348,4401.282227,4294.102539,4279.102539,4473.461426,4511.410156,4343.205078,4418.333496,0.000000,1.000000,20.000000,,,,0.000000,2.000000,2.000000,0.000000,4.000000,2.000000,2.000000,0.000000,0.000000,4.000000,4.000000,4.000000,4.000000,4.000000,4.000000,0.000000,,,,,,,,,,,,,,,,,8.000000,0.000000,0.518920,0.490051,-0.529114,0.458923,0.983518,0.015627,-0.053717,-34.764133,45.141670,31.635462
1732158417.752577,1732158417.755325,33.000000,0.000000,4304.743652,4280.769043,4315.256348,4302.179688,4267.307617,4280.641113,4336.282227,4402.563965,4293.589844,4280.897461,4475.128418,4507.692383,4340.384766,4412.436035,0.000000,1.000000,20.000000,,,,0.000000,2.000000,2.000000,0.000000,4.000000,2.000000,2.000000,0.000000,0.000000,4.000000,4.000000,4.000000,4.000000,4.000000,4.000000,0.000000,,,,,,,,,,,,,,,,,,,,,,,,,,,,
1732158417.760385,1732158417.763333,34.000000,0.000000,4303.461426,4279.230957,4314.743652,4300.128418,4269.102539,4279.871582,4335.128418,4400.256348,4297.179688,4282.692383,4477.563965,4506.153809,4340.897461,4414.871582,0.000000,1.000000,20.000000,,,,0.000000,2.000000,2.000000,0.000000,4.000000,2.000000,2.000000,0.000000,0.000000,4.000000,4.000000,4.000000,4.000000,4.000000,4.000000,0.000000,,,,,,,,,,,,,,,,,,,,,,,,,,,,
1732158417.768193,1732158417.771141,35.000000,0.000000,4299.102539,4278.974121,4315.000000,4301.025879,4272.307617,4281.153809,4334.615234,4401.025879,4299.871582,4283.205078,4477.307617,4508.846191,4341.282227,4416.922852,0.000000,1.000000,20.000000,,,,0.000000,2.000000,2.000000,0.000000,4.000000,2.000000,2.000000,0.000000,0.000000,4.000000,4.000000,4.000000,4.000000,4.000000,4.000000,0.000000,,,,,,,,,,,,,,,,,,,,,,,,,,,,
1732158417.776002,1732158417.779049,36.000000,0.000000,4296.922852,4280.256348,4319.102539,4300.256348,4272.051270,4280.769043,4335.128418,4402.820313,4295.256348,4279.102539,4475.512695,4513.589844,4340.128418,4415.000000,0.000000,1.000000,20.000000,,,,0.000000,2.000000,2.000000,0.000000,4.000000,2.000000,2.000000,0.000000,0.000000,4.000000,4.000000,4.000000,4.000000,4.000000,4.000000,0.000000,,,,,,,,,,,,,,,,,9.000000,0.000000,0.518542,0.489624,-0.529297,0.459595,0.984007,0.023929,-0.035161,-34.863949,45.186420,31.516390
1732158417.783810,1732158417.786857,37.000000,0.000000,4297.692383,4280.256348,4322.307617,4302.820313,4268.974121,4278.205078,4334.615234,4398.974121,4291.025879,4274.487305,4475.128418,4513.846191,4340.897461,4413.846191,0.000000,1.000000,20.000000,,,,0.000000,2.000000,2.000000,0.000000,4.000000,2.000000,2.000000,0.000000,0.000000,4.000000,4.000000,4.000000,4.000000,4.000000,4.000000,0.000000,,,,,,,,,,,,,,,,,,,,,,,,,,,,
1732158417.791618,1732158417.794865,38.000000,0.000000,4300.128418,4280.512695,4320.641113,4309.230957,4273.717773,4280.256348,4333.974121,4397.051270,4293.333496,4276.922852,4476.153809,4510.769043,4343.589844,4413.717773,0.000000,1.000000,20.000000,,,,0.000000,2.000000,2.000000,0.000000,4.000000,2.000000,2.000000,0.000000,0.000000,4.000000,4.000000,4.000000,4.000000,4.000000,4.000000,0.000000,,,,,,,,,,,,,,,,,,,,,,,,,,,,
1732158417.799426,1732158417.802673,39.000000,0.000000,4303.077148,4281.282227,4322.820313,4306.666504,4279.615234,4283.974121,4336.153809,4402.692383,4295.897461,4280.641113,4476.538574,4515.384766,4343.461426,4418.717773,0.000000,1.000000,20.000000,,,,0.000000,2.000000,2.000000,0.000000,4.000000,2.000000,2.000000,0.000000,0.000000,4.000000,4.000000,4.000000,4.000000,4.000000,4.000000,0.000000,,,,,,,,,,,,,,,,,,,,,,,,,,,,
1732158417.807235,1732158417.810581,40.000000,0.000000,4303.717773,4281.282227,4324.230957,4302.051270,4278.077148,4281.282227,4335.000000,4405.897461,4295.000000,4278.974121,4478.846191,4518.333496,4342.307617,4424.358887,0.000000,1.000000,20.000000,,,,0.000000,2.000000,2.000000,0.000000,4.000000,2.000000,2.000000,0.000000,0.000000,4.000000,4.000000,4.000000,4.000000,4.000000,4.000000,0.000000,,,,,,,,,,,,,,,,,10.000000,0.000000,0.518857,0.489136,-0.529175,0.459900,0.975217,0.027347,-0.032230,-35.036465,45.194332,31.358276
1732158417.815043,1732158417.818390,41.000000,0.000000,4302.307617,4280.384766,4313.974121,4305.897461,4275.897461,4278.846191,4332.436035,4400.384766,4295.128418,4278.846191,4484.871582,4513.846191,4343.846191,4424.102539,0.000000,1.000000,20.000000,,,,0.000000,2.000000,2.000000,0.000000,4.000000,2.000000,2.000000,0.000000,0.000000,4.000000,4.000000,4.000000,4.000000,4.000000,4.000000,0.000000,,,,,,,,,,,,,,,,,,,,,,,,,,,,
1732158417.822851,1732158417.826398,42.000000,0.000000,4304.358887,4278.717773,4329.487305,4306.410156,4278.205078,4279.615234,4342.436035,4403.077148,4296.025879,4279.102539,4488.589844,4517.820313,4343.205078,4422.436035,0.000000,1.000000,20.000000,,,,0.000000,2.000000,2.000000,0.000000,4.000000,2.000000,2.000000,0.000000,0.000000,4.000000,4.000000,4.000000,4.000000,4.000000,4.000000,0.000000,,,,,,,,,,,,,,,,,,,,,,,,,,,,
1732158417.830660,1732158417.834206,43.000000,0.000000,4308.461426,4278.333496,4360.256348,4299.358887,4276.666504,4277.436035,4350.384766,4415.000000,4297.051270,4274.615234,4488.846191,4525.000000,4341.666504,4423.205078,0.000000,1.000000,20.000000,,,,0.000000,2.000000,2.000000,0.000000,4.000000,2.000000,2.000000,0.000000,0.000000,4.000000,4.000000,4.000000,4.000000,4.000000,4.000000,0.000000,,,,,,,,,,,,,,,,,,,,,,,,,,,,
1732158417.838468,1732158417.842114,44.000000,0.000000,4309.871582,4280.897461,4341.410156,4302.307617,4273.333496,4276.922852,4340.769043,4411.666504,4298.846191,4274.615234,4487.820313,4521.922852,4347.307617,4427.307617,0.000000,1.000000,20.000000,,,,0.000000,2.000000,2.000000,0.000000,4.000000,2.000000,2.000000,0.000000,0.000000,4.000000,4.000000,4.000000,4.000000,4.000000,4.000000,0.000000,,,,,,,,,,,,,,,,,11.000000,0.000000,0.519139,0.489075,-0.529114,0.459717,0.992797,0.043462,-0.033207,-35.042870,45.117409,31.396870
1732158417.846276,1732158417.849922,45.000000,0.000000,4310.769043,4282.307617,4305.384766,4310.641113,4274.487305,4280.641113,4332.307617,4401.794922,4303.589844,4279.487305,4488.077148,4519.743652,4352.563965,4430.128418,0.000000,1.000000,20.000000,,,,0.000000,2.000000,2.000000,0.000000,4.000000,2.000000,2.000000,0.000000,0.000000,4.000000,4.000000,4.000000,4.000000,4.000000,4.000000,0.000000,,,,,,,,,,,,,,,,,,,,,,,,,,,,
1732158417.854084,1732158417.857930,46.000000,0.000000,4310.256348,4280.384766,4309.615234,4303.846191,4275.384766,4279.743652,4335.512695,4401.282227,4308.205078,4280.641113,4489.487305,4517.948730,4350.000000,4424.615234,0.000000,1.000000,20.000000,,,,0.000000,2.000000,2.000000,0.000000,4.000000,2.000000,2.000000,0.000000,0.000000,4.000000,4.000000,4.000000,4.000000,4.000000,4.000000,0.000000,,,,,,,,,,,,,,,,,,,,,,,,,,,,
1732158417.861892,1732158417.865738,47.000000,0.000000,4309.615234,4280.128418,4320.641113,4298.077148,4276.282227,4275.128418,4336.538574,4401.025879,4303.077148,4280.256348,4490.641113,4509.487305,4351.538574,4422.051270,0.000000,1.000000,20.000000,,,,0.000000,2.000000,2.000000,0.000000,4.000000,2.000000,2.000000,0.000000,0.000000,4.000000,4.000000,4.000000,4.000000,4.000000,4.000000,0.000000,,,,,,,,,,,,,,,,,,,,,,,,,,,,
1732158417.869701,1732158417.873447,48.000000,0.000000,4310.769043,4281.666504,4312.563965,4304.487305,4277.692383,4276.538574,4333.717773,4400.128418,4293.333496,4278.717773,4489.230957,4509.743652,4351.538574,4427.820313,0.000000,1.000000,20.000000,,,,0.000000,2.000000,2.000000,0.000000,4.000000,2.000000,2.000000,0.000000,0.000000,4.000000,4.000000,4.000000,4.000000,4.000000,4.000000,0.000000,,,,,,,,,,,,,,,,,12.000000,0.000000,0.519091,0.489258,-0.528992,0.459717,0.992797,0.043462,-0.033207,-34.813057,45.095100,31.226465
1732158417.877509,1732158417.881255,49.000000,0.000000,4310.256348,4278.974121,4312.563965,4304.102539,4276.922852,4281.922852,4334.102539,4402.692383,4297.307617,4277.307617,4486.153809,4516.538574,4342.179688,4427.692383,0.000000,1.000000,20.000000,,,,0.000000,2.000000,2.000000,0.000000,4.000000,2.000000,2.000000,0.000000,0.000000,4.000000,4.000000,4.000000,4.000000,4.000000,4.000000,0.000000,,,,,,,,,,,,,,,,,,,,,,,,,,,,
1732158417.885317,1732158417.888863,50.000000,0.000000,4308.077148,4279.230957,4316.794922,4297.051270,4277.820313,4282.179688,4333.846191,4402.692383,4307.307617,4280.512695,4488.205078,4514.358887,4343.974121,4425.641113,0.000000,1.000000,20.000000,,,,0.000000,2.000000,2.000000,0.000000,4.000000,2.000000,2.000000,0.000000,0.000000,4.000000,4.000000,4.000000,4.000000,4.000000,4.000000,0.000000,,,,,,,,,,,,,,,,,,,,,,,,,,,,
1732158417.893125,1732158417.896672,51.000000,0.000000,4308.461426,4282.563965,4315.128418,4299.487305,4278.974121,4280.000000,4334.102539,4401.025879,4300.769043,4282.948730,4489.487305,4514.230957,4356.666504,4430.384766,0.000000,1.000000,20.000000,,,,0.000000,2.000000,2.000000,0.000000,4.000000,2.000000,2.000000,0.000000,0.000000,4.000000,4.000000,4.000000,4.000000,4.000000,4.000000,0.000000,,,,,,,,,,,,,,,,,,,,,,,,,,,,
1732158417.900934,1732158417.904380,52.000000,0.000000,4309.102539,4274.615234,4315.769043,4301.538574,4272.436035,4279.615234,4335.512695,4401.538574,4293.077148,4279.615234,4488.717773,4516.025879,4358.717773,4430.897461,0.000000,1.000000,20.000000,,,,0.000000,2.000000,2.000000,0.000000,4.000000,2.000000,2.000000,0.000000,0.000000,4.000000,4.000000,4.000000,4.000000,4.000000,4.000000,0.000000,,,,,,,,,,,,,,,,,13.000000,0.000000,0.518011,0.489441,-0.529297,0.460388,0.979612,0.020022,-0.042974,-35.000244,45.205364,31.341770
1732158417.908742,1732158417.912188,53.000000,0.000000,4308.077148,4263.205078,4314.871582,4295.256348,4265.769043,4276.794922,4335.128418,4401.538574,4304.743652,4280.384766,4498.717773,4513.846191,4358.333496,4429.102539,0.000000,1.000000,20.000000,,,,0.000000,2.000000,2.000000,0.000000,4.000000,2.000000,2.000000,0.000000,0.000000,4.000000,4.000000,4.000000,4.000000,4.000000,4.000000,0.000000,,,,,,,,,,,,,,,,,,,,,,,,,,,,
1732158417.916550,1732158417.919797,54.000000,0.000000,4308.589844,4264.615234,4317.692383,4291.153809,4265.256348,4274.487305,4334.615234,4401.538574,4309.102539,4284.743652,4507.563965,4515.769043,4368.205078,4436.410156,0.000000,1.000000,20.000000,,,,0.000000,2.000000,2.000000,0.000000,4.000000,2.000000,2.000000,0.000000,0.000000,4.000000,4.000000,4.000000,4.000000,4.000000,4.000000,0.000000,,,,,,,,,,,,,,,,,,,,,,,,,,,,
1732158417.924358,1732158417.927605,55.000000,0.000000,4309.743652,4268.461426,4319.615234,4290.000000,4266.282227,4277.051270,4335.384766,4401.410156,4297.563965,4283.205078,4498.846191,4520.512695,4372.436035,4440.769043,0.000000,1.000000,20.000000,,,,0.000000,2.000000,2.000000,0.000000,4.000000,2.000000,2.000000,0.000000,0.000000,4.000000,4.000000,4.000000,4.000000,4.000000,4.000000,0.000000,,,,,,,,,,,,,,,,,,,,,,,,,,,,
1732158417.932167,1732158417.935313,56.000000,0.000000,4308.077148,4263.717773,4317.563965,4286.025879,4266.282227,4281.025879,4336.666504,4402.692383,4294.358887,4278.974121,4491.922852,4520.384766,4366.794922,4437.948730,0.000000,1.000000,20.000000,,,,0.000000,2.000000,2.000000,0.000000,4.000000,2.000000,2.000000,0.000000,0.000000,4.000000,4.000000,4.000000,4.000000,4.000000,4.000000,0.000000,,,,,,,,,,,,,,,,,14.000000,0.000000,0.516419,0.489014,-0.530396,0.461365,0.953730,0.016604,-0.057624,-34.981865,45.074680,31.518501
1732158417.939975,1732158417.943121,57.000000,0.000000,4307.820313,4259.230957,4317.820313,4284.102539,4265.128418,4279.230957,4335.897461,4407.179688,4299.871582,4280.256348,4498.461426,4514.102539,4369.615234,4438.974121,0.000000,1.000000,20.000000,,,,0.000000,2.000000,2.000000,0.000000,4.000000,2.000000,2.000000,0.000000,0.000000,4.000000,4.000000,4.000000,4.000000,4.000000,4.000000,0.000000,,,,,,,,,,,,,,,,,,,,,,,,,,,,
1732158417.947783,1732158417.950730,58.000000,0.000000,4309.615234,4262.948730,4319.871582,4284.743652,4263.461426,4270.000000,4335.769043,4407.307617,4296.794922,4283.461426,4504.487305,4513.461426,4380.512695,4443.589844,0.000000,1.000000,20.000000,,,,0.000000,2.000000,2.000000,0.000000,4.000000,2.000000,2.000000,0.000000,0.000000,4.000000,4.000000,4.000000,4.000000,4.000000,4.000000,0.000000,,,,,,,,,,,,,,,,,,,,,,,,,,,,
1732158417.955592,1732158417.958538,59.000000,0.000000,4310.128418,4262.948730,4319.615234,4282.436035,4262.692383,4265.512695,4337.436035,4401.666504,4293.333496,4282.692383,4505.512695,4518.205078,4381.666504,4444.487305,0.000000,1.000000,20.000000,,,,0.000000,2.000000,2.000000,0.000000,4.000000,2.000000,2.000000,0.000000,0.000000,4.000000,4.000000,4.000000,4.000000,4.000000,4.000000,0.000000,,,,,,,,,,,,,,,,,,,,,,,,,,,,
1732158417.963400,1732158417.966246,60.000000,0.000000,4310.384766,4255.512695,4320.000000,4279.615234,4262.563965,4274.358887,4337.820313,4401.153809,4295.384766,4280.897461,4502.436035,4519.487305,4372.692383,4442.563965,0.000000,1.000000,20.000000,,,,0.000000,2.000000,2.000000,0.000000,4.000000,2.000000,2.000000,0.000000,0.000000,4.000000,4.000000,4.000000,4.000000,4.000000,4.000000,0.000000,,,,,,,,,,,,,,,,,15.000000,0.000000,0.515809,0.488892,-0.530518,0.462036,0.964473,0.014650,-0.042486,-34.793644,45.097157,31.641651
1732158417.971208,1732158417.974054,61.000000,0.000000,4308.717773,4255.256348,4318.205078,4278.077148,4260.641113,4280.256348,4337.563965,4406.153809,4293.589844,4280.256348,4492.692383,4516.794922,4371.922852,4441.538574,0.000000,1.000000,20.000000,,,,0.000000,2.000000,2.000000,0.000000,4.000000,2.000000,2.000000,0.000000,0.000000,4.000000,4.000000,4.000000,4.000000,4.000000,4.000000,0.000000,,,,,,,,,,,,,,,,,,,,,,,,,,,,
1732158417.979016,1732158417.981663,62.000000,0.000000,4309.871582,4262.179688,4317.179688,4278.461426,4261.282227,4271.794922,4336.666504,4406.025879,4292.692383,4280.256348,4490.000000,4517.051270,4378.461426,4448.974121,0.000000,1.000000,20.000000,,,,0.000000,2.000000,2.000000,0.000000,4.000000,2.000000,2.000000,0.000000,0.000000,4.000000,4.000000,4.000000,4.000000,4.000000,4.000000,0.000000,,,,,,,,,,,,,,,,,,,,,,,,,,,,
1732158417.986824,1732158417.989471,63.000000,0.000000,4317.563965,4263.205078,4318.846191,4281.666504,4259.743652,4264.615234,4335.641113,4401.153809,4295.128418,4281.666504,4499.487305,4520.769043,4382.307617,4459.615234,0.000000,1.000000,20.000000,,,,0.000000,2.000000,2.000000,0.000000,4.000000,2.000000,2.000000,0.000000,0.000000,4.000000,4.000000,4.000000,4.000000,4.000000,4.000000,0.000000,,,,,,,,,,,,,,,,,,,,,,,,,,,,
1732158417.994633,1732158417.997179,64.000000,0.000000,4323.717773,4262.692383,4317.436035,4283.974121,4252.692383,4264.871582,4336.153809,4401.153809,4292.051270,4282.820313,4506.410156,4523.077148,4389.615234,4462.563965,0.000000,1.000000,20.000000,,,,0.000000,2.000000,2.000000,0.000000,4.000000,2.000000,2.000000,0.000000,0.000000,4.000000,4.000000,4.000000,4.000000,4.000000,4.000000,0.000000,,,,,,,,,,,,,,,,,16.000000,0.000000,0.515458,0.488708,-0.530762,0.462341,0.972287,0.003418,-0.050299,-34.991184,45.205364,31.709738
1732158418.002441,1732158418.004988,65.000000,0.000000,4327.820313,4266.538574,4315.256348,4284.615234,4248.461426,4265.384766,4336.153809,4403.589844,4288.333496,4280.512695,4509.743652,4532.820313,4397.563965,4468.205078,1604.000000,1.000000,20.000000,,,,0.000000,2.000000,2.000000,0.000000,4.000000,2.000000,2.000000,0.000000,0.000000,4.000000,4.000000,4.000000,4.000000,4.000000,4.000000,0.000000,,,,,,,,,,,,,,,,,,,,,,,,,,,,
1732158418.010249,1732158418.012996,66.000000,0.000000,4333.846191,4265.384766,4314.615234,4284.871582,4249.487305,4264.358887,4334.871582,4401.025879,4292.436035,4278.333496,4509.487305,4540.641113,4398.461426,4476.282227,1359.000000,1.000000,20.000000,,,,0.000000,2.000000,2.000000,0.000000,4.000000,2.000000,2.000000,0.000000,0.000000,4.000000,4.000000,4.000000,4.000000,4.000000,4.000000,0.000000,,,,,,,,,,,,,,,,,,,,,,,,,,,,
1732158418.018057,1732158418.020804,67.000000,0.000000,4337.820313,4265.256348,4313.461426,4284.871582,4249.102539,4260.641113,4334.487305,4402.692383,4295.512695,4279.230957,4508.717773,4538.589844,4397.307617,4475.128418,1426.000000,1.000000,20.000000,,,,0.000000,2.000000,2.000000,0.000000,4.000000,2.000000,2.000000,0.000000,0.000000,4.000000,4.000000,4.000000,4.000000,4.000000,4.000000,0.000000,,,,,,,,,,,,,,,,,,,,,,,,,,,,
1732158418.025866,1732158418.028512,68.000000,0.000000,4338.846191,4269.743652,4315.769043,4287.179688,4247.948730,4258.717773,4335.256348,4407.692383,4293.589844,4280.128418,4515.000000,4536.410156,4399.358887,4475.641113,1422.000000,1.000000,20.000000,,,,0.000000,2.000000,2.000000,0.000000,4.000000,2.000000,2.000000,0.000000,0.000000,4.000000,4.000000,4.000000,4.000000,4.000000,4.000000,0.000000,,,,,,,,,,,,,,,,,17.000000,0.000000,0.513829,0.486633,-0.532593,0.464233,0.992797,-0.012209,-0.050787,-34.967857,45.044678,31.758221
1732158418.033674,1732158418.036320,69.000000,0.000000,4341.666504,4275.384766,4319.615234,4290.384766,4248.205078,4260.641113,4334.743652,4404.615234,4293.589844,4280.769043,4520.769043,4540.897461,4405.128418,4486.153809,1204.000000,1.000000,20.000000,,,,0.000000,2.000000,2.000000,0.000000,4.000000,2.000000,2.000000,0.000000,0.000000,4.000000,4.000000,4.000000,4.000000,4.000000,4.000000,0.000000,,,,,,,,,,,,,,,,,,,,,,,,,,,,
1732158418.041482,1732158418.043929,70.000000,0.000000,4343.589844,4277.820313,4317.051270,4292.307617,4248.461426,4262.948730,4334.358887,4401.538574,4295.000000,4281.153809,4520.128418,4542.179688,4405.897461,4493.461426,0.000000,1.000000,20.000000,,,,0.000000,2.000000,2.000000,0.000000,4.000000,2.000000,2.000000,0.000000,0.000000,4.000000,4.000000,4.000000,4.000000,4.000000,4.000000,0.000000,,,,,,,,,,,,,,,,,,,,,,,,,,,,
1732158418.049291,1732158418.051737,71.000000,0.000000,4342.436035,4271.794922,4326.666504,4291.025879,4247.948730,4262.563965,4337.563965,4410.769043,4295.769043,4278.974121,4519.487305,4538.717773,4400.641113,4489.487305,0.000000,1.000000,20.000000,,,,0.000000,2.000000,2.000000,0.000000,4.000000,2.000000,2.000000,0.000000,0.000000,4.000000,4.000000,4.000000,4.000000,4.000000,4.000000,0.000000,,,,,,,,,,,,,,,,,,,,,,,,,,,,
1732158418.057099,1732158418.059645,72.000000,0.000000,4343.205078,4271.538574,4338.077148,4289.230957,4247.179688,4261.538574,4340.128418,4413.589844,4296.794922,4276.153809,4522.051270,4538.461426,4401.666504,4482.179688,1544.000000,1.000000,20.000000,,,,0.000000,2.000000,2.000000,0.000000,4.000000,2.000000,2.000000,0.000000,0.000000,4.000000,4.000000,4.000000,4.000000,4.000000,4.000000,0.000000,,,,,,,,,,,,,,,,,18.000000,0.000000,0.512013,0.485718,-0.533630,0.466003,0.994750,-0.011720,-0.052252,-35.065632,45.229523,31.665825
1732158418.064907,1732158418.067453,73.000000,0.000000,4343.589844,4280.128418,4323.974121,4290.641113,4246.282227,4262.307617,4337.436035,4403.974121,4296.794922,4278.077148,4522.051270,4540.128418,4406.410156,4483.717773,1691.000000,1.000000,20.000000,,,,0.000000,2.000000,2.000000,0.000000,4.000000,2.000000,2.000000,0.000000,0.000000,4.000000,4.000000,4.000000,4.000000,4.000000,4.000000,0.000000,,,,,,,,,,,,,,,,,,,,,,,,,,,,
1732158418.072715,1732158418.075461,74.000000,0.000000,4340.128418,4281.153809,4309.358887,4294.358887,4247.307617,4263.461426,4334.615234,4401.538574,4296.410156,4281.922852,4521.538574,4536.410156,4405.769043,4486.410156,1566.000000,1.000000,20.000000,,,,0.000000,2.000000,2.000000,0.000000,4.000000,2.000000,2.000000,0.000000,0.000000,4.000000,4.000000,4.000000,4.000000,4.000000,4.000000,0.000000,,,,,,,,,,,,,,,,,,,,,,,,,,,,
1732158418.080524,1732158418.083269,75.000000,0.000000,4339.487305,4277.948730,4314.487305,4295.000000,4249.230957,4264.230957,4335.000000,4404.871582,4298.333496,4280.769043,4518.846191,4532.179688,4402.820313,4480.256348,1558.000000,1.000000,20.000000,,,,0.000000,2.000000,2.000000,0.000000,4.000000,2.000000,2.000000,0.000000,0.000000,4.000000,4.000000,4.000000,4.000000,4.000000,4.000000,0.000000,,,,,,,,,,,,,,,,,,,,,,,,,,,,
1732158418.088332,1732158418.090978,76.000000,0.000000,4344.230957,4284.230957,4317.051270,4295.128418,4251.538574,4266.410156,4334.615234,4404.230957,4298.077148,4278.205078,4510.512695,4532.051270,4400.641113,4475.769043,1700.000000,1.000000,20.000000,,,,0.000000,2.000000,2.000000,0.000000,4.000000,2.000000,2.000000,0.000000,0.000000,4.000000,4.000000,4.000000,4.000000,4.000000,4.000000,0.000000,,,,,,,,,,,,,,,,,19.000000,0.000000,0.512013,0.485718,-0.533630,0.466003,0.981077,-0.019045,-0.038091,-35.219830,45.274246,31.365986
1732158418.096140,1732158418.098786,77.000000,0.000000,4341.282227,4284.487305,4315.512695,4295.769043,4250.641113,4263.846191,4333.974121,4403.589844,4295.256348,4276.794922,4509.102539,4526.282227,4397.692383,4474.743652,1576.000000,1.000000,20.000000,,,,0.000000,2.000000,2.000000,0.000000,4.000000,2.000000,2.000000,0.000000,0.000000,4.000000,4.000000,4.000000,4.000000,4.000000,4.000000,0.000000,,,,,,,,,,,,,,,,,,,,,,,,,,,,
1732158418.103948,1732158418.106794,78.000000,0.000000,4333.589844,4280.128418,4319.358887,4293.077148,4247.051270,4258.333496,4334.743652,4403.846191,4294.102539,4274.743652,4512.307617,4517.948730,4396.153809,4471.538574,1566.000000,1.000000,20.000000,,,,0.000000,2.000000,2.000000,0.000000,4.000000,2.000000,2.000000,0.000000,0.000000,4.000000,4.000000,4.000000,4.000000,4.000000,4.000000,0.000000,1.000000,0.000000,2.000000,2.000000,0.000000,4.000000,2.000000,2.000000,0.000000,0.000000,4.000000,4.000000,4.000000,4.000000,4.000000,4.000000,,,,,,,,,,,,
1732158418.111756,1732158418.114602,79.000000,0.000000,4333.974121,4289.871582,4316.666504,4296.410156,4253.205078,4260.512695,4335.128418,4401.922852,4294.615234,4275.256348,4508.589844,4520.384766,4397.051270,4470.256348,1558.000000,1.000000,20.000000,,,,0.000000,2.000000,2.000000,0.000000,4.000000,2.000000,2.000000,0.000000,0.000000,4.000000,4.000000,4.000000,4.000000,4.000000,4.000000,0.000000,,,,,,,,,,,,,,,,,,,,,,,,,,,,
1732158418.119565,1732158418.122510,80.000000,0.000000,4335.897461,4273.333496,4314.230957,4299.230957,4259.871582,4266.025879,4334.871582,4402.179688,4295.769043,4278.974121,4511.538574,4526.794922,4397.563965,4472.692383,1700.000000,1.000000,20.000000,,,,0.000000,2.000000,2.000000,0.000000,4.000000,2.000000,2.000000,0.000000,0.000000,4.000000,4.000000,4.000000,4.000000,4.000000,4.000000,0.000000,,,,,,,,,,,,,,,,,20.000000,0.000000,0.509670,0.483215,-0.535522,0.468994,0.988890,-0.042486,-0.039067,-35.219727,45.415474,31.431448
1732158418.127373,1732158418.130318,81.000000,0.000000,4338.205078,4224.871582,4316.922852,4296.410156,4261.794922,4265.000000,4335.000000,4404.871582,4295.512695,4281.794922,4518.846191,4529.230957,4400.128418,4474.487305,1576.000000,1.000000,20.000000,,,,0.000000,2.000000,2.000000,0.000000,4.000000,2.000000,2.000000,0.000000,0.000000,4.000000,4.000000,4.000000,4.000000,4.000000,4.000000,0.000000,,,,,,,,,,,,,,,,,,,,,,,,,,,,
1732158418.135181,1732158418.138326,82.000000,0.000000,4343.333496,4203.461426,4315.384766,4299.358887,4276.922852,4263.717773,4335.128418,4403.333496,4293.461426,4282.179688,4511.025879,4531.922852,4399.230957,4478.589844,1566.000000,1.000000,20.000000,,,,0.000000,2.000000,2.000000,0.000000,4.000000,2.000000,2.000000,0.000000,0.000000,4.000000,4.000000,4.000000,4.000000,4.000000,4.000000,0.000000,,,,,,,,,,,,,,,,,,,,,,,,,,,,
1732158418.142990,1732158418.146135,83.000000,0.000000,4343.589844,4216.282227,4313.077148,4305.256348,4279.615234,4265.512695,4334.871582,4402.051270,4293.077148,4280.512695,4508.077148,4535.128418,4395.769043,4482.051270,1558.000000,1.000000,20.000000,,,,0.000000,2.000000,2.000000,0.000000,4.000000,2.000000,2.000000,0.000000,0.000000,4.000000,4.000000,4.000000,4.000000,4.000000,4.000000,0.000000,,,,,,,,,,,,,,,,,,,,,,,,,,,,
1732158418.150798,1732158418.154043,84.000000,0.000000,4342.436035,4219.615234,4314.615234,4302.563965,4255.128418,4265.000000,4334.487305,4402.948730,4295.000000,4283.333496,4520.512695,4534.358887,4397.436035,4482.948730,1700.000000,1.000000,20.000000,,,,0.000000,2.000000,2.000000,0.000000,4.000000,2.000000,2.000000,0.000000,0.000000,4.000000,4.000000,4.000000,4.000000,4.000000,4.000000,0.000000,,,,,,,,,,,,,,,,,21.000000,0.000000,0.509071,0.481506,-0.536560,0.470215,0.986449,-0.036626,-0.035649,-35.381313,45.506535,31.549473
1732158418.158606,1732158418.161851,85.000000,0.000000,4344.230957,4212.563965,4314.102539,4294.871582,4247.820313,4264.358887,4335.512695,4402.563965,4297.307617,4291.538574,4520.128418,4536.538574,4398.974121,4482.948730,1576.000000,1.000000,20.000000,,,,0.000000,2.000000,2.000000,0.000000,4.000000,2.000000,2.000000,0.000000,0.000000,4.000000,4.000000,4.000000,4.000000,4.000000,4.000000,0.000000,,,,,,,,,,,,,,,,,,,,,,,,,,,,
1732158418.166414,1732158418.169859,86.000000,0.000000,4339.102539,4216.282227,4313.589844,4297.563965,4265.128418,4267.179688,4336.025879,4401.538574,4298.974121,4296.922852,4508.077148,4536.922852,4396.410156,4478.077148,1566.000000,1.000000,20.000000,,,,0.000000,2.000000,2.000000,0.000000,4.000000,2.000000,2.000000,0.000000,0.000000,4.000000,4.000000,4.000000,4.000000,4.000000,4.000000,0.000000,,,,,,,,,,,,,,,,,,,,,,,,,,,,
1732158418.174223,1732158418.177667,87.000000,0.000000,4333.077148,4223.205078,4316.282227,4303.974121,4268.589844,4267.307617,4333.974121,4401.666504,4296.282227,4292.179688,4506.922852,4528.077148,4394.487305,4474.358887,1558.000000,1.000000,20.000000,,,,0.000000,2.000000,2.000000,0.000000,4.000000,2.000000,2.000000,0.000000,0.000000,4.000000,4.000000,4.000000,4.000000,4.000000,4.000000,0.000000,,,,,,,,,,,,,,,,,,,,,,,,,,,,
1732158418.182031,1732158418.185575,88.000000,0.000000,4335.128418,4228.077148,4315.897461,4302.307617,4262.436035,4265.769043,4333.461426,4403.077148,4291.922852,4284.358887,4506.922852,4524.615234,4394.358887,4477.179688,1700.000000,1.000000,20.000000,,,,0.000000,2.000000,2.000000,0.000000,4.000000,2.000000,2.000000,0.000000,0.000000,4.000000,4.000000,4.000000,4.000000,4.000000,4.000000,0.000000,,,,,,,,,,,,,,,,,22.000000,0.000000,0.508974,0.479980,-0.537537,0.470764,0.972287,-0.026370,-0.030765,-35.418865,45.655293,31.725073
1732158418.189839,1732158418.193384,89.000000,0.000000,4337.948730,4230.641113,4315.128418,4301.410156,4267.692383,4272.563965,4335.384766,4404.358887,4294.743652,4290.641113,4505.641113,4531.666504,4392.051270,4477.179688,1576.000000,1.000000,20.000000,,,,0.000000,2.000000,2.000000,0.000000,4.000000,2.000000,2.000000,0.000000,0.000000,4.000000,4.000000,4.000000,4.000000,4.000000,4.000000,0.000000,,,,,,,,,,,,,,,,,,,,,,,,,,,,
1732158418.197647,1732158418.201392,90.000000,0.000000,4335.256348,4229.871582,4316.538574,4303.333496,4283.333496,4280.512695,4335.897461,4405.000000,4297.820313,4293.717773,4507.820313,4534.487305,4385.256348,4470.512695,1566.000000,1.000000,20.000000,,,,0.000000,2.000000,2.000000,0.000000,4.000000,2.000000,2.000000,0.000000,0.000000,4.000000,4.000000,4.000000,4.000000,4.000000,4.000000,0.000000,,,,,,,,,,,,,,,,,,,,,,,,,,,,
1732158418.205456,1732158418.209200,91.000000,0.000000,4330.769043,4230.769043,4316.794922,4299.487305,4290.256348,4278.205078,4335.512695,4403.333496,4297.692383,4283.589844,4505.897461,4528.333496,4381.538574,4470.512695,1558.000000,1.000000,20.000000,,,,0.000000,2.000000,2.000000,0.000000,4.000000,2.000000,2.000000,0.000000,0.000000,4.000000,4.000000,4.000000,4.000000,4.000000,4.000000,0.000000,,,,,,,,,,,,,,,,,,,,,,,,,,,,
1732158418.213264,1732158418.217108,92.000000,0.000000,4328.077148,4231.922852,4315.769043,4295.512695,4274.230957,4277.307617,4336.153809,4402.692383,4301.538574,4283.589844,4502.307617,4529.102539,4382.179688,4473.589844,1700.000000,1.000000,20.000000,,,,0.000000,2.000000,2.000000,0.000000,4.000000,2.000000,2.000000,0.000000,0.000000,4.000000,4.000000,4.000000,4.000000,4.000000,4.000000,0.000000,,,,,,,,,,,,,,,,,23.000000,0.000000,0.508974,0.479980,-0.537537,0.470764,0.972287,-0.026370,-0.030765,-35.329281,45.730785,31.717310
1732158418.221072,1732158418.224916,93.000000,0.000000,4325.897461,4232.948730,4314.615234,4298.974121,4258.974121,4281.153809,4335.384766,4405.128418,4302.692383,4290.000000,4505.512695,4532.051270,4380.897461,4467.563965,1576.000000,1.000000,20.000000,,,,0.000000,2.000000,2.000000,0.000000,4.000000,2.000000,2.000000,0.000000,0.000000,4.000000,4.000000,4.000000,4.000000,4.000000,4.000000,0.000000,,,,,,,,,,,,,,,,,,,,,,,,,,,,
1732158418.228880,1732158418.232524,94.000000,0.000000,4323.717773,4232.307617,4314.871582,4298.846191,4262.436035,4276.282227,4335.000000,4404.615234,4295.641113,4282.436035,4503.205078,4525.000000,4379.358887,4459.871582,1566.000000,1.000000,20.000000,,,,0.000000,2.000000,2.000000,0.000000,4.000000,2.000000,2.000000,0.000000,0.000000,4.000000,4.000000,4.000000,4.000000,4.000000,4.000000,0.000000,,,,,,,,,,,,,,,,,,,,,,,,,,,,
1732158418.236689,1732158418.240333,95.000000,0.000000,4324.102539,4233.717773,4314.487305,4297.692383,4272.563965,4275.512695,4338.333496,4404.871582,4297.179688,4278.589844,4495.000000,4521.922852,4380.641113,4461.538574,1558.000000,1.000000,20.000000,,,,0.000000,2.000000,2.000000,0.000000,4.000000,2.000000,2.000000,0.000000,0.000000,4.000000,4.000000,4.000000,4.000000,4.000000,4.000000,0.000000,,,,,,,,,,,,,,,,,,,,,,,,,,,,
1732158418.244497,1732158418.248241,96.000000,0.000000,4327.179688,4240.128418,4315.128418,4302.692383,4276.794922,4281.410156,4338.974121,4405.769043,4302.820313,4289.615234,4497.692383,4524.487305,4380.512695,4463.461426,1700.000000,1.000000,20.000000,,,,0.000000,2.000000,2.000000,0.000000,4.000000,2.000000,2.000000,0.000000,0.000000,4.000000,4.000000,4.000000,4.000000,4.000000,4.000000,0.000000,,,,,,,,,,,,,,,,,24.000000,0.000000,0.509192,0.478516,-0.538208,0.471252,0.975705,-0.024905,-0.035161,-35.383385,45.830269,31.604353
1732158418.252305,1732158418.256049,97.000000,0.000000,4325.897461,4244.615234,4317.051270,4305.897461,4271.922852,4271.538574,4335.769043,4402.563965,4301.025879,4293.077148,4506.666504,4524.487305,4379.487305,4460.641113,1576.000000,1.000000,20.000000,,,,0.000000,2.000000,2.000000,0.000000,4.000000,2.000000,2.000000,0.000000,0.000000,4.000000,4.000000,4.000000,4.000000,4.000000,4.000000,0.000000,,,,,,,,,,,,,,,,,,,,,,,,,,,,
1732158418.260113,1732158418.263657,98.000000,0.000000,4324.615234,4245.897461,4317.948730,4304.102539,4268.077148,4261.410156,4334.871582,4400.897461,4298.461426,4292.179688,4507.563965,4522.948730,4381.538574,4460.384766,1566.000000,1.000000,20.000000,,,,0.000000,2.000000,2.000000,0.000000,4.000000,2.000000,2.000000,0.000000,0.000000,4.000000,4.000000,4.000000,4.000000,4.000000,4.000000,0.000000,,,,,,,,,,,,,,,,,,,,,,,,,,,,
1732158418.267922,1732158418.271466,99.000000,0.000000,4324.230957,4246.025879,4317.179688,4298.974121,4275.000000,4271.153809,4336.922852,4401.025879,4299.871582,4295.256348,4504.358887,4523.333496,4380.512695,4461.282227,1558.000000,1.000000,20.000000,,,,0.000000,2.000000,2.000000,0.000000,4.000000,2.000000,2.000000,0.000000,0.000000,4.000000,4.000000,4.000000,4.000000,4.000000,4.000000,0.000000,,,,,,,,,,,,,,,,,,,,,,,,,,,,
1732158418.275730,1732158418.279174,100.000000,0.000000,4319.743652,4246.025879,4316.922852,4297.051270,4281.025879,4280.769043,4336.153809,4400.128418,4301.410156,4295.769043,4504.487305,4523.077148,4373.589844,4460.769043,1700.000000,1.000000,20.000000,,,,0.000000,2.000000,2.000000,0.000000,4.000000,2.000000,2.000000,0.000000,0.000000,4.000000,4.000000,4.000000,4.000000,4.000000,4.000000,0.000000,,,,,,,,,,,,,,,,,25.000000,0.000000,0.509193,0.478394,-0.538208,0.471375,0.983030,-0.006348,-0.032719,-35.567207,45.700851,31.536194
1732158418.283538,1732158418.286982,101.000000,0.000000,4320.384766,4247.307617,4318.461426,4303.717773,4279.230957,4279.358887,4334.102539,4401.153809,4304.102539,4294.743652,4504.743652,4529.487305,4371.410156,4461.922852,1576.000000,1.000000,20.000000,,,,0.000000,2.000000,2.000000,0.000000,4.000000,2.000000,2.000000,0.000000,0.000000,4.000000,4.000000,4.000000,4.000000,4.000000,4.000000,0.000000,,,,,,,,,,,,,,,,,,,,,,,,,,,,
1732158418.291346,1732158418.294591,102.000000,0.000000,4325.641113,4248.077148,4317.051270,4306.025879,4280.384766,4274.358887,4334.743652,4402.820313,4304.615234,4293.589844,4503.205078,4538.589844,4377.051270,4463.205078,1566.000000,1.000000,20.000000,,,,0.000000,2.000000,2.000000,0.000000,4.000000,2.000000,2.000000,0.000000,0.000000,4.000000,4.000000,4.000000,4.000000,4.000000,4.000000,0.000000,,,,,,,,,,,,,,,,,,,,,,,,,,,,
1732158418.299155,1732158418.302399,103.000000,0.000000,4325.769043,4248.205078,4316.410156,4302.948730,4278.589844,4274.102539,4335.769043,4402.436035,4302.436035,4294.871582,4507.051270,4536.922852,4380.128418,4463.717773,1558.000000,1.000000,20.000000,,,,0.000000,2.000000,2.000000,0.000000,4.000000,2.000000,2.000000,0.000000,0.000000,4.000000,4.000000,4.000000,4.000000,4.000000,4.000000,0.000000,,,,,,,,,,,,,,,,,,,,,,,,,,,,
1732158418.306963,1732158418.310107,104.000000,0.000000,4325.256348,4249.487305,4318.974121,4305.512695,4276.025879,4275.512695,4335.512695,4400.512695,4307.692383,4296.538574,4511.410156,4536.282227,4376.410156,4462.563965,1700.000000,1.000000,20.000000,,,,0.000000,2.000000,2.000000,0.000000,4.000000,2.000000,2.000000,0.000000,0.000000,4.000000,4.000000,4.000000,4.000000,4.000000,4.000000,0.000000,,,,,,,,,,,,,,,,,26.000000,0.000000,0.509201,0.478394,-0.538147,0.471436,0.983030,-0.006348,-0.032719,-35.449436,45.551025,31.500984
1732158418.314771,1732158418.317915,105.000000,0.000000,4326.282227,4250.128418,4317.948730,4305.897461,4278.974121,4271.922852,4337.692383,4399.871582,4310.512695,4293.589844,4508.205078,4539.358887,4371.282227,4461.025879,1576.000000,1.000000,20.000000,,,,0.000000,2.000000,2.000000,0.000000,4.000000,2.000000,2.000000,0.000000,0.000000,4.000000,4.000000,4.000000,4.000000,4.000000,4.000000,0.000000,,,,,,,,,,,,,,,,,,,,,,,,,,,,
1732158418.322579,1732158418.325524,106.000000,0.000000,4324.358887,4252.948730,4316.922852,4304.102539,4282.179688,4270.256348,4339.358887,4400.897461,4305.128418,4290.769043,4502.820313,4532.948730,4371.025879,4458.717773,1566.000000,1.000000,20.000000,,,,0.000000,2.000000,2.000000,0.000000,4.000000,2.000000,2.000000,0.000000,0.000000,4.000000,4.000000,4.000000,4.000000,4.000000,4.000000,0.000000,,,,,,,,,,,,,,,,,,,,,,,,,,,,
1732158418.330388,1732158418.333332,107.000000,0.000000,4325.256348,4257.820313,4321.153809,4308.974121,4277.179688,4278.717773,4335.897461,4403.589844,4307.820313,4293.846191,4504.615234,4530.384766,4373.461426,4459.102539,1558.000000,1.000000,20.000000,,,,0.000000,2.000000,2.000000,0.000000,4.000000,2.000000,2.000000,0.000000,0.000000,4.000000,4.000000,4.000000,4.000000,4.000000,4.000000,0.000000,,,,,,,,,,,,,,,,,,,,,,,,,,,,
1732158418.338196,1732158418.341040,108.000000,0.000000,4325.512695,4255.256348,4320.641113,4309.871582,4275.769043,4283.333496,4333.461426,4404.871582,4312.948730,4295.641113,4506.538574,4531.666504,4373.461426,4459.615234,1700.000000,1.000000,20.000000,,,,0.000000,2.000000,2.000000,0.000000,4.000000,2.000000,2.000000,0.000000,0.000000,4.000000,4.000000,4.000000,4.000000,4.000000,4.000000,0.000000,,,,,,,,,,,,,,,,,27.000000,0.000000,0.508848,0.478210,-0.538269,0.471863,0.970333,-0.022952,-0.031254,-35.277378,45.481331,31.620796
1732158418.346004,1732158418.348848,109.000000,0.000000,4319.871582,4250.512695,4314.487305,4301.538574,4290.384766,4274.358887,4335.512695,4403.974121,4310.512695,4295.769043,4503.461426,4528.333496,4371.282227,4459.487305,1576.000000,1.000000,20.000000,,,,0.000000,2.000000,2.000000,0.000000,4.000000,2.000000,2.000000,0.000000,0.000000,4.000000,4.000000,4.000000,4.000000,4.000000,4.000000,0.000000,,,,,,,,,,,,,,,,,,,,,,,,,,,,
1732158418.353812,1732158418.356856,110.000000,0.000000,4318.077148,4251.282227,4314.487305,4296.538574,4289.230957,4270.897461,4337.179688,4402.179688,4313.077148,4298.333496,4503.333496,4527.692383,4370.384766,4459.615234,1566.000000,1.000000,20.000000,,,,0.000000,2.000000,2.000000,0.000000,4.000000,2.000000,2.000000,0.000000,0.000000,4.000000,4.000000,4.000000,4.000000,4.000000,4.000000,0.000000,,,,,,,,,,,,,,,,,,,,,,,,,,,,
1732158418.361621,1732158418.364665,111.000000,0.000000,4315.769043,4251.153809,4316.922852,4296.794922,4266.025879,4276.666504,4335.641113,4400.641113,4311.410156,4298.205078,4505.000000,4526.538574,4372.307617,4452.179688,1558.000000,1.000000,20.000000,,,,0.000000,2.000000,2.000000,0.000000,4.000000,2.000000,2.000000,0.000000,0.000000,4.000000,4.000000,4.000000,4.000000,4.000000,4.000000,0.000000,,,,,,,,,,,,,,,,,,,,,,,,,,,,
1732158418.369429,1732158418.372373,112.000000,0.000000,4311.025879,4253.974121,4315.897461,4294.743652,4255.128418,4280.641113,4334.358887,4404.102539,4297.179688,4293.974121,4504.743652,4523.589844,4371.410156,4446.153809,1700.000000,1.000000,20.000000,,,,0.000000,2.000000,2.000000,0.000000,4.000000,2.000000,2.000000,0.000000,0.000000,4.000000,4.000000,4.000000,4.000000,4.000000,4.000000,0.000000,,,,,,,,,,,,,,,,,28.000000,0.000000,0.508835,0.478027,-0.538391,0.471924,0.985472,-0.025882,-0.027835,-35.304676,45.291542,31.517845
1732158418.377237,1732158418.380181,113.000000,0.000000,4315.128418,4262.563965,4317.051270,4298.333496,4264.871582,4275.897461,4335.000000,4407.692383,4300.384766,4294.230957,4505.128418,4533.077148,4371.666504,4454.487305,1576.000000,1.000000,20.000000,,,,0.000000,2.000000,2.000000,0.000000,4.000000,2.000000,2.000000,0.000000,0.000000,4.000000,4.000000,4.000000,4.000000,4.000000,4.000000,0.000000,,,,,,,,,,,,,,,,,,,,,,,,,,,,
1732158418.385045,1732158418.387790,114.000000,0.000000,4320.512695,4265.256348,4319.230957,4306.922852,4280.384766,4266.410156,4335.641113,4404.743652,4311.153809,4296.922852,4507.820313,4539.615234,4377.436035,4461.666504,1566.000000,1.000000,20.000000,,,,0.000000,2.000000,2.000000,0.000000,4.000000,2.000000,2.000000,0.000000,0.000000,4.000000,4.000000,4.000000,4.000000,4.000000,4.000000,0.000000,,,,,,,,,,,,,,,,,,,,,,,,,,,,
1732158418.392854,1732158418.395598,115.000000,0.000000,4316.153809,4263.461426,4319.358887,4308.077148,4281.666504,4270.641113,4334.743652,4400.256348,4299.871582,4293.333496,4507.051270,4525.769043,4377.692383,4455.384766,1558.000000,1.000000,20.000000,,,,0.000000,2.000000,2.000000,0.000000,4.000000,2.000000,2.000000,0.000000,0.000000,4.000000,4.000000,4.000000,4.000000,4.000000,4.000000,0.000000,,,,,,,,,,,,,,,,,,,,,,,,,,,,
1732158418.400662,1732158418.403306,116.000000,0.000000,4311.282227,4265.512695,4319.487305,4306.666504,4269.358887,4280.512695,4333.461426,4400.000000,4291.666504,4288.974121,4495.384766,4517.820313,4367.563965,4447.051270,1700.000000,1.000000,20.000000,,,,0.000000,2.000000,2.000000,0.000000,4.000000,2.000000,2.000000,0.000000,0.000000,4.000000,4.000000,4.000000,4.000000,4.000000,4.000000,0.000000,,,,,,,,,,,,,,,,,29.000000,0.000000,0.508843,0.478027,-0.538330,0.471985,0.985472,-0.017580,-0.041021,-35.215122,44.951149,31.387789
1732158418.408470,1732158418.411114,117.000000,0.000000,4311.410156,4267.179688,4316.922852,4308.589844,4267.179688,4282.436035,4333.846191,4404.358887,4303.717773,4291.666504,4488.205078,4523.077148,4363.077148,4444.871582,1576.000000,1.000000,20.000000,,,,0.000000,2.000000,2.000000,0.000000,4.000000,2.000000,2.000000,0.000000,0.000000,4.000000,4.000000,4.000000,4.000000,4.000000,4.000000,0.000000,,,,,,,,,,,,,,,,,,,,,,,,,,,,
1732158418.416278,1732158418.418723,118.000000,0.000000,4311.153809,4265.769043,4315.128418,4305.000000,4278.717773,4278.333496,4334.871582,4404.102539,4310.512695,4295.512695,4499.871582,4523.974121,4370.512695,4447.820313,1566.000000,1.000000,20.000000,,,,0.000000,2.000000,2.000000,0.000000,4.000000,2.000000,2.000000,0.000000,0.000000,4.000000,4.000000,4.000000,4.000000,4.000000,4.000000,0.000000,,,,,,,,,,,,,,,,,,,,,,,,,,,,
1732158418.424087,1732158418.426531,119.000000,0.000000,4311.666504,4267.307617,4318.717773,4302.307617,4283.077148,4278.077148,4335.641113,4399.615234,4305.128418,4296.922852,4509.230957,4523.077148,4375.128418,4453.717773,1558.000000,1.000000,20.000000,,,,0.000000,2.000000,2.000000,0.000000,4.000000,2.000000,2.000000,0.000000,0.000000,4.000000,4.000000,4.000000,4.000000,4.000000,4.000000,0.000000,,,,,,,,,,,,,,,,,,,,,,,,,,,,
1732158418.431895,1732158418.434439,120.000000,0.000000,4316.025879,4275.641113,4322.179688,4310.641113,4278.461426,4280.000000,4334.358887,4403.717773,4307.179688,4301.538574,4505.641113,4523.974121,4372.948730,4456.794922,1700.000000,1.000000,20.000000,,,,0.000000,2.000000,2.000000,0.000000,4.000000,2.000000,2.000000,0.000000,0.000000,4.000000,4.000000,4.000000,4.000000,4.000000,4.000000,0.000000,,,,,,,,,,,,,,,,,30.000000,0.000000,0.508526,0.478149,-0.538574,0.471924,0.973263,-0.030277,-0.032719,-35.395916,44.675430,31.345776
1732158418.439703,1732158418.442247,121.000000,0.000000,4318.461426,4279.743652,4321.025879,4314.102539,4276.794922,4279.615234,4334.102539,4409.743652,4308.461426,4304.743652,4503.077148,4526.282227,4371.025879,4455.641113,1576.000000,1.000000,20.000000,,,,0.000000,2.000000,2.000000,0.000000,4.000000,2.000000,2.000000,0.000000,0.000000,4.000000,4.000000,4.000000,4.000000,4.000000,4.000000,0.000000,,,,,,,,,,,,,,,,,,,,,,,,,,,,
1732158418.447511,1732158418.450255,122.000000,0.000000,4312.820313,4272.436035,4319.871582,4304.102539,4288.205078,4279.230957,4336.282227,4405.641113,4300.897461,4297.051270,4499.102539,4523.205078,4365.000000,4448.846191,1566.000000,1.000000,20.000000,,,,0.000000,2.000000,2.000000,0.000000,4.000000,2.000000,2.000000,0.000000,0.000000,4.000000,4.000000,4.000000,4.000000,4.000000,4.000000,0.000000,,,,,,,,,,,,,,,,,,,,,,,,,,,,
1732158418.455320,1732158418.458063,123.000000,0.000000,4307.692383,4263.461426,4318.974121,4297.051270,4297.563965,4278.974121,4335.256348,4401.025879,4299.615234,4294.487305,4487.563965,4512.307617,4358.717773,4441.922852,1558.000000,1.000000,20.000000,,,,0.000000,2.000000,2.000000,0.000000,4.000000,2.000000,2.000000,0.000000,0.000000,4.000000,4.000000,4.000000,4.000000,4.000000,4.000000,0.000000,,,,,,,,,,,,,,,,,,,,,,,,,,,,
1732158418.463128,1732158418.465972,124.000000,0.000000,4309.615234,4264.102539,4316.922852,4299.102539,4281.410156,4280.769043,4333.077148,4404.871582,4308.846191,4302.692383,4485.641113,4508.205078,4358.333496,4440.512695,1700.000000,1.000000,20.000000,,,,0.000000,2.000000,2.000000,0.000000,4.000000,2.000000,2.000000,0.000000,0.000000,4.000000,4.000000,4.000000,4.000000,4.000000,4.000000,0.000000,,,,,,,,,,,,,,,,,31.000000,0.000000,0.508209,0.478271,-0.538818,0.471863,0.982542,-0.037114,-0.037602,-35.369022,44.665432,31.305079
1732158418.470936,1732158418.473780,125.000000,0.000000,4310.256348,4270.384766,4316.410156,4308.077148,4269.358887,4282.692383,4334.871582,4405.769043,4314.743652,4306.153809,4492.948730,4513.205078,4358.461426,4440.000000,1576.000000,1.000000,20.000000,,,,0.000000,2.000000,2.000000,0.000000,4.000000,2.000000,2.000000,0.000000,0.000000,4.000000,4.000000,4.000000,4.000000,4.000000,4.000000,0.000000,,,,,,,,,,,,,,,,,,,,,,,,,,,,
1732158418.478744,1732158418.481788,126.000000,0.000000,4308.077148,4273.717773,4318.205078,4312.307617,4281.025879,4282.051270,4336.025879,4401.025879,4309.102539,4302.051270,4493.205078,4517.179688,4359.102539,4441.282227,1566.000000,1.000000,20.000000,,,,0.000000,2.000000,2.000000,0.000000,4.000000,2.000000,2.000000,0.000000,0.000000,4.000000,4.000000,4.000000,4.000000,4.000000,4.000000,0.000000,,,,,,,,,,,,,,,,,,,,,,,,,,,,
1732158418.486553,1732158418.489596,127.000000,0.000000,4308.589844,4273.717773,4316.922852,4303.717773,4282.179688,4279.743652,4334.487305,4400.641113,4299.743652,4299.358887,4492.051270,4519.230957,4365.256348,4442.436035,20.000000,1.000000,20.000000,,,,0.000000,2.000000,2.000000,0.000000,4.000000,2.000000,2.000000,0.000000,0.000000,4.000000,4.000000,4.000000,4.000000,4.000000,4.000000,0.000000,,,,,,,,,,,,,,,,,,,,,,,,,,,,
1732158418.494361,1732158418.497304,0.000000,0.000000,4308.846191,4271.282227,4314.487305,4298.717773,4275.512695,4279.871582,4334.487305,4402.692383,4299.615234,4298.974121,4494.487305,4521.794922,4366.282227,4438.846191,0.000000,1.000000,20.000000,,,,0.000000,2.000000,2.000000,0.000000,4.000000,2.000000,2.000000,0.000000,0.000000,4.000000,4.000000,4.000000,4.000000,4.000000,4.000000,0.000000,,,,,,,,,,,,,,,,,0.000000,0.000000,0.508137,0.478271,-0.538940,0.471802,0.974240,-0.031742,-0.046881,-35.377243,44.707333,31.318779
1732158418.502169,1732158418.505112,1.000000,0.000000,4307.948730,4270.641113,4315.769043,4304.487305,4281.153809,4282.563965,4336.025879,4405.000000,4304.487305,4298.461426,4491.666504,4522.563965,4359.743652,4434.615234,1603.000000,1.000000,20.000000,,,,0.000000,2.000000,2.000000,0.000000,4.000000,2.000000,2.000000,0.000000,0.000000,4.000000,4.000000,4.000000,4.000000,4.000000,4.000000,0.000000,,,,,,,,,,,,,,,,,,,,,,,,,,,,
1732158418.509977,1732158418.513120,2.000000,0.000000,4307.692383,4275.256348,4316.025879,4310.512695,4282.948730,4281.666504,4335.641113,4404.615234,4300.641113,4297.563965,4488.461426,4521.025879,4359.615234,4434.487305,1359.000000,1.000000,20.000000,,,,0.000000,2.000000,2.000000,0.000000,4.000000,2.000000,2.000000,0.000000,0.000000,4.000000,4.000000,4.000000,4.000000,4.000000,4.000000,0.000000,,,,,,,,,,,,,,,,,,,,,,,,,,,,
1732158418.517786,1732158418.520929,3.000000,0.000000,4308.589844,4280.641113,4315.897461,4309.358887,4279.230957,4278.589844,4334.871582,4402.692383,4297.948730,4296.538574,4498.333496,4519.871582,4365.128418,4438.974121,1427.000000,1.000000,20.000000,,,,0.000000,2.000000,2.000000,0.000000,4.000000,2.000000,2.000000,0.000000,0.000000,4.000000,4.000000,4.000000,4.000000,4.000000,4.000000,0.000000,,,,,,,,,,,,,,,,,,,,,,,,,,,,
1732158418.525594,1732158418.528837,4.000000,0.000000,4310.128418,4279.615234,4317.820313,4308.077148,4282.820313,4278.333496,4334.358887,4404.102539,4306.282227,4297.948730,4507.307617,4521.025879,4364.871582,4441.410156,1434.000000,1.000000,20.000000,,,,0.000000,2.000000,2.000000,0.000000,4.000000,2.000000,2.000000,0.000000,0.000000,4.000000,4.000000,4.000000,4.000000,4.000000,4.000000,0.000000,,,,,,,,,,,,,,,,,1.000000,0.000000,0.508129,0.478210,-0.539001,0.471802,0.976682,-0.029300,-0.032719,-35.525566,44.656273,31.489878
1732158418.533402,1732158418.536645,5.000000,0.000000,4309.487305,4277.692383,4320.256348,4309.487305,4281.538574,4279.358887,4334.871582,4405.256348,4303.205078,4297.436035,4497.948730,4521.282227,4361.025879,4437.179688,1204.000000,1.000000,20.000000,,,,0.000000,2.000000,2.000000,0.000000,4.000000,2.000000,2.000000,0.000000,0.000000,4.000000,4.000000,4.000000,4.000000,4.000000,4.000000,0.000000,,,,,,,,,,,,,,,,,,,,,,,,,,,,
1732158418.541211,1732158418.544653,6.000000,0.000000,4304.358887,4282.051270,4318.461426,4313.461426,4281.025879,4281.282227,4335.128418,4402.436035,4294.358887,4293.846191,4487.563965,4519.487305,4359.230957,4433.846191,0.000000,1.000000,20.000000,,,,0.000000,2.000000,2.000000,0.000000,4.000000,2.000000,2.000000,0.000000,0.000000,4.000000,4.000000,4.000000,4.000000,4.000000,4.000000,0.000000,,,,,,,,,,,,,,,,,,,,,,,,,,,,
1732158418.549019,1732158418.552461,7.000000,0.000000,4296.538574,4280.769043,4317.179688,4310.000000,4295.769043,4282.563965,4334.230957,4401.538574,4302.692383,4295.128418,4491.922852,4516.794922,4358.205078,4435.512695,0.000000,1.000000,20.000000,,,,0.000000,2.000000,2.000000,0.000000,4.000000,2.000000,2.000000,0.000000,0.000000,4.000000,4.000000,4.000000,4.000000,4.000000,4.000000,0.000000,,,,,,,,,,,,,,,,,,,,,,,,,,,,
1732158418.556827,1732158418.560369,8.000000,0.000000,4296.282227,4276.025879,4317.820313,4298.846191,4297.051270,4281.153809,4335.128418,4405.128418,4312.692383,4300.384766,4496.153809,4511.025879,4359.358887,4434.487305,1544.000000,1.000000,20.000000,,,,0.000000,2.000000,2.000000,0.000000,4.000000,2.000000,2.000000,0.000000,0.000000,4.000000,4.000000,4.000000,4.000000,4.000000,4.000000,0.000000,,,,,,,,,,,,,,,,,2.000000,0.000000,0.508270,0.477966,-0.539246,0.471619,0.978635,-0.030765,-0.034672,-35.560711,44.876583,31.495134
1732158418.564635,1732158418.568178,9.000000,0.000000,4301.794922,4276.922852,4316.922852,4295.897461,4276.922852,4281.538574,4336.282227,4403.717773,4311.922852,4304.615234,4493.589844,4513.333496,4365.769043,4437.692383,1695.000000,1.000000,20.000000,,,,0.000000,2.000000,2.000000,0.000000,4.000000,2.000000,2.000000,0.000000,0.000000,4.000000,4.000000,4.000000,4.000000,4.000000,4.000000,0.000000,,,,,,,,,,,,,,,,,,,,,,,,,,,,
1732158418.572443,1732158418.576186,10.000000,0.000000,4301.666504,4278.974121,4314.743652,4298.077148,4273.461426,4283.717773,4335.769043,4400.769043,4311.153809,4305.128418,4494.102539,4520.384766,4366.666504,4441.922852,1566.000000,1.000000,20.000000,,,,0.000000,2.000000,2.000000,0.000000,4.000000,2.000000,2.000000,0.000000,0.000000,4.000000,4.000000,4.000000,4.000000,4.000000,4.000000,0.000000,,,,,,,,,,,,,,,,,,,,,,,,,,,,
1732158418.580252,1732158418.583994,11.000000,0.000000,4295.897461,4278.077148,4316.410156,4297.692383,4284.615234,4282.563965,4335.641113,4404.615234,4311.410156,4300.256348,4495.512695,4516.538574,4358.589844,4436.538574,1561.000000,1.000000,20.000000,,,,0.000000,2.000000,2.000000,0.000000,4.000000,2.000000,2.000000,0.000000,0.000000,4.000000,4.000000,4.000000,4.000000,4.000000,4.000000,0.000000,,,,,,,,,,,,,,,,,,,,,,,,,,,,
1732158418.588060,1732158418.591902,12.000000,0.000000,4296.538574,4277.179688,4317.692383,4297.307617,4276.538574,4281.410156,4337.563965,4407.948730,4309.358887,4295.256348,4494.102539,4514.358887,4353.589844,4435.641113,1705.000000,1.000000,20.000000,,,,0.000000,2.000000,2.000000,0.000000,4.000000,2.000000,2.000000,0.000000,0.000000,4.000000,4.000000,4.000000,4.000000,4.000000,4.000000,0.000000,,,,,,,,,,,,,,,,,3.000000,0.000000,0.508149,0.477905,-0.539307,0.471741,0.984984,-0.030277,-0.027835,-35.672508,44.845032,31.492725
1732158418.595868,1732158418.599710,13.000000,0.000000,4305.256348,4278.077148,4316.538574,4297.436035,4277.051270,4281.922852,4338.077148,4407.179688,4310.641113,4300.384766,4493.974121,4523.589844,4357.820313,4443.461426,1581.000000,1.000000,20.000000,,,,0.000000,2.000000,2.000000,0.000000,4.000000,2.000000,2.000000,0.000000,0.000000,4.000000,4.000000,4.000000,4.000000,4.000000,4.000000,0.000000,,,,,,,,,,,,,,,,,,,,,,,,,,,,
1732158418.603676,1732158418.607718,14.000000,0.000000,4311.153809,4279.615234,4316.282227,4297.692383,4297.051270,4278.974121,4336.025879,4403.077148,4311.794922,4304.871582,4495.128418,4526.282227,4360.641113,4448.077148,1566.000000,1.000000,20.000000,,,,0.000000,2.000000,2.000000,0.000000,4.000000,2.000000,2.000000,0.000000,0.000000,4.000000,4.000000,4.000000,4.000000,4.000000,4.000000,0.000000,1.000000,0.000000,2.000000,2.000000,0.000000,4.000000,2.000000,2.000000,0.000000,0.000000,4.000000,3.000000,4.000000,4.000000,4.000000,4.000000,,,,,,,,,,,,
1732158418.611485,1732158418.615526,15.000000,0.000000,4309.743652,4281.538574,4317.051270,4303.205078,4288.974121,4278.589844,4335.769043,4399.743652,4309.615234,4300.000000,4492.179688,4521.922852,4360.000000,4447.051270,1561.000000,1.000000,20.000000,,,,0.000000,2.000000,2.000000,0.000000,4.000000,2.000000,2.000000,0.000000,0.000000,4.000000,4.000000,4.000000,4.000000,4.000000,4.000000,0.000000,,,,,,,,,,,,,,,,,,,,,,,,,,,,
1732158418.619293,1732158418.623434,16.000000,0.000000,4304.487305,4280.641113,4316.922852,4306.794922,4269.358887,4283.717773,4336.282227,4402.307617,4309.871582,4298.717773,4491.922852,4522.436035,4359.102539,4444.230957,0.000000,1.000000,20.000000,,,,0.000000,2.000000,2.000000,0.000000,4.000000,2.000000,2.000000,0.000000,0.000000,4.000000,4.000000,4.000000,4.000000,4.000000,4.000000,0.000000,,,,,,,,,,,,,,,,,4.000000,0.000000,0.507986,0.478027,-0.539246,0.471863,0.982542,-0.019045,-0.034184,-35.481400,45.032810,31.304108
1732158418.627101,1732158418.631243,17.000000,0.000000,4301.538574,4279.358887,4315.897461,4302.692383,4273.974121,4282.692383,4335.641113,4406.153809,4310.128418,4307.563965,4496.282227,4521.794922,4360.641113,4443.333496,0.000000,1.000000,20.000000,,,,0.000000,2.000000,2.000000,0.000000,4.000000,2.000000,2.000000,0.000000,0.000000,4.000000,4.000000,4.000000,4.000000,4.000000,4.000000,0.000000,,,,,,,,,,,,,,,,,,,,,,,,,,,,
1732158418.634910,1732158418.638851,18.000000,0.000000,4301.153809,4280.769043,4316.410156,4300.384766,4281.922852,4280.641113,4334.615234,4403.333496,4308.974121,4310.128418,4496.794922,4517.820313,4361.153809,4442.820313,0.000000,1.000000,20.000000,,,,0.000000,2.000000,2.000000,0.000000,4.000000,2.000000,2.000000,0.000000,0.000000,4.000000,4.000000,4.000000,4.000000,4.000000,4.000000,0.000000,,,,,,,,,,,,,,,,,,,,,,,,,,,,
1732158418.642718,1732158418.646659,19.000000,0.000000,4298.974121,4280.769043,4316.025879,4298.205078,4280.512695,4284.743652,4334.871582,4400.769043,4310.641113,4302.563965,4492.563965,4516.794922,4355.128418,4436.025879,0.000000,1.000000,20.000000,,,,0.000000,2.000000,2.000000,0.000000,4.000000,2.000000,2.000000,0.000000,0.000000,4.000000,4.000000,4.000000,4.000000,4.000000,4.000000,0.000000,,,,,,,,,,,,,,,,,,,,,,,,,,,,
1732158418.650526,1732158418.654367,20.000000,0.000000,4296.794922,4278.205078,4315.000000,4294.871582,4281.410156,4283.589844,4335.128418,4401.794922,4305.384766,4293.974121,4490.641113,4516.153809,4348.846191,4429.487305,0.000000,1.000000,20.000000,,,,0.000000,2.000000,2.000000,0.000000,4.000000,2.000000,2.000000,0.000000,0.000000,4.000000,4.000000,4.000000,4.000000,4.000000,4.000000,0.000000,,,,,,,,,,,,,,,,,5.000000,0.000000,0.508118,0.477783,-0.539551,0.471619,0.966427,-0.027835,-0.051764,-35.608265,44.738243,31.546328
1732158418.658334,1732158418.662176,21.000000,0.000000,4296.794922,4278.205078,4316.794922,4297.948730,4278.974121,4282.307617,4334.743652,4401.666504,4295.256348,4286.025879,4489.487305,4514.230957,4347.563965,4432.179688,0.000000,1.000000,20.000000,,,,0.000000,2.000000,2.000000,0.000000,4.000000,2.000000,2.000000,0.000000,0.000000,4.000000,4.000000,4.000000,4.000000,4.000000,4.000000,0.000000,,,,,,,,,,,,,,,,,,,,,,,,,,,,
1732158418.666142,1732158418.670084,22.000000,0.000000,4296.794922,4280.769043,4318.077148,4300.897461,4286.410156,4288.205078,4335.000000,4403.077148,4295.128418,4279.743652,4486.922852,4508.974121,4344.230957,4429.743652,0.000000,1.000000,20.000000,,,,0.000000,2.000000,2.000000,0.000000,4.000000,2.000000,2.000000,0.000000,0.000000,4.000000,4.000000,4.000000,4.000000,4.000000,4.000000,0.000000,,,,,,,,,,,,,,,,,,,,,,,,,,,,
1732158418.673951,1732158418.677892,23.000000,0.000000,4294.871582,4278.589844,4316.922852,4297.692383,4304.102539,4286.538574,4335.000000,4404.871582,4297.307617,4282.692383,4487.179688,4506.025879,4340.128418,4420.512695,0.000000,1.000000,20.000000,,,,0.000000,2.000000,2.000000,0.000000,4.000000,2.000000,2.000000,0.000000,0.000000,4.000000,4.000000,4.000000,4.000000,4.000000,4.000000,0.000000,,,,,,,,,,,,,,,,,,,,,,,,,,,,
1732158418.681759,1732158418.685800,24.000000,0.000000,4295.128418,4280.000000,4317.436035,4300.384766,4291.538574,4279.615234,4334.871582,4407.051270,4298.846191,4292.820313,4489.230957,4514.615234,4346.282227,4423.589844,0.000000,1.000000,20.000000,,,,0.000000,2.000000,2.000000,0.000000,4.000000,2.000000,2.000000,0.000000,0.000000,4.000000,4.000000,4.000000,4.000000,4.000000,4.000000,0.000000,,,,,,,,,,,,,,,,,6.000000,0.000000,0.508341,0.477356,-0.540039,0.471252,0.978147,-0.023929,-0.044927,-35.711029,44.749641,31.575859
1732158418.689567,1732158418.693608,25.000000,0.000000,4297.948730,4290.512695,4318.589844,4309.871582,4271.410156,4284.102539,4335.512695,4407.307617,4306.153809,4298.589844,4490.256348,4520.769043,4355.512695,4431.666504,0.000000,1.000000,20.000000,,,,0.000000,2.000000,2.000000,0.000000,4.000000,2.000000,2.000000,0.000000,0.000000,4.000000,4.000000,4.000000,4.000000,4.000000,4.000000,0.000000,,,,,,,,,,,,,,,,,,,,,,,,,,,,
1732158418.697375,1732158418.701217,26.000000,0.000000,4299.230957,4291.153809,4317.436035,4310.384766,4276.025879,4287.051270,4336.410156,4403.333496,4306.922852,4299.230957,4491.538574,4516.922852,4354.358887,4428.974121,0.000000,1.000000,20.000000,,,,0.000000,2.000000,2.000000,0.000000,4.000000,2.000000,2.000000,0.000000,0.000000,4.000000,4.000000,4.000000,4.000000,4.000000,4.000000,0.000000,,,,,,,,,,,,,,,,,,,,,,,,,,,,
1732158418.705184,1732158418.709025,27.000000,0.000000,4298.077148,4281.410156,4316.922852,4304.102539,4280.512695,4279.358887,4336.794922,4402.692383,4302.563965,4298.333496,4490.512695,4516.794922,4347.563965,4423.589844,0.000000,1.000000,20.000000,,,,0.000000,2.000000,2.000000,0.000000,4.000000,2.000000,2.000000,0.000000,0.000000,4.000000,4.000000,4.000000,4.000000,4.000000,4.000000,0.000000,,,,,,,,,,,,,,,,,,,,,,,,,,,,
1732158418.712992,1732158418.716733,28.000000,0.000000,4298.077148,4280.256348,4317.179688,4306.282227,4279.871582,4278.589844,4336.153809,4405.641113,4307.948730,4297.820313,4489.871582,4523.589844,4347.436035,4428.205078,0.000000,1.000000,20.000000,,,,0.000000,2.000000,2.000000,0.000000,4.000000,2.000000,2.000000,0.000000,0.000000,4.000000,4.000000,4.000000,4.000000,4.000000,4.000000,0.000000,,,,,,,,,,,,,,,,,7.000000,0.000000,0.508203,0.477356,-0.540222,0.471191,0.973752,-0.018069,-0.037114,-35.767601,44.757210,31.518112
1732158418.720800,1732158418.724541,29.000000,0.000000,4299.487305,4285.641113,4316.538574,4310.384766,4282.307617,4283.333496,4335.256348,4405.256348,4313.077148,4304.102539,4499.230957,4526.282227,4356.794922,4435.256348,0.000000,1.000000,20.000000,,,,0.000000,2.000000,2.000000,0.000000,4.000000,2.000000,2.000000,0.000000,0.000000,4.000000,4.000000,4.000000,4.000000,4.000000,4.000000,0.000000,,,,,,,,,,,,,,,,,,,,,,,,,,,,
1732158418.728608,1732158418.732150,30.000000,0.000000,4297.563965,4282.179688,4318.205078,4305.128418,4279.615234,4282.692383,4334.871582,4404.102539,4309.871582,4312.051270,4509.230957,4525.000000,4359.871582,4434.358887,0.000000,1.000000,20.000000,,,,0.000000,2.000000,2.000000,0.000000,4.000000,2.000000,2.000000,0.000000,0.000000,4.000000,4.000000,4.000000,4.000000,4.000000,4.000000,0.000000,,,,,,,,,,,,,,,,,,,,,,,,,,,,
1732158418.736417,1732158418.739958,31.000000,0.000000,4297.436035,4281.025879,4318.205078,4302.307617,4290.128418,4280.128418,4334.871582,4405.512695,4308.846191,4310.897461,4503.974121,4524.230957,4351.666504,4429.615234,0.000000,1.000000,20.000000,,,,0.000000,2.000000,2.000000,0.000000,4.000000,2.000000,2.000000,0.000000,0.000000,4.000000,4.000000,4.000000,4.000000,4.000000,4.000000,0.000000,,,,,,,,,,,,,,,,,,,,,,,,,,,,
1732158418.744225,1732158418.747666,32.000000,0.000000,4300.128418,4289.615234,4316.922852,4309.615234,4304.102539,4280.641113,4335.384766,4404.102539,4312.307617,4302.820313,4494.615234,4519.487305,4348.077148,4428.205078,0.000000,1.000000,20.000000,,,,0.000000,2.000000,2.000000,0.000000,4.000000,2.000000,2.000000,0.000000,0.000000,4.000000,4.000000,4.000000,4.000000,4.000000,4.000000,0.000000,,,,,,,,,,,,,,,,,8.000000,0.000000,0.508137,0.477417,-0.540283,0.471130,0.969845,-0.029789,-0.040044,-35.431755,44.771675,31.546337
1732158418.752033,1732158418.755475,33.000000,0.000000,4301.410156,4294.102539,4320.512695,4313.717773,4290.128418,4284.615234,4336.025879,4403.589844,4309.358887,4298.077148,4493.333496,4520.512695,4352.948730,4431.025879,0.000000,1.000000,20.000000,,,,0.000000,2.000000,2.000000,0.000000,4.000000,2.000000,2.000000,0.000000,0.000000,4.000000,4.000000,4.000000,4.000000,4.000000,4.000000,0.000000,,,,,,,,,,,,,,,,,,,,,,,,,,,,
1732158418.759842,1732158418.763483,34.000000,0.000000,4300.641113,4294.230957,4323.589844,4312.307617,4273.333496,4285.256348,4336.538574,4403.717773,4299.743652,4294.487305,4491.794922,4525.897461,4349.358887,4430.512695,0.000000,1.000000,20.000000,,,,0.000000,2.000000,2.000000,0.000000,4.000000,2.000000,2.000000,0.000000,0.000000,4.000000,4.000000,4.000000,4.000000,4.000000,4.000000,0.000000,,,,,,,,,,,,,,,,,,,,,,,,,,,,
1732158418.767650,1732158418.771291,35.000000,0.000000,4299.102539,4295.641113,4320.897461,4312.563965,4280.897461,4287.436035,4336.538574,4403.205078,4295.384766,4291.410156,4488.333496,4518.333496,4342.948730,4426.794922,0.000000,1.000000,20.000000,,,,0.000000,2.000000,2.000000,0.000000,4.000000,2.000000,2.000000,0.000000,0.000000,4.000000,4.000000,4.000000,4.000000,4.000000,4.000000,0.000000,,,,,,,,,,,,,,,,,,,,,,,,,,,,
1732158418.775458,1732158418.779199,36.000000,0.000000,4296.666504,4294.358887,4317.563965,4311.794922,4291.794922,4292.307617,4336.794922,4404.230957,4306.025879,4296.410156,4490.256348,4509.102539,4346.794922,4426.666504,0.000000,1.000000,20.000000,,,,0.000000,2.000000,2.000000,0.000000,4.000000,2.000000,2.000000,0.000000,0.000000,4.000000,4.000000,4.000000,4.000000,4.000000,4.000000,0.000000,,,,,,,,,,,,,,,,,9.000000,0.000000,0.508196,0.477051,-0.540710,0.470947,0.976193,-0.030765,-0.034184,-35.508057,44.630054,31.652533
1732158418.783266,1732158418.787007,37.000000,0.000000,4296.025879,4290.897461,4317.820313,4310.641113,4292.692383,4289.358887,4336.538574,4405.000000,4313.205078,4302.563965,4495.128418,4516.282227,4352.436035,4427.179688,0.000000,1.000000,20.000000,,,,0.000000,2.000000,2.000000,0.000000,4.000000,2.000000,2.000000,0.000000,0.000000,4.000000,4.000000,4.000000,4.000000,4.000000,4.000000,0.000000,,,,,,,,,,,,,,,,,,,,,,,,,,,,
1732158418.791074,1732158418.795015,38.000000,0.000000,4298.333496,4290.256348,4317.179688,4311.538574,4293.589844,4283.461426,4335.769043,4403.974121,4303.717773,4300.000000,4492.563965,4522.179688,4352.307617,4424.230957,0.000000,1.000000,20.000000,,,,0.000000,2.000000,2.000000,0.000000,4.000000,2.000000,2.000000,0.000000,0.000000,4.000000,4.000000,4.000000,4.000000,4.000000,4.000000,0.000000,,,,,,,,,,,,,,,,,,,,,,,,,,,,
1732158418.798883,1732158418.802823,39.000000,0.000000,4293.333496,4290.384766,4314.743652,4312.563965,4290.000000,4286.025879,4335.641113,4403.846191,4295.897461,4294.743652,4485.128418,4509.358887,4348.205078,4417.051270,0.000000,1.000000,20.000000,,,,0.000000,2.000000,2.000000,0.000000,4.000000,2.000000,2.000000,0.000000,0.000000,4.000000,4.000000,4.000000,4.000000,4.000000,4.000000,0.000000,,,,,,,,,,,,,,,,,,,,,,,,,,,,
1732158418.806691,1732158418.810532,40.000000,0.000000,4283.205078,4284.871582,4314.743652,4307.948730,4287.948730,4293.717773,4336.025879,4405.256348,4301.410156,4295.000000,4486.538574,4500.256348,4346.794922,4415.128418,0.000000,1.000000,20.000000,,,,0.000000,2.000000,2.000000,0.000000,4.000000,2.000000,2.000000,0.000000,0.000000,4.000000,4.000000,4.000000,4.000000,4.000000,4.000000,0.000000,,,,,,,,,,,,,,,,,10.000000,0.000000,0.508147,0.477112,-0.540649,0.471008,0.990844,-0.025394,-0.041509,-35.653191,44.548679,31.571886
1732158418.814499,1732158418.818340,41.000000,0.000000,4283.974121,4282.436035,4317.563965,4299.102539,4301.282227,4289.358887,4335.769043,4404.871582,4308.461426,4296.666504,4492.307617,4511.922852,4348.846191,4422.051270,0.000000,1.000000,20.000000,,,,0.000000,2.000000,2.000000,0.000000,4.000000,2.000000,2.000000,0.000000,0.000000,4.000000,4.000000,4.000000,4.000000,4.000000,4.000000,0.000000,,,,,,,,,,,,,,,,,,,,,,,,,,,,
1732158418.822307,1732158418.825948,42.000000,0.000000,4292.948730,4287.307617,4319.358887,4300.897461,4303.333496,4285.641113,4335.128418,4404.230957,4304.615234,4298.077148,4491.538574,4517.692383,4348.717773,4426.025879,0.000000,1.000000,20.000000,,,,0.000000,2.000000,2.000000,0.000000,4.000000,2.000000,2.000000,0.000000,0.000000,4.000000,4.000000,4.000000,4.000000,4.000000,4.000000,0.000000,,,,,,,,,,,,,,,,,,,,,,,,,,,,
1732158418.830116,1732158418.833756,43.000000,0.000000,4292.820313,4288.205078,4317.179688,4309.743652,4285.641113,4288.717773,4335.512695,4403.974121,4295.769043,4296.794922,4487.436035,4512.563965,4343.333496,4423.461426,0.000000,1.000000,20.000000,,,,0.000000,2.000000,2.000000,0.000000,4.000000,2.000000,2.000000,0.000000,0.000000,4.000000,4.000000,4.000000,4.000000,4.000000,4.000000,0.000000,,,,,,,,,,,,,,,,,,,,,,,,,,,,
1732158418.837924,1732158418.841465,44.000000,0.000000,4287.179688,4287.179688,4315.641113,4311.153809,4280.128418,4285.384766,4337.436035,4400.897461,4293.974121,4292.436035,4488.589844,4512.563965,4341.538574,4424.230957,0.000000,1.000000,20.000000,,,,0.000000,2.000000,2.000000,0.000000,4.000000,2.000000,2.000000,0.000000,0.000000,4.000000,4.000000,4.000000,4.000000,4.000000,4.000000,0.000000,,,,,,,,,,,,,,,,,11.000000,0.000000,0.508025,0.477173,-0.540710,0.471008,0.980588,-0.029789,-0.052741,-35.687420,44.736095,31.544893
1732158418.845732,1732158418.849273,45.000000,0.000000,4291.153809,4285.512695,4321.282227,4302.179688,4285.000000,4282.051270,4337.563965,4400.641113,4303.333496,4300.000000,4490.897461,4517.179688,4346.153809,4427.051270,0.000000,1.000000,20.000000,,,,0.000000,2.000000,2.000000,0.000000,4.000000,2.000000,2.000000,0.000000,0.000000,4.000000,4.000000,4.000000,4.000000,4.000000,4.000000,0.000000,,,,,,,,,,,,,,,,,,,,,,,,,,,,
1732158418.853541,1732158418.857281,46.000000,0.000000,4294.102539,4284.487305,4323.333496,4297.436035,4277.307617,4288.205078,4335.384766,4403.205078,4310.128418,4310.769043,4488.077148,4522.692383,4348.205078,4426.538574,0.000000,1.000000,20.000000,,,,0.000000,2.000000,2.000000,0.000000,4.000000,2.000000,2.000000,0.000000,0.000000,4.000000,4.000000,4.000000,4.000000,4.000000,4.000000,0.000000,,,,,,,,,,,,,,,,,,,,,,,,,,,,
1732158418.861349,1732158418.865089,47.000000,0.000000,4290.384766,4287.692383,4317.563965,4304.102539,4274.358887,4292.179688,4335.512695,4403.589844,4305.641113,4306.410156,4489.102539,4526.666504,4350.384766,4428.717773,0.000000,1.000000,20.000000,,,,0.000000,2.000000,2.000000,0.000000,4.000000,2.000000,2.000000,0.000000,0.000000,4.000000,4.000000,4.000000,4.000000,4.000000,4.000000,0.000000,,,,,,,,,,,,,,,,,,,,,,,,,,,,
1732158418.869157,1732158418.872997,48.000000,0.000000,4287.820313,4291.922852,4316.153809,4308.205078,4282.820313,4282.692383,4335.897461,4401.666504,4308.846191,4303.717773,4488.077148,4517.692383,4348.846191,4425.128418,0.000000,1.000000,20.000000,,,,0.000000,2.000000,2.000000,0.000000,4.000000,2.000000,2.000000,0.000000,0.000000,4.000000,4.000000,4.000000,4.000000,4.000000,4.000000,0.000000,,,,,,,,,,,,,,,,,12.000000,0.000000,0.507968,0.477234,-0.540710,0.471008,0.965938,-0.028324,-0.038579,-36.031811,44.754570,31.251364
1732158418.876965,1732158418.880806,49.000000,0.000000,4285.384766,4289.743652,4317.563965,4305.384766,4283.717773,4285.641113,4334.871582,4400.897461,4309.743652,4307.820313,4480.256348,4505.000000,4342.051270,4414.743652,0.000000,1.000000,20.000000,,,,0.000000,2.000000,2.000000,0.000000,4.000000,2.000000,2.000000,0.000000,0.000000,4.000000,4.000000,4.000000,4.000000,4.000000,4.000000,0.000000,,,,,,,,,,,,,,,,,,,,,,,,,,,,
1732158418.884774,1732158418.888814,50.000000,0.000000,4283.461426,4282.436035,4317.179688,4305.128418,4288.461426,4296.282227,4338.717773,4401.666504,4299.871582,4307.051270,4481.153809,4513.077148,4342.563965,4418.077148,0.000000,1.000000,20.000000,,,,0.000000,2.000000,2.000000,0.000000,4.000000,2.000000,2.000000,0.000000,0.000000,4.000000,4.000000,4.000000,4.000000,4.000000,4.000000,0.000000,,,,,,,,,,,,,,,,,,,,,,,,,,,,
1732158418.892582,1732158418.896622,51.000000,0.000000,4287.436035,4280.256348,4317.563965,4304.871582,4292.436035,4289.102539,4340.384766,4405.641113,4300.897461,4308.589844,4492.436035,4525.000000,4350.512695,4429.230957,0.000000,1.000000,20.000000,,,,0.000000,2.000000,2.000000,0.000000,4.000000,2.000000,2.000000,0.000000,0.000000,4.000000,4.000000,4.000000,4.000000,4.000000,4.000000,0.000000,,,,,,,,,,,,,,,,,,,,,,,,,,,,
1732158418.900390,1732158418.904530,52.000000,0.000000,4289.871582,4282.051270,4317.948730,4299.615234,4285.512695,4284.230957,4335.256348,4406.282227,4312.179688,4314.230957,4494.615234,4523.077148,4352.307617,4432.563965,0.000000,1.000000,20.000000,,,,0.000000,2.000000,2.000000,0.000000,4.000000,2.000000,2.000000,0.000000,0.000000,4.000000,4.000000,4.000000,4.000000,4.000000,4.000000,0.000000,,,,,,,,,,,,,,,,,13.000000,0.000000,0.507977,0.476990,-0.541077,0.470825,0.979612,-0.026370,-0.039067,-36.025764,44.929535,31.636938
1732158418.908198,1732158418.912338,53.000000,0.000000,4285.641113,4283.589844,4316.666504,4299.871582,4285.897461,4290.897461,4335.641113,4399.871582,4310.256348,4310.512695,4490.512695,4517.051270,4348.461426,4428.974121,0.000000,1.000000,20.000000,,,,0.000000,2.000000,2.000000,0.000000,4.000000,2.000000,2.000000,0.000000,0.000000,4.000000,4.000000,4.000000,4.000000,4.000000,4.000000,0.000000,,,,,,,,,,,,,,,,,,,,,,,,,,,,
1732158418.916006,1732158418.920346,54.000000,0.000000,4290.128418,4282.307617,4316.538574,4304.487305,4286.153809,4296.282227,4341.282227,4399.743652,4309.358887,4308.077148,4491.666504,4513.205078,4349.230957,4421.538574,0.000000,1.000000,20.000000,,,,0.000000,2.000000,2.000000,0.000000,4.000000,2.000000,2.000000,0.000000,0.000000,4.000000,4.000000,4.000000,4.000000,4.000000,4.000000,0.000000,,,,,,,,,,,,,,,,,,,,,,,,,,,,
1732158418.923815,1732158418.928154,55.000000,0.000000,4295.897461,4285.512695,4316.153809,4305.384766,4285.256348,4295.641113,4342.179688,4404.615234,4316.282227,4312.692383,4490.384766,4511.025879,4351.025879,4415.897461,0.000000,1.000000,20.000000,,,,0.000000,2.000000,2.000000,0.000000,4.000000,2.000000,2.000000,0.000000,0.000000,4.000000,4.000000,4.000000,4.000000,4.000000,4.000000,0.000000,,,,,,,,,,,,,,,,,,,,,,,,,,,,
1732158418.931623,1732158418.936062,56.000000,0.000000,4286.410156,4292.820313,4315.256348,4306.794922,4301.153809,4289.102539,4340.128418,4404.615234,4305.641113,4305.128418,4487.692383,4511.794922,4346.922852,4416.922852,0.000000,1.000000,20.000000,,,,0.000000,2.000000,2.000000,0.000000,4.000000,2.000000,2.000000,0.000000,0.000000,4.000000,4.000000,4.000000,4.000000,4.000000,4.000000,0.000000,,,,,,,,,,,,,,,,,14.000000,0.000000,0.508263,0.476501,-0.541504,0.470520,0.979123,-0.039556,-0.043951,-36.020870,45.151257,31.854254
1732158418.939431,1732158418.943871,57.000000,0.000000,4280.769043,4293.333496,4318.333496,4308.846191,4306.282227,4282.307617,4339.358887,4404.358887,4294.102539,4297.051270,4488.974121,4512.051270,4345.384766,4420.384766,0.000000,1.000000,20.000000,,,,0.000000,2.000000,2.000000,0.000000,4.000000,2.000000,2.000000,0.000000,0.000000,4.000000,4.000000,4.000000,4.000000,4.000000,4.000000,0.000000,,,,,,,,,,,,,,,,,,,,,,,,,,,,
1732158418.947240,1732158418.951879,58.000000,0.000000,4291.538574,4293.333496,4322.948730,4309.871582,4281.794922,4289.230957,4340.384766,4405.128418,4303.717773,4303.205078,4488.974121,4513.974121,4349.871582,4423.205078,0.000000,1.000000,20.000000,,,,0.000000,2.000000,2.000000,0.000000,4.000000,2.000000,2.000000,0.000000,0.000000,4.000000,4.000000,4.000000,4.000000,4.000000,4.000000,0.000000,,,,,,,,,,,,,,,,,,,,,,,,,,,,
1732158418.955048,1732158418.959687,59.000000,0.000000,4298.077148,4294.358887,4321.410156,4310.384766,4271.538574,4296.922852,4342.051270,4403.205078,4312.692383,4306.794922,4488.205078,4522.436035,4347.692383,4426.538574,0.000000,1.000000,20.000000,,,,0.000000,2.000000,2.000000,0.000000,4.000000,2.000000,2.000000,0.000000,0.000000,4.000000,4.000000,4.000000,4.000000,4.000000,4.000000,0.000000,,,,,,,,,,,,,,,,,,,,,,,,,,,,
1732158418.962856,1732158418.967595,60.000000,0.000000,4294.358887,4292.692383,4317.948730,4310.512695,4287.692383,4294.487305,4338.589844,4400.512695,4309.230957,4302.820313,4488.974121,4526.410156,4340.769043,4429.871582,0.000000,1.000000,20.000000,,,,0.000000,2.000000,2.000000,0.000000,4.000000,2.000000,2.000000,0.000000,0.000000,4.000000,4.000000,4.000000,4.000000,4.000000,4.000000,0.000000,,,,,,,,,,,,,,,,,15.000000,0.000000,0.508206,0.476501,-0.541504,0.470581,0.979123,-0.033207,-0.041509,-35.858570,44.900852,31.533611
1732158418.970664,1732158418.975403,61.000000,0.000000,4294.230957,4292.051270,4319.102539,4311.794922,4291.282227,4292.692383,4333.846191,4402.179688,4307.179688,4301.153809,4490.256348,4518.717773,4345.256348,4425.256348,0.000000,1.000000,20.000000,,,,0.000000,2.000000,2.000000,0.000000,4.000000,2.000000,2.000000,0.000000,0.000000,4.000000,4.000000,4.000000,4.000000,4.000000,4.000000,0.000000,,,,,,,,,,,,,,,,,,,,,,,,,,,,
1732158418.978473,1732158418.983111,62.000000,0.000000,4293.717773,4288.717773,4320.000000,4307.179688,4286.282227,4289.230957,4335.000000,4402.179688,4312.051270,4306.922852,4488.846191,4515.512695,4352.307617,4416.794922,0.000000,1.000000,20.000000,,,,0.000000,2.000000,2.000000,0.000000,4.000000,2.000000,2.000000,0.000000,0.000000,4.000000,4.000000,4.000000,4.000000,4.000000,4.000000,0.000000,,,,,,,,,,,,,,,,,,,,,,,,,,,,
1732158418.986281,1732158418.990920,63.000000,0.000000,4290.769043,4283.846191,4316.153809,4302.179688,4288.205078,4284.871582,4336.282227,4400.256348,4314.487305,4312.692383,4487.692383,4519.487305,4345.897461,4419.358887,0.000000,1.000000,20.000000,,,,0.000000,2.000000,2.000000,0.000000,4.000000,2.000000,2.000000,0.000000,0.000000,4.000000,4.000000,4.000000,4.000000,4.000000,4.000000,0.000000,,,,,,,,,,,,,,,,,,,,,,,,,,,,
1732158418.994089,1732158418.998628,64.000000,0.000000,4291.282227,4288.589844,4315.256348,4306.282227,4289.871582,4284.358887,4334.871582,4402.692383,4310.641113,4305.641113,4489.871582,4517.436035,4340.641113,4422.820313,0.000000,1.000000,20.000000,,,,0.000000,2.000000,2.000000,0.000000,4.000000,2.000000,2.000000,0.000000,0.000000,4.000000,4.000000,4.000000,4.000000,4.000000,4.000000,0.000000,,,,,,,,,,,,,,,,,16.000000,0.000000,0.508247,0.476379,-0.541626,0.470520,0.971798,-0.040044,-0.037602,-35.857109,44.903023,31.598892
1732158419.001897,1732158419.006436,65.000000,0.000000,4292.307617,4295.512695,4317.820313,4309.358887,4287.563965,4282.051270,4336.410156,4405.384766,4306.025879,4298.974121,4489.487305,4514.487305,4344.102539,4417.563965,1606.000000,1.000000,20.000000,,,,0.000000,2.000000,2.000000,0.000000,4.000000,2.000000,2.000000,0.000000,0.000000,4.000000,4.000000,4.000000,4.000000,4.000000,4.000000,0.000000,,,,,,,,,,,,,,,,,,,,,,,,,,,,
1732158419.009706,1732158419.014045,66.000000,0.000000,4289.743652,4294.487305,4317.307617,4307.820313,4287.051270,4281.794922,4338.846191,4406.666504,4308.333496,4307.051270,4486.666504,4515.769043,4346.025879,4414.487305,1359.000000,1.000000,20.000000,,,,0.000000,2.000000,2.000000,0.000000,4.000000,2.000000,2.000000,0.000000,0.000000,4.000000,4.000000,4.000000,4.000000,4.000000,4.000000,0.000000,,,,,,,,,,,,,,,,,,,,,,,,,,,,
1732158419.017514,1732158419.021853,67.000000,0.000000,4289.358887,4292.051270,4316.538574,4305.897461,4296.666504,4285.384766,4338.077148,4407.692383,4313.717773,4308.333496,4489.487305,4510.512695,4345.128418,4415.769043,1427.000000,1.000000,20.000000,,,,0.000000,2.000000,2.000000,0.000000,4.000000,2.000000,2.000000,0.000000,0.000000,4.000000,4.000000,4.000000,4.000000,4.000000,4.000000,0.000000,,,,,,,,,,,,,,,,,,,,,,,,,,,,
1732158419.025322,1732158419.029561,68.000000,0.000000,4292.436035,4294.102539,4316.410156,4305.897461,4300.000000,4284.487305,4336.922852,4410.256348,4312.307617,4299.743652,4492.051270,4506.153809,4344.743652,4415.641113,1431.000000,1.000000,20.000000,,,,0.000000,2.000000,2.000000,0.000000,4.000000,2.000000,2.000000,0.000000,0.000000,4.000000,4.000000,4.000000,4.000000,4.000000,4.000000,0.000000,,,,,,,,,,,,,,,,,17.000000,0.000000,0.507857,0.476624,-0.541565,0.470764,0.960078,-0.031742,-0.056159,-35.765926,44.906448,31.533436
1732158419.033130,1732158419.037369,69.000000,0.000000,4294.743652,4295.769043,4316.282227,4309.871582,4283.846191,4286.922852,4337.563965,4411.282227,4305.512695,4299.358887,4489.615234,4517.179688,4345.128418,4418.461426,1202.000000,1.000000,20.000000,,,,0.000000,2.000000,2.000000,0.000000,4.000000,2.000000,2.000000,0.000000,0.000000,4.000000,4.000000,4.000000,4.000000,4.000000,4.000000,0.000000,,,,,,,,,,,,,,,,,,,,,,,,,,,,
1732158419.040939,1732158419.044978,70.000000,0.000000,4295.769043,4297.436035,4317.179688,4314.743652,4274.615234,4294.230957,4335.512695,4407.820313,4301.025879,4300.512695,4490.769043,4521.794922,4345.769043,4420.384766,0.000000,1.000000,20.000000,,,,0.000000,2.000000,2.000000,0.000000,4.000000,2.000000,2.000000,0.000000,0.000000,4.000000,4.000000,4.000000,4.000000,4.000000,4.000000,0.000000,,,,,,,,,,,,,,,,,,,,,,,,,,,,
1732158419.048747,1732158419.052786,71.000000,0.000000,4294.487305,4296.538574,4316.538574,4311.922852,4281.794922,4294.102539,4334.102539,4403.846191,4305.384766,4298.205078,4489.358887,4511.153809,4344.615234,4413.589844,0.000000,1.000000,20.000000,,,,0.000000,2.000000,2.000000,0.000000,4.000000,2.000000,2.000000,0.000000,0.000000,4.000000,4.000000,4.000000,4.000000,4.000000,4.000000,0.000000,,,,,,,,,,,,,,,,,,,,,,,,,,,,
1732158419.056555,1732158419.060494,72.000000,0.000000,4292.436035,4294.102539,4316.794922,4309.615234,4283.205078,4292.179688,4338.974121,4403.974121,4313.077148,4307.563965,4484.230957,4507.948730,4341.922852,4410.384766,1521.000000,1.000000,20.000000,,,,0.000000,2.000000,2.000000,0.000000,4.000000,2.000000,2.000000,0.000000,0.000000,4.000000,4.000000,4.000000,4.000000,4.000000,4.000000,0.000000,,,,,,,,,,,,,,,,,18.000000,0.000000,0.507849,0.476563,-0.541626,0.470764,0.960078,-0.031742,-0.056159,-35.715401,45.082558,31.590416
1732158419.064363,1732158419.068302,73.000000,0.000000,4293.589844,4295.769043,4318.974121,4312.948730,4279.743652,4297.179688,4339.615234,4403.717773,4312.563965,4312.051270,4487.948730,4515.897461,4342.436035,4418.846191,1686.000000,1.000000,20.000000,,,,0.000000,2.000000,2.000000,0.000000,4.000000,2.000000,2.000000,0.000000,0.000000,4.000000,4.000000,4.000000,4.000000,4.000000,4.000000,0.000000,,,,,,,,,,,,,,,,,,,,,,,,,,,,
1732158419.072172,1732158419.075911,74.000000,0.000000,4295.128418,4296.025879,4318.077148,4313.461426,4282.692383,4296.025879,4333.974121,4403.333496,4307.051270,4300.128418,4494.102539,4517.179688,4341.794922,4426.922852,1563.000000,1.000000,20.000000,,,,0.000000,2.000000,2.000000,0.000000,4.000000,2.000000,2.000000,0.000000,0.000000,4.000000,4.000000,4.000000,4.000000,4.000000,4.000000,0.000000,,,,,,,,,,,,,,,,,,,,,,,,,,,,
1732158419.079980,1732158419.083719,75.000000,0.000000,4293.205078,4293.333496,4315.512695,4310.641113,4284.871582,4286.025879,4333.717773,4409.487305,4307.179688,4296.538574,4491.794922,4515.000000,4340.512695,4423.205078,1561.000000,1.000000,20.000000,,,,0.000000,2.000000,2.000000,0.000000,4.000000,2.000000,2.000000,0.000000,0.000000,4.000000,4.000000,4.000000,4.000000,4.000000,4.000000,0.000000,,,,,,,,,,,,,,,,,,,,,,,,,,,,
1732158419.087788,1732158419.091427,76.000000,0.000000,4292.820313,4293.717773,4312.563965,4309.871582,4286.666504,4286.025879,4336.794922,4411.153809,4308.974121,4307.563965,4491.794922,4517.179688,4346.922852,4418.461426,1703.000000,1.000000,20.000000,,,,0.000000,2.000000,2.000000,0.000000,4.000000,2.000000,2.000000,0.000000,0.000000,4.000000,4.000000,4.000000,4.000000,4.000000,4.000000,0.000000,,,,,,,,,,,,,,,,,19.000000,0.000000,0.507744,0.476624,-0.541565,0.470886,0.965938,-0.030277,-0.036626,-35.847805,44.901871,31.401571
1732158419.095596,1732158419.099236,77.000000,0.000000,4296.282227,4297.179688,4312.948730,4316.153809,4288.333496,4292.179688,4336.410156,4407.692383,4309.743652,4313.461426,4496.922852,4519.102539,4351.025879,4420.256348,1573.000000,1.000000,20.000000,,,,0.000000,2.000000,2.000000,0.000000,4.000000,2.000000,2.000000,0.000000,0.000000,4.000000,4.000000,4.000000,4.000000,4.000000,4.000000,0.000000,,,,,,,,,,,,,,,,,,,,,,,,,,,,
1732158419.103405,1732158419.106844,78.000000,0.000000,4296.410156,4297.436035,4316.025879,4320.128418,4288.077148,4290.641113,4334.743652,4410.000000,4310.256348,4303.589844,4493.205078,4515.897461,4343.717773,4416.538574,1563.000000,1.000000,20.000000,,,,0.000000,2.000000,2.000000,0.000000,4.000000,2.000000,2.000000,0.000000,0.000000,4.000000,4.000000,4.000000,4.000000,4.000000,4.000000,0.000000,1.000000,0.000000,2.000000,2.000000,0.000000,4.000000,2.000000,2.000000,0.000000,0.000000,4.000000,3.000000,4.000000,4.000000,4.000000,4.000000,,,,,,,,,,,,
1732158419.111213,1732158419.114652,79.000000,0.000000,4295.384766,4295.384766,4317.307617,4315.000000,4293.717773,4291.025879,4335.256348,4408.717773,4304.487305,4294.743652,4486.282227,4513.974121,4339.487305,4411.410156,1561.000000,1.000000,20.000000,,,,0.000000,2.000000,2.000000,0.000000,4.000000,2.000000,2.000000,0.000000,0.000000,4.000000,4.000000,4.000000,4.000000,4.000000,4.000000,0.000000,,,,,,,,,,,,,,,,,,,,,,,,,,,,
1732158419.119021,1732158419.122361,80.000000,0.000000,4296.410156,4296.025879,4316.153809,4311.922852,4298.077148,4296.538574,4335.512695,4402.051270,4301.538574,4298.333496,4487.820313,4514.487305,4343.205078,4412.563965,1703.000000,1.000000,20.000000,,,,0.000000,2.000000,2.000000,0.000000,4.000000,2.000000,2.000000,0.000000,0.000000,4.000000,4.000000,4.000000,4.000000,4.000000,4.000000,0.000000,,,,,,,,,,,,,,,,,20.000000,0.000000,0.507581,0.476746,-0.541504,0.471008,0.974728,-0.029300,-0.042486,-35.876724,44.970516,31.305273
1732158419.126829,1732158419.130169,81.000000,0.000000,4291.410156,4296.410156,4316.153809,4310.256348,4290.897461,4295.000000,4336.025879,4402.563965,4309.358887,4303.974121,4488.077148,4514.615234,4341.025879,4411.025879,1573.000000,1.000000,20.000000,,,,0.000000,2.000000,2.000000,0.000000,4.000000,2.000000,2.000000,0.000000,0.000000,4.000000,4.000000,4.000000,4.000000,4.000000,4.000000,0.000000,,,,,,,,,,,,,,,,,,,,,,,,,,,,
1732158419.134638,1732158419.137777,82.000000,0.000000,4282.563965,4295.641113,4317.436035,4306.666504,4295.256348,4290.256348,4335.897461,4404.615234,4312.563965,4306.794922,4483.974121,4512.692383,4339.615234,4410.000000,1563.000000,1.000000,20.000000,,,,0.000000,2.000000,2.000000,0.000000,4.000000,2.000000,2.000000,0.000000,0.000000,4.000000,4.000000,4.000000,4.000000,4.000000,4.000000,0.000000,,,,,,,,,,,,,,,,,,,,,,,,,,,,
1732158419.142446,1732158419.145585,83.000000,0.000000,4281.025879,4295.512695,4317.436035,4306.025879,4305.897461,4292.179688,4335.512695,4404.358887,4310.897461,4309.615234,4486.794922,4511.922852,4348.717773,4413.205078,1561.000000,1.000000,20.000000,,,,0.000000,2.000000,2.000000,0.000000,4.000000,2.000000,2.000000,0.000000,0.000000,4.000000,4.000000,4.000000,4.000000,4.000000,4.000000,0.000000,,,,,,,,,,,,,,,,,,,,,,,,,,,,
1732158419.150254,1732158419.153294,84.000000,0.000000,4282.820313,4294.487305,4317.692383,4304.743652,4289.743652,4294.102539,4336.025879,4408.717773,4314.358887,4309.743652,4488.846191,4514.743652,4351.153809,4412.948730,1703.000000,1.000000,20.000000,,,,0.000000,2.000000,2.000000,0.000000,4.000000,2.000000,2.000000,0.000000,0.000000,4.000000,4.000000,4.000000,4.000000,4.000000,4.000000,0.000000,,,,,,,,,,,,,,,,,21.000000,0.000000,0.507467,0.476807,-0.541504,0.471069,0.974728,-0.029300,-0.042486,-35.700146,45.054451,31.302271
1732158419.158062,1732158419.161102,85.000000,0.000000,4280.897461,4293.974121,4314.871582,4302.820313,4271.282227,4295.000000,4335.641113,4408.461426,4316.410156,4304.487305,4481.666504,4514.102539,4343.461426,4411.282227,1573.000000,1.000000,20.000000,,,,0.000000,2.000000,2.000000,0.000000,4.000000,2.000000,2.000000,0.000000,0.000000,4.000000,4.000000,4.000000,4.000000,4.000000,4.000000,0.000000,,,,,,,,,,,,,,,,,,,,,,,,,,,,
1732158419.165871,1732158419.168710,86.000000,0.000000,4279.871582,4295.000000,4312.436035,4305.384766,4280.384766,4294.230957,4334.743652,4404.358887,4313.205078,4303.333496,4482.820313,4510.641113,4345.000000,4412.948730,1563.000000,1.000000,20.000000,,,,0.000000,2.000000,2.000000,0.000000,4.000000,2.000000,2.000000,0.000000,0.000000,4.000000,4.000000,4.000000,4.000000,4.000000,4.000000,0.000000,,,,,,,,,,,,,,,,,,,,,,,,,,,,
1732158419.173679,1732158419.176518,87.000000,0.000000,4281.410156,4294.743652,4315.000000,4304.743652,4287.563965,4293.717773,4334.230957,4404.487305,4310.128418,4302.307617,4490.769043,4508.333496,4349.102539,4412.948730,1561.000000,1.000000,20.000000,,,,0.000000,2.000000,2.000000,0.000000,4.000000,2.000000,2.000000,0.000000,0.000000,4.000000,4.000000,4.000000,4.000000,4.000000,4.000000,0.000000,,,,,,,,,,,,,,,,,,,,,,,,,,,,
1732158419.181487,1732158419.184427,88.000000,0.000000,4282.948730,4293.461426,4316.794922,4301.794922,4278.974121,4294.358887,4335.000000,4406.153809,4308.205078,4297.563965,4487.820313,4506.666504,4341.794922,4411.410156,1703.000000,1.000000,20.000000,,,,0.000000,2.000000,2.000000,0.000000,4.000000,2.000000,2.000000,0.000000,0.000000,4.000000,4.000000,4.000000,4.000000,4.000000,4.000000,0.000000,,,,,,,,,,,,,,,,,22.000000,0.000000,0.507459,0.476746,-0.541565,0.471069,0.975217,-0.029300,-0.049322,-35.883785,45.107437,31.276506
1732158419.189295,1732158419.192235,89.000000,0.000000,4287.563965,4296.025879,4315.256348,4307.692383,4281.282227,4294.871582,4337.307617,4404.743652,4310.512695,4298.717773,4485.512695,4505.897461,4342.820313,4411.153809,1573.000000,1.000000,20.000000,,,,0.000000,2.000000,2.000000,0.000000,4.000000,2.000000,2.000000,0.000000,0.000000,4.000000,4.000000,4.000000,4.000000,4.000000,4.000000,0.000000,,,,,,,,,,,,,,,,,,,,,,,,,,,,
1732158419.197104,1732158419.200243,90.000000,0.000000,4293.077148,4299.102539,4316.282227,4307.179688,4298.333496,4294.102539,4340.000000,4403.077148,4310.128418,4300.384766,4490.897461,4506.153809,4350.384766,4412.820313,1563.000000,1.000000,20.000000,,,,0.000000,2.000000,2.000000,0.000000,4.000000,2.000000,2.000000,0.000000,0.000000,4.000000,4.000000,4.000000,4.000000,4.000000,4.000000,0.000000,,,,,,,,,,,,,,,,,,,,,,,,,,,,
1732158419.204912,1732158419.208051,91.000000,0.000000,4295.128418,4296.794922,4318.077148,4299.358887,4301.794922,4292.436035,4340.256348,4403.974121,4305.769043,4294.743652,4487.563965,4508.205078,4346.025879,4415.128418,1561.000000,1.000000,20.000000,,,,0.000000,2.000000,2.000000,0.000000,4.000000,2.000000,2.000000,0.000000,0.000000,4.000000,4.000000,4.000000,4.000000,4.000000,4.000000,0.000000,,,,,,,,,,,,,,,,,,,,,,,,,,,,
1732158419.212720,1732158419.215759,92.000000,0.000000,4294.358887,4293.077148,4315.384766,4303.077148,4282.307617,4292.820313,4339.358887,4404.487305,4307.948730,4296.282227,4482.820313,4510.128418,4342.692383,4415.512695,1703.000000,1.000000,20.000000,,,,0.000000,2.000000,2.000000,0.000000,4.000000,2.000000,2.000000,0.000000,0.000000,4.000000,4.000000,4.000000,4.000000,4.000000,4.000000,0.000000,,,,,,,,,,,,,,,,,23.000000,0.000000,0.507288,0.476807,-0.541565,0.471191,0.969845,-0.029300,-0.034184,-36.010864,44.903690,31.237303
1732158419.220528,1732158419.223568,93.000000,0.000000,4293.589844,4293.974121,4313.589844,4312.307617,4271.025879,4295.384766,4339.487305,4405.128418,4312.820313,4308.846191,4489.102539,4512.948730,4350.769043,4414.487305,1573.000000,1.000000,20.000000,,,,0.000000,2.000000,2.000000,0.000000,4.000000,2.000000,2.000000,0.000000,0.000000,4.000000,4.000000,4.000000,4.000000,4.000000,4.000000,0.000000,,,,,,,,,,,,,,,,,,,,,,,,,,,,
1732158419.228337,1732158419.231176,94.000000,0.000000,4294.871582,4296.153809,4314.102539,4309.487305,4282.436035,4297.307617,4337.948730,4405.000000,4312.948730,4315.000000,4493.589844,4513.974121,4353.461426,4415.384766,1563.000000,1.000000,20.000000,,,,0.000000,2.000000,2.000000,0.000000,4.000000,2.000000,2.000000,0.000000,0.000000,4.000000,4.000000,4.000000,4.000000,4.000000,4.000000,0.000000,,,,,,,,,,,,,,,,,,,,,,,,,,,,
1732158419.236145,1732158419.238984,95.000000,0.000000,4292.692383,4293.077148,4313.077148,4300.128418,4285.897461,4295.769043,4336.153809,4404.102539,4310.897461,4309.487305,4488.717773,4511.794922,4346.153809,4415.128418,1561.000000,1.000000,20.000000,,,,0.000000,2.000000,2.000000,0.000000,4.000000,2.000000,2.000000,0.000000,0.000000,4.000000,4.000000,4.000000,4.000000,4.000000,4.000000,0.000000,,,,,,,,,,,,,,,,,,,,,,,,,,,,
1732158419.243953,1732158419.246692,96.000000,0.000000,4287.436035,4289.230957,4313.333496,4300.897461,4278.717773,4293.461426,4335.384766,4404.487305,4309.615234,4302.820313,4482.563965,4512.692383,4341.153809,4411.153809,1703.000000,1.000000,20.000000,,,,0.000000,2.000000,2.000000,0.000000,4.000000,2.000000,2.000000,0.000000,0.000000,4.000000,4.000000,4.000000,4.000000,4.000000,4.000000,0.000000,,,,,,,,,,,,,,,,,24.000000,0.000000,0.507281,0.476746,-0.541626,0.471191,0.977170,-0.034672,-0.049322,-36.143803,44.806992,31.260550
1732158419.251761,1732158419.254501,97.000000,0.000000,4284.358887,4290.256348,4316.666504,4305.128418,4279.487305,4294.102539,4335.128418,4403.589844,4310.769043,4302.563965,4484.358887,4515.512695,4342.948730,4410.641113,1573.000000,1.000000,20.000000,,,,0.000000,2.000000,2.000000,0.000000,4.000000,2.000000,2.000000,0.000000,0.000000,4.000000,4.000000,4.000000,4.000000,4.000000,4.000000,0.000000,,,,,,,,,,,,,,,,,,,,,,,,,,,,
1732158419.259570,1732158419.262509,98.000000,0.000000,4287.563965,4292.563965,4317.307617,4305.384766,4284.102539,4294.230957,4336.922852,4403.077148,4314.743652,4306.282227,4485.000000,4516.538574,4345.512695,4413.974121,1563.000000,1.000000,20.000000,,,,0.000000,2.000000,2.000000,0.000000,4.000000,2.000000,2.000000,0.000000,0.000000,4.000000,4.000000,4.000000,4.000000,4.000000,4.000000,0.000000,,,,,,,,,,,,,,,,,,,,,,,,,,,,
1732158419.267378,1732158419.270317,99.000000,0.000000,4291.666504,4294.615234,4315.512695,4303.846191,4284.230957,4292.948730,4338.333496,4408.077148,4318.974121,4312.307617,4483.333496,4518.717773,4345.384766,4416.025879,1561.000000,1.000000,20.000000,,,,0.000000,2.000000,2.000000,0.000000,4.000000,2.000000,2.000000,0.000000,0.000000,4.000000,4.000000,4.000000,4.000000,4.000000,4.000000,0.000000,,,,,,,,,,,,,,,,,,,,,,,,,,,,
1732158419.275186,1732158419.278225,100.000000,0.000000,4288.589844,4293.461426,4315.641113,4301.153809,4279.743652,4295.128418,4336.666504,4409.871582,4319.230957,4313.205078,4487.820313,4520.128418,4346.922852,4414.743652,1703.000000,1.000000,20.000000,,,,0.000000,2.000000,2.000000,0.000000,4.000000,2.000000,2.000000,0.000000,0.000000,4.000000,4.000000,4.000000,4.000000,4.000000,4.000000,0.000000,,,,,,,,,,,,,,,,,25.000000,0.000000,0.507232,0.476807,-0.541565,0.471252,0.984495,-0.033696,-0.034672,-36.243145,44.906994,31.179379
1732158419.282994,1732158419.286033,101.000000,0.000000,4281.025879,4290.256348,4315.897461,4294.102539,4285.128418,4291.794922,4335.512695,4403.717773,4313.077148,4303.717773,4490.897461,4516.025879,4350.000000,4412.820313,1573.000000,1.000000,20.000000,,,,0.000000,2.000000,2.000000,0.000000,4.000000,2.000000,2.000000,0.000000,0.000000,4.000000,4.000000,4.000000,4.000000,4.000000,4.000000,0.000000,,,,,,,,,,,,,,,,,,,,,,,,,,,,
1732158419.290803,1732158419.294041,102.000000,0.000000,4278.589844,4292.692383,4313.461426,4292.436035,4298.846191,4282.436035,4336.025879,4403.077148,4307.692383,4297.948730,4480.256348,4511.538574,4347.692383,4412.563965,1563.000000,1.000000,20.000000,,,,0.000000,2.000000,2.000000,0.000000,4.000000,2.000000,2.000000,0.000000,0.000000,4.000000,4.000000,4.000000,4.000000,4.000000,4.000000,0.000000,,,,,,,,,,,,,,,,,,,,,,,,,,,,
1732158419.298611,1732158419.301849,103.000000,0.000000,4283.077148,4297.820313,4311.538574,4300.512695,4290.128418,4286.538574,4335.512695,4405.256348,4311.153809,4303.461426,4476.666504,4515.000000,4347.436035,4413.077148,1561.000000,1.000000,20.000000,,,,0.000000,2.000000,2.000000,0.000000,4.000000,2.000000,2.000000,0.000000,0.000000,4.000000,4.000000,4.000000,4.000000,4.000000,4.000000,0.000000,,,,,,,,,,,,,,,,,,,,,,,,,,,,
1732158419.306419,1732158419.309758,104.000000,0.000000,4285.128418,4297.692383,4311.282227,4304.871582,4272.051270,4297.436035,4337.051270,4404.871582,4314.743652,4310.512695,4488.974121,4516.025879,4350.256348,4412.307617,1703.000000,1.000000,20.000000,,,,0.000000,2.000000,2.000000,0.000000,4.000000,2.000000,2.000000,0.000000,0.000000,4.000000,4.000000,4.000000,4.000000,4.000000,4.000000,0.000000,,,,,,,,,,,,,,,,,26.000000,0.000000,0.507484,0.476501,-0.541809,0.471008,0.988890,-0.021487,-0.040044,-36.158615,44.893002,31.235296
1732158419.314227,1732158419.317566,105.000000,0.000000,4282.307617,4296.922852,4314.230957,4302.948730,4279.102539,4297.051270,4337.948730,4407.948730,4311.538574,4308.974121,4488.077148,4510.769043,4352.436035,4414.102539,1573.000000,1.000000,20.000000,,,,0.000000,2.000000,2.000000,0.000000,4.000000,2.000000,2.000000,0.000000,0.000000,4.000000,4.000000,4.000000,4.000000,4.000000,4.000000,0.000000,,,,,,,,,,,,,,,,,,,,,,,,,,,,
1732158419.322036,1732158419.325574,106.000000,0.000000,4281.153809,4295.641113,4317.051270,4298.717773,4281.153809,4290.769043,4334.487305,4410.256348,4305.897461,4301.538574,4480.769043,4506.922852,4352.307617,4411.922852,1563.000000,1.000000,20.000000,,,,0.000000,2.000000,2.000000,0.000000,4.000000,2.000000,2.000000,0.000000,0.000000,4.000000,4.000000,4.000000,4.000000,4.000000,4.000000,0.000000,,,,,,,,,,,,,,,,,,,,,,,,,,,,
1732158419.329844,1732158419.333382,107.000000,0.000000,4282.051270,4292.692383,4316.666504,4296.153809,4272.307617,4288.974121,4333.461426,4408.846191,4305.128418,4296.538574,4486.922852,4507.179688,4347.436035,4406.153809,1561.000000,1.000000,20.000000,,,,0.000000,2.000000,2.000000,0.000000,4.000000,2.000000,2.000000,0.000000,0.000000,4.000000,4.000000,4.000000,4.000000,4.000000,4.000000,0.000000,,,,,,,,,,,,,,,,,,,,,,,,,,,,
1732158419.337652,1732158419.341290,108.000000,0.000000,4281.666504,4294.743652,4313.205078,4295.769043,4290.897461,4287.563965,4336.282227,4407.051270,4304.743652,4296.794922,4489.871582,4510.897461,4343.846191,4407.307617,1703.000000,1.000000,20.000000,,,,0.000000,2.000000,2.000000,0.000000,4.000000,2.000000,2.000000,0.000000,0.000000,4.000000,4.000000,4.000000,4.000000,4.000000,4.000000,0.000000,,,,,,,,,,,,,,,,,27.000000,0.000000,0.507874,0.476013,-0.542297,0.470520,0.972287,-0.029300,-0.048834,-36.188477,44.823330,31.577257
1732158419.345461,1732158419.349098,109.000000,0.000000,4281.922852,4293.974121,4313.589844,4295.384766,4296.922852,4290.769043,4337.179688,4409.102539,4301.282227,4297.436035,4479.102539,4512.692383,4342.051270,4408.333496,1573.000000,1.000000,20.000000,,,,0.000000,2.000000,2.000000,0.000000,4.000000,2.000000,2.000000,0.000000,0.000000,4.000000,4.000000,4.000000,4.000000,4.000000,4.000000,0.000000,,,,,,,,,,,,,,,,,,,,,,,,,,,,
1732158419.353269,1732158419.357106,110.000000,0.000000,4285.128418,4284.743652,4316.794922,4295.512695,4268.974121,4296.410156,4336.025879,4411.153809,4303.846191,4296.794922,4474.615234,4512.051270,4336.922852,4403.589844,1563.000000,1.000000,20.000000,,,,0.000000,2.000000,2.000000,0.000000,4.000000,2.000000,2.000000,0.000000,0.000000,4.000000,4.000000,4.000000,4.000000,4.000000,4.000000,0.000000,,,,,,,,,,,,,,,,,,,,,,,,,,,,
1732158419.361077,1732158419.364914,111.000000,0.000000,4287.563965,4281.922852,4315.769043,4294.743652,4263.589844,4295.256348,4334.230957,4408.461426,4312.436035,4301.922852,4479.743652,4515.128418,4335.256348,4406.153809,1561.000000,1.000000,20.000000,,,,0.000000,2.000000,2.000000,0.000000,4.000000,2.000000,2.000000,0.000000,0.000000,4.000000,4.000000,4.000000,4.000000,4.000000,4.000000,0.000000,,,,,,,,,,,,,,,,,,,,,,,,,,,,
1732158419.368885,1732158419.372723,112.000000,0.000000,4291.410156,4290.897461,4314.615234,4294.871582,4281.282227,4295.384766,4334.743652,4405.128418,4314.871582,4308.846191,4478.205078,4516.922852,4341.666504,4414.230957,1703.000000,1.000000,20.000000,,,,0.000000,2.000000,2.000000,0.000000,4.000000,2.000000,2.000000,0.000000,0.000000,4.000000,4.000000,4.000000,4.000000,4.000000,4.000000,0.000000,,,,,,,,,,,,,,,,,28.000000,0.000000,0.507923,0.475891,-0.542358,0.470520,0.974728,-0.032230,-0.035649,-36.212666,44.861897,31.715912
1732158419.376693,1732158419.380531,113.000000,0.000000,4292.307617,4295.641113,4316.153809,4296.538574,4283.205078,4297.179688,4338.717773,4405.769043,4310.000000,4310.769043,4479.487305,4512.948730,4345.256348,4413.077148,1573.000000,1.000000,20.000000,,,,0.000000,2.000000,2.000000,0.000000,4.000000,2.000000,2.000000,0.000000,0.000000,4.000000,4.000000,4.000000,4.000000,4.000000,4.000000,0.000000,,,,,,,,,,,,,,,,,,,,,,,,,,,,
1732158419.384502,1732158419.388139,114.000000,0.000000,4288.717773,4293.461426,4316.794922,4298.846191,4277.692383,4291.025879,4338.589844,4405.769043,4311.282227,4312.436035,4488.589844,4510.000000,4342.948730,4409.230957,1563.000000,1.000000,20.000000,,,,0.000000,2.000000,2.000000,0.000000,4.000000,2.000000,2.000000,0.000000,0.000000,4.000000,4.000000,4.000000,4.000000,4.000000,4.000000,0.000000,,,,,,,,,,,,,,,,,,,,,,,,,,,,
1732158419.392310,1732158419.395948,115.000000,0.000000,4289.102539,4293.589844,4315.000000,4298.461426,4279.743652,4281.794922,4334.871582,4403.205078,4310.641113,4311.538574,4490.641113,4512.436035,4343.077148,4411.538574,1561.000000,1.000000,20.000000,,,,0.000000,2.000000,2.000000,0.000000,4.000000,2.000000,2.000000,0.000000,0.000000,4.000000,4.000000,4.000000,4.000000,4.000000,4.000000,0.000000,,,,,,,,,,,,,,,,,,,,,,,,,,,,
1732158419.400118,1732158419.403656,116.000000,0.000000,4290.897461,4293.974121,4315.769043,4295.512695,4280.512695,4279.487305,4334.743652,4402.563965,4300.256348,4304.358887,4486.666504,4514.487305,4342.692383,4412.692383,1703.000000,1.000000,20.000000,,,,0.000000,2.000000,2.000000,0.000000,4.000000,2.000000,2.000000,0.000000,0.000000,4.000000,4.000000,4.000000,4.000000,4.000000,4.000000,0.000000,,,,,,,,,,,,,,,,,29.000000,0.000000,0.507964,0.475769,-0.542480,0.470459,0.966427,-0.025882,-0.035649,-35.918926,44.983135,31.738222
1732158419.407926,1732158419.411464,117.000000,0.000000,4288.205078,4292.948730,4317.307617,4294.871582,4281.666504,4281.666504,4335.641113,4405.512695,4300.128418,4305.641113,4489.615234,4516.922852,4344.230957,4412.051270,1573.000000,1.000000,20.000000,,,,0.000000,2.000000,2.000000,0.000000,4.000000,2.000000,2.000000,0.000000,0.000000,4.000000,4.000000,4.000000,4.000000,4.000000,4.000000,0.000000,,,,,,,,,,,,,,,,,,,,,,,,,,,,
1732158419.415735,1732158419.419072,118.000000,0.000000,4287.820313,4293.717773,4316.025879,4300.512695,4281.794922,4289.743652,4335.641113,4409.871582,4311.538574,4312.051270,4492.179688,4515.256348,4345.128418,4412.948730,1563.000000,1.000000,20.000000,,,,0.000000,2.000000,2.000000,0.000000,4.000000,2.000000,2.000000,0.000000,0.000000,4.000000,4.000000,4.000000,4.000000,4.000000,4.000000,0.000000,,,,,,,,,,,,,,,,,,,,,,,,,,,,
1732158419.423543,1732158419.426881,119.000000,0.000000,4288.205078,4294.871582,4315.256348,4302.051270,4290.000000,4295.128418,4335.769043,4408.717773,4308.589844,4304.102539,4487.179688,4506.794922,4340.256348,4412.051270,1561.000000,1.000000,20.000000,,,,0.000000,2.000000,2.000000,0.000000,4.000000,2.000000,2.000000,0.000000,0.000000,4.000000,4.000000,4.000000,4.000000,4.000000,4.000000,0.000000,,,,,,,,,,,,,,,,,,,,,,,,,,,,
1732158419.431351,1732158419.434589,120.000000,0.000000,4287.436035,4296.025879,4316.922852,4298.333496,4299.743652,4285.384766,4334.871582,4405.512695,4298.461426,4295.897461,4489.102539,4508.589844,4343.461426,4409.871582,1703.000000,1.000000,20.000000,,,,0.000000,2.000000,2.000000,0.000000,4.000000,2.000000,2.000000,0.000000,0.000000,4.000000,4.000000,4.000000,4.000000,4.000000,4.000000,0.000000,,,,,,,,,,,,,,,,,30.000000,0.000000,0.508207,0.475403,-0.542786,0.470215,0.975705,-0.042486,-0.045416,-35.929333,44.923008,31.652960
1732158419.439160,1732158419.442397,121.000000,0.000000,4291.153809,4297.692383,4316.922852,4300.512695,4288.589844,4280.256348,4337.692383,4409.102539,4306.666504,4307.051270,4495.128418,4517.436035,4351.282227,4412.179688,1573.000000,1.000000,20.000000,,,,0.000000,2.000000,2.000000,0.000000,4.000000,2.000000,2.000000,0.000000,0.000000,4.000000,4.000000,4.000000,4.000000,4.000000,4.000000,0.000000,,,,,,,,,,,,,,,,,,,,,,,,,,,,
1732158419.446968,1732158419.450006,122.000000,0.000000,4289.871582,4296.282227,4316.922852,4302.563965,4275.384766,4288.717773,4341.794922,4410.128418,4314.487305,4314.102539,4492.948730,4516.666504,4345.897461,4412.563965,1563.000000,1.000000,20.000000,,,,0.000000,2.000000,2.000000,0.000000,4.000000,2.000000,2.000000,0.000000,0.000000,4.000000,4.000000,4.000000,4.000000,4.000000,4.000000,0.000000,,,,,,,,,,,,,,,,,,,,,,,,,,,,
1732158419.454776,1732158419.457814,123.000000,0.000000,4282.307617,4294.871582,4317.179688,4297.948730,4270.769043,4290.128418,4337.692383,4405.641113,4309.615234,4305.000000,4488.077148,4512.820313,4337.563965,4406.794922,1561.000000,1.000000,20.000000,,,,0.000000,2.000000,2.000000,0.000000,4.000000,2.000000,2.000000,0.000000,0.000000,4.000000,4.000000,4.000000,4.000000,4.000000,4.000000,0.000000,,,,,,,,,,,,,,,,,,,,,,,,,,,,
1732158419.462584,1732158419.465522,124.000000,0.000000,4280.128418,4294.102539,4314.615234,4295.769043,4276.666504,4285.128418,4333.717773,4407.948730,4309.487305,4300.897461,4487.436035,4508.333496,4337.307617,4402.948730,1703.000000,1.000000,20.000000,,,,0.000000,2.000000,2.000000,0.000000,4.000000,2.000000,2.000000,0.000000,0.000000,4.000000,4.000000,4.000000,4.000000,4.000000,4.000000,0.000000,,,,,,,,,,,,,,,,,31.000000,0.000000,0.508069,0.475281,-0.542969,0.470276,0.964962,-0.051764,-0.048834,-35.881092,45.057636,31.583897
1732158419.470392,1732158419.473330,125.000000,0.000000,4280.384766,4287.179688,4312.051270,4296.410156,4293.717773,4289.871582,4335.897461,4412.179688,4311.794922,4305.641113,4488.077148,4504.230957,4337.563965,4403.077148,1573.000000,1.000000,20.000000,,,,0.000000,2.000000,2.000000,0.000000,4.000000,2.000000,2.000000,0.000000,0.000000,4.000000,4.000000,4.000000,4.000000,4.000000,4.000000,0.000000,,,,,,,,,,,,,,,,,,,,,,,,,,,,
