title:3seven, start timestamp:1732158486.433724, stop timestamp:1732158546.119997, headset type:EPOCX, headset serial:E5020C3A, headset firmware:730, channels:67, sampling rate:eeg_128;mot_32, samples:7645      , version:2.2, 
Timestamp,OriginalTimestamp,EEG.Counter,EEG.Interpolated,EEG.AF3,EEG.F7,EEG.F3,EEG.FC5,EEG.T7,EEG.P7,EEG.O1,EEG.O2,EEG.P8,EEG.T8,EEG.FC6,EEG.F4,EEG.F8,EEG.AF4,EEG.RawCq,EEG.Battery,EEG.BatteryPercent,MarkerIndex,MarkerType,MarkerValueInt,EEG.MarkerHardware,CQ.AF3,CQ.F7,CQ.F3,CQ.FC5,CQ.T7,CQ.P7,CQ.O1,CQ.O2,CQ.P8,CQ.T8,CQ.FC6,CQ.F4,CQ.F8,CQ.AF4,CQ.Overall,EQ.SampleRateQuality,EQ.OVERALL,EQ.AF3,EQ.F7,EQ.F3,EQ.FC5,EQ.T7,EQ.P7,EQ.O1,EQ.O2,EQ.P8,EQ.T8,EQ.FC6,EQ.F4,EQ.F8,EQ.AF4,MOT.CounterMems,MOT.InterpolatedMems,MOT.Q0,MOT.Q1,MOT.Q2,MOT.Q3,MOT.AccX,MOT.AccY,MOT.AccZ,MOT.MagX,MOT.MagY,MOT.MagZ
1732158486.433724,1732158486.437925,125.000000,0.000000,4293.589844,4240.256348,4311.538574,4278.461426,4265.897461,4278.205078,4334.487305,4400.000000,4304.871582,4301.538574,4497.948730,4515.897461,4372.563965,4427.307617,1584.000000,1.000000,20.000000,,,,0.000000,2.000000,2.000000,0.000000,4.000000,2.000000,2.000000,0.000000,0.000000,4.000000,4.000000,4.000000,4.000000,4.000000,4.000000,0.000000,,,,,,,,,,,,,,,,,,,,,,,,,,,,
1732158486.441532,1732158486.445533,126.000000,0.000000,4296.794922,4247.692383,4311.794922,4281.282227,4267.948730,4276.410156,4335.384766,4398.974121,4303.077148,4310.384766,4504.487305,4517.179688,4375.641113,4428.974121,1551.000000,1.000000,20.000000,,,,0.000000,2.000000,2.000000,0.000000,4.000000,2.000000,2.000000,0.000000,0.000000,4.000000,4.000000,4.000000,4.000000,4.000000,4.000000,0.000000,,,,,,,,,,,,,,,,,,,,,,,,,,,,
1732158486.449341,1732158486.453341,127.000000,0.000000,4295.256348,4247.051270,4312.692383,4283.077148,4270.769043,4278.461426,4335.897461,4401.538574,4305.769043,4310.641113,4503.461426,4521.282227,4381.025879,4431.153809,20.000000,1.000000,20.000000,,,,0.000000,2.000000,2.000000,0.000000,4.000000,2.000000,2.000000,0.000000,0.000000,4.000000,4.000000,4.000000,4.000000,4.000000,4.000000,0.000000,,,,,,,,,,,,,,,,,,,,,,,,,,,,
1732158486.457149,1732158486.461050,0.000000,0.000000,4293.461426,4245.256348,4314.615234,4281.025879,4261.282227,4274.102539,4336.025879,4402.436035,4305.256348,4299.102539,4504.230957,4526.538574,4381.153809,4431.282227,0.000000,1.000000,20.000000,,,,0.000000,2.000000,2.000000,0.000000,4.000000,2.000000,2.000000,0.000000,0.000000,4.000000,4.000000,4.000000,4.000000,4.000000,4.000000,0.000000,,,,,,,,,,,,,,,,,0.000000,0.000000,0.515795,0.506897,-0.512695,0.462769,0.973263,0.072274,-0.032230,-34.660080,46.380768,31.420280
1732158486.464957,1732158486.468858,1.000000,0.000000,4291.794922,4245.512695,4314.102539,4279.358887,4264.615234,4265.384766,4335.769043,4401.538574,4296.153809,4291.666504,4502.051270,4523.205078,4375.769043,4427.436035,1608.000000,1.000000,20.000000,,,,0.000000,2.000000,2.000000,0.000000,4.000000,2.000000,2.000000,0.000000,0.000000,4.000000,4.000000,4.000000,4.000000,4.000000,4.000000,0.000000,,,,,,,,,,,,,,,,,,,,,,,,,,,,
1732158486.472765,1732158486.476466,2.000000,0.000000,4293.461426,4246.410156,4312.307617,4281.025879,4284.615234,4269.871582,4335.641113,4401.153809,4292.436035,4294.102539,4493.589844,4521.025879,4374.487305,4426.922852,1354.000000,1.000000,20.000000,,,,0.000000,2.000000,2.000000,0.000000,4.000000,2.000000,2.000000,0.000000,0.000000,4.000000,4.000000,4.000000,4.000000,4.000000,4.000000,0.000000,,,,,,,,,,,,,,,,,,,,,,,,,,,,
1732158486.480574,1732158486.484274,3.000000,0.000000,4294.615234,4247.051270,4313.333496,4284.230957,4271.794922,4280.128418,4336.282227,4401.794922,4294.615234,4294.487305,4489.487305,4523.333496,4373.589844,4428.461426,1422.000000,1.000000,20.000000,,,,0.000000,2.000000,2.000000,0.000000,4.000000,2.000000,2.000000,0.000000,0.000000,4.000000,4.000000,4.000000,4.000000,4.000000,4.000000,0.000000,,,,,,,,,,,,,,,,,,,,,,,,,,,,
1732158486.488382,1732158486.492183,4.000000,0.000000,4285.769043,4245.128418,4315.000000,4280.256348,4244.358887,4281.153809,4335.769043,4402.179688,4292.563965,4292.307617,4491.538574,4517.436035,4366.922852,4424.230957,1437.000000,1.000000,20.000000,,,,0.000000,2.000000,2.000000,0.000000,4.000000,2.000000,2.000000,0.000000,0.000000,4.000000,4.000000,4.000000,4.000000,4.000000,4.000000,0.000000,,,,,,,,,,,,,,,,,1.000000,0.000000,0.516189,0.506836,-0.512634,0.462463,0.977170,0.080088,-0.041997,-34.629665,46.340092,31.530428
1732158486.496190,1732158486.499991,5.000000,0.000000,4283.461426,4244.871582,4312.692383,4280.000000,4253.974121,4281.538574,4334.230957,4403.205078,4295.000000,4293.589844,4491.153809,4513.333496,4368.077148,4423.717773,1199.000000,1.000000,20.000000,,,,0.000000,2.000000,2.000000,0.000000,4.000000,2.000000,2.000000,0.000000,0.000000,4.000000,4.000000,4.000000,4.000000,4.000000,4.000000,0.000000,,,,,,,,,,,,,,,,,,,,,,,,,,,,
1732158486.503998,1732158486.507999,6.000000,0.000000,4294.487305,4248.717773,4310.128418,4290.384766,4270.512695,4284.358887,4334.615234,4403.846191,4302.820313,4294.615234,4491.025879,4514.487305,4375.384766,4426.922852,0.000000,1.000000,20.000000,,,,0.000000,2.000000,2.000000,0.000000,4.000000,2.000000,2.000000,0.000000,0.000000,4.000000,4.000000,4.000000,4.000000,4.000000,4.000000,0.000000,,,,,,,,,,,,,,,,,,,,,,,,,,,,
1732158486.511807,1732158486.515807,7.000000,0.000000,4295.512695,4250.256348,4309.230957,4292.051270,4264.102539,4282.692383,4335.897461,4403.461426,4304.871582,4294.743652,4492.948730,4512.051270,4369.358887,4424.743652,0.000000,1.000000,20.000000,,,,0.000000,2.000000,2.000000,0.000000,4.000000,2.000000,2.000000,0.000000,0.000000,4.000000,4.000000,4.000000,4.000000,4.000000,4.000000,0.000000,,,,,,,,,,,,,,,,,,,,,,,,,,,,
1732158486.519615,1732158486.523715,8.000000,0.000000,4283.205078,4249.230957,4309.615234,4282.563965,4262.563965,4282.563965,4334.615234,4401.538574,4305.769043,4293.077148,4493.333496,4514.615234,4365.000000,4423.717773,1534.000000,1.000000,20.000000,,,,0.000000,2.000000,2.000000,0.000000,4.000000,2.000000,2.000000,0.000000,0.000000,4.000000,4.000000,4.000000,4.000000,4.000000,4.000000,0.000000,,,,,,,,,,,,,,,,,2.000000,0.000000,0.516815,0.506958,-0.512268,0.462036,0.977170,0.078135,-0.036137,-34.658363,46.360474,31.521313
1732158486.527423,1732158486.531523,9.000000,0.000000,4280.512695,4247.948730,4310.384766,4279.487305,4266.794922,4281.153809,4332.692383,4402.563965,4307.948730,4292.692383,4492.051270,4523.461426,4374.487305,4428.077148,1690.000000,1.000000,20.000000,,,,0.000000,2.000000,2.000000,0.000000,4.000000,2.000000,2.000000,0.000000,0.000000,4.000000,4.000000,4.000000,4.000000,4.000000,4.000000,0.000000,,,,,,,,,,,,,,,,,,,,,,,,,,,,
1732158486.535231,1732158486.539531,10.000000,0.000000,4286.794922,4246.410156,4310.128418,4280.769043,4263.077148,4277.179688,4334.102539,4403.974121,4304.230957,4294.358887,4491.025879,4518.461426,4371.794922,4427.436035,1551.000000,1.000000,20.000000,,,,0.000000,2.000000,2.000000,0.000000,4.000000,2.000000,2.000000,0.000000,0.000000,4.000000,4.000000,4.000000,4.000000,4.000000,4.000000,0.000000,,,,,,,,,,,,,,,,,,,,,,,,,,,,
1732158486.543040,1732158486.547339,11.000000,0.000000,4288.205078,4246.538574,4308.846191,4278.974121,4263.461426,4279.615234,4335.897461,4399.102539,4302.051270,4295.256348,4497.436035,4511.538574,4361.922852,4425.897461,1553.000000,1.000000,20.000000,,,,0.000000,2.000000,2.000000,0.000000,4.000000,2.000000,2.000000,0.000000,0.000000,4.000000,4.000000,4.000000,4.000000,4.000000,4.000000,0.000000,,,,,,,,,,,,,,,,,,,,,,,,,,,,
1732158486.550848,1732158486.555248,12.000000,0.000000,4287.563965,4248.461426,4307.307617,4281.282227,4266.538574,4282.820313,4334.743652,4397.179688,4307.692383,4294.230957,4504.743652,4516.666504,4371.025879,4428.077148,1706.000000,1.000000,20.000000,,,,0.000000,2.000000,2.000000,0.000000,4.000000,2.000000,2.000000,0.000000,0.000000,4.000000,4.000000,4.000000,4.000000,4.000000,4.000000,0.000000,,,,,,,,,,,,,,,,,3.000000,0.000000,0.517156,0.507996,-0.511169,0.461731,0.978635,0.102552,-0.037602,-34.609940,46.260315,31.302263
1732158486.558656,1732158486.563056,13.000000,0.000000,4287.692383,4248.077148,4308.846191,4281.282227,4265.769043,4282.307617,4334.487305,4403.205078,4305.512695,4289.615234,4501.410156,4517.307617,4376.922852,4424.871582,1576.000000,1.000000,20.000000,,,,0.000000,2.000000,2.000000,0.000000,4.000000,2.000000,2.000000,0.000000,0.000000,4.000000,4.000000,4.000000,4.000000,4.000000,4.000000,0.000000,,,,,,,,,,,,,,,,,,,,,,,,,,,,
1732158486.566464,1732158486.571064,14.000000,0.000000,4287.692383,4248.333496,4306.538574,4281.025879,4265.384766,4281.538574,4336.025879,4405.384766,4301.153809,4284.358887,4491.538574,4512.179688,4367.436035,4422.179688,1551.000000,1.000000,20.000000,,,,0.000000,2.000000,2.000000,0.000000,4.000000,2.000000,2.000000,0.000000,0.000000,4.000000,4.000000,4.000000,4.000000,4.000000,4.000000,0.000000,1.000000,0.000000,2.000000,2.000000,0.000000,4.000000,2.000000,1.000000,0.000000,0.000000,4.000000,4.000000,4.000000,4.000000,4.000000,4.000000,,,,,,,,,,,,
1732158486.574273,1732158486.578872,15.000000,0.000000,4288.205078,4249.743652,4304.358887,4289.615234,4265.641113,4280.769043,4336.025879,4399.358887,4304.487305,4281.410156,4490.897461,4515.384766,4367.820313,4428.333496,1553.000000,1.000000,20.000000,,,,0.000000,2.000000,2.000000,0.000000,4.000000,2.000000,2.000000,0.000000,0.000000,4.000000,4.000000,4.000000,4.000000,4.000000,4.000000,0.000000,,,,,,,,,,,,,,,,,,,,,,,,,,,,
1732158486.582081,1732158486.586780,16.000000,0.000000,4291.410156,4252.307617,4303.717773,4293.461426,4264.743652,4279.102539,4334.871582,4397.307617,4305.128418,4284.102539,4499.358887,4516.410156,4376.153809,4428.077148,0.000000,1.000000,20.000000,,,,0.000000,2.000000,2.000000,0.000000,4.000000,2.000000,2.000000,0.000000,0.000000,4.000000,4.000000,4.000000,4.000000,4.000000,4.000000,0.000000,,,,,,,,,,,,,,,,,4.000000,0.000000,0.516928,0.508301,-0.510986,0.461853,0.964962,0.086436,-0.035161,-34.615719,46.254189,31.244833
1732158486.589889,1732158486.594588,17.000000,0.000000,4291.410156,4253.974121,4302.820313,4290.769043,4262.820313,4280.000000,4334.871582,4401.538574,4309.487305,4292.820313,4506.282227,4512.692383,4373.846191,4420.256348,0.000000,1.000000,20.000000,,,,0.000000,2.000000,2.000000,0.000000,4.000000,2.000000,2.000000,0.000000,0.000000,4.000000,4.000000,4.000000,4.000000,4.000000,4.000000,0.000000,,,,,,,,,,,,,,,,,,,,,,,,,,,,
1732158486.597697,1732158486.602496,18.000000,0.000000,4290.897461,4255.000000,4304.615234,4293.205078,4264.487305,4282.436035,4334.230957,4401.922852,4311.153809,4296.538574,4504.871582,4514.230957,4371.282227,4423.974121,0.000000,1.000000,20.000000,,,,0.000000,2.000000,2.000000,0.000000,4.000000,2.000000,2.000000,0.000000,0.000000,4.000000,4.000000,4.000000,4.000000,4.000000,4.000000,0.000000,,,,,,,,,,,,,,,,,,,,,,,,,,,,
1732158486.605506,1732158486.610305,19.000000,0.000000,4293.077148,4257.307617,4303.589844,4297.436035,4266.410156,4282.436035,4333.461426,4399.102539,4302.563965,4290.000000,4497.179688,4513.077148,4372.307617,4428.461426,0.000000,1.000000,20.000000,,,,0.000000,2.000000,2.000000,0.000000,4.000000,2.000000,2.000000,0.000000,0.000000,4.000000,4.000000,4.000000,4.000000,4.000000,4.000000,0.000000,,,,,,,,,,,,,,,,,,,,,,,,,,,,
1732158486.613314,1732158486.618013,20.000000,0.000000,4288.717773,4261.153809,4295.769043,4294.743652,4264.871582,4280.384766,4336.025879,4398.461426,4304.743652,4290.769043,4492.820313,4506.282227,4368.333496,4419.102539,0.000000,1.000000,20.000000,,,,0.000000,2.000000,2.000000,0.000000,4.000000,2.000000,2.000000,0.000000,0.000000,4.000000,4.000000,4.000000,4.000000,4.000000,4.000000,0.000000,,,,,,,,,,,,,,,,,5.000000,0.000000,0.515841,0.508728,-0.511108,0.462463,0.956171,0.083995,-0.037114,-34.625397,46.015892,31.039982
1732158486.621122,1732158486.625821,21.000000,0.000000,4283.461426,4261.922852,4291.666504,4291.538574,4265.128418,4279.871582,4334.487305,4395.897461,4309.871582,4298.974121,4493.974121,4501.794922,4367.948730,4413.333496,0.000000,1.000000,20.000000,,,,0.000000,2.000000,2.000000,0.000000,4.000000,2.000000,2.000000,0.000000,0.000000,4.000000,4.000000,4.000000,4.000000,4.000000,4.000000,0.000000,,,,,,,,,,,,,,,,,,,,,,,,,,,,
1732158486.628930,1732158486.633430,22.000000,0.000000,4287.692383,4261.282227,4296.410156,4293.974121,4266.025879,4281.410156,4327.563965,4392.948730,4301.666504,4291.538574,4493.974121,4499.102539,4373.077148,4419.743652,0.000000,1.000000,20.000000,,,,0.000000,2.000000,2.000000,0.000000,4.000000,2.000000,2.000000,0.000000,0.000000,4.000000,4.000000,4.000000,4.000000,4.000000,4.000000,0.000000,,,,,,,,,,,,,,,,,,,,,,,,,,,,
1732158486.636739,1732158486.641238,23.000000,0.000000,4288.846191,4263.205078,4294.487305,4295.897461,4263.846191,4280.384766,4325.897461,4395.384766,4301.922852,4281.794922,4489.743652,4496.538574,4368.205078,4420.641113,0.000000,1.000000,20.000000,,,,0.000000,2.000000,2.000000,0.000000,4.000000,2.000000,2.000000,0.000000,0.000000,4.000000,4.000000,4.000000,4.000000,4.000000,4.000000,0.000000,,,,,,,,,,,,,,,,,,,,,,,,,,,,
1732158486.644547,1732158486.648946,24.000000,0.000000,4281.794922,4264.615234,4290.000000,4292.820313,4262.820313,4277.820313,4327.051270,4398.974121,4310.256348,4287.051270,4491.025879,4500.384766,4363.077148,4416.666504,0.000000,1.000000,20.000000,,,,0.000000,2.000000,2.000000,0.000000,4.000000,2.000000,2.000000,0.000000,0.000000,4.000000,4.000000,4.000000,4.000000,4.000000,4.000000,0.000000,,,,,,,,,,,,,,,,,6.000000,0.000000,0.512698,0.507751,-0.513245,0.464661,0.971310,0.000488,-0.038579,-34.654907,46.092873,30.970718
1732158486.652355,1732158486.656754,25.000000,0.000000,4280.641113,4263.333496,4292.051270,4289.487305,4265.000000,4279.743652,4326.538574,4397.179688,4307.179688,4295.641113,4498.205078,4506.922852,4371.282227,4421.410156,0.000000,1.000000,20.000000,,,,0.000000,2.000000,2.000000,0.000000,4.000000,2.000000,2.000000,0.000000,0.000000,4.000000,4.000000,4.000000,4.000000,4.000000,4.000000,0.000000,,,,,,,,,,,,,,,,,,,,,,,,,,,,
1732158486.660163,1732158486.664363,26.000000,0.000000,4283.333496,4262.563965,4295.512695,4292.692383,4266.025879,4281.922852,4330.000000,4396.153809,4302.051270,4293.974121,4496.922852,4506.666504,4373.333496,4423.589844,0.000000,1.000000,20.000000,,,,0.000000,2.000000,2.000000,0.000000,4.000000,2.000000,2.000000,0.000000,0.000000,4.000000,4.000000,4.000000,4.000000,4.000000,4.000000,0.000000,,,,,,,,,,,,,,,,,,,,,,,,,,,,
1732158486.667972,1732158486.672171,27.000000,0.000000,4281.922852,4263.974121,4298.077148,4295.128418,4267.051270,4280.512695,4334.358887,4397.948730,4301.282227,4286.794922,4490.512695,4505.769043,4362.051270,4417.692383,0.000000,1.000000,20.000000,,,,0.000000,2.000000,2.000000,0.000000,4.000000,2.000000,2.000000,0.000000,0.000000,4.000000,4.000000,4.000000,4.000000,4.000000,4.000000,0.000000,,,,,,,,,,,,,,,,,,,,,,,,,,,,
1732158486.675780,1732158486.679879,28.000000,0.000000,4280.897461,4259.743652,4302.307617,4287.179688,4266.282227,4279.487305,4333.461426,4399.871582,4295.641113,4280.897461,4485.641113,4504.102539,4353.205078,4413.205078,0.000000,1.000000,20.000000,,,,0.000000,2.000000,2.000000,0.000000,4.000000,2.000000,2.000000,0.000000,0.000000,4.000000,4.000000,4.000000,4.000000,4.000000,4.000000,0.000000,,,,,,,,,,,,,,,,,7.000000,0.000000,0.511335,0.505249,-0.516235,0.465576,0.968380,0.010743,-0.044439,-34.783806,46.086895,31.111282
1732158486.683588,1732158486.687687,29.000000,0.000000,4282.692383,4253.846191,4305.641113,4285.512695,4262.563965,4280.769043,4334.358887,4400.256348,4295.641113,4278.461426,4484.487305,4504.871582,4354.102539,4414.871582,0.000000,1.000000,20.000000,,,,0.000000,2.000000,2.000000,0.000000,4.000000,2.000000,2.000000,0.000000,0.000000,4.000000,4.000000,4.000000,4.000000,4.000000,4.000000,0.000000,,,,,,,,,,,,,,,,,,,,,,,,,,,,
1732158486.691396,1732158486.695296,30.000000,0.000000,4288.077148,4255.897461,4306.153809,4288.717773,4262.563965,4280.256348,4335.256348,4400.256348,4301.282227,4282.820313,4487.692383,4507.051270,4357.563965,4417.563965,0.000000,1.000000,20.000000,,,,0.000000,2.000000,2.000000,0.000000,4.000000,2.000000,2.000000,0.000000,0.000000,4.000000,4.000000,4.000000,4.000000,4.000000,4.000000,0.000000,,,,,,,,,,,,,,,,,,,,,,,,,,,,
1732158486.699205,1732158486.703104,31.000000,0.000000,4290.128418,4262.051270,4307.307617,4286.282227,4265.512695,4281.025879,4332.307617,4400.512695,4300.769043,4287.307617,4490.000000,4507.307617,4358.333496,4417.051270,0.000000,1.000000,20.000000,,,,0.000000,2.000000,2.000000,0.000000,4.000000,2.000000,2.000000,0.000000,0.000000,4.000000,4.000000,4.000000,4.000000,4.000000,4.000000,0.000000,,,,,,,,,,,,,,,,,,,,,,,,,,,,
1732158486.707013,1732158486.710812,32.000000,0.000000,4285.512695,4260.384766,4310.000000,4286.410156,4264.487305,4277.948730,4332.948730,4399.615234,4297.051270,4290.897461,4488.589844,4508.717773,4359.871582,4417.948730,0.000000,1.000000,20.000000,,,,0.000000,2.000000,2.000000,0.000000,4.000000,2.000000,2.000000,0.000000,0.000000,4.000000,4.000000,4.000000,4.000000,4.000000,4.000000,0.000000,,,,,,,,,,,,,,,,,8.000000,0.000000,0.511082,0.504456,-0.517151,0.465698,0.971310,0.023440,-0.047857,-34.729885,45.943718,31.058472
1732158486.714821,1732158486.718621,33.000000,0.000000,4281.410156,4254.358887,4309.230957,4287.307617,4260.641113,4269.615234,4334.871582,4399.615234,4296.153809,4293.974121,4490.897461,4510.897461,4362.948730,4422.179688,0.000000,1.000000,20.000000,,,,0.000000,2.000000,2.000000,0.000000,4.000000,2.000000,2.000000,0.000000,0.000000,4.000000,4.000000,4.000000,4.000000,4.000000,4.000000,0.000000,,,,,,,,,,,,,,,,,,,,,,,,,,,,
1732158486.722629,1732158486.726229,34.000000,0.000000,4282.820313,4257.563965,4306.922852,4281.538574,4258.333496,4268.205078,4334.743652,4401.153809,4298.461426,4294.487305,4493.846191,4513.077148,4359.615234,4423.077148,0.000000,1.000000,20.000000,,,,0.000000,2.000000,2.000000,0.000000,4.000000,2.000000,2.000000,0.000000,0.000000,4.000000,4.000000,4.000000,4.000000,4.000000,4.000000,0.000000,,,,,,,,,,,,,,,,,,,,,,,,,,,,
1732158486.730438,1732158486.734037,35.000000,0.000000,4285.512695,4263.077148,4310.641113,4281.666504,4260.512695,4274.358887,4335.000000,4399.743652,4297.692383,4293.974121,4489.871582,4511.153809,4350.769043,4416.410156,0.000000,1.000000,20.000000,,,,0.000000,2.000000,2.000000,0.000000,4.000000,2.000000,2.000000,0.000000,0.000000,4.000000,4.000000,4.000000,4.000000,4.000000,4.000000,0.000000,,,,,,,,,,,,,,,,,,,,,,,,,,,,
1732158486.738246,1732158486.741746,36.000000,0.000000,4289.102539,4263.461426,4313.974121,4292.179688,4262.563965,4277.179688,4334.358887,4398.717773,4297.692383,4292.563965,4490.000000,4512.051270,4351.410156,4414.871582,0.000000,1.000000,20.000000,,,,0.000000,2.000000,2.000000,0.000000,4.000000,2.000000,2.000000,0.000000,0.000000,4.000000,4.000000,4.000000,4.000000,4.000000,4.000000,0.000000,,,,,,,,,,,,,,,,,9.000000,0.000000,0.510880,0.503174,-0.518433,0.465881,0.975217,0.056648,-0.051276,-34.769539,45.986076,31.099030
1732158486.746054,1732158486.749554,37.000000,0.000000,4291.538574,4263.846191,4313.461426,4295.000000,4260.128418,4276.538574,4333.846191,4400.641113,4302.692383,4294.358887,4494.358887,4516.538574,4358.974121,4422.948730,0.000000,1.000000,20.000000,,,,0.000000,2.000000,2.000000,0.000000,4.000000,2.000000,2.000000,0.000000,0.000000,4.000000,4.000000,4.000000,4.000000,4.000000,4.000000,0.000000,,,,,,,,,,,,,,,,,,,,,,,,,,,,
1732158486.753863,1732158486.757162,38.000000,0.000000,4294.102539,4265.384766,4313.461426,4294.102539,4259.487305,4277.692383,4335.897461,4401.025879,4306.666504,4298.974121,4491.922852,4516.282227,4361.410156,4425.897461,0.000000,1.000000,20.000000,,,,0.000000,2.000000,2.000000,0.000000,4.000000,2.000000,2.000000,0.000000,0.000000,4.000000,4.000000,4.000000,4.000000,4.000000,4.000000,0.000000,,,,,,,,,,,,,,,,,,,,,,,,,,,,
1732158486.761671,1732158486.764970,39.000000,0.000000,4292.563965,4262.307617,4315.384766,4295.512695,4262.179688,4278.077148,4336.153809,4403.589844,4312.820313,4295.512695,4489.615234,4514.743652,4358.205078,4422.051270,0.000000,1.000000,20.000000,,,,0.000000,2.000000,2.000000,0.000000,4.000000,2.000000,2.000000,0.000000,0.000000,4.000000,4.000000,4.000000,4.000000,4.000000,4.000000,0.000000,,,,,,,,,,,,,,,,,,,,,,,,,,,,
1732158486.769479,1732158486.772679,40.000000,0.000000,4286.666504,4262.563965,4314.743652,4294.487305,4261.282227,4278.461426,4334.615234,4408.717773,4311.794922,4281.922852,4490.512695,4513.461426,4351.922852,4417.436035,0.000000,1.000000,20.000000,,,,0.000000,2.000000,2.000000,0.000000,4.000000,2.000000,2.000000,0.000000,0.000000,4.000000,4.000000,4.000000,4.000000,4.000000,4.000000,0.000000,,,,,,,,,,,,,,,,,10.000000,0.000000,0.509803,0.502625,-0.518982,0.467041,0.975217,0.053229,-0.044439,-34.734993,45.870388,30.981880
1732158486.777287,1732158486.780487,41.000000,0.000000,4283.205078,4262.948730,4312.948730,4292.563965,4258.333496,4280.512695,4334.871582,4405.897461,4298.846191,4278.717773,4484.487305,4514.487305,4349.871582,4413.974121,0.000000,1.000000,20.000000,,,,0.000000,2.000000,2.000000,0.000000,4.000000,2.000000,2.000000,0.000000,0.000000,4.000000,4.000000,4.000000,4.000000,4.000000,4.000000,0.000000,,,,,,,,,,,,,,,,,,,,,,,,,,,,
1732158486.785095,1732158486.788095,42.000000,0.000000,4285.128418,4252.948730,4314.487305,4289.743652,4260.897461,4281.282227,4335.128418,4401.282227,4299.743652,4291.538574,4480.384766,4513.077148,4350.256348,4415.769043,0.000000,1.000000,20.000000,,,,0.000000,2.000000,2.000000,0.000000,4.000000,2.000000,2.000000,0.000000,0.000000,4.000000,4.000000,4.000000,4.000000,4.000000,4.000000,0.000000,,,,,,,,,,,,,,,,,,,,,,,,,,,,
1732158486.792904,1732158486.795903,43.000000,0.000000,4290.000000,4254.358887,4315.256348,4292.051270,4257.051270,4281.410156,4334.871582,4402.820313,4311.794922,4293.461426,4488.717773,4512.820313,4349.871582,4420.256348,0.000000,1.000000,20.000000,,,,0.000000,2.000000,2.000000,0.000000,4.000000,2.000000,2.000000,0.000000,0.000000,4.000000,4.000000,4.000000,4.000000,4.000000,4.000000,0.000000,,,,,,,,,,,,,,,,,,,,,,,,,,,,
1732158486.800712,1732158486.803612,44.000000,0.000000,4294.615234,4271.025879,4314.102539,4295.512695,4260.256348,4279.230957,4334.871582,4403.717773,4308.717773,4284.615234,4494.230957,4514.358887,4349.615234,4420.384766,0.000000,1.000000,20.000000,,,,0.000000,2.000000,2.000000,0.000000,4.000000,2.000000,2.000000,0.000000,0.000000,4.000000,4.000000,4.000000,4.000000,4.000000,4.000000,0.000000,,,,,,,,,,,,,,,,,11.000000,0.000000,0.509598,0.502441,-0.518921,0.467529,0.986937,0.030765,-0.048834,-34.655346,45.825016,30.843657
1732158486.808520,1732158486.811420,45.000000,0.000000,4296.410156,4278.589844,4317.692383,4296.538574,4278.205078,4277.436035,4334.871582,4401.282227,4296.538574,4278.589844,4484.230957,4515.384766,4346.666504,4418.077148,0.000000,1.000000,20.000000,,,,0.000000,2.000000,2.000000,0.000000,4.000000,2.000000,2.000000,0.000000,0.000000,4.000000,4.000000,4.000000,4.000000,4.000000,4.000000,0.000000,,,,,,,,,,,,,,,,,,,,,,,,,,,,
1732158486.816328,1732158486.819428,46.000000,0.000000,4298.974121,4281.794922,4321.153809,4303.589844,4270.769043,4278.717773,4334.615234,4400.256348,4290.897461,4270.256348,4475.128418,4516.282227,4337.051270,4419.615234,0.000000,1.000000,20.000000,,,,0.000000,2.000000,2.000000,0.000000,4.000000,2.000000,2.000000,0.000000,0.000000,4.000000,4.000000,4.000000,4.000000,4.000000,4.000000,0.000000,,,,,,,,,,,,,,,,,,,,,,,,,,,,
1732158486.824137,1732158486.827236,47.000000,0.000000,4309.230957,4295.000000,4320.897461,4313.589844,4243.205078,4278.717773,4334.743652,4402.820313,4289.487305,4263.846191,4476.666504,4516.666504,4331.410156,4425.128418,0.000000,1.000000,20.000000,,,,0.000000,2.000000,2.000000,0.000000,4.000000,2.000000,2.000000,0.000000,0.000000,4.000000,4.000000,4.000000,4.000000,4.000000,4.000000,0.000000,,,,,,,,,,,,,,,,,,,,,,,,,,,,
1732158486.831945,1732158486.835144,48.000000,0.000000,4314.743652,4302.307617,4320.641113,4315.128418,4242.563965,4274.358887,4335.641113,4405.256348,4289.871582,4264.102539,4475.641113,4519.743652,4335.641113,4430.641113,0.000000,1.000000,20.000000,,,,0.000000,2.000000,2.000000,0.000000,4.000000,2.000000,2.000000,0.000000,0.000000,4.000000,4.000000,4.000000,4.000000,4.000000,4.000000,0.000000,,,,,,,,,,,,,,,,,12.000000,0.000000,0.508827,0.501770,-0.519226,0.468750,0.980100,0.021487,-0.052741,-34.850830,45.823261,30.921696
1732158486.839753,1732158486.842953,49.000000,0.000000,4304.871582,4295.256348,4322.820313,4307.692383,4253.589844,4271.282227,4334.230957,4407.436035,4291.538574,4263.205078,4472.179688,4520.256348,4333.974121,4426.153809,0.000000,1.000000,20.000000,,,,0.000000,2.000000,2.000000,0.000000,4.000000,2.000000,2.000000,0.000000,0.000000,4.000000,4.000000,4.000000,4.000000,4.000000,4.000000,0.000000,,,,,,,,,,,,,,,,,,,,,,,,,,,,
1732158486.847561,1732158486.850561,50.000000,0.000000,4303.333496,4292.692383,4323.205078,4306.666504,4248.974121,4274.743652,4335.128418,4409.102539,4291.153809,4260.897461,4473.461426,4515.128418,4327.051270,4415.769043,0.000000,1.000000,20.000000,,,,0.000000,2.000000,2.000000,0.000000,4.000000,2.000000,2.000000,0.000000,0.000000,4.000000,4.000000,4.000000,4.000000,4.000000,4.000000,0.000000,,,,,,,,,,,,,,,,,,,,,,,,,,,,
1732158486.855370,1732158486.858369,51.000000,0.000000,4309.102539,4295.897461,4321.153809,4308.333496,4250.769043,4279.487305,4341.025879,4409.487305,4296.538574,4263.205078,4470.897461,4512.436035,4322.563965,4412.563965,0.000000,1.000000,20.000000,,,,0.000000,2.000000,2.000000,0.000000,4.000000,2.000000,2.000000,0.000000,0.000000,4.000000,4.000000,4.000000,4.000000,4.000000,4.000000,0.000000,,,,,,,,,,,,,,,,,,,,,,,,,,,,
1732158486.863178,1732158486.866077,52.000000,0.000000,4305.384766,4294.871582,4321.794922,4305.512695,4258.077148,4277.692383,4342.820313,4409.102539,4294.102539,4264.358887,4462.563965,4516.794922,4320.897461,4413.461426,0.000000,1.000000,20.000000,,,,0.000000,2.000000,2.000000,0.000000,4.000000,2.000000,2.000000,0.000000,0.000000,4.000000,4.000000,4.000000,4.000000,4.000000,4.000000,0.000000,,,,,,,,,,,,,,,,,13.000000,0.000000,0.506975,0.499512,-0.521057,0.471130,0.976193,0.003418,-0.050787,-34.697506,45.746841,30.829906
1732158486.870986,1732158486.873886,53.000000,0.000000,4302.563965,4292.563965,4323.205078,4303.333496,4258.205078,4273.461426,4337.051270,4408.461426,4280.769043,4259.358887,4459.871582,4515.897461,4319.871582,4411.922852,0.000000,1.000000,20.000000,,,,0.000000,2.000000,2.000000,0.000000,4.000000,2.000000,2.000000,0.000000,0.000000,4.000000,4.000000,4.000000,4.000000,4.000000,4.000000,0.000000,,,,,,,,,,,,,,,,,,,,,,,,,,,,
1732158486.878794,1732158486.881494,54.000000,0.000000,4308.461426,4292.948730,4325.384766,4306.922852,4262.692383,4273.077148,4334.102539,4406.282227,4283.717773,4259.871582,4463.974121,4513.589844,4322.948730,4414.743652,0.000000,1.000000,20.000000,,,,0.000000,2.000000,2.000000,0.000000,4.000000,2.000000,2.000000,0.000000,0.000000,4.000000,4.000000,4.000000,4.000000,4.000000,4.000000,0.000000,,,,,,,,,,,,,,,,,,,,,,,,,,,,
1732158486.886603,1732158486.889302,55.000000,0.000000,4306.410156,4292.692383,4325.384766,4307.820313,4263.461426,4276.282227,4337.948730,4403.461426,4295.512695,4267.948730,4468.589844,4516.666504,4330.641113,4416.538574,0.000000,1.000000,20.000000,,,,0.000000,2.000000,2.000000,0.000000,4.000000,2.000000,2.000000,0.000000,0.000000,4.000000,4.000000,4.000000,4.000000,4.000000,4.000000,0.000000,,,,,,,,,,,,,,,,,,,,,,,,,,,,
1732158486.894411,1732158486.897210,56.000000,0.000000,4299.615234,4288.846191,4323.589844,4300.641113,4260.128418,4278.205078,4340.641113,4409.230957,4296.153809,4269.615234,4470.897461,4516.538574,4331.410156,4412.820313,0.000000,1.000000,20.000000,,,,0.000000,2.000000,2.000000,0.000000,4.000000,2.000000,2.000000,0.000000,0.000000,4.000000,4.000000,4.000000,4.000000,4.000000,4.000000,0.000000,,,,,,,,,,,,,,,,,14.000000,0.000000,0.506256,0.498413,-0.522034,0.471985,1.003052,-0.004883,-0.037602,-34.923313,45.768276,31.005558
1732158486.902219,1732158486.905019,57.000000,0.000000,4303.974121,4289.871582,4323.589844,4301.282227,4262.436035,4277.051270,4339.743652,4412.692383,4294.487305,4266.538574,4471.538574,4518.205078,4330.384766,4418.461426,0.000000,1.000000,20.000000,,,,0.000000,2.000000,2.000000,0.000000,4.000000,2.000000,2.000000,0.000000,0.000000,4.000000,4.000000,4.000000,4.000000,4.000000,4.000000,0.000000,,,,,,,,,,,,,,,,,,,,,,,,,,,,
1732158486.910027,1732158486.913027,58.000000,0.000000,4310.512695,4295.512695,4323.974121,4308.205078,4265.384766,4276.794922,4339.230957,4405.384766,4296.666504,4270.897461,4472.820313,4525.000000,4333.461426,4428.589844,0.000000,1.000000,20.000000,,,,0.000000,2.000000,2.000000,0.000000,4.000000,2.000000,2.000000,0.000000,0.000000,4.000000,4.000000,4.000000,4.000000,4.000000,4.000000,0.000000,,,,,,,,,,,,,,,,,,,,,,,,,,,,
1732158486.917836,1732158486.920835,59.000000,0.000000,4310.769043,4296.410156,4322.179688,4309.743652,4263.589844,4278.077148,4340.128418,4404.102539,4294.487305,4272.563965,4473.077148,4521.794922,4336.410156,4428.077148,0.000000,1.000000,20.000000,,,,0.000000,2.000000,2.000000,0.000000,4.000000,2.000000,2.000000,0.000000,0.000000,4.000000,4.000000,4.000000,4.000000,4.000000,4.000000,0.000000,,,,,,,,,,,,,,,,,,,,,,,,,,,,
1732158486.925644,1732158486.928743,60.000000,0.000000,4309.230957,4293.077148,4323.333496,4305.897461,4264.487305,4278.205078,4340.641113,4411.282227,4291.153809,4262.948730,4470.128418,4512.436035,4332.179688,4422.948730,0.000000,1.000000,20.000000,,,,0.000000,2.000000,2.000000,0.000000,4.000000,2.000000,2.000000,0.000000,0.000000,4.000000,4.000000,4.000000,4.000000,4.000000,4.000000,0.000000,,,,,,,,,,,,,,,,,15.000000,0.000000,0.506062,0.497803,-0.522583,0.472229,1.003052,-0.004883,-0.037602,-35.032883,45.780636,31.067835
1732158486.933452,1732158486.936551,61.000000,0.000000,4307.692383,4293.717773,4327.436035,4304.871582,4263.974121,4279.230957,4340.000000,4411.410156,4295.128418,4261.282227,4472.948730,4517.436035,4329.615234,4425.641113,0.000000,1.000000,20.000000,,,,0.000000,2.000000,2.000000,0.000000,4.000000,2.000000,2.000000,0.000000,0.000000,4.000000,4.000000,4.000000,4.000000,4.000000,4.000000,0.000000,,,,,,,,,,,,,,,,,,,,,,,,,,,,
1732158486.941260,1732158486.944559,62.000000,0.000000,4308.077148,4297.563965,4326.794922,4309.871582,4263.461426,4280.512695,4340.128418,4406.922852,4295.512695,4265.512695,4474.102539,4521.922852,4334.102539,4430.000000,0.000000,1.000000,20.000000,,,,0.000000,2.000000,2.000000,0.000000,4.000000,2.000000,2.000000,0.000000,0.000000,4.000000,4.000000,4.000000,4.000000,4.000000,4.000000,0.000000,,,,,,,,,,,,,,,,,,,,,,,,,,,,
1732158486.949069,1732158486.952367,63.000000,0.000000,4310.769043,4299.487305,4325.384766,4312.179688,4267.820313,4280.128418,4340.641113,4408.205078,4285.512695,4261.922852,4462.436035,4517.436035,4335.128418,4428.333496,0.000000,1.000000,20.000000,,,,0.000000,2.000000,2.000000,0.000000,4.000000,2.000000,2.000000,0.000000,0.000000,4.000000,4.000000,4.000000,4.000000,4.000000,4.000000,0.000000,,,,,,,,,,,,,,,,,,,,,,,,,,,,
1732158486.956877,1732158486.960275,64.000000,0.000000,4311.153809,4298.974121,4325.769043,4310.128418,4262.051270,4276.794922,4340.256348,4408.333496,4277.820313,4260.769043,4460.769043,4518.333496,4336.794922,4427.436035,0.000000,1.000000,20.000000,,,,0.000000,2.000000,2.000000,0.000000,4.000000,2.000000,2.000000,0.000000,0.000000,4.000000,4.000000,4.000000,4.000000,4.000000,4.000000,0.000000,,,,,,,,,,,,,,,,,16.000000,0.000000,0.504734,0.495605,-0.524902,0.473389,0.979612,-0.007813,-0.047369,-35.029968,45.818981,31.346613
1732158486.964685,1732158486.968084,65.000000,0.000000,4309.615234,4296.410156,4323.717773,4308.205078,4250.769043,4272.692383,4339.871582,4408.461426,4285.384766,4264.743652,4473.205078,4518.589844,4340.512695,4429.358887,1616.000000,1.000000,20.000000,,,,0.000000,2.000000,2.000000,0.000000,4.000000,2.000000,2.000000,0.000000,0.000000,4.000000,4.000000,4.000000,4.000000,4.000000,4.000000,0.000000,,,,,,,,,,,,,,,,,,,,,,,,,,,,
1732158486.972494,1732158486.976092,66.000000,0.000000,4310.897461,4297.692383,4322.436035,4308.846191,4252.051270,4271.025879,4341.025879,4408.333496,4293.589844,4267.563965,4478.077148,4512.563965,4346.025879,4432.436035,1361.000000,1.000000,20.000000,,,,0.000000,2.000000,2.000000,0.000000,4.000000,2.000000,2.000000,0.000000,0.000000,4.000000,4.000000,4.000000,4.000000,4.000000,4.000000,0.000000,,,,,,,,,,,,,,,,,,,,,,,,,,,,
1732158486.980302,1732158486.983900,67.000000,0.000000,4311.538574,4300.512695,4323.589844,4306.025879,4255.512695,4269.615234,4338.589844,4405.128418,4287.179688,4267.563965,4472.820313,4513.077148,4349.871582,4429.743652,1432.000000,1.000000,20.000000,,,,0.000000,2.000000,2.000000,0.000000,4.000000,2.000000,2.000000,0.000000,0.000000,4.000000,4.000000,4.000000,4.000000,4.000000,4.000000,0.000000,,,,,,,,,,,,,,,,,,,,,,,,,,,,
1732158486.988110,1732158486.991808,68.000000,0.000000,4309.615234,4296.538574,4322.692383,4301.153809,4249.230957,4266.794922,4334.230957,4403.717773,4279.358887,4266.666504,4473.205078,4520.256348,4349.615234,4427.948730,1436.000000,1.000000,20.000000,,,,0.000000,2.000000,2.000000,0.000000,4.000000,2.000000,2.000000,0.000000,0.000000,4.000000,4.000000,4.000000,4.000000,4.000000,4.000000,0.000000,,,,,,,,,,,,,,,,,17.000000,0.000000,0.503842,0.493469,-0.527161,0.474060,0.978147,-0.010255,-0.056648,-35.004276,45.873375,31.407423
1732158486.995918,1732158486.999616,69.000000,0.000000,4313.717773,4297.436035,4326.794922,4301.666504,4247.692383,4264.871582,4335.512695,4405.128418,4279.615234,4264.487305,4476.025879,4521.538574,4350.384766,4435.384766,1199.000000,1.000000,20.000000,,,,0.000000,2.000000,2.000000,0.000000,4.000000,2.000000,2.000000,0.000000,0.000000,4.000000,4.000000,4.000000,4.000000,4.000000,4.000000,0.000000,,,,,,,,,,,,,,,,,,,,,,,,,,,,
1732158487.003726,1732158487.007624,70.000000,0.000000,4322.179688,4309.743652,4321.282227,4308.717773,4254.102539,4264.487305,4333.589844,4404.102539,4282.051270,4261.922852,4475.769043,4519.743652,4350.256348,4442.436035,0.000000,1.000000,20.000000,,,,0.000000,2.000000,2.000000,0.000000,4.000000,2.000000,2.000000,0.000000,0.000000,4.000000,4.000000,4.000000,4.000000,4.000000,4.000000,0.000000,,,,,,,,,,,,,,,,,,,,,,,,,,,,
1732158487.011535,1732158487.015432,71.000000,0.000000,4324.871582,4315.641113,4315.641113,4316.282227,4255.000000,4266.410156,4333.461426,4406.282227,4282.820313,4261.410156,4475.641113,4518.717773,4349.743652,4441.025879,0.000000,1.000000,20.000000,,,,0.000000,2.000000,2.000000,0.000000,4.000000,2.000000,2.000000,0.000000,0.000000,4.000000,4.000000,4.000000,4.000000,4.000000,4.000000,0.000000,,,,,,,,,,,,,,,,,,,,,,,,,,,,
1732158487.019343,1732158487.023341,72.000000,0.000000,4326.666504,4309.871582,4345.128418,4309.743652,4251.153809,4268.077148,4347.820313,4414.871582,4280.128418,4260.512695,4475.000000,4522.563965,4354.743652,4445.512695,1539.000000,1.000000,20.000000,,,,0.000000,2.000000,2.000000,0.000000,4.000000,2.000000,2.000000,0.000000,0.000000,4.000000,4.000000,4.000000,4.000000,4.000000,4.000000,0.000000,,,,,,,,,,,,,,,,,18.000000,0.000000,0.503229,0.492188,-0.528503,0.474548,0.980100,-0.011720,-0.057624,-34.998463,45.832436,31.355013
1732158487.027151,1732158487.031149,73.000000,0.000000,4331.922852,4308.589844,4367.436035,4297.179688,4243.333496,4259.615234,4353.589844,4417.179688,4276.794922,4260.384766,4479.358887,4534.871582,4363.077148,4456.410156,1713.000000,1.000000,20.000000,,,,0.000000,2.000000,2.000000,0.000000,4.000000,2.000000,2.000000,0.000000,0.000000,4.000000,4.000000,4.000000,4.000000,4.000000,4.000000,0.000000,,,,,,,,,,,,,,,,,,,,,,,,,,,,
1732158487.034959,1732158487.038757,74.000000,0.000000,4339.743652,4313.974121,4337.436035,4300.256348,4240.128418,4251.153809,4338.589844,4411.666504,4277.948730,4263.589844,4488.717773,4538.333496,4368.717773,4460.769043,1559.000000,1.000000,20.000000,,,,0.000000,2.000000,2.000000,0.000000,4.000000,2.000000,2.000000,0.000000,0.000000,4.000000,4.000000,4.000000,4.000000,4.000000,4.000000,0.000000,,,,,,,,,,,,,,,,,,,,,,,,,,,,
1732158487.042768,1732158487.046565,75.000000,0.000000,4346.922852,4317.692383,4308.461426,4313.589844,4245.897461,4259.230957,4331.025879,4403.589844,4282.307617,4266.282227,4492.307617,4529.487305,4378.974121,4467.820313,1553.000000,1.000000,20.000000,,,,0.000000,2.000000,2.000000,0.000000,4.000000,2.000000,2.000000,0.000000,0.000000,4.000000,4.000000,4.000000,4.000000,4.000000,4.000000,0.000000,,,,,,,,,,,,,,,,,,,,,,,,,,,,
1732158487.050576,1732158487.054274,76.000000,0.000000,4347.051270,4319.230957,4315.897461,4309.743652,4248.461426,4265.897461,4335.769043,4403.333496,4282.948730,4267.692383,4488.974121,4525.641113,4387.307617,4477.948730,1705.000000,1.000000,20.000000,,,,0.000000,2.000000,2.000000,0.000000,4.000000,2.000000,2.000000,0.000000,0.000000,4.000000,4.000000,4.000000,4.000000,4.000000,4.000000,0.000000,,,,,,,,,,,,,,,,,19.000000,0.000000,0.502772,0.491638,-0.529175,0.474854,0.968380,-0.019045,-0.061043,-35.220421,46.054272,31.160894
1732158487.058384,1732158487.062082,77.000000,0.000000,4344.743652,4317.436035,4318.846191,4299.230957,4246.153809,4260.256348,4335.000000,4407.051270,4281.922852,4269.615234,4494.615234,4528.846191,4385.256348,4477.051270,1588.000000,1.000000,20.000000,,,,0.000000,2.000000,2.000000,0.000000,4.000000,2.000000,2.000000,0.000000,0.000000,4.000000,4.000000,4.000000,4.000000,4.000000,4.000000,0.000000,,,,,,,,,,,,,,,,,,,,,,,,,,,,
1732158487.066193,1732158487.069690,78.000000,0.000000,4349.102539,4316.410156,4313.077148,4302.820313,4246.794922,4260.000000,4333.077148,4406.282227,4281.282227,4266.025879,4505.512695,4528.974121,4391.410156,4473.974121,1559.000000,1.000000,20.000000,,,,0.000000,2.000000,2.000000,0.000000,4.000000,2.000000,2.000000,0.000000,0.000000,4.000000,4.000000,4.000000,4.000000,4.000000,4.000000,0.000000,1.000000,0.000000,2.000000,2.000000,0.000000,4.000000,2.000000,1.000000,0.000000,0.000000,4.000000,4.000000,4.000000,4.000000,4.000000,4.000000,,,,,,,,,,,,
1732158487.074001,1732158487.077498,79.000000,0.000000,4351.922852,4317.051270,4314.358887,4304.230957,4247.436035,4264.871582,4335.000000,4403.333496,4281.410156,4261.410156,4506.153809,4531.794922,4403.461426,4478.077148,1553.000000,1.000000,20.000000,,,,0.000000,2.000000,2.000000,0.000000,4.000000,2.000000,2.000000,0.000000,0.000000,4.000000,4.000000,4.000000,4.000000,4.000000,4.000000,0.000000,,,,,,,,,,,,,,,,,,,,,,,,,,,,
1732158487.081809,1732158487.085207,80.000000,0.000000,4344.871582,4312.051270,4313.589844,4294.871582,4240.512695,4258.974121,4334.871582,4400.897461,4283.589844,4270.512695,4502.563965,4533.974121,4403.205078,4477.307617,1705.000000,1.000000,20.000000,,,,0.000000,2.000000,2.000000,0.000000,4.000000,2.000000,2.000000,0.000000,0.000000,4.000000,4.000000,4.000000,4.000000,4.000000,4.000000,0.000000,,,,,,,,,,,,,,,,,20.000000,0.000000,0.502047,0.488586,-0.531860,0.475769,0.980100,-0.015139,-0.054694,-35.181873,45.812294,31.205324
1732158487.089617,1732158487.093015,81.000000,0.000000,4338.974121,4310.897461,4313.077148,4291.538574,4231.922852,4248.717773,4334.743652,4400.897461,4283.333496,4280.641113,4505.256348,4526.538574,4404.230957,4474.871582,1588.000000,1.000000,20.000000,,,,0.000000,2.000000,2.000000,0.000000,4.000000,2.000000,2.000000,0.000000,0.000000,4.000000,4.000000,4.000000,4.000000,4.000000,4.000000,0.000000,,,,,,,,,,,,,,,,,,,,,,,,,,,,
1732158487.097425,1732158487.100623,82.000000,0.000000,4341.922852,4317.436035,4315.384766,4294.615234,4231.282227,4247.179688,4334.871582,4401.922852,4277.948730,4278.333496,4510.128418,4525.384766,4415.128418,4482.051270,1559.000000,1.000000,20.000000,,,,0.000000,2.000000,2.000000,0.000000,4.000000,2.000000,2.000000,0.000000,0.000000,4.000000,4.000000,4.000000,4.000000,4.000000,4.000000,0.000000,,,,,,,,,,,,,,,,,,,,,,,,,,,,
1732158487.105234,1732158487.108432,83.000000,0.000000,4349.230957,4319.615234,4314.615234,4296.538574,4239.615234,4257.179688,4334.871582,4404.358887,4279.358887,4279.102539,4511.794922,4538.205078,4421.794922,4490.769043,1553.000000,1.000000,20.000000,,,,0.000000,2.000000,2.000000,0.000000,4.000000,2.000000,2.000000,0.000000,0.000000,4.000000,4.000000,4.000000,4.000000,4.000000,4.000000,0.000000,,,,,,,,,,,,,,,,,,,,,,,,,,,,
1732158487.113042,1732158487.116140,84.000000,0.000000,4352.563965,4321.794922,4314.102539,4295.128418,4241.794922,4264.487305,4334.871582,4408.205078,4286.666504,4284.615234,4511.153809,4542.179688,4420.256348,4490.769043,1705.000000,1.000000,20.000000,,,,0.000000,2.000000,2.000000,0.000000,4.000000,2.000000,2.000000,0.000000,0.000000,4.000000,4.000000,4.000000,4.000000,4.000000,4.000000,0.000000,,,,,,,,,,,,,,,,,21.000000,0.000000,0.501836,0.487122,-0.533020,0.476196,0.972775,-0.045904,-0.044927,-35.425652,45.624626,31.274645
1732158487.120850,1732158487.123948,85.000000,0.000000,4347.820313,4334.615234,4316.922852,4287.692383,4234.615234,4255.769043,4334.871582,4407.948730,4285.769043,4282.820313,4507.948730,4527.436035,4418.077148,4480.256348,1588.000000,1.000000,20.000000,,,,0.000000,2.000000,2.000000,0.000000,4.000000,2.000000,2.000000,0.000000,0.000000,4.000000,4.000000,4.000000,4.000000,4.000000,4.000000,0.000000,,,,,,,,,,,,,,,,,,,,,,,,,,,,
1732158487.128658,1732158487.131557,86.000000,0.000000,4343.077148,4347.563965,4316.538574,4279.871582,4231.538574,4247.436035,4334.871582,4404.358887,4280.641113,4283.205078,4508.205078,4522.820313,4419.615234,4480.769043,1559.000000,1.000000,20.000000,,,,0.000000,2.000000,2.000000,0.000000,4.000000,2.000000,2.000000,0.000000,0.000000,4.000000,4.000000,4.000000,4.000000,4.000000,4.000000,0.000000,,,,,,,,,,,,,,,,,,,,,,,,,,,,
1732158487.136467,1732158487.139365,87.000000,0.000000,4342.820313,4351.922852,4313.974121,4280.769043,4232.948730,4253.461426,4334.871582,4402.563965,4281.153809,4288.077148,4510.000000,4531.025879,4420.384766,4487.563965,1553.000000,1.000000,20.000000,,,,0.000000,2.000000,2.000000,0.000000,4.000000,2.000000,2.000000,0.000000,0.000000,4.000000,4.000000,4.000000,4.000000,4.000000,4.000000,0.000000,,,,,,,,,,,,,,,,,,,,,,,,,,,,
1732158487.144275,1732158487.147073,88.000000,0.000000,4341.538574,4350.384766,4316.025879,4281.153809,4233.205078,4257.051270,4334.871582,4403.846191,4282.436035,4286.666504,4506.538574,4530.641113,4418.205078,4481.538574,1705.000000,1.000000,20.000000,,,,0.000000,2.000000,2.000000,0.000000,4.000000,2.000000,2.000000,0.000000,0.000000,4.000000,4.000000,4.000000,4.000000,4.000000,4.000000,0.000000,,,,,,,,,,,,,,,,,22.000000,0.000000,0.501836,0.487122,-0.533020,0.476196,0.978147,-0.027835,-0.051764,-35.593113,45.472614,31.210796
1732158487.152083,1732158487.154881,89.000000,0.000000,4340.769043,4350.256348,4316.153809,4278.589844,4232.307617,4250.641113,4334.871582,4404.743652,4281.282227,4279.102539,4505.256348,4525.897461,4421.282227,4478.461426,1588.000000,1.000000,20.000000,,,,0.000000,2.000000,2.000000,0.000000,4.000000,2.000000,2.000000,0.000000,0.000000,4.000000,4.000000,4.000000,4.000000,4.000000,4.000000,0.000000,,,,,,,,,,,,,,,,,,,,,,,,,,,,
1732158487.159891,1732158487.162490,90.000000,0.000000,4342.820313,4356.794922,4312.820313,4280.641113,4233.717773,4249.102539,4334.871582,4404.102539,4280.769043,4282.563965,4511.025879,4529.230957,4423.077148,4487.820313,1559.000000,1.000000,20.000000,,,,0.000000,2.000000,2.000000,0.000000,4.000000,2.000000,2.000000,0.000000,0.000000,4.000000,4.000000,4.000000,4.000000,4.000000,4.000000,0.000000,,,,,,,,,,,,,,,,,,,,,,,,,,,,
1732158487.167700,1732158487.170298,91.000000,0.000000,4342.179688,4358.205078,4314.743652,4281.153809,4235.769043,4249.358887,4334.871582,4403.717773,4279.743652,4292.948730,4510.769043,4532.436035,4418.717773,4491.666504,1553.000000,1.000000,20.000000,,,,0.000000,2.000000,2.000000,0.000000,4.000000,2.000000,2.000000,0.000000,0.000000,4.000000,4.000000,4.000000,4.000000,4.000000,4.000000,0.000000,,,,,,,,,,,,,,,,,,,,,,,,,,,,
1732158487.175508,1732158487.178006,92.000000,0.000000,4340.256348,4353.717773,4316.794922,4281.794922,4233.205078,4248.717773,4334.871582,4404.230957,4282.179688,4288.461426,4505.384766,4532.179688,4422.436035,4487.692383,1705.000000,1.000000,20.000000,,,,0.000000,2.000000,2.000000,0.000000,4.000000,2.000000,2.000000,0.000000,0.000000,4.000000,4.000000,4.000000,4.000000,4.000000,4.000000,0.000000,,,,,,,,,,,,,,,,,23.000000,0.000000,0.501912,0.484497,-0.534302,0.477356,0.979123,-0.019534,-0.035161,-35.705421,45.509483,31.197412
1732158487.183316,1732158487.185814,93.000000,0.000000,4342.948730,4356.794922,4314.230957,4289.230957,4235.641113,4250.641113,4334.871582,4403.461426,4287.179688,4281.538574,4515.128418,4536.410156,4428.333496,4491.025879,1588.000000,1.000000,20.000000,,,,0.000000,2.000000,2.000000,0.000000,4.000000,2.000000,2.000000,0.000000,0.000000,4.000000,4.000000,4.000000,4.000000,4.000000,4.000000,0.000000,,,,,,,,,,,,,,,,,,,,,,,,,,,,
1732158487.191125,1732158487.193423,94.000000,0.000000,4341.794922,4356.666504,4314.487305,4288.589844,4253.717773,4250.000000,4334.871582,4400.641113,4288.077148,4285.256348,4523.461426,4537.307617,4422.436035,4489.102539,1559.000000,1.000000,20.000000,,,,0.000000,2.000000,2.000000,0.000000,4.000000,2.000000,2.000000,0.000000,0.000000,4.000000,4.000000,4.000000,4.000000,4.000000,4.000000,0.000000,,,,,,,,,,,,,,,,,,,,,,,,,,,,
1732158487.198933,1732158487.201231,95.000000,0.000000,4334.615234,4350.512695,4316.025879,4282.436035,4257.051270,4247.307617,4334.871582,4400.641113,4289.487305,4289.102539,4511.666504,4534.102539,4416.153809,4479.487305,1553.000000,1.000000,20.000000,,,,0.000000,2.000000,2.000000,0.000000,4.000000,2.000000,2.000000,0.000000,0.000000,4.000000,4.000000,4.000000,4.000000,4.000000,4.000000,0.000000,,,,,,,,,,,,,,,,,,,,,,,,,,,,
1732158487.206741,1732158487.208939,96.000000,0.000000,4336.153809,4348.077148,4315.000000,4289.230957,4234.358887,4249.230957,4334.615234,4403.589844,4295.000000,4290.384766,4505.897461,4536.922852,4419.230957,4480.128418,1705.000000,1.000000,20.000000,,,,0.000000,2.000000,2.000000,0.000000,4.000000,2.000000,2.000000,0.000000,0.000000,4.000000,4.000000,4.000000,4.000000,4.000000,4.000000,0.000000,,,,,,,,,,,,,,,,,24.000000,0.000000,0.502273,0.483093,-0.534851,0.477783,0.998169,-0.030277,-0.024905,-35.539722,45.054348,31.264904
1732158487.214549,1732158487.216748,97.000000,0.000000,4343.589844,4348.846191,4313.717773,4294.102539,4224.871582,4252.179688,4335.000000,4402.179688,4297.436035,4295.641113,4516.794922,4540.769043,4421.538574,4484.230957,1588.000000,1.000000,20.000000,,,,0.000000,2.000000,2.000000,0.000000,4.000000,2.000000,2.000000,0.000000,0.000000,4.000000,4.000000,4.000000,4.000000,4.000000,4.000000,0.000000,,,,,,,,,,,,,,,,,,,,,,,,,,,,
1732158487.222357,1732158487.224356,98.000000,0.000000,4341.025879,4345.000000,4313.333496,4282.179688,4240.256348,4250.512695,4335.000000,4401.410156,4292.692383,4296.410156,4514.871582,4533.205078,4416.282227,4479.102539,1559.000000,1.000000,20.000000,,,,0.000000,2.000000,2.000000,0.000000,4.000000,2.000000,2.000000,0.000000,0.000000,4.000000,4.000000,4.000000,4.000000,4.000000,4.000000,0.000000,,,,,,,,,,,,,,,,,,,,,,,,,,,,
1732158487.230166,1732158487.232164,99.000000,0.000000,4336.922852,4343.589844,4314.358887,4278.333496,4249.487305,4251.794922,4334.102539,4402.563965,4290.000000,4291.538574,4506.282227,4530.641113,4412.563965,4474.102539,1553.000000,1.000000,20.000000,,,,0.000000,2.000000,2.000000,0.000000,4.000000,2.000000,2.000000,0.000000,0.000000,4.000000,4.000000,4.000000,4.000000,4.000000,4.000000,0.000000,,,,,,,,,,,,,,,,,,,,,,,,,,,,
1732158487.237974,1732158487.240072,100.000000,0.000000,4340.128418,4346.025879,4313.974121,4291.922852,4245.512695,4259.102539,4333.974121,4403.846191,4292.563965,4293.461426,4517.307617,4538.846191,4417.051270,4477.692383,1705.000000,1.000000,20.000000,,,,0.000000,2.000000,2.000000,0.000000,4.000000,2.000000,2.000000,0.000000,0.000000,4.000000,4.000000,4.000000,4.000000,4.000000,4.000000,0.000000,,,,,,,,,,,,,,,,,25.000000,0.000000,0.502414,0.482239,-0.535217,0.478088,0.985960,-0.012697,-0.030765,-35.570511,44.872356,31.164572
1732158487.245782,1732158487.247881,101.000000,0.000000,4339.358887,4345.384766,4313.205078,4299.102539,4248.333496,4263.461426,4335.512695,4407.179688,4297.051270,4296.922852,4525.512695,4540.128418,4417.820313,4477.179688,1588.000000,1.000000,20.000000,,,,0.000000,2.000000,2.000000,0.000000,4.000000,2.000000,2.000000,0.000000,0.000000,4.000000,4.000000,4.000000,4.000000,4.000000,4.000000,0.000000,,,,,,,,,,,,,,,,,,,,,,,,,,,,
1732158487.253590,1732158487.255489,102.000000,0.000000,4333.589844,4343.205078,4315.128418,4294.615234,4260.128418,4263.461426,4335.384766,4405.256348,4298.717773,4296.794922,4515.384766,4537.179688,4411.794922,4473.333496,1559.000000,1.000000,20.000000,,,,0.000000,2.000000,2.000000,0.000000,4.000000,2.000000,2.000000,0.000000,0.000000,4.000000,4.000000,4.000000,4.000000,4.000000,4.000000,0.000000,,,,,,,,,,,,,,,,,,,,,,,,,,,,
1732158487.261399,1732158487.263297,103.000000,0.000000,4332.820313,4341.666504,4317.563965,4291.922852,4264.487305,4262.692383,4333.205078,4401.666504,4292.692383,4294.871582,4513.846191,4538.333496,4413.077148,4476.153809,1553.000000,1.000000,20.000000,,,,0.000000,2.000000,2.000000,0.000000,4.000000,2.000000,2.000000,0.000000,0.000000,4.000000,4.000000,4.000000,4.000000,4.000000,4.000000,0.000000,,,,,,,,,,,,,,,,,,,,,,,,,,,,
1732158487.269207,1732158487.271205,104.000000,0.000000,4333.846191,4339.871582,4315.769043,4292.179688,4257.948730,4260.641113,4333.077148,4407.051270,4288.461426,4294.102539,4520.769043,4537.436035,4415.897461,4477.051270,1705.000000,1.000000,20.000000,,,,0.000000,2.000000,2.000000,0.000000,4.000000,2.000000,2.000000,0.000000,0.000000,4.000000,4.000000,4.000000,4.000000,4.000000,4.000000,0.000000,,,,,,,,,,,,,,,,,26.000000,0.000000,0.502628,0.481934,-0.535400,0.477966,0.985960,-0.012697,-0.030765,-35.367111,44.864941,31.418303
1732158487.277015,1732158487.279013,105.000000,0.000000,4334.358887,4340.512695,4314.358887,4295.128418,4259.358887,4262.820313,4334.102539,4413.717773,4290.769043,4295.512695,4513.589844,4539.871582,4406.922852,4474.615234,1588.000000,1.000000,20.000000,,,,0.000000,2.000000,2.000000,0.000000,4.000000,2.000000,2.000000,0.000000,0.000000,4.000000,4.000000,4.000000,4.000000,4.000000,4.000000,0.000000,,,,,,,,,,,,,,,,,,,,,,,,,,,,
1732158487.284824,1732158487.286622,106.000000,0.000000,4336.153809,4341.794922,4315.000000,4297.051270,4265.641113,4262.948730,4335.128418,4407.820313,4295.641113,4295.128418,4506.794922,4546.410156,4402.820313,4474.743652,1559.000000,1.000000,20.000000,,,,0.000000,2.000000,2.000000,0.000000,4.000000,2.000000,2.000000,0.000000,0.000000,4.000000,4.000000,4.000000,4.000000,4.000000,4.000000,0.000000,,,,,,,,,,,,,,,,,,,,,,,,,,,,
1732158487.292632,1732158487.294430,107.000000,0.000000,4335.128418,4337.820313,4318.077148,4290.897461,4259.102539,4251.538574,4333.333496,4399.358887,4292.820313,4294.102539,4508.589844,4540.641113,4407.563965,4475.897461,1553.000000,1.000000,20.000000,,,,0.000000,2.000000,2.000000,0.000000,4.000000,2.000000,2.000000,0.000000,0.000000,4.000000,4.000000,4.000000,4.000000,4.000000,4.000000,0.000000,,,,,,,,,,,,,,,,,,,,,,,,,,,,
1732158487.300440,1732158487.302338,108.000000,0.000000,4333.205078,4334.743652,4320.512695,4288.333496,4255.000000,4248.846191,4330.769043,4401.025879,4284.487305,4293.974121,4509.615234,4533.333496,4407.307617,4475.769043,1705.000000,1.000000,20.000000,,,,0.000000,2.000000,2.000000,0.000000,4.000000,2.000000,2.000000,0.000000,0.000000,4.000000,4.000000,4.000000,4.000000,4.000000,4.000000,0.000000,,,,,,,,,,,,,,,,,27.000000,0.000000,0.502718,0.481628,-0.535645,0.477905,0.978635,-0.024417,-0.019534,-35.589027,45.120602,31.423826
1732158487.308248,1732158487.310146,109.000000,0.000000,4338.846191,4342.307617,4316.410156,4297.051270,4262.948730,4263.717773,4333.077148,4404.358887,4286.922852,4292.948730,4515.512695,4541.922852,4407.436035,4479.102539,1588.000000,1.000000,20.000000,,,,0.000000,2.000000,2.000000,0.000000,4.000000,2.000000,2.000000,0.000000,0.000000,4.000000,4.000000,4.000000,4.000000,4.000000,4.000000,0.000000,,,,,,,,,,,,,,,,,,,,,,,,,,,,
1732158487.316056,1732158487.318154,110.000000,0.000000,4342.948730,4345.256348,4314.615234,4300.512695,4266.025879,4268.846191,4336.153809,4403.846191,4296.538574,4291.153809,4518.846191,4548.974121,4411.538574,4479.487305,1559.000000,1.000000,20.000000,,,,0.000000,2.000000,2.000000,0.000000,4.000000,2.000000,2.000000,0.000000,0.000000,4.000000,4.000000,4.000000,4.000000,4.000000,4.000000,0.000000,,,,,,,,,,,,,,,,,,,,,,,,,,,,
1732158487.323865,1732158487.325963,111.000000,0.000000,4334.230957,4337.051270,4317.563965,4295.128418,4261.666504,4262.436035,4333.205078,4401.153809,4294.358887,4291.666504,4509.102539,4540.256348,4408.589844,4473.077148,1553.000000,1.000000,20.000000,,,,0.000000,2.000000,2.000000,0.000000,4.000000,2.000000,2.000000,0.000000,0.000000,4.000000,4.000000,4.000000,4.000000,4.000000,4.000000,0.000000,,,,,,,,,,,,,,,,,,,,,,,,,,,,
1732158487.331673,1732158487.333871,112.000000,0.000000,4325.641113,4332.051270,4317.563965,4294.102539,4261.922852,4264.358887,4331.153809,4401.153809,4288.205078,4294.487305,4502.692383,4533.717773,4399.871582,4470.000000,1705.000000,1.000000,20.000000,,,,0.000000,2.000000,2.000000,0.000000,4.000000,2.000000,2.000000,0.000000,0.000000,4.000000,4.000000,4.000000,4.000000,4.000000,4.000000,0.000000,,,,,,,,,,,,,,,,,28.000000,0.000000,0.502610,0.481445,-0.535583,0.478271,0.986449,-0.013674,-0.020022,-35.583778,45.056023,31.134966
1732158487.339481,1732158487.341679,113.000000,0.000000,4327.820313,4335.384766,4315.769043,4296.922852,4265.897461,4266.794922,4334.487305,4403.846191,4293.974121,4296.282227,4505.256348,4538.077148,4401.922852,4469.358887,1588.000000,1.000000,20.000000,,,,0.000000,2.000000,2.000000,0.000000,4.000000,2.000000,2.000000,0.000000,0.000000,4.000000,4.000000,4.000000,4.000000,4.000000,4.000000,0.000000,,,,,,,,,,,,,,,,,,,,,,,,,,,,
1732158487.347289,1732158487.349687,114.000000,0.000000,4328.589844,4334.358887,4317.307617,4297.436035,4266.666504,4262.692383,4334.743652,4402.563965,4296.794922,4294.487305,4504.358887,4536.666504,4405.897461,4462.692383,1559.000000,1.000000,20.000000,,,,0.000000,2.000000,2.000000,0.000000,4.000000,2.000000,2.000000,0.000000,0.000000,4.000000,4.000000,4.000000,4.000000,4.000000,4.000000,0.000000,,,,,,,,,,,,,,,,,,,,,,,,,,,,
1732158487.355098,1732158487.357495,115.000000,0.000000,4323.205078,4328.461426,4316.794922,4296.410156,4262.948730,4261.410156,4333.205078,4399.230957,4292.948730,4293.974121,4504.102539,4525.641113,4400.256348,4456.282227,1553.000000,1.000000,20.000000,,,,0.000000,2.000000,2.000000,0.000000,4.000000,2.000000,2.000000,0.000000,0.000000,4.000000,4.000000,4.000000,4.000000,4.000000,4.000000,0.000000,,,,,,,,,,,,,,,,,,,,,,,,,,,,
1732158487.362906,1732158487.365403,116.000000,0.000000,4325.512695,4329.487305,4315.641113,4297.563965,4265.256348,4265.512695,4334.358887,4398.589844,4296.666504,4297.948730,4505.000000,4521.153809,4398.333496,4458.974121,1705.000000,1.000000,20.000000,,,,0.000000,2.000000,2.000000,0.000000,4.000000,2.000000,2.000000,0.000000,0.000000,4.000000,4.000000,4.000000,4.000000,4.000000,4.000000,0.000000,,,,,,,,,,,,,,,,,29.000000,0.000000,0.502442,0.481567,-0.535522,0.478394,0.986449,-0.013674,-0.020022,-35.604527,45.057045,30.922655
1732158487.370714,1732158487.373211,117.000000,0.000000,4325.256348,4327.179688,4318.974121,4298.205078,4274.358887,4270.256348,4335.384766,4399.615234,4298.333496,4293.077148,4497.563965,4523.974121,4397.307617,4457.179688,1588.000000,1.000000,20.000000,,,,0.000000,2.000000,2.000000,0.000000,4.000000,2.000000,2.000000,0.000000,0.000000,4.000000,4.000000,4.000000,4.000000,4.000000,4.000000,0.000000,,,,,,,,,,,,,,,,,,,,,,,,,,,,
1732158487.378523,1732158487.381219,118.000000,0.000000,4313.205078,4315.128418,4321.153809,4292.692383,4273.717773,4269.871582,4335.512695,4401.153809,4292.051270,4280.128418,4488.717773,4519.743652,4385.641113,4445.000000,1559.000000,1.000000,20.000000,,,,0.000000,2.000000,2.000000,0.000000,4.000000,2.000000,2.000000,0.000000,0.000000,4.000000,4.000000,4.000000,4.000000,4.000000,4.000000,0.000000,,,,,,,,,,,,,,,,,,,,,,,,,,,,
1732158487.386331,1732158487.389028,119.000000,0.000000,4310.256348,4315.641113,4318.461426,4291.794922,4270.000000,4267.307617,4334.871582,4402.820313,4292.051270,4284.615234,4492.051270,4517.948730,4380.641113,4441.153809,1553.000000,1.000000,20.000000,,,,0.000000,2.000000,2.000000,0.000000,4.000000,2.000000,2.000000,0.000000,0.000000,4.000000,4.000000,4.000000,4.000000,4.000000,4.000000,0.000000,,,,,,,,,,,,,,,,,,,,,,,,,,,,
1732158487.394139,1732158487.396936,120.000000,0.000000,4323.333496,4327.692383,4315.384766,4298.974121,4275.512695,4266.538574,4333.717773,4402.307617,4297.563965,4299.743652,4503.846191,4529.358887,4391.666504,4449.871582,1705.000000,1.000000,20.000000,,,,0.000000,2.000000,2.000000,0.000000,4.000000,2.000000,2.000000,0.000000,0.000000,4.000000,4.000000,4.000000,4.000000,4.000000,4.000000,0.000000,,,,,,,,,,,,,,,,,30.000000,0.000000,0.502169,0.481445,-0.535889,0.478394,0.990844,-0.025394,-0.033207,-35.774666,44.887871,31.095684
1732158487.401947,1732158487.404744,121.000000,0.000000,4329.358887,4328.205078,4313.717773,4303.333496,4278.589844,4266.538574,4333.333496,4399.230957,4290.256348,4296.410156,4506.410156,4532.948730,4392.307617,4458.077148,1588.000000,1.000000,20.000000,,,,0.000000,2.000000,2.000000,0.000000,4.000000,2.000000,2.000000,0.000000,0.000000,4.000000,4.000000,4.000000,4.000000,4.000000,4.000000,0.000000,,,,,,,,,,,,,,,,,,,,,,,,,,,,
1732158487.409756,1732158487.412752,122.000000,0.000000,4324.743652,4320.256348,4318.077148,4300.769043,4275.641113,4265.256348,4333.846191,4399.358887,4283.205078,4290.512695,4501.922852,4526.794922,4381.922852,4457.436035,1559.000000,1.000000,20.000000,,,,0.000000,2.000000,2.000000,0.000000,4.000000,2.000000,2.000000,0.000000,0.000000,4.000000,4.000000,4.000000,4.000000,4.000000,4.000000,0.000000,,,,,,,,,,,,,,,,,,,,,,,,,,,,
1732158487.417564,1732158487.420560,123.000000,0.000000,4324.230957,4319.487305,4322.179688,4302.820313,4277.436035,4265.000000,4333.461426,4401.538574,4290.897461,4300.128418,4503.589844,4533.589844,4384.230957,4458.461426,1553.000000,1.000000,20.000000,,,,0.000000,2.000000,2.000000,0.000000,4.000000,2.000000,2.000000,0.000000,0.000000,4.000000,4.000000,4.000000,4.000000,4.000000,4.000000,0.000000,,,,,,,,,,,,,,,,,,,,,,,,,,,,
1732158487.425372,1732158487.428368,124.000000,0.000000,4326.025879,4319.743652,4317.179688,4308.589844,4277.692383,4270.256348,4333.589844,4402.179688,4297.436035,4300.128418,4505.769043,4542.692383,4390.769043,4459.230957,1705.000000,1.000000,20.000000,,,,0.000000,2.000000,2.000000,0.000000,4.000000,2.000000,2.000000,0.000000,0.000000,4.000000,4.000000,4.000000,4.000000,4.000000,4.000000,0.000000,,,,,,,,,,,,,,,,,31.000000,0.000000,0.501413,0.481567,-0.536377,0.478516,0.964473,-0.028812,-0.036626,-35.779148,44.837509,31.224171
1732158487.433180,1732158487.436177,125.000000,0.000000,4328.461426,4318.589844,4314.871582,4307.948730,4275.128418,4265.897461,4333.589844,4402.307617,4295.512695,4293.717773,4503.846191,4539.358887,4387.820313,4458.077148,1588.000000,1.000000,20.000000,,,,0.000000,2.000000,2.000000,0.000000,4.000000,2.000000,2.000000,0.000000,0.000000,4.000000,4.000000,4.000000,4.000000,4.000000,4.000000,0.000000,,,,,,,,,,,,,,,,,,,,,,,,,,,,
1732158487.440988,1732158487.444185,126.000000,0.000000,4334.743652,4321.922852,4321.282227,4312.307617,4274.615234,4253.333496,4333.589844,4402.820313,4289.871582,4291.922852,4503.589844,4542.307617,4386.153809,4466.025879,1559.000000,1.000000,20.000000,,,,0.000000,2.000000,2.000000,0.000000,4.000000,2.000000,2.000000,0.000000,0.000000,4.000000,4.000000,4.000000,4.000000,4.000000,4.000000,0.000000,,,,,,,,,,,,,,,,,,,,,,,,,,,,
1732158487.448797,1732158487.451993,127.000000,0.000000,4338.717773,4325.256348,4323.461426,4320.256348,4276.666504,4253.974121,4333.589844,4402.820313,4283.205078,4284.230957,4507.051270,4556.025879,4389.230957,4475.256348,20.000000,1.000000,20.000000,,,,0.000000,2.000000,2.000000,0.000000,4.000000,2.000000,2.000000,0.000000,0.000000,4.000000,4.000000,4.000000,4.000000,4.000000,4.000000,0.000000,,,,,,,,,,,,,,,,,,,,,,,,,,,,
1732158487.456605,1732158487.459701,0.000000,0.000000,4335.641113,4326.666504,4317.948730,4319.743652,4277.820313,4265.256348,4333.589844,4400.769043,4280.641113,4286.153809,4508.461426,4559.102539,4391.025879,4474.743652,0.000000,1.000000,20.000000,,,,0.000000,2.000000,2.000000,0.000000,4.000000,2.000000,2.000000,0.000000,0.000000,4.000000,4.000000,4.000000,4.000000,4.000000,4.000000,0.000000,,,,,,,,,,,,,,,,,0.000000,0.000000,0.500846,0.481689,-0.536743,0.478577,0.965938,-0.032719,-0.037602,-35.879444,44.763382,31.319912
1732158487.464413,1732158487.467509,1.000000,0.000000,4333.461426,4325.769043,4317.051270,4312.051270,4267.563965,4268.974121,4333.589844,4401.025879,4288.717773,4302.692383,4510.384766,4550.512695,4396.794922,4470.384766,1616.000000,1.000000,20.000000,,,,0.000000,2.000000,2.000000,0.000000,4.000000,2.000000,2.000000,0.000000,0.000000,4.000000,4.000000,4.000000,4.000000,4.000000,4.000000,0.000000,,,,,,,,,,,,,,,,,,,,,,,,,,,,
1732158487.472221,1732158487.475118,2.000000,0.000000,4335.128418,4320.512695,4318.974121,4304.871582,4268.974121,4265.000000,4333.589844,4400.641113,4295.769043,4306.025879,4514.487305,4544.102539,4402.436035,4468.461426,1361.000000,1.000000,20.000000,,,,0.000000,2.000000,2.000000,0.000000,4.000000,2.000000,2.000000,0.000000,0.000000,4.000000,4.000000,4.000000,4.000000,4.000000,4.000000,0.000000,,,,,,,,,,,,,,,,,,,,,,,,,,,,
1732158487.480030,1732158487.482926,3.000000,0.000000,4329.487305,4316.922852,4316.922852,4302.307617,4288.717773,4264.102539,4333.589844,4400.641113,4289.743652,4290.384766,4504.230957,4534.615234,4392.307617,4458.846191,1426.000000,1.000000,20.000000,,,,0.000000,2.000000,2.000000,0.000000,4.000000,2.000000,2.000000,0.000000,0.000000,4.000000,4.000000,4.000000,4.000000,4.000000,4.000000,0.000000,,,,,,,,,,,,,,,,,,,,,,,,,,,,
1732158487.487838,1732158487.490634,4.000000,0.000000,4323.589844,4322.692383,4314.871582,4308.846191,4284.358887,4271.666504,4333.589844,4404.358887,4288.077148,4288.333496,4492.948730,4526.282227,4381.538574,4450.897461,1439.000000,1.000000,20.000000,,,,0.000000,2.000000,2.000000,0.000000,4.000000,2.000000,2.000000,0.000000,0.000000,4.000000,4.000000,4.000000,4.000000,4.000000,4.000000,0.000000,,,,,,,,,,,,,,,,,1.000000,0.000000,0.500642,0.481689,-0.536987,0.478516,0.983030,-0.039067,-0.041021,-35.554016,44.808342,31.480795
1732158487.495646,1732158487.498442,5.000000,0.000000,4326.794922,4328.846191,4316.153809,4316.410156,4260.641113,4282.436035,4333.589844,4405.384766,4299.871582,4298.205078,4503.717773,4533.974121,4392.307617,4457.563965,1177.000000,1.000000,20.000000,,,,0.000000,2.000000,2.000000,0.000000,4.000000,2.000000,2.000000,0.000000,0.000000,4.000000,4.000000,4.000000,4.000000,4.000000,4.000000,0.000000,,,,,,,,,,,,,,,,,,,,,,,,,,,,
1732158487.503455,1732158487.506051,6.000000,0.000000,4321.666504,4325.641113,4317.051270,4302.436035,4259.871582,4282.436035,4333.589844,4401.153809,4303.077148,4296.025879,4510.000000,4536.153809,4400.512695,4456.538574,0.000000,1.000000,20.000000,,,,0.000000,2.000000,2.000000,0.000000,4.000000,2.000000,2.000000,0.000000,0.000000,4.000000,4.000000,4.000000,4.000000,4.000000,4.000000,0.000000,,,,,,,,,,,,,,,,,,,,,,,,,,,,
1732158487.511263,1732158487.513859,7.000000,0.000000,4312.307617,4327.179688,4314.358887,4291.794922,4270.000000,4276.025879,4333.589844,4397.179688,4291.410156,4291.794922,4501.410156,4527.051270,4394.358887,4444.487305,0.000000,1.000000,20.000000,,,,0.000000,2.000000,2.000000,0.000000,4.000000,2.000000,2.000000,0.000000,0.000000,4.000000,4.000000,4.000000,4.000000,4.000000,4.000000,0.000000,,,,,,,,,,,,,,,,,,,,,,,,,,,,
1732158487.519071,1732158487.521567,8.000000,0.000000,4318.077148,4342.436035,4313.333496,4307.436035,4265.897461,4277.436035,4333.589844,4399.230957,4289.615234,4292.692383,4504.102539,4526.666504,4395.512695,4441.922852,1549.000000,1.000000,20.000000,,,,0.000000,2.000000,2.000000,0.000000,4.000000,2.000000,2.000000,0.000000,0.000000,4.000000,4.000000,4.000000,4.000000,4.000000,4.000000,0.000000,,,,,,,,,,,,,,,,,2.000000,0.000000,0.499950,0.481689,-0.537415,0.478760,0.978635,-0.059089,-0.041509,-35.437084,44.774757,31.387777
1732158487.526879,1732158487.529376,9.000000,0.000000,4320.769043,4349.102539,4315.512695,4310.512695,4263.333496,4278.846191,4333.589844,4401.666504,4298.333496,4291.794922,4504.743652,4529.487305,4394.871582,4445.256348,1711.000000,1.000000,20.000000,,,,0.000000,2.000000,2.000000,0.000000,4.000000,2.000000,2.000000,0.000000,0.000000,4.000000,4.000000,4.000000,4.000000,4.000000,4.000000,0.000000,,,,,,,,,,,,,,,,,,,,,,,,,,,,
1732158487.534688,1732158487.536984,10.000000,0.000000,4312.820313,4345.641113,4318.333496,4297.692383,4265.384766,4279.102539,4333.589844,4402.563965,4298.205078,4289.230957,4491.025879,4523.589844,4382.436035,4442.307617,1558.000000,1.000000,20.000000,,,,0.000000,2.000000,2.000000,0.000000,4.000000,2.000000,2.000000,0.000000,0.000000,4.000000,4.000000,4.000000,4.000000,4.000000,4.000000,0.000000,,,,,,,,,,,,,,,,,,,,,,,,,,,,
1732158487.542496,1732158487.544792,11.000000,0.000000,4316.153809,4355.897461,4320.384766,4302.692383,4268.333496,4279.615234,4333.589844,4402.692383,4295.512695,4293.333496,4493.205078,4522.563965,4383.333496,4442.820313,1556.000000,1.000000,20.000000,,,,0.000000,2.000000,2.000000,0.000000,4.000000,2.000000,2.000000,0.000000,0.000000,4.000000,4.000000,4.000000,4.000000,4.000000,4.000000,0.000000,,,,,,,,,,,,,,,,,,,,,,,,,,,,
1732158487.550304,1732158487.552700,12.000000,0.000000,4321.025879,4368.589844,4320.641113,4317.436035,4275.641113,4278.717773,4333.589844,4401.922852,4294.871582,4298.846191,4501.025879,4526.153809,4391.282227,4447.307617,1705.000000,1.000000,20.000000,,,,0.000000,2.000000,2.000000,0.000000,4.000000,2.000000,2.000000,0.000000,0.000000,4.000000,4.000000,4.000000,4.000000,4.000000,4.000000,0.000000,,,,,,,,,,,,,,,,,3.000000,0.000000,0.499069,0.481323,-0.538452,0.478882,0.976193,-0.050787,-0.030765,-35.604038,44.727551,31.299099
1732158487.558112,1732158487.560509,13.000000,0.000000,4313.461426,4361.025879,4318.717773,4313.461426,4277.051270,4280.512695,4333.589844,4401.666504,4293.589844,4295.641113,4492.820313,4522.051270,4384.358887,4445.000000,1579.000000,1.000000,20.000000,,,,0.000000,2.000000,2.000000,0.000000,4.000000,2.000000,2.000000,0.000000,0.000000,4.000000,4.000000,4.000000,4.000000,4.000000,4.000000,0.000000,,,,,,,,,,,,,,,,,,,,,,,,,,,,
1732158487.565920,1732158487.568517,14.000000,0.000000,4309.615234,4350.897461,4315.769043,4310.000000,4275.256348,4284.102539,4333.589844,4400.897461,4292.563965,4287.307617,4487.563965,4522.179688,4377.051270,4440.512695,1558.000000,1.000000,20.000000,,,,0.000000,2.000000,2.000000,0.000000,4.000000,2.000000,2.000000,0.000000,0.000000,4.000000,4.000000,4.000000,4.000000,4.000000,4.000000,0.000000,1.000000,0.000000,2.000000,2.000000,0.000000,4.000000,2.000000,2.000000,0.000000,0.000000,4.000000,4.000000,4.000000,4.000000,4.000000,4.000000,,,,,,,,,,,,
1732158487.573729,1732158487.576325,15.000000,0.000000,4311.410156,4351.282227,4316.025879,4311.410156,4271.794922,4282.436035,4333.589844,4401.538574,4293.717773,4289.487305,4492.307617,4526.410156,4382.436035,4438.846191,1556.000000,1.000000,20.000000,,,,0.000000,2.000000,2.000000,0.000000,4.000000,2.000000,2.000000,0.000000,0.000000,4.000000,4.000000,4.000000,4.000000,4.000000,4.000000,0.000000,,,,,,,,,,,,,,,,,,,,,,,,,,,,
1732158487.581537,1732158487.584033,16.000000,0.000000,4309.230957,4346.666504,4317.820313,4303.589844,4272.179688,4279.358887,4333.589844,4401.153809,4295.897461,4302.436035,4491.410156,4523.461426,4379.615234,4434.871582,0.000000,1.000000,20.000000,,,,0.000000,2.000000,2.000000,0.000000,4.000000,2.000000,2.000000,0.000000,0.000000,4.000000,4.000000,4.000000,4.000000,4.000000,4.000000,0.000000,,,,,,,,,,,,,,,,,4.000000,0.000000,0.498922,0.481262,-0.538696,0.478821,0.981565,-0.041997,-0.041509,-35.497604,44.887650,31.417271
1732158487.589345,1732158487.591841,17.000000,0.000000,4307.179688,4341.794922,4316.538574,4300.641113,4274.615234,4279.487305,4333.333496,4400.256348,4295.512695,4300.641113,4488.461426,4517.179688,4367.307617,4430.128418,0.000000,1.000000,20.000000,,,,0.000000,2.000000,2.000000,0.000000,4.000000,2.000000,2.000000,0.000000,0.000000,4.000000,4.000000,4.000000,4.000000,4.000000,4.000000,0.000000,,,,,,,,,,,,,,,,,,,,,,,,,,,,
1732158487.597154,1732158487.599450,18.000000,0.000000,4308.974121,4344.230957,4316.153809,4307.179688,4274.743652,4283.077148,4333.717773,4402.179688,4297.307617,4291.922852,4490.641113,4519.230957,4365.384766,4434.743652,0.000000,1.000000,20.000000,,,,0.000000,2.000000,2.000000,0.000000,4.000000,2.000000,2.000000,0.000000,0.000000,4.000000,4.000000,4.000000,4.000000,4.000000,4.000000,0.000000,,,,,,,,,,,,,,,,,,,,,,,,,,,,
1732158487.604962,1732158487.607258,19.000000,0.000000,4311.922852,4343.846191,4320.256348,4308.974121,4288.589844,4286.922852,4333.846191,4400.512695,4296.922852,4293.974121,4485.897461,4518.717773,4364.615234,4437.692383,0.000000,1.000000,20.000000,,,,0.000000,2.000000,2.000000,0.000000,4.000000,2.000000,2.000000,0.000000,0.000000,4.000000,4.000000,4.000000,4.000000,4.000000,4.000000,0.000000,,,,,,,,,,,,,,,,,,,,,,,,,,,,
1732158487.612770,1732158487.614966,20.000000,0.000000,4311.538574,4338.589844,4322.307617,4304.102539,4297.948730,4286.922852,4333.205078,4398.974121,4295.128418,4295.128418,4474.102539,4512.051270,4352.692383,4429.615234,0.000000,1.000000,20.000000,,,,0.000000,2.000000,2.000000,0.000000,4.000000,2.000000,2.000000,0.000000,0.000000,4.000000,4.000000,4.000000,4.000000,4.000000,4.000000,0.000000,,,,,,,,,,,,,,,,,5.000000,0.000000,0.498615,0.481079,-0.539307,0.478638,0.978635,-0.042974,-0.053229,-35.498062,44.845665,31.242989
1732158487.620578,1732158487.622774,21.000000,0.000000,4308.846191,4333.717773,4321.538574,4310.000000,4282.436035,4291.410156,4334.230957,4403.589844,4304.743652,4295.641113,4476.025879,4516.282227,4347.051270,4430.128418,0.000000,1.000000,20.000000,,,,0.000000,2.000000,2.000000,0.000000,4.000000,2.000000,2.000000,0.000000,0.000000,4.000000,4.000000,4.000000,4.000000,4.000000,4.000000,0.000000,,,,,,,,,,,,,,,,,,,,,,,,,,,,
1732158487.628387,1732158487.630782,22.000000,0.000000,4310.384766,4332.307617,4322.948730,4318.846191,4270.384766,4298.717773,4337.051270,4404.743652,4307.692383,4298.974121,4484.230957,4523.974121,4353.589844,4442.563965,0.000000,1.000000,20.000000,,,,0.000000,2.000000,2.000000,0.000000,4.000000,2.000000,2.000000,0.000000,0.000000,4.000000,4.000000,4.000000,4.000000,4.000000,4.000000,0.000000,,,,,,,,,,,,,,,,,,,,,,,,,,,,
1732158487.636195,1732158487.638591,23.000000,0.000000,4313.589844,4332.436035,4321.922852,4315.512695,4280.641113,4297.563965,4337.436035,4400.641113,4296.666504,4297.307617,4480.000000,4519.871582,4355.384766,4444.871582,0.000000,1.000000,20.000000,,,,0.000000,2.000000,2.000000,0.000000,4.000000,2.000000,2.000000,0.000000,0.000000,4.000000,4.000000,4.000000,4.000000,4.000000,4.000000,0.000000,,,,,,,,,,,,,,,,,,,,,,,,,,,,
1732158487.644003,1732158487.646499,24.000000,0.000000,4313.205078,4329.230957,4319.871582,4310.897461,4282.820313,4292.179688,4334.743652,4402.051270,4299.871582,4302.179688,4482.307617,4519.871582,4355.641113,4441.153809,0.000000,1.000000,20.000000,,,,0.000000,2.000000,2.000000,0.000000,4.000000,2.000000,2.000000,0.000000,0.000000,4.000000,4.000000,4.000000,4.000000,4.000000,4.000000,0.000000,,,,,,,,,,,,,,,,,6.000000,0.000000,0.497484,0.481201,-0.539917,0.479004,0.967892,-0.045904,-0.048346,-35.363430,45.029987,31.048489
1732158487.651811,1732158487.654307,25.000000,0.000000,4310.512695,4328.205078,4321.410156,4310.641113,4277.948730,4294.358887,4333.589844,4403.974121,4305.897461,4313.461426,4489.615234,4524.743652,4358.461426,4441.666504,0.000000,1.000000,20.000000,,,,0.000000,2.000000,2.000000,0.000000,4.000000,2.000000,2.000000,0.000000,0.000000,4.000000,4.000000,4.000000,4.000000,4.000000,4.000000,0.000000,,,,,,,,,,,,,,,,,,,,,,,,,,,,
1732158487.659619,1732158487.662315,26.000000,0.000000,4310.000000,4332.179688,4324.487305,4309.743652,4291.282227,4297.436035,4334.871582,4401.410156,4295.641113,4305.769043,4480.769043,4518.717773,4354.871582,4438.846191,0.000000,1.000000,20.000000,,,,0.000000,2.000000,2.000000,0.000000,4.000000,2.000000,2.000000,0.000000,0.000000,4.000000,4.000000,4.000000,4.000000,4.000000,4.000000,0.000000,,,,,,,,,,,,,,,,,,,,,,,,,,,,
1732158487.667428,1732158487.670123,27.000000,0.000000,4311.922852,4331.025879,4322.692383,4308.717773,4297.563965,4296.410156,4335.641113,4402.051270,4299.102539,4293.077148,4473.333496,4516.153809,4350.256348,4435.512695,0.000000,1.000000,20.000000,,,,0.000000,2.000000,2.000000,0.000000,4.000000,2.000000,2.000000,0.000000,0.000000,4.000000,4.000000,4.000000,4.000000,4.000000,4.000000,0.000000,,,,,,,,,,,,,,,,,,,,,,,,,,,,
1732158487.675236,1732158487.678031,28.000000,0.000000,4312.948730,4325.000000,4316.538574,4311.538574,4288.717773,4291.410156,4333.974121,4403.717773,4310.641113,4298.717773,4478.461426,4522.692383,4350.000000,4437.051270,0.000000,1.000000,20.000000,,,,0.000000,2.000000,2.000000,0.000000,4.000000,2.000000,2.000000,0.000000,0.000000,4.000000,4.000000,4.000000,4.000000,4.000000,4.000000,0.000000,,,,,,,,,,,,,,,,,7.000000,0.000000,0.497381,0.481079,-0.540283,0.478821,0.976193,-0.046392,-0.043951,-35.506042,44.969292,31.019276
1732158487.683044,1732158487.685839,29.000000,0.000000,4312.692383,4327.436035,4314.743652,4313.333496,4286.922852,4285.769043,4332.692383,4401.538574,4301.153809,4306.153809,4480.384766,4525.641113,4354.102539,4440.128418,0.000000,1.000000,20.000000,,,,0.000000,2.000000,2.000000,0.000000,4.000000,2.000000,2.000000,0.000000,0.000000,4.000000,4.000000,4.000000,4.000000,4.000000,4.000000,0.000000,,,,,,,,,,,,,,,,,,,,,,,,,,,,
1732158487.690853,1732158487.693847,30.000000,0.000000,4314.358887,4333.077148,4321.282227,4318.717773,4295.512695,4288.974121,4334.102539,4400.897461,4293.589844,4300.384766,4478.461426,4523.461426,4356.666504,4440.641113,0.000000,1.000000,20.000000,,,,0.000000,2.000000,2.000000,0.000000,4.000000,2.000000,2.000000,0.000000,0.000000,4.000000,4.000000,4.000000,4.000000,4.000000,4.000000,0.000000,,,,,,,,,,,,,,,,,,,,,,,,,,,,
1732158487.698661,1732158487.701656,31.000000,0.000000,4316.025879,4328.205078,4323.974121,4322.820313,4298.846191,4290.000000,4335.384766,4400.897461,4295.769043,4297.692383,4482.563965,4525.128418,4353.589844,4436.666504,0.000000,1.000000,20.000000,,,,0.000000,2.000000,2.000000,0.000000,4.000000,2.000000,2.000000,0.000000,0.000000,4.000000,4.000000,4.000000,4.000000,4.000000,4.000000,0.000000,,,,,,,,,,,,,,,,,,,,,,,,,,,,
1732158487.706469,1732158487.709564,32.000000,0.000000,4311.025879,4320.128418,4318.717773,4317.051270,4296.410156,4282.179688,4334.743652,4399.102539,4292.820313,4300.256348,4485.128418,4524.871582,4346.922852,4428.589844,0.000000,1.000000,20.000000,,,,0.000000,2.000000,2.000000,0.000000,4.000000,2.000000,2.000000,0.000000,0.000000,4.000000,4.000000,4.000000,4.000000,4.000000,4.000000,0.000000,,,,,,,,,,,,,,,,,8.000000,0.000000,0.497307,0.481140,-0.540405,0.478699,0.987425,-0.042486,-0.056648,-35.314896,44.785126,30.983946
1732158487.714277,1732158487.717372,33.000000,0.000000,4308.589844,4323.205078,4318.974121,4318.461426,4295.512695,4279.487305,4334.230957,4400.256348,4300.512695,4309.487305,4488.205078,4522.051270,4351.794922,4431.922852,0.000000,1.000000,20.000000,,,,0.000000,2.000000,2.000000,0.000000,4.000000,2.000000,2.000000,0.000000,0.000000,4.000000,4.000000,4.000000,4.000000,4.000000,4.000000,0.000000,,,,,,,,,,,,,,,,,,,,,,,,,,,,
1732158487.722086,1732158487.725380,34.000000,0.000000,4317.436035,4326.538574,4322.179688,4325.128418,4296.025879,4282.820313,4333.717773,4400.769043,4311.538574,4323.461426,4492.820313,4527.179688,4366.538574,4444.487305,0.000000,1.000000,20.000000,,,,0.000000,2.000000,2.000000,0.000000,4.000000,2.000000,2.000000,0.000000,0.000000,4.000000,4.000000,4.000000,4.000000,4.000000,4.000000,0.000000,,,,,,,,,,,,,,,,,,,,,,,,,,,,
1732158487.729894,1732158487.733188,35.000000,0.000000,4321.153809,4318.846191,4318.333496,4320.256348,4311.666504,4282.051270,4332.820313,4399.743652,4303.846191,4316.282227,4491.153809,4527.051270,4365.128418,4440.512695,0.000000,1.000000,20.000000,,,,0.000000,2.000000,2.000000,0.000000,4.000000,2.000000,2.000000,0.000000,0.000000,4.000000,4.000000,4.000000,4.000000,4.000000,4.000000,0.000000,,,,,,,,,,,,,,,,,,,,,,,,,,,,
1732158487.737702,1732158487.741096,36.000000,0.000000,4313.846191,4313.589844,4315.897461,4316.282227,4321.153809,4280.128418,4333.974121,4402.948730,4293.717773,4302.563965,4490.256348,4521.538574,4356.153809,4434.102539,0.000000,1.000000,20.000000,,,,0.000000,2.000000,2.000000,0.000000,4.000000,2.000000,2.000000,0.000000,0.000000,4.000000,4.000000,4.000000,4.000000,4.000000,4.000000,0.000000,,,,,,,,,,,,,,,,,9.000000,0.000000,0.497108,0.481140,-0.540588,0.478699,0.970822,-0.053717,-0.056648,-35.436733,44.670952,31.000330
1732158487.745510,1732158487.748905,37.000000,0.000000,4311.538574,4315.256348,4320.000000,4322.051270,4301.410156,4281.794922,4336.025879,4406.282227,4295.512695,4313.205078,4493.974121,4529.230957,4361.153809,4441.410156,0.000000,1.000000,20.000000,,,,0.000000,2.000000,2.000000,0.000000,4.000000,2.000000,2.000000,0.000000,0.000000,4.000000,4.000000,4.000000,4.000000,4.000000,4.000000,0.000000,,,,,,,,,,,,,,,,,,,,,,,,,,,,
1732158487.753319,1732158487.756913,38.000000,0.000000,4312.692383,4309.358887,4320.384766,4320.897461,4287.179688,4281.410156,4335.000000,4401.538574,4304.871582,4327.179688,4493.717773,4533.461426,4361.153809,4441.666504,0.000000,1.000000,20.000000,,,,0.000000,2.000000,2.000000,0.000000,4.000000,2.000000,2.000000,0.000000,0.000000,4.000000,4.000000,4.000000,4.000000,4.000000,4.000000,0.000000,,,,,,,,,,,,,,,,,,,,,,,,,,,,
1732158487.761127,1732158487.764721,39.000000,0.000000,4310.000000,4300.512695,4318.333496,4315.000000,4300.512695,4282.436035,4332.820313,4396.794922,4308.461426,4321.025879,4490.256348,4527.436035,4348.077148,4433.974121,0.000000,1.000000,20.000000,,,,0.000000,2.000000,2.000000,0.000000,4.000000,2.000000,2.000000,0.000000,0.000000,4.000000,4.000000,4.000000,4.000000,4.000000,4.000000,0.000000,,,,,,,,,,,,,,,,,,,,,,,,,,,,
1732158487.768935,1732158487.772629,40.000000,0.000000,4314.487305,4307.051270,4320.000000,4321.410156,4308.205078,4283.974121,4332.307617,4400.641113,4301.282227,4316.025879,4493.461426,4530.384766,4354.230957,4441.410156,0.000000,1.000000,20.000000,,,,0.000000,2.000000,2.000000,0.000000,4.000000,2.000000,2.000000,0.000000,0.000000,4.000000,4.000000,4.000000,4.000000,4.000000,4.000000,0.000000,,,,,,,,,,,,,,,,,10.000000,0.000000,0.497041,0.481201,-0.540649,0.478638,0.977658,-0.034184,-0.055671,-35.385418,44.545135,31.230267
1732158487.776743,1732158487.780437,41.000000,0.000000,4319.871582,4311.025879,4322.948730,4323.974121,4299.358887,4279.743652,4333.846191,4402.692383,4297.179688,4319.358887,4497.820313,4537.563965,4366.666504,4450.769043,0.000000,1.000000,20.000000,,,,0.000000,2.000000,2.000000,0.000000,4.000000,2.000000,2.000000,0.000000,0.000000,4.000000,4.000000,4.000000,4.000000,4.000000,4.000000,0.000000,,,,,,,,,,,,,,,,,,,,,,,,,,,,
1732158487.784552,1732158487.788445,42.000000,0.000000,4315.000000,4300.000000,4321.025879,4319.102539,4304.102539,4279.102539,4337.436035,4399.487305,4302.436035,4316.922852,4493.077148,4533.589844,4356.025879,4444.487305,0.000000,1.000000,20.000000,,,,0.000000,2.000000,2.000000,0.000000,4.000000,2.000000,2.000000,0.000000,0.000000,4.000000,4.000000,4.000000,4.000000,4.000000,4.000000,0.000000,,,,,,,,,,,,,,,,,,,,,,,,,,,,
1732158487.792360,1732158487.796253,43.000000,0.000000,4311.794922,4296.025879,4317.692383,4320.897461,4314.230957,4286.922852,4334.871582,4400.512695,4303.589844,4317.692383,4490.641113,4531.922852,4347.051270,4437.051270,0.000000,1.000000,20.000000,,,,0.000000,2.000000,2.000000,0.000000,4.000000,2.000000,2.000000,0.000000,0.000000,4.000000,4.000000,4.000000,4.000000,4.000000,4.000000,0.000000,,,,,,,,,,,,,,,,,,,,,,,,,,,,
1732158487.800168,1732158487.803962,44.000000,0.000000,4312.436035,4300.128418,4318.589844,4320.256348,4306.922852,4287.051270,4329.230957,4403.333496,4301.794922,4321.282227,4493.205078,4528.974121,4351.025879,4433.077148,0.000000,1.000000,20.000000,,,,0.000000,2.000000,2.000000,0.000000,4.000000,2.000000,2.000000,0.000000,0.000000,4.000000,4.000000,4.000000,4.000000,4.000000,4.000000,0.000000,,,,,,,,,,,,,,,,,11.000000,0.000000,0.497129,0.481018,-0.540894,0.478455,0.978147,-0.044439,-0.055183,-35.723858,44.631561,31.341516
1732158487.807976,1732158487.811770,45.000000,0.000000,4310.256348,4297.436035,4322.692383,4316.410156,4298.077148,4278.077148,4332.051270,4401.666504,4306.025879,4319.358887,4493.589844,4525.384766,4351.922852,4431.794922,0.000000,1.000000,20.000000,,,,0.000000,2.000000,2.000000,0.000000,4.000000,2.000000,2.000000,0.000000,0.000000,4.000000,4.000000,4.000000,4.000000,4.000000,4.000000,0.000000,,,,,,,,,,,,,,,,,,,,,,,,,,,,
1732158487.815785,1732158487.819778,46.000000,0.000000,4313.205078,4293.589844,4325.256348,4319.230957,4306.666504,4281.538574,4336.794922,4399.615234,4306.538574,4310.769043,4492.563965,4529.615234,4348.974121,4438.205078,0.000000,1.000000,20.000000,,,,0.000000,2.000000,2.000000,0.000000,4.000000,2.000000,2.000000,0.000000,0.000000,4.000000,4.000000,4.000000,4.000000,4.000000,4.000000,0.000000,,,,,,,,,,,,,,,,,,,,,,,,,,,,
1732158487.823593,1732158487.827586,47.000000,0.000000,4317.051270,4296.922852,4322.051270,4322.179688,4314.743652,4290.512695,4335.256348,4402.179688,4308.717773,4312.436035,4491.922852,4531.025879,4347.820313,4442.051270,0.000000,1.000000,20.000000,,,,0.000000,2.000000,2.000000,0.000000,4.000000,2.000000,2.000000,0.000000,0.000000,4.000000,4.000000,4.000000,4.000000,4.000000,4.000000,0.000000,,,,,,,,,,,,,,,,,,,,,,,,,,,,
1732158487.831401,1732158487.835294,48.000000,0.000000,4315.128418,4297.307617,4317.820313,4320.897461,4307.179688,4282.948730,4335.384766,4401.282227,4311.410156,4323.333496,4491.922852,4529.102539,4347.948730,4440.256348,0.000000,1.000000,20.000000,,,,0.000000,2.000000,2.000000,0.000000,4.000000,2.000000,2.000000,0.000000,0.000000,4.000000,4.000000,4.000000,4.000000,4.000000,4.000000,0.000000,,,,,,,,,,,,,,,,,12.000000,0.000000,0.497224,0.480896,-0.541077,0.478271,0.966427,-0.045904,-0.058601,-35.681324,44.543232,31.593294
1732158487.839209,1732158487.843103,49.000000,0.000000,4313.846191,4295.512695,4317.563965,4321.666504,4305.256348,4279.871582,4338.974121,4398.461426,4306.666504,4320.897461,4492.179688,4527.820313,4343.717773,4441.282227,0.000000,1.000000,20.000000,,,,0.000000,2.000000,2.000000,0.000000,4.000000,2.000000,2.000000,0.000000,0.000000,4.000000,4.000000,4.000000,4.000000,4.000000,4.000000,0.000000,,,,,,,,,,,,,,,,,,,,,,,,,,,,
1732158487.847018,1732158487.850711,50.000000,0.000000,4313.205078,4294.102539,4321.794922,4320.128418,4311.794922,4296.794922,4338.589844,4405.512695,4314.230957,4315.641113,4493.077148,4524.358887,4336.666504,4440.512695,0.000000,1.000000,20.000000,,,,0.000000,2.000000,2.000000,0.000000,4.000000,2.000000,2.000000,0.000000,0.000000,4.000000,4.000000,4.000000,4.000000,4.000000,4.000000,0.000000,,,,,,,,,,,,,,,,,,,,,,,,,,,,
1732158487.854826,1732158487.858519,51.000000,0.000000,4311.538574,4289.743652,4322.051270,4318.974121,4312.820313,4296.794922,4337.692383,4406.282227,4318.974121,4317.436035,4492.436035,4522.692383,4337.820313,4432.307617,0.000000,1.000000,20.000000,,,,0.000000,2.000000,2.000000,0.000000,4.000000,2.000000,2.000000,0.000000,0.000000,4.000000,4.000000,4.000000,4.000000,4.000000,4.000000,0.000000,,,,,,,,,,,,,,,,,,,,,,,,,,,,
1732158487.862634,1732158487.866227,52.000000,0.000000,4312.307617,4287.307617,4320.512695,4325.128418,4310.128418,4280.512695,4338.333496,4398.717773,4303.077148,4320.769043,4493.077148,4523.589844,4342.307617,4428.974121,0.000000,1.000000,20.000000,,,,0.000000,2.000000,2.000000,0.000000,4.000000,2.000000,2.000000,0.000000,0.000000,4.000000,4.000000,4.000000,4.000000,4.000000,4.000000,0.000000,,,,,,,,,,,,,,,,,13.000000,0.000000,0.497958,0.480957,-0.540833,0.477722,0.971798,-0.039556,-0.045416,-35.593540,44.718349,31.520569
1732158487.870442,1732158487.874036,53.000000,0.000000,4311.410156,4286.538574,4323.461426,4327.820313,4310.384766,4282.051270,4338.077148,4402.436035,4290.769043,4317.307617,4493.333496,4523.205078,4334.358887,4431.410156,0.000000,1.000000,20.000000,,,,0.000000,2.000000,2.000000,0.000000,4.000000,2.000000,2.000000,0.000000,0.000000,4.000000,4.000000,4.000000,4.000000,4.000000,4.000000,0.000000,,,,,,,,,,,,,,,,,,,,,,,,,,,,
1732158487.878250,1732158487.881644,54.000000,0.000000,4306.282227,4276.538574,4324.358887,4319.358887,4312.436035,4292.307617,4338.077148,4408.717773,4297.692383,4303.846191,4489.358887,4522.179688,4323.589844,4427.436035,0.000000,1.000000,20.000000,,,,0.000000,2.000000,2.000000,0.000000,4.000000,2.000000,2.000000,0.000000,0.000000,4.000000,4.000000,4.000000,4.000000,4.000000,4.000000,0.000000,,,,,,,,,,,,,,,,,,,,,,,,,,,,
1732158487.886059,1732158487.889452,55.000000,0.000000,4305.769043,4265.000000,4321.282227,4311.538574,4311.410156,4290.897461,4338.077148,4402.436035,4300.000000,4294.871582,4485.128418,4518.205078,4322.307617,4423.974121,0.000000,1.000000,20.000000,,,,0.000000,2.000000,2.000000,0.000000,4.000000,2.000000,2.000000,0.000000,0.000000,4.000000,4.000000,4.000000,4.000000,4.000000,4.000000,0.000000,,,,,,,,,,,,,,,,,,,,,,,,,,,,
1732158487.893867,1732158487.897161,56.000000,0.000000,4311.282227,4275.512695,4320.512695,4317.563965,4306.666504,4288.846191,4338.077148,4398.333496,4294.615234,4303.974121,4487.051270,4514.615234,4326.153809,4427.692383,0.000000,1.000000,20.000000,,,,0.000000,2.000000,2.000000,0.000000,4.000000,2.000000,2.000000,0.000000,0.000000,4.000000,4.000000,4.000000,4.000000,4.000000,4.000000,0.000000,,,,,,,,,,,,,,,,,14.000000,0.000000,0.498258,0.480957,-0.540771,0.477478,0.978635,-0.042486,-0.032719,-35.572433,44.776863,31.511662
1732158487.901675,1732158487.904969,57.000000,0.000000,4313.205078,4283.717773,4319.358887,4322.436035,4305.512695,4293.589844,4338.077148,4402.051270,4305.897461,4318.333496,4492.179688,4521.666504,4326.922852,4427.692383,0.000000,1.000000,20.000000,,,,0.000000,2.000000,2.000000,0.000000,4.000000,2.000000,2.000000,0.000000,0.000000,4.000000,4.000000,4.000000,4.000000,4.000000,4.000000,0.000000,,,,,,,,,,,,,,,,,,,,,,,,,,,,
1732158487.909484,1732158487.912577,58.000000,0.000000,4311.282227,4258.974121,4319.871582,4318.974121,4313.205078,4294.358887,4338.077148,4401.666504,4316.538574,4315.641113,4492.563965,4527.692383,4326.282227,4421.922852,0.000000,1.000000,20.000000,,,,0.000000,2.000000,2.000000,0.000000,4.000000,2.000000,2.000000,0.000000,0.000000,4.000000,4.000000,4.000000,4.000000,4.000000,4.000000,0.000000,,,,,,,,,,,,,,,,,,,,,,,,,,,,
1732158487.917292,1732158487.920385,59.000000,0.000000,4309.102539,4228.077148,4323.589844,4320.512695,4317.051270,4298.077148,4338.077148,4400.384766,4303.846191,4309.230957,4488.077148,4522.692383,4324.615234,4417.436035,0.000000,1.000000,20.000000,,,,0.000000,2.000000,2.000000,0.000000,4.000000,2.000000,2.000000,0.000000,0.000000,4.000000,4.000000,4.000000,4.000000,4.000000,4.000000,0.000000,,,,,,,,,,,,,,,,,,,,,,,,,,,,
1732158487.925100,1732158487.928094,60.000000,0.000000,4308.333496,4218.974121,4320.512695,4324.743652,4325.000000,4302.436035,4338.077148,4400.897461,4290.000000,4310.256348,4486.922852,4517.051270,4320.256348,4415.512695,0.000000,1.000000,20.000000,,,,0.000000,2.000000,2.000000,0.000000,4.000000,2.000000,2.000000,0.000000,0.000000,4.000000,4.000000,4.000000,4.000000,4.000000,4.000000,0.000000,,,,,,,,,,,,,,,,,15.000000,0.000000,0.498493,0.480774,-0.540771,0.477417,0.978635,-0.042486,-0.032719,-35.748672,44.755928,31.636112
1732158487.932908,1732158487.935902,61.000000,0.000000,4310.897461,4216.922852,4316.666504,4321.153809,4336.282227,4299.487305,4338.077148,4400.897461,4300.000000,4310.256348,4491.666504,4520.256348,4322.692383,4417.179688,0.000000,1.000000,20.000000,,,,0.000000,2.000000,2.000000,0.000000,4.000000,2.000000,2.000000,0.000000,0.000000,4.000000,4.000000,4.000000,4.000000,4.000000,4.000000,0.000000,,,,,,,,,,,,,,,,,,,,,,,,,,,,
1732158487.940717,1732158487.943510,62.000000,0.000000,4307.820313,4212.051270,4320.769043,4318.846191,4325.512695,4299.230957,4338.077148,4401.282227,4316.153809,4310.256348,4492.051270,4523.205078,4324.871582,4417.820313,0.000000,1.000000,20.000000,,,,0.000000,2.000000,2.000000,0.000000,4.000000,2.000000,2.000000,0.000000,0.000000,4.000000,4.000000,4.000000,4.000000,4.000000,4.000000,0.000000,,,,,,,,,,,,,,,,,,,,,,,,,,,,
1732158487.948525,1732158487.951319,63.000000,0.000000,4300.769043,4212.436035,4320.897461,4324.358887,4309.871582,4303.205078,4338.333496,4401.538574,4307.692383,4304.487305,4486.538574,4520.000000,4316.538574,4413.589844,0.000000,1.000000,20.000000,,,,0.000000,2.000000,2.000000,0.000000,4.000000,2.000000,2.000000,0.000000,0.000000,4.000000,4.000000,4.000000,4.000000,4.000000,4.000000,0.000000,,,,,,,,,,,,,,,,,,,,,,,,,,,,
1732158487.956333,1732158487.959227,64.000000,0.000000,4302.563965,4217.307617,4318.333496,4326.153809,4313.974121,4303.717773,4337.692383,4402.948730,4297.051270,4295.897461,4487.948730,4518.589844,4312.436035,4412.307617,0.000000,1.000000,20.000000,,,,0.000000,2.000000,2.000000,0.000000,4.000000,2.000000,2.000000,0.000000,0.000000,4.000000,4.000000,4.000000,4.000000,4.000000,4.000000,0.000000,,,,,,,,,,,,,,,,,16.000000,0.000000,0.498603,0.480652,-0.540833,0.477356,0.979123,-0.027347,-0.043951,-35.744759,44.740635,31.546917
1732158487.964141,1732158487.967035,65.000000,0.000000,4308.846191,4219.487305,4321.794922,4323.846191,4322.179688,4304.615234,4338.077148,4404.615234,4307.307617,4296.922852,4492.948730,4523.974121,4316.666504,4415.256348,1613.000000,1.000000,20.000000,,,,0.000000,2.000000,2.000000,0.000000,4.000000,2.000000,2.000000,0.000000,0.000000,4.000000,4.000000,4.000000,4.000000,4.000000,4.000000,0.000000,,,,,,,,,,,,,,,,,,,,,,,,,,,,
1732158487.971950,1732158487.974643,66.000000,0.000000,4303.589844,4217.051270,4323.205078,4321.282227,4321.025879,4313.077148,4338.974121,4404.615234,4313.461426,4298.717773,4482.692383,4526.025879,4310.769043,4410.897461,1361.000000,1.000000,20.000000,,,,0.000000,2.000000,2.000000,0.000000,4.000000,2.000000,2.000000,0.000000,0.000000,4.000000,4.000000,4.000000,4.000000,4.000000,4.000000,0.000000,,,,,,,,,,,,,,,,,,,,,,,,,,,,
1732158487.979758,1732158487.982451,67.000000,0.000000,4297.820313,4214.743652,4319.358887,4317.307617,4316.538574,4310.128418,4336.025879,4401.666504,4305.384766,4299.230957,4473.461426,4520.512695,4306.025879,4404.615234,1437.000000,1.000000,20.000000,,,,0.000000,2.000000,2.000000,0.000000,4.000000,2.000000,2.000000,0.000000,0.000000,4.000000,4.000000,4.000000,4.000000,4.000000,4.000000,0.000000,,,,,,,,,,,,,,,,,,,,,,,,,,,,
1732158487.987566,1732158487.990360,68.000000,0.000000,4301.282227,4216.538574,4318.205078,4317.820313,4308.974121,4297.820313,4333.333496,4400.000000,4307.307617,4309.102539,4486.538574,4521.922852,4316.153809,4412.307617,1429.000000,1.000000,20.000000,,,,0.000000,2.000000,2.000000,0.000000,4.000000,2.000000,2.000000,0.000000,0.000000,4.000000,4.000000,4.000000,4.000000,4.000000,4.000000,0.000000,,,,,,,,,,,,,,,,,17.000000,0.000000,0.498698,0.480469,-0.541016,0.477234,0.982053,-0.038579,-0.047369,-35.683254,44.774914,31.491337
1732158487.995374,1732158487.998168,69.000000,0.000000,4299.102539,4218.077148,4319.358887,4318.717773,4311.410156,4299.230957,4335.641113,4400.256348,4311.666504,4309.358887,4491.282227,4523.461426,4316.666504,4416.282227,1179.000000,1.000000,20.000000,,,,0.000000,2.000000,2.000000,0.000000,4.000000,2.000000,2.000000,0.000000,0.000000,4.000000,4.000000,4.000000,4.000000,4.000000,4.000000,0.000000,,,,,,,,,,,,,,,,,,,,,,,,,,,,
1732158488.003183,1732158488.006176,70.000000,0.000000,4292.820313,4217.436035,4318.333496,4314.615234,4320.512695,4304.230957,4337.179688,4398.461426,4305.512695,4297.563965,4475.897461,4512.563965,4306.666504,4404.358887,0.000000,1.000000,20.000000,,,,0.000000,2.000000,2.000000,0.000000,4.000000,2.000000,2.000000,0.000000,0.000000,4.000000,4.000000,4.000000,4.000000,4.000000,4.000000,0.000000,,,,,,,,,,,,,,,,,,,,,,,,,,,,
1732158488.010991,1732158488.013984,71.000000,0.000000,4297.179688,4217.820313,4319.230957,4312.692383,4315.256348,4303.205078,4335.384766,4398.846191,4307.179688,4298.461426,4474.487305,4509.230957,4308.205078,4398.077148,0.000000,1.000000,20.000000,,,,0.000000,2.000000,2.000000,0.000000,4.000000,2.000000,2.000000,0.000000,0.000000,4.000000,4.000000,4.000000,4.000000,4.000000,4.000000,0.000000,,,,,,,,,,,,,,,,,,,,,,,,,,,,
1732158488.018799,1732158488.021692,72.000000,0.000000,4304.871582,4220.512695,4320.128418,4313.333496,4310.897461,4301.666504,4335.256348,4401.666504,4311.410156,4301.282227,4485.512695,4516.410156,4313.846191,4402.692383,1524.000000,1.000000,20.000000,,,,0.000000,2.000000,2.000000,0.000000,4.000000,2.000000,2.000000,0.000000,0.000000,4.000000,4.000000,4.000000,4.000000,4.000000,4.000000,0.000000,,,,,,,,,,,,,,,,,18.000000,0.000000,0.498558,0.480347,-0.541199,0.477295,0.978635,-0.028812,-0.037602,-35.618435,44.726013,31.322983
1732158488.026607,1732158488.029501,73.000000,0.000000,4300.897461,4219.615234,4318.846191,4312.179688,4316.922852,4303.077148,4336.410156,4402.051270,4303.589844,4297.436035,4481.794922,4514.230957,4307.436035,4402.051270,1695.000000,1.000000,20.000000,,,,0.000000,2.000000,2.000000,0.000000,4.000000,2.000000,2.000000,0.000000,0.000000,4.000000,4.000000,4.000000,4.000000,4.000000,4.000000,0.000000,,,,,,,,,,,,,,,,,,,,,,,,,,,,
1732158488.034416,1732158488.037509,74.000000,0.000000,4291.538574,4214.871582,4317.307617,4310.384766,4321.153809,4306.538574,4336.538574,4400.000000,4301.538574,4293.461426,4468.333496,4504.230957,4296.666504,4392.436035,1566.000000,1.000000,20.000000,,,,0.000000,2.000000,2.000000,0.000000,4.000000,2.000000,2.000000,0.000000,0.000000,4.000000,4.000000,4.000000,4.000000,4.000000,4.000000,0.000000,,,,,,,,,,,,,,,,,,,,,,,,,,,,
1732158488.042224,1732158488.045317,75.000000,0.000000,4289.487305,4214.615234,4316.282227,4310.128418,4319.871582,4311.153809,4336.153809,4400.256348,4306.794922,4282.948730,4465.512695,4506.153809,4293.974121,4388.333496,1566.000000,1.000000,20.000000,,,,0.000000,2.000000,2.000000,0.000000,4.000000,2.000000,2.000000,0.000000,0.000000,4.000000,4.000000,4.000000,4.000000,4.000000,4.000000,0.000000,,,,,,,,,,,,,,,,,,,,,,,,,,,,
1732158488.050032,1732158488.053225,76.000000,0.000000,4290.256348,4216.025879,4318.077148,4309.615234,4311.025879,4313.077148,4335.641113,4402.051270,4310.641113,4284.102539,4470.769043,4513.205078,4297.051270,4393.974121,1711.000000,1.000000,20.000000,,,,0.000000,2.000000,2.000000,0.000000,4.000000,2.000000,2.000000,0.000000,0.000000,4.000000,4.000000,4.000000,4.000000,4.000000,4.000000,0.000000,,,,,,,,,,,,,,,,,19.000000,0.000000,0.498222,0.480591,-0.541077,0.477539,0.976193,-0.034672,-0.042974,-35.310932,44.746403,30.976616
1732158488.057840,1732158488.061033,77.000000,0.000000,4292.307617,4215.769043,4317.692383,4314.230957,4308.589844,4306.025879,4336.025879,4401.922852,4311.794922,4302.436035,4475.000000,4512.692383,4304.358887,4400.512695,1579.000000,1.000000,20.000000,,,,0.000000,2.000000,2.000000,0.000000,4.000000,2.000000,2.000000,0.000000,0.000000,4.000000,4.000000,4.000000,4.000000,4.000000,4.000000,0.000000,,,,,,,,,,,,,,,,,,,,,,,,,,,,
1732158488.065649,1732158488.069041,78.000000,0.000000,4297.051270,4217.692383,4316.666504,4317.179688,4325.641113,4296.538574,4335.512695,4399.615234,4304.358887,4302.307617,4475.128418,4509.358887,4311.538574,4402.179688,1566.000000,1.000000,20.000000,,,,0.000000,2.000000,2.000000,0.000000,4.000000,2.000000,2.000000,0.000000,0.000000,4.000000,4.000000,4.000000,4.000000,4.000000,4.000000,0.000000,1.000000,0.000000,2.000000,2.000000,0.000000,4.000000,2.000000,2.000000,0.000000,0.000000,4.000000,4.000000,4.000000,4.000000,3.000000,4.000000,,,,,,,,,,,,
1732158488.073457,1732158488.076849,79.000000,0.000000,4297.563965,4219.487305,4317.179688,4311.538574,4325.897461,4299.743652,4333.205078,4397.820313,4298.974121,4292.563965,4474.487305,4505.769043,4309.743652,4399.615234,1566.000000,1.000000,20.000000,,,,0.000000,2.000000,2.000000,0.000000,4.000000,2.000000,2.000000,0.000000,0.000000,4.000000,4.000000,4.000000,4.000000,4.000000,4.000000,0.000000,,,,,,,,,,,,,,,,,,,,,,,,,,,,
1732158488.081265,1732158488.084757,80.000000,0.000000,4293.974121,4220.897461,4317.948730,4311.282227,4302.179688,4309.743652,4334.230957,4399.102539,4301.282227,4294.230957,4474.743652,4506.666504,4307.820313,4397.436035,1711.000000,1.000000,20.000000,,,,0.000000,2.000000,2.000000,0.000000,4.000000,2.000000,2.000000,0.000000,0.000000,4.000000,4.000000,4.000000,4.000000,4.000000,4.000000,0.000000,,,,,,,,,,,,,,,,,20.000000,0.000000,0.497693,0.480896,-0.541077,0.477783,0.972287,-0.043951,-0.045416,-35.330189,44.744587,30.964392
1732158488.089073,1732158488.092566,81.000000,0.000000,4292.948730,4220.128418,4316.794922,4316.666504,4300.128418,4310.512695,4336.410156,4401.922852,4307.692383,4295.641113,4474.743652,4508.846191,4309.230957,4397.563965,1579.000000,1.000000,20.000000,,,,0.000000,2.000000,2.000000,0.000000,4.000000,2.000000,2.000000,0.000000,0.000000,4.000000,4.000000,4.000000,4.000000,4.000000,4.000000,0.000000,,,,,,,,,,,,,,,,,,,,,,,,,,,,
1732158488.096882,1732158488.100574,82.000000,0.000000,4294.615234,4217.692383,4313.589844,4314.230957,4314.230957,4308.205078,4334.615234,4402.692383,4311.282227,4299.102539,4473.461426,4507.436035,4303.461426,4397.051270,1566.000000,1.000000,20.000000,,,,0.000000,2.000000,2.000000,0.000000,4.000000,2.000000,2.000000,0.000000,0.000000,4.000000,4.000000,4.000000,4.000000,4.000000,4.000000,0.000000,,,,,,,,,,,,,,,,,,,,,,,,,,,,
1732158488.104690,1732158488.108382,83.000000,0.000000,4295.256348,4225.641113,4315.769043,4310.897461,4311.666504,4308.589844,4334.102539,4400.384766,4304.102539,4294.871582,4467.820313,4503.846191,4298.717773,4391.794922,1566.000000,1.000000,20.000000,,,,0.000000,2.000000,2.000000,0.000000,4.000000,2.000000,2.000000,0.000000,0.000000,4.000000,4.000000,4.000000,4.000000,4.000000,4.000000,0.000000,,,,,,,,,,,,,,,,,,,,,,,,,,,,
1732158488.112498,1732158488.116290,84.000000,0.000000,4291.538574,4230.256348,4321.282227,4313.717773,4306.025879,4303.205078,4336.666504,4399.615234,4294.230957,4280.000000,4460.897461,4504.102539,4301.282227,4386.922852,1711.000000,1.000000,20.000000,,,,0.000000,2.000000,2.000000,0.000000,4.000000,2.000000,2.000000,0.000000,0.000000,4.000000,4.000000,4.000000,4.000000,4.000000,4.000000,0.000000,,,,,,,,,,,,,,,,,21.000000,0.000000,0.497391,0.481018,-0.541138,0.477905,0.974240,-0.024905,-0.045904,-35.529118,44.984783,31.026157
1732158488.120306,1732158488.124098,85.000000,0.000000,4287.563965,4222.051270,4319.871582,4312.307617,4310.256348,4294.102539,4336.282227,4401.794922,4295.769043,4283.974121,4463.846191,4507.692383,4302.051270,4389.358887,1579.000000,1.000000,20.000000,,,,0.000000,2.000000,2.000000,0.000000,4.000000,2.000000,2.000000,0.000000,0.000000,4.000000,4.000000,4.000000,4.000000,4.000000,4.000000,0.000000,,,,,,,,,,,,,,,,,,,,,,,,,,,,
1732158488.128115,1732158488.132106,86.000000,0.000000,4291.666504,4223.974121,4316.153809,4310.641113,4310.512695,4295.000000,4335.512695,4402.820313,4302.179688,4298.974121,4471.922852,4508.846191,4301.922852,4394.615234,1566.000000,1.000000,20.000000,,,,0.000000,2.000000,2.000000,0.000000,4.000000,2.000000,2.000000,0.000000,0.000000,4.000000,4.000000,4.000000,4.000000,4.000000,4.000000,0.000000,,,,,,,,,,,,,,,,,,,,,,,,,,,,
1732158488.135923,1732158488.139914,87.000000,0.000000,4297.179688,4233.846191,4318.077148,4314.743652,4311.282227,4303.846191,4337.051270,4404.358887,4303.461426,4297.948730,4473.974121,4509.743652,4307.692383,4397.948730,1566.000000,1.000000,20.000000,,,,0.000000,2.000000,2.000000,0.000000,4.000000,2.000000,2.000000,0.000000,0.000000,4.000000,4.000000,4.000000,4.000000,4.000000,4.000000,0.000000,,,,,,,,,,,,,,,,,,,,,,,,,,,,
1732158488.143731,1732158488.147623,88.000000,0.000000,4296.282227,4234.615234,4320.000000,4315.000000,4313.205078,4303.205078,4336.153809,4404.871582,4306.538574,4292.948730,4471.410156,4509.230957,4311.410156,4397.051270,1711.000000,1.000000,20.000000,,,,0.000000,2.000000,2.000000,0.000000,4.000000,2.000000,2.000000,0.000000,0.000000,4.000000,4.000000,4.000000,4.000000,4.000000,4.000000,0.000000,,,,,,,,,,,,,,,,,22.000000,0.000000,0.497391,0.481018,-0.541138,0.477905,0.970822,-0.036626,-0.043951,-35.675255,45.209339,31.106188
1732158488.151539,1732158488.155431,89.000000,0.000000,4293.717773,4231.666504,4316.410156,4311.922852,4310.128418,4297.563965,4334.358887,4401.794922,4305.641113,4295.897461,4471.282227,4505.769043,4308.333496,4395.897461,1579.000000,1.000000,20.000000,,,,0.000000,2.000000,2.000000,0.000000,4.000000,2.000000,2.000000,0.000000,0.000000,4.000000,4.000000,4.000000,4.000000,4.000000,4.000000,0.000000,,,,,,,,,,,,,,,,,,,,,,,,,,,,
1732158488.159348,1732158488.163439,90.000000,0.000000,4293.846191,4227.563965,4317.563965,4310.897461,4308.205078,4300.769043,4335.512695,4398.846191,4297.436035,4296.153809,4473.077148,4507.948730,4308.205078,4398.077148,1566.000000,1.000000,20.000000,,,,0.000000,2.000000,2.000000,0.000000,4.000000,2.000000,2.000000,0.000000,0.000000,4.000000,4.000000,4.000000,4.000000,4.000000,4.000000,0.000000,,,,,,,,,,,,,,,,,,,,,,,,,,,,
1732158488.167156,1732158488.171247,91.000000,0.000000,4293.846191,4224.743652,4320.641113,4313.077148,4313.589844,4299.487305,4335.897461,4399.102539,4296.025879,4294.102539,4473.589844,4513.333496,4310.000000,4398.717773,1566.000000,1.000000,20.000000,,,,0.000000,2.000000,2.000000,0.000000,4.000000,2.000000,2.000000,0.000000,0.000000,4.000000,4.000000,4.000000,4.000000,4.000000,4.000000,0.000000,,,,,,,,,,,,,,,,,,,,,,,,,,,,
1732158488.174964,1732158488.178955,92.000000,0.000000,4293.205078,4231.153809,4318.461426,4318.717773,4313.717773,4292.563965,4334.743652,4399.358887,4305.512695,4293.589844,4474.230957,4514.358887,4309.615234,4395.641113,1711.000000,1.000000,20.000000,,,,0.000000,2.000000,2.000000,0.000000,4.000000,2.000000,2.000000,0.000000,0.000000,4.000000,4.000000,4.000000,4.000000,4.000000,4.000000,0.000000,,,,,,,,,,,,,,,,,23.000000,0.000000,0.496737,0.481079,-0.541199,0.478455,0.985472,-0.053229,-0.054694,-35.738621,45.146233,31.129345
1732158488.182772,1732158488.186764,93.000000,0.000000,4295.256348,4235.384766,4317.948730,4319.615234,4306.794922,4300.641113,4334.615234,4399.743652,4307.436035,4293.974121,4474.230957,4509.871582,4309.871582,4395.512695,1579.000000,1.000000,20.000000,,,,0.000000,2.000000,2.000000,0.000000,4.000000,2.000000,2.000000,0.000000,0.000000,4.000000,4.000000,4.000000,4.000000,4.000000,4.000000,0.000000,,,,,,,,,,,,,,,,,,,,,,,,,,,,
1732158488.190581,1732158488.194772,94.000000,0.000000,4295.256348,4232.307617,4318.077148,4314.230957,4317.563965,4307.307617,4334.871582,4401.666504,4298.589844,4296.410156,4473.717773,4510.769043,4311.538574,4396.282227,1566.000000,1.000000,20.000000,,,,0.000000,2.000000,2.000000,0.000000,4.000000,2.000000,2.000000,0.000000,0.000000,4.000000,4.000000,4.000000,4.000000,4.000000,4.000000,0.000000,,,,,,,,,,,,,,,,,,,,,,,,,,,,
1732158488.198389,1732158488.202580,95.000000,0.000000,4287.051270,4231.538574,4315.641113,4310.384766,4323.205078,4298.846191,4335.384766,4403.589844,4298.974121,4296.666504,4473.717773,4515.256348,4311.410156,4394.743652,1566.000000,1.000000,20.000000,,,,0.000000,2.000000,2.000000,0.000000,4.000000,2.000000,2.000000,0.000000,0.000000,4.000000,4.000000,4.000000,4.000000,4.000000,4.000000,0.000000,,,,,,,,,,,,,,,,,,,,,,,,,,,,
1732158488.206197,1732158488.210288,96.000000,0.000000,4282.563965,4235.128418,4313.077148,4312.051270,4299.358887,4301.025879,4336.153809,4401.025879,4307.948730,4294.230957,4473.077148,4511.153809,4313.333496,4394.615234,1711.000000,1.000000,20.000000,,,,0.000000,2.000000,2.000000,0.000000,4.000000,2.000000,2.000000,0.000000,0.000000,4.000000,4.000000,4.000000,4.000000,4.000000,4.000000,0.000000,,,,,,,,,,,,,,,,,24.000000,0.000000,0.496671,0.480957,-0.541260,0.478577,0.977658,-0.040044,-0.041509,-35.819950,45.295116,31.106436
1732158488.214005,1732158488.218096,97.000000,0.000000,4293.205078,4243.077148,4314.615234,4317.179688,4288.333496,4307.692383,4335.897461,4400.256348,4308.846191,4297.051270,4472.948730,4505.256348,4318.461426,4397.692383,1579.000000,1.000000,20.000000,,,,0.000000,2.000000,2.000000,0.000000,4.000000,2.000000,2.000000,0.000000,0.000000,4.000000,4.000000,4.000000,4.000000,4.000000,4.000000,0.000000,,,,,,,,,,,,,,,,,,,,,,,,,,,,
1732158488.221814,1732158488.225705,98.000000,0.000000,4295.512695,4249.230957,4316.282227,4320.256348,4304.230957,4298.846191,4337.692383,4406.794922,4302.051270,4306.410156,4474.102539,4506.410156,4320.384766,4397.820313,1566.000000,1.000000,20.000000,,,,0.000000,2.000000,2.000000,0.000000,4.000000,2.000000,2.000000,0.000000,0.000000,4.000000,4.000000,4.000000,4.000000,4.000000,4.000000,0.000000,,,,,,,,,,,,,,,,,,,,,,,,,,,,
1732158488.229622,1732158488.233513,99.000000,0.000000,4284.230957,4246.794922,4316.538574,4315.641113,4303.717773,4291.666504,4340.641113,4405.384766,4296.538574,4305.897461,4473.589844,4509.102539,4318.974121,4395.512695,1566.000000,1.000000,20.000000,,,,0.000000,2.000000,2.000000,0.000000,4.000000,2.000000,2.000000,0.000000,0.000000,4.000000,4.000000,4.000000,4.000000,4.000000,4.000000,0.000000,,,,,,,,,,,,,,,,,,,,,,,,,,,,
1732158488.237430,1732158488.241421,100.000000,0.000000,4283.717773,4244.871582,4316.922852,4311.025879,4290.641113,4297.051270,4340.769043,4397.692383,4297.948730,4298.077148,4471.025879,4508.461426,4316.922852,4394.743652,1711.000000,1.000000,20.000000,,,,0.000000,2.000000,2.000000,0.000000,4.000000,2.000000,2.000000,0.000000,0.000000,4.000000,4.000000,4.000000,4.000000,4.000000,4.000000,0.000000,,,,,,,,,,,,,,,,,25.000000,0.000000,0.496649,0.480835,-0.541443,0.478516,0.972287,-0.041509,-0.048346,-35.919159,45.227375,31.217880
1732158488.245238,1732158488.249229,101.000000,0.000000,4290.512695,4248.461426,4315.897461,4312.820313,4295.128418,4298.846191,4339.230957,4402.692383,4306.538574,4298.333496,4470.897461,4506.538574,4316.282227,4396.025879,1579.000000,1.000000,20.000000,,,,0.000000,2.000000,2.000000,0.000000,4.000000,2.000000,2.000000,0.000000,0.000000,4.000000,4.000000,4.000000,4.000000,4.000000,4.000000,0.000000,,,,,,,,,,,,,,,,,,,,,,,,,,,,
1732158488.253047,1732158488.256838,102.000000,0.000000,4289.743652,4250.000000,4314.230957,4313.461426,4302.307617,4296.794922,4339.743652,4407.179688,4311.153809,4305.384766,4472.436035,4506.922852,4319.230957,4397.179688,1566.000000,1.000000,20.000000,,,,0.000000,2.000000,2.000000,0.000000,4.000000,2.000000,2.000000,0.000000,0.000000,4.000000,4.000000,4.000000,4.000000,4.000000,4.000000,0.000000,,,,,,,,,,,,,,,,,,,,,,,,,,,,
1732158488.260855,1732158488.264646,103.000000,0.000000,4285.128418,4248.589844,4315.641113,4309.871582,4296.410156,4297.179688,4338.461426,4401.922852,4308.333496,4308.717773,4472.436035,4506.538574,4320.000000,4396.794922,1566.000000,1.000000,20.000000,,,,0.000000,2.000000,2.000000,0.000000,4.000000,2.000000,2.000000,0.000000,0.000000,4.000000,4.000000,4.000000,4.000000,4.000000,4.000000,0.000000,,,,,,,,,,,,,,,,,,,,,,,,,,,,
1732158488.268663,1732158488.272354,104.000000,0.000000,4282.436035,4245.256348,4316.153809,4305.512695,4291.922852,4296.410156,4334.487305,4400.256348,4308.461426,4303.846191,4472.436035,4501.153809,4318.717773,4397.692383,1711.000000,1.000000,20.000000,,,,0.000000,2.000000,2.000000,0.000000,4.000000,2.000000,2.000000,0.000000,0.000000,4.000000,4.000000,4.000000,4.000000,4.000000,4.000000,0.000000,,,,,,,,,,,,,,,,,26.000000,0.000000,0.496649,0.480835,-0.541443,0.478516,0.972287,-0.041509,-0.048346,-35.849518,45.022507,31.383150
1732158488.276472,1732158488.280162,105.000000,0.000000,4283.077148,4243.717773,4314.487305,4301.025879,4305.897461,4297.307617,4334.230957,4403.333496,4306.282227,4297.307617,4473.974121,4497.820313,4323.205078,4399.487305,1579.000000,1.000000,20.000000,,,,0.000000,2.000000,2.000000,0.000000,4.000000,2.000000,2.000000,0.000000,0.000000,4.000000,4.000000,4.000000,4.000000,4.000000,4.000000,0.000000,,,,,,,,,,,,,,,,,,,,,,,,,,,,
1732158488.284280,1732158488.287771,106.000000,0.000000,4283.205078,4246.538574,4315.128418,4301.666504,4313.589844,4298.589844,4336.025879,4402.307617,4297.563965,4298.333496,4474.102539,4500.000000,4327.051270,4396.666504,1566.000000,1.000000,20.000000,,,,0.000000,2.000000,2.000000,0.000000,4.000000,2.000000,2.000000,0.000000,0.000000,4.000000,4.000000,4.000000,4.000000,4.000000,4.000000,0.000000,,,,,,,,,,,,,,,,,,,,,,,,,,,,
1732158488.292088,1732158488.295579,107.000000,0.000000,4281.794922,4249.615234,4316.666504,4306.410156,4296.282227,4296.025879,4335.512695,4400.000000,4295.256348,4300.769043,4473.077148,4498.717773,4325.769043,4398.589844,1566.000000,1.000000,20.000000,,,,0.000000,2.000000,2.000000,0.000000,4.000000,2.000000,2.000000,0.000000,0.000000,4.000000,4.000000,4.000000,4.000000,4.000000,4.000000,0.000000,,,,,,,,,,,,,,,,,,,,,,,,,,,,
1732158488.299896,1732158488.303287,108.000000,0.000000,4285.512695,4250.256348,4316.410156,4309.358887,4285.384766,4293.205078,4334.358887,4401.538574,4304.230957,4297.436035,4475.128418,4500.897461,4326.666504,4410.000000,1711.000000,1.000000,20.000000,,,,0.000000,2.000000,2.000000,0.000000,4.000000,2.000000,2.000000,0.000000,0.000000,4.000000,4.000000,4.000000,4.000000,4.000000,4.000000,0.000000,,,,,,,,,,,,,,,,,27.000000,0.000000,0.496516,0.480896,-0.541565,0.478455,0.985960,-0.039556,-0.049322,-35.686443,45.051563,31.252018
1732158488.307704,1732158488.311096,109.000000,0.000000,4291.025879,4250.128418,4314.487305,4308.717773,4293.717773,4293.846191,4335.000000,4403.846191,4306.153809,4294.615234,4477.436035,4510.641113,4328.846191,4412.692383,1579.000000,1.000000,20.000000,,,,0.000000,2.000000,2.000000,0.000000,4.000000,2.000000,2.000000,0.000000,0.000000,4.000000,4.000000,4.000000,4.000000,4.000000,4.000000,0.000000,,,,,,,,,,,,,,,,,,,,,,,,,,,,
1732158488.315513,1732158488.318704,110.000000,0.000000,4284.871582,4250.128418,4314.487305,4309.487305,4298.589844,4294.358887,4335.000000,4403.589844,4299.487305,4297.436035,4475.641113,4511.282227,4327.051270,4404.102539,1566.000000,1.000000,20.000000,,,,0.000000,2.000000,2.000000,0.000000,4.000000,2.000000,2.000000,0.000000,0.000000,4.000000,4.000000,4.000000,4.000000,4.000000,4.000000,0.000000,,,,,,,,,,,,,,,,,,,,,,,,,,,,
1732158488.323321,1732158488.326512,111.000000,0.000000,4280.128418,4249.743652,4316.538574,4311.666504,4292.307617,4294.102539,4334.358887,4401.025879,4299.871582,4301.666504,4475.256348,4506.666504,4325.384766,4404.358887,1566.000000,1.000000,20.000000,,,,0.000000,2.000000,2.000000,0.000000,4.000000,2.000000,2.000000,0.000000,0.000000,4.000000,4.000000,4.000000,4.000000,4.000000,4.000000,0.000000,,,,,,,,,,,,,,,,,,,,,,,,,,,,
1732158488.331129,1732158488.334420,112.000000,0.000000,4286.153809,4250.897461,4317.179688,4307.948730,4292.820313,4293.461426,4335.512695,4401.538574,4305.256348,4305.256348,4478.333496,4508.589844,4329.871582,4412.307617,1711.000000,1.000000,20.000000,,,,0.000000,2.000000,2.000000,0.000000,4.000000,2.000000,2.000000,0.000000,0.000000,4.000000,4.000000,4.000000,4.000000,4.000000,4.000000,0.000000,,,,,,,,,,,,,,,,,28.000000,0.000000,0.495977,0.481018,-0.541626,0.478821,0.969845,-0.049811,-0.041997,-35.557686,44.955101,31.002468
1732158488.338937,1732158488.342228,113.000000,0.000000,4287.051270,4249.615234,4317.563965,4304.871582,4306.538574,4294.615234,4334.615234,4405.256348,4307.563965,4305.256348,4478.589844,4508.717773,4334.487305,4414.358887,1579.000000,1.000000,20.000000,,,,0.000000,2.000000,2.000000,0.000000,4.000000,2.000000,2.000000,0.000000,0.000000,4.000000,4.000000,4.000000,4.000000,4.000000,4.000000,0.000000,,,,,,,,,,,,,,,,,,,,,,,,,,,,
1732158488.346746,1732158488.350236,114.000000,0.000000,4282.692383,4248.846191,4316.922852,4308.461426,4309.871582,4298.077148,4334.230957,4405.128418,4309.615234,4300.769043,4476.025879,4508.205078,4333.333496,4410.512695,1566.000000,1.000000,20.000000,,,,0.000000,2.000000,2.000000,0.000000,4.000000,2.000000,2.000000,0.000000,0.000000,4.000000,4.000000,4.000000,4.000000,4.000000,4.000000,0.000000,,,,,,,,,,,,,,,,,,,,,,,,,,,,
1732158488.354554,1732158488.358045,115.000000,0.000000,4283.974121,4254.102539,4314.487305,4311.538574,4287.436035,4299.743652,4338.333496,4402.436035,4312.179688,4295.897461,4475.000000,4504.615234,4328.333496,4408.589844,1566.000000,1.000000,20.000000,,,,0.000000,2.000000,2.000000,0.000000,4.000000,2.000000,2.000000,0.000000,0.000000,4.000000,4.000000,4.000000,4.000000,4.000000,4.000000,0.000000,,,,,,,,,,,,,,,,,,,,,,,,,,,,
1732158488.362362,1732158488.365953,116.000000,0.000000,4288.077148,4254.743652,4313.333496,4310.641113,4274.487305,4298.974121,4341.410156,4401.025879,4305.641113,4297.051270,4474.615234,4498.846191,4325.897461,4410.897461,1711.000000,1.000000,20.000000,,,,0.000000,2.000000,2.000000,0.000000,4.000000,2.000000,2.000000,0.000000,0.000000,4.000000,4.000000,4.000000,4.000000,4.000000,4.000000,0.000000,,,,,,,,,,,,,,,,,29.000000,0.000000,0.495749,0.481079,-0.541565,0.479065,0.969845,-0.049811,-0.041997,-35.661724,44.848633,30.766998
1732158488.370170,1732158488.373761,117.000000,0.000000,4287.948730,4250.384766,4314.230957,4307.820313,4290.128418,4297.051270,4339.615234,4401.025879,4295.641113,4298.846191,4475.256348,4499.743652,4328.974121,4409.743652,1579.000000,1.000000,20.000000,,,,0.000000,2.000000,2.000000,0.000000,4.000000,2.000000,2.000000,0.000000,0.000000,4.000000,4.000000,4.000000,4.000000,4.000000,4.000000,0.000000,,,,,,,,,,,,,,,,,,,,,,,,,,,,
1732158488.377979,1732158488.381369,118.000000,0.000000,4286.794922,4253.205078,4315.512695,4307.179688,4293.589844,4294.358887,4336.410156,4399.871582,4294.871582,4291.025879,4476.666504,4503.974121,4331.282227,4404.615234,1566.000000,1.000000,20.000000,,,,0.000000,2.000000,2.000000,0.000000,4.000000,2.000000,2.000000,0.000000,0.000000,4.000000,4.000000,4.000000,4.000000,4.000000,4.000000,0.000000,,,,,,,,,,,,,,,,,,,,,,,,,,,,
1732158488.385787,1732158488.389178,119.000000,0.000000,4290.769043,4261.538574,4315.897461,4313.333496,4290.512695,4295.384766,4335.128418,4399.487305,4297.820313,4286.666504,4476.153809,4505.384766,4329.871582,4402.436035,1566.000000,1.000000,20.000000,,,,0.000000,2.000000,2.000000,0.000000,4.000000,2.000000,2.000000,0.000000,0.000000,4.000000,4.000000,4.000000,4.000000,4.000000,4.000000,0.000000,,,,,,,,,,,,,,,,,,,,,,,,,,,,
1732158488.393595,1732158488.396886,120.000000,0.000000,4288.846191,4263.717773,4314.871582,4316.922852,4308.974121,4295.512695,4335.128418,4402.692383,4295.256348,4290.641113,4475.512695,4503.717773,4328.333496,4400.000000,1711.000000,1.000000,20.000000,,,,0.000000,2.000000,2.000000,0.000000,4.000000,2.000000,2.000000,0.000000,0.000000,4.000000,4.000000,4.000000,4.000000,4.000000,4.000000,0.000000,,,,,,,,,,,,,,,,,30.000000,0.000000,0.495298,0.481018,-0.541870,0.479248,0.971798,-0.043462,-0.050299,-35.709332,44.814060,31.016270
1732158488.401403,1732158488.404694,121.000000,0.000000,4282.179688,4261.922852,4313.717773,4313.717773,4310.256348,4292.948730,4336.153809,4401.666504,4293.846191,4291.025879,4473.846191,4503.974121,4327.179688,4399.102539,1579.000000,1.000000,20.000000,,,,0.000000,2.000000,2.000000,0.000000,4.000000,2.000000,2.000000,0.000000,0.000000,4.000000,4.000000,4.000000,4.000000,4.000000,4.000000,0.000000,,,,,,,,,,,,,,,,,,,,,,,,,,,,
1732158488.409212,1732158488.412702,122.000000,0.000000,4283.589844,4261.794922,4316.794922,4314.615234,4282.436035,4294.102539,4336.282227,4397.948730,4300.512695,4290.000000,4471.538574,4506.538574,4325.128418,4402.820313,1566.000000,1.000000,20.000000,,,,0.000000,2.000000,2.000000,0.000000,4.000000,2.000000,2.000000,0.000000,0.000000,4.000000,4.000000,4.000000,4.000000,4.000000,4.000000,0.000000,,,,,,,,,,,,,,,,,,,,,,,,,,,,
1732158488.417020,1732158488.420510,123.000000,0.000000,4290.000000,4260.897461,4317.179688,4315.641113,4276.153809,4296.153809,4334.871582,4399.871582,4299.871582,4286.153809,4470.769043,4503.077148,4322.948730,4401.025879,1566.000000,1.000000,20.000000,,,,0.000000,2.000000,2.000000,0.000000,4.000000,2.000000,2.000000,0.000000,0.000000,4.000000,4.000000,4.000000,4.000000,4.000000,4.000000,0.000000,,,,,,,,,,,,,,,,,,,,,,,,,,,,
1732158488.424828,1732158488.428418,124.000000,0.000000,4288.589844,4259.871582,4313.077148,4309.871582,4294.487305,4295.128418,4335.000000,4405.000000,4295.641113,4281.922852,4472.179688,4496.922852,4323.974121,4397.948730,1711.000000,1.000000,20.000000,,,,0.000000,2.000000,2.000000,0.000000,4.000000,2.000000,2.000000,0.000000,0.000000,4.000000,4.000000,4.000000,4.000000,4.000000,4.000000,0.000000,,,,,,,,,,,,,,,,,31.000000,0.000000,0.495437,0.480774,-0.542175,0.479004,0.986937,-0.040044,-0.045904,-35.681225,44.669388,31.118177
1732158488.432636,1732158488.436227,125.000000,0.000000,4286.922852,4261.410156,4314.487305,4309.487305,4294.102539,4297.307617,4336.666504,4403.461426,4301.025879,4284.358887,4472.820313,4502.692383,4326.538574,4404.230957,1579.000000,1.000000,20.000000,,,,0.000000,2.000000,2.000000,0.000000,4.000000,2.000000,2.000000,0.000000,0.000000,4.000000,4.000000,4.000000,4.000000,4.000000,4.000000,0.000000,,,,,,,,,,,,,,,,,,,,,,,,,,,,
1732158488.440445,1732158488.444235,126.000000,0.000000,4292.307617,4261.025879,4317.563965,4314.102539,4293.974121,4299.102539,4336.922852,4398.333496,4304.102539,4286.282227,4471.666504,4510.128418,4326.153809,4408.077148,1566.000000,1.000000,20.000000,,,,0.000000,2.000000,2.000000,0.000000,4.000000,2.000000,2.000000,0.000000,0.000000,4.000000,4.000000,4.000000,4.000000,4.000000,4.000000,0.000000,,,,,,,,,,,,,,,,,,,,,,,,,,,,
1732158488.448253,1732158488.452043,127.000000,0.000000,4293.077148,4258.205078,4315.256348,4312.563965,4305.897461,4295.128418,4335.128418,4400.384766,4295.256348,4281.922852,4470.256348,4504.615234,4323.589844,4402.948730,20.000000,1.000000,20.000000,,,,0.000000,2.000000,2.000000,0.000000,4.000000,2.000000,2.000000,0.000000,0.000000,4.000000,4.000000,4.000000,4.000000,4.000000,4.000000,0.000000,,,,,,,,,,,,,,,,,,,,,,,,,,,,
1732158488.456061,1732158488.459951,0.000000,0.000000,4292.948730,4261.153809,4312.692383,4310.512695,4294.358887,4295.128418,4337.307617,4404.358887,4297.179688,4281.282227,4471.153809,4503.461426,4325.256348,4404.230957,0.000000,1.000000,20.000000,,,,0.000000,2.000000,2.000000,0.000000,4.000000,2.000000,2.000000,0.000000,0.000000,4.000000,4.000000,4.000000,4.000000,4.000000,4.000000,0.000000,,,,,,,,,,,,,,,,,0.000000,0.000000,0.495437,0.480774,-0.542175,0.479004,0.975217,-0.042974,-0.045416,-35.836792,44.827202,31.000725
1732158488.463869,1732158488.467759,1.000000,0.000000,4294.743652,4261.025879,4313.333496,4312.692383,4274.615234,4299.230957,4341.025879,4402.307617,4309.743652,4284.358887,4474.487305,4511.794922,4328.846191,4408.589844,1613.000000,1.000000,20.000000,,,,0.000000,2.000000,2.000000,0.000000,4.000000,2.000000,2.000000,0.000000,0.000000,4.000000,4.000000,4.000000,4.000000,4.000000,4.000000,0.000000,,,,,,,,,,,,,,,,,,,,,,,,,,,,
