title:4seven, start timestamp:1732158554.928066, stop timestamp:1732158598.560584, headset type:EPOCX, headset serial:E5020C3A, headset firmware:730, channels:67, sampling rate:eeg_128;mot_32, samples:5589      , version:2.2, 
Timestamp,OriginalTimestamp,EEG.Counter,EEG.Interpolated,EEG.AF3,EEG.F7,EEG.F3,EEG.FC5,EEG.T7,EEG.P7,EEG.O1,EEG.O2,EEG.P8,EEG.T8,EEG.FC6,EEG.F4,EEG.F8,EEG.AF4,EEG.RawCq,EEG.Battery,EEG.BatteryPercent,MarkerIndex,MarkerType,MarkerValueInt,EEG.MarkerHardware,CQ.AF3,CQ.F7,CQ.F3,CQ.FC5,CQ.T7,CQ.P7,CQ.O1,CQ.O2,CQ.P8,CQ.T8,CQ.FC6,CQ.F4,CQ.F8,CQ.AF4,CQ.Overall,EQ.SampleRateQuality,EQ.OVERALL,EQ.AF3,EQ.F7,EQ.F3,EQ.FC5,EQ.T7,EQ.P7,EQ.O1,EQ.O2,EQ.P8,EQ.T8,EQ.FC6,EQ.F4,EQ.F8,EQ.AF4,MOT.CounterMems,MOT.InterpolatedMems,MOT.Q0,MOT.Q1,MOT.Q2,MOT.Q3,MOT.AccX,MOT.AccY,MOT.AccZ,MOT.MagX,MOT.MagY,MOT.MagZ
1732158554.928066,1732158554.930430,65.000000,0.000000,4282.820313,4278.846191,4311.025879,4299.230957,4282.051270,4283.717773,4334.615234,4405.897461,4313.717773,4286.538574,4490.384766,4504.615234,4348.974121,4408.589844,1609.000000,1.000000,20.000000,,,,0.000000,2.000000,2.000000,0.000000,4.000000,2.000000,2.000000,0.000000,0.000000,4.000000,4.000000,4.000000,4.000000,4.000000,4.000000,0.000000,,,,,,,,,,,,,,,,,,,,,,,,,,,,
1732158554.935875,1732158554.938438,66.000000,0.000000,4282.948730,4278.974121,4313.333496,4297.692383,4278.974121,4285.000000,4335.000000,4403.846191,4313.333496,4284.102539,4485.384766,4506.025879,4343.717773,4408.205078,1362.000000,1.000000,20.000000,,,,0.000000,2.000000,2.000000,0.000000,4.000000,2.000000,2.000000,0.000000,0.000000,4.000000,4.000000,4.000000,4.000000,4.000000,4.000000,0.000000,,,,,,,,,,,,,,,,,,,,,,,,,,,,
1732158554.943683,1732158554.946247,67.000000,0.000000,4281.922852,4278.333496,4315.512695,4297.307617,4277.948730,4289.487305,4334.743652,4400.128418,4313.589844,4280.000000,4477.179688,4510.128418,4347.820313,4408.846191,1431.000000,1.000000,20.000000,,,,0.000000,2.000000,2.000000,0.000000,4.000000,2.000000,2.000000,0.000000,0.000000,4.000000,4.000000,4.000000,4.000000,4.000000,4.000000,0.000000,,,,,,,,,,,,,,,,,,,,,,,,,,,,
1732158554.951491,1732158554.954155,68.000000,0.000000,4281.922852,4279.487305,4315.256348,4297.820313,4280.641113,4285.512695,4334.615234,4400.256348,4316.410156,4282.563965,4480.256348,4508.717773,4353.205078,4410.512695,1432.000000,1.000000,20.000000,,,,0.000000,2.000000,2.000000,0.000000,4.000000,2.000000,2.000000,0.000000,0.000000,4.000000,4.000000,4.000000,4.000000,4.000000,4.000000,0.000000,,,,,,,,,,,,,,,,,17.000000,0.000000,0.539403,0.496094,-0.521545,0.436951,0.969357,0.101087,-0.035649,-34.273670,46.037132,31.726902
1732158554.959299,1732158554.961963,69.000000,0.000000,4281.794922,4279.102539,4312.307617,4297.948730,4281.025879,4280.384766,4335.256348,4403.846191,4318.589844,4283.333496,4489.230957,4510.128418,4349.102539,4412.051270,1200.000000,1.000000,20.000000,,,,0.000000,2.000000,2.000000,0.000000,4.000000,2.000000,2.000000,0.000000,0.000000,4.000000,4.000000,4.000000,4.000000,4.000000,4.000000,0.000000,,,,,,,,,,,,,,,,,,,,,,,,,,,,
1732158554.967108,1732158554.969971,70.000000,0.000000,4281.794922,4276.410156,4310.769043,4297.563965,4280.512695,4283.333496,4336.153809,4402.051270,4319.102539,4282.179688,4490.897461,4517.563965,4345.128418,4413.461426,0.000000,1.000000,20.000000,,,,0.000000,2.000000,2.000000,0.000000,4.000000,2.000000,2.000000,0.000000,0.000000,4.000000,4.000000,4.000000,4.000000,4.000000,4.000000,0.000000,,,,,,,,,,,,,,,,,,,,,,,,,,,,
1732158554.974916,1732158554.977779,71.000000,0.000000,4281.410156,4278.205078,4312.307617,4297.307617,4280.000000,4284.871582,4335.000000,4400.769043,4314.871582,4283.333496,4485.000000,4515.897461,4347.563965,4414.102539,0.000000,1.000000,20.000000,,,,0.000000,2.000000,2.000000,0.000000,4.000000,2.000000,2.000000,0.000000,0.000000,4.000000,4.000000,4.000000,4.000000,4.000000,4.000000,0.000000,,,,,,,,,,,,,,,,,,,,,,,,,,,,
1732158554.982724,1732158554.985687,72.000000,0.000000,4281.538574,4280.769043,4312.436035,4297.692383,4277.692383,4281.922852,4335.641113,4401.025879,4309.615234,4282.692383,4479.871582,4506.794922,4345.512695,4413.974121,1536.000000,1.000000,20.000000,,,,0.000000,2.000000,2.000000,0.000000,4.000000,2.000000,2.000000,0.000000,0.000000,4.000000,4.000000,4.000000,4.000000,4.000000,4.000000,0.000000,,,,,,,,,,,,,,,,,18.000000,0.000000,0.540496,0.495911,-0.520996,0.436462,0.960078,0.108900,-0.028812,-34.413338,45.900078,31.762125
1732158554.990533,1732158554.993496,73.000000,0.000000,4280.897461,4278.077148,4312.563965,4296.922852,4276.538574,4282.307617,4334.230957,4399.743652,4311.922852,4276.153809,4476.794922,4505.000000,4335.128418,4410.897461,1696.000000,1.000000,20.000000,,,,0.000000,2.000000,2.000000,0.000000,4.000000,2.000000,2.000000,0.000000,0.000000,4.000000,4.000000,4.000000,4.000000,4.000000,4.000000,0.000000,,,,,,,,,,,,,,,,,,,,,,,,,,,,
1732158554.998341,1732158555.001504,74.000000,0.000000,4277.307617,4276.410156,4314.102539,4293.589844,4278.205078,4285.256348,4329.871582,4400.256348,4314.102539,4272.307617,4475.897461,4506.666504,4330.512695,4405.384766,1556.000000,1.000000,20.000000,,,,0.000000,2.000000,2.000000,0.000000,4.000000,2.000000,2.000000,0.000000,0.000000,4.000000,4.000000,4.000000,4.000000,4.000000,4.000000,0.000000,,,,,,,,,,,,,,,,,,,,,,,,,,,,
1732158555.006149,1732158555.009312,75.000000,0.000000,4273.974121,4278.205078,4313.974121,4292.436035,4279.871582,4292.307617,4331.538574,4402.436035,4312.051270,4276.666504,4473.717773,4504.615234,4337.179688,4400.897461,1556.000000,1.000000,20.000000,,,,0.000000,2.000000,2.000000,0.000000,4.000000,2.000000,2.000000,0.000000,0.000000,4.000000,4.000000,4.000000,4.000000,4.000000,4.000000,0.000000,,,,,,,,,,,,,,,,,,,,,,,,,,,,
1732158555.013957,1732158555.017220,76.000000,0.000000,4278.589844,4279.615234,4312.563965,4296.025879,4280.897461,4295.384766,4336.922852,4402.179688,4314.487305,4282.179688,4475.384766,4506.025879,4342.051270,4403.846191,1706.000000,1.000000,20.000000,,,,0.000000,2.000000,2.000000,0.000000,4.000000,2.000000,2.000000,0.000000,0.000000,4.000000,4.000000,4.000000,4.000000,4.000000,4.000000,0.000000,,,,,,,,,,,,,,,,,19.000000,0.000000,0.540826,0.496033,-0.520691,0.436279,0.960078,0.108900,-0.028812,-34.373138,45.862396,31.858988
1732158555.021765,1732158555.025028,77.000000,0.000000,4282.436035,4281.538574,4313.461426,4298.205078,4281.410156,4287.051270,4336.538574,4399.487305,4316.025879,4283.461426,4482.948730,4508.205078,4343.717773,4408.077148,1579.000000,1.000000,20.000000,,,,0.000000,2.000000,2.000000,0.000000,4.000000,2.000000,2.000000,0.000000,0.000000,4.000000,4.000000,4.000000,4.000000,4.000000,4.000000,0.000000,,,,,,,,,,,,,,,,,,,,,,,,,,,,
1732158555.029574,1732158555.032836,78.000000,0.000000,4273.333496,4281.025879,4314.487305,4297.307617,4280.128418,4279.487305,4333.461426,4397.307617,4311.666504,4282.179688,4481.025879,4505.897461,4342.948730,4402.692383,1556.000000,1.000000,20.000000,,,,0.000000,2.000000,2.000000,0.000000,4.000000,2.000000,2.000000,0.000000,0.000000,4.000000,4.000000,4.000000,4.000000,4.000000,4.000000,0.000000,1.000000,0.000000,2.000000,2.000000,0.000000,4.000000,2.000000,2.000000,0.000000,0.000000,4.000000,4.000000,4.000000,4.000000,4.000000,4.000000,,,,,,,,,,,,
1732158555.037382,1732158555.040644,79.000000,0.000000,4268.846191,4278.846191,4312.820313,4297.436035,4282.563965,4280.897461,4335.000000,4396.666504,4313.974121,4280.897461,4476.153809,4504.743652,4340.128418,4400.897461,1556.000000,1.000000,20.000000,,,,0.000000,2.000000,2.000000,0.000000,4.000000,2.000000,2.000000,0.000000,0.000000,4.000000,4.000000,4.000000,4.000000,4.000000,4.000000,0.000000,,,,,,,,,,,,,,,,,,,,,,,,,,,,
1732158555.045190,1732158555.048353,80.000000,0.000000,4277.948730,4279.743652,4313.205078,4298.077148,4280.897461,4283.205078,4335.897461,4402.051270,4321.153809,4281.922852,4480.000000,4507.051270,4340.512695,4406.153809,1706.000000,1.000000,20.000000,,,,0.000000,2.000000,2.000000,0.000000,4.000000,2.000000,2.000000,0.000000,0.000000,4.000000,4.000000,4.000000,4.000000,4.000000,4.000000,0.000000,,,,,,,,,,,,,,,,,20.000000,0.000000,0.541205,0.496155,-0.520386,0.436035,0.972287,0.099622,-0.022952,-34.423908,45.860207,31.970779
1732158555.052998,1732158555.056161,81.000000,0.000000,4280.897461,4280.000000,4314.230957,4297.563965,4276.410156,4280.897461,4334.230957,4406.794922,4316.922852,4281.922852,4481.666504,4509.615234,4342.820313,4404.615234,1579.000000,1.000000,20.000000,,,,0.000000,2.000000,2.000000,0.000000,4.000000,2.000000,2.000000,0.000000,0.000000,4.000000,4.000000,4.000000,4.000000,4.000000,4.000000,0.000000,,,,,,,,,,,,,,,,,,,,,,,,,,,,
1732158555.060807,1732158555.063769,82.000000,0.000000,4275.512695,4277.563965,4311.794922,4295.641113,4287.948730,4278.461426,4333.461426,4401.666504,4307.179688,4278.717773,4476.666504,4508.333496,4341.538574,4397.051270,1556.000000,1.000000,20.000000,,,,0.000000,2.000000,2.000000,0.000000,4.000000,2.000000,2.000000,0.000000,0.000000,4.000000,4.000000,4.000000,4.000000,4.000000,4.000000,0.000000,,,,,,,,,,,,,,,,,,,,,,,,,,,,
1732158555.068615,1732158555.071578,83.000000,0.000000,4277.179688,4278.846191,4309.615234,4295.512695,4290.512695,4278.461426,4335.384766,4396.025879,4307.692383,4278.077148,4474.871582,4506.410156,4339.102539,4395.641113,1556.000000,1.000000,20.000000,,,,0.000000,2.000000,2.000000,0.000000,4.000000,2.000000,2.000000,0.000000,0.000000,4.000000,4.000000,4.000000,4.000000,4.000000,4.000000,0.000000,,,,,,,,,,,,,,,,,,,,,,,,,,,,
1732158555.076423,1732158555.079286,84.000000,0.000000,4280.897461,4279.743652,4313.974121,4297.820313,4266.153809,4280.769043,4337.563965,4398.846191,4313.461426,4279.358887,4477.179688,4506.025879,4341.410156,4402.948730,1706.000000,1.000000,20.000000,,,,0.000000,2.000000,2.000000,0.000000,4.000000,2.000000,2.000000,0.000000,0.000000,4.000000,4.000000,4.000000,4.000000,4.000000,4.000000,0.000000,,,,,,,,,,,,,,,,,21.000000,0.000000,0.541670,0.497009,-0.518982,0.436157,0.980588,0.109388,-0.031254,-34.310032,46.085102,31.871332
1732158555.084232,1732158555.087094,85.000000,0.000000,4279.358887,4279.102539,4315.897461,4303.846191,4256.666504,4283.333496,4335.256348,4402.820313,4313.846191,4278.461426,4476.538574,4505.128418,4342.307617,4412.051270,1579.000000,1.000000,20.000000,,,,0.000000,2.000000,2.000000,0.000000,4.000000,2.000000,2.000000,0.000000,0.000000,4.000000,4.000000,4.000000,4.000000,4.000000,4.000000,0.000000,,,,,,,,,,,,,,,,,,,,,,,,,,,,
1732158555.092040,1732158555.094703,86.000000,0.000000,4279.102539,4280.512695,4310.897461,4307.051270,4271.922852,4283.846191,4334.230957,4399.487305,4313.077148,4278.589844,4475.256348,4506.922852,4340.256348,4412.436035,1556.000000,1.000000,20.000000,,,,0.000000,2.000000,2.000000,0.000000,4.000000,2.000000,2.000000,0.000000,0.000000,4.000000,4.000000,4.000000,4.000000,4.000000,4.000000,0.000000,,,,,,,,,,,,,,,,,,,,,,,,,,,,
1732158555.099848,1732158555.102511,87.000000,0.000000,4279.230957,4281.153809,4312.820313,4303.717773,4278.205078,4282.948730,4335.641113,4397.051270,4315.000000,4280.512695,4476.922852,4512.436035,4340.384766,4410.256348,1556.000000,1.000000,20.000000,,,,0.000000,2.000000,2.000000,0.000000,4.000000,2.000000,2.000000,0.000000,0.000000,4.000000,4.000000,4.000000,4.000000,4.000000,4.000000,0.000000,,,,,,,,,,,,,,,,,,,,,,,,,,,,
1732158555.107656,1732158555.110219,88.000000,0.000000,4280.256348,4280.256348,4317.820313,4301.666504,4274.871582,4281.794922,4336.153809,4400.256348,4313.974121,4278.846191,4479.230957,4514.871582,4342.179688,4412.820313,1706.000000,1.000000,20.000000,,,,0.000000,2.000000,2.000000,0.000000,4.000000,2.000000,2.000000,0.000000,0.000000,4.000000,4.000000,4.000000,4.000000,4.000000,4.000000,0.000000,,,,,,,,,,,,,,,,,22.000000,0.000000,0.541663,0.496826,-0.519165,0.436157,0.973752,0.096691,-0.030765,-34.287792,46.217266,31.962446
1732158555.115465,1732158555.118027,89.000000,0.000000,4281.666504,4280.256348,4313.333496,4302.436035,4273.717773,4282.051270,4334.743652,4402.307617,4310.512695,4276.410156,4476.410156,4510.128418,4343.589844,4411.538574,1579.000000,1.000000,20.000000,,,,0.000000,2.000000,2.000000,0.000000,4.000000,2.000000,2.000000,0.000000,0.000000,4.000000,4.000000,4.000000,4.000000,4.000000,4.000000,0.000000,,,,,,,,,,,,,,,,,,,,,,,,,,,,
1732158555.123273,1732158555.125636,90.000000,0.000000,4281.538574,4280.256348,4308.589844,4297.820313,4270.641113,4281.025879,4334.615234,4401.282227,4310.769043,4277.948730,4475.256348,4505.128418,4343.461426,4409.230957,1556.000000,1.000000,20.000000,,,,0.000000,2.000000,2.000000,0.000000,4.000000,2.000000,2.000000,0.000000,0.000000,4.000000,4.000000,4.000000,4.000000,4.000000,4.000000,0.000000,,,,,,,,,,,,,,,,,,,,,,,,,,,,
1732158555.131081,1732158555.133444,91.000000,0.000000,4280.512695,4279.487305,4312.948730,4292.948730,4272.179688,4279.102539,4335.128418,4399.871582,4313.333496,4280.897461,4479.102539,4505.897461,4342.436035,4410.512695,1556.000000,1.000000,20.000000,,,,0.000000,2.000000,2.000000,0.000000,4.000000,2.000000,2.000000,0.000000,0.000000,4.000000,4.000000,4.000000,4.000000,4.000000,4.000000,0.000000,,,,,,,,,,,,,,,,,,,,,,,,,,,,
1732158555.138889,1732158555.141152,92.000000,0.000000,4280.128418,4279.358887,4315.256348,4298.589844,4277.179688,4281.025879,4334.871582,4399.487305,4310.897461,4280.256348,4478.205078,4508.077148,4340.897461,4406.666504,1706.000000,1.000000,20.000000,,,,0.000000,2.000000,2.000000,0.000000,4.000000,2.000000,2.000000,0.000000,0.000000,4.000000,4.000000,4.000000,4.000000,4.000000,4.000000,0.000000,,,,,,,,,,,,,,,,,23.000000,0.000000,0.541328,0.497009,-0.519287,0.436218,0.973752,0.096691,-0.030765,-33.948112,46.239319,31.526247
1732158555.146697,1732158555.148960,93.000000,0.000000,4278.974121,4279.743652,4311.538574,4301.538574,4277.179688,4282.948730,4335.000000,4401.025879,4308.461426,4278.846191,4474.871582,4505.256348,4342.307617,4399.230957,1579.000000,1.000000,20.000000,,,,0.000000,2.000000,2.000000,0.000000,4.000000,2.000000,2.000000,0.000000,0.000000,4.000000,4.000000,4.000000,4.000000,4.000000,4.000000,0.000000,,,,,,,,,,,,,,,,,,,,,,,,,,,,
1732158555.154506,1732158555.156569,94.000000,0.000000,4277.051270,4278.333496,4309.487305,4295.512695,4277.563965,4282.436035,4334.871582,4402.563965,4309.615234,4278.461426,4474.102539,4503.974121,4342.307617,4401.153809,1556.000000,1.000000,20.000000,,,,0.000000,2.000000,2.000000,0.000000,4.000000,2.000000,2.000000,0.000000,0.000000,4.000000,4.000000,4.000000,4.000000,4.000000,4.000000,0.000000,,,,,,,,,,,,,,,,,,,,,,,,,,,,
1732158555.162314,1732158555.164377,95.000000,0.000000,4277.820313,4277.948730,4310.512695,4292.948730,4276.153809,4281.794922,4335.128418,4401.410156,4307.436035,4278.205078,4471.538574,4508.077148,4336.538574,4409.102539,1556.000000,1.000000,20.000000,,,,0.000000,2.000000,2.000000,0.000000,4.000000,2.000000,2.000000,0.000000,0.000000,4.000000,4.000000,4.000000,4.000000,4.000000,4.000000,0.000000,,,,,,,,,,,,,,,,,,,,,,,,,,,,
1732158555.170122,1732158555.172085,96.000000,0.000000,4279.871582,4279.615234,4308.974121,4293.974121,4272.307617,4281.538574,4335.000000,4399.358887,4307.436035,4281.666504,4473.077148,4504.743652,4335.641113,4405.769043,1706.000000,1.000000,20.000000,,,,0.000000,2.000000,2.000000,0.000000,4.000000,2.000000,2.000000,0.000000,0.000000,4.000000,4.000000,4.000000,4.000000,4.000000,4.000000,0.000000,,,,,,,,,,,,,,,,,24.000000,0.000000,0.538795,0.497253,-0.520813,0.437256,0.970822,0.082530,-0.048834,-33.944637,46.225513,31.507927
1732158555.177930,1732158555.179894,97.000000,0.000000,4280.384766,4281.538574,4307.051270,4295.128418,4274.871582,4281.794922,4334.487305,4401.153809,4311.410156,4287.307617,4479.358887,4498.974121,4342.692383,4402.436035,1579.000000,1.000000,20.000000,,,,0.000000,2.000000,2.000000,0.000000,4.000000,2.000000,2.000000,0.000000,0.000000,4.000000,4.000000,4.000000,4.000000,4.000000,4.000000,0.000000,,,,,,,,,,,,,,,,,,,,,,,,,,,,
1732158555.185739,1732158555.187902,98.000000,0.000000,4277.820313,4280.641113,4304.743652,4295.128418,4279.102539,4282.820313,4334.230957,4402.948730,4313.333496,4297.692383,4479.871582,4498.717773,4345.512695,4406.666504,1556.000000,1.000000,20.000000,,,,0.000000,2.000000,2.000000,0.000000,4.000000,2.000000,2.000000,0.000000,0.000000,4.000000,4.000000,4.000000,4.000000,4.000000,4.000000,0.000000,,,,,,,,,,,,,,,,,,,,,,,,,,,,
1732158555.193547,1732158555.195710,99.000000,0.000000,4275.769043,4279.102539,4303.846191,4293.846191,4275.769043,4281.410156,4333.974121,4399.487305,4314.871582,4302.820313,4477.948730,4498.205078,4343.333496,4408.974121,1556.000000,1.000000,20.000000,,,,0.000000,2.000000,2.000000,0.000000,4.000000,2.000000,2.000000,0.000000,0.000000,4.000000,4.000000,4.000000,4.000000,4.000000,4.000000,0.000000,,,,,,,,,,,,,,,,,,,,,,,,,,,,
1732158555.201355,1732158555.203618,100.000000,0.000000,4278.077148,4278.974121,4306.538574,4295.000000,4273.077148,4284.615234,4334.358887,4397.948730,4318.846191,4294.871582,4478.589844,4494.102539,4343.717773,4405.897461,1706.000000,1.000000,20.000000,,,,0.000000,2.000000,2.000000,0.000000,4.000000,2.000000,2.000000,0.000000,0.000000,4.000000,4.000000,4.000000,4.000000,4.000000,4.000000,0.000000,,,,,,,,,,,,,,,,,25.000000,0.000000,0.537007,0.495850,-0.523376,0.437988,0.976193,0.067391,-0.052252,-34.018490,46.331001,31.621422
1732158555.209164,1732158555.211426,101.000000,0.000000,4280.641113,4281.025879,4310.128418,4298.461426,4277.948730,4289.615234,4335.256348,4399.743652,4317.307617,4291.025879,4477.436035,4495.897461,4341.538574,4404.487305,1579.000000,1.000000,20.000000,,,,0.000000,2.000000,2.000000,0.000000,4.000000,2.000000,2.000000,0.000000,0.000000,4.000000,4.000000,4.000000,4.000000,4.000000,4.000000,0.000000,,,,,,,,,,,,,,,,,,,,,,,,,,,,
1732158555.216972,1732158555.219034,102.000000,0.000000,4281.025879,4283.077148,4307.820313,4296.153809,4279.102539,4285.384766,4334.743652,4399.871582,4314.102539,4295.769043,4475.256348,4501.025879,4335.384766,4407.051270,1556.000000,1.000000,20.000000,,,,0.000000,2.000000,2.000000,0.000000,4.000000,2.000000,2.000000,0.000000,0.000000,4.000000,4.000000,4.000000,4.000000,4.000000,4.000000,0.000000,,,,,,,,,,,,,,,,,,,,,,,,,,,,
1732158555.224780,1732158555.226843,103.000000,0.000000,4279.102539,4280.769043,4305.384766,4294.358887,4276.410156,4280.128418,4333.974121,4398.589844,4309.871582,4289.871582,4473.717773,4496.025879,4336.153809,4407.948730,1556.000000,1.000000,20.000000,,,,0.000000,2.000000,2.000000,0.000000,4.000000,2.000000,2.000000,0.000000,0.000000,4.000000,4.000000,4.000000,4.000000,4.000000,4.000000,0.000000,,,,,,,,,,,,,,,,,,,,,,,,,,,,
1732158555.232588,1732158555.234551,104.000000,0.000000,4282.307617,4282.948730,4307.307617,4304.230957,4278.333496,4281.666504,4335.000000,4400.128418,4300.897461,4279.230957,4472.692383,4488.461426,4341.794922,4411.282227,1706.000000,1.000000,20.000000,,,,0.000000,2.000000,2.000000,0.000000,4.000000,2.000000,2.000000,0.000000,0.000000,4.000000,4.000000,4.000000,4.000000,4.000000,4.000000,0.000000,,,,,,,,,,,,,,,,,26.000000,0.000000,0.535757,0.494995,-0.524902,0.438660,0.959101,0.048346,-0.047369,-33.931644,46.533112,31.621685
1732158555.240397,1732158555.242359,105.000000,0.000000,4289.743652,4290.128418,4308.717773,4310.769043,4278.461426,4281.538574,4334.615234,4400.256348,4300.769043,4282.436035,4474.487305,4492.307617,4342.948730,4414.743652,1579.000000,1.000000,20.000000,,,,0.000000,2.000000,2.000000,0.000000,4.000000,2.000000,2.000000,0.000000,0.000000,4.000000,4.000000,4.000000,4.000000,4.000000,4.000000,0.000000,,,,,,,,,,,,,,,,,,,,,,,,,,,,
1732158555.248205,1732158555.249968,106.000000,0.000000,4294.358887,4289.358887,4307.820313,4307.692383,4278.333496,4280.000000,4332.820313,4398.717773,4304.487305,4284.615234,4474.487305,4503.077148,4340.897461,4415.000000,1556.000000,1.000000,20.000000,,,,0.000000,2.000000,2.000000,0.000000,4.000000,2.000000,2.000000,0.000000,0.000000,4.000000,4.000000,4.000000,4.000000,4.000000,4.000000,0.000000,,,,,,,,,,,,,,,,,,,,,,,,,,,,
1732158555.256013,1732158555.257776,107.000000,0.000000,4294.487305,4284.102539,4307.692383,4304.615234,4280.000000,4282.563965,4333.589844,4399.102539,4300.897461,4280.000000,4476.025879,4507.051270,4345.000000,4416.538574,1556.000000,1.000000,20.000000,,,,0.000000,2.000000,2.000000,0.000000,4.000000,2.000000,2.000000,0.000000,0.000000,4.000000,4.000000,4.000000,4.000000,4.000000,4.000000,0.000000,,,,,,,,,,,,,,,,,,,,,,,,,,,,
1732158555.263821,1732158555.265684,108.000000,0.000000,4293.974121,4287.051270,4310.769043,4304.102539,4273.589844,4282.051270,4334.230957,4397.948730,4300.897461,4284.871582,4477.307617,4505.000000,4348.717773,4422.051270,1706.000000,1.000000,20.000000,,,,0.000000,2.000000,2.000000,0.000000,4.000000,2.000000,2.000000,0.000000,0.000000,4.000000,4.000000,4.000000,4.000000,4.000000,4.000000,0.000000,,,,,,,,,,,,,,,,,27.000000,0.000000,0.535757,0.494995,-0.524902,0.438660,0.959101,0.048346,-0.047369,-33.996296,46.516819,31.561897
1732158555.271629,1732158555.273492,109.000000,0.000000,4295.897461,4293.717773,4311.538574,4307.948730,4263.717773,4276.922852,4333.461426,4399.743652,4306.538574,4293.077148,4474.102539,4506.410156,4348.589844,4427.948730,1579.000000,1.000000,20.000000,,,,0.000000,2.000000,2.000000,0.000000,4.000000,2.000000,2.000000,0.000000,0.000000,4.000000,4.000000,4.000000,4.000000,4.000000,4.000000,0.000000,,,,,,,,,,,,,,,,,,,,,,,,,,,,
1732158555.279438,1732158555.281500,110.000000,0.000000,4298.333496,4295.128418,4310.000000,4309.871582,4263.846191,4276.666504,4334.102539,4404.615234,4304.615234,4287.820313,4479.743652,4508.589844,4350.000000,4428.205078,1556.000000,1.000000,20.000000,,,,0.000000,2.000000,2.000000,0.000000,4.000000,2.000000,2.000000,0.000000,0.000000,4.000000,4.000000,4.000000,4.000000,4.000000,4.000000,0.000000,,,,,,,,,,,,,,,,,,,,,,,,,,,,
1732158555.287246,1732158555.289308,111.000000,0.000000,4299.102539,4293.846191,4309.615234,4299.615234,4268.589844,4277.948730,4335.000000,4403.589844,4301.666504,4277.307617,4487.436035,4509.102539,4350.384766,4430.128418,1556.000000,1.000000,20.000000,,,,0.000000,2.000000,2.000000,0.000000,4.000000,2.000000,2.000000,0.000000,0.000000,4.000000,4.000000,4.000000,4.000000,4.000000,4.000000,0.000000,,,,,,,,,,,,,,,,,,,,,,,,,,,,
1732158555.295054,1732158555.297216,112.000000,0.000000,4300.641113,4293.461426,4312.051270,4291.153809,4265.128418,4271.794922,4334.487305,4400.128418,4303.974121,4280.641113,4479.358887,4510.769043,4351.794922,4436.282227,1706.000000,1.000000,20.000000,,,,0.000000,2.000000,2.000000,0.000000,4.000000,2.000000,2.000000,0.000000,0.000000,4.000000,4.000000,4.000000,4.000000,4.000000,4.000000,0.000000,,,,,,,,,,,,,,,,,28.000000,0.000000,0.534004,0.492554,-0.528259,0.439514,0.973752,0.071298,-0.052741,-34.108669,46.571957,31.628469
1732158555.302863,1732158555.305025,113.000000,0.000000,4309.230957,4295.512695,4314.102539,4302.692383,4262.051270,4265.128418,4335.256348,4400.000000,4301.538574,4291.666504,4479.102539,4516.410156,4360.512695,4441.922852,1579.000000,1.000000,20.000000,,,,0.000000,2.000000,2.000000,0.000000,4.000000,2.000000,2.000000,0.000000,0.000000,4.000000,4.000000,4.000000,4.000000,4.000000,4.000000,0.000000,,,,,,,,,,,,,,,,,,,,,,,,,,,,
1732158555.310671,1732158555.313033,114.000000,0.000000,4319.358887,4297.307617,4315.000000,4311.666504,4263.846191,4265.512695,4335.641113,4403.077148,4298.974121,4294.871582,4499.871582,4524.615234,4371.538574,4448.974121,1556.000000,1.000000,20.000000,,,,0.000000,2.000000,2.000000,0.000000,4.000000,2.000000,2.000000,0.000000,0.000000,4.000000,4.000000,4.000000,4.000000,4.000000,4.000000,0.000000,,,,,,,,,,,,,,,,,,,,,,,,,,,,
1732158555.318479,1732158555.320841,115.000000,0.000000,4321.922852,4296.538574,4314.871582,4300.256348,4257.820313,4266.410156,4334.743652,4403.846191,4300.384766,4292.051270,4510.641113,4527.692383,4373.589844,4458.461426,1556.000000,1.000000,20.000000,,,,0.000000,2.000000,2.000000,0.000000,4.000000,2.000000,2.000000,0.000000,0.000000,4.000000,4.000000,4.000000,4.000000,4.000000,4.000000,0.000000,,,,,,,,,,,,,,,,,,,,,,,,,,,,
1732158555.326287,1732158555.328749,116.000000,0.000000,4323.717773,4295.256348,4314.102539,4294.102539,4248.974121,4263.846191,4335.641113,4403.461426,4300.512695,4295.512695,4506.153809,4528.333496,4374.487305,4463.589844,1706.000000,1.000000,20.000000,,,,0.000000,2.000000,2.000000,0.000000,4.000000,2.000000,2.000000,0.000000,0.000000,4.000000,4.000000,4.000000,4.000000,4.000000,4.000000,0.000000,,,,,,,,,,,,,,,,,29.000000,0.000000,0.533524,0.491882,-0.529419,0.439453,0.985472,0.079111,-0.055183,-34.034687,46.428284,31.685728
1732158555.334096,1732158555.336557,117.000000,0.000000,4327.051270,4295.128418,4315.256348,4298.717773,4248.846191,4262.948730,4336.666504,4402.051270,4297.436035,4293.461426,4503.461426,4530.384766,4376.282227,4462.179688,1579.000000,1.000000,20.000000,,,,0.000000,2.000000,2.000000,0.000000,4.000000,2.000000,2.000000,0.000000,0.000000,4.000000,4.000000,4.000000,4.000000,4.000000,4.000000,0.000000,,,,,,,,,,,,,,,,,,,,,,,,,,,,
1732158555.341904,1732158555.344565,118.000000,0.000000,4327.051270,4295.512695,4314.487305,4298.077148,4251.922852,4263.589844,4336.025879,4401.922852,4300.512695,4282.436035,4503.589844,4530.512695,4372.948730,4461.410156,1556.000000,1.000000,20.000000,,,,0.000000,2.000000,2.000000,0.000000,4.000000,2.000000,2.000000,0.000000,0.000000,4.000000,4.000000,4.000000,4.000000,4.000000,4.000000,0.000000,,,,,,,,,,,,,,,,,,,,,,,,,,,,
1732158555.349712,1732158555.352373,119.000000,0.000000,4328.589844,4296.025879,4311.794922,4296.282227,4250.512695,4262.692383,4335.256348,4402.307617,4305.256348,4287.436035,4507.179688,4527.436035,4376.025879,4462.307617,1556.000000,1.000000,20.000000,,,,0.000000,2.000000,2.000000,0.000000,4.000000,2.000000,2.000000,0.000000,0.000000,4.000000,4.000000,4.000000,4.000000,4.000000,4.000000,0.000000,,,,,,,,,,,,,,,,,,,,,,,,,,,,
1732158555.357520,1732158555.360282,120.000000,0.000000,4334.487305,4297.179688,4310.384766,4301.666504,4249.358887,4263.077148,4334.358887,4401.410156,4299.871582,4295.769043,4502.051270,4522.820313,4383.461426,4462.692383,1706.000000,1.000000,20.000000,,,,0.000000,2.000000,2.000000,0.000000,4.000000,2.000000,2.000000,0.000000,0.000000,4.000000,4.000000,4.000000,4.000000,4.000000,4.000000,0.000000,,,,,,,,,,,,,,,,,30.000000,0.000000,0.533524,0.491882,-0.529419,0.439453,0.986449,0.080576,-0.055671,-34.199764,46.251911,31.777105
1732158555.365329,1732158555.368090,121.000000,0.000000,4336.666504,4296.922852,4310.897461,4307.051270,4250.256348,4264.871582,4332.436035,4400.897461,4295.769043,4279.871582,4492.179688,4522.051270,4379.743652,4463.846191,1579.000000,1.000000,20.000000,,,,0.000000,2.000000,2.000000,0.000000,4.000000,2.000000,2.000000,0.000000,0.000000,4.000000,4.000000,4.000000,4.000000,4.000000,4.000000,0.000000,,,,,,,,,,,,,,,,,,,,,,,,,,,,
1732158555.373137,1732158555.376098,122.000000,0.000000,4335.128418,4296.538574,4312.436035,4308.333496,4250.128418,4265.512695,4331.538574,4400.000000,4305.128418,4271.538574,4498.461426,4523.077148,4373.589844,4463.846191,1556.000000,1.000000,20.000000,,,,0.000000,2.000000,2.000000,0.000000,4.000000,2.000000,2.000000,0.000000,0.000000,4.000000,4.000000,4.000000,4.000000,4.000000,4.000000,0.000000,,,,,,,,,,,,,,,,,,,,,,,,,,,,
1732158555.380945,1732158555.383906,123.000000,0.000000,4336.282227,4296.794922,4313.589844,4306.282227,4251.794922,4264.487305,4333.589844,4400.641113,4313.205078,4289.102539,4511.025879,4521.794922,4378.717773,4461.282227,1556.000000,1.000000,20.000000,,,,0.000000,2.000000,2.000000,0.000000,4.000000,2.000000,2.000000,0.000000,0.000000,4.000000,4.000000,4.000000,4.000000,4.000000,4.000000,0.000000,,,,,,,,,,,,,,,,,,,,,,,,,,,,
1732158555.388753,1732158555.391814,124.000000,0.000000,4335.256348,4295.897461,4312.563965,4306.666504,4249.487305,4264.102539,4335.897461,4401.794922,4303.333496,4291.794922,4510.000000,4523.974121,4384.102539,4461.538574,1706.000000,1.000000,20.000000,,,,0.000000,2.000000,2.000000,0.000000,4.000000,2.000000,2.000000,0.000000,0.000000,4.000000,4.000000,4.000000,4.000000,4.000000,4.000000,0.000000,,,,,,,,,,,,,,,,,31.000000,0.000000,0.531888,0.490906,-0.531006,0.440613,0.987914,0.046392,-0.057136,-35.098476,103.520714,32.157791
1732158555.396562,1732158555.399622,125.000000,0.000000,4335.384766,4294.615234,4311.666504,4311.025879,4248.589844,4265.897461,4334.871582,4401.666504,4292.051270,4278.077148,4505.641113,4532.307617,4380.897461,4468.077148,1579.000000,1.000000,20.000000,,,,0.000000,2.000000,2.000000,0.000000,4.000000,2.000000,2.000000,0.000000,0.000000,4.000000,4.000000,4.000000,4.000000,4.000000,4.000000,0.000000,,,,,,,,,,,,,,,,,,,,,,,,,,,,
1732158555.404370,1732158555.407630,126.000000,0.000000,4339.487305,4299.102539,4311.922852,4311.922852,4256.666504,4267.436035,4333.461426,4404.743652,4302.051270,4286.538574,4508.589844,4535.256348,4381.538574,4473.461426,1556.000000,1.000000,20.000000,,,,0.000000,2.000000,2.000000,0.000000,4.000000,2.000000,2.000000,0.000000,0.000000,4.000000,4.000000,4.000000,4.000000,4.000000,4.000000,0.000000,,,,,,,,,,,,,,,,,,,,,,,,,,,,
1732158555.412178,1732158555.415438,127.000000,0.000000,4337.948730,4302.179688,4312.179688,4308.589844,4259.487305,4267.179688,4335.384766,4409.230957,4314.743652,4297.820313,4511.153809,4531.538574,4385.512695,4472.820313,20.000000,1.000000,20.000000,,,,0.000000,2.000000,2.000000,0.000000,4.000000,2.000000,2.000000,0.000000,0.000000,4.000000,4.000000,4.000000,4.000000,4.000000,4.000000,0.000000,,,,,,,,,,,,,,,,,,,,,,,,,,,,
1732158555.419986,1732158555.423347,0.000000,0.000000,4335.512695,4296.538574,4313.077148,4306.794922,4251.025879,4265.769043,4336.410156,4408.333496,4305.897461,4289.615234,4510.128418,4529.487305,4384.871582,4471.410156,0.000000,1.000000,20.000000,,,,0.000000,2.000000,2.000000,0.000000,4.000000,2.000000,2.000000,0.000000,0.000000,4.000000,4.000000,4.000000,4.000000,4.000000,4.000000,0.000000,,,,,,,,,,,,,,,,,0.000000,0.000000,0.529597,0.489197,-0.533142,0.442688,0.961055,0.020022,-0.073739,-35.031433,92.540115,32.169476
1732158555.427795,1732158555.431155,1.000000,0.000000,4340.641113,4294.487305,4314.230957,4306.538574,4247.948730,4265.128418,4334.487305,4403.077148,4295.512695,4282.820313,4502.307617,4530.000000,4380.256348,4473.077148,1609.000000,1.000000,20.000000,,,,0.000000,2.000000,2.000000,0.000000,4.000000,2.000000,2.000000,0.000000,0.000000,4.000000,4.000000,4.000000,4.000000,4.000000,4.000000,0.000000,,,,,,,,,,,,,,,,,,,,,,,,,,,,
1732158555.435603,1732158555.438763,2.000000,0.000000,4343.461426,4302.307617,4314.230957,4306.922852,4254.358887,4265.128418,4334.615234,4401.410156,4303.717773,4285.128418,4497.820313,4527.051270,4380.897461,4473.461426,1359.000000,1.000000,20.000000,,,,0.000000,2.000000,2.000000,0.000000,4.000000,2.000000,2.000000,0.000000,0.000000,4.000000,4.000000,4.000000,4.000000,4.000000,4.000000,0.000000,,,,,,,,,,,,,,,,,,,,,,,,,,,,
1732158555.443411,1732158555.446571,3.000000,0.000000,4340.897461,4306.282227,4316.153809,4309.743652,4252.436035,4263.846191,4336.153809,4402.436035,4307.051270,4279.358887,4504.230957,4525.769043,4382.563965,4472.563965,1429.000000,1.000000,20.000000,,,,0.000000,2.000000,2.000000,0.000000,4.000000,2.000000,2.000000,0.000000,0.000000,4.000000,4.000000,4.000000,4.000000,4.000000,4.000000,0.000000,,,,,,,,,,,,,,,,,,,,,,,,,,,,
1732158555.451219,1732158555.454380,4.000000,0.000000,4343.461426,4306.282227,4317.563965,4313.846191,4248.589844,4262.948730,4335.769043,4402.436035,4301.025879,4277.563965,4508.077148,4529.871582,4378.205078,4473.846191,1432.000000,1.000000,20.000000,,,,0.000000,2.000000,2.000000,0.000000,4.000000,2.000000,2.000000,0.000000,0.000000,4.000000,4.000000,4.000000,4.000000,4.000000,4.000000,0.000000,,,,,,,,,,,,,,,,,1.000000,0.000000,0.527779,0.486572,-0.535767,0.444580,0.955683,0.013674,-0.064461,-35.113792,83.604156,31.990608
1732158555.459028,1732158555.462188,5.000000,0.000000,4346.794922,4306.282227,4317.563965,4311.922852,4255.769043,4263.974121,4335.128418,4403.846191,4304.871582,4287.563965,4505.512695,4532.179688,4375.128418,4475.641113,1200.000000,1.000000,20.000000,,,,0.000000,2.000000,2.000000,0.000000,4.000000,2.000000,2.000000,0.000000,0.000000,4.000000,4.000000,4.000000,4.000000,4.000000,4.000000,0.000000,,,,,,,,,,,,,,,,,,,,,,,,,,,,
1732158555.466836,1732158555.469796,6.000000,0.000000,4341.666504,4300.641113,4317.948730,4303.461426,4261.922852,4263.461426,4335.897461,4402.692383,4308.077148,4287.051270,4503.333496,4526.666504,4374.230957,4472.179688,0.000000,1.000000,20.000000,,,,0.000000,2.000000,2.000000,0.000000,4.000000,2.000000,2.000000,0.000000,0.000000,4.000000,4.000000,4.000000,4.000000,4.000000,4.000000,0.000000,,,,,,,,,,,,,,,,,,,,,,,,,,,,
1732158555.474644,1732158555.477604,7.000000,0.000000,4334.871582,4296.153809,4318.846191,4302.179688,4262.051270,4263.333496,4336.025879,4399.615234,4298.717773,4278.077148,4503.461426,4524.743652,4371.922852,4463.461426,0.000000,1.000000,20.000000,,,,0.000000,2.000000,2.000000,0.000000,4.000000,2.000000,2.000000,0.000000,0.000000,4.000000,4.000000,4.000000,4.000000,4.000000,4.000000,0.000000,,,,,,,,,,,,,,,,,,,,,,,,,,,,
1732158555.482452,1732158555.485313,8.000000,0.000000,4333.717773,4297.563965,4318.589844,4307.563965,4262.948730,4266.794922,4334.743652,4402.948730,4292.692383,4278.717773,4503.333496,4532.563965,4369.871582,4459.743652,1538.000000,1.000000,20.000000,,,,0.000000,2.000000,2.000000,0.000000,4.000000,2.000000,2.000000,0.000000,0.000000,4.000000,4.000000,4.000000,4.000000,4.000000,4.000000,0.000000,,,,,,,,,,,,,,,,,2.000000,0.000000,0.527779,0.486572,-0.535767,0.444580,0.955683,0.013674,-0.064461,-34.955505,76.396034,31.725727
1732158555.490261,1732158555.493121,9.000000,0.000000,4335.512695,4297.307617,4318.717773,4303.589844,4263.974121,4266.410156,4334.871582,4406.025879,4295.000000,4282.307617,4502.436035,4529.487305,4371.666504,4462.948730,1705.000000,1.000000,20.000000,,,,0.000000,2.000000,2.000000,0.000000,4.000000,2.000000,2.000000,0.000000,0.000000,4.000000,4.000000,4.000000,4.000000,4.000000,4.000000,0.000000,,,,,,,,,,,,,,,,,,,,,,,,,,,,
1732158555.498069,1732158555.500729,10.000000,0.000000,4331.538574,4297.179688,4318.077148,4301.282227,4263.077148,4267.179688,4335.769043,4403.589844,4296.666504,4280.384766,4494.358887,4520.000000,4372.820313,4461.025879,1553.000000,1.000000,20.000000,,,,0.000000,2.000000,2.000000,0.000000,4.000000,2.000000,2.000000,0.000000,0.000000,4.000000,4.000000,4.000000,4.000000,4.000000,4.000000,0.000000,,,,,,,,,,,,,,,,,,,,,,,,,,,,
1732158555.505877,1732158555.508538,11.000000,0.000000,4326.538574,4298.974121,4317.692383,4306.153809,4265.769043,4272.051270,4335.641113,4401.410156,4298.846191,4279.871582,4485.384766,4522.948730,4369.358887,4455.256348,1556.000000,1.000000,20.000000,,,,0.000000,2.000000,2.000000,0.000000,4.000000,2.000000,2.000000,0.000000,0.000000,4.000000,4.000000,4.000000,4.000000,4.000000,4.000000,0.000000,,,,,,,,,,,,,,,,,,,,,,,,,,,,
1732158555.513685,1732158555.516246,12.000000,0.000000,4326.666504,4298.077148,4317.051270,4303.461426,4267.436035,4271.025879,4335.641113,4403.333496,4303.717773,4282.436035,4495.000000,4525.897461,4369.743652,4455.641113,1718.000000,1.000000,20.000000,,,,0.000000,2.000000,2.000000,0.000000,4.000000,2.000000,2.000000,0.000000,0.000000,4.000000,4.000000,4.000000,4.000000,4.000000,4.000000,0.000000,,,,,,,,,,,,,,,,,3.000000,0.000000,0.526991,0.482544,-0.538452,0.446655,0.985960,0.011232,-0.061531,-34.960625,70.457451,31.656172
1732158555.521494,1732158555.524054,13.000000,0.000000,4326.410156,4297.820313,4316.794922,4298.077148,4264.743652,4272.307617,4335.769043,4405.769043,4304.743652,4281.025879,4508.333496,4522.179688,4373.205078,4458.333496,1583.000000,1.000000,20.000000,,,,0.000000,2.000000,2.000000,0.000000,4.000000,2.000000,2.000000,0.000000,0.000000,4.000000,4.000000,4.000000,4.000000,4.000000,4.000000,0.000000,,,,,,,,,,,,,,,,,,,,,,,,,,,,
1732158555.529302,1732158555.531663,14.000000,0.000000,4325.000000,4299.230957,4319.871582,4301.666504,4265.897461,4276.282227,4336.282227,4404.230957,4301.410156,4283.461426,4503.974121,4521.025879,4375.128418,4459.615234,1553.000000,1.000000,20.000000,,,,0.000000,2.000000,2.000000,0.000000,4.000000,2.000000,2.000000,0.000000,0.000000,4.000000,4.000000,4.000000,4.000000,4.000000,4.000000,0.000000,1.000000,0.000000,2.000000,2.000000,0.000000,4.000000,2.000000,2.000000,0.000000,0.000000,4.000000,4.000000,4.000000,4.000000,4.000000,4.000000,,,,,,,,,,,,
1732158555.537110,1732158555.539471,15.000000,0.000000,4326.025879,4297.563965,4317.179688,4308.589844,4268.333496,4270.256348,4334.230957,4399.743652,4300.769043,4288.461426,4499.487305,4525.897461,4377.948730,4460.641113,1556.000000,1.000000,20.000000,,,,0.000000,2.000000,2.000000,0.000000,4.000000,2.000000,2.000000,0.000000,0.000000,4.000000,4.000000,4.000000,4.000000,4.000000,4.000000,0.000000,,,,,,,,,,,,,,,,,,,,,,,,,,,,
1732158555.544918,1732158555.547179,16.000000,0.000000,4326.282227,4294.871582,4320.000000,4306.410156,4266.025879,4262.948730,4333.974121,4404.230957,4302.307617,4285.512695,4508.077148,4531.153809,4379.871582,4460.769043,0.000000,1.000000,20.000000,,,,0.000000,2.000000,2.000000,0.000000,4.000000,2.000000,2.000000,0.000000,0.000000,4.000000,4.000000,4.000000,4.000000,4.000000,4.000000,0.000000,,,,,,,,,,,,,,,,,4.000000,0.000000,0.526786,0.480164,-0.539917,0.447693,0.978147,-0.001465,-0.060066,-34.904774,65.640541,31.723166
1732158555.552727,1732158555.554987,17.000000,0.000000,4325.769043,4293.589844,4338.974121,4299.615234,4264.230957,4266.282227,4340.128418,4415.128418,4301.538574,4276.922852,4502.179688,4538.974121,4373.974121,4462.436035,0.000000,1.000000,20.000000,,,,0.000000,2.000000,2.000000,0.000000,4.000000,2.000000,2.000000,0.000000,0.000000,4.000000,4.000000,4.000000,4.000000,4.000000,4.000000,0.000000,,,,,,,,,,,,,,,,,,,,,,,,,,,,
1732158555.560535,1732158555.562596,18.000000,0.000000,4326.153809,4294.615234,4342.563965,4303.077148,4264.615234,4268.461426,4342.179688,4410.384766,4305.641113,4281.410156,4489.358887,4541.410156,4370.128418,4461.666504,0.000000,1.000000,20.000000,,,,0.000000,2.000000,2.000000,0.000000,4.000000,2.000000,2.000000,0.000000,0.000000,4.000000,4.000000,4.000000,4.000000,4.000000,4.000000,0.000000,,,,,,,,,,,,,,,,,,,,,,,,,,,,
1732158555.568343,1732158555.570404,19.000000,0.000000,4327.820313,4296.410156,4322.307617,4309.871582,4264.487305,4263.717773,4336.410156,4401.282227,4311.794922,4294.615234,4501.538574,4532.820313,4373.717773,4459.230957,0.000000,1.000000,20.000000,,,,0.000000,2.000000,2.000000,0.000000,4.000000,2.000000,2.000000,0.000000,0.000000,4.000000,4.000000,4.000000,4.000000,4.000000,4.000000,0.000000,,,,,,,,,,,,,,,,,,,,,,,,,,,,
1732158555.576151,1732158555.578112,20.000000,0.000000,4331.922852,4296.666504,4311.153809,4309.102539,4263.717773,4261.666504,4333.333496,4403.461426,4304.871582,4291.410156,4515.769043,4529.743652,4375.000000,4466.666504,0.000000,1.000000,20.000000,,,,0.000000,2.000000,2.000000,0.000000,4.000000,2.000000,2.000000,0.000000,0.000000,4.000000,4.000000,4.000000,4.000000,4.000000,4.000000,0.000000,,,,,,,,,,,,,,,,,5.000000,0.000000,0.526582,0.479004,-0.540588,0.448364,0.978147,-0.001465,-0.060066,-34.797867,61.902168,31.590765
1732158555.583960,1732158555.585920,21.000000,0.000000,4335.000000,4296.153809,4318.717773,4306.410156,4264.358887,4263.717773,4336.153809,4404.358887,4296.282227,4281.666504,4510.256348,4536.153809,4373.846191,4473.205078,0.000000,1.000000,20.000000,,,,0.000000,2.000000,2.000000,0.000000,4.000000,2.000000,2.000000,0.000000,0.000000,4.000000,4.000000,4.000000,4.000000,4.000000,4.000000,0.000000,,,,,,,,,,,,,,,,,,,,,,,,,,,,
1732158555.591768,1732158555.593928,22.000000,0.000000,4334.102539,4296.025879,4318.974121,4308.974121,4264.487305,4267.563965,4336.538574,4401.410156,4305.769043,4283.333496,4502.820313,4537.692383,4371.666504,4465.897461,0.000000,1.000000,20.000000,,,,0.000000,2.000000,2.000000,0.000000,4.000000,2.000000,2.000000,0.000000,0.000000,4.000000,4.000000,4.000000,4.000000,4.000000,4.000000,0.000000,,,,,,,,,,,,,,,,,,,,,,,,,,,,
1732158555.599576,1732158555.601737,23.000000,0.000000,4335.128418,4299.102539,4315.512695,4314.230957,4265.000000,4266.410156,4334.743652,4404.230957,4313.589844,4287.051270,4506.666504,4535.769043,4374.102539,4464.230957,0.000000,1.000000,20.000000,,,,0.000000,2.000000,2.000000,0.000000,4.000000,2.000000,2.000000,0.000000,0.000000,4.000000,4.000000,4.000000,4.000000,4.000000,4.000000,0.000000,,,,,,,,,,,,,,,,,,,,,,,,,,,,
1732158555.607384,1732158555.609645,24.000000,0.000000,4338.589844,4304.102539,4316.794922,4317.179688,4270.897461,4262.692383,4333.974121,4405.897461,4304.743652,4285.641113,4511.282227,4540.000000,4379.102539,4475.512695,0.000000,1.000000,20.000000,,,,0.000000,2.000000,2.000000,0.000000,4.000000,2.000000,2.000000,0.000000,0.000000,4.000000,4.000000,4.000000,4.000000,4.000000,4.000000,0.000000,,,,,,,,,,,,,,,,,6.000000,0.000000,0.525960,0.474731,-0.542725,0.451050,0.986937,0.007813,-0.032230,-34.599606,58.709091,31.646852
1732158555.615193,1732158555.617453,25.000000,0.000000,4332.948730,4300.256348,4319.230957,4310.641113,4270.769043,4263.589844,4334.487305,4403.077148,4302.820313,4285.256348,4504.230957,4542.563965,4372.051270,4473.717773,0.000000,1.000000,20.000000,,,,0.000000,2.000000,2.000000,0.000000,4.000000,2.000000,2.000000,0.000000,0.000000,4.000000,4.000000,4.000000,4.000000,4.000000,4.000000,0.000000,,,,,,,,,,,,,,,,,,,,,,,,,,,,
1732158555.623001,1732158555.625461,26.000000,0.000000,4326.666504,4294.230957,4320.128418,4304.487305,4266.410156,4266.025879,4335.769043,4403.974121,4312.179688,4283.974121,4493.717773,4537.436035,4364.102539,4462.179688,0.000000,1.000000,20.000000,,,,0.000000,2.000000,2.000000,0.000000,4.000000,2.000000,2.000000,0.000000,0.000000,4.000000,4.000000,4.000000,4.000000,4.000000,4.000000,0.000000,,,,,,,,,,,,,,,,,,,,,,,,,,,,
1732158555.630809,1732158555.633269,27.000000,0.000000,4329.487305,4296.025879,4317.692383,4305.128418,4267.307617,4266.666504,4335.256348,4405.769043,4312.820313,4280.256348,4498.974121,4531.410156,4368.205078,4457.820313,0.000000,1.000000,20.000000,,,,0.000000,2.000000,2.000000,0.000000,4.000000,2.000000,2.000000,0.000000,0.000000,4.000000,4.000000,4.000000,4.000000,4.000000,4.000000,0.000000,,,,,,,,,,,,,,,,,,,,,,,,,,,,
1732158555.638617,1732158555.641177,28.000000,0.000000,4324.358887,4295.897461,4317.563965,4299.358887,4269.871582,4265.128418,4333.974121,4402.307617,4308.205078,4282.051270,4505.641113,4524.615234,4367.307617,4449.230957,0.000000,1.000000,20.000000,,,,0.000000,2.000000,2.000000,0.000000,4.000000,2.000000,2.000000,0.000000,0.000000,4.000000,4.000000,4.000000,4.000000,4.000000,4.000000,0.000000,,,,,,,,,,,,,,,,,7.000000,0.000000,0.525547,0.473328,-0.543335,0.452271,0.986937,0.001465,-0.031254,-34.572346,56.156029,31.692284
1732158555.646426,1732158555.648985,29.000000,0.000000,4312.820313,4293.333496,4317.820313,4294.358887,4272.436035,4268.974121,4333.846191,4400.897461,4308.846191,4282.307617,4494.871582,4521.025879,4356.794922,4441.794922,0.000000,1.000000,20.000000,,,,0.000000,2.000000,2.000000,0.000000,4.000000,2.000000,2.000000,0.000000,0.000000,4.000000,4.000000,4.000000,4.000000,4.000000,4.000000,0.000000,,,,,,,,,,,,,,,,,,,,,,,,,,,,
1732158555.654234,1732158555.656594,30.000000,0.000000,4312.692383,4295.512695,4318.333496,4300.128418,4278.974121,4278.333496,4334.487305,4404.487305,4313.846191,4280.897461,4490.384766,4519.230957,4356.282227,4443.717773,0.000000,1.000000,20.000000,,,,0.000000,2.000000,2.000000,0.000000,4.000000,2.000000,2.000000,0.000000,0.000000,4.000000,4.000000,4.000000,4.000000,4.000000,4.000000,0.000000,,,,,,,,,,,,,,,,,,,,,,,,,,,,
1732158555.662042,1732158555.664402,31.000000,0.000000,4320.769043,4296.410156,4320.512695,4304.487305,4282.948730,4283.205078,4335.384766,4405.384766,4313.461426,4280.128418,4495.256348,4521.794922,4360.128418,4445.384766,0.000000,1.000000,20.000000,,,,0.000000,2.000000,2.000000,0.000000,4.000000,2.000000,2.000000,0.000000,0.000000,4.000000,4.000000,4.000000,4.000000,4.000000,4.000000,0.000000,,,,,,,,,,,,,,,,,,,,,,,,,,,,
1732158555.669850,1732158555.672310,32.000000,0.000000,4324.230957,4294.743652,4319.358887,4306.666504,4280.128418,4279.102539,4336.410156,4403.589844,4307.563965,4276.025879,4489.487305,4529.615234,4355.769043,4448.717773,0.000000,1.000000,20.000000,,,,0.000000,2.000000,2.000000,0.000000,4.000000,2.000000,2.000000,0.000000,0.000000,4.000000,4.000000,4.000000,4.000000,4.000000,4.000000,0.000000,,,,,,,,,,,,,,,,,8.000000,0.000000,0.525379,0.472778,-0.543518,0.452820,0.980588,0.000488,-0.020510,-34.685268,53.878052,31.624083
1732158555.677659,1732158555.680118,33.000000,0.000000,4326.794922,4296.666504,4316.794922,4312.820313,4280.128418,4270.641113,4335.769043,4403.589844,4306.025879,4281.538574,4490.769043,4532.820313,4357.051270,4457.179688,0.000000,1.000000,20.000000,,,,0.000000,2.000000,2.000000,0.000000,4.000000,2.000000,2.000000,0.000000,0.000000,4.000000,4.000000,4.000000,4.000000,4.000000,4.000000,0.000000,,,,,,,,,,,,,,,,,,,,,,,,,,,,
1732158555.685467,1732158555.688126,34.000000,0.000000,4326.410156,4296.410156,4315.897461,4310.384766,4280.000000,4264.743652,4334.358887,4404.102539,4306.153809,4289.743652,4505.000000,4528.974121,4365.384766,4459.102539,0.000000,1.000000,20.000000,,,,0.000000,2.000000,2.000000,0.000000,4.000000,2.000000,2.000000,0.000000,0.000000,4.000000,4.000000,4.000000,4.000000,4.000000,4.000000,0.000000,,,,,,,,,,,,,,,,,,,,,,,,,,,,
1732158555.693275,1732158555.695935,35.000000,0.000000,4323.077148,4295.897461,4317.563965,4302.563965,4277.692383,4265.256348,4335.512695,4406.153809,4305.000000,4282.563965,4508.846191,4527.563965,4367.692383,4456.282227,0.000000,1.000000,20.000000,,,,0.000000,2.000000,2.000000,0.000000,4.000000,2.000000,2.000000,0.000000,0.000000,4.000000,4.000000,4.000000,4.000000,4.000000,4.000000,0.000000,,,,,,,,,,,,,,,,,,,,,,,,,,,,
1732158555.701084,1732158555.703843,36.000000,0.000000,4329.358887,4300.769043,4318.461426,4307.307617,4277.563965,4266.922852,4335.256348,4404.102539,4307.692383,4278.717773,4504.871582,4531.153809,4366.025879,4458.589844,0.000000,1.000000,20.000000,,,,0.000000,2.000000,2.000000,0.000000,4.000000,2.000000,2.000000,0.000000,0.000000,4.000000,4.000000,4.000000,4.000000,4.000000,4.000000,0.000000,,,,,,,,,,,,,,,,,9.000000,0.000000,0.524687,0.471497,-0.544128,0.454224,0.986937,-0.010743,-0.025882,-34.555065,52.159554,31.632174
1732158555.708892,1732158555.711651,37.000000,0.000000,4336.538574,4302.051270,4316.794922,4313.077148,4276.282227,4264.743652,4332.307617,4399.743652,4312.820313,4293.974121,4506.666504,4539.487305,4368.077148,4462.436035,0.000000,1.000000,20.000000,,,,0.000000,2.000000,2.000000,0.000000,4.000000,2.000000,2.000000,0.000000,0.000000,4.000000,4.000000,4.000000,4.000000,4.000000,4.000000,0.000000,,,,,,,,,,,,,,,,,,,,,,,,,,,,
1732158555.716700,1732158555.719659,38.000000,0.000000,4329.743652,4296.153809,4314.358887,4305.256348,4274.871582,4265.256348,4330.512695,4402.051270,4309.871582,4293.974121,4505.769043,4540.512695,4367.179688,4462.179688,0.000000,1.000000,20.000000,,,,0.000000,2.000000,2.000000,0.000000,4.000000,2.000000,2.000000,0.000000,0.000000,4.000000,4.000000,4.000000,4.000000,4.000000,4.000000,0.000000,,,,,,,,,,,,,,,,,,,,,,,,,,,,
1732158555.724508,1732158555.727467,39.000000,0.000000,4319.358887,4294.615234,4315.384766,4299.871582,4275.128418,4273.589844,4331.410156,4402.051270,4306.282227,4276.025879,4505.256348,4528.333496,4364.743652,4455.128418,0.000000,1.000000,20.000000,,,,0.000000,2.000000,2.000000,0.000000,4.000000,2.000000,2.000000,0.000000,0.000000,4.000000,4.000000,4.000000,4.000000,4.000000,4.000000,0.000000,,,,,,,,,,,,,,,,,,,,,,,,,,,,
1732158555.732316,1732158555.735375,40.000000,0.000000,4319.615234,4298.077148,4317.307617,4306.794922,4280.384766,4281.153809,4332.563965,4399.358887,4310.897461,4276.794922,4505.384766,4529.743652,4365.000000,4447.436035,0.000000,1.000000,20.000000,,,,0.000000,2.000000,2.000000,0.000000,4.000000,2.000000,2.000000,0.000000,0.000000,4.000000,4.000000,4.000000,4.000000,4.000000,4.000000,0.000000,,,,,,,,,,,,,,,,,10.000000,0.000000,0.524067,0.470703,-0.544495,0.455322,1.005005,-0.016115,-0.028812,-34.547939,50.869240,31.653728
1732158555.740125,1732158555.743183,41.000000,0.000000,4320.256348,4298.589844,4316.153809,4310.641113,4281.153809,4277.179688,4330.641113,4402.820313,4313.461426,4285.256348,4495.769043,4538.205078,4361.282227,4447.051270,0.000000,1.000000,20.000000,,,,0.000000,2.000000,2.000000,0.000000,4.000000,2.000000,2.000000,0.000000,0.000000,4.000000,4.000000,4.000000,4.000000,4.000000,4.000000,0.000000,,,,,,,,,,,,,,,,,,,,,,,,,,,,
1732158555.747933,1732158555.751191,42.000000,0.000000,4314.358887,4296.922852,4315.641113,4310.128418,4274.871582,4266.410156,4329.358887,4406.153809,4310.256348,4280.897461,4495.000000,4528.717773,4356.666504,4447.820313,0.000000,1.000000,20.000000,,,,0.000000,2.000000,2.000000,0.000000,4.000000,2.000000,2.000000,0.000000,0.000000,4.000000,4.000000,4.000000,4.000000,4.000000,4.000000,0.000000,,,,,,,,,,,,,,,,,,,,,,,,,,,,
1732158555.755741,1732158555.759000,43.000000,0.000000,4311.153809,4297.179688,4315.897461,4309.102539,4274.102539,4263.846191,4333.333496,4403.974121,4308.974121,4284.102539,4505.384766,4519.487305,4356.922852,4445.384766,0.000000,1.000000,20.000000,,,,0.000000,2.000000,2.000000,0.000000,4.000000,2.000000,2.000000,0.000000,0.000000,4.000000,4.000000,4.000000,4.000000,4.000000,4.000000,0.000000,,,,,,,,,,,,,,,,,,,,,,,,,,,,
1732158555.763549,1732158555.766908,44.000000,0.000000,4312.179688,4296.153809,4314.871582,4302.820313,4278.717773,4268.205078,4335.897461,4403.846191,4314.743652,4295.769043,4507.051270,4524.615234,4357.948730,4443.717773,0.000000,1.000000,20.000000,,,,0.000000,2.000000,2.000000,0.000000,4.000000,2.000000,2.000000,0.000000,0.000000,4.000000,4.000000,4.000000,4.000000,4.000000,4.000000,0.000000,,,,,,,,,,,,,,,,,11.000000,0.000000,0.523688,0.470886,-0.544189,0.455933,0.983518,-0.004883,-0.022952,-34.435497,49.825752,31.739519
1732158555.771358,1732158555.774716,45.000000,0.000000,4315.769043,4296.666504,4315.769043,4303.589844,4280.384766,4266.922852,4333.846191,4405.512695,4311.922852,4290.641113,4504.487305,4526.922852,4357.948730,4444.487305,0.000000,1.000000,20.000000,,,,0.000000,2.000000,2.000000,0.000000,4.000000,2.000000,2.000000,0.000000,0.000000,4.000000,4.000000,4.000000,4.000000,4.000000,4.000000,0.000000,,,,,,,,,,,,,,,,,,,,,,,,,,,,
1732158555.779166,1732158555.782324,46.000000,0.000000,4317.051270,4302.948730,4317.563965,4314.230957,4280.000000,4264.358887,4332.307617,4404.230957,4300.384766,4277.307617,4500.256348,4522.563965,4355.256348,4445.512695,0.000000,1.000000,20.000000,,,,0.000000,2.000000,2.000000,0.000000,4.000000,2.000000,2.000000,0.000000,0.000000,4.000000,4.000000,4.000000,4.000000,4.000000,4.000000,0.000000,,,,,,,,,,,,,,,,,,,,,,,,,,,,
1732158555.786974,1732158555.790133,47.000000,0.000000,4311.025879,4304.743652,4316.794922,4314.615234,4279.871582,4269.743652,4333.717773,4403.846191,4295.897461,4278.205078,4495.256348,4519.358887,4351.538574,4443.717773,0.000000,1.000000,20.000000,,,,0.000000,2.000000,2.000000,0.000000,4.000000,2.000000,2.000000,0.000000,0.000000,4.000000,4.000000,4.000000,4.000000,4.000000,4.000000,0.000000,,,,,,,,,,,,,,,,,,,,,,,,,,,,
1732158555.794783,1732158555.797841,48.000000,0.000000,4308.974121,4296.666504,4316.666504,4305.769043,4278.205078,4274.358887,4334.871582,4402.948730,4296.666504,4282.436035,4495.000000,4521.410156,4352.948730,4442.692383,0.000000,1.000000,20.000000,,,,0.000000,2.000000,2.000000,0.000000,4.000000,2.000000,2.000000,0.000000,0.000000,4.000000,4.000000,4.000000,4.000000,4.000000,4.000000,0.000000,,,,,,,,,,,,,,,,,12.000000,0.000000,0.523657,0.470825,-0.544067,0.456177,0.990844,-0.012209,-0.029300,-34.724419,48.983856,31.729012
1732158555.802591,1732158555.805649,49.000000,0.000000,4317.307617,4294.615234,4317.820313,4308.974121,4278.333496,4275.000000,4334.871582,4405.128418,4300.897461,4277.692383,4498.205078,4531.025879,4354.871582,4447.563965,0.000000,1.000000,20.000000,,,,0.000000,2.000000,2.000000,0.000000,4.000000,2.000000,2.000000,0.000000,0.000000,4.000000,4.000000,4.000000,4.000000,4.000000,4.000000,0.000000,,,,,,,,,,,,,,,,,,,,,,,,,,,,
1732158555.810399,1732158555.813258,50.000000,0.000000,4321.282227,4300.128418,4317.436035,4317.563965,4282.179688,4278.461426,4333.205078,4406.922852,4306.282227,4275.256348,4498.077148,4533.333496,4351.282227,4450.256348,0.000000,1.000000,20.000000,,,,0.000000,2.000000,2.000000,0.000000,4.000000,2.000000,2.000000,0.000000,0.000000,4.000000,4.000000,4.000000,4.000000,4.000000,4.000000,0.000000,,,,,,,,,,,,,,,,,,,,,,,,,,,,
1732158555.818207,1732158555.821066,51.000000,0.000000,4317.563965,4299.615234,4317.179688,4314.615234,4283.589844,4282.307617,4332.692383,4403.205078,4306.666504,4281.153809,4498.205078,4523.846191,4350.128418,4445.769043,0.000000,1.000000,20.000000,,,,0.000000,2.000000,2.000000,0.000000,4.000000,2.000000,2.000000,0.000000,0.000000,4.000000,4.000000,4.000000,4.000000,4.000000,4.000000,0.000000,,,,,,,,,,,,,,,,,,,,,,,,,,,,
1732158555.826016,1732158555.828774,52.000000,0.000000,4315.256348,4295.128418,4317.436035,4310.256348,4281.282227,4274.871582,4333.974121,4403.717773,4303.589844,4281.794922,4495.641113,4518.846191,4349.615234,4438.846191,0.000000,1.000000,20.000000,,,,0.000000,2.000000,2.000000,0.000000,4.000000,2.000000,2.000000,0.000000,0.000000,4.000000,4.000000,4.000000,4.000000,4.000000,4.000000,0.000000,,,,,,,,,,,,,,,,,13.000000,0.000000,0.523481,0.470886,-0.543518,0.456970,0.973752,-0.004883,-0.018557,-34.896778,48.105259,31.698832
1732158555.833824,1732158555.836582,53.000000,0.000000,4314.358887,4295.128418,4316.410156,4310.256348,4277.948730,4268.077148,4333.205078,4403.846191,4301.025879,4280.512695,4492.051270,4521.153809,4349.871582,4436.410156,0.000000,1.000000,20.000000,,,,0.000000,2.000000,2.000000,0.000000,4.000000,2.000000,2.000000,0.000000,0.000000,4.000000,4.000000,4.000000,4.000000,4.000000,4.000000,0.000000,,,,,,,,,,,,,,,,,,,,,,,,,,,,
1732158555.841632,1732158555.844191,54.000000,0.000000,4313.717773,4296.153809,4315.769043,4310.641113,4278.205078,4273.974121,4332.820313,4399.615234,4297.820313,4285.641113,4494.743652,4525.000000,4355.512695,4438.717773,0.000000,1.000000,20.000000,,,,0.000000,2.000000,2.000000,0.000000,4.000000,2.000000,2.000000,0.000000,0.000000,4.000000,4.000000,4.000000,4.000000,4.000000,4.000000,0.000000,,,,,,,,,,,,,,,,,,,,,,,,,,,,
1732158555.849440,1732158555.851999,55.000000,0.000000,4311.794922,4296.410156,4316.538574,4309.743652,4280.128418,4281.025879,4334.102539,4401.922852,4296.666504,4286.410156,4492.307617,4524.102539,4354.358887,4436.410156,0.000000,1.000000,20.000000,,,,0.000000,2.000000,2.000000,0.000000,4.000000,2.000000,2.000000,0.000000,0.000000,4.000000,4.000000,4.000000,4.000000,4.000000,4.000000,0.000000,,,,,,,,,,,,,,,,,,,,,,,,,,,,
1732158555.857248,1732158555.859707,56.000000,0.000000,4311.666504,4297.563965,4316.666504,4311.410156,4281.666504,4281.410156,4334.102539,4408.846191,4301.282227,4280.128418,4486.410156,4521.025879,4343.717773,4430.000000,0.000000,1.000000,20.000000,,,,0.000000,2.000000,2.000000,0.000000,4.000000,2.000000,2.000000,0.000000,0.000000,4.000000,4.000000,4.000000,4.000000,4.000000,4.000000,0.000000,,,,,,,,,,,,,,,,,14.000000,0.000000,0.523177,0.471313,-0.543030,0.457458,0.976193,-0.000977,-0.024905,-34.968060,47.331924,31.596054
1732158555.865057,1732158555.867515,57.000000,0.000000,4310.256348,4297.179688,4316.922852,4311.153809,4283.846191,4280.384766,4334.230957,4405.256348,4306.922852,4279.615234,4488.333496,4520.000000,4341.282227,4428.846191,0.000000,1.000000,20.000000,,,,0.000000,2.000000,2.000000,0.000000,4.000000,2.000000,2.000000,0.000000,0.000000,4.000000,4.000000,4.000000,4.000000,4.000000,4.000000,0.000000,,,,,,,,,,,,,,,,,,,,,,,,,,,,
1732158555.872865,1732158555.875523,58.000000,0.000000,4304.230957,4295.897461,4317.051270,4308.717773,4283.974121,4281.666504,4334.871582,4398.077148,4310.256348,4282.820313,4491.538574,4513.846191,4347.563965,4428.077148,0.000000,1.000000,20.000000,,,,0.000000,2.000000,2.000000,0.000000,4.000000,2.000000,2.000000,0.000000,0.000000,4.000000,4.000000,4.000000,4.000000,4.000000,4.000000,0.000000,,,,,,,,,,,,,,,,,,,,,,,,,,,,
1732158555.880673,1732158555.883332,59.000000,0.000000,4303.589844,4294.871582,4315.512695,4308.846191,4282.692383,4281.410156,4333.717773,4402.179688,4309.358887,4281.794922,4491.794922,4509.743652,4349.358887,4425.897461,0.000000,1.000000,20.000000,,,,0.000000,2.000000,2.000000,0.000000,4.000000,2.000000,2.000000,0.000000,0.000000,4.000000,4.000000,4.000000,4.000000,4.000000,4.000000,0.000000,,,,,,,,,,,,,,,,,,,,,,,,,,,,
1732158555.888482,1732158555.891040,60.000000,0.000000,4311.153809,4294.871582,4315.256348,4309.743652,4282.436035,4279.743652,4333.333496,4406.666504,4304.871582,4280.384766,4489.487305,4517.692383,4349.230957,4427.179688,0.000000,1.000000,20.000000,,,,0.000000,2.000000,2.000000,0.000000,4.000000,2.000000,2.000000,0.000000,0.000000,4.000000,4.000000,4.000000,4.000000,4.000000,4.000000,0.000000,,,,,,,,,,,,,,,,,15.000000,0.000000,0.523177,0.471313,-0.543030,0.457458,0.984007,-0.010255,-0.024417,-34.935795,46.780525,31.482803
1732158555.896290,1732158555.898848,61.000000,0.000000,4310.897461,4293.846191,4317.563965,4308.205078,4281.794922,4278.717773,4335.769043,4403.974121,4302.948730,4282.948730,4488.846191,4521.666504,4350.000000,4430.000000,0.000000,1.000000,20.000000,,,,0.000000,2.000000,2.000000,0.000000,4.000000,2.000000,2.000000,0.000000,0.000000,4.000000,4.000000,4.000000,4.000000,4.000000,4.000000,0.000000,,,,,,,,,,,,,,,,,,,,,,,,,,,,
1732158555.904098,1732158555.906457,62.000000,0.000000,4307.563965,4295.128418,4317.436035,4307.820313,4278.333496,4278.333496,4335.769043,4403.205078,4306.922852,4282.820313,4490.641113,4518.461426,4350.000000,4436.922852,0.000000,1.000000,20.000000,,,,0.000000,2.000000,2.000000,0.000000,4.000000,2.000000,2.000000,0.000000,0.000000,4.000000,4.000000,4.000000,4.000000,4.000000,4.000000,0.000000,,,,,,,,,,,,,,,,,,,,,,,,,,,,
1732158555.911906,1732158555.914265,63.000000,0.000000,4316.025879,4299.615234,4315.128418,4311.922852,4278.205078,4278.461426,4333.333496,4407.436035,4312.436035,4279.102539,4494.230957,4525.384766,4350.769043,4444.615234,0.000000,1.000000,20.000000,,,,0.000000,2.000000,2.000000,0.000000,4.000000,2.000000,2.000000,0.000000,0.000000,4.000000,4.000000,4.000000,4.000000,4.000000,4.000000,0.000000,,,,,,,,,,,,,,,,,,,,,,,,,,,,
1732158555.919715,1732158555.921973,64.000000,0.000000,4319.743652,4299.487305,4313.974121,4312.692383,4282.307617,4277.692383,4334.102539,4405.641113,4311.025879,4278.461426,4494.230957,4531.410156,4351.922852,4442.436035,0.000000,1.000000,20.000000,,,,0.000000,2.000000,2.000000,0.000000,4.000000,2.000000,2.000000,0.000000,0.000000,4.000000,4.000000,4.000000,4.000000,4.000000,4.000000,0.000000,,,,,,,,,,,,,,,,,16.000000,0.000000,0.523265,0.471741,-0.542419,0.457642,0.978147,-0.000488,-0.025882,-35.149658,46.377228,31.676071
1732158555.927523,1732158555.929781,65.000000,0.000000,4310.128418,4295.641113,4315.897461,4309.102539,4280.897461,4277.563965,4335.512695,4401.025879,4305.128418,4279.871582,4488.333496,4528.589844,4347.820313,4434.487305,1609.000000,1.000000,20.000000,,,,0.000000,2.000000,2.000000,0.000000,4.000000,2.000000,2.000000,0.000000,0.000000,4.000000,4.000000,4.000000,4.000000,4.000000,4.000000,0.000000,,,,,,,,,,,,,,,,,,,,,,,,,,,,
1732158555.935331,1732158555.937390,66.000000,0.000000,4306.538574,4295.000000,4317.563965,4308.589844,4277.948730,4279.487305,4334.615234,4404.615234,4306.410156,4278.846191,4487.179688,4528.333496,4340.897461,4434.102539,1359.000000,1.000000,20.000000,,,,0.000000,2.000000,2.000000,0.000000,4.000000,2.000000,2.000000,0.000000,0.000000,4.000000,4.000000,4.000000,4.000000,4.000000,4.000000,0.000000,,,,,,,,,,,,,,,,,,,,,,,,,,,,
1732158555.943139,1732158555.945198,67.000000,0.000000,4310.384766,4296.538574,4317.051270,4310.769043,4278.974121,4280.897461,4333.974121,4406.153809,4311.025879,4278.461426,4493.589844,4530.384766,4343.077148,4439.230957,1429.000000,1.000000,20.000000,,,,0.000000,2.000000,2.000000,0.000000,4.000000,2.000000,2.000000,0.000000,0.000000,4.000000,4.000000,4.000000,4.000000,4.000000,4.000000,0.000000,,,,,,,,,,,,,,,,,,,,,,,,,,,,
1732158555.950948,1732158555.953106,68.000000,0.000000,4310.128418,4297.051270,4316.410156,4310.641113,4281.538574,4279.743652,4333.974121,4402.051270,4308.974121,4281.153809,4497.563965,4532.563965,4351.025879,4443.846191,1431.000000,1.000000,20.000000,,,,0.000000,2.000000,2.000000,0.000000,4.000000,2.000000,2.000000,0.000000,0.000000,4.000000,4.000000,4.000000,4.000000,4.000000,4.000000,0.000000,,,,,,,,,,,,,,,,,17.000000,0.000000,0.522791,0.472412,-0.541931,0.458069,0.975217,0.004395,-0.021487,-35.272892,46.217220,31.665951
1732158555.958756,1732158555.960914,69.000000,0.000000,4308.589844,4297.436035,4316.794922,4310.256348,4277.436035,4280.000000,4334.358887,4403.205078,4308.846191,4284.871582,4492.436035,4538.205078,4352.820313,4445.769043,1202.000000,1.000000,20.000000,,,,0.000000,2.000000,2.000000,0.000000,4.000000,2.000000,2.000000,0.000000,0.000000,4.000000,4.000000,4.000000,4.000000,4.000000,4.000000,0.000000,,,,,,,,,,,,,,,,,,,,,,,,,,,,
1732158555.966564,1732158555.968922,70.000000,0.000000,4312.692383,4297.563965,4317.820313,4310.897461,4275.769043,4281.025879,4333.974121,4404.487305,4313.205078,4287.436035,4490.384766,4541.666504,4350.384766,4445.128418,0.000000,1.000000,20.000000,,,,0.000000,2.000000,2.000000,0.000000,4.000000,2.000000,2.000000,0.000000,0.000000,4.000000,4.000000,4.000000,4.000000,4.000000,4.000000,0.000000,,,,,,,,,,,,,,,,,,,,,,,,,,,,
1732158555.974372,1732158555.976730,71.000000,0.000000,4313.717773,4297.051270,4316.794922,4310.641113,4288.846191,4276.666504,4332.948730,4400.641113,4311.922852,4287.692383,4498.846191,4532.436035,4351.025879,4444.358887,0.000000,1.000000,20.000000,,,,0.000000,2.000000,2.000000,0.000000,4.000000,2.000000,2.000000,0.000000,0.000000,4.000000,4.000000,4.000000,4.000000,4.000000,4.000000,0.000000,,,,,,,,,,,,,,,,,,,,,,,,,,,,
1732158555.982180,1732158555.984639,72.000000,0.000000,4310.384766,4297.436035,4316.153809,4310.897461,4294.615234,4273.589844,4333.846191,4400.641113,4308.205078,4288.205078,4500.128418,4522.051270,4352.051270,4438.717773,1549.000000,1.000000,20.000000,,,,0.000000,2.000000,2.000000,0.000000,4.000000,2.000000,2.000000,0.000000,0.000000,4.000000,4.000000,4.000000,4.000000,4.000000,4.000000,0.000000,,,,,,,,,,,,,,,,,18.000000,0.000000,0.522070,0.473145,-0.541626,0.458496,0.974240,-0.000488,-0.032719,-35.321041,46.074280,31.707754
1732158555.989989,1732158555.992447,73.000000,0.000000,4308.717773,4297.436035,4315.897461,4312.436035,4279.358887,4278.974121,4335.512695,4404.102539,4311.025879,4287.436035,4488.589844,4522.051270,4350.000000,4431.153809,1706.000000,1.000000,20.000000,,,,0.000000,2.000000,2.000000,0.000000,4.000000,2.000000,2.000000,0.000000,0.000000,4.000000,4.000000,4.000000,4.000000,4.000000,4.000000,0.000000,,,,,,,,,,,,,,,,,,,,,,,,,,,,
1732158555.997797,1732158556.000455,74.000000,0.000000,4308.205078,4296.410156,4314.743652,4311.410156,4269.871582,4283.333496,4335.769043,4403.974121,4316.025879,4286.153809,4490.769043,4524.358887,4349.871582,4429.230957,1563.000000,1.000000,20.000000,,,,0.000000,2.000000,2.000000,0.000000,4.000000,2.000000,2.000000,0.000000,0.000000,4.000000,4.000000,4.000000,4.000000,4.000000,4.000000,0.000000,,,,,,,,,,,,,,,,,,,,,,,,,,,,
1732158556.005605,1732158556.008263,75.000000,0.000000,4306.666504,4295.769043,4313.077148,4309.230957,4279.871582,4282.436035,4335.256348,4403.077148,4322.948730,4293.333496,4504.230957,4522.307617,4350.769043,4430.128418,1556.000000,1.000000,20.000000,,,,0.000000,2.000000,2.000000,0.000000,4.000000,2.000000,2.000000,0.000000,0.000000,4.000000,4.000000,4.000000,4.000000,4.000000,4.000000,0.000000,,,,,,,,,,,,,,,,,,,,,,,,,,,,
1732158556.013414,1732158556.015971,76.000000,0.000000,4305.384766,4295.769043,4313.974121,4311.153809,4283.717773,4282.563965,4334.230957,4403.205078,4325.384766,4299.102539,4499.743652,4520.384766,4347.948730,4428.846191,1706.000000,1.000000,20.000000,,,,0.000000,2.000000,2.000000,0.000000,4.000000,2.000000,2.000000,0.000000,0.000000,4.000000,4.000000,4.000000,4.000000,4.000000,4.000000,0.000000,,,,,,,,,,,,,,,,,19.000000,0.000000,0.521896,0.473267,-0.541687,0.458496,0.974240,-0.000488,-0.032719,-35.006710,45.775169,31.858280
1732158556.021222,1732158556.023779,77.000000,0.000000,4305.256348,4292.820313,4314.358887,4311.153809,4277.051270,4282.563965,4333.846191,4403.205078,4310.384766,4287.948730,4486.025879,4520.384766,4342.307617,4426.025879,1573.000000,1.000000,20.000000,,,,0.000000,2.000000,2.000000,0.000000,4.000000,2.000000,2.000000,0.000000,0.000000,4.000000,4.000000,4.000000,4.000000,4.000000,4.000000,0.000000,,,,,,,,,,,,,,,,,,,,,,,,,,,,
1732158556.029030,1732158556.031388,78.000000,0.000000,4304.358887,4293.846191,4314.615234,4309.230957,4277.051270,4280.128418,4334.743652,4403.589844,4295.384766,4278.205078,4487.948730,4518.589844,4340.384766,4425.256348,1563.000000,1.000000,20.000000,,,,0.000000,2.000000,2.000000,0.000000,4.000000,2.000000,2.000000,0.000000,0.000000,4.000000,4.000000,4.000000,4.000000,4.000000,4.000000,0.000000,1.000000,0.000000,2.000000,2.000000,0.000000,4.000000,2.000000,2.000000,0.000000,0.000000,4.000000,4.000000,4.000000,4.000000,4.000000,4.000000,,,,,,,,,,,,
1732158556.036838,1732158556.039196,79.000000,0.000000,4303.589844,4296.282227,4316.794922,4311.410156,4277.948730,4278.846191,4333.846191,4402.563965,4300.128418,4281.794922,4492.563965,4512.692383,4340.769043,4426.025879,1556.000000,1.000000,20.000000,,,,0.000000,2.000000,2.000000,0.000000,4.000000,2.000000,2.000000,0.000000,0.000000,4.000000,4.000000,4.000000,4.000000,4.000000,4.000000,0.000000,,,,,,,,,,,,,,,,,,,,,,,,,,,,
1732158556.044647,1732158556.047104,80.000000,0.000000,4302.948730,4289.102539,4317.051270,4310.384766,4279.615234,4278.717773,4330.897461,4401.025879,4308.077148,4283.333496,4491.025879,4511.410156,4339.871582,4427.820313,1706.000000,1.000000,20.000000,,,,0.000000,2.000000,2.000000,0.000000,4.000000,2.000000,2.000000,0.000000,0.000000,4.000000,4.000000,4.000000,4.000000,4.000000,4.000000,0.000000,,,,,,,,,,,,,,,,,20.000000,0.000000,0.521181,0.473877,-0.541687,0.458679,0.979612,0.000977,-0.034672,-34.993767,45.774551,31.893541
1732158556.052455,1732158556.054912,81.000000,0.000000,4301.794922,4284.743652,4316.025879,4306.794922,4276.538574,4278.077148,4331.025879,4402.948730,4311.410156,4281.282227,4489.102539,4518.846191,4339.615234,4429.743652,1573.000000,1.000000,20.000000,,,,0.000000,2.000000,2.000000,0.000000,4.000000,2.000000,2.000000,0.000000,0.000000,4.000000,4.000000,4.000000,4.000000,4.000000,4.000000,0.000000,,,,,,,,,,,,,,,,,,,,,,,,,,,,
1732158556.060263,1732158556.062920,82.000000,0.000000,4302.051270,4292.179688,4315.384766,4309.230957,4278.077148,4280.256348,4333.974121,4405.512695,4308.333496,4281.025879,4481.666504,4518.333496,4340.000000,4428.846191,1563.000000,1.000000,20.000000,,,,0.000000,2.000000,2.000000,0.000000,4.000000,2.000000,2.000000,0.000000,0.000000,4.000000,4.000000,4.000000,4.000000,4.000000,4.000000,0.000000,,,,,,,,,,,,,,,,,,,,,,,,,,,,
1732158556.068071,1732158556.070729,83.000000,0.000000,4302.948730,4296.410156,4314.743652,4311.153809,4295.769043,4281.025879,4335.769043,4403.589844,4301.538574,4279.358887,4479.358887,4505.897461,4339.487305,4426.153809,1556.000000,1.000000,20.000000,,,,0.000000,2.000000,2.000000,0.000000,4.000000,2.000000,2.000000,0.000000,0.000000,4.000000,4.000000,4.000000,4.000000,4.000000,4.000000,0.000000,,,,,,,,,,,,,,,,,,,,,,,,,,,,
1732158556.075880,1732158556.078637,84.000000,0.000000,4303.589844,4292.820313,4314.487305,4308.974121,4295.256348,4278.461426,4334.615234,4400.512695,4303.077148,4281.922852,4490.512695,4505.641113,4340.897461,4426.538574,1706.000000,1.000000,20.000000,,,,0.000000,2.000000,2.000000,0.000000,4.000000,2.000000,2.000000,0.000000,0.000000,4.000000,4.000000,4.000000,4.000000,4.000000,4.000000,0.000000,,,,,,,,,,,,,,,,,21.000000,0.000000,0.520786,0.474182,-0.541748,0.458740,0.982542,0.005372,-0.044439,-34.833286,45.707386,31.772100
1732158556.083688,1732158556.086445,85.000000,0.000000,4302.563965,4293.589844,4314.487305,4311.666504,4271.794922,4278.205078,4335.512695,4401.282227,4306.666504,4281.282227,4492.820313,4517.948730,4341.794922,4429.743652,1573.000000,1.000000,20.000000,,,,0.000000,2.000000,2.000000,0.000000,4.000000,2.000000,2.000000,0.000000,0.000000,4.000000,4.000000,4.000000,4.000000,4.000000,4.000000,0.000000,,,,,,,,,,,,,,,,,,,,,,,,,,,,
1732158556.091496,1732158556.094453,86.000000,0.000000,4303.974121,4296.282227,4313.974121,4313.717773,4268.077148,4281.282227,4335.769043,4403.846191,4304.358887,4276.794922,4490.128418,4521.666504,4343.589844,4431.282227,1563.000000,1.000000,20.000000,,,,0.000000,2.000000,2.000000,0.000000,4.000000,2.000000,2.000000,0.000000,0.000000,4.000000,4.000000,4.000000,4.000000,4.000000,4.000000,0.000000,,,,,,,,,,,,,,,,,,,,,,,,,,,,
1732158556.099304,1732158556.102261,87.000000,0.000000,4305.769043,4295.128418,4315.384766,4311.025879,4281.538574,4282.179688,4331.666504,4403.846191,4307.948730,4285.641113,4497.820313,4523.205078,4349.615234,4431.282227,1556.000000,1.000000,20.000000,,,,0.000000,2.000000,2.000000,0.000000,4.000000,2.000000,2.000000,0.000000,0.000000,4.000000,4.000000,4.000000,4.000000,4.000000,4.000000,0.000000,,,,,,,,,,,,,,,,,,,,,,,,,,,,
1732158556.107113,1732158556.110169,88.000000,0.000000,4302.820313,4291.922852,4318.846191,4309.358887,4282.179688,4281.666504,4331.538574,4399.102539,4319.487305,4297.051270,4500.128418,4520.256348,4351.538574,4431.538574,1706.000000,1.000000,20.000000,,,,0.000000,2.000000,2.000000,0.000000,4.000000,2.000000,2.000000,0.000000,0.000000,4.000000,4.000000,4.000000,4.000000,4.000000,4.000000,0.000000,,,,,,,,,,,,,,,,,22.000000,0.000000,0.520676,0.474243,-0.541748,0.458801,0.980100,-0.012209,-0.036626,-34.626629,45.631317,31.830402
1732158556.114921,1732158556.117977,89.000000,0.000000,4301.666504,4289.230957,4318.077148,4308.717773,4279.358887,4282.820313,4336.282227,4398.846191,4322.820313,4297.820313,4489.743652,4509.358887,4344.871582,4429.743652,1573.000000,1.000000,20.000000,,,,0.000000,2.000000,2.000000,0.000000,4.000000,2.000000,2.000000,0.000000,0.000000,4.000000,4.000000,4.000000,4.000000,4.000000,4.000000,0.000000,,,,,,,,,,,,,,,,,,,,,,,,,,,,
1732158556.122729,1732158556.125985,90.000000,0.000000,4302.948730,4292.820313,4313.589844,4309.615234,4280.000000,4282.307617,4336.282227,4404.230957,4315.384766,4295.641113,4487.563965,4503.846191,4341.025879,4425.000000,1563.000000,1.000000,20.000000,,,,0.000000,2.000000,2.000000,0.000000,4.000000,2.000000,2.000000,0.000000,0.000000,4.000000,4.000000,4.000000,4.000000,4.000000,4.000000,0.000000,,,,,,,,,,,,,,,,,,,,,,,,,,,,
1732158556.130537,1732158556.133794,91.000000,0.000000,4299.615234,4291.794922,4313.205078,4311.794922,4286.282227,4280.384766,4334.102539,4405.256348,4302.436035,4287.948730,4490.512695,4505.384766,4343.717773,4418.717773,1556.000000,1.000000,20.000000,,,,0.000000,2.000000,2.000000,0.000000,4.000000,2.000000,2.000000,0.000000,0.000000,4.000000,4.000000,4.000000,4.000000,4.000000,4.000000,0.000000,,,,,,,,,,,,,,,,,,,,,,,,,,,,
1732158556.138346,1732158556.141702,92.000000,0.000000,4295.256348,4282.179688,4315.769043,4310.641113,4303.974121,4281.538574,4335.512695,4403.333496,4293.077148,4274.743652,4484.358887,4506.922852,4341.922852,4418.205078,1706.000000,1.000000,20.000000,,,,0.000000,2.000000,2.000000,0.000000,4.000000,2.000000,2.000000,0.000000,0.000000,4.000000,4.000000,4.000000,4.000000,4.000000,4.000000,0.000000,,,,,,,,,,,,,,,,,23.000000,0.000000,0.520400,0.474487,-0.541748,0.458862,0.988890,-0.007813,-0.041509,-34.634235,45.511368,31.577625
1732158556.146154,1732158556.149510,93.000000,0.000000,4296.666504,4280.128418,4316.410156,4308.333496,4295.000000,4282.692383,4336.025879,4405.384766,4301.282227,4274.230957,4483.205078,4505.256348,4334.615234,4421.282227,1573.000000,1.000000,20.000000,,,,0.000000,2.000000,2.000000,0.000000,4.000000,2.000000,2.000000,0.000000,0.000000,4.000000,4.000000,4.000000,4.000000,4.000000,4.000000,0.000000,,,,,,,,,,,,,,,,,,,,,,,,,,,,
1732158556.153962,1732158556.157518,94.000000,0.000000,4297.307617,4283.205078,4313.205078,4309.102539,4265.256348,4281.922852,4335.512695,4406.794922,4311.153809,4280.256348,4490.256348,4503.846191,4332.948730,4420.512695,1563.000000,1.000000,20.000000,,,,0.000000,2.000000,2.000000,0.000000,4.000000,2.000000,2.000000,0.000000,0.000000,4.000000,4.000000,4.000000,4.000000,4.000000,4.000000,0.000000,,,,,,,,,,,,,,,,,,,,,,,,,,,,
1732158556.161770,1732158556.165326,95.000000,0.000000,4295.769043,4282.051270,4314.615234,4309.230957,4265.512695,4281.282227,4336.410156,4404.487305,4311.282227,4280.128418,4485.897461,4506.025879,4336.794922,4424.615234,1556.000000,1.000000,20.000000,,,,0.000000,2.000000,2.000000,0.000000,4.000000,2.000000,2.000000,0.000000,0.000000,4.000000,4.000000,4.000000,4.000000,4.000000,4.000000,0.000000,,,,,,,,,,,,,,,,,,,,,,,,,,,,
1732158556.169579,1732158556.173034,96.000000,0.000000,4297.179688,4284.615234,4319.358887,4307.948730,4285.000000,4281.538574,4335.769043,4404.487305,4309.615234,4284.871582,4476.666504,4508.974121,4338.461426,4426.794922,1706.000000,1.000000,20.000000,,,,0.000000,2.000000,2.000000,0.000000,4.000000,2.000000,2.000000,0.000000,0.000000,4.000000,4.000000,4.000000,4.000000,4.000000,4.000000,0.000000,,,,,,,,,,,,,,,,,24.000000,0.000000,0.519828,0.475098,-0.541504,0.459167,0.976193,-0.003907,-0.031254,-34.642063,45.477539,31.374544
1732158556.177387,1732158556.180843,97.000000,0.000000,4298.589844,4287.563965,4317.948730,4308.589844,4281.666504,4282.051270,4335.256348,4405.641113,4311.025879,4287.051270,4483.589844,4506.025879,4336.282227,4421.794922,1573.000000,1.000000,20.000000,,,,0.000000,2.000000,2.000000,0.000000,4.000000,2.000000,2.000000,0.000000,0.000000,4.000000,4.000000,4.000000,4.000000,4.000000,4.000000,0.000000,,,,,,,,,,,,,,,,,,,,,,,,,,,,
1732158556.185195,1732158556.188451,98.000000,0.000000,4297.820313,4283.846191,4314.487305,4309.871582,4273.589844,4282.051270,4337.179688,4403.717773,4311.410156,4280.897461,4493.589844,4504.102539,4336.538574,4420.256348,1563.000000,1.000000,20.000000,,,,0.000000,2.000000,2.000000,0.000000,4.000000,2.000000,2.000000,0.000000,0.000000,4.000000,4.000000,4.000000,4.000000,4.000000,4.000000,0.000000,,,,,,,,,,,,,,,,,,,,,,,,,,,,
1732158556.193003,1732158556.196259,99.000000,0.000000,4296.666504,4282.179688,4315.128418,4306.666504,4290.128418,4280.641113,4335.128418,4400.128418,4309.102539,4277.948730,4484.102539,4505.897461,4333.974121,4420.000000,1556.000000,1.000000,20.000000,,,,0.000000,2.000000,2.000000,0.000000,4.000000,2.000000,2.000000,0.000000,0.000000,4.000000,4.000000,4.000000,4.000000,4.000000,4.000000,0.000000,,,,,,,,,,,,,,,,,,,,,,,,,,,,
1732158556.200812,1732158556.203968,100.000000,0.000000,4298.589844,4284.358887,4316.025879,4308.461426,4297.051270,4283.205078,4330.769043,4399.102539,4308.717773,4281.025879,4478.846191,4506.922852,4329.487305,4415.256348,1706.000000,1.000000,20.000000,,,,0.000000,2.000000,2.000000,0.000000,4.000000,2.000000,2.000000,0.000000,0.000000,4.000000,4.000000,4.000000,4.000000,4.000000,4.000000,0.000000,,,,,,,,,,,,,,,,,25.000000,0.000000,0.519828,0.475098,-0.541504,0.459167,0.980588,-0.001465,-0.047857,-34.648407,45.450142,31.180046
1732158556.208620,1732158556.211776,101.000000,0.000000,4299.487305,4282.563965,4315.000000,4315.512695,4279.102539,4284.230957,4332.820313,4403.077148,4313.205078,4281.153809,4488.461426,4508.461426,4332.436035,4413.717773,1573.000000,1.000000,20.000000,,,,0.000000,2.000000,2.000000,0.000000,4.000000,2.000000,2.000000,0.000000,0.000000,4.000000,4.000000,4.000000,4.000000,4.000000,4.000000,0.000000,,,,,,,,,,,,,,,,,,,,,,,,,,,,
1732158556.216428,1732158556.219384,102.000000,0.000000,4296.794922,4280.512695,4316.153809,4313.205078,4272.820313,4283.846191,4337.051270,4404.615234,4310.512695,4277.692383,4489.358887,4508.846191,4337.436035,4415.384766,1563.000000,1.000000,20.000000,,,,0.000000,2.000000,2.000000,0.000000,4.000000,2.000000,2.000000,0.000000,0.000000,4.000000,4.000000,4.000000,4.000000,4.000000,4.000000,0.000000,,,,,,,,,,,,,,,,,,,,,,,,,,,,
1732158556.224236,1732158556.227192,103.000000,0.000000,4295.641113,4285.256348,4318.077148,4307.436035,4287.051270,4287.179688,4333.974121,4402.051270,4297.948730,4277.692383,4477.692383,4507.436035,4335.000000,4412.948730,1556.000000,1.000000,20.000000,,,,0.000000,2.000000,2.000000,0.000000,4.000000,2.000000,2.000000,0.000000,0.000000,4.000000,4.000000,4.000000,4.000000,4.000000,4.000000,0.000000,,,,,,,,,,,,,,,,,,,,,,,,,,,,
1732158556.232045,1732158556.234901,104.000000,0.000000,4297.948730,4287.820313,4316.794922,4312.179688,4288.846191,4292.692383,4331.922852,4401.153809,4297.179688,4279.871582,4473.589844,4507.692383,4333.974121,4413.974121,1706.000000,1.000000,20.000000,,,,0.000000,2.000000,2.000000,0.000000,4.000000,2.000000,2.000000,0.000000,0.000000,4.000000,4.000000,4.000000,4.000000,4.000000,4.000000,0.000000,,,,,,,,,,,,,,,,,26.000000,0.000000,0.519780,0.475220,-0.541443,0.459167,0.987425,-0.007813,-0.024417,-34.651875,45.364613,30.987505
1732158556.239853,1732158556.242709,105.000000,0.000000,4295.128418,4283.205078,4314.615234,4311.153809,4288.077148,4292.563965,4334.230957,4400.769043,4309.487305,4279.230957,4480.128418,4501.666504,4335.512695,4411.922852,1573.000000,1.000000,20.000000,,,,0.000000,2.000000,2.000000,0.000000,4.000000,2.000000,2.000000,0.000000,0.000000,4.000000,4.000000,4.000000,4.000000,4.000000,4.000000,0.000000,,,,,,,,,,,,,,,,,,,,,,,,,,,,
1732158556.247661,1732158556.250317,106.000000,0.000000,4284.230957,4277.820313,4313.974121,4298.974121,4302.563965,4287.563965,4333.717773,4402.051270,4311.794922,4278.846191,4477.948730,4489.743652,4329.615234,4399.102539,1563.000000,1.000000,20.000000,,,,0.000000,2.000000,2.000000,0.000000,4.000000,2.000000,2.000000,0.000000,0.000000,4.000000,4.000000,4.000000,4.000000,4.000000,4.000000,0.000000,,,,,,,,,,,,,,,,,,,,,,,,,,,,
1732158556.255469,1732158556.258126,107.000000,0.000000,4278.077148,4278.589844,4315.897461,4297.436035,4297.179688,4287.307617,4334.487305,4404.871582,4309.358887,4285.384766,4474.230957,4487.563965,4326.794922,4393.205078,1556.000000,1.000000,20.000000,,,,0.000000,2.000000,2.000000,0.000000,4.000000,2.000000,2.000000,0.000000,0.000000,4.000000,4.000000,4.000000,4.000000,4.000000,4.000000,0.000000,,,,,,,,,,,,,,,,,,,,,,,,,,,,
1732158556.263278,1732158556.265834,108.000000,0.000000,4284.743652,4281.025879,4316.922852,4304.102539,4279.871582,4293.846191,4337.179688,4406.025879,4316.922852,4292.692383,4480.641113,4496.153809,4333.974121,4402.436035,1706.000000,1.000000,20.000000,,,,0.000000,2.000000,2.000000,0.000000,4.000000,2.000000,2.000000,0.000000,0.000000,4.000000,4.000000,4.000000,4.000000,4.000000,4.000000,0.000000,,,,,,,,,,,,,,,,,27.000000,0.000000,0.519608,0.475220,-0.541504,0.459290,0.980588,0.002442,-0.042974,-34.903019,45.345337,31.256546
1732158556.271086,1732158556.273642,109.000000,0.000000,4293.333496,4279.871582,4313.589844,4306.153809,4277.948730,4297.051270,4335.897461,4405.512695,4320.769043,4297.179688,4489.871582,4505.897461,4337.820313,4412.820313,1573.000000,1.000000,20.000000,,,,0.000000,2.000000,2.000000,0.000000,4.000000,2.000000,2.000000,0.000000,0.000000,4.000000,4.000000,4.000000,4.000000,4.000000,4.000000,0.000000,,,,,,,,,,,,,,,,,,,,,,,,,,,,
1732158556.278894,1732158556.281251,110.000000,0.000000,4292.820313,4280.384766,4311.666504,4305.641113,4278.077148,4288.077148,4334.871582,4405.897461,4313.974121,4295.641113,4492.563965,4510.512695,4336.410156,4415.384766,1563.000000,1.000000,20.000000,,,,0.000000,2.000000,2.000000,0.000000,4.000000,2.000000,2.000000,0.000000,0.000000,4.000000,4.000000,4.000000,4.000000,4.000000,4.000000,0.000000,,,,,,,,,,,,,,,,,,,,,,,,,,,,
1732158556.286703,1732158556.289059,111.000000,0.000000,4292.692383,4281.282227,4314.615234,4307.051270,4285.384766,4280.897461,4335.897461,4406.538574,4310.128418,4283.717773,4482.948730,4509.871582,4334.615234,4416.666504,1556.000000,1.000000,20.000000,,,,0.000000,2.000000,2.000000,0.000000,4.000000,2.000000,2.000000,0.000000,0.000000,4.000000,4.000000,4.000000,4.000000,4.000000,4.000000,0.000000,,,,,,,,,,,,,,,,,,,,,,,,,,,,
1732158556.294511,1732158556.296967,112.000000,0.000000,4298.205078,4282.307617,4315.641113,4309.487305,4300.512695,4285.641113,4335.128418,4406.666504,4311.410156,4278.077148,4478.974121,4509.871582,4337.948730,4417.563965,1706.000000,1.000000,20.000000,,,,0.000000,2.000000,2.000000,0.000000,4.000000,2.000000,2.000000,0.000000,0.000000,4.000000,4.000000,4.000000,4.000000,4.000000,4.000000,0.000000,,,,,,,,,,,,,,,,,28.000000,0.000000,0.519398,0.475342,-0.541443,0.459473,0.974240,-0.006348,-0.044927,-35.066444,45.374725,31.346134
1732158556.302319,1732158556.304775,113.000000,0.000000,4300.128418,4281.922852,4312.563965,4312.563965,4288.077148,4291.794922,4335.000000,4405.128418,4311.025879,4288.077148,4490.384766,4510.641113,4342.179688,4415.897461,1573.000000,1.000000,20.000000,,,,0.000000,2.000000,2.000000,0.000000,4.000000,2.000000,2.000000,0.000000,0.000000,4.000000,4.000000,4.000000,4.000000,4.000000,4.000000,0.000000,,,,,,,,,,,,,,,,,,,,,,,,,,,,
1732158556.310127,1732158556.312783,114.000000,0.000000,4297.436035,4281.794922,4311.666504,4308.333496,4268.846191,4289.358887,4335.897461,4401.666504,4310.128418,4291.153809,4492.692383,4507.820313,4338.333496,4413.974121,1563.000000,1.000000,20.000000,,,,0.000000,2.000000,2.000000,0.000000,4.000000,2.000000,2.000000,0.000000,0.000000,4.000000,4.000000,4.000000,4.000000,4.000000,4.000000,0.000000,,,,,,,,,,,,,,,,,,,,,,,,,,,,
1732158556.317935,1732158556.320591,115.000000,0.000000,4294.230957,4282.307617,4314.871582,4298.717773,4285.000000,4281.410156,4334.358887,4402.948730,4311.538574,4280.769043,4477.948730,4505.384766,4327.179688,4412.563965,1556.000000,1.000000,20.000000,,,,0.000000,2.000000,2.000000,0.000000,4.000000,2.000000,2.000000,0.000000,0.000000,4.000000,4.000000,4.000000,4.000000,4.000000,4.000000,0.000000,,,,,,,,,,,,,,,,,,,,,,,,,,,,
1732158556.325744,1732158556.328300,116.000000,0.000000,4292.948730,4281.666504,4315.897461,4302.436035,4290.641113,4286.025879,4335.384766,4405.384766,4311.922852,4278.461426,4473.717773,4505.256348,4325.641113,4410.769043,1706.000000,1.000000,20.000000,,,,0.000000,2.000000,2.000000,0.000000,4.000000,2.000000,2.000000,0.000000,0.000000,4.000000,4.000000,4.000000,4.000000,4.000000,4.000000,0.000000,,,,,,,,,,,,,,,,,29.000000,0.000000,0.519279,0.475403,-0.541504,0.459473,0.974240,-0.006348,-0.044927,-35.148819,45.081860,31.343702
1732158556.333552,1732158556.336108,117.000000,0.000000,4295.128418,4281.922852,4314.358887,4312.820313,4273.974121,4296.666504,4337.692383,4403.205078,4311.410156,4282.948730,4477.948730,4505.384766,4333.846191,4411.922852,1573.000000,1.000000,20.000000,,,,0.000000,2.000000,2.000000,0.000000,4.000000,2.000000,2.000000,0.000000,0.000000,4.000000,4.000000,4.000000,4.000000,4.000000,4.000000,0.000000,,,,,,,,,,,,,,,,,,,,,,,,,,,,
1732158556.341360,1732158556.343716,118.000000,0.000000,4297.051270,4282.820313,4316.410156,4313.333496,4278.461426,4299.102539,4336.153809,4402.179688,4311.153809,4282.179688,4469.871582,4504.871582,4332.563965,4413.205078,1563.000000,1.000000,20.000000,,,,0.000000,2.000000,2.000000,0.000000,4.000000,2.000000,2.000000,0.000000,0.000000,4.000000,4.000000,4.000000,4.000000,4.000000,4.000000,0.000000,,,,,,,,,,,,,,,,,,,,,,,,,,,,
1732158556.349168,1732158556.351524,119.000000,0.000000,4295.641113,4281.153809,4317.948730,4308.461426,4288.461426,4293.589844,4334.871582,4402.307617,4309.743652,4275.897461,4464.487305,4505.384766,4327.051270,4412.051270,1556.000000,1.000000,20.000000,,,,0.000000,2.000000,2.000000,0.000000,4.000000,2.000000,2.000000,0.000000,0.000000,4.000000,4.000000,4.000000,4.000000,4.000000,4.000000,0.000000,,,,,,,,,,,,,,,,,,,,,,,,,,,,
1732158556.356977,1732158556.359233,120.000000,0.000000,4296.282227,4279.358887,4314.487305,4310.128418,4282.051270,4286.282227,4336.666504,4399.743652,4307.307617,4277.436035,4474.871582,4504.615234,4330.384766,4411.025879,1706.000000,1.000000,20.000000,,,,0.000000,2.000000,2.000000,0.000000,4.000000,2.000000,2.000000,0.000000,0.000000,4.000000,4.000000,4.000000,4.000000,4.000000,4.000000,0.000000,,,,,,,,,,,,,,,,,30.000000,0.000000,0.519335,0.475342,-0.541504,0.459473,0.991332,-0.017580,-0.031254,-35.295544,45.379639,31.560066
1732158556.364785,1732158556.367041,121.000000,0.000000,4299.743652,4281.153809,4312.692383,4312.307617,4278.974121,4281.025879,4337.307617,4400.897461,4308.461426,4288.461426,4487.820313,4504.615234,4340.256348,4413.205078,1573.000000,1.000000,20.000000,,,,0.000000,2.000000,2.000000,0.000000,4.000000,2.000000,2.000000,0.000000,0.000000,4.000000,4.000000,4.000000,4.000000,4.000000,4.000000,0.000000,,,,,,,,,,,,,,,,,,,,,,,,,,,,
1732158556.372593,1732158556.375049,122.000000,0.000000,4299.615234,4282.307617,4313.717773,4310.128418,4281.153809,4279.487305,4336.282227,4405.384766,4311.666504,4287.307617,4491.794922,4508.333496,4345.384766,4417.436035,1563.000000,1.000000,20.000000,,,,0.000000,2.000000,2.000000,0.000000,4.000000,2.000000,2.000000,0.000000,0.000000,4.000000,4.000000,4.000000,4.000000,4.000000,4.000000,0.000000,,,,,,,,,,,,,,,,,,,,,,,,,,,,
1732158556.380401,1732158556.382857,123.000000,0.000000,4298.974121,4280.897461,4314.102539,4309.871582,4281.025879,4281.153809,4336.538574,4405.769043,4312.179688,4277.436035,4486.538574,4511.153809,4342.179688,4416.025879,1556.000000,1.000000,20.000000,,,,0.000000,2.000000,2.000000,0.000000,4.000000,2.000000,2.000000,0.000000,0.000000,4.000000,4.000000,4.000000,4.000000,4.000000,4.000000,0.000000,,,,,,,,,,,,,,,,,,,,,,,,,,,,
1732158556.388210,1732158556.390765,124.000000,0.000000,4299.487305,4280.897461,4315.641113,4309.358887,4283.974121,4283.461426,4337.179688,4405.128418,4312.179688,4281.410156,4479.358887,4511.666504,4335.769043,4409.358887,1706.000000,1.000000,20.000000,,,,0.000000,2.000000,2.000000,0.000000,4.000000,2.000000,2.000000,0.000000,0.000000,4.000000,4.000000,4.000000,4.000000,4.000000,4.000000,0.000000,,,,,,,,,,,,,,,,,31.000000,0.000000,0.519105,0.475464,-0.541565,0.459534,0.985472,0.001953,-0.044439,-35.147724,45.367508,31.396986
1732158556.396018,1732158556.398573,125.000000,0.000000,4292.179688,4280.000000,4316.794922,4302.051270,4282.436035,4286.410156,4335.897461,4406.538574,4312.307617,4287.051270,4474.743652,4509.230957,4332.051270,4407.051270,1573.000000,1.000000,20.000000,,,,0.000000,2.000000,2.000000,0.000000,4.000000,2.000000,2.000000,0.000000,0.000000,4.000000,4.000000,4.000000,4.000000,4.000000,4.000000,0.000000,,,,,,,,,,,,,,,,,,,,,,,,,,,,
1732158556.403826,1732158556.406581,126.000000,0.000000,4280.769043,4276.794922,4315.128418,4292.051270,4285.384766,4289.743652,4334.358887,4406.282227,4313.333496,4282.436035,4475.769043,4500.512695,4334.871582,4406.666504,1563.000000,1.000000,20.000000,,,,0.000000,2.000000,2.000000,0.000000,4.000000,2.000000,2.000000,0.000000,0.000000,4.000000,4.000000,4.000000,4.000000,4.000000,4.000000,0.000000,,,,,,,,,,,,,,,,,,,,,,,,,,,,
1732158556.411635,1732158556.414390,127.000000,0.000000,4279.871582,4276.538574,4315.641113,4292.179688,4299.871582,4291.153809,4335.384766,4403.461426,4313.717773,4281.538574,4473.717773,4497.436035,4335.000000,4400.512695,20.000000,1.000000,20.000000,,,,0.000000,2.000000,2.000000,0.000000,4.000000,2.000000,2.000000,0.000000,0.000000,4.000000,4.000000,4.000000,4.000000,4.000000,4.000000,0.000000,,,,,,,,,,,,,,,,,,,,,,,,,,,,
1732158556.419443,1732158556.422298,0.000000,0.000000,4285.256348,4278.846191,4314.615234,4299.358887,4295.897461,4290.128418,4335.769043,4403.333496,4311.282227,4282.051270,4469.230957,4498.333496,4332.179688,4396.666504,0.000000,1.000000,20.000000,,,,0.000000,2.000000,2.000000,0.000000,4.000000,2.000000,2.000000,0.000000,0.000000,4.000000,4.000000,4.000000,4.000000,4.000000,4.000000,0.000000,,,,,,,,,,,,,,,,,0.000000,0.000000,0.519159,0.475464,-0.541565,0.459473,0.985472,0.001953,-0.044439,-34.886322,45.264347,31.468225
1732158556.427251,1732158556.430106,1.000000,0.000000,4287.307617,4280.128418,4312.179688,4301.794922,4271.538574,4285.769043,4335.128418,4405.256348,4311.538574,4280.769043,4477.307617,4493.077148,4336.666504,4403.717773,1609.000000,1.000000,20.000000,,,,0.000000,2.000000,2.000000,0.000000,4.000000,2.000000,2.000000,0.000000,0.000000,4.000000,4.000000,4.000000,4.000000,4.000000,4.000000,0.000000,,,,,,,,,,,,,,,,,,,,,,,,,,,,
1732158556.435059,1732158556.437714,2.000000,0.000000,4291.794922,4280.769043,4315.384766,4305.384766,4264.871582,4281.410156,4336.666504,4402.820313,4315.384766,4290.000000,4490.641113,4488.717773,4343.461426,4411.666504,1359.000000,1.000000,20.000000,,,,0.000000,2.000000,2.000000,0.000000,4.000000,2.000000,2.000000,0.000000,0.000000,4.000000,4.000000,4.000000,4.000000,4.000000,4.000000,0.000000,,,,,,,,,,,,,,,,,,,,,,,,,,,,
1732158556.442867,1732158556.445523,3.000000,0.000000,4296.410156,4281.282227,4316.922852,4310.512695,4278.974121,4277.820313,4336.666504,4398.461426,4314.487305,4296.922852,4491.282227,4497.563965,4343.461426,4413.974121,1427.000000,1.000000,20.000000,,,,0.000000,2.000000,2.000000,0.000000,4.000000,2.000000,2.000000,0.000000,0.000000,4.000000,4.000000,4.000000,4.000000,4.000000,4.000000,0.000000,,,,,,,,,,,,,,,,,,,,,,,,,,,,
1732158556.450676,1732158556.453231,4.000000,0.000000,4293.333496,4280.641113,4313.333496,4307.948730,4281.410156,4279.230957,4333.846191,4401.538574,4309.358887,4288.974121,4483.974121,4503.846191,4340.000000,4413.333496,1431.000000,1.000000,20.000000,,,,0.000000,2.000000,2.000000,0.000000,4.000000,2.000000,2.000000,0.000000,0.000000,4.000000,4.000000,4.000000,4.000000,4.000000,4.000000,0.000000,,,,,,,,,,,,,,,,,1.000000,0.000000,0.519213,0.475464,-0.541565,0.459412,0.977170,-0.010255,-0.041021,-34.654591,45.119122,31.505930
1732158556.458484,1732158556.461039,5.000000,0.000000,4287.820313,4279.871582,4313.333496,4303.077148,4273.333496,4285.128418,4334.102539,4406.538574,4312.692383,4280.641113,4475.641113,4500.000000,4333.333496,4407.179688,1202.000000,1.000000,20.000000,,,,0.000000,2.000000,2.000000,0.000000,4.000000,2.000000,2.000000,0.000000,0.000000,4.000000,4.000000,4.000000,4.000000,4.000000,4.000000,0.000000,,,,,,,,,,,,,,,,,,,,,,,,,,,,
1732158556.466292,1732158556.469047,6.000000,0.000000,4283.333496,4279.102539,4315.769043,4301.410156,4287.051270,4285.000000,4336.410156,4405.128418,4312.179688,4279.615234,4469.743652,4493.333496,4326.794922,4401.922852,0.000000,1.000000,20.000000,,,,0.000000,2.000000,2.000000,0.000000,4.000000,2.000000,2.000000,0.000000,0.000000,4.000000,4.000000,4.000000,4.000000,4.000000,4.000000,0.000000,,,,,,,,,,,,,,,,,,,,,,,,,,,,
1732158556.474100,1732158556.476855,7.000000,0.000000,4280.897461,4277.179688,4315.769043,4297.051270,4300.897461,4282.307617,4335.769043,4405.769043,4301.794922,4280.897461,4473.077148,4490.769043,4329.871582,4406.538574,0.000000,1.000000,20.000000,,,,0.000000,2.000000,2.000000,0.000000,4.000000,2.000000,2.000000,0.000000,0.000000,4.000000,4.000000,4.000000,4.000000,4.000000,4.000000,0.000000,,,,,,,,,,,,,,,,,,,,,,,,,,,,
1732158556.481909,1732158556.484763,8.000000,0.000000,4282.563965,4276.666504,4315.256348,4296.282227,4279.358887,4284.487305,4334.358887,4406.538574,4301.025879,4279.743652,4476.282227,4496.538574,4335.641113,4413.333496,1536.000000,1.000000,20.000000,,,,0.000000,2.000000,2.000000,0.000000,4.000000,2.000000,2.000000,0.000000,0.000000,4.000000,4.000000,4.000000,4.000000,4.000000,4.000000,0.000000,,,,,,,,,,,,,,,,,2.000000,0.000000,0.519267,0.475159,-0.541626,0.459595,0.991820,-0.009767,-0.035649,-34.785217,44.974823,31.551470
1732158556.489717,1732158556.492572,9.000000,0.000000,4283.717773,4278.589844,4312.820313,4301.666504,4262.051270,4288.846191,4334.743652,4402.436035,4308.333496,4274.487305,4473.717773,4496.922852,4332.436035,4413.461426,1700.000000,1.000000,20.000000,,,,0.000000,2.000000,2.000000,0.000000,4.000000,2.000000,2.000000,0.000000,0.000000,4.000000,4.000000,4.000000,4.000000,4.000000,4.000000,0.000000,,,,,,,,,,,,,,,,,,,,,,,,,,,,
1732158556.497525,1732158556.500580,10.000000,0.000000,4284.358887,4281.153809,4312.692383,4300.256348,4276.666504,4287.692383,4335.000000,4400.512695,4311.410156,4278.205078,4477.179688,4489.743652,4332.692383,4412.307617,1556.000000,1.000000,20.000000,,,,0.000000,2.000000,2.000000,0.000000,4.000000,2.000000,2.000000,0.000000,0.000000,4.000000,4.000000,4.000000,4.000000,4.000000,4.000000,0.000000,,,,,,,,,,,,,,,,,,,,,,,,,,,,
1732158556.505334,1732158556.508388,11.000000,0.000000,4290.384766,4282.692383,4316.794922,4297.948730,4285.769043,4282.436035,4334.743652,4402.692383,4308.846191,4285.641113,4478.589844,4489.871582,4338.461426,4414.230957,1556.000000,1.000000,20.000000,,,,0.000000,2.000000,2.000000,0.000000,4.000000,2.000000,2.000000,0.000000,0.000000,4.000000,4.000000,4.000000,4.000000,4.000000,4.000000,0.000000,,,,,,,,,,,,,,,,,,,,,,,,,,,,
1732158556.513142,1732158556.516296,12.000000,0.000000,4291.922852,4281.282227,4315.512695,4300.256348,4277.948730,4280.897461,4334.743652,4406.282227,4305.000000,4281.922852,4473.589844,4494.230957,4335.384766,4414.871582,1701.000000,1.000000,20.000000,,,,0.000000,2.000000,2.000000,0.000000,4.000000,2.000000,2.000000,0.000000,0.000000,4.000000,4.000000,4.000000,4.000000,4.000000,4.000000,0.000000,,,,,,,,,,,,,,,,,3.000000,0.000000,0.519186,0.475098,-0.541809,0.459534,0.991332,-0.002930,-0.036137,-34.719360,45.031273,31.606691
1732158556.520950,1732158556.524104,13.000000,0.000000,4284.358887,4278.717773,4312.179688,4298.205078,4274.230957,4284.358887,4334.871582,4407.179688,4306.794922,4285.128418,4475.128418,4494.358887,4331.666504,4411.282227,1571.000000,1.000000,20.000000,,,,0.000000,2.000000,2.000000,0.000000,4.000000,2.000000,2.000000,0.000000,0.000000,4.000000,4.000000,4.000000,4.000000,4.000000,4.000000,0.000000,,,,,,,,,,,,,,,,,,,,,,,,,,,,
1732158556.528758,1732158556.532112,14.000000,0.000000,4280.769043,4279.487305,4313.974121,4293.717773,4286.538574,4285.000000,4334.871582,4403.974121,4311.282227,4298.461426,4479.230957,4488.461426,4335.512695,4407.051270,1556.000000,1.000000,20.000000,,,,0.000000,2.000000,2.000000,0.000000,4.000000,2.000000,2.000000,0.000000,0.000000,4.000000,4.000000,4.000000,4.000000,4.000000,4.000000,0.000000,1.000000,0.000000,2.000000,2.000000,0.000000,4.000000,2.000000,2.000000,0.000000,0.000000,4.000000,4.000000,4.000000,4.000000,4.000000,4.000000,,,,,,,,,,,,
1732158556.536567,1732158556.539920,15.000000,0.000000,4285.512695,4282.436035,4314.743652,4295.512695,4301.922852,4281.410156,4334.871582,4402.179688,4306.282227,4295.256348,4473.461426,4485.897461,4336.153809,4405.769043,1556.000000,1.000000,20.000000,,,,0.000000,2.000000,2.000000,0.000000,4.000000,2.000000,2.000000,0.000000,0.000000,4.000000,4.000000,4.000000,4.000000,4.000000,4.000000,0.000000,,,,,,,,,,,,,,,,,,,,,,,,,,,,
1732158556.544375,1732158556.547828,16.000000,0.000000,4293.717773,4282.307617,4315.000000,4302.563965,4292.692383,4283.333496,4334.871582,4404.358887,4297.563965,4286.922852,4470.000000,4495.641113,4332.820313,4410.000000,0.000000,1.000000,20.000000,,,,0.000000,2.000000,2.000000,0.000000,4.000000,2.000000,2.000000,0.000000,0.000000,4.000000,4.000000,4.000000,4.000000,4.000000,4.000000,0.000000,,,,,,,,,,,,,,,,,4.000000,0.000000,0.519194,0.475159,-0.541748,0.459534,0.962031,-0.009278,-0.042974,-34.677681,45.088665,31.523087
1732158556.552183,1732158556.555637,17.000000,0.000000,4295.000000,4281.666504,4315.384766,4303.717773,4272.692383,4285.769043,4334.871582,4405.000000,4298.589844,4293.205078,4475.384766,4502.051270,4334.358887,4413.077148,0.000000,1.000000,20.000000,,,,0.000000,2.000000,2.000000,0.000000,4.000000,2.000000,2.000000,0.000000,0.000000,4.000000,4.000000,4.000000,4.000000,4.000000,4.000000,0.000000,,,,,,,,,,,,,,,,,,,,,,,,,,,,
1732158556.559991,1732158556.563245,18.000000,0.000000,4286.410156,4282.692383,4313.333496,4298.589844,4276.794922,4281.282227,4334.871582,4404.487305,4307.948730,4299.487305,4477.179688,4491.153809,4336.025879,4410.000000,0.000000,1.000000,20.000000,,,,0.000000,2.000000,2.000000,0.000000,4.000000,2.000000,2.000000,0.000000,0.000000,4.000000,4.000000,4.000000,4.000000,4.000000,4.000000,0.000000,,,,,,,,,,,,,,,,,,,,,,,,,,,,
1732158556.567799,1732158556.571053,19.000000,0.000000,4278.846191,4280.641113,4313.077148,4294.871582,4286.025879,4282.692383,4334.743652,4402.307617,4315.000000,4296.922852,4473.333496,4486.025879,4332.948730,4405.384766,0.000000,1.000000,20.000000,,,,0.000000,2.000000,2.000000,0.000000,4.000000,2.000000,2.000000,0.000000,0.000000,4.000000,4.000000,4.000000,4.000000,4.000000,4.000000,0.000000,,,,,,,,,,,,,,,,,,,,,,,,,,,,
1732158556.575608,1732158556.578762,20.000000,0.000000,4278.974121,4277.436035,4315.000000,4294.871582,4283.205078,4291.282227,4334.871582,4400.128418,4306.538574,4294.743652,4471.153809,4491.025879,4332.179688,4401.922852,0.000000,1.000000,20.000000,,,,0.000000,2.000000,2.000000,0.000000,4.000000,2.000000,2.000000,0.000000,0.000000,4.000000,4.000000,4.000000,4.000000,4.000000,4.000000,0.000000,,,,,,,,,,,,,,,,,5.000000,0.000000,0.519053,0.475403,-0.541565,0.459656,0.960566,0.001465,-0.042486,-34.652256,45.248486,31.605366
1732158556.583416,1732158556.586570,21.000000,0.000000,4280.897461,4278.974121,4315.128418,4294.102539,4288.333496,4294.102539,4335.000000,4404.615234,4295.000000,4292.563965,4472.307617,4487.307617,4333.589844,4401.794922,0.000000,1.000000,20.000000,,,,0.000000,2.000000,2.000000,0.000000,4.000000,2.000000,2.000000,0.000000,0.000000,4.000000,4.000000,4.000000,4.000000,4.000000,4.000000,0.000000,,,,,,,,,,,,,,,,,,,,,,,,,,,,
1732158556.591224,1732158556.594178,22.000000,0.000000,4282.179688,4281.282227,4314.743652,4294.615234,4297.307617,4293.974121,4334.487305,4407.051270,4306.282227,4291.922852,4474.230957,4491.153809,4334.615234,4408.846191,0.000000,1.000000,20.000000,,,,0.000000,2.000000,2.000000,0.000000,4.000000,2.000000,2.000000,0.000000,0.000000,4.000000,4.000000,4.000000,4.000000,4.000000,4.000000,0.000000,,,,,,,,,,,,,,,,,,,,,,,,,,,,
1732158556.599033,1732158556.601986,23.000000,0.000000,4281.538574,4279.230957,4315.512695,4296.153809,4293.717773,4291.922852,4335.000000,4404.230957,4320.897461,4293.717773,4473.846191,4504.615234,4334.871582,4413.077148,0.000000,1.000000,20.000000,,,,0.000000,2.000000,2.000000,0.000000,4.000000,2.000000,2.000000,0.000000,0.000000,4.000000,4.000000,4.000000,4.000000,4.000000,4.000000,0.000000,,,,,,,,,,,,,,,,,,,,,,,,,,,,
1732158556.606841,1732158556.609695,24.000000,0.000000,4277.692383,4277.820313,4315.000000,4294.871582,4291.410156,4286.410156,4335.641113,4402.051270,4315.897461,4295.897461,4473.205078,4499.102539,4334.230957,4403.717773,0.000000,1.000000,20.000000,,,,0.000000,2.000000,2.000000,0.000000,4.000000,2.000000,2.000000,0.000000,0.000000,4.000000,4.000000,4.000000,4.000000,4.000000,4.000000,0.000000,,,,,,,,,,,,,,,,,6.000000,0.000000,0.519190,0.475281,-0.541748,0.459412,0.969845,-0.002930,-0.040044,-34.884995,45.102940,31.830347
1732158556.614649,1732158556.617503,25.000000,0.000000,4277.948730,4279.615234,4315.641113,4296.282227,4303.974121,4283.717773,4335.128418,4402.563965,4309.102539,4296.666504,4472.948730,4490.897461,4334.743652,4400.256348,0.000000,1.000000,20.000000,,,,0.000000,2.000000,2.000000,0.000000,4.000000,2.000000,2.000000,0.000000,0.000000,4.000000,4.000000,4.000000,4.000000,4.000000,4.000000,0.000000,,,,,,,,,,,,,,,,,,,,,,,,,,,,
1732158556.622457,1732158556.625111,26.000000,0.000000,4280.769043,4280.384766,4314.230957,4301.282227,4307.820313,4283.974121,4334.871582,4404.358887,4310.769043,4294.102539,4476.282227,4495.897461,4335.769043,4411.794922,0.000000,1.000000,20.000000,,,,0.000000,2.000000,2.000000,0.000000,4.000000,2.000000,2.000000,0.000000,0.000000,4.000000,4.000000,4.000000,4.000000,4.000000,4.000000,0.000000,,,,,,,,,,,,,,,,,,,,,,,,,,,,
1732158556.630266,1732158556.632920,27.000000,0.000000,4282.436035,4280.641113,4313.077148,4307.563965,4284.743652,4282.307617,4335.000000,4405.000000,4312.051270,4293.077148,4483.205078,4497.563965,4335.512695,4417.436035,0.000000,1.000000,20.000000,,,,0.000000,2.000000,2.000000,0.000000,4.000000,2.000000,2.000000,0.000000,0.000000,4.000000,4.000000,4.000000,4.000000,4.000000,4.000000,0.000000,,,,,,,,,,,,,,,,,,,,,,,,,,,,
1732158556.638074,1732158556.640628,28.000000,0.000000,4286.282227,4282.563965,4314.615234,4310.641113,4271.538574,4283.589844,4335.000000,4403.589844,4313.717773,4295.128418,4482.307617,4500.512695,4335.384766,4413.717773,0.000000,1.000000,20.000000,,,,0.000000,2.000000,2.000000,0.000000,4.000000,2.000000,2.000000,0.000000,0.000000,4.000000,4.000000,4.000000,4.000000,4.000000,4.000000,0.000000,,,,,,,,,,,,,,,,,7.000000,0.000000,0.519402,0.475098,-0.541809,0.459290,0.977170,-0.014162,-0.031742,-35.015179,45.293381,31.715914
1732158556.645882,1732158556.648436,29.000000,0.000000,4289.102539,4281.538574,4317.563965,4305.256348,4283.461426,4289.358887,4335.384766,4403.589844,4313.846191,4292.179688,4474.743652,4507.820313,4333.846191,4410.641113,0.000000,1.000000,20.000000,,,,0.000000,2.000000,2.000000,0.000000,4.000000,2.000000,2.000000,0.000000,0.000000,4.000000,4.000000,4.000000,4.000000,4.000000,4.000000,0.000000,,,,,,,,,,,,,,,,,,,,,,,,,,,,
1732158556.653690,1732158556.656444,30.000000,0.000000,4287.436035,4279.102539,4318.589844,4300.256348,4292.692383,4293.974121,4335.641113,4405.897461,4311.666504,4289.615234,4474.230957,4501.538574,4335.128418,4411.025879,0.000000,1.000000,20.000000,,,,0.000000,2.000000,2.000000,0.000000,4.000000,2.000000,2.000000,0.000000,0.000000,4.000000,4.000000,4.000000,4.000000,4.000000,4.000000,0.000000,,,,,,,,,,,,,,,,,,,,,,,,,,,,
1732158556.661499,1732158556.664252,31.000000,0.000000,4286.410156,4279.102539,4316.025879,4302.436035,4293.589844,4292.692383,4335.512695,4405.000000,4310.641113,4293.205078,4478.717773,4495.897461,4339.230957,4411.538574,0.000000,1.000000,20.000000,,,,0.000000,2.000000,2.000000,0.000000,4.000000,2.000000,2.000000,0.000000,0.000000,4.000000,4.000000,4.000000,4.000000,4.000000,4.000000,0.000000,,,,,,,,,,,,,,,,,,,,,,,,,,,,
1732158556.669307,1732158556.671961,32.000000,0.000000,4288.846191,4278.846191,4314.615234,4305.000000,4288.333496,4283.717773,4336.410156,4404.487305,4310.769043,4297.179688,4477.307617,4500.128418,4338.589844,4410.641113,0.000000,1.000000,20.000000,,,,0.000000,2.000000,2.000000,0.000000,4.000000,2.000000,2.000000,0.000000,0.000000,4.000000,4.000000,4.000000,4.000000,4.000000,4.000000,0.000000,,,,,,,,,,,,,,,,,8.000000,0.000000,0.519136,0.475281,-0.541748,0.459473,0.976682,-0.003418,-0.046881,-35.075626,45.459305,31.769890
1732158556.677115,1732158556.679769,33.000000,0.000000,4292.179688,4279.230957,4316.025879,4305.512695,4285.128418,4279.871582,4337.051270,4405.256348,4312.692383,4293.589844,4477.179688,4497.436035,4335.256348,4410.000000,0.000000,1.000000,20.000000,,,,0.000000,2.000000,2.000000,0.000000,4.000000,2.000000,2.000000,0.000000,0.000000,4.000000,4.000000,4.000000,4.000000,4.000000,4.000000,0.000000,,,,,,,,,,,,,,,,,,,,,,,,,,,,
1732158556.684923,1732158556.687377,34.000000,0.000000,4291.922852,4281.794922,4314.743652,4308.205078,4303.333496,4283.846191,4335.128418,4405.000000,4313.589844,4289.358887,4476.794922,4500.641113,4335.512695,4411.282227,0.000000,1.000000,20.000000,,,,0.000000,2.000000,2.000000,0.000000,4.000000,2.000000,2.000000,0.000000,0.000000,4.000000,4.000000,4.000000,4.000000,4.000000,4.000000,0.000000,,,,,,,,,,,,,,,,,,,,,,,,,,,,
1732158556.692732,1732158556.695185,35.000000,0.000000,4286.410156,4280.256348,4311.922852,4308.846191,4309.487305,4287.820313,4334.358887,4403.974121,4307.436035,4293.205078,4476.538574,4509.743652,4335.128418,4413.461426,0.000000,1.000000,20.000000,,,,0.000000,2.000000,2.000000,0.000000,4.000000,2.000000,2.000000,0.000000,0.000000,4.000000,4.000000,4.000000,4.000000,4.000000,4.000000,0.000000,,,,,,,,,,,,,,,,,,,,,,,,,,,,
1732158556.700540,1732158556.702894,36.000000,0.000000,4280.769043,4276.922852,4313.461426,4305.769043,4284.743652,4293.205078,4335.384766,4401.794922,4304.102539,4289.615234,4482.820313,4502.436035,4334.615234,4410.769043,0.000000,1.000000,20.000000,,,,0.000000,2.000000,2.000000,0.000000,4.000000,2.000000,2.000000,0.000000,0.000000,4.000000,4.000000,4.000000,4.000000,4.000000,4.000000,0.000000,,,,,,,,,,,,,,,,,9.000000,0.000000,0.519003,0.475159,-0.541931,0.459534,0.981565,-0.006348,-0.050787,-35.132923,45.590370,31.671944
1732158556.708348,1732158556.710702,37.000000,0.000000,4280.128418,4277.179688,4314.615234,4301.410156,4274.615234,4294.743652,4335.384766,4403.846191,4310.641113,4281.410156,4482.563965,4491.666504,4338.461426,4404.230957,0.000000,1.000000,20.000000,,,,0.000000,2.000000,2.000000,0.000000,4.000000,2.000000,2.000000,0.000000,0.000000,4.000000,4.000000,4.000000,4.000000,4.000000,4.000000,0.000000,,,,,,,,,,,,,,,,,,,,,,,,,,,,
1732158556.716156,1732158556.718710,38.000000,0.000000,4282.179688,4279.102539,4311.922852,4298.974121,4283.589844,4292.179688,4335.384766,4407.436035,4315.128418,4287.820313,4476.538574,4492.948730,4342.436035,4405.000000,0.000000,1.000000,20.000000,,,,0.000000,2.000000,2.000000,0.000000,4.000000,2.000000,2.000000,0.000000,0.000000,4.000000,4.000000,4.000000,4.000000,4.000000,4.000000,0.000000,,,,,,,,,,,,,,,,,,,,,,,,,,,,
1732158556.723965,1732158556.726518,39.000000,0.000000,4282.948730,4278.974121,4312.307617,4299.102539,4287.436035,4290.512695,4336.666504,4405.128418,4312.948730,4298.077148,4477.436035,4493.717773,4341.410156,4411.922852,0.000000,1.000000,20.000000,,,,0.000000,2.000000,2.000000,0.000000,4.000000,2.000000,2.000000,0.000000,0.000000,4.000000,4.000000,4.000000,4.000000,4.000000,4.000000,0.000000,,,,,,,,,,,,,,,,,,,,,,,,,,,,
1732158556.731773,1732158556.734227,40.000000,0.000000,4281.666504,4276.282227,4314.358887,4298.974121,4298.974121,4288.077148,4335.769043,4402.179688,4313.461426,4294.871582,4478.589844,4498.205078,4336.410156,4412.051270,0.000000,1.000000,20.000000,,,,0.000000,2.000000,2.000000,0.000000,4.000000,2.000000,2.000000,0.000000,0.000000,4.000000,4.000000,4.000000,4.000000,4.000000,4.000000,0.000000,,,,,,,,,,,,,,,,,10.000000,0.000000,0.518956,0.475220,-0.541870,0.459595,0.989379,-0.014650,-0.031254,-35.194336,45.703201,31.674274
1732158556.739581,1732158556.742035,41.000000,0.000000,4281.538574,4275.512695,4313.077148,4300.512695,4304.615234,4289.487305,4334.102539,4405.384766,4314.871582,4290.641113,4472.692383,4508.333496,4334.358887,4410.384766,0.000000,1.000000,20.000000,,,,0.000000,2.000000,2.000000,0.000000,4.000000,2.000000,2.000000,0.000000,0.000000,4.000000,4.000000,4.000000,4.000000,4.000000,4.000000,0.000000,,,,,,,,,,,,,,,,,,,,,,,,,,,,
1732158556.747389,1732158556.749643,42.000000,0.000000,4282.179688,4278.461426,4312.436035,4304.487305,4283.461426,4290.641113,4335.512695,4406.282227,4311.538574,4293.589844,4475.897461,4506.794922,4338.077148,4413.077148,0.000000,1.000000,20.000000,,,,0.000000,2.000000,2.000000,0.000000,4.000000,2.000000,2.000000,0.000000,0.000000,4.000000,4.000000,4.000000,4.000000,4.000000,4.000000,0.000000,,,,,,,,,,,,,,,,,,,,,,,,,,,,
1732158556.755198,1732158556.757451,43.000000,0.000000,4282.179688,4279.487305,4313.077148,4308.333496,4272.051270,4284.102539,4335.641113,4403.717773,4309.230957,4293.717773,4485.641113,4501.153809,4336.666504,4406.794922,0.000000,1.000000,20.000000,,,,0.000000,2.000000,2.000000,0.000000,4.000000,2.000000,2.000000,0.000000,0.000000,4.000000,4.000000,4.000000,4.000000,4.000000,4.000000,0.000000,,,,,,,,,,,,,,,,,,,,,,,,,,,,
1732158556.763006,1732158556.765359,44.000000,0.000000,4281.282227,4277.692383,4313.717773,4307.563965,4281.794922,4279.871582,4333.205078,4404.230957,4312.563965,4296.666504,4482.051270,4503.461426,4333.717773,4399.487305,0.000000,1.000000,20.000000,,,,0.000000,2.000000,2.000000,0.000000,4.000000,2.000000,2.000000,0.000000,0.000000,4.000000,4.000000,4.000000,4.000000,4.000000,4.000000,0.000000,,,,,,,,,,,,,,,,,11.000000,0.000000,0.518744,0.475403,-0.541809,0.459717,0.984007,-0.002442,-0.036626,-35.442413,45.664593,31.292830
1732158556.770814,1732158556.773168,45.000000,0.000000,4281.410156,4278.846191,4311.538574,4303.589844,4285.128418,4281.282227,4333.717773,4403.461426,4315.128418,4294.871582,4474.102539,4501.153809,4337.307617,4406.025879,0.000000,1.000000,20.000000,,,,0.000000,2.000000,2.000000,0.000000,4.000000,2.000000,2.000000,0.000000,0.000000,4.000000,4.000000,4.000000,4.000000,4.000000,4.000000,0.000000,,,,,,,,,,,,,,,,,,,,,,,,,,,,
1732158556.778622,1732158556.780776,46.000000,0.000000,4281.666504,4280.384766,4311.794922,4303.461426,4280.769043,4281.410156,4335.641113,4403.077148,4310.128418,4287.692383,4476.666504,4497.307617,4340.000000,4411.025879,0.000000,1.000000,20.000000,,,,0.000000,2.000000,2.000000,0.000000,4.000000,2.000000,2.000000,0.000000,0.000000,4.000000,4.000000,4.000000,4.000000,4.000000,4.000000,0.000000,,,,,,,,,,,,,,,,,,,,,,,,,,,,
1732158556.786431,1732158556.788584,47.000000,0.000000,4281.666504,4278.846191,4314.871582,4306.794922,4281.666504,4287.692383,4335.384766,4406.922852,4305.897461,4286.282227,4482.563965,4499.487305,4337.820313,4411.666504,0.000000,1.000000,20.000000,,,,0.000000,2.000000,2.000000,0.000000,4.000000,2.000000,2.000000,0.000000,0.000000,4.000000,4.000000,4.000000,4.000000,4.000000,4.000000,0.000000,,,,,,,,,,,,,,,,,,,,,,,,,,,,
1732158556.794239,1732158556.796492,48.000000,0.000000,4281.153809,4275.384766,4314.230957,4302.820313,4296.794922,4289.743652,4334.871582,4407.051270,4309.615234,4283.974121,4475.897461,4501.922852,4332.436035,4411.282227,0.000000,1.000000,20.000000,,,,0.000000,2.000000,2.000000,0.000000,4.000000,2.000000,2.000000,0.000000,0.000000,4.000000,4.000000,4.000000,4.000000,4.000000,4.000000,0.000000,,,,,,,,,,,,,,,,,12.000000,0.000000,0.518559,0.475647,-0.541565,0.459961,0.988890,0.000000,-0.051276,-35.316689,45.633320,31.325525
1732158556.802047,1732158556.804301,49.000000,0.000000,4281.153809,4274.230957,4311.538574,4296.922852,4304.487305,4282.179688,4335.000000,4403.717773,4313.461426,4284.102539,4467.948730,4500.000000,4328.333496,4406.282227,0.000000,1.000000,20.000000,,,,0.000000,2.000000,2.000000,0.000000,4.000000,2.000000,2.000000,0.000000,0.000000,4.000000,4.000000,4.000000,4.000000,4.000000,4.000000,0.000000,,,,,,,,,,,,,,,,,,,,,,,,,,,,
1732158556.809855,1732158556.812309,50.000000,0.000000,4282.307617,4276.666504,4311.666504,4302.307617,4287.563965,4288.461426,4335.000000,4404.871582,4314.487305,4287.563965,4474.871582,4496.922852,4331.153809,4405.512695,0.000000,1.000000,20.000000,,,,0.000000,2.000000,2.000000,0.000000,4.000000,2.000000,2.000000,0.000000,0.000000,4.000000,4.000000,4.000000,4.000000,4.000000,4.000000,0.000000,,,,,,,,,,,,,,,,,,,,,,,,,,,,
1732158556.817664,1732158556.820117,51.000000,0.000000,4282.051270,4277.307617,4312.179688,4308.205078,4273.846191,4291.538574,4335.128418,4405.897461,4312.307617,4280.641113,4480.512695,4491.410156,4335.512695,4409.615234,0.000000,1.000000,20.000000,,,,0.000000,2.000000,2.000000,0.000000,4.000000,2.000000,2.000000,0.000000,0.000000,4.000000,4.000000,4.000000,4.000000,4.000000,4.000000,0.000000,,,,,,,,,,,,,,,,,,,,,,,,,,,,
1732158556.825472,1732158556.828025,52.000000,0.000000,4281.666504,4278.461426,4310.641113,4308.589844,4277.051270,4282.436035,4335.256348,4402.692383,4311.922852,4277.436035,4475.512695,4488.974121,4335.512695,4409.358887,0.000000,1.000000,20.000000,,,,0.000000,2.000000,2.000000,0.000000,4.000000,2.000000,2.000000,0.000000,0.000000,4.000000,4.000000,4.000000,4.000000,4.000000,4.000000,0.000000,,,,,,,,,,,,,,,,,13.000000,0.000000,0.518253,0.475952,-0.541382,0.460205,0.982053,-0.005372,-0.039556,-35.198185,45.291321,31.452009
1732158556.833280,1732158556.835833,53.000000,0.000000,4281.666504,4277.051270,4313.461426,4305.000000,4287.948730,4284.230957,4334.743652,4402.948730,4318.333496,4289.230957,4473.974121,4499.871582,4334.487305,4409.358887,0.000000,1.000000,20.000000,,,,0.000000,2.000000,2.000000,0.000000,4.000000,2.000000,2.000000,0.000000,0.000000,4.000000,4.000000,4.000000,4.000000,4.000000,4.000000,0.000000,,,,,,,,,,,,,,,,,,,,,,,,,,,,
1732158556.841088,1732158556.843442,54.000000,0.000000,4279.487305,4266.922852,4314.358887,4297.820313,4298.974121,4290.128418,4334.871582,4405.384766,4320.128418,4291.410156,4478.461426,4508.461426,4333.974121,4413.717773,0.000000,1.000000,20.000000,,,,0.000000,2.000000,2.000000,0.000000,4.000000,2.000000,2.000000,0.000000,0.000000,4.000000,4.000000,4.000000,4.000000,4.000000,4.000000,0.000000,,,,,,,,,,,,,,,,,,,,,,,,,,,,
1732158556.848897,1732158556.851250,55.000000,0.000000,4278.205078,4264.358887,4309.871582,4296.025879,4290.512695,4290.000000,4335.897461,4403.717773,4311.153809,4283.974121,4479.487305,4507.820313,4333.077148,4415.769043,0.000000,1.000000,20.000000,,,,0.000000,2.000000,2.000000,0.000000,4.000000,2.000000,2.000000,0.000000,0.000000,4.000000,4.000000,4.000000,4.000000,4.000000,4.000000,0.000000,,,,,,,,,,,,,,,,,,,,,,,,,,,,
1732158556.856705,1732158556.859158,56.000000,0.000000,4279.615234,4272.692383,4310.384766,4304.358887,4270.128418,4293.077148,4336.025879,4403.333496,4307.307617,4285.384766,4478.333496,4504.230957,4334.871582,4415.512695,0.000000,1.000000,20.000000,,,,0.000000,2.000000,2.000000,0.000000,4.000000,2.000000,2.000000,0.000000,0.000000,4.000000,4.000000,4.000000,4.000000,4.000000,4.000000,0.000000,,,,,,,,,,,,,,,,,14.000000,0.000000,0.518300,0.475891,-0.541443,0.460144,0.971310,-0.003418,-0.052252,-35.355530,45.310970,31.446127
1732158556.864513,1732158556.866966,57.000000,0.000000,4280.769043,4274.102539,4314.743652,4307.948730,4272.563965,4296.410156,4335.512695,4404.871582,4314.487305,4287.436035,4476.282227,4503.974121,4336.922852,4415.512695,0.000000,1.000000,20.000000,,,,0.000000,2.000000,2.000000,0.000000,4.000000,2.000000,2.000000,0.000000,0.000000,4.000000,4.000000,4.000000,4.000000,4.000000,4.000000,0.000000,,,,,,,,,,,,,,,,,,,,,,,,,,,,
1732158556.872321,1732158556.874974,58.000000,0.000000,4281.282227,4271.794922,4313.077148,4304.871582,4286.025879,4293.205078,4335.641113,4404.102539,4315.256348,4283.589844,4472.820313,4507.436035,4334.230957,4414.230957,0.000000,1.000000,20.000000,,,,0.000000,2.000000,2.000000,0.000000,4.000000,2.000000,2.000000,0.000000,0.000000,4.000000,4.000000,4.000000,4.000000,4.000000,4.000000,0.000000,,,,,,,,,,,,,,,,,,,,,,,,,,,,
1732158556.880130,1732158556.882782,59.000000,0.000000,4280.384766,4271.666504,4311.282227,4302.692383,4283.077148,4288.077148,4335.641113,4406.538574,4307.179688,4282.563965,4479.487305,4508.589844,4333.077148,4414.358887,0.000000,1.000000,20.000000,,,,0.000000,2.000000,2.000000,0.000000,4.000000,2.000000,2.000000,0.000000,0.000000,4.000000,4.000000,4.000000,4.000000,4.000000,4.000000,0.000000,,,,,,,,,,,,,,,,,,,,,,,,,,,,
1732158556.887938,1732158556.890690,60.000000,0.000000,4279.743652,4267.820313,4313.717773,4299.230957,4279.102539,4287.179688,4334.871582,4409.743652,4307.307617,4289.871582,4489.102539,4507.436035,4339.102539,4415.000000,0.000000,1.000000,20.000000,,,,0.000000,2.000000,2.000000,0.000000,4.000000,2.000000,2.000000,0.000000,0.000000,4.000000,4.000000,4.000000,4.000000,4.000000,4.000000,0.000000,,,,,,,,,,,,,,,,,15.000000,0.000000,0.518422,0.475647,-0.541748,0.459900,0.976682,-0.015627,-0.040044,-35.572979,45.568554,31.424696
1732158556.895746,1732158556.898499,61.000000,0.000000,4279.230957,4264.487305,4313.205078,4296.666504,4290.256348,4286.153809,4334.615234,4406.538574,4313.974121,4290.512695,4484.743652,4507.820313,4341.282227,4414.230957,0.000000,1.000000,20.000000,,,,0.000000,2.000000,2.000000,0.000000,4.000000,2.000000,2.000000,0.000000,0.000000,4.000000,4.000000,4.000000,4.000000,4.000000,4.000000,0.000000,,,,,,,,,,,,,,,,,,,,,,,,,,,,
1732158556.903554,1732158556.906507,62.000000,0.000000,4275.641113,4264.615234,4310.897461,4295.256348,4303.077148,4285.897461,4335.384766,4403.077148,4313.333496,4280.897461,4475.769043,4507.179688,4335.000000,4409.615234,0.000000,1.000000,20.000000,,,,0.000000,2.000000,2.000000,0.000000,4.000000,2.000000,2.000000,0.000000,0.000000,4.000000,4.000000,4.000000,4.000000,4.000000,4.000000,0.000000,,,,,,,,,,,,,,,,,,,,,,,,,,,,
1732158556.911363,1732158556.914315,63.000000,0.000000,4274.102539,4265.512695,4312.692383,4294.358887,4290.769043,4287.436035,4335.128418,4404.871582,4308.717773,4282.692383,4475.897461,4506.025879,4330.641113,4406.666504,0.000000,1.000000,20.000000,,,,0.000000,2.000000,2.000000,0.000000,4.000000,2.000000,2.000000,0.000000,0.000000,4.000000,4.000000,4.000000,4.000000,4.000000,4.000000,0.000000,,,,,,,,,,,,,,,,,,,,,,,,,,,,
1732158556.919171,1732158556.922223,64.000000,0.000000,4277.307617,4266.153809,4313.974121,4294.871582,4263.461426,4286.922852,4334.871582,4405.641113,4310.128418,4291.538574,4477.948730,4511.538574,4334.871582,4412.820313,0.000000,1.000000,20.000000,,,,0.000000,2.000000,2.000000,0.000000,4.000000,2.000000,2.000000,0.000000,0.000000,4.000000,4.000000,4.000000,4.000000,4.000000,4.000000,0.000000,,,,,,,,,,,,,,,,,16.000000,0.000000,0.518508,0.475403,-0.541931,0.459839,0.975217,-0.002930,-0.047369,-35.465778,45.495529,31.517338
1732158556.926979,1732158556.930031,65.000000,0.000000,4278.333496,4265.512695,4311.538574,4294.871582,4263.717773,4286.538574,4335.897461,4403.333496,4313.205078,4284.487305,4478.205078,4514.102539,4340.512695,4419.615234,1609.000000,1.000000,20.000000,,,,0.000000,2.000000,2.000000,0.000000,4.000000,2.000000,2.000000,0.000000,0.000000,4.000000,4.000000,4.000000,4.000000,4.000000,4.000000,0.000000,,,,,,,,,,,,,,,,,,,,,,,,,,,,
1732158556.934787,1732158556.937839,66.000000,0.000000,4278.461426,4268.333496,4311.282227,4293.974121,4278.974121,4289.358887,4336.538574,4403.974121,4312.563965,4276.538574,4478.461426,4507.820313,4337.948730,4418.461426,1359.000000,1.000000,20.000000,,,,0.000000,2.000000,2.000000,0.000000,4.000000,2.000000,2.000000,0.000000,0.000000,4.000000,4.000000,4.000000,4.000000,4.000000,4.000000,0.000000,,,,,,,,,,,,,,,,,,,,,,,,,,,,
1732158556.942596,1732158556.945648,67.000000,0.000000,4276.153809,4270.256348,4314.230957,4294.230957,4280.897461,4290.641113,4336.153809,4405.512695,4309.871582,4283.461426,4475.512695,4506.282227,4331.282227,4415.384766,1427.000000,1.000000,20.000000,,,,0.000000,2.000000,2.000000,0.000000,4.000000,2.000000,2.000000,0.000000,0.000000,4.000000,4.000000,4.000000,4.000000,4.000000,4.000000,0.000000,,,,,,,,,,,,,,,,,,,,,,,,,,,,
1732158556.950404,1732158556.953356,68.000000,0.000000,4267.051270,4266.794922,4313.974121,4294.358887,4276.410156,4287.307617,4335.256348,4404.615234,4309.743652,4287.692383,4476.153809,4504.743652,4336.922852,4415.384766,1429.000000,1.000000,20.000000,,,,0.000000,2.000000,2.000000,0.000000,4.000000,2.000000,2.000000,0.000000,0.000000,4.000000,4.000000,4.000000,4.000000,4.000000,4.000000,0.000000,,,,,,,,,,,,,,,,,17.000000,0.000000,0.518352,0.475525,-0.541870,0.459961,0.963497,0.000977,-0.039067,-35.378948,45.436378,31.542377
1732158556.958212,1732158556.961164,69.000000,0.000000,4263.461426,4268.589844,4311.153809,4294.871582,4276.794922,4285.512695,4335.128418,4404.743652,4311.666504,4283.846191,4481.410156,4496.538574,4346.410156,4413.717773,1195.000000,1.000000,20.000000,,,,0.000000,2.000000,2.000000,0.000000,4.000000,2.000000,2.000000,0.000000,0.000000,4.000000,4.000000,4.000000,4.000000,4.000000,4.000000,0.000000,,,,,,,,,,,,,,,,,,,,,,,,,,,,
