title:seven2, start timestamp:1732081868.104353, stop timestamp:1732081897.838196, headset type:EPOCX, headset serial:E5020C3A, headset firmware:730, channels:67, sampling rate:eeg_128;mot_32, samples:3809      , version:2.2, 
Timestamp,OriginalTimestamp,EEG.Counter,EEG.Interpolated,EEG.AF3,EEG.F7,EEG.F3,EEG.FC5,EEG.T7,EEG.P7,EEG.O1,EEG.O2,EEG.P8,EEG.T8,EEG.FC6,EEG.F4,EEG.F8,EEG.AF4,EEG.RawCq,EEG.Battery,EEG.BatteryPercent,MarkerIndex,MarkerType,MarkerValueInt,EEG.MarkerHardware,CQ.AF3,CQ.F7,CQ.F3,CQ.FC5,CQ.T7,CQ.P7,CQ.O1,CQ.O2,CQ.P8,CQ.T8,CQ.FC6,CQ.F4,CQ.F8,CQ.AF4,CQ.Overall,EQ.SampleRateQuality,EQ.OVERALL,EQ.AF3,EQ.F7,EQ.F3,EQ.FC5,EQ.T7,EQ.P7,EQ.O1,EQ.O2,EQ.P8,EQ.T8,EQ.FC6,EQ.F4,EQ.F8,EQ.AF4,MOT.CounterMems,MOT.InterpolatedMems,MOT.Q0,MOT.Q1,MOT.Q2,MOT.Q3,MOT.AccX,MOT.AccY,MOT.AccZ,MOT.MagX,MOT.MagY,MOT.MagZ
1732081868.104353,1732081868.106026,101.000000,0.000000,4341.153809,4328.846191,4330.128418,4339.487305,4305.384766,4319.358887,4341.922852,4356.538574,4349.743652,4336.538574,4459.871582,4497.563965,4376.922852,4415.256348,1690.000000,0.000000,12.000000,,,,0.000000,2.000000,2.000000,0.000000,2.000000,2.000000,2.000000,1.000000,2.000000,4.000000,4.000000,4.000000,4.000000,2.000000,4.000000,25.000000,,,,,,,,,,,,,,,,,,,,,,,,,,,,
1732081868.112161,1732081868.114034,102.000000,0.000000,4342.948730,4331.282227,4330.128418,4342.948730,4315.512695,4316.410156,4340.897461,4357.436035,4348.205078,4331.282227,4456.922852,4502.179688,4372.051270,4416.794922,1362.000000,0.000000,12.000000,,,,0.000000,2.000000,2.000000,0.000000,2.000000,2.000000,2.000000,1.000000,2.000000,4.000000,4.000000,4.000000,4.000000,2.000000,4.000000,25.000000,,,,,,,,,,,,,,,,,,,,,,,,,,,,
1732081868.119969,1732081868.121842,103.000000,0.000000,4343.077148,4327.692383,4332.436035,4342.820313,4318.205078,4316.922852,4342.692383,4355.384766,4346.025879,4328.461426,4456.538574,4493.333496,4369.358887,4416.025879,1491.000000,0.000000,12.000000,,,,0.000000,2.000000,2.000000,0.000000,2.000000,2.000000,2.000000,1.000000,2.000000,4.000000,4.000000,4.000000,4.000000,2.000000,4.000000,25.000000,,,,,,,,,,,,,,,,,,,,,,,,,,,,
1732081868.127778,1732081868.129750,104.000000,0.000000,4342.820313,4325.128418,4333.077148,4341.538574,4315.128418,4321.666504,4342.051270,4355.641113,4348.717773,4329.871582,4459.743652,4487.563965,4372.692383,4416.410156,1720.000000,0.000000,12.000000,,,,0.000000,2.000000,2.000000,0.000000,2.000000,2.000000,2.000000,1.000000,2.000000,4.000000,4.000000,4.000000,4.000000,2.000000,4.000000,25.000000,,,,,,,,,,,,,,,,,26.000000,0.000000,0.638430,0.410156,-0.588074,0.279907,0.980588,0.176291,-0.042486,-73.896210,67.483215,29.673824
1732081868.135586,1732081868.137558,105.000000,0.000000,4346.538574,4325.641113,4331.922852,4343.846191,4322.051270,4322.563965,4339.615234,4357.436035,4348.846191,4329.487305,4459.358887,4496.153809,4370.256348,4417.563965,1690.000000,0.000000,12.000000,,,,0.000000,2.000000,2.000000,0.000000,2.000000,2.000000,2.000000,1.000000,2.000000,4.000000,4.000000,4.000000,4.000000,2.000000,4.000000,25.000000,,,,,,,,,,,,,,,,,,,,,,,,,,,,
1732081868.143394,1732081868.145566,106.000000,0.000000,4348.205078,4327.692383,4332.051270,4346.410156,4321.666504,4323.974121,4340.641113,4356.794922,4348.333496,4331.153809,4459.102539,4508.077148,4370.512695,4421.025879,1362.000000,0.000000,12.000000,,,,0.000000,2.000000,2.000000,0.000000,2.000000,2.000000,2.000000,1.000000,2.000000,4.000000,4.000000,4.000000,4.000000,2.000000,4.000000,25.000000,,,,,,,,,,,,,,,,,,,,,,,,,,,,
1732081868.151202,1732081868.153374,107.000000,0.000000,4346.282227,4329.487305,4333.205078,4343.205078,4315.512695,4323.461426,4342.051270,4357.179688,4350.512695,4333.461426,4463.461426,4510.769043,4375.256348,4425.256348,1491.000000,0.000000,12.000000,,,,0.000000,2.000000,2.000000,0.000000,2.000000,2.000000,2.000000,1.000000,2.000000,4.000000,4.000000,4.000000,4.000000,2.000000,4.000000,25.000000,,,,,,,,,,,,,,,,,,,,,,,,,,,,
1732081868.159011,1732081868.161283,108.000000,0.000000,4345.769043,4328.205078,4333.461426,4338.333496,4316.282227,4318.205078,4345.769043,4358.333496,4350.769043,4333.974121,4464.615234,4510.000000,4373.333496,4425.769043,1720.000000,0.000000,12.000000,,,,0.000000,2.000000,2.000000,0.000000,2.000000,2.000000,2.000000,1.000000,2.000000,4.000000,4.000000,4.000000,4.000000,2.000000,4.000000,25.000000,,,,,,,,,,,,,,,,,27.000000,0.000000,0.638430,0.410156,-0.588074,0.279907,0.975217,0.174826,-0.039067,-73.890930,67.459732,29.602465
1732081868.166819,1732081868.169091,109.000000,0.000000,4348.205078,4327.563965,4331.794922,4338.846191,4316.794922,4318.589844,4345.641113,4358.333496,4352.179688,4335.128418,4462.051270,4511.538574,4371.153809,4424.358887,1690.000000,0.000000,12.000000,,,,0.000000,2.000000,2.000000,0.000000,2.000000,2.000000,2.000000,1.000000,2.000000,4.000000,4.000000,4.000000,4.000000,2.000000,4.000000,25.000000,,,,,,,,,,,,,,,,,,,,,,,,,,,,
1732081868.174627,1732081868.177099,110.000000,0.000000,4347.051270,4328.461426,4331.922852,4339.743652,4314.358887,4318.461426,4342.051270,4358.205078,4354.102539,4335.897461,4463.077148,4507.948730,4376.025879,4426.153809,1362.000000,0.000000,12.000000,,,,0.000000,2.000000,2.000000,0.000000,2.000000,2.000000,2.000000,1.000000,2.000000,4.000000,4.000000,4.000000,4.000000,2.000000,4.000000,25.000000,,,,,,,,,,,,,,,,,,,,,,,,,,,,
1732081868.182435,1732081868.184907,111.000000,0.000000,4342.307617,4326.538574,4330.128418,4337.563965,4315.128418,4315.384766,4341.025879,4358.461426,4352.563965,4335.769043,4465.769043,4502.179688,4377.820313,4428.461426,1491.000000,0.000000,12.000000,,,,0.000000,2.000000,2.000000,0.000000,2.000000,2.000000,2.000000,1.000000,2.000000,4.000000,4.000000,4.000000,4.000000,2.000000,4.000000,25.000000,,,,,,,,,,,,,,,,,,,,,,,,,,,,
1732081868.190244,1732081868.192815,112.000000,0.000000,4340.384766,4327.307617,4330.128418,4338.717773,4321.153809,4319.102539,4346.666504,4357.820313,4350.512695,4335.384766,4462.563965,4499.102539,4371.282227,4423.974121,1720.000000,0.000000,12.000000,,,,0.000000,2.000000,2.000000,0.000000,2.000000,2.000000,2.000000,1.000000,2.000000,4.000000,4.000000,4.000000,4.000000,2.000000,4.000000,25.000000,,,,,,,,,,,,,,,,,28.000000,0.000000,0.637831,0.410400,-0.588379,0.280273,0.955195,0.177756,-0.046881,-73.721649,67.372383,29.551329
1732081868.198052,1732081868.200623,113.000000,0.000000,4341.794922,4333.205078,4328.717773,4345.384766,4326.666504,4325.641113,4348.077148,4359.102539,4355.256348,4335.000000,4458.717773,4498.205078,4370.897461,4418.717773,1690.000000,0.000000,12.000000,,,,0.000000,2.000000,2.000000,0.000000,2.000000,2.000000,2.000000,1.000000,2.000000,4.000000,4.000000,4.000000,4.000000,2.000000,4.000000,25.000000,,,,,,,,,,,,,,,,,,,,,,,,,,,,
1732081868.205860,1732081868.208332,114.000000,0.000000,4340.897461,4333.974121,4332.692383,4346.025879,4322.179688,4327.820313,4347.820313,4365.000000,4358.333496,4337.051270,4459.743652,4500.000000,4376.282227,4416.153809,1362.000000,0.000000,12.000000,,,,0.000000,2.000000,2.000000,0.000000,2.000000,2.000000,2.000000,1.000000,2.000000,4.000000,4.000000,4.000000,4.000000,2.000000,4.000000,25.000000,,,,,,,,,,,,,,,,,,,,,,,,,,,,
1732081868.213668,1732081868.216140,115.000000,0.000000,4335.384766,4330.000000,4333.461426,4340.897461,4323.846191,4330.128418,4348.205078,4365.384766,4354.743652,4338.846191,4457.307617,4493.461426,4377.179688,4414.358887,1491.000000,0.000000,12.000000,,,,0.000000,2.000000,2.000000,0.000000,2.000000,2.000000,2.000000,1.000000,2.000000,4.000000,4.000000,4.000000,4.000000,2.000000,4.000000,25.000000,,,,,,,,,,,,,,,,,,,,,,,,,,,,
1732081868.221477,1732081868.224048,116.000000,0.000000,4333.333496,4331.666504,4331.153809,4340.897461,4338.717773,4329.102539,4348.589844,4360.256348,4352.436035,4334.358887,4450.000000,4483.589844,4371.666504,4408.589844,1720.000000,0.000000,12.000000,,,,0.000000,2.000000,2.000000,0.000000,2.000000,2.000000,2.000000,1.000000,2.000000,4.000000,4.000000,4.000000,4.000000,2.000000,4.000000,25.000000,,,,,,,,,,,,,,,,,29.000000,0.000000,0.638063,0.410706,-0.588379,0.279297,0.917104,0.235380,-0.040044,-73.724541,67.386635,29.699909
1732081868.229285,1732081868.231856,117.000000,0.000000,4339.871582,4337.436035,4329.487305,4347.307617,4335.128418,4326.666504,4347.563965,4359.871582,4354.230957,4332.820313,4451.666504,4486.794922,4371.282227,4404.102539,1690.000000,0.000000,12.000000,,,,0.000000,2.000000,2.000000,0.000000,2.000000,2.000000,2.000000,1.000000,2.000000,4.000000,4.000000,4.000000,4.000000,2.000000,4.000000,25.000000,,,,,,,,,,,,,,,,,,,,,,,,,,,,
1732081868.237093,1732081868.239764,118.000000,0.000000,4342.563965,4335.384766,4333.333496,4347.692383,4316.410156,4329.102539,4347.307617,4359.615234,4353.333496,4334.358887,4456.410156,4497.948730,4378.846191,4410.512695,1362.000000,0.000000,12.000000,,,,0.000000,2.000000,2.000000,0.000000,2.000000,2.000000,2.000000,1.000000,2.000000,4.000000,4.000000,4.000000,4.000000,2.000000,4.000000,25.000000,,,,,,,,,,,,,,,,,,,,,,,,,,,,
1732081868.244902,1732081868.247572,119.000000,0.000000,4341.538574,4333.333496,4334.487305,4344.615234,4319.102539,4328.205078,4345.512695,4358.974121,4350.256348,4331.410156,4455.128418,4500.128418,4379.615234,4416.282227,1491.000000,0.000000,12.000000,,,,0.000000,2.000000,2.000000,0.000000,2.000000,2.000000,2.000000,1.000000,2.000000,4.000000,4.000000,4.000000,4.000000,2.000000,4.000000,25.000000,,,,,,,,,,,,,,,,,,,,,,,,,,,,
1732081868.252710,1732081868.255381,120.000000,0.000000,4345.000000,4334.871582,4332.051270,4346.922852,4329.230957,4326.410156,4346.153809,4364.743652,4350.897461,4328.461426,4457.820313,4498.461426,4378.846191,4414.487305,1720.000000,0.000000,12.000000,,,,0.000000,2.000000,2.000000,0.000000,2.000000,2.000000,2.000000,1.000000,2.000000,4.000000,4.000000,4.000000,4.000000,2.000000,4.000000,25.000000,,,,,,,,,,,,,,,,,30.000000,0.000000,0.639071,0.412170,-0.587097,0.277527,0.902942,0.248077,-0.048346,-73.766876,67.486504,29.836927
1732081868.260518,1732081868.263189,121.000000,0.000000,4349.743652,4336.666504,4330.384766,4347.307617,4320.256348,4327.820313,4349.871582,4367.948730,4354.743652,4331.666504,4461.794922,4500.256348,4382.179688,4415.384766,1690.000000,0.000000,12.000000,,,,0.000000,2.000000,2.000000,0.000000,2.000000,2.000000,2.000000,1.000000,2.000000,4.000000,4.000000,4.000000,4.000000,2.000000,4.000000,25.000000,,,,,,,,,,,,,,,,,,,,,,,,,,,,
1732081868.268326,1732081868.271197,122.000000,0.000000,4350.512695,4337.692383,4331.025879,4343.846191,4312.820313,4326.153809,4349.615234,4365.769043,4361.153809,4335.897461,4462.179688,4503.077148,4386.025879,4420.000000,1362.000000,0.000000,12.000000,,,,0.000000,2.000000,2.000000,0.000000,2.000000,2.000000,2.000000,1.000000,2.000000,4.000000,4.000000,4.000000,4.000000,2.000000,4.000000,25.000000,,,,,,,,,,,,,,,,,,,,,,,,,,,,
1732081868.276135,1732081868.279005,123.000000,0.000000,4345.512695,4334.230957,4333.461426,4342.436035,4316.666504,4324.871582,4349.358887,4366.153809,4364.615234,4335.512695,4462.563965,4507.436035,4386.666504,4421.794922,1491.000000,0.000000,12.000000,,,,0.000000,2.000000,2.000000,0.000000,2.000000,2.000000,2.000000,1.000000,2.000000,4.000000,4.000000,4.000000,4.000000,2.000000,4.000000,25.000000,,,,,,,,,,,,,,,,,,,,,,,,,,,,
1732081868.283943,1732081868.286913,124.000000,0.000000,4344.871582,4333.333496,4333.974121,4346.153809,4316.025879,4324.230957,4349.615234,4367.307617,4358.717773,4334.230957,4462.948730,4510.128418,4385.384766,4423.461426,1720.000000,0.000000,12.000000,,,,0.000000,2.000000,2.000000,0.000000,2.000000,2.000000,2.000000,1.000000,2.000000,4.000000,4.000000,4.000000,4.000000,2.000000,4.000000,25.000000,,,,,,,,,,,,,,,,,31.000000,0.000000,0.639799,0.413330,-0.586121,0.276184,0.929313,0.271518,-0.054206,-73.937836,67.594070,29.932911
1732081868.291751,1732081868.294721,125.000000,0.000000,4352.563965,4339.230957,4337.948730,4348.974121,4313.461426,4318.461426,4351.282227,4365.000000,4352.307617,4331.282227,4460.641113,4510.641113,4385.512695,4425.384766,1690.000000,0.000000,12.000000,,,,0.000000,2.000000,2.000000,0.000000,2.000000,2.000000,2.000000,1.000000,2.000000,4.000000,4.000000,4.000000,4.000000,2.000000,4.000000,25.000000,,,,,,,,,,,,,,,,,,,,,,,,,,,,
1732081868.299559,1732081868.302330,126.000000,0.000000,4355.769043,4341.666504,4340.128418,4348.589844,4314.487305,4318.077148,4352.820313,4365.128418,4356.153809,4328.717773,4461.282227,4509.871582,4384.487305,4425.512695,1362.000000,0.000000,12.000000,,,,0.000000,2.000000,2.000000,0.000000,2.000000,2.000000,2.000000,1.000000,2.000000,4.000000,4.000000,4.000000,4.000000,2.000000,4.000000,25.000000,,,,,,,,,,,,,,,,,,,,,,,,,,,,
1732081868.307367,1732081868.310138,127.000000,0.000000,4347.436035,4335.897461,4339.871582,4345.512695,4315.128418,4326.666504,4358.589844,4365.897461,4358.717773,4326.666504,4461.410156,4508.974121,4382.820313,4426.153809,12.000000,0.000000,12.000000,,,,0.000000,2.000000,2.000000,0.000000,2.000000,2.000000,2.000000,1.000000,2.000000,4.000000,4.000000,4.000000,4.000000,2.000000,4.000000,25.000000,,,,,,,,,,,,,,,,,,,,,,,,,,,,
1732081868.315176,1732081868.317846,0.000000,0.000000,4346.538574,4331.666504,4337.307617,4344.102539,4311.666504,4327.820313,4359.743652,4365.897461,4355.000000,4327.820313,4459.871582,4509.358887,4386.538574,4429.358887,0.000000,0.000000,12.000000,,,,0.000000,2.000000,2.000000,0.000000,2.000000,2.000000,2.000000,1.000000,2.000000,4.000000,4.000000,4.000000,4.000000,2.000000,4.000000,25.000000,,,,,,,,,,,,,,,,,0.000000,0.000000,0.641606,0.416626,-0.583435,0.272705,0.945916,0.271518,-0.051276,-73.802979,67.924530,30.062325
1732081868.322984,1732081868.325655,1.000000,0.000000,4352.820313,4331.282227,4341.538574,4343.717773,4305.256348,4321.025879,4358.333496,4366.410156,4354.230957,4329.487305,4460.000000,4508.717773,4390.512695,4431.794922,1285.000000,0.000000,12.000000,,,,0.000000,2.000000,2.000000,0.000000,2.000000,2.000000,2.000000,1.000000,2.000000,4.000000,4.000000,4.000000,4.000000,2.000000,4.000000,25.000000,,,,,,,,,,,,,,,,,,,,,,,,,,,,
1732081868.330792,1732081868.333263,2.000000,0.000000,4355.384766,4332.436035,4342.948730,4343.717773,4303.077148,4318.589844,4356.282227,4363.333496,4353.461426,4325.769043,4458.974121,4507.179688,4386.666504,4429.102539,1209.000000,0.000000,12.000000,,,,0.000000,2.000000,2.000000,0.000000,2.000000,2.000000,2.000000,1.000000,2.000000,4.000000,4.000000,4.000000,4.000000,2.000000,4.000000,25.000000,,,,,,,,,,,,,,,,,,,,,,,,,,,,
1732081868.338601,1732081868.341071,3.000000,0.000000,4357.692383,4333.974121,4342.436035,4344.743652,4304.615234,4321.666504,4357.820313,4358.846191,4349.358887,4323.589844,4458.461426,4512.051270,4384.102539,4427.307617,1160.000000,0.000000,12.000000,,,,0.000000,2.000000,2.000000,0.000000,2.000000,2.000000,2.000000,1.000000,2.000000,4.000000,4.000000,4.000000,4.000000,2.000000,4.000000,25.000000,,,,,,,,,,,,,,,,,,,,,,,,,,,,
1732081868.346409,1732081868.348979,4.000000,0.000000,4360.000000,4333.077148,4341.794922,4344.358887,4305.769043,4325.256348,4359.487305,4361.666504,4349.487305,4326.282227,4459.871582,4516.410156,4386.410156,4433.333496,1189.000000,0.000000,12.000000,,,,0.000000,2.000000,2.000000,0.000000,2.000000,2.000000,2.000000,1.000000,2.000000,4.000000,4.000000,4.000000,4.000000,2.000000,4.000000,25.000000,,,,,,,,,,,,,,,,,1.000000,0.000000,0.645320,0.422302,-0.577942,0.266846,1.003052,0.208033,-0.044439,-73.465416,68.180534,30.158815
1732081868.354217,1732081868.356787,5.000000,0.000000,4364.487305,4335.512695,4342.051270,4344.358887,4307.436035,4321.922852,4358.461426,4366.410156,4352.051270,4329.487305,4458.333496,4513.589844,4384.615234,4440.769043,1062.000000,0.000000,12.000000,,,,0.000000,2.000000,2.000000,0.000000,2.000000,2.000000,2.000000,1.000000,2.000000,4.000000,4.000000,4.000000,4.000000,2.000000,4.000000,25.000000,,,,,,,,,,,,,,,,,,,,,,,,,,,,
1732081868.362025,1732081868.364795,6.000000,0.000000,4372.307617,4340.384766,4343.974121,4348.589844,4307.692383,4318.846191,4357.820313,4364.871582,4350.641113,4331.025879,4456.282227,4513.974121,4382.948730,4441.025879,203.000000,0.000000,12.000000,,,,0.000000,2.000000,2.000000,0.000000,2.000000,2.000000,2.000000,1.000000,2.000000,4.000000,4.000000,4.000000,4.000000,2.000000,4.000000,25.000000,,,,,,,,,,,,,,,,,,,,,,,,,,,,
1732081868.369834,1732081868.372604,7.000000,0.000000,4373.846191,4337.179688,4345.000000,4352.307617,4307.179688,4321.666504,4358.077148,4364.230957,4352.820313,4332.948730,4459.615234,4518.589844,4384.871582,4443.077148,1192.000000,0.000000,12.000000,,,,0.000000,2.000000,2.000000,0.000000,2.000000,2.000000,2.000000,1.000000,2.000000,4.000000,4.000000,4.000000,4.000000,2.000000,4.000000,25.000000,,,,,,,,,,,,,,,,,,,,,,,,,,,,
1732081868.377642,1732081868.380512,8.000000,0.000000,4374.230957,4331.538574,4346.794922,4349.743652,4308.846191,4316.666504,4362.436035,4365.000000,4356.922852,4334.102539,4461.922852,4517.820313,4387.051270,4452.436035,1336.000000,0.000000,12.000000,,,,0.000000,2.000000,2.000000,0.000000,2.000000,2.000000,2.000000,1.000000,2.000000,4.000000,4.000000,4.000000,4.000000,2.000000,4.000000,25.000000,,,,,,,,,,,,,,,,,2.000000,0.000000,0.645863,0.422729,-0.577332,0.266174,1.003052,0.208033,-0.044439,-73.146988,68.496231,30.175308
1732081868.385450,1732081868.388320,9.000000,0.000000,4381.153809,4333.333496,4345.897461,4346.282227,4306.153809,4308.974121,4363.333496,4360.256348,4352.692383,4333.589844,4460.641113,4514.743652,4387.820313,4459.487305,1466.000000,0.000000,12.000000,,,,0.000000,2.000000,2.000000,0.000000,2.000000,2.000000,2.000000,1.000000,2.000000,4.000000,4.000000,4.000000,4.000000,2.000000,4.000000,25.000000,,,,,,,,,,,,,,,,,,,,,,,,,,,,
1732081868.393258,1732081868.395928,10.000000,0.000000,4386.538574,4340.769043,4345.256348,4351.153809,4305.128418,4313.461426,4361.794922,4359.102539,4348.589844,4335.128418,4461.153809,4516.282227,4387.563965,4458.205078,1362.000000,0.000000,12.000000,,,,0.000000,2.000000,2.000000,0.000000,2.000000,2.000000,2.000000,1.000000,2.000000,4.000000,4.000000,4.000000,4.000000,2.000000,4.000000,25.000000,,,,,,,,,,,,,,,,,,,,,,,,,,,,
1732081868.401067,1732081868.403737,11.000000,0.000000,4391.153809,4342.948730,4341.666504,4356.410156,4308.461426,4318.974121,4359.230957,4362.563965,4350.897461,4338.846191,4461.922852,4517.820313,4392.179688,4463.333496,1491.000000,0.000000,12.000000,,,,0.000000,2.000000,2.000000,0.000000,2.000000,2.000000,2.000000,1.000000,2.000000,4.000000,4.000000,4.000000,4.000000,2.000000,4.000000,25.000000,,,,,,,,,,,,,,,,,,,,,,,,,,,,
1732081868.408875,1732081868.411445,12.000000,0.000000,4396.666504,4333.589844,4341.794922,4349.743652,4304.615234,4313.974121,4360.897461,4363.077148,4351.153809,4341.922852,4462.692383,4520.384766,4398.974121,4476.153809,1718.000000,0.000000,12.000000,,,,0.000000,2.000000,2.000000,0.000000,2.000000,2.000000,2.000000,1.000000,2.000000,4.000000,4.000000,4.000000,4.000000,2.000000,4.000000,25.000000,,,,,,,,,,,,,,,,,3.000000,0.000000,0.646999,0.422119,-0.576843,0.265442,0.934684,0.204126,-0.001465,-73.007393,68.565285,30.032000
1732081868.416683,1732081868.419253,13.000000,0.000000,4397.436035,4328.589844,4338.846191,4343.333496,4297.948730,4312.051270,4359.743652,4363.717773,4351.922852,4343.846191,4469.871582,4527.051270,4400.897461,4478.589844,1678.000000,0.000000,12.000000,,,,0.000000,2.000000,2.000000,0.000000,2.000000,2.000000,2.000000,1.000000,2.000000,4.000000,4.000000,4.000000,4.000000,2.000000,4.000000,25.000000,,,,,,,,,,,,,,,,,,,,,,,,,,,,
1732081868.424491,1732081868.426862,14.000000,0.000000,4400.256348,4334.743652,4336.794922,4346.922852,4301.410156,4313.205078,4357.436035,4366.794922,4354.743652,4339.743652,4475.512695,4532.948730,4398.077148,4477.307617,1362.000000,0.000000,12.000000,,,,0.000000,2.000000,2.000000,0.000000,2.000000,2.000000,2.000000,1.000000,2.000000,4.000000,4.000000,4.000000,4.000000,2.000000,4.000000,25.000000,1.000000,25.000000,2.000000,2.000000,0.000000,2.000000,2.000000,2.000000,1.000000,2.000000,3.000000,4.000000,4.000000,4.000000,2.000000,4.000000,,,,,,,,,,,,
1732081868.432300,1732081868.434670,15.000000,0.000000,4406.282227,4339.358887,4336.922852,4348.589844,4307.820313,4311.538574,4354.487305,4363.846191,4354.871582,4334.743652,4473.717773,4532.692383,4400.769043,4484.615234,1491.000000,0.000000,12.000000,,,,0.000000,2.000000,2.000000,0.000000,2.000000,2.000000,2.000000,1.000000,2.000000,4.000000,4.000000,4.000000,4.000000,2.000000,4.000000,25.000000,,,,,,,,,,,,,,,,,,,,,,,,,,,,
1732081868.440108,1732081868.442578,16.000000,0.000000,4408.717773,4337.179688,4339.230957,4347.436035,4305.256348,4311.025879,4351.922852,4359.743652,4354.615234,4336.410156,4473.974121,4531.153809,4408.461426,4488.974121,0.000000,0.000000,12.000000,,,,0.000000,2.000000,2.000000,0.000000,2.000000,2.000000,2.000000,1.000000,2.000000,4.000000,4.000000,4.000000,4.000000,2.000000,4.000000,25.000000,,,,,,,,,,,,,,,,,4.000000,0.000000,0.650440,0.417358,-0.577026,0.264160,0.946405,0.211452,0.007325,-72.710991,68.621216,30.082586
1732081868.447916,1732081868.450386,17.000000,0.000000,4411.922852,4337.820313,4337.948730,4351.922852,4308.717773,4309.358887,4350.769043,4362.179688,4356.538574,4338.589844,4476.794922,4532.307617,4411.794922,4492.179688,0.000000,0.000000,12.000000,,,,0.000000,2.000000,2.000000,0.000000,2.000000,2.000000,2.000000,1.000000,2.000000,4.000000,4.000000,4.000000,4.000000,2.000000,4.000000,25.000000,,,,,,,,,,,,,,,,,,,,,,,,,,,,
1732081868.455724,1732081868.458394,18.000000,0.000000,4417.179688,4338.717773,4337.820313,4355.641113,4318.974121,4306.153809,4352.307617,4365.128418,4355.512695,4335.256348,4478.333496,4535.512695,4411.666504,4500.769043,0.000000,0.000000,12.000000,,,,0.000000,2.000000,2.000000,0.000000,2.000000,2.000000,2.000000,1.000000,2.000000,4.000000,4.000000,4.000000,4.000000,2.000000,4.000000,25.000000,,,,,,,,,,,,,,,,,,,,,,,,,,,,
1732081868.463533,1732081868.466202,19.000000,0.000000,4421.282227,4338.974121,4336.794922,4356.538574,4318.717773,4310.897461,4353.589844,4364.743652,4355.512695,4332.179688,4482.563965,4540.128418,4413.077148,4503.846191,0.000000,0.000000,12.000000,,,,0.000000,2.000000,2.000000,0.000000,2.000000,2.000000,2.000000,1.000000,2.000000,4.000000,4.000000,4.000000,4.000000,2.000000,4.000000,25.000000,,,,,,,,,,,,,,,,,,,,,,,,,,,,
1732081868.471341,1732081868.474110,20.000000,0.000000,4421.794922,4343.077148,4333.205078,4357.563965,4312.820313,4316.666504,4354.615234,4365.256348,4356.666504,4332.820313,4485.769043,4541.538574,4415.897461,4503.974121,0.000000,0.000000,12.000000,,,,0.000000,2.000000,2.000000,0.000000,2.000000,2.000000,2.000000,1.000000,2.000000,4.000000,4.000000,4.000000,4.000000,2.000000,4.000000,25.000000,,,,,,,,,,,,,,,,,5.000000,0.000000,0.652147,0.412598,-0.578186,0.264893,0.976193,0.230985,-0.004395,-72.524231,68.706512,30.421894
1732081868.479149,1732081868.481919,21.000000,0.000000,4421.538574,4343.333496,4334.102539,4358.974121,4315.000000,4313.589844,4353.077148,4367.692383,4354.743652,4333.333496,4486.794922,4537.820313,4414.230957,4507.307617,0.000000,0.000000,12.000000,,,,0.000000,2.000000,2.000000,0.000000,2.000000,2.000000,2.000000,1.000000,2.000000,4.000000,4.000000,4.000000,4.000000,2.000000,4.000000,25.000000,,,,,,,,,,,,,,,,,,,,,,,,,,,,
1732081868.486957,1732081868.489927,22.000000,0.000000,4422.436035,4340.384766,4333.077148,4359.871582,4320.769043,4310.897461,4347.820313,4365.256348,4355.641113,4335.128418,4487.307617,4531.666504,4411.922852,4504.487305,0.000000,0.000000,12.000000,,,,0.000000,2.000000,2.000000,0.000000,2.000000,2.000000,2.000000,1.000000,2.000000,4.000000,4.000000,4.000000,4.000000,2.000000,4.000000,25.000000,,,,,,,,,,,,,,,,,,,,,,,,,,,,
1732081868.494766,1732081868.497735,23.000000,0.000000,4426.153809,4342.563965,4332.179688,4361.153809,4321.922852,4313.077148,4347.051270,4359.230957,4354.102539,4336.666504,4487.692383,4529.230957,4413.333496,4501.282227,0.000000,0.000000,12.000000,,,,0.000000,2.000000,2.000000,0.000000,2.000000,2.000000,2.000000,1.000000,2.000000,4.000000,4.000000,4.000000,4.000000,2.000000,4.000000,25.000000,,,,,,,,,,,,,,,,,,,,,,,,,,,,
1732081868.502574,1732081868.505443,24.000000,0.000000,4428.974121,4346.025879,4334.615234,4361.922852,4319.230957,4312.436035,4347.179688,4356.410156,4348.077148,4336.794922,4485.256348,4529.102539,4414.487305,4501.410156,0.000000,0.000000,12.000000,,,,0.000000,2.000000,2.000000,0.000000,2.000000,2.000000,2.000000,1.000000,2.000000,4.000000,4.000000,4.000000,4.000000,2.000000,4.000000,25.000000,,,,,,,,,,,,,,,,,6.000000,0.000000,0.652143,0.411072,-0.578857,0.265808,0.977658,0.223660,-0.016115,-72.614632,68.698944,30.436735
1732081868.510382,1732081868.513251,25.000000,0.000000,4426.922852,4345.769043,4339.102539,4359.358887,4320.769043,4309.487305,4343.333496,4359.230957,4346.922852,4332.436035,4479.615234,4529.230957,4403.846191,4498.205078,0.000000,0.000000,12.000000,,,,0.000000,2.000000,2.000000,0.000000,2.000000,2.000000,2.000000,1.000000,2.000000,4.000000,4.000000,4.000000,4.000000,2.000000,4.000000,25.000000,,,,,,,,,,,,,,,,,,,,,,,,,,,,
1732081868.518191,1732081868.521259,26.000000,0.000000,4423.205078,4345.769043,4333.077148,4358.974121,4333.846191,4311.538574,4342.692383,4365.769043,4351.282227,4328.974121,4476.410156,4534.230957,4393.205078,4494.743652,0.000000,0.000000,12.000000,,,,0.000000,2.000000,2.000000,0.000000,2.000000,2.000000,2.000000,1.000000,2.000000,4.000000,4.000000,4.000000,4.000000,2.000000,4.000000,25.000000,,,,,,,,,,,,,,,,,,,,,,,,,,,,
1732081868.525999,1732081868.529068,27.000000,0.000000,4420.897461,4346.922852,4331.282227,4360.897461,4335.897461,4314.102539,4347.563965,4368.333496,4355.384766,4336.410156,4480.512695,4543.461426,4402.820313,4496.922852,0.000000,0.000000,12.000000,,,,0.000000,2.000000,2.000000,0.000000,2.000000,2.000000,2.000000,1.000000,2.000000,4.000000,4.000000,4.000000,4.000000,2.000000,4.000000,25.000000,,,,,,,,,,,,,,,,,,,,,,,,,,,,
1732081868.533807,1732081868.536976,28.000000,0.000000,4425.256348,4351.666504,4333.077148,4364.871582,4322.307617,4313.461426,4343.205078,4362.179688,4357.563965,4347.051270,4489.358887,4542.307617,4415.000000,4502.436035,0.000000,0.000000,12.000000,,,,0.000000,2.000000,2.000000,0.000000,2.000000,2.000000,2.000000,1.000000,2.000000,4.000000,4.000000,4.000000,4.000000,2.000000,4.000000,25.000000,,,,,,,,,,,,,,,,,7.000000,0.000000,0.648982,0.405884,-0.581787,0.274963,0.991820,0.209987,-0.010255,-72.374519,68.677811,30.437088
1732081868.541615,1732081868.544784,29.000000,0.000000,4430.256348,4355.512695,4335.897461,4368.589844,4323.461426,4312.179688,4339.743652,4359.487305,4357.307617,4350.256348,4495.128418,4538.589844,4416.410156,4507.436035,0.000000,0.000000,12.000000,,,,0.000000,2.000000,2.000000,0.000000,2.000000,2.000000,2.000000,1.000000,2.000000,4.000000,4.000000,4.000000,4.000000,2.000000,4.000000,25.000000,,,,,,,,,,,,,,,,,,,,,,,,,,,,
1732081868.549424,1732081868.552792,30.000000,0.000000,4428.333496,4353.333496,4334.743652,4369.743652,4340.384766,4316.538574,4344.230957,4362.820313,4354.743652,4349.487305,4496.282227,4539.230957,4413.974121,4508.589844,0.000000,0.000000,12.000000,,,,0.000000,2.000000,2.000000,0.000000,2.000000,2.000000,2.000000,1.000000,2.000000,4.000000,4.000000,4.000000,4.000000,2.000000,4.000000,25.000000,,,,,,,,,,,,,,,,,,,,,,,,,,,,
1732081868.557232,1732081868.560600,31.000000,0.000000,4421.794922,4349.615234,4334.615234,4366.282227,4340.256348,4321.794922,4345.512695,4363.077148,4355.000000,4347.948730,4492.692383,4537.051270,4409.230957,4502.948730,0.000000,0.000000,12.000000,,,,0.000000,2.000000,2.000000,0.000000,2.000000,2.000000,2.000000,1.000000,2.000000,4.000000,4.000000,4.000000,4.000000,2.000000,4.000000,25.000000,,,,,,,,,,,,,,,,,,,,,,,,,,,,
1732081868.565040,1732081868.568508,32.000000,0.000000,4416.538574,4349.102539,4335.000000,4360.897461,4327.820313,4317.563965,4342.563965,4361.922852,4357.948730,4349.871582,4490.384766,4535.384766,4405.897461,4500.512695,0.000000,0.000000,12.000000,,,,0.000000,2.000000,2.000000,0.000000,2.000000,2.000000,2.000000,1.000000,2.000000,4.000000,4.000000,4.000000,4.000000,2.000000,4.000000,25.000000,,,,,,,,,,,,,,,,,8.000000,0.000000,0.645522,0.403748,-0.583435,0.282654,0.998657,0.153339,-0.008790,-72.356689,68.442360,30.294043
1732081868.572848,1732081868.576316,33.000000,0.000000,4416.922852,4346.922852,4336.282227,4356.538574,4337.051270,4313.589844,4345.000000,4365.000000,4359.487305,4355.128418,4490.897461,4538.589844,4411.922852,4502.051270,0.000000,0.000000,12.000000,,,,0.000000,2.000000,2.000000,0.000000,2.000000,2.000000,2.000000,1.000000,2.000000,4.000000,4.000000,4.000000,4.000000,2.000000,4.000000,25.000000,,,,,,,,,,,,,,,,,,,,,,,,,,,,
1732081868.580657,1732081868.584324,34.000000,0.000000,4419.230957,4345.128418,4337.436035,4353.589844,4348.589844,4315.897461,4347.307617,4366.153809,4360.000000,4354.358887,4489.487305,4537.692383,4413.717773,4502.051270,0.000000,0.000000,12.000000,,,,0.000000,2.000000,2.000000,0.000000,2.000000,2.000000,2.000000,1.000000,2.000000,4.000000,4.000000,4.000000,4.000000,2.000000,4.000000,25.000000,,,,,,,,,,,,,,,,,,,,,,,,,,,,
1732081868.588465,1732081868.592133,35.000000,0.000000,4419.487305,4349.743652,4338.974121,4356.538574,4335.769043,4315.769043,4347.820313,4363.589844,4361.282227,4351.794922,4488.974121,4540.128418,4405.256348,4502.179688,0.000000,0.000000,12.000000,,,,0.000000,2.000000,2.000000,0.000000,2.000000,2.000000,2.000000,1.000000,2.000000,4.000000,4.000000,4.000000,4.000000,2.000000,4.000000,25.000000,,,,,,,,,,,,,,,,,,,,,,,,,,,,
1732081868.596273,1732081868.599841,36.000000,0.000000,4421.025879,4354.615234,4341.922852,4362.948730,4328.717773,4315.641113,4347.563965,4364.487305,4364.358887,4355.256348,4489.358887,4550.384766,4406.025879,4503.077148,0.000000,0.000000,12.000000,,,,0.000000,2.000000,2.000000,0.000000,2.000000,2.000000,2.000000,1.000000,2.000000,4.000000,4.000000,4.000000,4.000000,2.000000,4.000000,25.000000,,,,,,,,,,,,,,,,,9.000000,0.000000,0.643580,0.402771,-0.584290,0.286682,0.985472,0.132340,0.004883,-72.518921,68.249977,30.276506
1732081868.604081,1732081868.607649,37.000000,0.000000,4422.820313,4356.025879,4340.897461,4363.846191,4343.717773,4319.358887,4346.025879,4365.641113,4362.307617,4355.769043,4490.256348,4549.871582,4411.282227,4506.922852,0.000000,0.000000,12.000000,,,,0.000000,2.000000,2.000000,0.000000,2.000000,2.000000,2.000000,1.000000,2.000000,4.000000,4.000000,4.000000,4.000000,2.000000,4.000000,25.000000,,,,,,,,,,,,,,,,,,,,,,,,,,,,
1732081868.611889,1732081868.615258,38.000000,0.000000,4421.410156,4355.000000,4341.025879,4360.769043,4345.128418,4320.128418,4347.436035,4364.743652,4359.743652,4352.179688,4491.922852,4542.820313,4409.743652,4507.820313,0.000000,0.000000,12.000000,,,,0.000000,2.000000,2.000000,0.000000,2.000000,2.000000,2.000000,1.000000,2.000000,4.000000,4.000000,4.000000,4.000000,2.000000,4.000000,25.000000,,,,,,,,,,,,,,,,,,,,,,,,,,,,
1732081868.619698,1732081868.623066,39.000000,0.000000,4417.307617,4355.512695,4342.692383,4361.025879,4337.436035,4318.846191,4350.000000,4366.153809,4363.717773,4352.436035,4492.307617,4544.230957,4407.179688,4500.641113,0.000000,0.000000,12.000000,,,,0.000000,2.000000,2.000000,0.000000,2.000000,2.000000,2.000000,1.000000,2.000000,4.000000,4.000000,4.000000,4.000000,2.000000,4.000000,25.000000,,,,,,,,,,,,,,,,,,,,,,,,,,,,
1732081868.627506,1732081868.630774,40.000000,0.000000,4414.743652,4354.871582,4346.025879,4363.205078,4345.256348,4320.000000,4349.102539,4366.922852,4365.256348,4352.948730,4490.769043,4545.384766,4408.846191,4495.897461,0.000000,0.000000,12.000000,,,,0.000000,2.000000,2.000000,0.000000,2.000000,2.000000,2.000000,1.000000,2.000000,4.000000,4.000000,4.000000,4.000000,2.000000,4.000000,25.000000,,,,,,,,,,,,,,,,,10.000000,0.000000,0.639725,0.401367,-0.585693,0.294312,0.968380,0.115248,0.008790,-72.641991,67.885818,30.223970
1732081868.635314,1732081868.638582,41.000000,0.000000,4416.538574,4353.333496,4345.641113,4361.794922,4348.333496,4318.974121,4347.820313,4365.512695,4364.487305,4353.589844,4493.589844,4544.615234,4410.769043,4498.589844,0.000000,0.000000,12.000000,,,,0.000000,2.000000,2.000000,0.000000,2.000000,2.000000,2.000000,1.000000,2.000000,4.000000,4.000000,4.000000,4.000000,2.000000,4.000000,25.000000,,,,,,,,,,,,,,,,,,,,,,,,,,,,
1732081868.643123,1732081868.646191,42.000000,0.000000,4416.922852,4353.974121,4343.974121,4359.871582,4344.358887,4317.820313,4349.230957,4368.461426,4363.333496,4352.948730,4497.051270,4547.051270,4410.256348,4497.563965,0.000000,0.000000,12.000000,,,,0.000000,2.000000,2.000000,0.000000,2.000000,2.000000,2.000000,1.000000,2.000000,4.000000,4.000000,4.000000,4.000000,2.000000,4.000000,25.000000,,,,,,,,,,,,,,,,,,,,,,,,,,,,
1732081868.650931,1732081868.653999,43.000000,0.000000,4415.256348,4356.025879,4341.922852,4363.974121,4347.563965,4323.717773,4350.256348,4372.051270,4364.358887,4348.974121,4493.333496,4548.205078,4407.563965,4493.205078,0.000000,0.000000,12.000000,,,,0.000000,2.000000,2.000000,0.000000,2.000000,2.000000,2.000000,1.000000,2.000000,4.000000,4.000000,4.000000,4.000000,2.000000,4.000000,25.000000,,,,,,,,,,,,,,,,,,,,,,,,,,,,
1732081868.658739,1732081868.661707,44.000000,0.000000,4413.589844,4357.436035,4343.717773,4364.615234,4345.000000,4325.769043,4350.128418,4368.333496,4367.563965,4347.179688,4490.512695,4547.692383,4405.256348,4493.717773,0.000000,0.000000,12.000000,,,,0.000000,2.000000,2.000000,0.000000,2.000000,2.000000,2.000000,1.000000,2.000000,4.000000,4.000000,4.000000,4.000000,2.000000,4.000000,25.000000,,,,,,,,,,,,,,,,,11.000000,0.000000,0.633645,0.401001,-0.587341,0.304504,0.971798,0.105482,0.010743,-73.003349,67.402512,30.339750
1732081868.666547,1732081868.669515,45.000000,0.000000,4415.384766,4359.102539,4348.205078,4362.692383,4339.358887,4318.717773,4346.153809,4365.384766,4366.282227,4348.589844,4492.692383,4550.641113,4407.563965,4492.436035,0.000000,0.000000,12.000000,,,,0.000000,2.000000,2.000000,0.000000,2.000000,2.000000,2.000000,1.000000,2.000000,4.000000,4.000000,4.000000,4.000000,2.000000,4.000000,25.000000,,,,,,,,,,,,,,,,,,,,,,,,,,,,
1732081868.674356,1732081868.677124,46.000000,0.000000,4417.436035,4361.922852,4351.153809,4367.436035,4343.205078,4318.461426,4346.794922,4366.922852,4362.563965,4345.897461,4495.000000,4552.563965,4408.589844,4490.769043,0.000000,0.000000,12.000000,,,,0.000000,2.000000,2.000000,0.000000,2.000000,2.000000,2.000000,1.000000,2.000000,4.000000,4.000000,4.000000,4.000000,2.000000,4.000000,25.000000,,,,,,,,,,,,,,,,,,,,,,,,,,,,
1732081868.682164,1732081868.684932,47.000000,0.000000,4413.461426,4358.333496,4348.333496,4371.794922,4350.128418,4325.512695,4349.230957,4366.410156,4358.846191,4339.871582,4492.692383,4543.589844,4403.205078,4490.384766,0.000000,0.000000,12.000000,,,,0.000000,2.000000,2.000000,0.000000,2.000000,2.000000,2.000000,1.000000,2.000000,4.000000,4.000000,4.000000,4.000000,2.000000,4.000000,25.000000,,,,,,,,,,,,,,,,,,,,,,,,,,,,
1732081868.689972,1732081868.692640,48.000000,0.000000,4403.333496,4351.922852,4345.897461,4369.358887,4352.051270,4329.358887,4349.487305,4364.230957,4356.410156,4337.307617,4485.128418,4533.974121,4398.205078,4481.666504,0.000000,0.000000,12.000000,,,,0.000000,2.000000,2.000000,0.000000,2.000000,2.000000,2.000000,1.000000,2.000000,4.000000,4.000000,4.000000,4.000000,2.000000,4.000000,25.000000,,,,,,,,,,,,,,,,,12.000000,0.000000,0.630839,0.402649,-0.587708,0.307434,0.960566,0.106458,0.000000,-73.479378,66.974365,30.200197
1732081868.697780,1732081868.700449,49.000000,0.000000,4399.743652,4357.179688,4348.333496,4370.384766,4353.333496,4330.384766,4349.487305,4365.641113,4356.410156,4338.333496,4483.461426,4533.589844,4399.358887,4474.871582,0.000000,0.000000,12.000000,,,,0.000000,2.000000,2.000000,0.000000,2.000000,2.000000,2.000000,1.000000,2.000000,4.000000,4.000000,4.000000,4.000000,2.000000,4.000000,25.000000,,,,,,,,,,,,,,,,,,,,,,,,,,,,
1732081868.705589,1732081868.708057,50.000000,0.000000,4409.102539,4363.461426,4350.512695,4375.384766,4355.641113,4334.487305,4350.641113,4367.436035,4358.717773,4336.666504,4488.846191,4536.666504,4398.589844,4476.794922,0.000000,0.000000,12.000000,,,,0.000000,2.000000,2.000000,0.000000,2.000000,2.000000,2.000000,1.000000,2.000000,4.000000,4.000000,4.000000,4.000000,2.000000,4.000000,25.000000,,,,,,,,,,,,,,,,,,,,,,,,,,,,
1732081868.713397,1732081868.715865,51.000000,0.000000,4410.769043,4358.589844,4348.461426,4373.205078,4353.205078,4330.641113,4347.692383,4364.487305,4357.307617,4335.641113,4489.871582,4537.307617,4395.641113,4480.641113,0.000000,0.000000,12.000000,,,,0.000000,2.000000,2.000000,0.000000,2.000000,2.000000,2.000000,1.000000,2.000000,4.000000,4.000000,4.000000,4.000000,2.000000,4.000000,25.000000,,,,,,,,,,,,,,,,,,,,,,,,,,,,
1732081868.721205,1732081868.723573,52.000000,0.000000,4402.179688,4353.589844,4346.410156,4366.410156,4339.358887,4320.000000,4347.307617,4361.538574,4354.615234,4337.307617,4487.307617,4536.153809,4399.871582,4482.436035,0.000000,0.000000,12.000000,,,,0.000000,2.000000,2.000000,0.000000,2.000000,2.000000,2.000000,1.000000,2.000000,4.000000,4.000000,4.000000,4.000000,2.000000,4.000000,25.000000,,,,,,,,,,,,,,,,,13.000000,0.000000,0.630257,0.403687,-0.587524,0.307617,0.959101,0.121109,-0.001953,-73.641632,66.504234,29.940493
1732081868.729013,1732081868.731382,53.000000,0.000000,4403.205078,4355.641113,4345.384766,4361.794922,4338.205078,4317.179688,4347.563965,4363.717773,4358.846191,4340.897461,4488.717773,4540.384766,4401.025879,4480.641113,0.000000,0.000000,12.000000,,,,0.000000,2.000000,2.000000,0.000000,2.000000,2.000000,2.000000,1.000000,2.000000,4.000000,4.000000,4.000000,4.000000,2.000000,4.000000,25.000000,,,,,,,,,,,,,,,,,,,,,,,,,,,,
1732081868.736822,1732081868.738990,54.000000,0.000000,4406.794922,4355.256348,4345.641113,4358.333496,4351.666504,4320.128418,4347.307617,4367.307617,4364.358887,4344.102539,4490.256348,4547.179688,4396.538574,4477.563965,0.000000,0.000000,12.000000,,,,0.000000,2.000000,2.000000,0.000000,2.000000,2.000000,2.000000,1.000000,2.000000,4.000000,4.000000,4.000000,4.000000,2.000000,4.000000,25.000000,,,,,,,,,,,,,,,,,,,,,,,,,,,,
1732081868.744630,1732081868.746798,55.000000,0.000000,4405.512695,4350.000000,4342.307617,4360.000000,4342.692383,4323.077148,4347.820313,4366.025879,4366.666504,4345.769043,4494.102539,4553.333496,4401.025879,4480.256348,0.000000,0.000000,12.000000,,,,0.000000,2.000000,2.000000,0.000000,2.000000,2.000000,2.000000,1.000000,2.000000,4.000000,4.000000,4.000000,4.000000,2.000000,4.000000,25.000000,,,,,,,,,,,,,,,,,,,,,,,,,,,,
1732081868.752438,1732081868.754507,56.000000,0.000000,4406.794922,4347.948730,4341.410156,4366.282227,4326.794922,4324.230957,4346.410156,4365.641113,4366.410156,4345.000000,4497.820313,4556.282227,4405.769043,4485.769043,0.000000,0.000000,12.000000,,,,0.000000,2.000000,2.000000,0.000000,2.000000,2.000000,2.000000,1.000000,2.000000,4.000000,4.000000,4.000000,4.000000,2.000000,4.000000,25.000000,,,,,,,,,,,,,,,,,14.000000,0.000000,0.629130,0.408203,-0.586121,0.306641,0.973263,0.153339,-0.031742,-73.744720,66.690102,29.596800
1732081868.760246,1732081868.762315,57.000000,0.000000,4410.128418,4352.692383,4343.077148,4371.153809,4335.384766,4327.820313,4345.384766,4367.051270,4362.820313,4341.922852,4497.692383,4551.153809,4402.563965,4486.153809,0.000000,0.000000,12.000000,,,,0.000000,2.000000,2.000000,0.000000,2.000000,2.000000,2.000000,1.000000,2.000000,4.000000,4.000000,4.000000,4.000000,2.000000,4.000000,25.000000,,,,,,,,,,,,,,,,,,,,,,,,,,,,
1732081868.768055,1732081868.770323,58.000000,0.000000,4407.307617,4356.922852,4345.256348,4369.102539,4344.358887,4332.179688,4349.358887,4365.897461,4359.230957,4338.589844,4498.205078,4543.974121,4404.487305,4481.794922,0.000000,0.000000,12.000000,,,,0.000000,2.000000,2.000000,0.000000,2.000000,2.000000,2.000000,1.000000,2.000000,4.000000,4.000000,4.000000,4.000000,2.000000,4.000000,25.000000,,,,,,,,,,,,,,,,,,,,,,,,,,,,
1732081868.775863,1732081868.778131,59.000000,0.000000,4399.871582,4352.820313,4346.538574,4364.743652,4342.179688,4335.384766,4354.615234,4368.333496,4360.128418,4339.743652,4499.102539,4544.487305,4409.102539,4476.153809,0.000000,0.000000,12.000000,,,,0.000000,2.000000,2.000000,0.000000,2.000000,2.000000,2.000000,1.000000,2.000000,4.000000,4.000000,4.000000,4.000000,2.000000,4.000000,25.000000,,,,,,,,,,,,,,,,,,,,,,,,,,,,
1732081868.783671,1732081868.786039,60.000000,0.000000,4397.307617,4349.743652,4347.179688,4364.358887,4342.563965,4336.922852,4352.563965,4371.282227,4364.743652,4346.282227,4498.077148,4550.000000,4406.282227,4474.230957,0.000000,0.000000,12.000000,,,,0.000000,2.000000,2.000000,0.000000,2.000000,2.000000,2.000000,1.000000,2.000000,4.000000,4.000000,4.000000,4.000000,2.000000,4.000000,25.000000,,,,,,,,,,,,,,,,,15.000000,0.000000,0.628273,0.411987,-0.585632,0.304260,0.963985,0.143572,-0.043462,-74.004890,66.680649,29.331741
1732081868.791479,1732081868.793847,61.000000,0.000000,4398.205078,4351.538574,4346.282227,4365.512695,4340.000000,4332.692383,4347.948730,4368.589844,4364.230957,4348.077148,4502.692383,4545.128418,4405.897461,4474.102539,0.000000,0.000000,12.000000,,,,0.000000,2.000000,2.000000,0.000000,2.000000,2.000000,2.000000,1.000000,2.000000,4.000000,4.000000,4.000000,4.000000,2.000000,4.000000,25.000000,,,,,,,,,,,,,,,,,,,,,,,,,,,,
1732081868.799288,1732081868.801456,62.000000,0.000000,4396.794922,4351.282227,4346.666504,4368.205078,4337.820313,4331.410156,4347.051270,4365.000000,4362.179688,4345.512695,4503.846191,4542.051270,4410.897461,4473.077148,0.000000,0.000000,12.000000,,,,0.000000,2.000000,2.000000,0.000000,2.000000,2.000000,2.000000,1.000000,2.000000,4.000000,4.000000,4.000000,4.000000,2.000000,4.000000,25.000000,,,,,,,,,,,,,,,,,,,,,,,,,,,,
1732081868.807096,1732081868.809264,63.000000,0.000000,4394.487305,4352.051270,4348.205078,4371.282227,4339.743652,4336.282227,4351.922852,4367.692383,4365.128418,4348.974121,4499.358887,4547.307617,4413.077148,4473.846191,0.000000,0.000000,12.000000,,,,0.000000,2.000000,2.000000,0.000000,2.000000,2.000000,2.000000,1.000000,2.000000,4.000000,4.000000,4.000000,4.000000,2.000000,4.000000,25.000000,,,,,,,,,,,,,,,,,,,,,,,,,,,,
1732081868.814904,1732081868.816972,64.000000,0.000000,4394.871582,4352.436035,4346.410156,4369.230957,4339.871582,4336.922852,4351.410156,4371.282227,4369.487305,4354.230957,4497.436035,4545.000000,4413.717773,4474.871582,0.000000,0.000000,12.000000,,,,0.000000,2.000000,2.000000,0.000000,2.000000,2.000000,2.000000,1.000000,2.000000,4.000000,4.000000,4.000000,4.000000,2.000000,4.000000,25.000000,,,,,,,,,,,,,,,,,16.000000,0.000000,0.628115,0.412903,-0.585632,0.303345,0.963985,0.143572,-0.043462,-74.277290,66.664658,29.167044
1732081868.822713,1732081868.824781,65.000000,0.000000,4392.179688,4349.358887,4344.871582,4363.077148,4349.871582,4330.512695,4345.384766,4368.974121,4370.769043,4354.230957,4496.153809,4537.820313,4414.230957,4473.205078,1285.000000,0.000000,12.000000,,,,0.000000,2.000000,2.000000,0.000000,2.000000,2.000000,2.000000,1.000000,2.000000,4.000000,4.000000,4.000000,4.000000,2.000000,4.000000,25.000000,,,,,,,,,,,,,,,,,,,,,,,,,,,,
1732081868.830521,1732081868.832789,66.000000,0.000000,4389.743652,4350.641113,4342.692383,4363.974121,4351.922852,4328.717773,4342.179688,4366.282227,4369.487305,4355.769043,4500.512695,4538.333496,4411.153809,4472.692383,1202.000000,0.000000,12.000000,,,,0.000000,2.000000,2.000000,0.000000,2.000000,2.000000,2.000000,1.000000,2.000000,4.000000,4.000000,4.000000,4.000000,2.000000,4.000000,25.000000,,,,,,,,,,,,,,,,,,,,,,,,,,,,
1732081868.838329,1732081868.840597,67.000000,0.000000,4394.230957,4354.230957,4343.205078,4369.871582,4336.153809,4334.615234,4344.487305,4365.641113,4368.974121,4354.358887,4506.410156,4540.512695,4409.230957,4475.000000,1160.000000,0.000000,12.000000,,,,0.000000,2.000000,2.000000,0.000000,2.000000,2.000000,2.000000,1.000000,2.000000,4.000000,4.000000,4.000000,4.000000,2.000000,4.000000,25.000000,,,,,,,,,,,,,,,,,,,,,,,,,,,,
1732081868.846137,1732081868.848505,68.000000,0.000000,4394.102539,4352.692383,4343.717773,4370.641113,4334.743652,4338.205078,4344.615234,4365.512695,4370.641113,4348.077148,4497.563965,4532.948730,4409.871582,4473.717773,1187.000000,0.000000,12.000000,,,,0.000000,2.000000,2.000000,0.000000,2.000000,2.000000,2.000000,1.000000,2.000000,4.000000,4.000000,4.000000,4.000000,2.000000,4.000000,25.000000,,,,,,,,,,,,,,,,,17.000000,0.000000,0.628047,0.413635,-0.585693,0.302368,0.932731,0.144061,-0.022952,-74.424606,66.508369,28.986971
1732081868.853946,1732081868.856313,69.000000,0.000000,4386.282227,4351.538574,4344.358887,4367.948730,4344.487305,4338.589844,4345.897461,4366.538574,4369.743652,4345.897461,4486.922852,4526.666504,4407.948730,4469.230957,1062.000000,0.000000,12.000000,,,,0.000000,2.000000,2.000000,0.000000,2.000000,2.000000,2.000000,1.000000,2.000000,4.000000,4.000000,4.000000,4.000000,2.000000,4.000000,25.000000,,,,,,,,,,,,,,,,,,,,,,,,,,,,
1732081868.861754,1732081868.864321,70.000000,0.000000,4389.615234,4355.512695,4343.461426,4370.512695,4341.666504,4337.179688,4347.051270,4367.436035,4366.282227,4347.436035,4494.871582,4532.820313,4407.692383,4469.743652,200.000000,0.000000,12.000000,,,,0.000000,2.000000,2.000000,0.000000,2.000000,2.000000,2.000000,1.000000,2.000000,4.000000,4.000000,4.000000,4.000000,2.000000,4.000000,25.000000,,,,,,,,,,,,,,,,,,,,,,,,,,,,
1732081868.869562,1732081868.872129,71.000000,0.000000,4391.538574,4357.051270,4347.436035,4374.102539,4340.128418,4336.153809,4347.307617,4365.769043,4365.641113,4346.282227,4500.000000,4545.769043,4412.051270,4469.487305,1192.000000,0.000000,12.000000,,,,0.000000,2.000000,2.000000,0.000000,2.000000,2.000000,2.000000,1.000000,2.000000,4.000000,4.000000,4.000000,4.000000,2.000000,4.000000,25.000000,,,,,,,,,,,,,,,,,,,,,,,,,,,,
1732081868.877370,1732081868.880037,72.000000,0.000000,4382.563965,4354.615234,4346.538574,4372.436035,4341.666504,4338.077148,4349.487305,4368.205078,4371.025879,4345.512695,4494.871582,4550.000000,4413.589844,4465.384766,1336.000000,0.000000,12.000000,,,,0.000000,2.000000,2.000000,0.000000,2.000000,2.000000,2.000000,1.000000,2.000000,4.000000,4.000000,4.000000,4.000000,2.000000,4.000000,25.000000,,,,,,,,,,,,,,,,,18.000000,0.000000,0.629593,0.414185,-0.586609,0.296570,0.931266,0.168966,-0.035161,-74.288933,66.341782,28.821114
1732081868.885178,1732081868.887846,73.000000,0.000000,4380.128418,4351.410156,4343.205078,4366.410156,4339.743652,4338.077148,4352.307617,4379.487305,4375.384766,4346.410156,4497.692383,4547.436035,4410.000000,4461.794922,1466.000000,0.000000,12.000000,,,,0.000000,2.000000,2.000000,0.000000,2.000000,2.000000,2.000000,1.000000,2.000000,4.000000,4.000000,4.000000,4.000000,2.000000,4.000000,25.000000,,,,,,,,,,,,,,,,,,,,,,,,,,,,
1732081868.892987,1732081868.895854,74.000000,0.000000,4382.436035,4347.307617,4341.410156,4359.358887,4347.051270,4335.128418,4352.563965,4384.615234,4375.641113,4344.358887,4498.589844,4545.897461,4405.769043,4460.000000,1347.000000,0.000000,12.000000,,,,0.000000,2.000000,2.000000,0.000000,2.000000,2.000000,2.000000,1.000000,2.000000,4.000000,4.000000,4.000000,4.000000,2.000000,4.000000,25.000000,,,,,,,,,,,,,,,,,,,,,,,,,,,,
1732081868.900795,1732081868.903662,75.000000,0.000000,4375.128418,4341.410156,4341.922852,4354.871582,4345.641113,4338.205078,4352.948730,4381.922852,4376.538574,4344.615234,4492.692383,4541.282227,4402.692383,4454.743652,1482.000000,0.000000,12.000000,,,,0.000000,2.000000,2.000000,0.000000,2.000000,2.000000,2.000000,1.000000,2.000000,4.000000,4.000000,4.000000,4.000000,2.000000,4.000000,25.000000,,,,,,,,,,,,,,,,,,,,,,,,,,,,
1732081868.908603,1732081868.911370,76.000000,0.000000,4365.897461,4342.692383,4342.820313,4357.307617,4335.512695,4347.051270,4355.384766,4381.025879,4379.871582,4346.282227,4488.974121,4537.307617,4399.487305,4448.461426,1711.000000,0.000000,12.000000,,,,0.000000,2.000000,2.000000,0.000000,2.000000,2.000000,2.000000,1.000000,2.000000,4.000000,4.000000,4.000000,4.000000,2.000000,4.000000,25.000000,,,,,,,,,,,,,,,,,19.000000,0.000000,0.630196,0.414185,-0.586731,0.295044,0.931266,0.168966,-0.035161,-74.044037,66.371841,28.506769
1732081868.916412,1732081868.919178,77.000000,0.000000,4366.922852,4348.333496,4342.436035,4360.769043,4340.256348,4351.153809,4353.333496,4378.589844,4379.358887,4345.897461,4490.128418,4540.897461,4397.692383,4447.820313,1676.000000,0.000000,12.000000,,,,0.000000,2.000000,2.000000,0.000000,2.000000,2.000000,2.000000,1.000000,2.000000,4.000000,4.000000,4.000000,4.000000,2.000000,4.000000,25.000000,,,,,,,,,,,,,,,,,,,,,,,,,,,,
1732081868.924220,1732081868.927186,78.000000,0.000000,4369.102539,4347.692383,4342.820313,4360.000000,4349.871582,4350.641113,4350.512695,4377.436035,4376.922852,4348.717773,4489.743652,4549.230957,4398.846191,4452.307617,1347.000000,0.000000,12.000000,,,,0.000000,2.000000,2.000000,0.000000,2.000000,2.000000,2.000000,1.000000,2.000000,4.000000,4.000000,4.000000,4.000000,2.000000,4.000000,25.000000,1.000000,25.000000,2.000000,2.000000,0.000000,2.000000,2.000000,2.000000,1.000000,2.000000,4.000000,3.000000,4.000000,4.000000,2.000000,4.000000,,,,,,,,,,,,
1732081868.932028,1732081868.934995,79.000000,0.000000,4372.820313,4346.794922,4345.897461,4361.538574,4349.487305,4349.230957,4347.563965,4378.717773,4376.153809,4348.589844,4489.615234,4553.077148,4402.820313,4457.179688,1482.000000,0.000000,12.000000,,,,0.000000,2.000000,2.000000,0.000000,2.000000,2.000000,2.000000,1.000000,2.000000,4.000000,4.000000,4.000000,4.000000,2.000000,4.000000,25.000000,,,,,,,,,,,,,,,,,,,,,,,,,,,,
1732081868.939836,1732081868.942903,80.000000,0.000000,4380.128418,4351.410156,4350.512695,4365.384766,4340.256348,4342.436035,4347.820313,4376.153809,4372.563965,4343.077148,4491.410156,4554.358887,4401.922852,4459.871582,1711.000000,0.000000,12.000000,,,,0.000000,2.000000,2.000000,0.000000,2.000000,2.000000,2.000000,1.000000,2.000000,4.000000,4.000000,4.000000,4.000000,2.000000,4.000000,25.000000,,,,,,,,,,,,,,,,,20.000000,0.000000,0.632439,0.413696,-0.587036,0.290283,0.963008,0.192895,-0.054206,-74.225670,66.617859,28.790483
1732081868.947645,1732081868.950711,81.000000,0.000000,4381.922852,4353.205078,4349.102539,4361.922852,4335.384766,4333.846191,4348.461426,4372.948730,4367.692383,4341.153809,4489.743652,4554.487305,4398.333496,4457.820313,1676.000000,0.000000,12.000000,,,,0.000000,2.000000,2.000000,0.000000,2.000000,2.000000,2.000000,1.000000,2.000000,4.000000,4.000000,4.000000,4.000000,2.000000,4.000000,25.000000,,,,,,,,,,,,,,,,,,,,,,,,,,,,
1732081868.955453,1732081868.958619,82.000000,0.000000,4378.974121,4350.384766,4347.436035,4357.563965,4346.153809,4332.563965,4350.128418,4377.179688,4367.692383,4342.436035,4486.153809,4554.615234,4395.128418,4452.820313,1347.000000,0.000000,12.000000,,,,0.000000,2.000000,2.000000,0.000000,2.000000,2.000000,2.000000,1.000000,2.000000,4.000000,4.000000,4.000000,4.000000,2.000000,4.000000,25.000000,,,,,,,,,,,,,,,,,,,,,,,,,,,,
1732081868.963261,1732081868.966427,83.000000,0.000000,4376.025879,4352.563965,4346.282227,4364.871582,4354.358887,4340.384766,4352.307617,4382.179688,4372.820313,4343.461426,4486.794922,4555.384766,4393.461426,4450.897461,1482.000000,0.000000,12.000000,,,,0.000000,2.000000,2.000000,0.000000,2.000000,2.000000,2.000000,1.000000,2.000000,4.000000,4.000000,4.000000,4.000000,2.000000,4.000000,25.000000,,,,,,,,,,,,,,,,,,,,,,,,,,,,
1732081868.971069,1732081868.974135,84.000000,0.000000,4372.948730,4354.615234,4348.205078,4369.743652,4341.153809,4349.743652,4355.641113,4382.179688,4375.000000,4346.922852,4487.307617,4552.436035,4394.871582,4452.820313,1711.000000,0.000000,12.000000,,,,0.000000,2.000000,2.000000,0.000000,2.000000,2.000000,2.000000,1.000000,2.000000,4.000000,4.000000,4.000000,4.000000,2.000000,4.000000,25.000000,,,,,,,,,,,,,,,,,21.000000,0.000000,0.634663,0.412720,-0.586914,0.287048,0.974728,0.203638,-0.057136,-74.084457,66.587135,28.906958
1732081868.978878,1732081868.981944,85.000000,0.000000,4370.512695,4354.102539,4349.743652,4364.358887,4339.487305,4351.153809,4355.128418,4381.025879,4371.794922,4348.333496,4482.179688,4543.717773,4395.769043,4453.846191,1676.000000,0.000000,12.000000,,,,0.000000,2.000000,2.000000,0.000000,2.000000,2.000000,2.000000,1.000000,2.000000,4.000000,4.000000,4.000000,4.000000,2.000000,4.000000,25.000000,,,,,,,,,,,,,,,,,,,,,,,,,,,,
1732081868.986686,1732081868.989552,86.000000,0.000000,4371.666504,4356.794922,4351.410156,4362.948730,4351.922852,4346.538574,4352.179688,4379.487305,4370.512695,4344.230957,4478.461426,4536.794922,4395.256348,4451.666504,1347.000000,0.000000,12.000000,,,,0.000000,2.000000,2.000000,0.000000,2.000000,2.000000,2.000000,1.000000,2.000000,4.000000,4.000000,4.000000,4.000000,2.000000,4.000000,25.000000,,,,,,,,,,,,,,,,,,,,,,,,,,,,
1732081868.994494,1732081868.997360,87.000000,0.000000,4372.820313,4357.948730,4351.410156,4367.051270,4345.256348,4345.897461,4351.922852,4380.769043,4372.820313,4347.563965,4482.948730,4540.128418,4395.769043,4450.128418,1482.000000,0.000000,12.000000,,,,0.000000,2.000000,2.000000,0.000000,2.000000,2.000000,2.000000,1.000000,2.000000,4.000000,4.000000,4.000000,4.000000,2.000000,4.000000,25.000000,,,,,,,,,,,,,,,,,,,,,,,,,,,,
1732081869.002303,1732081869.005069,88.000000,0.000000,4370.000000,4355.256348,4350.641113,4364.615234,4343.974121,4348.077148,4351.666504,4382.307617,4374.487305,4353.717773,4486.025879,4541.410156,4397.307617,4450.128418,1711.000000,0.000000,12.000000,,,,0.000000,2.000000,2.000000,0.000000,2.000000,2.000000,2.000000,1.000000,2.000000,4.000000,4.000000,4.000000,4.000000,2.000000,4.000000,25.000000,,,,,,,,,,,,,,,,,22.000000,0.000000,0.635316,0.411072,-0.587036,0.287720,0.986937,0.182151,-0.044927,-73.976746,66.930580,28.889635
1732081869.010111,1732081869.012877,89.000000,0.000000,4372.307617,4353.589844,4348.717773,4361.282227,4358.333496,4344.615234,4349.487305,4380.769043,4373.333496,4349.487305,4486.538574,4538.589844,4397.179688,4453.589844,1676.000000,0.000000,12.000000,,,,0.000000,2.000000,2.000000,0.000000,2.000000,2.000000,2.000000,1.000000,2.000000,4.000000,4.000000,4.000000,4.000000,2.000000,4.000000,25.000000,,,,,,,,,,,,,,,,,,,,,,,,,,,,
1732081869.017919,1732081869.020485,90.000000,0.000000,4376.410156,4354.230957,4350.641113,4362.948730,4350.897461,4337.563965,4347.307617,4380.000000,4371.538574,4344.358887,4484.487305,4541.282227,4397.563965,4454.615234,1347.000000,0.000000,12.000000,,,,0.000000,2.000000,2.000000,0.000000,2.000000,2.000000,2.000000,1.000000,2.000000,4.000000,4.000000,4.000000,4.000000,2.000000,4.000000,25.000000,,,,,,,,,,,,,,,,,,,,,,,,,,,,
1732081869.025727,1732081869.028293,91.000000,0.000000,4374.871582,4355.897461,4353.205078,4362.948730,4333.461426,4340.000000,4349.102539,4381.025879,4372.563965,4348.205078,4485.384766,4537.436035,4399.615234,4449.102539,1482.000000,0.000000,12.000000,,,,0.000000,2.000000,2.000000,0.000000,2.000000,2.000000,2.000000,1.000000,2.000000,4.000000,4.000000,4.000000,4.000000,2.000000,4.000000,25.000000,,,,,,,,,,,,,,,,,,,,,,,,,,,,
1732081869.033535,1732081869.036202,92.000000,0.000000,4370.641113,4358.205078,4350.512695,4362.692383,4339.871582,4349.743652,4352.307617,4382.563965,4375.769043,4353.461426,4486.025879,4530.128418,4398.333496,4447.820313,1711.000000,0.000000,12.000000,,,,0.000000,2.000000,2.000000,0.000000,2.000000,2.000000,2.000000,1.000000,2.000000,4.000000,4.000000,4.000000,4.000000,2.000000,4.000000,25.000000,,,,,,,,,,,,,,,,,23.000000,0.000000,0.635316,0.411072,-0.587036,0.287720,0.979123,0.168966,-0.041509,-74.084496,67.328766,29.025604
1732081869.041344,1732081869.044010,93.000000,0.000000,4363.974121,4354.615234,4350.384766,4362.563965,4353.846191,4352.563965,4355.641113,4383.077148,4378.333496,4353.846191,4483.077148,4529.358887,4394.102539,4446.410156,1676.000000,0.000000,12.000000,,,,0.000000,2.000000,2.000000,0.000000,2.000000,2.000000,2.000000,1.000000,2.000000,4.000000,4.000000,4.000000,4.000000,2.000000,4.000000,25.000000,,,,,,,,,,,,,,,,,,,,,,,,,,,,
1732081869.049152,1732081869.051618,94.000000,0.000000,4361.025879,4349.743652,4349.487305,4361.538574,4348.205078,4348.974121,4355.128418,4384.102539,4377.563965,4352.179688,4484.358887,4529.743652,4393.974121,4443.333496,1347.000000,0.000000,12.000000,,,,0.000000,2.000000,2.000000,0.000000,2.000000,2.000000,2.000000,1.000000,2.000000,4.000000,4.000000,4.000000,4.000000,2.000000,4.000000,25.000000,,,,,,,,,,,,,,,,,,,,,,,,,,,,
1732081869.056960,1732081869.059426,95.000000,0.000000,4365.641113,4350.641113,4345.641113,4361.153809,4345.769043,4346.025879,4353.974121,4384.230957,4372.436035,4350.384766,4485.512695,4528.205078,4396.025879,4442.179688,1482.000000,0.000000,12.000000,,,,0.000000,2.000000,2.000000,0.000000,2.000000,2.000000,2.000000,1.000000,2.000000,4.000000,4.000000,4.000000,4.000000,2.000000,4.000000,25.000000,,,,,,,,,,,,,,,,,,,,,,,,,,,,
1732081869.064768,1732081869.067135,96.000000,0.000000,4367.179688,4351.410156,4346.410156,4361.666504,4359.615234,4343.333496,4353.077148,4379.102539,4369.358887,4349.230957,4480.128418,4532.307617,4393.461426,4441.410156,1711.000000,0.000000,12.000000,,,,0.000000,2.000000,2.000000,0.000000,2.000000,2.000000,2.000000,1.000000,2.000000,4.000000,4.000000,4.000000,4.000000,2.000000,4.000000,25.000000,,,,,,,,,,,,,,,,,24.000000,0.000000,0.635146,0.409912,-0.587341,0.289124,0.967403,0.172873,-0.031254,-74.191772,67.331299,29.235741
1732081869.072577,1732081869.074943,97.000000,0.000000,4360.384766,4350.256348,4350.000000,4360.000000,4357.948730,4341.025879,4352.692383,4375.641113,4371.922852,4350.256348,4480.128418,4534.487305,4391.666504,4440.769043,1676.000000,0.000000,12.000000,,,,0.000000,2.000000,2.000000,0.000000,2.000000,2.000000,2.000000,1.000000,2.000000,4.000000,4.000000,4.000000,4.000000,2.000000,4.000000,25.000000,,,,,,,,,,,,,,,,,,,,,,,,,,,,
1732081869.080385,1732081869.082551,98.000000,0.000000,4357.692383,4353.333496,4348.077148,4358.205078,4340.641113,4345.384766,4349.230957,4378.717773,4375.128418,4353.333496,4488.077148,4529.358887,4394.487305,4442.692383,1347.000000,0.000000,12.000000,,,,0.000000,2.000000,2.000000,0.000000,2.000000,2.000000,2.000000,1.000000,2.000000,4.000000,4.000000,4.000000,4.000000,2.000000,4.000000,25.000000,,,,,,,,,,,,,,,,,,,,,,,,,,,,
1732081869.088193,1732081869.090359,99.000000,0.000000,4360.769043,4354.358887,4349.102539,4359.871582,4338.461426,4348.205078,4345.897461,4382.820313,4374.871582,4352.436035,4489.230957,4528.717773,4397.436035,4446.153809,1482.000000,0.000000,12.000000,,,,0.000000,2.000000,2.000000,0.000000,2.000000,2.000000,2.000000,1.000000,2.000000,4.000000,4.000000,4.000000,4.000000,2.000000,4.000000,25.000000,,,,,,,,,,,,,,,,,,,,,,,,,,,,
1732081869.096002,1732081869.098068,100.000000,0.000000,4360.384766,4351.794922,4349.871582,4359.615234,4354.743652,4343.461426,4345.512695,4381.538574,4372.692383,4346.025879,4485.256348,4526.153809,4398.846191,4445.384766,1711.000000,0.000000,12.000000,,,,0.000000,2.000000,2.000000,0.000000,2.000000,2.000000,2.000000,1.000000,2.000000,4.000000,4.000000,4.000000,4.000000,2.000000,4.000000,25.000000,,,,,,,,,,,,,,,,,25.000000,0.000000,0.635348,0.407288,-0.588074,0.290894,0.969357,0.170431,-0.021975,-74.050339,67.253357,29.230949
1732081869.103810,1732081869.105876,101.000000,0.000000,4358.205078,4352.051270,4347.179688,4355.256348,4361.410156,4338.461426,4348.589844,4379.487305,4368.974121,4342.948730,4487.436035,4521.794922,4395.256348,4441.538574,1676.000000,0.000000,12.000000,,,,0.000000,2.000000,2.000000,0.000000,2.000000,2.000000,2.000000,1.000000,2.000000,4.000000,4.000000,4.000000,4.000000,2.000000,4.000000,25.000000,,,,,,,,,,,,,,,,,,,,,,,,,,,,
1732081869.111618,1732081869.113484,102.000000,0.000000,4359.615234,4350.512695,4347.307617,4357.307617,4350.512695,4342.436035,4348.717773,4380.641113,4370.000000,4346.794922,4491.153809,4524.358887,4392.820313,4441.282227,1347.000000,0.000000,12.000000,,,,0.000000,2.000000,2.000000,0.000000,2.000000,2.000000,2.000000,1.000000,2.000000,4.000000,4.000000,4.000000,4.000000,2.000000,4.000000,25.000000,,,,,,,,,,,,,,,,,,,,,,,,,,,,
1732081869.119426,1732081869.121293,103.000000,0.000000,4362.692383,4348.589844,4351.282227,4364.487305,4346.666504,4350.897461,4347.692383,4382.820313,4376.410156,4348.077148,4493.717773,4525.897461,4396.922852,4443.717773,1482.000000,0.000000,12.000000,,,,0.000000,2.000000,2.000000,0.000000,2.000000,2.000000,2.000000,1.000000,2.000000,4.000000,4.000000,4.000000,4.000000,2.000000,4.000000,25.000000,,,,,,,,,,,,,,,,,,,,,,,,,,,,
1732081869.127235,1732081869.129001,104.000000,0.000000,4362.436035,4349.230957,4349.487305,4364.487305,4354.358887,4350.769043,4349.102539,4384.358887,4376.282227,4345.256348,4489.615234,4523.589844,4393.846191,4443.077148,1711.000000,0.000000,12.000000,,,,0.000000,2.000000,2.000000,0.000000,2.000000,2.000000,2.000000,1.000000,2.000000,4.000000,4.000000,4.000000,4.000000,2.000000,4.000000,25.000000,,,,,,,,,,,,,,,,,26.000000,0.000000,0.635532,0.406738,-0.588135,0.291138,0.964473,0.170431,-0.016115,-73.955772,67.138550,29.192068
1732081869.135043,1732081869.136809,105.000000,0.000000,4359.230957,4348.461426,4348.333496,4359.102539,4358.846191,4348.846191,4346.153809,4379.358887,4369.230957,4344.871582,4487.051270,4522.436035,4384.358887,4438.846191,1676.000000,0.000000,12.000000,,,,0.000000,2.000000,2.000000,0.000000,2.000000,2.000000,2.000000,1.000000,2.000000,4.000000,4.000000,4.000000,4.000000,2.000000,4.000000,25.000000,,,,,,,,,,,,,,,,,,,,,,,,,,,,
1732081869.142851,1732081869.144418,106.000000,0.000000,4360.256348,4348.077148,4352.051270,4358.333496,4352.307617,4354.230957,4344.358887,4376.538574,4370.128418,4346.282227,4491.410156,4524.230957,4388.461426,4438.974121,1347.000000,0.000000,12.000000,,,,0.000000,2.000000,2.000000,0.000000,2.000000,2.000000,2.000000,1.000000,2.000000,4.000000,4.000000,4.000000,4.000000,2.000000,4.000000,25.000000,,,,,,,,,,,,,,,,,,,,,,,,,,,,
1732081869.150659,1732081869.152226,107.000000,0.000000,4360.769043,4349.358887,4350.897461,4360.769043,4352.436035,4353.461426,4348.589844,4380.000000,4375.384766,4347.563965,4494.487305,4524.487305,4396.538574,4440.000000,1482.000000,0.000000,12.000000,,,,0.000000,2.000000,2.000000,0.000000,2.000000,2.000000,2.000000,1.000000,2.000000,4.000000,4.000000,4.000000,4.000000,2.000000,4.000000,25.000000,,,,,,,,,,,,,,,,,,,,,,,,,,,,
1732081869.158468,1732081869.159934,108.000000,0.000000,4356.410156,4348.461426,4346.666504,4359.230957,4365.897461,4343.974121,4350.128418,4381.410156,4372.436035,4347.563965,4488.974121,4527.051270,4389.615234,4435.512695,1711.000000,0.000000,12.000000,,,,0.000000,2.000000,2.000000,0.000000,2.000000,2.000000,2.000000,1.000000,2.000000,4.000000,4.000000,4.000000,4.000000,2.000000,4.000000,25.000000,,,,,,,,,,,,,,,,,27.000000,0.000000,0.636043,0.406250,-0.587708,0.291565,0.959590,0.175314,-0.024417,-74.027512,67.365562,29.123909
1732081869.166276,1732081869.167742,109.000000,0.000000,4353.205078,4345.128418,4345.128418,4355.641113,4364.487305,4345.897461,4345.256348,4380.000000,4370.769043,4346.666504,4486.794922,4528.333496,4382.563965,4430.512695,1676.000000,0.000000,12.000000,,,,0.000000,2.000000,2.000000,0.000000,2.000000,2.000000,2.000000,1.000000,2.000000,4.000000,4.000000,4.000000,4.000000,2.000000,4.000000,25.000000,,,,,,,,,,,,,,,,,,,,,,,,,,,,
1732081869.174084,1732081869.175351,110.000000,0.000000,4350.769043,4346.153809,4345.256348,4353.846191,4346.666504,4353.205078,4345.769043,4382.820313,4374.615234,4345.256348,4489.743652,4524.871582,4388.205078,4429.871582,1347.000000,0.000000,12.000000,,,,0.000000,2.000000,2.000000,0.000000,2.000000,2.000000,2.000000,1.000000,2.000000,4.000000,4.000000,4.000000,4.000000,2.000000,4.000000,25.000000,,,,,,,,,,,,,,,,,,,,,,,,,,,,
1732081869.181892,1732081869.183159,111.000000,0.000000,4347.051270,4346.025879,4344.487305,4353.717773,4341.666504,4346.794922,4345.256348,4387.692383,4376.666504,4346.410156,4488.461426,4521.922852,4393.333496,4435.769043,1482.000000,0.000000,12.000000,,,,0.000000,2.000000,2.000000,0.000000,2.000000,2.000000,2.000000,1.000000,2.000000,4.000000,4.000000,4.000000,4.000000,2.000000,4.000000,25.000000,,,,,,,,,,,,,,,,,,,,,,,,,,,,
1732081869.189700,1732081869.191067,112.000000,0.000000,4346.922852,4344.487305,4345.000000,4351.410156,4351.538574,4341.025879,4345.256348,4385.641113,4375.384766,4348.461426,4490.256348,4523.205078,4392.436035,4439.743652,1711.000000,0.000000,12.000000,,,,0.000000,2.000000,2.000000,0.000000,2.000000,2.000000,2.000000,1.000000,2.000000,4.000000,4.000000,4.000000,4.000000,2.000000,4.000000,25.000000,,,,,,,,,,,,,,,,,28.000000,0.000000,0.637585,0.405640,-0.586609,0.291260,0.971798,0.159687,-0.008790,-74.182281,67.317772,29.260366
1732081869.197509,1732081869.198875,113.000000,0.000000,4348.589844,4344.615234,4343.589844,4351.538574,4354.743652,4346.666504,4349.102539,4382.307617,4374.743652,4348.589844,4489.871582,4525.000000,4391.538574,4435.769043,1676.000000,0.000000,12.000000,,,,0.000000,2.000000,2.000000,0.000000,2.000000,2.000000,2.000000,1.000000,2.000000,4.000000,4.000000,4.000000,4.000000,2.000000,4.000000,25.000000,,,,,,,,,,,,,,,,,,,,,,,,,,,,
1732081869.205317,1732081869.206484,114.000000,0.000000,4345.000000,4343.333496,4343.846191,4354.615234,4350.641113,4352.051270,4352.563965,4383.974121,4373.589844,4347.436035,4480.512695,4522.051270,4390.384766,4431.153809,1347.000000,0.000000,12.000000,,,,0.000000,2.000000,2.000000,0.000000,2.000000,2.000000,2.000000,1.000000,2.000000,4.000000,4.000000,4.000000,4.000000,2.000000,4.000000,25.000000,,,,,,,,,,,,,,,,,,,,,,,,,,,,
1732081869.213125,1732081869.214292,115.000000,0.000000,4343.974121,4344.871582,4346.025879,4353.974121,4351.410156,4351.410156,4349.102539,4382.948730,4372.692383,4347.179688,4481.922852,4519.871582,4390.769043,4430.512695,1482.000000,0.000000,12.000000,,,,0.000000,2.000000,2.000000,0.000000,2.000000,2.000000,2.000000,1.000000,2.000000,4.000000,4.000000,4.000000,4.000000,2.000000,4.000000,25.000000,,,,,,,,,,,,,,,,,,,,,,,,,,,,
1732081869.220934,1732081869.222000,116.000000,0.000000,4346.025879,4346.410156,4348.589844,4350.641113,4363.333496,4345.256348,4346.794922,4377.179688,4371.538574,4346.025879,4486.282227,4521.538574,4390.897461,4430.512695,1711.000000,0.000000,12.000000,,,,0.000000,2.000000,2.000000,0.000000,2.000000,2.000000,2.000000,1.000000,2.000000,4.000000,4.000000,4.000000,4.000000,2.000000,4.000000,25.000000,,,,,,,,,,,,,,,,,29.000000,0.000000,0.638455,0.405151,-0.586060,0.291138,0.958125,0.163106,-0.007325,-74.154320,67.334061,29.350897
1732081869.228742,1732081869.229808,117.000000,0.000000,4345.256348,4345.769043,4347.051270,4353.461426,4368.077148,4343.077148,4347.307617,4377.436035,4370.512695,4346.025879,4477.051270,4521.922852,4387.436035,4430.384766,1676.000000,0.000000,12.000000,,,,0.000000,2.000000,2.000000,0.000000,2.000000,2.000000,2.000000,1.000000,2.000000,4.000000,4.000000,4.000000,4.000000,2.000000,4.000000,25.000000,,,,,,,,,,,,,,,,,,,,,,,,,,,,
1732081869.236550,1732081869.237816,118.000000,0.000000,4344.871582,4347.692383,4346.153809,4360.384766,4349.102539,4349.230957,4348.461426,4383.205078,4373.077148,4347.179688,4471.410156,4522.179688,4384.358887,4431.410156,1347.000000,0.000000,12.000000,,,,0.000000,2.000000,2.000000,0.000000,2.000000,2.000000,2.000000,1.000000,2.000000,4.000000,4.000000,4.000000,4.000000,2.000000,4.000000,25.000000,,,,,,,,,,,,,,,,,,,,,,,,,,,,
1732081869.244358,1732081869.245625,119.000000,0.000000,4346.282227,4351.282227,4346.410156,4360.384766,4347.307617,4351.922852,4348.846191,4383.077148,4373.205078,4345.000000,4476.025879,4521.794922,4382.436035,4428.717773,1482.000000,0.000000,12.000000,,,,0.000000,2.000000,2.000000,0.000000,2.000000,2.000000,2.000000,1.000000,2.000000,4.000000,4.000000,4.000000,4.000000,2.000000,4.000000,25.000000,,,,,,,,,,,,,,,,,,,,,,,,,,,,
1732081869.252167,1732081869.253533,120.000000,0.000000,4347.820313,4349.102539,4348.461426,4353.846191,4366.153809,4347.692383,4347.820313,4381.410156,4369.615234,4342.307617,4476.282227,4518.846191,4382.692383,4428.717773,1711.000000,0.000000,12.000000,,,,0.000000,2.000000,2.000000,0.000000,2.000000,2.000000,2.000000,1.000000,2.000000,4.000000,4.000000,4.000000,4.000000,2.000000,4.000000,25.000000,,,,,,,,,,,,,,,,,30.000000,0.000000,0.638695,0.404907,-0.585938,0.291199,0.979612,0.163594,-0.000488,-74.061661,67.238922,29.379227
1732081869.259975,1732081869.261341,121.000000,0.000000,4347.692383,4345.769043,4347.692383,4356.282227,4357.948730,4347.820313,4348.717773,4382.692383,4371.025879,4344.743652,4475.641113,4519.230957,4382.692383,4431.538574,1676.000000,0.000000,12.000000,,,,0.000000,2.000000,2.000000,0.000000,2.000000,2.000000,2.000000,1.000000,2.000000,4.000000,4.000000,4.000000,4.000000,2.000000,4.000000,25.000000,,,,,,,,,,,,,,,,,,,,,,,,,,,,
1732081869.267783,1732081869.269349,122.000000,0.000000,4343.461426,4346.282227,4346.922852,4361.410156,4344.358887,4351.922852,4346.666504,4383.589844,4374.230957,4346.922852,4478.589844,4522.820313,4382.820313,4431.025879,1347.000000,0.000000,12.000000,,,,0.000000,2.000000,2.000000,0.000000,2.000000,2.000000,2.000000,1.000000,2.000000,4.000000,4.000000,4.000000,4.000000,2.000000,4.000000,25.000000,,,,,,,,,,,,,,,,,,,,,,,,,,,,
1732081869.275591,1732081869.277157,123.000000,0.000000,4340.897461,4344.230957,4349.230957,4355.512695,4351.538574,4350.000000,4343.077148,4383.077148,4369.358887,4342.436035,4475.000000,4523.589844,4382.436035,4430.641113,1482.000000,0.000000,12.000000,,,,0.000000,2.000000,2.000000,0.000000,2.000000,2.000000,2.000000,1.000000,2.000000,4.000000,4.000000,4.000000,4.000000,2.000000,4.000000,25.000000,,,,,,,,,,,,,,,,,,,,,,,,,,,,
1732081869.283400,1732081869.285065,124.000000,0.000000,4342.307617,4341.538574,4348.461426,4350.641113,4351.282227,4348.333496,4344.871582,4380.769043,4363.589844,4337.051270,4472.307617,4521.666504,4378.974121,4429.743652,1711.000000,0.000000,12.000000,,,,0.000000,2.000000,2.000000,0.000000,2.000000,2.000000,2.000000,1.000000,2.000000,4.000000,4.000000,4.000000,4.000000,2.000000,4.000000,25.000000,,,,,,,,,,,,,,,,,31.000000,0.000000,0.638865,0.404419,-0.585938,0.291504,0.969845,0.163106,-0.002930,-74.013283,67.321861,29.400507
1732081869.291208,1732081869.292873,125.000000,0.000000,4339.230957,4341.153809,4346.922852,4354.743652,4355.897461,4350.641113,4348.589844,4377.948730,4365.641113,4336.538574,4472.436035,4519.102539,4373.974121,4423.717773,1676.000000,0.000000,12.000000,,,,0.000000,2.000000,2.000000,0.000000,2.000000,2.000000,2.000000,1.000000,2.000000,4.000000,4.000000,4.000000,4.000000,2.000000,4.000000,25.000000,,,,,,,,,,,,,,,,,,,,,,,,,,,,
1732081869.299016,1732081869.300881,126.000000,0.000000,4336.922852,4340.769043,4347.436035,4354.615234,4366.538574,4346.794922,4344.487305,4379.487305,4370.384766,4340.128418,4472.436035,4522.051270,4371.794922,4422.563965,1347.000000,0.000000,12.000000,,,,0.000000,2.000000,2.000000,0.000000,2.000000,2.000000,2.000000,1.000000,2.000000,4.000000,4.000000,4.000000,4.000000,2.000000,4.000000,25.000000,,,,,,,,,,,,,,,,,,,,,,,,,,,,
1732081869.306825,1732081869.308690,127.000000,0.000000,4340.000000,4338.974121,4348.846191,4348.974121,4353.589844,4342.692383,4344.102539,4382.692383,4369.358887,4341.538574,4473.205078,4529.102539,4372.051270,4428.846191,12.000000,0.000000,12.000000,,,,0.000000,2.000000,2.000000,0.000000,2.000000,2.000000,2.000000,1.000000,2.000000,4.000000,4.000000,4.000000,4.000000,2.000000,4.000000,25.000000,,,,,,,,,,,,,,,,,,,,,,,,,,,,
1732081869.314633,1732081869.316598,0.000000,0.000000,4337.692383,4336.794922,4347.051270,4350.512695,4339.487305,4349.871582,4351.282227,4383.333496,4368.589844,4338.205078,4473.205078,4527.051270,4370.000000,4428.974121,0.000000,0.000000,12.000000,,,,0.000000,2.000000,2.000000,0.000000,2.000000,2.000000,2.000000,1.000000,2.000000,4.000000,4.000000,4.000000,4.000000,2.000000,4.000000,25.000000,,,,,,,,,,,,,,,,,0.000000,0.000000,0.638517,0.403687,-0.586365,0.292419,0.970333,0.165548,-0.008790,-74.074089,67.349037,29.367744
1732081869.322441,1732081869.324406,1.000000,0.000000,4333.717773,4336.153809,4347.948730,4353.077148,4347.563965,4357.179688,4353.205078,4382.179688,4371.922852,4337.179688,4473.461426,4521.410156,4368.461426,4424.871582,1282.000000,0.000000,12.000000,,,,0.000000,2.000000,2.000000,0.000000,2.000000,2.000000,2.000000,1.000000,2.000000,4.000000,4.000000,4.000000,4.000000,2.000000,4.000000,25.000000,,,,,,,,,,,,,,,,,,,,,,,,,,,,
1732081869.330249,1732081869.332414,2.000000,0.000000,4338.333496,4339.743652,4349.358887,4348.589844,4360.512695,4349.487305,4346.410156,4381.410156,4374.102539,4342.436035,4474.871582,4522.948730,4373.333496,4430.384766,1209.000000,0.000000,12.000000,,,,0.000000,2.000000,2.000000,0.000000,2.000000,2.000000,2.000000,1.000000,2.000000,4.000000,4.000000,4.000000,4.000000,2.000000,4.000000,25.000000,,,,,,,,,,,,,,,,,,,,,,,,,,,,
1732081869.338057,1732081869.340222,3.000000,0.000000,4339.615234,4340.000000,4349.743652,4344.743652,4356.153809,4342.820313,4346.666504,4381.282227,4372.307617,4347.820313,4477.307617,4524.743652,4378.333496,4437.307617,1160.000000,0.000000,12.000000,,,,0.000000,2.000000,2.000000,0.000000,2.000000,2.000000,2.000000,1.000000,2.000000,4.000000,4.000000,4.000000,4.000000,2.000000,4.000000,25.000000,,,,,,,,,,,,,,,,,,,,,,,,,,,,
1732081869.345866,1732081869.348130,4.000000,0.000000,4337.051270,4337.692383,4350.512695,4347.948730,4344.743652,4348.077148,4351.538574,4381.410156,4371.538574,4347.051270,4477.948730,4522.179688,4378.717773,4433.333496,1192.000000,0.000000,12.000000,,,,0.000000,2.000000,2.000000,0.000000,2.000000,2.000000,2.000000,1.000000,2.000000,4.000000,4.000000,4.000000,4.000000,2.000000,4.000000,25.000000,,,,,,,,,,,,,,,,,1.000000,0.000000,0.638392,0.403442,-0.586548,0.292664,0.966915,0.169454,-0.009767,-74.256683,67.104385,29.391207
1732081869.353674,1732081869.355938,5.000000,0.000000,4340.384766,4339.487305,4352.436035,4352.436035,4341.794922,4351.025879,4352.820313,4381.794922,4373.333496,4342.820313,4476.666504,4523.077148,4378.846191,4428.333496,1062.000000,0.000000,12.000000,,,,0.000000,2.000000,2.000000,0.000000,2.000000,2.000000,2.000000,1.000000,2.000000,4.000000,4.000000,4.000000,4.000000,2.000000,4.000000,25.000000,,,,,,,,,,,,,,,,,,,,,,,,,,,,
1732081869.361482,1732081869.363647,6.000000,0.000000,4341.410156,4341.025879,4347.948730,4349.743652,4355.256348,4349.871582,4350.897461,4382.307617,4373.333496,4341.666504,4476.666504,4525.769043,4379.743652,4430.769043,202.000000,0.000000,12.000000,,,,0.000000,2.000000,2.000000,0.000000,2.000000,2.000000,2.000000,1.000000,2.000000,4.000000,4.000000,4.000000,4.000000,2.000000,4.000000,25.000000,,,,,,,,,,,,,,,,,,,,,,,,,,,,
1732081869.369290,1732081869.371455,7.000000,0.000000,4335.384766,4339.743652,4345.384766,4343.333496,4370.512695,4349.615234,4350.384766,4382.051270,4369.615234,4343.974121,4477.179688,4523.974121,4378.077148,4430.384766,1192.000000,0.000000,12.000000,,,,0.000000,2.000000,2.000000,0.000000,2.000000,2.000000,2.000000,1.000000,2.000000,4.000000,4.000000,4.000000,4.000000,2.000000,4.000000,25.000000,,,,,,,,,,,,,,,,,,,,,,,,,,,,
1732081869.377099,1732081869.379163,8.000000,0.000000,4332.948730,4339.358887,4348.333496,4342.948730,4358.974121,4350.769043,4351.282227,4382.179688,4366.794922,4345.128418,4476.666504,4521.666504,4375.769043,4422.948730,1336.000000,0.000000,12.000000,,,,0.000000,2.000000,2.000000,0.000000,2.000000,2.000000,2.000000,1.000000,2.000000,4.000000,4.000000,4.000000,4.000000,2.000000,4.000000,25.000000,,,,,,,,,,,,,,,,,2.000000,0.000000,0.638045,0.403503,-0.586426,0.293579,0.951288,0.162129,-0.023440,-74.439575,67.194557,29.336876
1732081869.384907,1732081869.386972,9.000000,0.000000,4332.307617,4339.743652,4347.563965,4347.948730,4346.282227,4352.051270,4349.487305,4382.307617,4367.820313,4344.615234,4472.820313,4519.871582,4372.948730,4415.512695,1466.000000,0.000000,12.000000,,,,0.000000,2.000000,2.000000,0.000000,2.000000,2.000000,2.000000,1.000000,2.000000,4.000000,4.000000,4.000000,4.000000,2.000000,4.000000,25.000000,,,,,,,,,,,,,,,,,,,,,,,,,,,,
1732081869.392715,1732081869.394580,10.000000,0.000000,4328.589844,4338.717773,4345.256348,4347.051270,4359.102539,4350.128418,4348.717773,4380.897461,4367.820313,4345.000000,4471.153809,4518.589844,4369.743652,4416.025879,1351.000000,0.000000,12.000000,,,,0.000000,2.000000,2.000000,0.000000,2.000000,2.000000,2.000000,1.000000,2.000000,4.000000,4.000000,4.000000,4.000000,2.000000,4.000000,25.000000,,,,,,,,,,,,,,,,,,,,,,,,,,,,
1732081869.400524,1732081869.402388,11.000000,0.000000,4329.487305,4338.717773,4346.282227,4345.512695,4359.487305,4348.717773,4349.358887,4380.256348,4366.922852,4346.922852,4471.153809,4519.358887,4373.205078,4425.256348,1487.000000,0.000000,12.000000,,,,0.000000,2.000000,2.000000,0.000000,2.000000,2.000000,2.000000,1.000000,2.000000,4.000000,4.000000,4.000000,4.000000,2.000000,4.000000,25.000000,,,,,,,,,,,,,,,,,,,,,,,,,,,,
1732081869.408332,1732081869.410096,12.000000,0.000000,4332.563965,4340.256348,4346.025879,4351.410156,4342.051270,4352.179688,4349.871582,4383.077148,4368.205078,4346.666504,4468.846191,4523.205078,4375.256348,4425.256348,1715.000000,0.000000,12.000000,,,,0.000000,2.000000,2.000000,0.000000,2.000000,2.000000,2.000000,1.000000,2.000000,4.000000,4.000000,4.000000,4.000000,2.000000,4.000000,25.000000,,,,,,,,,,,,,,,,,3.000000,0.000000,0.637932,0.403503,-0.586182,0.294312,0.970333,0.157246,-0.005860,-74.509392,67.192589,29.509537
1732081869.416140,1732081869.417905,13.000000,0.000000,4327.692383,4340.128418,4343.974121,4354.487305,4355.000000,4350.769043,4347.692383,4380.897461,4370.256348,4344.487305,4464.871582,4524.230957,4368.205078,4411.538574,1680.000000,0.000000,12.000000,,,,0.000000,2.000000,2.000000,0.000000,2.000000,2.000000,2.000000,1.000000,2.000000,4.000000,4.000000,4.000000,4.000000,2.000000,4.000000,25.000000,,,,,,,,,,,,,,,,,,,,,,,,,,,,
1732081869.423948,1732081869.425513,14.000000,0.000000,4325.512695,4338.461426,4345.512695,4350.512695,4368.205078,4344.358887,4347.307617,4375.641113,4368.461426,4342.051270,4464.102539,4518.205078,4367.436035,4410.128418,1351.000000,0.000000,12.000000,,,,0.000000,2.000000,2.000000,0.000000,2.000000,2.000000,2.000000,1.000000,2.000000,4.000000,4.000000,4.000000,4.000000,2.000000,4.000000,25.000000,1.000000,25.000000,2.000000,2.000000,0.000000,2.000000,2.000000,2.000000,1.000000,2.000000,4.000000,4.000000,4.000000,4.000000,2.000000,4.000000,,,,,,,,,,,,
1732081869.431757,1732081869.433321,15.000000,0.000000,4327.307617,4335.769043,4344.871582,4351.025879,4346.538574,4348.589844,4348.589844,4377.820313,4367.692383,4341.282227,4465.256348,4518.077148,4371.410156,4421.666504,1487.000000,0.000000,12.000000,,,,0.000000,2.000000,2.000000,0.000000,2.000000,2.000000,2.000000,1.000000,2.000000,4.000000,4.000000,4.000000,4.000000,2.000000,4.000000,25.000000,,,,,,,,,,,,,,,,,,,,,,,,,,,,
1732081869.439565,1732081869.441030,16.000000,0.000000,4325.384766,4338.333496,4344.102539,4354.871582,4344.615234,4354.487305,4348.717773,4383.077148,4369.743652,4339.230957,4463.717773,4518.846191,4368.974121,4422.563965,0.000000,0.000000,12.000000,,,,0.000000,2.000000,2.000000,0.000000,2.000000,2.000000,2.000000,1.000000,2.000000,4.000000,4.000000,4.000000,4.000000,2.000000,4.000000,25.000000,,,,,,,,,,,,,,,,,4.000000,0.000000,0.638049,0.403625,-0.585632,0.294983,0.977658,0.148944,0.001465,-74.632607,67.240997,29.582726
1732081869.447373,1732081869.448838,17.000000,0.000000,4326.282227,4344.230957,4343.717773,4354.743652,4363.717773,4350.384766,4346.410156,4381.153809,4370.256348,4337.307617,4463.461426,4509.487305,4371.282227,4415.769043,0.000000,0.000000,12.000000,,,,0.000000,2.000000,2.000000,0.000000,2.000000,2.000000,2.000000,1.000000,2.000000,4.000000,4.000000,4.000000,4.000000,2.000000,4.000000,25.000000,,,,,,,,,,,,,,,,,,,,,,,,,,,,
1732081869.455181,1732081869.456446,18.000000,0.000000,4325.384766,4342.307617,4343.717773,4354.230957,4360.512695,4349.615234,4347.179688,4379.230957,4369.615234,4340.000000,4463.846191,4503.333496,4374.615234,4413.589844,0.000000,0.000000,12.000000,,,,0.000000,2.000000,2.000000,0.000000,2.000000,2.000000,2.000000,1.000000,2.000000,4.000000,4.000000,4.000000,4.000000,2.000000,4.000000,25.000000,,,,,,,,,,,,,,,,,,,,,,,,,,,,
1732081869.462990,1732081869.464254,19.000000,0.000000,4320.769043,4338.717773,4342.948730,4354.102539,4360.897461,4352.179688,4347.307617,4380.000000,4368.461426,4340.384766,4461.153809,4509.871582,4367.692383,4413.205078,0.000000,0.000000,12.000000,,,,0.000000,2.000000,2.000000,0.000000,2.000000,2.000000,2.000000,1.000000,2.000000,4.000000,4.000000,4.000000,4.000000,2.000000,4.000000,25.000000,,,,,,,,,,,,,,,,,,,,,,,,,,,,
1732081869.470798,1732081869.471963,20.000000,0.000000,4323.077148,4340.256348,4346.153809,4353.077148,4372.692383,4348.717773,4346.410156,4376.282227,4364.358887,4336.025879,4456.794922,4511.153809,4362.179688,4411.153809,0.000000,0.000000,12.000000,,,,0.000000,2.000000,2.000000,0.000000,2.000000,2.000000,2.000000,1.000000,2.000000,4.000000,4.000000,4.000000,4.000000,2.000000,4.000000,25.000000,,,,,,,,,,,,,,,,,5.000000,0.000000,0.638076,0.403625,-0.585449,0.295288,0.959101,0.137712,-0.003907,-74.829079,67.290207,29.535341
1732081869.478606,1732081869.479771,21.000000,0.000000,4326.922852,4343.846191,4348.717773,4352.692383,4360.384766,4348.333496,4345.384766,4373.077148,4361.538574,4336.282227,4457.692383,4506.282227,4367.436035,4411.153809,0.000000,0.000000,12.000000,,,,0.000000,2.000000,2.000000,0.000000,2.000000,2.000000,2.000000,1.000000,2.000000,4.000000,4.000000,4.000000,4.000000,2.000000,4.000000,25.000000,,,,,,,,,,,,,,,,,,,,,,,,,,,,
1732081869.486414,1732081869.487379,22.000000,0.000000,4322.051270,4339.230957,4347.948730,4351.282227,4349.230957,4351.794922,4346.282227,4373.717773,4363.333496,4336.794922,4462.436035,4507.692383,4367.820313,4407.820313,0.000000,0.000000,12.000000,,,,0.000000,2.000000,2.000000,0.000000,2.000000,2.000000,2.000000,1.000000,2.000000,4.000000,4.000000,4.000000,4.000000,2.000000,4.000000,25.000000,,,,,,,,,,,,,,,,,,,,,,,,,,,,
1732081869.494223,1732081869.495188,23.000000,0.000000,4322.692383,4330.256348,4345.641113,4351.410156,4360.000000,4350.256348,4345.897461,4371.282227,4365.000000,4334.102539,4460.128418,4503.461426,4359.230957,4403.846191,0.000000,0.000000,12.000000,,,,0.000000,2.000000,2.000000,0.000000,2.000000,2.000000,2.000000,1.000000,2.000000,4.000000,4.000000,4.000000,4.000000,2.000000,4.000000,25.000000,,,,,,,,,,,,,,,,,,,,,,,,,,,,
1732081869.502031,1732081869.502896,24.000000,0.000000,4327.820313,4333.077148,4347.948730,4351.153809,4356.666504,4349.615234,4346.666504,4370.512695,4362.179688,4335.641113,4456.410156,4496.153809,4356.794922,4407.563965,0.000000,0.000000,12.000000,,,,0.000000,2.000000,2.000000,0.000000,2.000000,2.000000,2.000000,1.000000,2.000000,4.000000,4.000000,4.000000,4.000000,2.000000,4.000000,25.000000,,,,,,,,,,,,,,,,,6.000000,0.000000,0.638453,0.402893,-0.585327,0.295715,0.964473,0.131364,-0.016115,-74.544884,66.981735,29.655293
1732081869.509839,1732081869.510704,25.000000,0.000000,4321.025879,4337.307617,4349.487305,4347.563965,4342.307617,4351.282227,4347.948730,4375.897461,4362.307617,4336.025879,4457.948730,4495.384766,4360.384766,4409.487305,0.000000,0.000000,12.000000,,,,0.000000,2.000000,2.000000,0.000000,2.000000,2.000000,2.000000,1.000000,2.000000,4.000000,4.000000,4.000000,4.000000,2.000000,4.000000,25.000000,,,,,,,,,,,,,,,,,,,,,,,,,,,,
1732081869.517647,1732081869.518313,26.000000,0.000000,4314.230957,4331.025879,4345.512695,4341.794922,4348.205078,4349.487305,4345.384766,4375.769043,4363.717773,4333.205078,4460.384766,4500.000000,4358.846191,4401.410156,0.000000,0.000000,12.000000,,,,0.000000,2.000000,2.000000,0.000000,2.000000,2.000000,2.000000,1.000000,2.000000,4.000000,4.000000,4.000000,4.000000,2.000000,4.000000,25.000000,,,,,,,,,,,,,,,,,,,,,,,,,,,,
1732081869.525456,1732081869.526121,27.000000,0.000000,4317.563965,4327.307617,4345.128418,4342.051270,4352.948730,4350.384766,4348.205078,4373.077148,4362.563965,4333.205078,4459.230957,4503.077148,4353.077148,4397.692383,0.000000,0.000000,12.000000,,,,0.000000,2.000000,2.000000,0.000000,2.000000,2.000000,2.000000,1.000000,2.000000,4.000000,4.000000,4.000000,4.000000,2.000000,4.000000,25.000000,,,,,,,,,,,,,,,,,,,,,,,,,,,,
1732081869.533264,1732081869.533829,28.000000,0.000000,4323.205078,4331.282227,4348.461426,4344.102539,4352.179688,4351.794922,4350.512695,4377.051270,4361.922852,4331.666504,4457.948730,4498.333496,4351.410156,4401.666504,0.000000,0.000000,12.000000,,,,0.000000,2.000000,2.000000,0.000000,2.000000,2.000000,2.000000,1.000000,2.000000,4.000000,4.000000,4.000000,4.000000,2.000000,4.000000,25.000000,,,,,,,,,,,,,,,,,7.000000,0.000000,0.638654,0.401550,-0.585999,0.295776,0.975705,0.142596,-0.010743,-74.586357,66.903542,29.692453
1732081869.541072,1732081869.541637,29.000000,0.000000,4322.307617,4328.717773,4346.282227,4339.743652,4362.179688,4346.410156,4346.794922,4377.563965,4361.538574,4328.333496,4462.820313,4491.922852,4354.487305,4404.102539,0.000000,0.000000,12.000000,,,,0.000000,2.000000,2.000000,0.000000,2.000000,2.000000,2.000000,1.000000,2.000000,4.000000,4.000000,4.000000,4.000000,2.000000,4.000000,25.000000,,,,,,,,,,,,,,,,,,,,,,,,,,,,
1732081869.548880,1732081869.549246,30.000000,0.000000,4320.512695,4325.384766,4342.948730,4337.179688,4355.256348,4345.769043,4344.743652,4373.333496,4361.410156,4329.871582,4466.153809,4490.641113,4355.512695,4405.384766,0.000000,0.000000,12.000000,,,,0.000000,2.000000,2.000000,0.000000,2.000000,2.000000,2.000000,1.000000,2.000000,4.000000,4.000000,4.000000,4.000000,2.000000,4.000000,25.000000,,,,,,,,,,,,,,,,,,,,,,,,,,,,
1732081869.556689,1732081869.557054,31.000000,0.000000,4324.230957,4329.230957,4346.922852,4339.871582,4341.282227,4351.410156,4348.589844,4373.461426,4362.948730,4332.307617,4465.128418,4491.538574,4354.487305,4404.487305,0.000000,0.000000,12.000000,,,,0.000000,2.000000,2.000000,0.000000,2.000000,2.000000,2.000000,1.000000,2.000000,4.000000,4.000000,4.000000,4.000000,2.000000,4.000000,25.000000,,,,,,,,,,,,,,,,,,,,,,,,,,,,
1732081869.564497,1732081869.564762,32.000000,0.000000,4327.948730,4328.333496,4348.077148,4339.871582,4346.282227,4347.948730,4344.743652,4374.743652,4364.102539,4333.333496,4464.871582,4489.358887,4357.563965,4402.179688,0.000000,0.000000,12.000000,,,,0.000000,2.000000,2.000000,0.000000,2.000000,2.000000,2.000000,1.000000,2.000000,4.000000,4.000000,4.000000,4.000000,2.000000,4.000000,25.000000,,,,,,,,,,,,,,,,,8.000000,0.000000,0.638639,0.401306,-0.586121,0.295898,0.978635,0.175803,-0.004395,-74.636620,66.990196,29.822554
1732081869.572305,1732081869.572570,33.000000,0.000000,4324.487305,4323.589844,4345.128418,4337.051270,4352.692383,4341.922852,4342.563965,4370.897461,4361.153809,4331.794922,4466.794922,4490.897461,4361.153809,4403.589844,0.000000,0.000000,12.000000,,,,0.000000,2.000000,2.000000,0.000000,2.000000,2.000000,2.000000,1.000000,2.000000,4.000000,4.000000,4.000000,4.000000,2.000000,4.000000,25.000000,,,,,,,,,,,,,,,,,,,,,,,,,,,,
1732081869.580114,1732081869.580578,34.000000,0.000000,4320.000000,4322.563965,4343.333496,4338.077148,4357.820313,4342.563965,4347.820313,4369.487305,4356.922852,4327.051270,4468.077148,4492.948730,4359.615234,4403.461426,0.000000,0.000000,12.000000,,,,0.000000,2.000000,2.000000,0.000000,2.000000,2.000000,2.000000,1.000000,2.000000,4.000000,4.000000,4.000000,4.000000,2.000000,4.000000,25.000000,,,,,,,,,,,,,,,,,,,,,,,,,,,,
1732081869.587922,1732081869.588387,35.000000,0.000000,4321.538574,4321.282227,4344.871582,4338.589844,4357.307617,4341.410156,4350.256348,4372.820313,4356.153809,4327.051270,4464.743652,4490.000000,4356.025879,4399.102539,0.000000,0.000000,12.000000,,,,0.000000,2.000000,2.000000,0.000000,2.000000,2.000000,2.000000,1.000000,2.000000,4.000000,4.000000,4.000000,4.000000,2.000000,4.000000,25.000000,,,,,,,,,,,,,,,,,,,,,,,,,,,,
1732081869.595730,1732081869.596295,36.000000,0.000000,4320.000000,4321.282227,4342.307617,4334.743652,4344.615234,4338.205078,4346.666504,4372.820313,4358.589844,4331.666504,4462.563965,4489.230957,4359.230957,4397.179688,0.000000,0.000000,12.000000,,,,0.000000,2.000000,2.000000,0.000000,2.000000,2.000000,2.000000,1.000000,2.000000,4.000000,4.000000,4.000000,4.000000,2.000000,4.000000,25.000000,,,,,,,,,,,,,,,,,9.000000,0.000000,0.638678,0.401245,-0.586182,0.295776,0.983518,0.167013,-0.013674,-74.642326,66.517059,29.792936
1732081869.603538,1732081869.604103,37.000000,0.000000,4317.307617,4323.205078,4343.974121,4334.102539,4335.641113,4340.641113,4346.538574,4368.333496,4360.512695,4332.179688,4466.025879,4490.769043,4363.589844,4400.512695,0.000000,0.000000,12.000000,,,,0.000000,2.000000,2.000000,0.000000,2.000000,2.000000,2.000000,1.000000,2.000000,4.000000,4.000000,4.000000,4.000000,2.000000,4.000000,25.000000,,,,,,,,,,,,,,,,,,,,,,,,,,,,
1732081869.611346,1732081869.612111,38.000000,0.000000,4323.461426,4324.102539,4346.922852,4338.461426,4342.692383,4338.974121,4346.025879,4367.436035,4357.692383,4328.589844,4473.589844,4491.538574,4363.846191,4404.230957,0.000000,0.000000,12.000000,,,,0.000000,2.000000,2.000000,0.000000,2.000000,2.000000,2.000000,1.000000,2.000000,4.000000,4.000000,4.000000,4.000000,2.000000,4.000000,25.000000,,,,,,,,,,,,,,,,,,,,,,,,,,,,
1732081869.619155,1732081869.619919,39.000000,0.000000,4328.974121,4325.512695,4343.846191,4336.922852,4353.589844,4334.230957,4343.333496,4371.922852,4356.153809,4325.897461,4470.769043,4490.641113,4363.717773,4403.589844,0.000000,0.000000,12.000000,,,,0.000000,2.000000,2.000000,0.000000,2.000000,2.000000,2.000000,1.000000,2.000000,4.000000,4.000000,4.000000,4.000000,2.000000,4.000000,25.000000,,,,,,,,,,,,,,,,,,,,,,,,,,,,
1732081869.626963,1732081869.627627,40.000000,0.000000,4324.102539,4325.128418,4339.230957,4332.820313,4351.538574,4338.205078,4343.461426,4374.358887,4361.282227,4329.358887,4462.820313,4489.230957,4363.461426,4399.743652,0.000000,0.000000,12.000000,,,,0.000000,2.000000,2.000000,0.000000,2.000000,2.000000,2.000000,1.000000,2.000000,4.000000,4.000000,4.000000,4.000000,2.000000,4.000000,25.000000,,,,,,,,,,,,,,,,,10.000000,0.000000,0.638566,0.401245,-0.586304,0.295776,0.972775,0.165059,-0.005372,-74.516953,66.450485,29.963943
1732081869.634771,1732081869.635436,41.000000,0.000000,4322.051270,4321.794922,4341.922852,4331.794922,4336.282227,4341.666504,4344.230957,4370.897461,4365.384766,4333.461426,4464.358887,4492.436035,4365.128418,4400.384766,0.000000,0.000000,12.000000,,,,0.000000,2.000000,2.000000,0.000000,2.000000,2.000000,2.000000,1.000000,2.000000,4.000000,4.000000,4.000000,4.000000,2.000000,4.000000,25.000000,,,,,,,,,,,,,,,,,,,,,,,,,,,,
1732081869.642579,1732081869.643044,42.000000,0.000000,4325.769043,4323.205078,4345.256348,4331.794922,4335.000000,4339.358887,4346.666504,4372.051270,4363.077148,4330.769043,4468.205078,4501.538574,4365.512695,4401.410156,0.000000,0.000000,12.000000,,,,0.000000,2.000000,2.000000,0.000000,2.000000,2.000000,2.000000,1.000000,2.000000,4.000000,4.000000,4.000000,4.000000,2.000000,4.000000,25.000000,,,,,,,,,,,,,,,,,,,,,,,,,,,,
1732081869.650388,1732081869.650852,43.000000,0.000000,4322.307617,4323.974121,4343.205078,4333.717773,4348.461426,4340.641113,4351.282227,4378.589844,4362.051270,4330.000000,4468.461426,4511.666504,4366.282227,4403.077148,0.000000,0.000000,12.000000,,,,0.000000,2.000000,2.000000,0.000000,2.000000,2.000000,2.000000,1.000000,2.000000,4.000000,4.000000,4.000000,4.000000,2.000000,4.000000,25.000000,,,,,,,,,,,,,,,,,,,,,,,,,,,,
1732081869.658196,1732081869.658760,44.000000,0.000000,4314.487305,4316.410156,4342.563965,4337.051270,4348.077148,4343.974121,4354.230957,4378.461426,4364.743652,4332.436035,4465.384766,4508.717773,4365.384766,4402.820313,0.000000,0.000000,12.000000,,,,0.000000,2.000000,2.000000,0.000000,2.000000,2.000000,2.000000,1.000000,2.000000,4.000000,4.000000,4.000000,4.000000,2.000000,4.000000,25.000000,,,,,,,,,,,,,,,,,11.000000,0.000000,0.638321,0.401367,-0.586426,0.295898,0.972775,0.158222,-0.014650,-74.898727,66.321564,29.960794
1732081869.666004,1732081869.666569,45.000000,0.000000,4311.922852,4314.615234,4342.948730,4338.205078,4350.641113,4340.769043,4349.743652,4371.538574,4363.333496,4329.615234,4460.256348,4497.307617,4363.077148,4396.922852,0.000000,0.000000,12.000000,,,,0.000000,2.000000,2.000000,0.000000,2.000000,2.000000,2.000000,1.000000,2.000000,4.000000,4.000000,4.000000,4.000000,2.000000,4.000000,25.000000,,,,,,,,,,,,,,,,,,,,,,,,,,,,
1732081869.673813,1732081869.674577,46.000000,0.000000,4314.743652,4321.922852,4341.282227,4336.666504,4354.871582,4335.512695,4347.948730,4373.846191,4361.794922,4329.743652,4461.025879,4497.051270,4365.512695,4395.769043,0.000000,0.000000,12.000000,,,,0.000000,2.000000,2.000000,0.000000,2.000000,2.000000,2.000000,1.000000,2.000000,4.000000,4.000000,4.000000,4.000000,2.000000,4.000000,25.000000,,,,,,,,,,,,,,,,,,,,,,,,,,,,
1732081869.681621,1732081869.682385,47.000000,0.000000,4317.948730,4321.410156,4340.769043,4337.820313,4339.102539,4335.897461,4350.641113,4381.538574,4364.743652,4335.384766,4467.692383,4506.922852,4365.512695,4401.153809,0.000000,0.000000,12.000000,,,,0.000000,2.000000,2.000000,0.000000,2.000000,2.000000,2.000000,1.000000,2.000000,4.000000,4.000000,4.000000,4.000000,2.000000,4.000000,25.000000,,,,,,,,,,,,,,,,,,,,,,,,,,,,
1732081869.689429,1732081869.690293,48.000000,0.000000,4316.922852,4317.307617,4343.333496,4338.461426,4329.743652,4338.717773,4348.846191,4378.461426,4364.871582,4335.641113,4465.384766,4506.922852,4360.128418,4402.051270,0.000000,0.000000,12.000000,,,,0.000000,2.000000,2.000000,0.000000,2.000000,2.000000,2.000000,1.000000,2.000000,4.000000,4.000000,4.000000,4.000000,2.000000,4.000000,25.000000,,,,,,,,,,,,,,,,,12.000000,0.000000,0.638321,0.401367,-0.586426,0.295898,0.966915,0.162618,-0.015627,-75.057968,66.217133,29.988243
1732081869.697237,1732081869.698101,49.000000,0.000000,4316.538574,4321.153809,4341.922852,4340.000000,4337.563965,4338.717773,4341.922852,4372.563965,4361.794922,4333.333496,4459.102539,4496.025879,4361.282227,4402.307617,0.000000,0.000000,12.000000,,,,0.000000,2.000000,2.000000,0.000000,2.000000,2.000000,2.000000,1.000000,2.000000,4.000000,4.000000,4.000000,4.000000,2.000000,4.000000,25.000000,,,,,,,,,,,,,,,,,,,,,,,,,,,,
1732081869.705046,1732081869.706109,50.000000,0.000000,4315.256348,4319.230957,4340.000000,4335.897461,4345.128418,4333.205078,4342.307617,4372.179688,4363.974121,4335.512695,4463.717773,4495.769043,4369.615234,4403.205078,0.000000,0.000000,12.000000,,,,0.000000,2.000000,2.000000,0.000000,2.000000,2.000000,2.000000,1.000000,2.000000,4.000000,4.000000,4.000000,4.000000,2.000000,4.000000,25.000000,,,,,,,,,,,,,,,,,,,,,,,,,,,,
1732081869.712854,1732081869.713917,51.000000,0.000000,4311.410156,4312.307617,4340.000000,4328.077148,4346.794922,4330.897461,4346.922852,4373.205078,4368.974121,4338.333496,4468.717773,4504.358887,4368.717773,4397.179688,0.000000,0.000000,12.000000,,,,0.000000,2.000000,2.000000,0.000000,2.000000,2.000000,2.000000,1.000000,2.000000,4.000000,4.000000,4.000000,4.000000,2.000000,4.000000,25.000000,,,,,,,,,,,,,,,,,,,,,,,,,,,,
1732081869.720662,1732081869.721825,52.000000,0.000000,4314.102539,4315.512695,4343.077148,4328.974121,4334.615234,4335.128418,4348.077148,4373.974121,4367.820313,4335.128418,4463.846191,4506.025879,4361.666504,4397.179688,0.000000,0.000000,12.000000,,,,0.000000,2.000000,2.000000,0.000000,2.000000,2.000000,2.000000,1.000000,2.000000,4.000000,4.000000,4.000000,4.000000,2.000000,4.000000,25.000000,,,,,,,,,,,,,,,,,13.000000,0.000000,0.637472,0.401550,-0.586792,0.296753,0.975705,0.149921,-0.011232,-74.961960,66.190880,29.885477
1732081869.728470,1732081869.729634,53.000000,0.000000,4320.384766,4320.512695,4341.538574,4332.948730,4325.256348,4339.487305,4345.256348,4373.846191,4363.974121,4329.743652,4459.871582,4502.051270,4362.820313,4404.102539,0.000000,0.000000,12.000000,,,,0.000000,2.000000,2.000000,0.000000,2.000000,2.000000,2.000000,1.000000,2.000000,4.000000,4.000000,4.000000,4.000000,2.000000,4.000000,25.000000,,,,,,,,,,,,,,,,,,,,,,,,,,,,
1732081869.736279,1732081869.737642,54.000000,0.000000,4320.128418,4318.333496,4339.102539,4331.922852,4335.641113,4338.717773,4346.153809,4372.436035,4362.563965,4327.692383,4462.436035,4501.794922,4365.000000,4400.256348,0.000000,0.000000,12.000000,,,,0.000000,2.000000,2.000000,0.000000,2.000000,2.000000,2.000000,1.000000,2.000000,4.000000,4.000000,4.000000,4.000000,2.000000,4.000000,25.000000,,,,,,,,,,,,,,,,,,,,,,,,,,,,
1732081869.744087,1732081869.745450,55.000000,0.000000,4321.410156,4319.230957,4338.717773,4332.307617,4335.384766,4334.871582,4347.051270,4372.563965,4363.461426,4329.615234,4462.051270,4505.769043,4362.307617,4400.897461,0.000000,0.000000,12.000000,,,,0.000000,2.000000,2.000000,0.000000,2.000000,2.000000,2.000000,1.000000,2.000000,4.000000,4.000000,4.000000,4.000000,2.000000,4.000000,25.000000,,,,,,,,,,,,,,,,,,,,,,,,,,,,
1732081869.751895,1732081869.753358,56.000000,0.000000,4323.974121,4321.794922,4340.000000,4335.641113,4334.230957,4334.358887,4344.615234,4373.717773,4363.717773,4331.410156,4458.974121,4506.666504,4358.974121,4410.384766,0.000000,0.000000,12.000000,,,,0.000000,2.000000,2.000000,0.000000,2.000000,2.000000,2.000000,1.000000,2.000000,4.000000,4.000000,4.000000,4.000000,2.000000,4.000000,25.000000,,,,,,,,,,,,,,,,,14.000000,0.000000,0.637012,0.401428,-0.587097,0.297302,0.964473,0.154316,-0.008302,-74.845848,66.087944,29.957237
1732081869.759703,1732081869.761166,57.000000,0.000000,4318.461426,4318.589844,4341.538574,4334.871582,4350.384766,4336.025879,4344.102539,4373.461426,4363.333496,4329.615234,4458.974121,4505.897461,4361.794922,4408.205078,0.000000,0.000000,12.000000,,,,0.000000,2.000000,2.000000,0.000000,2.000000,2.000000,2.000000,1.000000,2.000000,4.000000,4.000000,4.000000,4.000000,2.000000,4.000000,25.000000,,,,,,,,,,,,,,,,,,,,,,,,,,,,
1732081869.767512,1732081869.768775,58.000000,0.000000,4313.846191,4316.538574,4341.922852,4332.820313,4344.871582,4334.743652,4344.358887,4372.820313,4361.282227,4327.051270,4461.794922,4507.179688,4363.333496,4401.282227,0.000000,0.000000,12.000000,,,,0.000000,2.000000,2.000000,0.000000,2.000000,2.000000,2.000000,1.000000,2.000000,4.000000,4.000000,4.000000,4.000000,2.000000,4.000000,25.000000,,,,,,,,,,,,,,,,,,,,,,,,,,,,
1732081869.775320,1732081869.776583,59.000000,0.000000,4313.846191,4317.051270,4340.128418,4331.666504,4325.897461,4333.461426,4343.333496,4372.179688,4360.000000,4326.794922,4461.153809,4505.256348,4357.307617,4400.641113,0.000000,0.000000,12.000000,,,,0.000000,2.000000,2.000000,0.000000,2.000000,2.000000,2.000000,1.000000,2.000000,4.000000,4.000000,4.000000,4.000000,2.000000,4.000000,25.000000,,,,,,,,,,,,,,,,,,,,,,,,,,,,
1732081869.783128,1732081869.784291,60.000000,0.000000,4311.153809,4316.922852,4338.974121,4331.410156,4327.436035,4337.820313,4343.717773,4373.589844,4362.820313,4330.384766,4459.615234,4496.025879,4358.077148,4400.000000,0.000000,0.000000,12.000000,,,,0.000000,2.000000,2.000000,0.000000,2.000000,2.000000,2.000000,1.000000,2.000000,4.000000,4.000000,4.000000,4.000000,2.000000,4.000000,25.000000,,,,,,,,,,,,,,,,,15.000000,0.000000,0.636901,0.401245,-0.587280,0.297424,0.963008,0.141131,-0.018069,-74.928474,66.177902,30.093695
1732081869.790936,1732081869.792099,61.000000,0.000000,4312.436035,4319.102539,4341.794922,4333.974121,4338.846191,4337.436035,4345.128418,4375.256348,4363.205078,4331.538574,4462.692383,4490.384766,4366.282227,4398.974121,0.000000,0.000000,12.000000,,,,0.000000,2.000000,2.000000,0.000000,2.000000,2.000000,2.000000,1.000000,2.000000,4.000000,4.000000,4.000000,4.000000,2.000000,4.000000,25.000000,,,,,,,,,,,,,,,,,,,,,,,,,,,,
1732081869.798745,1732081869.799708,62.000000,0.000000,4314.615234,4320.769043,4341.794922,4335.256348,4346.922852,4331.666504,4341.666504,4371.922852,4359.871582,4329.358887,4463.077148,4490.000000,4366.794922,4398.077148,0.000000,0.000000,12.000000,,,,0.000000,2.000000,2.000000,0.000000,2.000000,2.000000,2.000000,1.000000,2.000000,4.000000,4.000000,4.000000,4.000000,2.000000,4.000000,25.000000,,,,,,,,,,,,,,,,,,,,,,,,,,,,
1732081869.806553,1732081869.807516,63.000000,0.000000,4313.461426,4321.794922,4339.358887,4336.794922,4341.922852,4337.820313,4343.205078,4368.077148,4357.051270,4326.666504,4456.666504,4489.102539,4364.102539,4396.666504,0.000000,0.000000,12.000000,,,,0.000000,2.000000,2.000000,0.000000,2.000000,2.000000,2.000000,1.000000,2.000000,4.000000,4.000000,4.000000,4.000000,2.000000,4.000000,25.000000,,,,,,,,,,,,,,,,,,,,,,,,,,,,
1732081869.814361,1732081869.815224,64.000000,0.000000,4316.922852,4323.077148,4340.769043,4340.897461,4332.563965,4346.538574,4345.641113,4367.307617,4356.922852,4325.897461,4455.256348,4490.000000,4365.128418,4399.871582,0.000000,0.000000,12.000000,,,,0.000000,2.000000,2.000000,0.000000,2.000000,2.000000,2.000000,1.000000,2.000000,4.000000,4.000000,4.000000,4.000000,2.000000,4.000000,25.000000,,,,,,,,,,,,,,,,,16.000000,0.000000,0.636816,0.401245,-0.587341,0.297485,0.963008,0.141131,-0.018069,-74.847061,66.207436,30.234226
1732081869.822169,1732081869.823032,65.000000,0.000000,4320.641113,4320.256348,4345.897461,4341.282227,4341.025879,4340.000000,4343.333496,4367.948730,4356.922852,4325.512695,4459.230957,4492.179688,4362.692383,4403.461426,1285.000000,0.000000,12.000000,,,,0.000000,2.000000,2.000000,0.000000,2.000000,2.000000,2.000000,1.000000,2.000000,4.000000,4.000000,4.000000,4.000000,2.000000,4.000000,25.000000,,,,,,,,,,,,,,,,,,,,,,,,,,,,
1732081869.829978,1732081869.830641,66.000000,0.000000,4317.563965,4322.179688,4344.102539,4337.692383,4343.846191,4334.743652,4342.307617,4369.230957,4358.205078,4325.000000,4458.717773,4491.922852,4360.128418,4401.025879,1209.000000,0.000000,12.000000,,,,0.000000,2.000000,2.000000,0.000000,2.000000,2.000000,2.000000,1.000000,2.000000,4.000000,4.000000,4.000000,4.000000,2.000000,4.000000,25.000000,,,,,,,,,,,,,,,,,,,,,,,,,,,,
1732081869.837786,1732081869.838449,67.000000,0.000000,4316.282227,4330.000000,4342.179688,4339.230957,4328.846191,4342.563965,4344.230957,4368.205078,4360.641113,4322.692383,4456.794922,4490.128418,4359.615234,4400.769043,1160.000000,0.000000,12.000000,,,,0.000000,2.000000,2.000000,0.000000,2.000000,2.000000,2.000000,1.000000,2.000000,4.000000,4.000000,4.000000,4.000000,2.000000,4.000000,25.000000,,,,,,,,,,,,,,,,,,,,,,,,,,,,
1732081869.845594,1732081869.846157,68.000000,0.000000,4320.000000,4330.128418,4345.000000,4344.743652,4331.153809,4344.230957,4340.897461,4367.307617,4358.717773,4323.589844,4459.871582,4489.230957,4359.102539,4406.282227,1185.000000,0.000000,12.000000,,,,0.000000,2.000000,2.000000,0.000000,2.000000,2.000000,2.000000,1.000000,2.000000,4.000000,4.000000,4.000000,4.000000,2.000000,4.000000,25.000000,,,,,,,,,,,,,,,,,17.000000,0.000000,0.636458,0.401672,-0.587097,0.298157,0.971310,0.150409,-0.013185,-74.906120,66.389687,30.064724
1732081869.853403,1732081869.853966,69.000000,0.000000,4322.051270,4325.128418,4348.205078,4346.538574,4341.153809,4339.487305,4340.128418,4370.897461,4356.025879,4328.846191,4461.538574,4495.769043,4364.358887,4408.717773,1062.000000,0.000000,12.000000,,,,0.000000,2.000000,2.000000,0.000000,2.000000,2.000000,2.000000,1.000000,2.000000,4.000000,4.000000,4.000000,4.000000,2.000000,4.000000,25.000000,,,,,,,,,,,,,,,,,,,,,,,,,,,,
1732081869.861211,1732081869.861574,70.000000,0.000000,4321.794922,4329.358887,4345.512695,4346.538574,4338.077148,4340.128418,4342.051270,4374.230957,4358.461426,4329.102539,4460.384766,4503.333496,4368.077148,4406.282227,207.000000,0.000000,12.000000,,,,0.000000,2.000000,2.000000,0.000000,2.000000,2.000000,2.000000,1.000000,2.000000,4.000000,4.000000,4.000000,4.000000,2.000000,4.000000,25.000000,,,,,,,,,,,,,,,,,,,,,,,,,,,,
1732081869.869019,1732081869.869382,71.000000,0.000000,4317.820313,4332.692383,4344.102539,4343.974121,4338.717773,4342.179688,4341.922852,4372.179688,4362.436035,4325.897461,4459.487305,4497.436035,4365.128418,4402.307617,1192.000000,0.000000,12.000000,,,,0.000000,2.000000,2.000000,0.000000,2.000000,2.000000,2.000000,1.000000,2.000000,4.000000,4.000000,4.000000,4.000000,2.000000,4.000000,25.000000,,,,,,,,,,,,,,,,,,,,,,,,,,,,
1732081869.876827,1732081869.877091,72.000000,0.000000,4314.358887,4327.051270,4342.948730,4341.794922,4338.333496,4345.000000,4342.820313,4369.871582,4361.666504,4326.794922,4460.641113,4489.102539,4365.256348,4404.358887,1336.000000,0.000000,12.000000,,,,0.000000,2.000000,2.000000,0.000000,2.000000,2.000000,2.000000,1.000000,2.000000,4.000000,4.000000,4.000000,4.000000,2.000000,4.000000,25.000000,,,,,,,,,,,,,,,,,18.000000,0.000000,0.636323,0.401794,-0.587036,0.298401,0.964473,0.135759,-0.016604,-75.040627,66.490646,29.860760
1732081869.884636,1732081869.884899,73.000000,0.000000,4315.384766,4326.922852,4342.051270,4342.563965,4343.717773,4344.358887,4341.922852,4367.948730,4359.230957,4327.692383,4463.717773,4495.384766,4367.692383,4405.897461,1466.000000,0.000000,12.000000,,,,0.000000,2.000000,2.000000,0.000000,2.000000,2.000000,2.000000,1.000000,2.000000,4.000000,4.000000,4.000000,4.000000,2.000000,4.000000,25.000000,,,,,,,,,,,,,,,,,,,,,,,,,,,,
1732081869.892444,1732081869.892507,74.000000,0.000000,4317.179688,4329.743652,4342.948730,4343.846191,4354.358887,4341.153809,4341.153809,4368.461426,4359.487305,4325.897461,4462.179688,4500.641113,4365.512695,4401.666504,1351.000000,0.000000,12.000000,,,,0.000000,2.000000,2.000000,0.000000,2.000000,2.000000,2.000000,1.000000,2.000000,4.000000,4.000000,4.000000,4.000000,2.000000,4.000000,25.000000,,,,,,,,,,,,,,,,,,,,,,,,,,,,
1732081869.900252,1732081869.900315,75.000000,0.000000,4317.436035,4326.922852,4344.358887,4344.487305,4345.128418,4347.692383,4343.077148,4372.820313,4364.487305,4327.436035,4459.487305,4499.615234,4365.128418,4398.461426,1487.000000,0.000000,12.000000,,,,0.000000,2.000000,2.000000,0.000000,2.000000,2.000000,2.000000,1.000000,2.000000,4.000000,4.000000,4.000000,4.000000,2.000000,4.000000,25.000000,,,,,,,,,,,,,,,,,,,,,,,,,,,,
1732081869.908060,1732081869.908024,76.000000,0.000000,4315.897461,4327.436035,4344.871582,4346.410156,4330.769043,4353.333496,4346.153809,4375.256348,4368.974121,4332.820313,4460.769043,4501.666504,4366.794922,4398.846191,1715.000000,0.000000,12.000000,,,,0.000000,2.000000,2.000000,0.000000,2.000000,2.000000,2.000000,1.000000,2.000000,4.000000,4.000000,4.000000,4.000000,2.000000,4.000000,25.000000,,,,,,,,,,,,,,,,,19.000000,0.000000,0.636255,0.401855,-0.586975,0.298584,0.964473,0.135759,-0.016604,-75.057907,66.335754,29.962215
1732081869.915868,1732081869.915832,77.000000,0.000000,4317.692383,4332.307617,4345.128418,4346.025879,4342.820313,4344.102539,4344.871582,4373.077148,4366.922852,4334.230957,4461.922852,4500.000000,4368.717773,4402.563965,1680.000000,0.000000,12.000000,,,,0.000000,2.000000,2.000000,0.000000,2.000000,2.000000,2.000000,1.000000,2.000000,4.000000,4.000000,4.000000,4.000000,2.000000,4.000000,25.000000,,,,,,,,,,,,,,,,,,,,,,,,,,,,
1732081869.923677,1732081869.923440,78.000000,0.000000,4317.179688,4330.897461,4344.871582,4342.307617,4358.205078,4341.410156,4344.615234,4373.974121,4365.512695,4333.205078,4460.641113,4491.410156,4369.230957,4404.487305,1351.000000,0.000000,12.000000,,,,0.000000,2.000000,2.000000,0.000000,2.000000,2.000000,2.000000,1.000000,2.000000,4.000000,4.000000,4.000000,4.000000,2.000000,4.000000,25.000000,1.000000,25.000000,2.000000,2.000000,0.000000,2.000000,2.000000,2.000000,1.000000,2.000000,3.000000,3.000000,4.000000,4.000000,2.000000,4.000000,,,,,,,,,,,,
1732081869.931485,1732081869.931248,79.000000,0.000000,4314.358887,4327.436035,4342.692383,4341.410156,4345.000000,4349.615234,4345.128418,4377.051270,4369.102539,4334.358887,4460.256348,4491.794922,4366.538574,4402.179688,1487.000000,0.000000,12.000000,,,,0.000000,2.000000,2.000000,0.000000,2.000000,2.000000,2.000000,1.000000,2.000000,4.000000,4.000000,4.000000,4.000000,2.000000,4.000000,25.000000,,,,,,,,,,,,,,,,,,,,,,,,,,,,
1732081869.939293,1732081869.939157,80.000000,0.000000,4318.589844,4330.641113,4344.743652,4344.615234,4327.820313,4346.666504,4345.128418,4376.282227,4370.256348,4333.846191,4460.769043,4502.563965,4366.410156,4402.563965,1715.000000,0.000000,12.000000,,,,0.000000,2.000000,2.000000,0.000000,2.000000,2.000000,2.000000,1.000000,2.000000,4.000000,4.000000,4.000000,4.000000,2.000000,4.000000,25.000000,,,,,,,,,,,,,,,,,20.000000,0.000000,0.636019,0.401733,-0.587158,0.298889,0.968868,0.136735,-0.018557,-75.110237,66.335297,29.969395
1732081869.947101,1732081869.946965,81.000000,0.000000,4323.717773,4331.922852,4346.153809,4347.436035,4332.179688,4340.641113,4343.589844,4373.205078,4367.179688,4333.846191,4462.820313,4509.871582,4369.230957,4408.974121,1680.000000,0.000000,12.000000,,,,0.000000,2.000000,2.000000,0.000000,2.000000,2.000000,2.000000,1.000000,2.000000,4.000000,4.000000,4.000000,4.000000,2.000000,4.000000,25.000000,,,,,,,,,,,,,,,,,,,,,,,,,,,,
1732081869.954910,1732081869.954973,82.000000,0.000000,4316.794922,4326.922852,4345.897461,4345.256348,4342.820313,4345.641113,4344.615234,4373.333496,4363.077148,4332.692383,4463.461426,4507.051270,4368.077148,4410.769043,1351.000000,0.000000,12.000000,,,,0.000000,2.000000,2.000000,0.000000,2.000000,2.000000,2.000000,1.000000,2.000000,4.000000,4.000000,4.000000,4.000000,2.000000,4.000000,25.000000,,,,,,,,,,,,,,,,,,,,,,,,,,,,
1732081869.962718,1732081869.962781,83.000000,0.000000,4313.205078,4327.307617,4343.846191,4343.333496,4340.641113,4346.794922,4348.717773,4375.641113,4360.897461,4329.102539,4458.846191,4497.948730,4365.512695,4407.948730,1487.000000,0.000000,12.000000,,,,0.000000,2.000000,2.000000,0.000000,2.000000,2.000000,2.000000,1.000000,2.000000,4.000000,4.000000,4.000000,4.000000,2.000000,4.000000,25.000000,,,,,,,,,,,,,,,,,,,,,,,,,,,,
1732081869.970526,1732081869.970689,84.000000,0.000000,4322.436035,4331.794922,4345.641113,4344.871582,4330.384766,4344.102539,4352.179688,4376.282227,4362.051270,4328.205078,4458.077148,4493.205078,4366.538574,4406.538574,1715.000000,0.000000,12.000000,,,,0.000000,2.000000,2.000000,0.000000,2.000000,2.000000,2.000000,1.000000,2.000000,4.000000,4.000000,4.000000,4.000000,2.000000,4.000000,25.000000,,,,,,,,,,,,,,,,,21.000000,0.000000,0.635831,0.401672,-0.587280,0.299133,0.973263,0.147967,-0.022952,-75.185959,66.151588,29.991877
1732081869.978335,1732081869.978497,85.000000,0.000000,4323.461426,4332.307617,4346.922852,4345.512695,4338.077148,4345.128418,4349.102539,4373.333496,4361.282227,4328.077148,4460.256348,4493.974121,4367.563965,4405.256348,1680.000000,0.000000,12.000000,,,,0.000000,2.000000,2.000000,0.000000,2.000000,2.000000,2.000000,1.000000,2.000000,4.000000,4.000000,4.000000,4.000000,2.000000,4.000000,25.000000,,,,,,,,,,,,,,,,,,,,,,,,,,,,
1732081869.986143,1732081869.986505,86.000000,0.000000,4317.436035,4328.205078,4346.794922,4344.230957,4351.922852,4341.153809,4344.487305,4370.128418,4356.410156,4325.897461,4457.692383,4493.077148,4365.897461,4406.666504,1351.000000,0.000000,12.000000,,,,0.000000,2.000000,2.000000,0.000000,2.000000,2.000000,2.000000,1.000000,2.000000,4.000000,4.000000,4.000000,4.000000,2.000000,4.000000,25.000000,,,,,,,,,,,,,,,,,,,,,,,,,,,,
1732081869.993951,1732081869.994314,87.000000,0.000000,4322.948730,4328.077148,4345.769043,4345.641113,4339.615234,4337.179688,4344.102539,4374.615234,4358.717773,4325.769043,4458.846191,4494.743652,4364.102539,4410.769043,1487.000000,0.000000,12.000000,,,,0.000000,2.000000,2.000000,0.000000,2.000000,2.000000,2.000000,1.000000,2.000000,4.000000,4.000000,4.000000,4.000000,2.000000,4.000000,25.000000,,,,,,,,,,,,,,,,,,,,,,,,,,,,
1732081870.001759,1732081870.002222,88.000000,0.000000,4329.871582,4332.563965,4346.794922,4348.717773,4321.922852,4341.538574,4343.333496,4379.743652,4363.461426,4331.794922,4463.974121,4501.538574,4365.256348,4412.436035,1715.000000,0.000000,12.000000,,,,0.000000,2.000000,2.000000,0.000000,2.000000,2.000000,2.000000,1.000000,2.000000,4.000000,4.000000,4.000000,4.000000,2.000000,4.000000,25.000000,,,,,,,,,,,,,,,,,22.000000,0.000000,0.635831,0.401672,-0.587280,0.299133,0.961543,0.146991,-0.012209,-75.277290,65.942787,30.025085
1732081870.009568,1732081870.010030,89.000000,0.000000,4327.179688,4333.974121,4346.153809,4348.974121,4332.051270,4342.948730,4341.025879,4375.128418,4362.051270,4334.230957,4462.563965,4500.512695,4366.922852,4412.820313,1680.000000,0.000000,12.000000,,,,0.000000,2.000000,2.000000,0.000000,2.000000,2.000000,2.000000,1.000000,2.000000,4.000000,4.000000,4.000000,4.000000,2.000000,4.000000,25.000000,,,,,,,,,,,,,,,,,,,,,,,,,,,,
1732081870.017376,1732081870.018038,90.000000,0.000000,4322.820313,4333.846191,4343.589844,4346.922852,4344.743652,4339.743652,4343.717773,4370.769043,4361.025879,4331.538574,4460.897461,4495.897461,4367.436035,4417.179688,1351.000000,0.000000,12.000000,,,,0.000000,2.000000,2.000000,0.000000,2.000000,2.000000,2.000000,1.000000,2.000000,4.000000,4.000000,4.000000,4.000000,2.000000,4.000000,25.000000,,,,,,,,,,,,,,,,,,,,,,,,,,,,
1732081870.025184,1732081870.025846,91.000000,0.000000,4321.922852,4334.871582,4344.102539,4346.922852,4338.846191,4343.461426,4349.615234,4376.410156,4363.077148,4329.743652,4463.589844,4497.436035,4366.794922,4418.077148,1487.000000,0.000000,12.000000,,,,0.000000,2.000000,2.000000,0.000000,2.000000,2.000000,2.000000,1.000000,2.000000,4.000000,4.000000,4.000000,4.000000,2.000000,4.000000,25.000000,,,,,,,,,,,,,,,,,,,,,,,,,,,,
1732081870.032992,1732081870.033754,92.000000,0.000000,4322.563965,4337.436035,4345.512695,4348.205078,4335.384766,4347.179688,4346.794922,4380.256348,4362.820313,4331.410156,4463.077148,4496.410156,4366.666504,4415.897461,1715.000000,0.000000,12.000000,,,,0.000000,2.000000,2.000000,0.000000,2.000000,2.000000,2.000000,1.000000,2.000000,4.000000,4.000000,4.000000,4.000000,2.000000,4.000000,25.000000,,,,,,,,,,,,,,,,,23.000000,0.000000,0.635677,0.401733,-0.587280,0.299377,0.970822,0.141131,-0.020510,-75.161278,66.301994,29.798653
1732081870.040801,1732081870.041562,93.000000,0.000000,4322.563965,4335.000000,4343.974121,4346.538574,4344.487305,4342.307617,4343.205078,4374.743652,4360.641113,4333.717773,4461.666504,4490.384766,4367.179688,4416.666504,1680.000000,0.000000,12.000000,,,,0.000000,2.000000,2.000000,0.000000,2.000000,2.000000,2.000000,1.000000,2.000000,4.000000,4.000000,4.000000,4.000000,2.000000,4.000000,25.000000,,,,,,,,,,,,,,,,,,,,,,,,,,,,
1732081870.048609,1732081870.049570,94.000000,0.000000,4323.461426,4332.179688,4342.563965,4344.487305,4347.692383,4342.051270,4344.487305,4371.922852,4360.256348,4328.333496,4460.000000,4492.179688,4367.051270,4418.333496,1351.000000,0.000000,12.000000,,,,0.000000,2.000000,2.000000,0.000000,2.000000,2.000000,2.000000,1.000000,2.000000,4.000000,4.000000,4.000000,4.000000,2.000000,4.000000,25.000000,,,,,,,,,,,,,,,,,,,,,,,,,,,,
1732081870.056417,1732081870.057379,95.000000,0.000000,4323.589844,4334.230957,4343.461426,4345.384766,4337.307617,4349.358887,4346.282227,4373.717773,4360.256348,4327.436035,4454.871582,4502.563965,4367.820313,4416.922852,1487.000000,0.000000,12.000000,,,,0.000000,2.000000,2.000000,0.000000,2.000000,2.000000,2.000000,1.000000,2.000000,4.000000,4.000000,4.000000,4.000000,2.000000,4.000000,25.000000,,,,,,,,,,,,,,,,,,,,,,,,,,,,
1732081870.064225,1732081870.065287,96.000000,0.000000,4322.563965,4334.102539,4341.922852,4343.974121,4326.794922,4349.871582,4344.615234,4373.974121,4363.205078,4336.794922,4454.743652,4508.077148,4368.077148,4415.512695,1715.000000,0.000000,12.000000,,,,0.000000,2.000000,2.000000,0.000000,2.000000,2.000000,2.000000,1.000000,2.000000,4.000000,4.000000,4.000000,4.000000,2.000000,4.000000,25.000000,,,,,,,,,,,,,,,,,24.000000,0.000000,0.635372,0.402161,-0.586975,0.300049,0.960078,0.133805,-0.018069,-75.263962,66.307945,29.908575
1732081870.072034,1732081870.073095,97.000000,0.000000,4323.589844,4331.666504,4344.230957,4340.128418,4331.538574,4344.871582,4345.256348,4372.820313,4367.436035,4338.974121,4460.256348,4505.769043,4369.358887,4416.666504,1680.000000,0.000000,12.000000,,,,0.000000,2.000000,2.000000,0.000000,2.000000,2.000000,2.000000,1.000000,2.000000,4.000000,4.000000,4.000000,4.000000,2.000000,4.000000,25.000000,,,,,,,,,,,,,,,,,,,,,,,,,,,,
1732081870.079842,1732081870.081103,98.000000,0.000000,4325.769043,4332.051270,4348.205078,4338.717773,4346.410156,4345.384766,4343.717773,4373.333496,4366.410156,4334.871582,4460.897461,4502.948730,4370.897461,4414.230957,1351.000000,0.000000,12.000000,,,,0.000000,2.000000,2.000000,0.000000,2.000000,2.000000,2.000000,1.000000,2.000000,4.000000,4.000000,4.000000,4.000000,2.000000,4.000000,25.000000,,,,,,,,,,,,,,,,,,,,,,,,,,,,
1732081870.087650,1732081870.088911,99.000000,0.000000,4321.922852,4332.436035,4347.307617,4337.563965,4345.384766,4347.436035,4342.692383,4374.358887,4362.563965,4332.692383,4458.846191,4502.692383,4369.487305,4412.948730,1487.000000,0.000000,12.000000,,,,0.000000,2.000000,2.000000,0.000000,2.000000,2.000000,2.000000,1.000000,2.000000,4.000000,4.000000,4.000000,4.000000,2.000000,4.000000,25.000000,,,,,,,,,,,,,,,,,,,,,,,,,,,,
1732081870.095458,1732081870.096819,100.000000,0.000000,4317.307617,4331.025879,4342.948730,4336.794922,4329.743652,4348.077148,4343.461426,4373.205078,4362.436035,4330.384766,4458.589844,4496.922852,4367.051270,4412.563965,1715.000000,0.000000,12.000000,,,,0.000000,2.000000,2.000000,0.000000,2.000000,2.000000,2.000000,1.000000,2.000000,4.000000,4.000000,4.000000,4.000000,2.000000,4.000000,25.000000,,,,,,,,,,,,,,,,,25.000000,0.000000,0.635452,0.402039,-0.587097,0.299805,0.964473,0.154804,-0.018557,-75.300476,66.162773,29.830946
1732081870.103267,1732081870.104627,101.000000,0.000000,4317.563965,4329.358887,4342.948730,4340.256348,4328.333496,4349.743652,4346.282227,4372.948730,4362.307617,4326.794922,4455.641113,4488.717773,4362.563965,4407.820313,1680.000000,0.000000,12.000000,,,,0.000000,2.000000,2.000000,0.000000,2.000000,2.000000,2.000000,1.000000,2.000000,4.000000,4.000000,4.000000,4.000000,2.000000,4.000000,25.000000,,,,,,,,,,,,,,,,,,,,,,,,,,,,
1732081870.111075,1732081870.112635,102.000000,0.000000,4315.512695,4328.077148,4341.666504,4340.384766,4343.077148,4350.897461,4348.717773,4376.922852,4362.307617,4326.538574,4453.589844,4489.487305,4359.487305,4404.358887,1351.000000,0.000000,12.000000,,,,0.000000,2.000000,2.000000,0.000000,2.000000,2.000000,2.000000,1.000000,2.000000,4.000000,4.000000,4.000000,4.000000,2.000000,4.000000,25.000000,,,,,,,,,,,,,,,,,,,,,,,,,,,,
1732081870.118883,1732081870.120444,103.000000,0.000000,4314.358887,4327.948730,4342.436035,4336.282227,4340.384766,4352.436035,4348.717773,4379.102539,4365.000000,4326.282227,4457.051270,4492.051270,4363.205078,4408.077148,1487.000000,0.000000,12.000000,,,,0.000000,2.000000,2.000000,0.000000,2.000000,2.000000,2.000000,1.000000,2.000000,4.000000,4.000000,4.000000,4.000000,2.000000,4.000000,25.000000,,,,,,,,,,,,,,,,,,,,,,,,,,,,
1732081870.126691,1732081870.128352,104.000000,0.000000,4318.717773,4331.025879,4346.410156,4339.743652,4337.179688,4348.717773,4346.282227,4373.589844,4361.666504,4326.538574,4460.897461,4491.025879,4368.077148,4413.205078,1715.000000,0.000000,12.000000,,,,0.000000,2.000000,2.000000,0.000000,2.000000,2.000000,2.000000,1.000000,2.000000,4.000000,4.000000,4.000000,4.000000,2.000000,4.000000,25.000000,,,,,,,,,,,,,,,,,26.000000,0.000000,0.635536,0.402039,-0.586975,0.299866,0.964473,0.143572,-0.007813,-75.380051,65.970177,29.646400
1732081870.134500,1732081870.136160,105.000000,0.000000,4322.436035,4334.102539,4347.692383,4346.666504,4350.512695,4338.205078,4343.205078,4367.820313,4354.102539,4327.179688,4460.512695,4495.128418,4367.820313,4414.871582,1680.000000,0.000000,12.000000,,,,0.000000,2.000000,2.000000,0.000000,2.000000,2.000000,2.000000,1.000000,2.000000,4.000000,4.000000,4.000000,4.000000,2.000000,4.000000,25.000000,,,,,,,,,,,,,,,,,,,,,,,,,,,,
