title:seven3, start timestamp:1732083492.661209, stop timestamp:1732083535.481730, headset type:EPOCX, headset serial:E5020C3A, headset firmware:730, channels:67, sampling rate:eeg_128;mot_32, samples:5485      , version:2.2, 
Timestamp,OriginalTimestamp,EEG.Counter,EEG.Interpolated,EEG.AF3,EEG.F7,EEG.F3,EEG.FC5,EEG.T7,EEG.P7,EEG.O1,EEG.O2,EEG.P8,EEG.T8,EEG.FC6,EEG.F4,EEG.F8,EEG.AF4,EEG.RawCq,EEG.Battery,EEG.BatteryPercent,MarkerIndex,MarkerType,MarkerValueInt,EEG.MarkerHardware,CQ.AF3,CQ.F7,CQ.F3,CQ.FC5,CQ.T7,CQ.P7,CQ.O1,CQ.O2,CQ.P8,CQ.T8,CQ.FC6,CQ.F4,CQ.F8,CQ.AF4,CQ.Overall,EQ.SampleRateQuality,EQ.OVERALL,EQ.AF3,EQ.F7,EQ.F3,EQ.FC5,EQ.T7,EQ.P7,EQ.O1,EQ.O2,EQ.P8,EQ.T8,EQ.FC6,EQ.F4,EQ.F8,EQ.AF4,MOT.CounterMems,MOT.InterpolatedMems,MOT.Q0,MOT.Q1,MOT.Q2,MOT.Q3,MOT.AccX,MOT.AccY,MOT.AccZ,MOT.MagX,MOT.MagY,MOT.MagZ
1732083492.661209,1732083492.661849,29.000000,0.000000,4294.615234,4264.871582,4315.256348,4298.077148,4285.256348,4298.589844,4247.820313,4333.461426,4318.846191,4299.102539,4453.461426,4490.897461,4349.743652,4400.897461,0.000000,0.000000,6.000000,,,,0.000000,2.000000,2.000000,0.000000,2.000000,2.000000,2.000000,0.000000,2.000000,4.000000,4.000000,4.000000,4.000000,2.000000,4.000000,16.666666,,,,,,,,,,,,,,,,,,,,,,,,,,,,
1732083492.669018,1732083492.669857,30.000000,0.000000,4305.897461,4265.128418,4316.025879,4302.820313,4297.692383,4297.436035,4250.256348,4334.615234,4322.692383,4308.846191,4458.717773,4492.692383,4354.487305,4398.846191,0.000000,0.000000,6.000000,,,,0.000000,2.000000,2.000000,0.000000,2.000000,2.000000,2.000000,0.000000,2.000000,4.000000,4.000000,4.000000,4.000000,2.000000,4.000000,16.666666,,,,,,,,,,,,,,,,,,,,,,,,,,,,
1732083492.676826,1732083492.677665,31.000000,0.000000,4311.538574,4269.230957,4317.436035,4307.948730,4302.307617,4298.461426,4247.179688,4332.307617,4317.563965,4313.589844,4462.436035,4497.436035,4352.051270,4401.025879,0.000000,0.000000,6.000000,,,,0.000000,2.000000,2.000000,0.000000,2.000000,2.000000,2.000000,0.000000,2.000000,4.000000,4.000000,4.000000,4.000000,2.000000,4.000000,16.666666,,,,,,,,,,,,,,,,,,,,,,,,,,,,
1732083492.684634,1732083492.685573,32.000000,0.000000,4306.410156,4271.794922,4320.000000,4308.589844,4284.230957,4303.205078,4247.307617,4332.436035,4311.538574,4299.487305,4459.743652,4500.256348,4345.384766,4410.897461,0.000000,0.000000,6.000000,,,,0.000000,2.000000,2.000000,0.000000,2.000000,2.000000,2.000000,0.000000,2.000000,4.000000,4.000000,4.000000,4.000000,2.000000,4.000000,16.666666,,,,,,,,,,,,,,,,,8.000000,0.000000,0.679645,0.399597,-0.561646,0.250916,0.951288,0.238310,0.045904,-69.746918,67.949677,35.684437
1732083492.692443,1732083492.693381,33.000000,0.000000,4305.256348,4266.025879,4318.589844,4307.051270,4272.436035,4297.692383,4244.615234,4330.641113,4316.538574,4295.000000,4459.230957,4498.589844,4345.641113,4414.743652,0.000000,0.000000,6.000000,,,,0.000000,2.000000,2.000000,0.000000,2.000000,2.000000,2.000000,0.000000,2.000000,4.000000,4.000000,4.000000,4.000000,2.000000,4.000000,16.666666,,,,,,,,,,,,,,,,,,,,,,,,,,,,
1732083492.700251,1732083492.701389,34.000000,0.000000,4309.871582,4263.461426,4320.000000,4307.179688,4279.230957,4290.000000,4242.307617,4332.563965,4328.205078,4307.307617,4464.358887,4499.358887,4349.358887,4408.717773,0.000000,0.000000,6.000000,,,,0.000000,2.000000,2.000000,0.000000,2.000000,2.000000,2.000000,0.000000,2.000000,4.000000,4.000000,4.000000,4.000000,2.000000,4.000000,16.666666,,,,,,,,,,,,,,,,,,,,,,,,,,,,
1732083492.708059,1732083492.709197,35.000000,0.000000,4308.333496,4263.589844,4321.922852,4310.000000,4286.025879,4295.897461,4247.307617,4339.743652,4332.692383,4309.615234,4462.692383,4499.230957,4345.512695,4406.410156,0.000000,0.000000,6.000000,,,,0.000000,2.000000,2.000000,0.000000,2.000000,2.000000,2.000000,0.000000,2.000000,4.000000,4.000000,4.000000,4.000000,2.000000,4.000000,16.666666,,,,,,,,,,,,,,,,,,,,,,,,,,,,
1732083492.715867,1732083492.716906,36.000000,0.000000,4303.461426,4261.538574,4318.333496,4308.717773,4286.282227,4298.077148,4246.666504,4337.307617,4327.307617,4307.051270,4458.077148,4493.461426,4343.205078,4409.230957,0.000000,0.000000,6.000000,,,,0.000000,2.000000,2.000000,0.000000,2.000000,2.000000,2.000000,0.000000,2.000000,4.000000,4.000000,4.000000,4.000000,2.000000,4.000000,16.666666,,,,,,,,,,,,,,,,,9.000000,0.000000,0.679633,0.399658,-0.561890,0.250305,0.944451,0.233427,0.055183,-69.699997,68.085907,35.807724
1732083492.723676,1732083492.724714,37.000000,0.000000,4304.230957,4262.948730,4318.077148,4303.077148,4283.333496,4293.077148,4243.974121,4327.563965,4321.410156,4304.230957,4457.051270,4491.025879,4346.410156,4405.384766,0.000000,0.000000,6.000000,,,,0.000000,2.000000,2.000000,0.000000,2.000000,2.000000,2.000000,0.000000,2.000000,4.000000,4.000000,4.000000,4.000000,2.000000,4.000000,16.666666,,,,,,,,,,,,,,,,,,,,,,,,,,,,
1732083492.731484,1732083492.732322,38.000000,0.000000,4303.589844,4262.563965,4318.974121,4300.769043,4283.974121,4293.974121,4245.897461,4326.666504,4322.179688,4294.230957,4458.461426,4491.922852,4349.743652,4398.461426,0.000000,0.000000,6.000000,,,,0.000000,2.000000,2.000000,0.000000,2.000000,2.000000,2.000000,0.000000,2.000000,4.000000,4.000000,4.000000,4.000000,2.000000,4.000000,16.666666,,,,,,,,,,,,,,,,,,,,,,,,,,,,
1732083492.739292,1732083492.740130,39.000000,0.000000,4300.384766,4257.692383,4319.358887,4299.743652,4284.743652,4290.769043,4247.948730,4330.897461,4323.589844,4294.615234,4462.051270,4495.256348,4352.820313,4400.769043,0.000000,0.000000,6.000000,,,,0.000000,2.000000,2.000000,0.000000,2.000000,2.000000,2.000000,0.000000,2.000000,4.000000,4.000000,4.000000,4.000000,2.000000,4.000000,16.666666,,,,,,,,,,,,,,,,,,,,,,,,,,,,
1732083492.747100,1732083492.748039,40.000000,0.000000,4301.794922,4262.948730,4316.666504,4301.282227,4277.820313,4286.153809,4244.230957,4329.487305,4321.666504,4309.358887,4465.769043,4500.256348,4354.487305,4408.333496,0.000000,0.000000,6.000000,,,,0.000000,2.000000,2.000000,0.000000,2.000000,2.000000,2.000000,0.000000,2.000000,4.000000,4.000000,4.000000,4.000000,2.000000,4.000000,16.666666,,,,,,,,,,,,,,,,,10.000000,0.000000,0.679750,0.399353,-0.562561,0.248962,0.955683,0.244170,0.062508,-69.827003,68.227913,35.947590
1732083492.754909,1732083492.755847,41.000000,0.000000,4302.692383,4270.384766,4318.077148,4302.436035,4277.948730,4290.512695,4245.000000,4329.102539,4320.256348,4310.769043,4465.897461,4499.487305,4354.871582,4410.128418,0.000000,0.000000,6.000000,,,,0.000000,2.000000,2.000000,0.000000,2.000000,2.000000,2.000000,0.000000,2.000000,4.000000,4.000000,4.000000,4.000000,2.000000,4.000000,16.666666,,,,,,,,,,,,,,,,,,,,,,,,,,,,
1732083492.762717,1732083492.763855,42.000000,0.000000,4299.230957,4264.102539,4317.307617,4300.897461,4287.179688,4292.436035,4247.948730,4330.897461,4321.410156,4302.948730,4462.948730,4497.436035,4356.025879,4408.333496,0.000000,0.000000,6.000000,,,,0.000000,2.000000,2.000000,0.000000,2.000000,2.000000,2.000000,0.000000,2.000000,4.000000,4.000000,4.000000,4.000000,2.000000,4.000000,16.666666,,,,,,,,,,,,,,,,,,,,,,,,,,,,
1732083492.770525,1732083492.771663,43.000000,0.000000,4292.307617,4257.436035,4319.358887,4300.897461,4289.743652,4289.230957,4251.282227,4329.871582,4321.922852,4300.512695,4456.666504,4496.410156,4350.769043,4405.256348,0.000000,0.000000,6.000000,,,,0.000000,2.000000,2.000000,0.000000,2.000000,2.000000,2.000000,0.000000,2.000000,4.000000,4.000000,4.000000,4.000000,2.000000,4.000000,16.666666,,,,,,,,,,,,,,,,,,,,,,,,,,,,
1732083492.778333,1732083492.779571,44.000000,0.000000,4289.487305,4262.307617,4320.128418,4302.820313,4286.538574,4290.769043,4250.256348,4330.512695,4323.461426,4303.589844,4453.846191,4489.358887,4344.615234,4400.641113,0.000000,0.000000,6.000000,,,,0.000000,2.000000,2.000000,0.000000,2.000000,2.000000,2.000000,0.000000,2.000000,4.000000,4.000000,4.000000,4.000000,2.000000,4.000000,16.666666,,,,,,,,,,,,,,,,,11.000000,0.000000,0.679855,0.398865,-0.563721,0.246826,0.949335,0.244659,0.044439,-69.813202,68.409615,35.960884
1732083492.786142,1732083492.787379,45.000000,0.000000,4291.538574,4267.051270,4320.897461,4302.307617,4284.102539,4293.077148,4249.102539,4335.384766,4322.692383,4305.769043,4459.743652,4490.256348,4348.974121,4399.743652,0.000000,0.000000,6.000000,,,,0.000000,2.000000,2.000000,0.000000,2.000000,2.000000,2.000000,0.000000,2.000000,4.000000,4.000000,4.000000,4.000000,2.000000,4.000000,16.666666,,,,,,,,,,,,,,,,,,,,,,,,,,,,
1732083492.793950,1732083492.795387,46.000000,0.000000,4291.666504,4264.615234,4315.512695,4299.102539,4295.384766,4293.077148,4248.461426,4337.692383,4316.794922,4296.153809,4459.487305,4493.205078,4346.282227,4398.205078,0.000000,0.000000,6.000000,,,,0.000000,2.000000,2.000000,0.000000,2.000000,2.000000,2.000000,0.000000,2.000000,4.000000,4.000000,4.000000,4.000000,2.000000,4.000000,16.666666,,,,,,,,,,,,,,,,,,,,,,,,,,,,
1732083492.801758,1732083492.803196,47.000000,0.000000,4290.256348,4263.717773,4312.820313,4298.077148,4304.358887,4294.487305,4247.820313,4335.384766,4315.897461,4289.230957,4450.769043,4485.512695,4337.436035,4393.717773,0.000000,0.000000,6.000000,,,,0.000000,2.000000,2.000000,0.000000,2.000000,2.000000,2.000000,0.000000,2.000000,4.000000,4.000000,4.000000,4.000000,2.000000,4.000000,16.666666,,,,,,,,,,,,,,,,,,,,,,,,,,,,
1732083492.809566,1732083492.811104,48.000000,0.000000,4294.230957,4271.410156,4316.922852,4302.307617,4286.794922,4294.871582,4247.563965,4334.102539,4319.615234,4301.282227,4455.000000,4480.641113,4345.256348,4395.641113,0.000000,0.000000,6.000000,,,,0.000000,2.000000,2.000000,0.000000,2.000000,2.000000,2.000000,0.000000,2.000000,4.000000,4.000000,4.000000,4.000000,2.000000,4.000000,16.666666,,,,,,,,,,,,,,,,,12.000000,0.000000,0.679793,0.398743,-0.564148,0.246216,0.949335,0.244659,0.044439,-69.842026,68.683449,35.993313
1732083492.817375,1732083492.818912,49.000000,0.000000,4299.487305,4272.948730,4317.307617,4304.487305,4272.051270,4294.743652,4247.948730,4334.487305,4321.410156,4308.846191,4460.897461,4482.820313,4351.025879,4397.179688,0.000000,0.000000,6.000000,,,,0.000000,2.000000,2.000000,0.000000,2.000000,2.000000,2.000000,0.000000,2.000000,4.000000,4.000000,4.000000,4.000000,2.000000,4.000000,16.666666,,,,,,,,,,,,,,,,,,,,,,,,,,,,
1732083492.825183,1732083492.826920,50.000000,0.000000,4295.000000,4265.769043,4312.307617,4299.871582,4279.230957,4294.358887,4246.538574,4335.128418,4318.846191,4298.717773,4448.077148,4479.230957,4338.589844,4387.820313,0.000000,0.000000,6.000000,,,,0.000000,2.000000,2.000000,0.000000,2.000000,2.000000,2.000000,0.000000,2.000000,4.000000,4.000000,4.000000,4.000000,2.000000,4.000000,16.666666,,,,,,,,,,,,,,,,,,,,,,,,,,,,
1732083492.832991,1732083492.834728,51.000000,0.000000,4290.641113,4268.077148,4313.974121,4297.948730,4282.692383,4290.256348,4247.820313,4331.922852,4310.256348,4291.025879,4439.743652,4480.641113,4330.256348,4384.487305,0.000000,0.000000,6.000000,,,,0.000000,2.000000,2.000000,0.000000,2.000000,2.000000,2.000000,0.000000,2.000000,4.000000,4.000000,4.000000,4.000000,2.000000,4.000000,16.666666,,,,,,,,,,,,,,,,,,,,,,,,,,,,
1732083492.840799,1732083492.842636,52.000000,0.000000,4294.487305,4269.871582,4318.461426,4302.307617,4276.666504,4289.615234,4250.897461,4333.846191,4313.717773,4295.641113,4446.538574,4490.000000,4333.974121,4393.205078,0.000000,0.000000,6.000000,,,,0.000000,2.000000,2.000000,0.000000,2.000000,2.000000,2.000000,0.000000,2.000000,4.000000,4.000000,4.000000,4.000000,2.000000,4.000000,16.666666,,,,,,,,,,,,,,,,,13.000000,0.000000,0.679616,0.398682,-0.564697,0.245544,0.900012,0.277378,0.043951,-69.647041,68.853600,36.017918
1732083492.848608,1732083492.850444,53.000000,0.000000,4297.051270,4261.794922,4316.538574,4303.205078,4278.974121,4298.077148,4252.179688,4347.948730,4330.897461,4303.461426,4449.102539,4490.641113,4336.666504,4394.871582,0.000000,0.000000,6.000000,,,,0.000000,2.000000,2.000000,0.000000,2.000000,2.000000,2.000000,0.000000,2.000000,4.000000,4.000000,4.000000,4.000000,2.000000,4.000000,16.666666,,,,,,,,,,,,,,,,,,,,,,,,,,,,
1732083492.856416,1732083492.858452,54.000000,0.000000,4292.436035,4261.538574,4317.948730,4300.769043,4280.384766,4301.153809,4254.487305,4353.974121,4330.641113,4303.077148,4446.153809,4488.077148,4335.000000,4388.846191,0.000000,0.000000,6.000000,,,,0.000000,2.000000,2.000000,0.000000,2.000000,2.000000,2.000000,0.000000,2.000000,4.000000,4.000000,4.000000,4.000000,2.000000,4.000000,16.666666,,,,,,,,,,,,,,,,,,,,,,,,,,,,
1732083492.864224,1732083492.866261,55.000000,0.000000,4288.461426,4266.666504,4318.205078,4298.717773,4277.948730,4295.128418,4252.436035,4339.871582,4313.974121,4294.102539,4442.948730,4487.820313,4331.922852,4385.384766,0.000000,0.000000,6.000000,,,,0.000000,2.000000,2.000000,0.000000,2.000000,2.000000,2.000000,0.000000,2.000000,4.000000,4.000000,4.000000,4.000000,2.000000,4.000000,16.666666,,,,,,,,,,,,,,,,,,,,,,,,,,,,
1732083492.872033,1732083492.874169,56.000000,0.000000,4286.794922,4262.436035,4317.948730,4292.692383,4277.179688,4293.846191,4251.538574,4328.717773,4313.077148,4291.410156,4440.128418,4489.358887,4331.666504,4386.666504,0.000000,0.000000,6.000000,,,,0.000000,2.000000,2.000000,0.000000,2.000000,2.000000,2.000000,0.000000,2.000000,4.000000,4.000000,4.000000,4.000000,2.000000,4.000000,16.666666,,,,,,,,,,,,,,,,,14.000000,0.000000,0.679140,0.400269,-0.565857,0.241577,0.895617,0.354047,0.015627,-69.412437,69.043083,36.106182
1732083492.879841,1732083492.881977,57.000000,0.000000,4282.307617,4259.487305,4316.025879,4287.948730,4275.769043,4299.102539,4252.179688,4333.974121,4324.615234,4297.051270,4439.358887,4488.717773,4336.794922,4386.538574,0.000000,0.000000,6.000000,,,,0.000000,2.000000,2.000000,0.000000,2.000000,2.000000,2.000000,0.000000,2.000000,4.000000,4.000000,4.000000,4.000000,2.000000,4.000000,16.666666,,,,,,,,,,,,,,,,,,,,,,,,,,,,
1732083492.887649,1732083492.889985,58.000000,0.000000,4279.487305,4260.897461,4315.897461,4286.922852,4276.666504,4301.794922,4252.307617,4338.205078,4322.692383,4293.589844,4435.128418,4480.256348,4333.846191,4378.974121,0.000000,0.000000,6.000000,,,,0.000000,2.000000,2.000000,0.000000,2.000000,2.000000,2.000000,0.000000,2.000000,4.000000,4.000000,4.000000,4.000000,2.000000,4.000000,16.666666,,,,,,,,,,,,,,,,,,,,,,,,,,,,
1732083492.895457,1732083492.897793,59.000000,0.000000,4287.051270,4259.102539,4313.333496,4287.563965,4270.128418,4297.820313,4249.102539,4333.461426,4317.948730,4287.692383,4433.077148,4472.820313,4325.641113,4374.615234,0.000000,0.000000,6.000000,,,,0.000000,2.000000,2.000000,0.000000,2.000000,2.000000,2.000000,0.000000,2.000000,4.000000,4.000000,4.000000,4.000000,2.000000,4.000000,16.666666,,,,,,,,,,,,,,,,,,,,,,,,,,,,
1732083492.903266,1732083492.905501,60.000000,0.000000,4293.461426,4262.051270,4317.307617,4291.410156,4269.615234,4291.666504,4252.179688,4327.820313,4318.589844,4292.948730,4442.179688,4478.333496,4333.205078,4385.897461,0.000000,0.000000,6.000000,,,,0.000000,2.000000,2.000000,0.000000,2.000000,2.000000,2.000000,0.000000,2.000000,4.000000,4.000000,4.000000,4.000000,2.000000,4.000000,16.666666,,,,,,,,,,,,,,,,,15.000000,0.000000,0.678966,0.402893,-0.565369,0.238831,0.950311,0.336955,0.009767,-69.224075,69.273232,36.351006
1732083492.911074,1732083492.913310,61.000000,0.000000,4290.769043,4269.871582,4319.102539,4296.282227,4281.025879,4287.307617,4250.769043,4322.948730,4315.897461,4301.666504,4449.615234,4482.051270,4345.000000,4396.922852,0.000000,0.000000,6.000000,,,,0.000000,2.000000,2.000000,0.000000,2.000000,2.000000,2.000000,0.000000,2.000000,4.000000,4.000000,4.000000,4.000000,2.000000,4.000000,16.666666,,,,,,,,,,,,,,,,,,,,,,,,,,,,
1732083492.918882,1732083492.920918,62.000000,0.000000,4287.051270,4268.589844,4321.410156,4294.615234,4273.589844,4289.358887,4247.820313,4325.897461,4311.794922,4292.436035,4440.769043,4474.358887,4336.538574,4389.615234,0.000000,0.000000,6.000000,,,,0.000000,2.000000,2.000000,0.000000,2.000000,2.000000,2.000000,0.000000,2.000000,4.000000,4.000000,4.000000,4.000000,2.000000,4.000000,16.666666,,,,,,,,,,,,,,,,,,,,,,,,,,,,
1732083492.926690,1732083492.928726,63.000000,0.000000,4290.897461,4266.794922,4322.436035,4295.641113,4257.179688,4294.871582,4251.410156,4333.974121,4316.025879,4282.051270,4436.025879,4471.538574,4326.794922,4385.512695,0.000000,0.000000,6.000000,,,,0.000000,2.000000,2.000000,0.000000,2.000000,2.000000,2.000000,0.000000,2.000000,4.000000,4.000000,4.000000,4.000000,2.000000,4.000000,16.666666,,,,,,,,,,,,,,,,,,,,,,,,,,,,
1732083492.934499,1732083492.936435,64.000000,0.000000,4299.230957,4272.820313,4320.128418,4303.717773,4259.358887,4291.153809,4253.077148,4327.563965,4317.692383,4291.410156,4445.384766,4476.410156,4334.102539,4395.512695,0.000000,0.000000,6.000000,,,,0.000000,2.000000,2.000000,0.000000,2.000000,2.000000,2.000000,0.000000,2.000000,4.000000,4.000000,4.000000,4.000000,2.000000,4.000000,16.666666,,,,,,,,,,,,,,,,,16.000000,0.000000,0.678769,0.403320,-0.565430,0.238525,0.950311,0.336955,0.009767,-69.213165,69.284645,35.999313
1732083492.942307,1732083492.944243,65.000000,0.000000,4303.077148,4272.436035,4318.333496,4304.487305,4270.128418,4284.102539,4248.589844,4315.641113,4310.769043,4302.563965,4447.307617,4475.769043,4337.051270,4400.512695,1329.000000,0.000000,6.000000,,,,0.000000,2.000000,2.000000,0.000000,2.000000,2.000000,2.000000,0.000000,2.000000,4.000000,4.000000,4.000000,4.000000,2.000000,4.000000,16.666666,,,,,,,,,,,,,,,,,,,,,,,,,,,,
1732083492.950115,1732083492.951851,66.000000,0.000000,4299.871582,4263.333496,4315.897461,4299.102539,4271.153809,4293.333496,4249.615234,4325.128418,4316.538574,4300.897461,4442.692383,4473.077148,4329.358887,4396.025879,1250.000000,0.000000,6.000000,,,,0.000000,2.000000,2.000000,0.000000,2.000000,2.000000,2.000000,0.000000,2.000000,4.000000,4.000000,4.000000,4.000000,2.000000,4.000000,16.666666,,,,,,,,,,,,,,,,,,,,,,,,,,,,
1732083492.957924,1732083492.959659,67.000000,0.000000,4295.000000,4262.948730,4315.512695,4295.000000,4271.282227,4299.102539,4253.333496,4337.436035,4328.333496,4297.563965,4444.487305,4475.769043,4327.051270,4391.922852,1202.000000,0.000000,6.000000,,,,0.000000,2.000000,2.000000,0.000000,2.000000,2.000000,2.000000,0.000000,2.000000,4.000000,4.000000,4.000000,4.000000,2.000000,4.000000,16.666666,,,,,,,,,,,,,,,,,,,,,,,,,,,,
1732083492.965732,1732083492.967368,68.000000,0.000000,4291.922852,4270.256348,4314.743652,4295.641113,4276.025879,4289.743652,4249.102539,4330.769043,4323.077148,4302.436035,4447.948730,4473.589844,4332.436035,4392.179688,1215.000000,0.000000,6.000000,,,,0.000000,2.000000,2.000000,0.000000,2.000000,2.000000,2.000000,0.000000,2.000000,4.000000,4.000000,4.000000,4.000000,2.000000,4.000000,16.666666,,,,,,,,,,,,,,,,,17.000000,0.000000,0.676587,0.402954,-0.567139,0.241272,0.972287,0.308631,0.049811,-69.291000,69.273895,35.856113
1732083492.973540,1732083492.975176,69.000000,0.000000,4289.871582,4271.666504,4316.410156,4297.436035,4276.538574,4290.897461,4247.179688,4321.666504,4310.384766,4301.025879,4443.333496,4464.743652,4332.436035,4386.666504,1083.000000,0.000000,6.000000,,,,0.000000,2.000000,2.000000,0.000000,2.000000,2.000000,2.000000,0.000000,2.000000,4.000000,4.000000,4.000000,4.000000,2.000000,4.000000,16.666666,,,,,,,,,,,,,,,,,,,,,,,,,,,,
1732083492.981348,1732083492.982784,70.000000,0.000000,4287.563965,4269.487305,4309.743652,4299.102539,4279.743652,4299.871582,4247.563965,4325.256348,4311.794922,4292.563965,4437.051270,4458.077148,4324.743652,4378.589844,0.000000,0.000000,6.000000,,,,0.000000,2.000000,2.000000,0.000000,2.000000,2.000000,2.000000,0.000000,2.000000,4.000000,4.000000,4.000000,4.000000,2.000000,4.000000,16.666666,,,,,,,,,,,,,,,,,,,,,,,,,,,,
1732083492.989157,1732083492.990593,71.000000,0.000000,4283.846191,4267.436035,4306.666504,4297.563965,4282.692383,4301.666504,4248.974121,4347.948730,4327.692383,4293.717773,4436.410156,4463.846191,4323.589844,4380.897461,1180.000000,0.000000,6.000000,,,,0.000000,2.000000,2.000000,0.000000,2.000000,2.000000,2.000000,0.000000,2.000000,4.000000,4.000000,4.000000,4.000000,2.000000,4.000000,16.666666,,,,,,,,,,,,,,,,,,,,,,,,,,,,
1732083492.996965,1732083492.998501,72.000000,0.000000,4287.051270,4271.666504,4301.794922,4300.256348,4278.589844,4294.743652,4242.820313,4355.897461,4339.871582,4312.563965,4443.077148,4468.589844,4334.871582,4389.358887,1369.000000,0.000000,6.000000,,,,0.000000,2.000000,2.000000,0.000000,2.000000,2.000000,2.000000,0.000000,2.000000,4.000000,4.000000,4.000000,4.000000,2.000000,4.000000,16.666666,,,,,,,,,,,,,,,,,18.000000,0.000000,0.674074,0.400940,-0.570190,0.244446,0.959590,0.236357,0.049322,-69.405708,69.191856,35.725117
1732083493.004773,1732083493.006309,73.000000,0.000000,4298.077148,4279.743652,4300.897461,4306.153809,4271.538574,4281.666504,4236.538574,4320.000000,4331.025879,4324.871582,4447.948730,4465.641113,4344.871582,4390.384766,1523.000000,0.000000,6.000000,,,,0.000000,2.000000,2.000000,0.000000,2.000000,2.000000,2.000000,0.000000,2.000000,4.000000,4.000000,4.000000,4.000000,2.000000,4.000000,16.666666,,,,,,,,,,,,,,,,,,,,,,,,,,,,
1732083493.012581,1732083493.014317,74.000000,0.000000,4304.230957,4281.538574,4301.794922,4307.563965,4275.256348,4279.102539,4234.871582,4297.692383,4316.025879,4313.077148,4445.256348,4463.205078,4342.436035,4388.205078,1391.000000,0.000000,6.000000,,,,0.000000,2.000000,2.000000,0.000000,2.000000,2.000000,2.000000,0.000000,2.000000,4.000000,4.000000,4.000000,4.000000,2.000000,4.000000,16.666666,,,,,,,,,,,,,,,,,,,,,,,,,,,,
1732083493.020390,1732083493.022125,75.000000,0.000000,4300.384766,4275.128418,4304.871582,4305.000000,4283.846191,4285.000000,4239.743652,4318.717773,4317.179688,4300.384766,4444.487305,4466.025879,4335.512695,4388.589844,1524.000000,0.000000,6.000000,,,,0.000000,2.000000,2.000000,0.000000,2.000000,2.000000,2.000000,0.000000,2.000000,4.000000,4.000000,4.000000,4.000000,2.000000,4.000000,16.666666,,,,,,,,,,,,,,,,,,,,,,,,,,,,
1732083493.028198,1732083493.029833,76.000000,0.000000,4299.230957,4272.563965,4306.538574,4305.000000,4277.820313,4281.922852,4240.384766,4324.230957,4319.743652,4301.666504,4450.256348,4466.153809,4336.538574,4390.512695,1755.000000,0.000000,6.000000,,,,0.000000,2.000000,2.000000,0.000000,2.000000,2.000000,2.000000,0.000000,2.000000,4.000000,4.000000,4.000000,4.000000,2.000000,4.000000,16.666666,,,,,,,,,,,,,,,,,19.000000,0.000000,0.674074,0.400940,-0.570190,0.244446,0.945428,0.218777,0.060066,-69.453621,68.870407,35.574013
1732083493.036006,1732083493.037642,77.000000,0.000000,4300.384766,4276.922852,4309.487305,4303.205078,4279.743652,4278.717773,4241.538574,4309.743652,4312.820313,4299.230957,4450.128418,4462.179688,4340.384766,4391.538574,1573.000000,0.000000,6.000000,,,,0.000000,2.000000,2.000000,0.000000,2.000000,2.000000,2.000000,0.000000,2.000000,4.000000,4.000000,4.000000,4.000000,2.000000,4.000000,16.666666,,,,,,,,,,,,,,,,,,,,,,,,,,,,
1732083493.043814,1732083493.045250,78.000000,0.000000,4297.307617,4278.717773,4309.230957,4298.589844,4299.615234,4284.358887,4246.025879,4317.692383,4313.974121,4291.410156,4445.128418,4462.820313,4339.230957,4387.948730,1391.000000,0.000000,6.000000,,,,0.000000,2.000000,2.000000,0.000000,2.000000,2.000000,2.000000,0.000000,2.000000,4.000000,4.000000,4.000000,4.000000,2.000000,4.000000,16.666666,1.000000,16.666666,2.000000,2.000000,0.000000,2.000000,2.000000,2.000000,0.000000,2.000000,4.000000,4.000000,4.000000,4.000000,2.000000,4.000000,,,,,,,,,,,,
1732083493.051623,1732083493.053058,79.000000,0.000000,4295.384766,4276.666504,4307.563965,4298.589844,4297.051270,4284.615234,4247.948730,4327.307617,4321.666504,4296.794922,4443.589844,4465.769043,4336.282227,4387.307617,1524.000000,0.000000,6.000000,,,,0.000000,2.000000,2.000000,0.000000,2.000000,2.000000,2.000000,0.000000,2.000000,4.000000,4.000000,4.000000,4.000000,2.000000,4.000000,16.666666,,,,,,,,,,,,,,,,,,,,,,,,,,,,
1732083493.059431,1732083493.060767,80.000000,0.000000,4295.384766,4272.820313,4311.538574,4300.769043,4276.410156,4283.205078,4246.410156,4322.692383,4320.128418,4298.077148,4442.051270,4466.410156,4331.922852,4387.436035,1755.000000,0.000000,6.000000,,,,0.000000,2.000000,2.000000,0.000000,2.000000,2.000000,2.000000,0.000000,2.000000,4.000000,4.000000,4.000000,4.000000,2.000000,4.000000,16.666666,,,,,,,,,,,,,,,,,20.000000,0.000000,0.672501,0.399353,-0.572449,0.246094,0.939568,0.210475,0.048346,-69.549103,68.660027,35.538284
1732083493.067239,1732083493.068575,81.000000,0.000000,4296.025879,4275.256348,4310.512695,4300.384766,4276.666504,4284.615234,4243.589844,4321.410156,4315.769043,4287.436035,4440.512695,4463.846191,4329.487305,4384.871582,1573.000000,0.000000,6.000000,,,,0.000000,2.000000,2.000000,0.000000,2.000000,2.000000,2.000000,0.000000,2.000000,4.000000,4.000000,4.000000,4.000000,2.000000,4.000000,16.666666,,,,,,,,,,,,,,,,,,,,,,,,,,,,
1732083493.075047,1732083493.076183,82.000000,0.000000,4302.179688,4284.871582,4311.153809,4305.256348,4293.846191,4282.692383,4245.000000,4326.410156,4320.128418,4292.436035,4445.384766,4465.000000,4338.974121,4389.615234,1391.000000,0.000000,6.000000,,,,0.000000,2.000000,2.000000,0.000000,2.000000,2.000000,2.000000,0.000000,2.000000,4.000000,4.000000,4.000000,4.000000,2.000000,4.000000,16.666666,,,,,,,,,,,,,,,,,,,,,,,,,,,,
1732083493.082856,1732083493.083991,83.000000,0.000000,4310.128418,4289.230957,4313.461426,4311.282227,4294.102539,4282.179688,4245.897461,4332.820313,4326.282227,4307.820313,4452.307617,4473.205078,4348.717773,4397.563965,1524.000000,0.000000,6.000000,,,,0.000000,2.000000,2.000000,0.000000,2.000000,2.000000,2.000000,0.000000,2.000000,4.000000,4.000000,4.000000,4.000000,2.000000,4.000000,16.666666,,,,,,,,,,,,,,,,,,,,,,,,,,,,
1732083493.090664,1732083493.091899,84.000000,0.000000,4309.487305,4283.846191,4317.307617,4308.589844,4280.256348,4283.205078,4245.641113,4332.051270,4320.512695,4303.461426,4451.666504,4480.512695,4342.051270,4396.025879,1755.000000,0.000000,6.000000,,,,0.000000,2.000000,2.000000,0.000000,2.000000,2.000000,2.000000,0.000000,2.000000,4.000000,4.000000,4.000000,4.000000,2.000000,4.000000,16.666666,,,,,,,,,,,,,,,,,21.000000,0.000000,0.668756,0.397278,-0.576599,0.249939,0.951776,0.235869,0.042974,-69.736443,68.502953,35.622677
1732083493.098472,1732083493.099708,85.000000,0.000000,4302.820313,4280.128418,4311.538574,4302.436035,4292.948730,4283.205078,4244.615234,4325.897461,4312.179688,4291.410156,4445.897461,4474.487305,4334.487305,4392.436035,1573.000000,0.000000,6.000000,,,,0.000000,2.000000,2.000000,0.000000,2.000000,2.000000,2.000000,0.000000,2.000000,4.000000,4.000000,4.000000,4.000000,2.000000,4.000000,16.666666,,,,,,,,,,,,,,,,,,,,,,,,,,,,
1732083493.106280,1732083493.107716,86.000000,0.000000,4300.000000,4281.922852,4313.461426,4300.769043,4307.436035,4282.563965,4248.205078,4324.102539,4311.410156,4292.820313,4444.358887,4468.333496,4337.051270,4390.000000,1391.000000,0.000000,6.000000,,,,0.000000,2.000000,2.000000,0.000000,2.000000,2.000000,2.000000,0.000000,2.000000,4.000000,4.000000,4.000000,4.000000,2.000000,4.000000,16.666666,,,,,,,,,,,,,,,,,,,,,,,,,,,,
1732083493.114089,1732083493.115524,87.000000,0.000000,4303.717773,4284.230957,4316.794922,4303.846191,4289.615234,4283.333496,4251.282227,4326.025879,4314.230957,4297.051270,4452.436035,4474.487305,4344.102539,4391.410156,1524.000000,0.000000,6.000000,,,,0.000000,2.000000,2.000000,0.000000,2.000000,2.000000,2.000000,0.000000,2.000000,4.000000,4.000000,4.000000,4.000000,2.000000,4.000000,16.666666,,,,,,,,,,,,,,,,,,,,,,,,,,,,
1732083493.121897,1732083493.123432,88.000000,0.000000,4304.871582,4281.794922,4317.051270,4303.461426,4272.051270,4282.948730,4251.922852,4325.512695,4311.922852,4295.384766,4460.384766,4485.128418,4346.538574,4399.871582,1755.000000,0.000000,6.000000,,,,0.000000,2.000000,2.000000,0.000000,2.000000,2.000000,2.000000,0.000000,2.000000,4.000000,4.000000,4.000000,4.000000,2.000000,4.000000,16.666666,,,,,,,,,,,,,,,,,22.000000,0.000000,0.666579,0.398193,-0.577637,0.251892,0.935173,0.279819,0.023929,-69.938179,68.344063,35.639366
1732083493.129705,1732083493.131240,89.000000,0.000000,4301.794922,4279.102539,4315.769043,4298.974121,4281.922852,4280.128418,4248.717773,4325.897461,4309.615234,4292.948730,4457.692383,4485.641113,4343.333496,4403.846191,1573.000000,0.000000,6.000000,,,,0.000000,2.000000,2.000000,0.000000,2.000000,2.000000,2.000000,0.000000,2.000000,4.000000,4.000000,4.000000,4.000000,2.000000,4.000000,16.666666,,,,,,,,,,,,,,,,,,,,,,,,,,,,
1732083493.137514,1732083493.139248,90.000000,0.000000,4299.871582,4282.179688,4320.512695,4299.102539,4287.563965,4279.487305,4251.282227,4326.666504,4311.153809,4295.256348,4455.000000,4484.871582,4339.615234,4400.000000,1391.000000,0.000000,6.000000,,,,0.000000,2.000000,2.000000,0.000000,2.000000,2.000000,2.000000,0.000000,2.000000,4.000000,4.000000,4.000000,4.000000,2.000000,4.000000,16.666666,,,,,,,,,,,,,,,,,,,,,,,,,,,,
1732083493.145322,1732083493.147056,91.000000,0.000000,4303.077148,4285.512695,4321.410156,4303.846191,4283.333496,4282.179688,4254.102539,4327.948730,4316.282227,4302.179688,4459.230957,4491.922852,4342.692383,4402.948730,1524.000000,0.000000,6.000000,,,,0.000000,2.000000,2.000000,0.000000,2.000000,2.000000,2.000000,0.000000,2.000000,4.000000,4.000000,4.000000,4.000000,2.000000,4.000000,16.666666,,,,,,,,,,,,,,,,,,,,,,,,,,,,
1732083493.153130,1732083493.154964,92.000000,0.000000,4308.205078,4284.487305,4316.922852,4305.128418,4288.461426,4279.102539,4251.666504,4328.717773,4317.563965,4305.512695,4458.077148,4493.205078,4348.333496,4403.461426,1755.000000,0.000000,6.000000,,,,0.000000,2.000000,2.000000,0.000000,2.000000,2.000000,2.000000,0.000000,2.000000,4.000000,4.000000,4.000000,4.000000,2.000000,4.000000,16.666666,,,,,,,,,,,,,,,,,23.000000,0.000000,0.666579,0.398193,-0.577637,0.251892,0.910267,0.311073,0.002442,-69.981598,68.215355,35.802887
1732083493.160938,1732083493.162773,93.000000,0.000000,4309.871582,4286.794922,4318.846191,4304.358887,4285.128418,4277.051270,4247.948730,4325.256348,4312.692383,4306.538574,4452.307617,4485.384766,4345.000000,4396.794922,1573.000000,0.000000,6.000000,,,,0.000000,2.000000,2.000000,0.000000,2.000000,2.000000,2.000000,0.000000,2.000000,4.000000,4.000000,4.000000,4.000000,2.000000,4.000000,16.666666,,,,,,,,,,,,,,,,,,,,,,,,,,,,
1732083493.168747,1732083493.170781,94.000000,0.000000,4305.000000,4287.563965,4321.282227,4301.153809,4274.102539,4280.000000,4251.153809,4326.922852,4311.794922,4305.384766,4454.743652,4485.384766,4339.487305,4396.538574,1391.000000,0.000000,6.000000,,,,0.000000,2.000000,2.000000,0.000000,2.000000,2.000000,2.000000,0.000000,2.000000,4.000000,4.000000,4.000000,4.000000,2.000000,4.000000,16.666666,,,,,,,,,,,,,,,,,,,,,,,,,,,,
1732083493.176555,1732083493.178589,95.000000,0.000000,4299.871582,4280.512695,4319.358887,4299.358887,4284.487305,4280.000000,4255.128418,4332.307617,4314.102539,4298.461426,4457.436035,4491.153809,4338.717773,4397.307617,1524.000000,0.000000,6.000000,,,,0.000000,2.000000,2.000000,0.000000,2.000000,2.000000,2.000000,0.000000,2.000000,4.000000,4.000000,4.000000,4.000000,2.000000,4.000000,16.666666,,,,,,,,,,,,,,,,,,,,,,,,,,,,
1732083493.184363,1732083493.186497,96.000000,0.000000,4300.256348,4279.102539,4317.051270,4302.563965,4299.102539,4280.512695,4253.589844,4331.025879,4313.589844,4296.666504,4453.077148,4488.589844,4339.102539,4394.871582,1755.000000,0.000000,6.000000,,,,0.000000,2.000000,2.000000,0.000000,2.000000,2.000000,2.000000,0.000000,2.000000,4.000000,4.000000,4.000000,4.000000,2.000000,4.000000,16.666666,,,,,,,,,,,,,,,,,24.000000,0.000000,0.660073,0.404480,-0.577637,0.258911,0.963497,0.290074,0.008302,-70.246758,68.049438,35.493671
1732083493.192171,1732083493.194305,97.000000,0.000000,4300.256348,4283.717773,4320.897461,4300.512695,4285.897461,4281.666504,4250.512695,4325.641113,4312.307617,4308.589844,4453.589844,4484.102539,4338.846191,4395.897461,1573.000000,0.000000,6.000000,,,,0.000000,2.000000,2.000000,0.000000,2.000000,2.000000,2.000000,0.000000,2.000000,4.000000,4.000000,4.000000,4.000000,2.000000,4.000000,16.666666,,,,,,,,,,,,,,,,,,,,,,,,,,,,
1732083493.199980,1732083493.202313,98.000000,0.000000,4300.641113,4281.282227,4320.384766,4296.922852,4267.692383,4282.436035,4250.256348,4323.333496,4312.436035,4313.589844,4455.000000,4483.077148,4339.102539,4397.692383,1391.000000,0.000000,6.000000,,,,0.000000,2.000000,2.000000,0.000000,2.000000,2.000000,2.000000,0.000000,2.000000,4.000000,4.000000,4.000000,4.000000,2.000000,4.000000,16.666666,,,,,,,,,,,,,,,,,,,,,,,,,,,,
1732083493.207788,1732083493.210121,99.000000,0.000000,4305.128418,4279.871582,4316.922852,4301.025879,4275.897461,4281.666504,4251.666504,4322.948730,4310.769043,4303.333496,4448.717773,4480.641113,4338.461426,4394.743652,1524.000000,0.000000,6.000000,,,,0.000000,2.000000,2.000000,0.000000,2.000000,2.000000,2.000000,0.000000,2.000000,4.000000,4.000000,4.000000,4.000000,2.000000,4.000000,16.666666,,,,,,,,,,,,,,,,,,,,,,,,,,,,
1732083493.215596,1732083493.218030,100.000000,0.000000,4310.769043,4287.051270,4316.282227,4304.743652,4282.307617,4280.384766,4248.974121,4321.410156,4306.794922,4300.000000,4449.358887,4478.846191,4340.384766,4400.641113,1755.000000,0.000000,6.000000,,,,0.000000,2.000000,2.000000,0.000000,2.000000,2.000000,2.000000,0.000000,2.000000,4.000000,4.000000,4.000000,4.000000,2.000000,4.000000,16.666666,,,,,,,,,,,,,,,,,25.000000,0.000000,0.653280,0.408386,-0.578491,0.267944,0.956171,0.274936,-0.002930,-70.678207,67.828377,35.123207
1732083493.223405,1732083493.225838,101.000000,0.000000,4313.846191,4288.846191,4318.589844,4301.410156,4272.820313,4279.871582,4248.846191,4319.615234,4307.051270,4306.538574,4458.461426,4480.897461,4346.922852,4413.461426,1573.000000,0.000000,6.000000,,,,0.000000,2.000000,2.000000,0.000000,2.000000,2.000000,2.000000,0.000000,2.000000,4.000000,4.000000,4.000000,4.000000,2.000000,4.000000,16.666666,,,,,,,,,,,,,,,,,,,,,,,,,,,,
1732083493.231213,1732083493.233446,102.000000,0.000000,4315.128418,4283.333496,4313.974121,4302.948730,4273.077148,4279.871582,4248.717773,4318.589844,4308.717773,4305.897461,4457.692383,4479.358887,4347.179688,4413.589844,1391.000000,0.000000,6.000000,,,,0.000000,2.000000,2.000000,0.000000,2.000000,2.000000,2.000000,0.000000,2.000000,4.000000,4.000000,4.000000,4.000000,2.000000,4.000000,16.666666,,,,,,,,,,,,,,,,,,,,,,,,,,,,
1732083493.239021,1732083493.241254,103.000000,0.000000,4322.948730,4281.538574,4312.563965,4306.153809,4273.589844,4281.410156,4249.230957,4320.000000,4307.307617,4300.769043,4451.282227,4480.000000,4342.692383,4410.769043,1524.000000,0.000000,6.000000,,,,0.000000,2.000000,2.000000,0.000000,2.000000,2.000000,2.000000,0.000000,2.000000,4.000000,4.000000,4.000000,4.000000,2.000000,4.000000,16.666666,,,,,,,,,,,,,,,,,,,,,,,,,,,,
1732083493.246829,1732083493.248963,104.000000,0.000000,4337.948730,4288.717773,4317.179688,4306.922852,4265.000000,4275.384766,4248.846191,4320.128418,4304.615234,4298.717773,4455.256348,4481.922852,4345.769043,4421.153809,1755.000000,0.000000,6.000000,,,,0.000000,2.000000,2.000000,0.000000,2.000000,2.000000,2.000000,0.000000,2.000000,4.000000,4.000000,4.000000,4.000000,2.000000,4.000000,16.666666,,,,,,,,,,,,,,,,,26.000000,0.000000,0.644583,0.411194,-0.581177,0.278687,0.986937,0.253449,-0.018069,-70.954346,67.460983,34.654797
1732083493.254638,1732083493.256771,105.000000,0.000000,4349.102539,4297.051270,4321.922852,4308.077148,4261.538574,4268.077148,4248.846191,4313.717773,4302.692383,4297.436035,4458.333496,4485.128418,4351.025879,4428.589844,1573.000000,0.000000,6.000000,,,,0.000000,2.000000,2.000000,0.000000,2.000000,2.000000,2.000000,0.000000,2.000000,4.000000,4.000000,4.000000,4.000000,2.000000,4.000000,16.666666,,,,,,,,,,,,,,,,,,,,,,,,,,,,
1732083493.262446,1732083493.264379,106.000000,0.000000,4354.102539,4296.153809,4320.512695,4311.282227,4264.102539,4270.641113,4249.358887,4311.794922,4302.179688,4301.538574,4456.282227,4490.256348,4352.563965,4429.615234,1391.000000,0.000000,6.000000,,,,0.000000,2.000000,2.000000,0.000000,2.000000,2.000000,2.000000,0.000000,2.000000,4.000000,4.000000,4.000000,4.000000,2.000000,4.000000,16.666666,,,,,,,,,,,,,,,,,,,,,,,,,,,,
1732083493.270254,1732083493.272188,107.000000,0.000000,4359.230957,4292.948730,4320.641113,4316.922852,4266.025879,4275.000000,4250.897461,4315.641113,4301.282227,4301.410156,4460.769043,4491.922852,4355.512695,4438.717773,1524.000000,0.000000,6.000000,,,,0.000000,2.000000,2.000000,0.000000,2.000000,2.000000,2.000000,0.000000,2.000000,4.000000,4.000000,4.000000,4.000000,2.000000,4.000000,16.666666,,,,,,,,,,,,,,,,,,,,,,,,,,,,
1732083493.278062,1732083493.279896,108.000000,0.000000,4369.102539,4298.077148,4323.077148,4322.948730,4261.282227,4272.948730,4248.077148,4315.256348,4301.538574,4290.769043,4466.922852,4492.436035,4357.307617,4447.436035,1755.000000,0.000000,6.000000,,,,0.000000,2.000000,2.000000,0.000000,2.000000,2.000000,2.000000,0.000000,2.000000,4.000000,4.000000,4.000000,4.000000,2.000000,4.000000,16.666666,,,,,,,,,,,,,,,,,27.000000,0.000000,0.644583,0.411194,-0.581177,0.278687,0.986937,0.253449,-0.018069,-71.178024,67.163399,34.170387
1732083493.285871,1732083493.287704,109.000000,0.000000,4375.000000,4304.487305,4325.384766,4321.666504,4262.948730,4266.922852,4246.922852,4310.769043,4297.820313,4288.205078,4464.358887,4491.282227,4352.820313,4444.102539,1573.000000,0.000000,6.000000,,,,0.000000,2.000000,2.000000,0.000000,2.000000,2.000000,2.000000,0.000000,2.000000,4.000000,4.000000,4.000000,4.000000,2.000000,4.000000,16.666666,,,,,,,,,,,,,,,,,,,,,,,,,,,,
1732083493.293679,1732083493.295312,110.000000,0.000000,4373.717773,4302.948730,4325.000000,4313.461426,4273.077148,4264.358887,4249.102539,4310.128418,4294.871582,4299.230957,4463.974121,4491.410156,4353.717773,4444.743652,1391.000000,0.000000,6.000000,,,,0.000000,2.000000,2.000000,0.000000,2.000000,2.000000,2.000000,0.000000,2.000000,4.000000,4.000000,4.000000,4.000000,2.000000,4.000000,16.666666,,,,,,,,,,,,,,,,,,,,,,,,,,,,
1732083493.301487,1732083493.303121,111.000000,0.000000,4375.897461,4302.179688,4325.384766,4314.358887,4267.179688,4264.487305,4252.436035,4312.948730,4299.487305,4305.641113,4470.897461,4494.230957,4359.487305,4457.436035,1524.000000,0.000000,6.000000,,,,0.000000,2.000000,2.000000,0.000000,2.000000,2.000000,2.000000,0.000000,2.000000,4.000000,4.000000,4.000000,4.000000,2.000000,4.000000,16.666666,,,,,,,,,,,,,,,,,,,,,,,,,,,,
1732083493.309295,1732083493.310829,112.000000,0.000000,4386.538574,4307.820313,4328.974121,4322.307617,4250.897461,4265.256348,4252.820313,4311.794922,4299.358887,4301.666504,4470.000000,4495.128418,4356.666504,4461.922852,1755.000000,0.000000,6.000000,,,,0.000000,2.000000,2.000000,0.000000,2.000000,2.000000,2.000000,0.000000,2.000000,4.000000,4.000000,4.000000,4.000000,2.000000,4.000000,16.666666,,,,,,,,,,,,,,,,,28.000000,0.000000,0.628981,0.410461,-0.590088,0.296143,0.999145,0.156269,-0.029789,-71.930862,66.454018,33.398014
1732083493.317104,1732083493.318637,113.000000,0.000000,4392.436035,4314.487305,4330.769043,4323.589844,4253.717773,4263.461426,4251.922852,4311.666504,4294.743652,4297.948730,4462.948730,4486.666504,4351.794922,4453.717773,1573.000000,0.000000,6.000000,,,,0.000000,2.000000,2.000000,0.000000,2.000000,2.000000,2.000000,0.000000,2.000000,4.000000,4.000000,4.000000,4.000000,2.000000,4.000000,16.666666,,,,,,,,,,,,,,,,,,,,,,,,,,,,
1732083493.324912,1732083493.326246,114.000000,0.000000,4389.358887,4313.846191,4332.179688,4321.282227,4264.358887,4263.589844,4250.897461,4315.384766,4295.384766,4298.205078,4460.384766,4486.666504,4351.666504,4451.538574,1391.000000,0.000000,6.000000,,,,0.000000,2.000000,2.000000,0.000000,2.000000,2.000000,2.000000,0.000000,2.000000,4.000000,4.000000,4.000000,4.000000,2.000000,4.000000,16.666666,,,,,,,,,,,,,,,,,,,,,,,,,,,,
1732083493.332720,1732083493.334054,115.000000,0.000000,4390.641113,4307.948730,4331.794922,4323.717773,4262.436035,4267.563965,4250.000000,4313.333496,4297.436035,4302.563965,4461.538574,4494.615234,4352.179688,4459.615234,1524.000000,0.000000,6.000000,,,,0.000000,2.000000,2.000000,0.000000,2.000000,2.000000,2.000000,0.000000,2.000000,4.000000,4.000000,4.000000,4.000000,2.000000,4.000000,16.666666,,,,,,,,,,,,,,,,,,,,,,,,,,,,
1732083493.340528,1732083493.341762,116.000000,0.000000,4395.000000,4309.358887,4331.538574,4327.051270,4259.487305,4263.717773,4251.153809,4309.743652,4296.025879,4299.615234,4460.128418,4493.717773,4350.769043,4462.436035,1755.000000,0.000000,6.000000,,,,0.000000,2.000000,2.000000,0.000000,2.000000,2.000000,2.000000,0.000000,2.000000,4.000000,4.000000,4.000000,4.000000,2.000000,4.000000,16.666666,,,,,,,,,,,,,,,,,29.000000,0.000000,0.619959,0.407532,-0.596680,0.305847,0.959590,0.150409,-0.059578,-72.484001,65.807755,32.797390
1732083493.348337,1732083493.349570,117.000000,0.000000,4397.051270,4316.538574,4329.615234,4330.000000,4263.461426,4262.563965,4250.512695,4310.000000,4294.615234,4291.025879,4459.743652,4490.769043,4350.128418,4459.230957,1573.000000,0.000000,6.000000,,,,0.000000,2.000000,2.000000,0.000000,2.000000,2.000000,2.000000,0.000000,2.000000,4.000000,4.000000,4.000000,4.000000,2.000000,4.000000,16.666666,,,,,,,,,,,,,,,,,,,,,,,,,,,,
1732083493.356145,1732083493.357179,118.000000,0.000000,4395.641113,4319.102539,4330.384766,4330.769043,4266.538574,4265.769043,4248.077148,4302.692383,4286.282227,4288.846191,4458.205078,4491.282227,4350.641113,4461.922852,1391.000000,0.000000,6.000000,,,,0.000000,2.000000,2.000000,0.000000,2.000000,2.000000,2.000000,0.000000,2.000000,4.000000,4.000000,4.000000,4.000000,2.000000,4.000000,16.666666,,,,,,,,,,,,,,,,,,,,,,,,,,,,
1732083493.363953,1732083493.364987,119.000000,0.000000,4396.666504,4320.256348,4327.820313,4328.333496,4266.282227,4262.307617,4245.256348,4292.179688,4281.025879,4295.128418,4456.538574,4490.897461,4352.307617,4462.820313,1524.000000,0.000000,6.000000,,,,0.000000,2.000000,2.000000,0.000000,2.000000,2.000000,2.000000,0.000000,2.000000,4.000000,4.000000,4.000000,4.000000,2.000000,4.000000,16.666666,,,,,,,,,,,,,,,,,,,,,,,,,,,,
1732083493.371761,1732083493.372695,120.000000,0.000000,4398.333496,4323.077148,4330.384766,4328.333496,4261.666504,4260.000000,4247.307617,4306.922852,4297.179688,4300.128418,4459.615234,4496.282227,4354.743652,4461.666504,1755.000000,0.000000,6.000000,,,,0.000000,2.000000,2.000000,0.000000,2.000000,2.000000,2.000000,0.000000,2.000000,4.000000,4.000000,4.000000,4.000000,2.000000,4.000000,16.666666,,,,,,,,,,,,,,,,,30.000000,0.000000,0.615553,0.405823,-0.600159,0.310181,0.959590,0.150409,-0.059578,-72.902039,65.209282,32.130886
1732083493.379570,1732083493.380503,121.000000,0.000000,4398.205078,4327.948730,4331.538574,4331.025879,4273.205078,4262.051270,4246.410156,4318.974121,4303.589844,4300.512695,4465.384766,4501.025879,4358.205078,4465.769043,1573.000000,0.000000,6.000000,,,,0.000000,2.000000,2.000000,0.000000,2.000000,2.000000,2.000000,0.000000,2.000000,4.000000,4.000000,4.000000,4.000000,2.000000,4.000000,16.666666,,,,,,,,,,,,,,,,,,,,,,,,,,,,
1732083493.387378,1732083493.388112,122.000000,0.000000,4398.333496,4331.282227,4328.846191,4331.538574,4285.256348,4259.102539,4247.051270,4302.563965,4288.846191,4302.179688,4467.179688,4497.179688,4362.692383,4469.487305,1391.000000,0.000000,6.000000,,,,0.000000,2.000000,2.000000,0.000000,2.000000,2.000000,2.000000,0.000000,2.000000,4.000000,4.000000,4.000000,4.000000,2.000000,4.000000,16.666666,,,,,,,,,,,,,,,,,,,,,,,,,,,,
1732083493.395186,1732083493.395920,123.000000,0.000000,4401.410156,4333.846191,4328.589844,4333.461426,4270.128418,4258.333496,4249.102539,4299.102539,4291.282227,4297.563965,4468.077148,4497.820313,4362.563965,4470.128418,1524.000000,0.000000,6.000000,,,,0.000000,2.000000,2.000000,0.000000,2.000000,2.000000,2.000000,0.000000,2.000000,4.000000,4.000000,4.000000,4.000000,2.000000,4.000000,16.666666,,,,,,,,,,,,,,,,,,,,,,,,,,,,
1732083493.402995,1732083493.403828,124.000000,0.000000,4401.025879,4335.769043,4329.230957,4337.692383,4258.589844,4264.615234,4249.871582,4313.717773,4302.692383,4292.051270,4472.948730,4504.358887,4358.846191,4469.871582,1755.000000,0.000000,6.000000,,,,0.000000,2.000000,2.000000,0.000000,2.000000,2.000000,2.000000,0.000000,2.000000,4.000000,4.000000,4.000000,4.000000,2.000000,4.000000,16.666666,,,,,,,,,,,,,,,,,31.000000,0.000000,0.598250,0.398438,-0.613708,0.326660,0.959101,0.044439,-0.087901,-73.762321,64.297852,31.042685
1732083493.410803,1732083493.411636,125.000000,0.000000,4395.128418,4336.410156,4324.102539,4342.307617,4274.102539,4265.897461,4247.563965,4313.461426,4296.153809,4293.589844,4472.692383,4501.794922,4355.384766,4469.102539,1573.000000,0.000000,6.000000,,,,0.000000,2.000000,2.000000,0.000000,2.000000,2.000000,2.000000,0.000000,2.000000,4.000000,4.000000,4.000000,4.000000,2.000000,4.000000,16.666666,,,,,,,,,,,,,,,,,,,,,,,,,,,,
1732083493.418611,1732083493.419644,126.000000,0.000000,4395.769043,4340.769043,4322.436035,4345.769043,4286.410156,4265.000000,4247.820313,4304.871582,4290.128418,4290.641113,4466.794922,4496.538574,4353.461426,4463.461426,1391.000000,0.000000,6.000000,,,,0.000000,2.000000,2.000000,0.000000,2.000000,2.000000,2.000000,0.000000,2.000000,4.000000,4.000000,4.000000,4.000000,2.000000,4.000000,16.666666,,,,,,,,,,,,,,,,,,,,,,,,,,,,
1732083493.426419,1732083493.427453,127.000000,0.000000,4400.256348,4345.128418,4330.256348,4347.307617,4280.256348,4265.256348,4246.410156,4301.538574,4294.871582,4287.179688,4469.487305,4498.461426,4355.384766,4463.974121,6.000000,0.000000,6.000000,,,,0.000000,2.000000,2.000000,0.000000,2.000000,2.000000,2.000000,0.000000,2.000000,4.000000,4.000000,4.000000,4.000000,2.000000,4.000000,16.666666,,,,,,,,,,,,,,,,,,,,,,,,,,,,
1732083493.434228,1732083493.435161,0.000000,0.000000,4401.410156,4343.077148,4329.615234,4348.333496,4278.077148,4263.589844,4246.025879,4300.512695,4293.974121,4296.025879,4470.641113,4501.282227,4357.051270,4467.307617,0.000000,0.000000,6.000000,,,,0.000000,2.000000,2.000000,0.000000,2.000000,2.000000,2.000000,0.000000,2.000000,4.000000,4.000000,4.000000,4.000000,2.000000,4.000000,16.666666,,,,,,,,,,,,,,,,,0.000000,0.000000,0.590210,0.393799,-0.620178,0.334595,0.920523,0.028812,-0.082041,-74.359146,63.509594,30.161242
1732083493.442036,1732083493.442969,1.000000,0.000000,4399.615234,4341.538574,4328.589844,4348.205078,4283.846191,4263.974121,4248.846191,4300.128418,4290.897461,4300.128418,4463.717773,4501.153809,4354.743652,4463.461426,1325.000000,0.000000,6.000000,,,,0.000000,2.000000,2.000000,0.000000,2.000000,2.000000,2.000000,0.000000,2.000000,4.000000,4.000000,4.000000,4.000000,2.000000,4.000000,16.666666,,,,,,,,,,,,,,,,,,,,,,,,,,,,
1732083493.449844,1732083493.450578,2.000000,0.000000,4396.410156,4347.948730,4328.077148,4347.948730,4287.692383,4265.512695,4248.717773,4300.512695,4292.436035,4292.307617,4466.025879,4497.179688,4353.077148,4460.000000,1242.000000,0.000000,6.000000,,,,0.000000,2.000000,2.000000,0.000000,2.000000,2.000000,2.000000,0.000000,2.000000,4.000000,4.000000,4.000000,4.000000,2.000000,4.000000,16.666666,,,,,,,,,,,,,,,,,,,,,,,,,,,,
1732083493.457652,1732083493.458386,3.000000,0.000000,4393.717773,4347.563965,4329.358887,4346.922852,4286.410156,4262.948730,4246.666504,4299.871582,4295.512695,4295.256348,4475.641113,4500.256348,4354.743652,4463.846191,1199.000000,0.000000,6.000000,,,,0.000000,2.000000,2.000000,0.000000,2.000000,2.000000,2.000000,0.000000,2.000000,4.000000,4.000000,4.000000,4.000000,2.000000,4.000000,16.666666,,,,,,,,,,,,,,,,,,,,,,,,,,,,
1732083493.465461,1732083493.466094,4.000000,0.000000,4391.922852,4338.333496,4328.846191,4341.794922,4280.512695,4263.846191,4246.153809,4304.102539,4301.153809,4303.846191,4476.025879,4508.333496,4357.179688,4470.256348,1215.000000,0.000000,6.000000,,,,0.000000,2.000000,2.000000,0.000000,2.000000,2.000000,2.000000,0.000000,2.000000,4.000000,4.000000,4.000000,4.000000,2.000000,4.000000,16.666666,,,,,,,,,,,,,,,,,1.000000,0.000000,0.586559,0.391663,-0.622803,0.338623,0.910756,0.046392,-0.094250,-74.734238,62.367771,29.338940
1732083493.473269,1732083493.473902,5.000000,0.000000,4389.871582,4335.128418,4329.487305,4331.410156,4278.589844,4266.410156,4247.820313,4307.179688,4303.461426,4299.615234,4471.153809,4503.974121,4355.641113,4466.538574,1083.000000,0.000000,6.000000,,,,0.000000,2.000000,2.000000,0.000000,2.000000,2.000000,2.000000,0.000000,2.000000,4.000000,4.000000,4.000000,4.000000,2.000000,4.000000,16.666666,,,,,,,,,,,,,,,,,,,,,,,,,,,,
1732083493.481077,1732083493.481511,6.000000,0.000000,4386.410156,4334.230957,4326.282227,4327.820313,4279.871582,4265.641113,4247.179688,4309.743652,4301.282227,4295.256348,4470.769043,4491.922852,4352.179688,4460.128418,0.000000,0.000000,6.000000,,,,0.000000,2.000000,2.000000,0.000000,2.000000,2.000000,2.000000,0.000000,2.000000,4.000000,4.000000,4.000000,4.000000,2.000000,4.000000,16.666666,,,,,,,,,,,,,,,,,,,,,,,,,,,,
1732083493.488886,1732083493.489319,7.000000,0.000000,4387.051270,4333.589844,4328.461426,4334.871582,4285.128418,4265.769043,4246.794922,4311.794922,4301.410156,4292.179688,4467.820313,4492.307617,4351.025879,4461.666504,1180.000000,0.000000,6.000000,,,,0.000000,2.000000,2.000000,0.000000,2.000000,2.000000,2.000000,0.000000,2.000000,4.000000,4.000000,4.000000,4.000000,2.000000,4.000000,16.666666,,,,,,,,,,,,,,,,,,,,,,,,,,,,
1732083493.496694,1732083493.497227,8.000000,0.000000,4391.538574,4339.615234,4331.153809,4342.051270,4289.871582,4267.179688,4247.307617,4306.153809,4301.922852,4287.563965,4467.692383,4498.461426,4355.128418,4465.128418,1369.000000,0.000000,6.000000,,,,0.000000,2.000000,2.000000,0.000000,2.000000,2.000000,2.000000,0.000000,2.000000,4.000000,4.000000,4.000000,4.000000,2.000000,4.000000,16.666666,,,,,,,,,,,,,,,,,2.000000,0.000000,0.576740,0.385925,-0.629517,0.349487,0.936638,0.029300,-0.124039,-75.418068,61.316227,28.641207
1732083493.504502,1732083493.505035,9.000000,0.000000,4390.512695,4347.179688,4328.333496,4342.948730,4290.897461,4267.051270,4249.230957,4306.025879,4302.179688,4294.230957,4472.692383,4501.410156,4358.461426,4462.307617,1524.000000,0.000000,6.000000,,,,0.000000,2.000000,2.000000,0.000000,2.000000,2.000000,2.000000,0.000000,2.000000,4.000000,4.000000,4.000000,4.000000,2.000000,4.000000,16.666666,,,,,,,,,,,,,,,,,,,,,,,,,,,,
1732083493.512310,1732083493.513043,10.000000,0.000000,4387.820313,4350.897461,4326.153809,4341.922852,4301.666504,4266.153809,4245.000000,4307.948730,4301.666504,4306.666504,4474.102539,4499.230957,4361.794922,4461.153809,1391.000000,0.000000,6.000000,,,,0.000000,2.000000,2.000000,0.000000,2.000000,2.000000,2.000000,0.000000,2.000000,4.000000,4.000000,4.000000,4.000000,2.000000,4.000000,16.666666,,,,,,,,,,,,,,,,,,,,,,,,,,,,
1732083493.520119,1732083493.520851,11.000000,0.000000,4387.307617,4352.563965,4325.897461,4344.230957,4309.230957,4265.000000,4244.615234,4302.307617,4295.641113,4304.487305,4472.948730,4496.666504,4364.230957,4466.025879,1516.000000,0.000000,6.000000,,,,0.000000,2.000000,2.000000,0.000000,2.000000,2.000000,2.000000,0.000000,2.000000,4.000000,4.000000,4.000000,4.000000,2.000000,4.000000,16.666666,,,,,,,,,,,,,,,,,,,,,,,,,,,,
1732083493.527927,1732083493.528760,12.000000,0.000000,4385.769043,4352.179688,4326.025879,4348.205078,4296.794922,4265.128418,4246.794922,4300.512695,4290.897461,4299.871582,4473.974121,4500.769043,4363.333496,4461.794922,1748.000000,0.000000,6.000000,,,,0.000000,2.000000,2.000000,0.000000,2.000000,2.000000,2.000000,0.000000,2.000000,4.000000,4.000000,4.000000,4.000000,2.000000,4.000000,16.666666,,,,,,,,,,,,,,,,,3.000000,0.000000,0.563934,0.381348,-0.635681,0.363953,0.985472,-0.024905,-0.120132,-75.986969,60.096146,27.849379
1732083493.535735,1732083493.536568,13.000000,0.000000,4382.051270,4351.410156,4325.512695,4347.563965,4287.179688,4266.282227,4245.897461,4301.025879,4290.897461,4302.820313,4475.000000,4499.358887,4365.512695,4455.769043,1571.000000,0.000000,6.000000,,,,0.000000,2.000000,2.000000,0.000000,2.000000,2.000000,2.000000,0.000000,2.000000,4.000000,4.000000,4.000000,4.000000,2.000000,4.000000,16.666666,,,,,,,,,,,,,,,,,,,,,,,,,,,,
1732083493.543543,1732083493.544576,14.000000,0.000000,4379.102539,4350.897461,4328.333496,4341.922852,4292.820313,4265.897461,4244.871582,4296.794922,4292.051270,4306.922852,4474.358887,4494.102539,4366.922852,4458.846191,1391.000000,0.000000,6.000000,,,,0.000000,2.000000,2.000000,0.000000,2.000000,2.000000,2.000000,0.000000,2.000000,4.000000,4.000000,4.000000,4.000000,2.000000,4.000000,16.666666,1.000000,16.666666,2.000000,2.000000,0.000000,2.000000,2.000000,2.000000,0.000000,2.000000,4.000000,4.000000,4.000000,4.000000,2.000000,4.000000,,,,,,,,,,,,
1732083493.551352,1732083493.552384,15.000000,0.000000,4372.179688,4348.333496,4326.922852,4337.179688,4295.512695,4265.897461,4247.563965,4299.871582,4296.538574,4316.410156,4477.307617,4494.230957,4367.820313,4455.641113,1516.000000,0.000000,6.000000,,,,0.000000,2.000000,2.000000,0.000000,2.000000,2.000000,2.000000,0.000000,2.000000,4.000000,4.000000,4.000000,4.000000,2.000000,4.000000,16.666666,,,,,,,,,,,,,,,,,,,,,,,,,,,,
1732083493.559160,1732083493.560292,16.000000,0.000000,4363.461426,4341.666504,4325.128418,4331.794922,4291.794922,4266.025879,4247.948730,4308.333496,4297.563965,4319.358887,4479.102539,4495.897461,4368.461426,4445.000000,0.000000,0.000000,6.000000,,,,0.000000,2.000000,2.000000,0.000000,2.000000,2.000000,2.000000,0.000000,2.000000,4.000000,4.000000,4.000000,4.000000,2.000000,4.000000,16.666666,,,,,,,,,,,,,,,,,4.000000,0.000000,0.557308,0.378174,-0.639282,0.371094,0.971310,-0.078135,-0.116225,-76.716110,59.001209,26.967997
1732083493.566968,1732083493.568100,17.000000,0.000000,4360.769043,4337.179688,4324.358887,4326.025879,4291.282227,4267.948730,4248.974121,4308.461426,4295.897461,4308.974121,4471.153809,4488.974121,4362.692383,4442.307617,0.000000,0.000000,6.000000,,,,0.000000,2.000000,2.000000,0.000000,2.000000,2.000000,2.000000,0.000000,2.000000,4.000000,4.000000,4.000000,4.000000,2.000000,4.000000,16.666666,,,,,,,,,,,,,,,,,,,,,,,,,,,,
1732083493.574776,1732083493.576108,18.000000,0.000000,4359.102539,4334.102539,4329.230957,4324.102539,4297.179688,4266.282227,4247.820313,4304.743652,4296.410156,4308.974121,4463.589844,4486.922852,4356.922852,4444.102539,0.000000,0.000000,6.000000,,,,0.000000,2.000000,2.000000,0.000000,2.000000,2.000000,2.000000,0.000000,2.000000,4.000000,4.000000,4.000000,4.000000,2.000000,4.000000,16.666666,,,,,,,,,,,,,,,,,,,,,,,,,,,,
1732083493.582585,1732083493.583916,19.000000,0.000000,4359.102539,4333.846191,4328.589844,4329.487305,4305.897461,4262.051270,4244.615234,4300.641113,4294.487305,4316.794922,4467.692383,4489.358887,4363.205078,4443.461426,0.000000,0.000000,6.000000,,,,0.000000,2.000000,2.000000,0.000000,2.000000,2.000000,2.000000,0.000000,2.000000,4.000000,4.000000,4.000000,4.000000,2.000000,4.000000,16.666666,,,,,,,,,,,,,,,,,,,,,,,,,,,,
1732083493.590393,1732083493.591825,20.000000,0.000000,4360.000000,4335.769043,4327.948730,4330.641113,4300.128418,4269.743652,4250.769043,4302.436035,4289.615234,4317.436035,4475.769043,4492.948730,4369.871582,4445.000000,0.000000,0.000000,6.000000,,,,0.000000,2.000000,2.000000,0.000000,2.000000,2.000000,2.000000,0.000000,2.000000,4.000000,4.000000,4.000000,4.000000,2.000000,4.000000,16.666666,,,,,,,,,,,,,,,,,5.000000,0.000000,0.554132,0.376221,-0.641235,0.374451,0.963985,-0.093273,-0.106458,-77.281715,57.585979,26.292410
1732083493.598201,1732083493.599633,21.000000,0.000000,4357.307617,4333.205078,4326.794922,4325.641113,4291.666504,4280.384766,4252.436035,4306.282227,4294.102539,4317.563965,4475.512695,4495.384766,4365.641113,4445.128418,0.000000,0.000000,6.000000,,,,0.000000,2.000000,2.000000,0.000000,2.000000,2.000000,2.000000,0.000000,2.000000,4.000000,4.000000,4.000000,4.000000,2.000000,4.000000,16.666666,,,,,,,,,,,,,,,,,,,,,,,,,,,,
1732083493.606009,1732083493.607641,22.000000,0.000000,4352.051270,4331.666504,4327.179688,4326.922852,4304.230957,4280.512695,4246.025879,4300.641113,4297.948730,4316.666504,4466.666504,4490.000000,4358.333496,4438.333496,0.000000,0.000000,6.000000,,,,0.000000,2.000000,2.000000,0.000000,2.000000,2.000000,2.000000,0.000000,2.000000,4.000000,4.000000,4.000000,4.000000,2.000000,4.000000,16.666666,,,,,,,,,,,,,,,,,,,,,,,,,,,,
1732083493.613818,1732083493.615449,23.000000,0.000000,4347.051270,4331.922852,4325.000000,4332.436035,4315.128418,4279.615234,4245.512695,4295.641113,4294.102539,4317.820313,4458.717773,4487.307617,4357.307617,4432.563965,0.000000,0.000000,6.000000,,,,0.000000,2.000000,2.000000,0.000000,2.000000,2.000000,2.000000,0.000000,2.000000,4.000000,4.000000,4.000000,4.000000,2.000000,4.000000,16.666666,,,,,,,,,,,,,,,,,,,,,,,,,,,,
1732083493.621626,1732083493.623357,24.000000,0.000000,4346.153809,4329.487305,4325.769043,4326.794922,4309.230957,4278.077148,4247.820313,4296.282227,4293.077148,4322.948730,4462.179688,4492.948730,4364.230957,4433.205078,0.000000,0.000000,6.000000,,,,0.000000,2.000000,2.000000,0.000000,2.000000,2.000000,2.000000,0.000000,2.000000,4.000000,4.000000,4.000000,4.000000,2.000000,4.000000,16.666666,,,,,,,,,,,,,,,,,6.000000,0.000000,0.542023,0.367859,-0.648743,0.387329,0.954218,-0.159199,-0.121109,-77.748192,56.289642,25.895185
1732083493.629434,1732083493.631165,25.000000,0.000000,4350.000000,4330.000000,4326.153809,4319.230957,4304.358887,4272.436035,4242.436035,4298.589844,4294.743652,4317.948730,4471.666504,4495.897461,4369.102539,4437.436035,0.000000,0.000000,6.000000,,,,0.000000,2.000000,2.000000,0.000000,2.000000,2.000000,2.000000,0.000000,2.000000,4.000000,4.000000,4.000000,4.000000,2.000000,4.000000,16.666666,,,,,,,,,,,,,,,,,,,,,,,,,,,,
1732083493.637242,1732083493.639173,26.000000,0.000000,4349.487305,4333.461426,4323.077148,4326.410156,4302.051270,4275.128418,4247.563965,4303.589844,4295.512695,4312.948730,4473.205078,4491.666504,4366.666504,4439.230957,0.000000,0.000000,6.000000,,,,0.000000,2.000000,2.000000,0.000000,2.000000,2.000000,2.000000,0.000000,2.000000,4.000000,4.000000,4.000000,4.000000,2.000000,4.000000,16.666666,,,,,,,,,,,,,,,,,,,,,,,,,,,,
1732083493.645051,1732083493.646982,27.000000,0.000000,4344.743652,4329.743652,4323.077148,4329.487305,4308.846191,4281.922852,4253.461426,4310.897461,4299.615234,4325.641113,4471.538574,4495.769043,4369.230957,4440.769043,0.000000,0.000000,6.000000,,,,0.000000,2.000000,2.000000,0.000000,2.000000,2.000000,2.000000,0.000000,2.000000,4.000000,4.000000,4.000000,4.000000,2.000000,4.000000,16.666666,,,,,,,,,,,,,,,,,,,,,,,,,,,,
1732083493.652859,1732083493.654890,28.000000,0.000000,4342.307617,4322.948730,4326.153809,4319.743652,4321.538574,4280.384766,4249.487305,4313.846191,4305.897461,4331.153809,4474.615234,4501.922852,4371.922852,4438.077148,0.000000,0.000000,6.000000,,,,0.000000,2.000000,2.000000,0.000000,2.000000,2.000000,2.000000,0.000000,2.000000,4.000000,4.000000,4.000000,4.000000,2.000000,4.000000,16.666666,,,,,,,,,,,,,,,,,7.000000,0.000000,0.537316,0.362732,-0.652710,0.392029,0.950311,-0.161152,-0.126969,-78.481033,54.896278,25.280100
1732083493.660667,1732083493.662698,29.000000,0.000000,4340.641113,4324.615234,4328.589844,4316.922852,4315.000000,4280.128418,4249.871582,4309.102539,4307.692383,4321.410156,4475.256348,4496.025879,4367.179688,4430.000000,0.000000,0.000000,6.000000,,,,0.000000,2.000000,2.000000,0.000000,2.000000,2.000000,2.000000,0.000000,2.000000,4.000000,4.000000,4.000000,4.000000,2.000000,4.000000,16.666666,,,,,,,,,,,,,,,,,,,,,,,,,,,,
1732083493.668476,1732083493.670306,30.000000,0.000000,4339.358887,4325.128418,4324.615234,4322.179688,4302.563965,4281.666504,4255.512695,4299.230957,4301.794922,4320.897461,4473.461426,4487.051270,4365.641113,4427.948730,0.000000,0.000000,6.000000,,,,0.000000,2.000000,2.000000,0.000000,2.000000,2.000000,2.000000,0.000000,2.000000,4.000000,4.000000,4.000000,4.000000,2.000000,4.000000,16.666666,,,,,,,,,,,,,,,,,,,,,,,,,,,,
1732083493.676284,1732083493.678114,31.000000,0.000000,4339.102539,4323.717773,4324.743652,4324.358887,4308.717773,4281.538574,4251.666504,4298.589844,4296.794922,4327.051270,4472.692383,4489.743652,4366.922852,4430.000000,0.000000,0.000000,6.000000,,,,0.000000,2.000000,2.000000,0.000000,2.000000,2.000000,2.000000,0.000000,2.000000,4.000000,4.000000,4.000000,4.000000,2.000000,4.000000,16.666666,,,,,,,,,,,,,,,,,,,,,,,,,,,,
1732083493.684092,1732083493.685823,32.000000,0.000000,4339.102539,4325.000000,4325.256348,4324.487305,4316.410156,4282.179688,4246.922852,4307.307617,4299.743652,4327.179688,4472.948730,4495.000000,4365.769043,4430.128418,0.000000,0.000000,6.000000,,,,0.000000,2.000000,2.000000,0.000000,2.000000,2.000000,2.000000,0.000000,2.000000,4.000000,4.000000,4.000000,4.000000,2.000000,4.000000,16.666666,,,,,,,,,,,,,,,,,8.000000,0.000000,0.537316,0.362732,-0.652710,0.392029,0.954218,-0.179709,-0.131852,-78.984634,53.692654,24.781881
1732083493.691900,1732083493.693631,33.000000,0.000000,4338.589844,4321.666504,4324.102539,4320.897461,4312.692383,4280.512695,4249.487305,4303.846191,4302.307617,4323.333496,4472.563965,4493.589844,4366.153809,4429.615234,0.000000,0.000000,6.000000,,,,0.000000,2.000000,2.000000,0.000000,2.000000,2.000000,2.000000,0.000000,2.000000,4.000000,4.000000,4.000000,4.000000,2.000000,4.000000,16.666666,,,,,,,,,,,,,,,,,,,,,,,,,,,,
1732083493.699709,1732083493.701239,34.000000,0.000000,4336.153809,4318.717773,4321.282227,4316.538574,4318.333496,4280.000000,4251.410156,4296.410156,4298.717773,4320.000000,4472.692383,4489.358887,4369.487305,4429.743652,0.000000,0.000000,6.000000,,,,0.000000,2.000000,2.000000,0.000000,2.000000,2.000000,2.000000,0.000000,2.000000,4.000000,4.000000,4.000000,4.000000,2.000000,4.000000,16.666666,,,,,,,,,,,,,,,,,,,,,,,,,,,,
1732083493.707517,1732083493.709048,35.000000,0.000000,4331.538574,4320.384766,4324.615234,4317.179688,4320.897461,4290.128418,4254.743652,4301.025879,4300.000000,4318.589844,4472.307617,4490.384766,4369.102539,4428.846191,0.000000,0.000000,6.000000,,,,0.000000,2.000000,2.000000,0.000000,2.000000,2.000000,2.000000,0.000000,2.000000,4.000000,4.000000,4.000000,4.000000,2.000000,4.000000,16.666666,,,,,,,,,,,,,,,,,,,,,,,,,,,,
1732083493.715325,1732083493.716756,36.000000,0.000000,4331.922852,4318.974121,4325.641113,4319.615234,4317.436035,4299.615234,4257.692383,4305.000000,4305.769043,4319.871582,4474.230957,4492.820313,4366.538574,4428.846191,0.000000,0.000000,6.000000,,,,0.000000,2.000000,2.000000,0.000000,2.000000,2.000000,2.000000,0.000000,2.000000,4.000000,4.000000,4.000000,4.000000,2.000000,4.000000,16.666666,,,,,,,,,,,,,,,,,9.000000,0.000000,0.531289,0.356079,-0.657410,0.398438,0.953241,-0.209498,-0.097180,-79.244225,52.349380,24.291656
1732083493.723133,1732083493.724564,37.000000,0.000000,4332.179688,4312.563965,4323.077148,4313.461426,4328.717773,4292.179688,4258.077148,4305.641113,4307.692383,4316.666504,4474.102539,4489.230957,4365.512695,4424.102539,0.000000,0.000000,6.000000,,,,0.000000,2.000000,2.000000,0.000000,2.000000,2.000000,2.000000,0.000000,2.000000,4.000000,4.000000,4.000000,4.000000,2.000000,4.000000,16.666666,,,,,,,,,,,,,,,,,,,,,,,,,,,,
1732083493.730942,1732083493.732173,38.000000,0.000000,4329.743652,4313.333496,4321.794922,4307.948730,4329.743652,4281.794922,4259.487305,4311.410156,4308.205078,4317.307617,4472.692383,4486.794922,4368.205078,4421.282227,0.000000,0.000000,6.000000,,,,0.000000,2.000000,2.000000,0.000000,2.000000,2.000000,2.000000,0.000000,2.000000,4.000000,4.000000,4.000000,4.000000,2.000000,4.000000,16.666666,,,,,,,,,,,,,,,,,,,,,,,,,,,,
1732083493.738750,1732083493.739981,39.000000,0.000000,4332.563965,4318.461426,4322.948730,4313.077148,4311.666504,4282.307617,4262.692383,4314.615234,4314.230957,4328.077148,4477.051270,4495.641113,4373.717773,4429.615234,0.000000,0.000000,6.000000,,,,0.000000,2.000000,2.000000,0.000000,2.000000,2.000000,2.000000,0.000000,2.000000,4.000000,4.000000,4.000000,4.000000,2.000000,4.000000,16.666666,,,,,,,,,,,,,,,,,,,,,,,,,,,,
1732083493.746558,1732083493.747689,40.000000,0.000000,4338.461426,4319.615234,4324.487305,4320.256348,4307.436035,4283.717773,4256.153809,4312.563965,4319.615234,4330.384766,4481.153809,4501.794922,4374.871582,4432.948730,0.000000,0.000000,6.000000,,,,0.000000,2.000000,2.000000,0.000000,2.000000,2.000000,2.000000,0.000000,2.000000,4.000000,4.000000,4.000000,4.000000,2.000000,4.000000,16.666666,,,,,,,,,,,,,,,,,10.000000,0.000000,0.525539,0.346741,-0.663269,0.404541,0.968868,-0.205591,-0.128922,-79.504486,51.094666,23.944576
1732083493.754367,1732083493.755497,41.000000,0.000000,4337.820313,4319.743652,4325.128418,4320.000000,4317.307617,4280.897461,4252.051270,4311.025879,4315.769043,4320.769043,4476.282227,4495.512695,4373.333496,4426.410156,0.000000,0.000000,6.000000,,,,0.000000,2.000000,2.000000,0.000000,2.000000,2.000000,2.000000,0.000000,2.000000,4.000000,4.000000,4.000000,4.000000,2.000000,4.000000,16.666666,,,,,,,,,,,,,,,,,,,,,,,,,,,,
1732083493.762175,1732083493.763106,42.000000,0.000000,4332.948730,4318.589844,4324.230957,4317.692383,4321.025879,4283.589844,4256.794922,4308.974121,4310.128418,4323.205078,4471.282227,4490.128418,4372.436035,4423.205078,0.000000,0.000000,6.000000,,,,0.000000,2.000000,2.000000,0.000000,2.000000,2.000000,2.000000,0.000000,2.000000,4.000000,4.000000,4.000000,4.000000,2.000000,4.000000,16.666666,,,,,,,,,,,,,,,,,,,,,,,,,,,,
1732083493.769983,1732083493.770914,43.000000,0.000000,4331.025879,4315.512695,4323.333496,4318.846191,4320.897461,4293.205078,4261.282227,4302.820313,4306.794922,4328.077148,4472.948730,4488.846191,4371.794922,4424.615234,0.000000,0.000000,6.000000,,,,0.000000,2.000000,2.000000,0.000000,2.000000,2.000000,2.000000,0.000000,2.000000,4.000000,4.000000,4.000000,4.000000,2.000000,4.000000,16.666666,,,,,,,,,,,,,,,,,,,,,,,,,,,,
1732083493.777791,1732083493.778622,44.000000,0.000000,4326.153809,4313.717773,4326.025879,4315.384766,4321.794922,4295.641113,4255.641113,4299.230957,4306.922852,4319.230957,4473.333496,4486.922852,4371.282227,4422.563965,0.000000,0.000000,6.000000,,,,0.000000,2.000000,2.000000,0.000000,2.000000,2.000000,2.000000,0.000000,2.000000,4.000000,4.000000,4.000000,4.000000,2.000000,4.000000,16.666666,,,,,,,,,,,,,,,,,11.000000,0.000000,0.522006,0.340576,-0.667297,0.407715,0.952265,-0.234892,-0.119644,-79.970299,49.996677,23.761772
1732083493.785600,1732083493.786430,45.000000,0.000000,4317.563965,4313.589844,4323.333496,4306.025879,4328.461426,4288.846191,4253.717773,4305.897461,4314.871582,4317.820313,4470.384766,4486.410156,4368.461426,4416.410156,0.000000,0.000000,6.000000,,,,0.000000,2.000000,2.000000,0.000000,2.000000,2.000000,2.000000,0.000000,2.000000,4.000000,4.000000,4.000000,4.000000,2.000000,4.000000,16.666666,,,,,,,,,,,,,,,,,,,,,,,,,,,,
1732083493.793408,1732083493.794039,46.000000,0.000000,4320.641113,4311.282227,4321.538574,4303.461426,4326.410156,4283.846191,4258.077148,4316.666504,4326.794922,4333.589844,4474.230957,4493.846191,4369.487305,4418.461426,0.000000,0.000000,6.000000,,,,0.000000,2.000000,2.000000,0.000000,2.000000,2.000000,2.000000,0.000000,2.000000,4.000000,4.000000,4.000000,4.000000,2.000000,4.000000,16.666666,,,,,,,,,,,,,,,,,,,,,,,,,,,,
1732083493.801216,1732083493.801847,47.000000,0.000000,4331.666504,4311.153809,4323.333496,4308.461426,4300.769043,4287.179688,4257.563965,4318.589844,4325.512695,4340.769043,4482.179688,4501.025879,4378.974121,4429.743652,0.000000,0.000000,6.000000,,,,0.000000,2.000000,2.000000,0.000000,2.000000,2.000000,2.000000,0.000000,2.000000,4.000000,4.000000,4.000000,4.000000,2.000000,4.000000,16.666666,,,,,,,,,,,,,,,,,,,,,,,,,,,,
1732083493.809024,1732083493.809755,48.000000,0.000000,4330.897461,4314.358887,4327.692383,4309.871582,4294.871582,4291.282227,4254.358887,4311.922852,4314.871582,4330.384766,4481.410156,4503.846191,4384.487305,4432.948730,0.000000,0.000000,6.000000,,,,0.000000,2.000000,2.000000,0.000000,2.000000,2.000000,2.000000,0.000000,2.000000,4.000000,4.000000,4.000000,4.000000,2.000000,4.000000,16.666666,,,,,,,,,,,,,,,,,12.000000,0.000000,0.520830,0.338928,-0.668457,0.408691,0.952265,-0.234892,-0.119644,-80.609276,48.698978,22.983704
1732083493.816833,1732083493.817563,49.000000,0.000000,4325.000000,4313.717773,4326.666504,4307.307617,4325.256348,4293.589844,4258.589844,4314.871582,4314.230957,4323.846191,4477.179688,4503.461426,4376.666504,4427.051270,0.000000,0.000000,6.000000,,,,0.000000,2.000000,2.000000,0.000000,2.000000,2.000000,2.000000,0.000000,2.000000,4.000000,4.000000,4.000000,4.000000,2.000000,4.000000,16.666666,,,,,,,,,,,,,,,,,,,,,,,,,,,,
1732083493.824641,1732083493.825571,50.000000,0.000000,4326.410156,4310.897461,4326.282227,4308.333496,4327.051270,4296.410156,4263.974121,4321.410156,4316.025879,4325.128418,4477.436035,4503.846191,4372.307617,4428.333496,0.000000,0.000000,6.000000,,,,0.000000,2.000000,2.000000,0.000000,2.000000,2.000000,2.000000,0.000000,2.000000,4.000000,4.000000,4.000000,4.000000,2.000000,4.000000,16.666666,,,,,,,,,,,,,,,,,,,,,,,,,,,,
1732083493.832449,1732083493.833380,51.000000,0.000000,4331.666504,4311.794922,4326.025879,4311.666504,4305.512695,4296.922852,4259.102539,4312.820313,4311.282227,4324.358887,4478.461426,4506.794922,4377.948730,4433.974121,0.000000,0.000000,6.000000,,,,0.000000,2.000000,2.000000,0.000000,2.000000,2.000000,2.000000,0.000000,2.000000,4.000000,4.000000,4.000000,4.000000,2.000000,4.000000,16.666666,,,,,,,,,,,,,,,,,,,,,,,,,,,,
1732083493.840257,1732083493.841288,52.000000,0.000000,4336.153809,4313.589844,4326.922852,4312.563965,4312.307617,4300.897461,4256.153809,4302.563965,4306.538574,4324.615234,4476.922852,4506.025879,4378.077148,4431.282227,0.000000,0.000000,6.000000,,,,0.000000,2.000000,2.000000,0.000000,2.000000,2.000000,2.000000,0.000000,2.000000,4.000000,4.000000,4.000000,4.000000,2.000000,4.000000,16.666666,,,,,,,,,,,,,,,,,13.000000,0.000000,0.517852,0.332275,-0.672302,0.411621,0.933708,-0.211940,-0.123550,-81.120178,47.574505,22.915133
1732083493.848066,1732083493.849096,53.000000,0.000000,4336.025879,4313.333496,4325.641113,4311.922852,4325.256348,4303.974121,4259.102539,4313.461426,4312.692383,4329.102539,4476.025879,4504.230957,4372.307617,4426.922852,0.000000,0.000000,6.000000,,,,0.000000,2.000000,2.000000,0.000000,2.000000,2.000000,2.000000,0.000000,2.000000,4.000000,4.000000,4.000000,4.000000,2.000000,4.000000,16.666666,,,,,,,,,,,,,,,,,,,,,,,,,,,,
1732083493.855874,1732083493.856704,54.000000,0.000000,4328.589844,4311.153809,4324.230957,4309.615234,4317.051270,4299.615234,4265.256348,4331.282227,4326.538574,4329.871582,4477.820313,4508.205078,4371.153809,4427.179688,0.000000,0.000000,6.000000,,,,0.000000,2.000000,2.000000,0.000000,2.000000,2.000000,2.000000,0.000000,2.000000,4.000000,4.000000,4.000000,4.000000,2.000000,4.000000,16.666666,,,,,,,,,,,,,,,,,,,,,,,,,,,,
1732083493.863682,1732083493.864512,55.000000,0.000000,4328.333496,4310.512695,4323.846191,4308.846191,4313.077148,4296.025879,4263.333496,4327.179688,4326.538574,4324.102539,4477.692383,4507.948730,4374.230957,4428.205078,0.000000,0.000000,6.000000,,,,0.000000,2.000000,2.000000,0.000000,2.000000,2.000000,2.000000,0.000000,2.000000,4.000000,4.000000,4.000000,4.000000,2.000000,4.000000,16.666666,,,,,,,,,,,,,,,,,,,,,,,,,,,,
1732083493.871490,1732083493.872221,56.000000,0.000000,4333.974121,4316.282227,4324.230957,4311.538574,4327.692383,4294.615234,4256.922852,4308.333496,4310.000000,4322.307617,4474.615234,4500.897461,4375.256348,4427.179688,0.000000,0.000000,6.000000,,,,0.000000,2.000000,2.000000,0.000000,2.000000,2.000000,2.000000,0.000000,2.000000,4.000000,4.000000,4.000000,4.000000,2.000000,4.000000,16.666666,,,,,,,,,,,,,,,,,14.000000,0.000000,0.516472,0.330078,-0.673584,0.413025,0.944940,-0.232939,-0.133317,-81.325684,46.717014,22.899591
1732083493.879299,1732083493.880029,57.000000,0.000000,4330.897461,4319.487305,4324.615234,4313.333496,4328.846191,4291.666504,4256.282227,4305.000000,4307.051270,4324.358887,4473.077148,4501.025879,4375.128418,4426.282227,0.000000,0.000000,6.000000,,,,0.000000,2.000000,2.000000,0.000000,2.000000,2.000000,2.000000,0.000000,2.000000,4.000000,4.000000,4.000000,4.000000,2.000000,4.000000,16.666666,,,,,,,,,,,,,,,,,,,,,,,,,,,,
1732083493.887107,1732083493.888037,58.000000,0.000000,4322.820313,4311.794922,4322.051270,4305.769043,4310.000000,4292.563965,4262.820313,4323.974121,4327.051270,4323.846191,4475.512695,4503.974121,4373.077148,4422.563965,0.000000,0.000000,6.000000,,,,0.000000,2.000000,2.000000,0.000000,2.000000,2.000000,2.000000,0.000000,2.000000,4.000000,4.000000,4.000000,4.000000,2.000000,4.000000,16.666666,,,,,,,,,,,,,,,,,,,,,,,,,,,,
1732083493.894915,1732083493.895845,59.000000,0.000000,4321.025879,4306.794922,4323.461426,4299.871582,4302.179688,4295.384766,4262.179688,4328.717773,4331.666504,4322.051270,4476.153809,4500.769043,4370.769043,4422.692383,0.000000,0.000000,6.000000,,,,0.000000,2.000000,2.000000,0.000000,2.000000,2.000000,2.000000,0.000000,2.000000,4.000000,4.000000,4.000000,4.000000,2.000000,4.000000,16.666666,,,,,,,,,,,,,,,,,,,,,,,,,,,,
1732083493.902723,1732083493.903753,60.000000,0.000000,4323.077148,4310.769043,4323.461426,4306.282227,4312.436035,4295.641113,4260.000000,4311.282227,4316.282227,4322.820313,4473.205078,4493.846191,4370.128418,4424.743652,0.000000,0.000000,6.000000,,,,0.000000,2.000000,2.000000,0.000000,2.000000,2.000000,2.000000,0.000000,2.000000,4.000000,4.000000,4.000000,4.000000,2.000000,4.000000,16.666666,,,,,,,,,,,,,,,,,15.000000,0.000000,0.515913,0.329163,-0.674011,0.413757,0.950311,-0.227567,-0.134782,-81.545471,45.950783,22.712002
1732083493.910532,1732083493.911562,61.000000,0.000000,4323.589844,4311.794922,4321.922852,4307.179688,4318.461426,4295.512695,4261.666504,4313.077148,4317.307617,4327.692383,4472.307617,4494.871582,4370.384766,4420.897461,0.000000,0.000000,6.000000,,,,0.000000,2.000000,2.000000,0.000000,2.000000,2.000000,2.000000,0.000000,2.000000,4.000000,4.000000,4.000000,4.000000,2.000000,4.000000,16.666666,,,,,,,,,,,,,,,,,,,,,,,,,,,,
1732083493.918340,1732083493.919570,62.000000,0.000000,4324.230957,4310.256348,4323.589844,4299.743652,4315.000000,4294.487305,4262.692383,4328.333496,4333.205078,4333.205078,4474.871582,4502.436035,4372.051270,4421.666504,0.000000,0.000000,6.000000,,,,0.000000,2.000000,2.000000,0.000000,2.000000,2.000000,2.000000,0.000000,2.000000,4.000000,4.000000,4.000000,4.000000,2.000000,4.000000,16.666666,,,,,,,,,,,,,,,,,,,,,,,,,,,,
1732083493.926148,1732083493.927378,63.000000,0.000000,4326.538574,4311.153809,4328.077148,4300.769043,4311.538574,4297.436035,4262.179688,4321.666504,4331.922852,4334.102539,4475.512695,4506.282227,4371.153809,4428.846191,0.000000,0.000000,6.000000,,,,0.000000,2.000000,2.000000,0.000000,2.000000,2.000000,2.000000,0.000000,2.000000,4.000000,4.000000,4.000000,4.000000,2.000000,4.000000,16.666666,,,,,,,,,,,,,,,,,,,,,,,,,,,,
1732083493.933957,1732083493.935286,64.000000,0.000000,4324.487305,4310.128418,4324.358887,4305.897461,4322.436035,4304.615234,4262.436035,4310.769043,4315.384766,4327.948730,4471.794922,4499.871582,4366.282227,4424.102539,0.000000,0.000000,6.000000,,,,0.000000,2.000000,2.000000,0.000000,2.000000,2.000000,2.000000,0.000000,2.000000,4.000000,4.000000,4.000000,4.000000,2.000000,4.000000,16.666666,,,,,,,,,,,,,,,,,16.000000,0.000000,0.514875,0.327332,-0.674683,0.415405,0.954706,-0.246612,-0.129410,-82.043495,45.105133,22.418388
1732083493.941765,1732083493.943094,65.000000,0.000000,4314.102539,4308.974121,4320.897461,4301.666504,4336.282227,4304.487305,4261.410156,4319.743652,4316.410156,4321.153809,4468.077148,4493.589844,4359.358887,4412.436035,1325.000000,0.000000,6.000000,,,,0.000000,2.000000,2.000000,0.000000,2.000000,2.000000,2.000000,0.000000,2.000000,4.000000,4.000000,4.000000,4.000000,2.000000,4.000000,16.666666,,,,,,,,,,,,,,,,,,,,,,,,,,,,
1732083493.949573,1732083493.951102,66.000000,0.000000,4313.205078,4310.256348,4324.358887,4301.153809,4324.102539,4304.102539,4262.820313,4323.589844,4324.871582,4319.358887,4464.615234,4494.871582,4354.230957,4414.487305,1244.000000,0.000000,6.000000,,,,0.000000,2.000000,2.000000,0.000000,2.000000,2.000000,2.000000,0.000000,2.000000,4.000000,4.000000,4.000000,4.000000,2.000000,4.000000,16.666666,,,,,,,,,,,,,,,,,,,,,,,,,,,,
1732083493.957381,1732083493.958910,67.000000,0.000000,4322.948730,4310.641113,4325.897461,4307.692383,4312.692383,4305.000000,4264.230957,4320.384766,4323.205078,4320.512695,4464.358887,4498.461426,4350.897461,4420.256348,1199.000000,0.000000,6.000000,,,,0.000000,2.000000,2.000000,0.000000,2.000000,2.000000,2.000000,0.000000,2.000000,4.000000,4.000000,4.000000,4.000000,2.000000,4.000000,16.666666,,,,,,,,,,,,,,,,,,,,,,,,,,,,
1732083493.965190,1732083493.966818,68.000000,0.000000,4321.025879,4311.282227,4322.051270,4307.948730,4320.128418,4308.205078,4262.820313,4332.051270,4325.769043,4323.333496,4470.512695,4498.077148,4350.769043,4417.307617,1217.000000,0.000000,6.000000,,,,0.000000,2.000000,2.000000,0.000000,2.000000,2.000000,2.000000,0.000000,2.000000,4.000000,4.000000,4.000000,4.000000,2.000000,4.000000,16.666666,,,,,,,,,,,,,,,,,17.000000,0.000000,0.513359,0.323792,-0.675659,0.418457,0.948846,-0.269076,-0.122574,-82.100235,44.435158,22.323895
1732083493.972998,1732083493.974627,69.000000,0.000000,4311.410156,4308.077148,4319.230957,4303.846191,4317.692383,4316.794922,4267.051270,4342.563965,4331.282227,4321.282227,4473.077148,4494.487305,4349.743652,4412.820313,1082.000000,0.000000,6.000000,,,,0.000000,2.000000,2.000000,0.000000,2.000000,2.000000,2.000000,0.000000,2.000000,4.000000,4.000000,4.000000,4.000000,2.000000,4.000000,16.666666,,,,,,,,,,,,,,,,,,,,,,,,,,,,
1732083493.980806,1732083493.982635,70.000000,0.000000,4312.436035,4304.615234,4321.538574,4302.948730,4306.410156,4311.922852,4263.846191,4329.102539,4328.589844,4321.282227,4472.307617,4496.282227,4351.025879,4417.820313,1.000000,0.000000,6.000000,,,,0.000000,2.000000,2.000000,0.000000,2.000000,2.000000,2.000000,0.000000,2.000000,4.000000,4.000000,4.000000,4.000000,2.000000,4.000000,16.666666,,,,,,,,,,,,,,,,,,,,,,,,,,,,
1732083493.988614,1732083493.990443,71.000000,0.000000,4316.538574,4307.051270,4323.461426,4303.077148,4308.974121,4290.641113,4254.102539,4308.077148,4324.358887,4329.358887,4475.769043,4501.410156,4357.692383,4425.512695,1180.000000,0.000000,6.000000,,,,0.000000,2.000000,2.000000,0.000000,2.000000,2.000000,2.000000,0.000000,2.000000,4.000000,4.000000,4.000000,4.000000,2.000000,4.000000,16.666666,,,,,,,,,,,,,,,,,,,,,,,,,,,,
1732083493.996423,1732083493.998251,72.000000,0.000000,4313.333496,4305.897461,4324.871582,4299.358887,4312.563965,4287.051270,4253.717773,4307.307617,4325.000000,4329.230957,4476.922852,4503.846191,4360.384766,4423.077148,1369.000000,0.000000,6.000000,,,,0.000000,2.000000,2.000000,0.000000,2.000000,2.000000,2.000000,0.000000,2.000000,4.000000,4.000000,4.000000,4.000000,2.000000,4.000000,16.666666,,,,,,,,,,,,,,,,,18.000000,0.000000,0.513359,0.323792,-0.675659,0.418457,0.946893,-0.275424,-0.111830,-82.176186,43.832478,22.232355
1732083494.004231,1732083494.006059,73.000000,0.000000,4312.179688,4302.307617,4322.820313,4295.384766,4311.025879,4300.897461,4262.948730,4318.461426,4324.743652,4320.128418,4472.051270,4499.487305,4356.538574,4416.538574,1519.000000,0.000000,6.000000,,,,0.000000,2.000000,2.000000,0.000000,2.000000,2.000000,2.000000,0.000000,2.000000,4.000000,4.000000,4.000000,4.000000,2.000000,4.000000,16.666666,,,,,,,,,,,,,,,,,,,,,,,,,,,,
1732083494.012039,1732083494.013668,74.000000,0.000000,4310.897461,4301.666504,4320.256348,4295.128418,4312.051270,4306.153809,4263.461426,4328.589844,4329.871582,4321.282227,4471.794922,4491.794922,4351.666504,4415.512695,1387.000000,0.000000,6.000000,,,,0.000000,2.000000,2.000000,0.000000,2.000000,2.000000,2.000000,0.000000,2.000000,4.000000,4.000000,4.000000,4.000000,2.000000,4.000000,16.666666,,,,,,,,,,,,,,,,,,,,,,,,,,,,
1732083494.019848,1732083494.021476,75.000000,0.000000,4305.256348,4302.051270,4320.384766,4297.179688,4314.487305,4304.615234,4262.307617,4331.025879,4332.692383,4327.948730,4474.102539,4490.384766,4350.256348,4415.769043,1516.000000,0.000000,6.000000,,,,0.000000,2.000000,2.000000,0.000000,2.000000,2.000000,2.000000,0.000000,2.000000,4.000000,4.000000,4.000000,4.000000,2.000000,4.000000,16.666666,,,,,,,,,,,,,,,,,,,,,,,,,,,,
1732083494.027656,1732083494.029184,76.000000,0.000000,4307.948730,4303.205078,4322.948730,4302.692383,4324.743652,4299.230957,4262.563965,4319.230957,4324.743652,4323.333496,4473.077148,4494.743652,4351.282227,4414.487305,1748.000000,0.000000,6.000000,,,,0.000000,2.000000,2.000000,0.000000,2.000000,2.000000,2.000000,0.000000,2.000000,4.000000,4.000000,4.000000,4.000000,2.000000,4.000000,16.666666,,,,,,,,,,,,,,,,,19.000000,0.000000,0.513257,0.321106,-0.676147,0.419861,0.952753,-0.257356,-0.123550,-82.301048,43.389309,22.346540
1732083494.035464,1732083494.036992,77.000000,0.000000,4314.102539,4309.487305,4322.563965,4307.307617,4321.538574,4292.948730,4261.666504,4313.846191,4322.820313,4319.615234,4474.230957,4497.563965,4352.051270,4416.666504,1573.000000,0.000000,6.000000,,,,0.000000,2.000000,2.000000,0.000000,2.000000,2.000000,2.000000,0.000000,2.000000,4.000000,4.000000,4.000000,4.000000,2.000000,4.000000,16.666666,,,,,,,,,,,,,,,,,,,,,,,,,,,,
1732083494.043272,1732083494.044601,78.000000,0.000000,4311.922852,4310.897461,4322.563965,4305.897461,4305.512695,4300.000000,4262.307617,4325.128418,4329.871582,4324.487305,4476.538574,4498.846191,4350.897461,4417.179688,1387.000000,0.000000,6.000000,,,,0.000000,2.000000,2.000000,0.000000,2.000000,2.000000,2.000000,0.000000,2.000000,4.000000,4.000000,4.000000,4.000000,2.000000,4.000000,16.666666,1.000000,16.666666,2.000000,2.000000,0.000000,2.000000,2.000000,2.000000,0.000000,2.000000,4.000000,4.000000,4.000000,4.000000,2.000000,4.000000,,,,,,,,,,,,
1732083494.051081,1732083494.052409,79.000000,0.000000,4307.307617,4303.846191,4323.461426,4302.436035,4306.410156,4310.897461,4264.358887,4331.153809,4330.769043,4322.948730,4473.846191,4498.974121,4349.102539,4412.948730,1516.000000,0.000000,6.000000,,,,0.000000,2.000000,2.000000,0.000000,2.000000,2.000000,2.000000,0.000000,2.000000,4.000000,4.000000,4.000000,4.000000,2.000000,4.000000,16.666666,,,,,,,,,,,,,,,,,,,,,,,,,,,,
1732083494.058889,1732083494.060117,80.000000,0.000000,4310.000000,4304.358887,4323.333496,4303.333496,4316.025879,4307.563965,4265.512695,4326.794922,4328.333496,4318.589844,4470.769043,4501.666504,4349.615234,4411.410156,1748.000000,0.000000,6.000000,,,,0.000000,2.000000,2.000000,0.000000,2.000000,2.000000,2.000000,0.000000,2.000000,4.000000,4.000000,4.000000,4.000000,2.000000,4.000000,16.666666,,,,,,,,,,,,,,,,,20.000000,0.000000,0.513905,0.319153,-0.676086,0.420654,0.944940,-0.256867,-0.112807,-82.325516,43.023674,22.299030
1732083494.066697,1732083494.067926,81.000000,0.000000,4313.205078,4310.769043,4324.358887,4305.128418,4315.897461,4297.179688,4265.000000,4323.717773,4328.205078,4321.153809,4472.692383,4507.436035,4355.000000,4415.256348,1573.000000,0.000000,6.000000,,,,0.000000,2.000000,2.000000,0.000000,2.000000,2.000000,2.000000,0.000000,2.000000,4.000000,4.000000,4.000000,4.000000,2.000000,4.000000,16.666666,,,,,,,,,,,,,,,,,,,,,,,,,,,,
1732083494.074505,1732083494.075534,82.000000,0.000000,4307.436035,4311.025879,4326.025879,4302.948730,4306.794922,4298.077148,4265.000000,4326.410156,4330.769043,4326.666504,4475.769043,4508.717773,4358.717773,4418.333496,1387.000000,0.000000,6.000000,,,,0.000000,2.000000,2.000000,0.000000,2.000000,2.000000,2.000000,0.000000,2.000000,4.000000,4.000000,4.000000,4.000000,2.000000,4.000000,16.666666,,,,,,,,,,,,,,,,,,,,,,,,,,,,
1732083494.082313,1732083494.083342,83.000000,0.000000,4305.512695,4306.666504,4325.769043,4301.410156,4313.077148,4306.282227,4266.025879,4327.948730,4332.051270,4324.487305,4475.512695,4503.717773,4355.256348,4416.410156,1516.000000,0.000000,6.000000,,,,0.000000,2.000000,2.000000,0.000000,2.000000,2.000000,2.000000,0.000000,2.000000,4.000000,4.000000,4.000000,4.000000,2.000000,4.000000,16.666666,,,,,,,,,,,,,,,,,,,,,,,,,,,,
1732083494.090122,1732083494.091050,84.000000,0.000000,4311.538574,4311.410156,4325.384766,4306.410156,4328.589844,4305.384766,4267.179688,4319.358887,4323.077148,4315.384766,4472.948730,4498.974121,4355.256348,4414.230957,1748.000000,0.000000,6.000000,,,,0.000000,2.000000,2.000000,0.000000,2.000000,2.000000,2.000000,0.000000,2.000000,4.000000,4.000000,4.000000,4.000000,2.000000,4.000000,16.666666,,,,,,,,,,,,,,,,,21.000000,0.000000,0.514665,0.317993,-0.675903,0.420898,0.956660,-0.251984,-0.119644,-82.256996,42.657509,22.338882
1732083494.097930,1732083494.098859,85.000000,0.000000,4313.461426,4316.153809,4325.256348,4310.897461,4319.230957,4298.846191,4265.641113,4318.846191,4319.871582,4315.256348,4472.692383,4498.333496,4358.077148,4417.436035,1573.000000,0.000000,6.000000,,,,0.000000,2.000000,2.000000,0.000000,2.000000,2.000000,2.000000,0.000000,2.000000,4.000000,4.000000,4.000000,4.000000,2.000000,4.000000,16.666666,,,,,,,,,,,,,,,,,,,,,,,,,,,,
1732083494.105738,1732083494.106467,86.000000,0.000000,4308.846191,4308.333496,4323.974121,4308.717773,4301.410156,4301.794922,4266.922852,4333.717773,4334.615234,4326.410156,4476.538574,4500.897461,4358.589844,4419.230957,1387.000000,0.000000,6.000000,,,,0.000000,2.000000,2.000000,0.000000,2.000000,2.000000,2.000000,0.000000,2.000000,4.000000,4.000000,4.000000,4.000000,2.000000,4.000000,16.666666,,,,,,,,,,,,,,,,,,,,,,,,,,,,
1732083494.113546,1732083494.114275,87.000000,0.000000,4309.871582,4309.743652,4325.897461,4309.102539,4304.871582,4308.717773,4266.410156,4333.846191,4339.230957,4332.563965,4478.717773,4503.461426,4359.102539,4415.256348,1516.000000,0.000000,6.000000,,,,0.000000,2.000000,2.000000,0.000000,2.000000,2.000000,2.000000,0.000000,2.000000,4.000000,4.000000,4.000000,4.000000,2.000000,4.000000,16.666666,,,,,,,,,,,,,,,,,,,,,,,,,,,,
1732083494.121355,1732083494.122183,88.000000,0.000000,4313.461426,4314.743652,4326.922852,4311.922852,4316.153809,4303.077148,4264.487305,4320.128418,4324.102539,4320.256348,4477.051270,4499.871582,4356.282227,4411.666504,1748.000000,0.000000,6.000000,,,,0.000000,2.000000,2.000000,0.000000,2.000000,2.000000,2.000000,0.000000,2.000000,4.000000,4.000000,4.000000,4.000000,2.000000,4.000000,16.666666,,,,,,,,,,,,,,,,,22.000000,0.000000,0.514826,0.317749,-0.675781,0.421082,0.956660,-0.251984,-0.119644,-82.429832,42.405914,21.926161
1732083494.129163,1732083494.129992,89.000000,0.000000,4311.025879,4305.256348,4324.230957,4308.333496,4320.256348,4296.666504,4261.538574,4315.641113,4320.128418,4308.589844,4472.307617,4494.743652,4350.641113,4411.922852,1573.000000,0.000000,6.000000,,,,0.000000,2.000000,2.000000,0.000000,2.000000,2.000000,2.000000,0.000000,2.000000,4.000000,4.000000,4.000000,4.000000,2.000000,4.000000,16.666666,,,,,,,,,,,,,,,,,,,,,,,,,,,,
1732083494.136971,1732083494.137600,90.000000,0.000000,4311.922852,4300.769043,4322.307617,4306.794922,4320.769043,4305.128418,4264.358887,4325.384766,4332.307617,4316.666504,4466.153809,4492.692383,4349.230957,4409.615234,1387.000000,0.000000,6.000000,,,,0.000000,2.000000,2.000000,0.000000,2.000000,2.000000,2.000000,0.000000,2.000000,4.000000,4.000000,4.000000,4.000000,2.000000,4.000000,16.666666,,,,,,,,,,,,,,,,,,,,,,,,,,,,
1732083494.144780,1732083494.145408,91.000000,0.000000,4311.282227,4309.102539,4325.641113,4310.897461,4313.333496,4310.769043,4268.589844,4339.358887,4340.000000,4327.692383,4465.897461,4496.410156,4349.358887,4405.641113,1516.000000,0.000000,6.000000,,,,0.000000,2.000000,2.000000,0.000000,2.000000,2.000000,2.000000,0.000000,2.000000,4.000000,4.000000,4.000000,4.000000,2.000000,4.000000,16.666666,,,,,,,,,,,,,,,,,,,,,,,,,,,,
1732083494.152588,1732083494.153117,92.000000,0.000000,4306.538574,4309.487305,4325.384766,4310.384766,4306.025879,4305.512695,4268.205078,4338.846191,4338.717773,4327.563965,4467.307617,4496.410156,4347.820313,4403.077148,1748.000000,0.000000,6.000000,,,,0.000000,2.000000,2.000000,0.000000,2.000000,2.000000,2.000000,0.000000,2.000000,4.000000,4.000000,4.000000,4.000000,2.000000,4.000000,16.666666,,,,,,,,,,,,,,,,,23.000000,0.000000,0.514862,0.317627,-0.675659,0.421326,0.940544,-0.241729,-0.115248,-82.529831,42.167126,21.968523
1732083494.160396,1732083494.160925,93.000000,0.000000,4307.436035,4303.846191,4321.153809,4307.948730,4310.000000,4302.948730,4262.820313,4325.384766,4333.333496,4322.436035,4462.436035,4487.179688,4348.333496,4398.077148,1573.000000,0.000000,6.000000,,,,0.000000,2.000000,2.000000,0.000000,2.000000,2.000000,2.000000,0.000000,2.000000,4.000000,4.000000,4.000000,4.000000,2.000000,4.000000,16.666666,,,,,,,,,,,,,,,,,,,,,,,,,,,,
1732083494.168204,1732083494.168933,94.000000,0.000000,4306.794922,4308.717773,4321.282227,4311.282227,4310.897461,4310.256348,4265.769043,4326.794922,4328.589844,4321.153809,4458.461426,4485.512695,4349.102539,4395.641113,1387.000000,0.000000,6.000000,,,,0.000000,2.000000,2.000000,0.000000,2.000000,2.000000,2.000000,0.000000,2.000000,4.000000,4.000000,4.000000,4.000000,2.000000,4.000000,16.666666,,,,,,,,,,,,,,,,,,,,,,,,,,,,
1732083494.176013,1732083494.176741,95.000000,0.000000,4300.512695,4310.512695,4324.615234,4309.871582,4310.512695,4313.077148,4270.769043,4331.538574,4327.179688,4320.384766,4464.871582,4491.282227,4350.897461,4402.692383,1516.000000,0.000000,6.000000,,,,0.000000,2.000000,2.000000,0.000000,2.000000,2.000000,2.000000,0.000000,2.000000,4.000000,4.000000,4.000000,4.000000,2.000000,4.000000,16.666666,,,,,,,,,,,,,,,,,,,,,,,,,,,,
1732083494.183821,1732083494.184449,96.000000,0.000000,4297.051270,4302.051270,4325.897461,4302.436035,4310.897461,4307.179688,4268.717773,4327.051270,4331.922852,4321.153809,4472.692383,4490.000000,4355.128418,4407.436035,1748.000000,0.000000,6.000000,,,,0.000000,2.000000,2.000000,0.000000,2.000000,2.000000,2.000000,0.000000,2.000000,4.000000,4.000000,4.000000,4.000000,2.000000,4.000000,16.666666,,,,,,,,,,,,,,,,,24.000000,0.000000,0.515420,0.316589,-0.675720,0.421326,0.946405,-0.239287,-0.113295,-82.667496,41.847038,22.087837
1732083494.191629,1732083494.192257,97.000000,0.000000,4296.922852,4296.538574,4320.641113,4300.769043,4309.615234,4303.461426,4265.897461,4329.743652,4337.051270,4325.256348,4471.794922,4485.384766,4353.461426,4405.641113,1573.000000,0.000000,6.000000,,,,0.000000,2.000000,2.000000,0.000000,2.000000,2.000000,2.000000,0.000000,2.000000,4.000000,4.000000,4.000000,4.000000,2.000000,4.000000,16.666666,,,,,,,,,,,,,,,,,,,,,,,,,,,,
1732083494.199438,1732083494.199866,98.000000,0.000000,4294.743652,4297.051270,4318.333496,4303.846191,4310.641113,4301.282227,4264.615234,4335.128418,4336.410156,4323.333496,4466.410156,4484.871582,4350.000000,4405.128418,1387.000000,0.000000,6.000000,,,,0.000000,2.000000,2.000000,0.000000,2.000000,2.000000,2.000000,0.000000,2.000000,4.000000,4.000000,4.000000,4.000000,2.000000,4.000000,16.666666,,,,,,,,,,,,,,,,,,,,,,,,,,,,
1732083494.207246,1732083494.207674,99.000000,0.000000,4295.000000,4302.051270,4321.025879,4307.692383,4306.538574,4308.077148,4267.820313,4339.230957,4336.025879,4319.487305,4465.769043,4488.077148,4351.153809,4405.512695,1516.000000,0.000000,6.000000,,,,0.000000,2.000000,2.000000,0.000000,2.000000,2.000000,2.000000,0.000000,2.000000,4.000000,4.000000,4.000000,4.000000,2.000000,4.000000,16.666666,,,,,,,,,,,,,,,,,,,,,,,,,,,,
1732083494.215054,1732083494.215582,100.000000,0.000000,4298.333496,4304.615234,4322.307617,4309.358887,4313.333496,4316.410156,4270.000000,4336.282227,4334.358887,4318.333496,4466.153809,4490.897461,4352.692383,4402.948730,1748.000000,0.000000,6.000000,,,,0.000000,2.000000,2.000000,0.000000,2.000000,2.000000,2.000000,0.000000,2.000000,4.000000,4.000000,4.000000,4.000000,2.000000,4.000000,16.666666,,,,,,,,,,,,,,,,,25.000000,0.000000,0.515597,0.316284,-0.675842,0.421143,0.946405,-0.239287,-0.113295,-82.794006,41.527767,22.229483
1732083494.222862,1732083494.223390,101.000000,0.000000,4297.436035,4301.153809,4321.282227,4305.128418,4325.769043,4306.025879,4266.794922,4329.230957,4328.974121,4318.846191,4461.282227,4490.000000,4355.256348,4403.205078,1573.000000,0.000000,6.000000,,,,0.000000,2.000000,2.000000,0.000000,2.000000,2.000000,2.000000,0.000000,2.000000,4.000000,4.000000,4.000000,4.000000,2.000000,4.000000,16.666666,,,,,,,,,,,,,,,,,,,,,,,,,,,,
1732083494.230671,1732083494.231398,102.000000,0.000000,4295.256348,4297.948730,4322.563965,4302.307617,4313.717773,4296.282227,4265.000000,4327.820313,4330.000000,4324.358887,4460.384766,4491.025879,4358.077148,4405.512695,1387.000000,0.000000,6.000000,,,,0.000000,2.000000,2.000000,0.000000,2.000000,2.000000,2.000000,0.000000,2.000000,4.000000,4.000000,4.000000,4.000000,2.000000,4.000000,16.666666,,,,,,,,,,,,,,,,,,,,,,,,,,,,
1732083494.238479,1732083494.239207,103.000000,0.000000,4293.333496,4297.563965,4320.000000,4301.922852,4294.487305,4305.897461,4269.871582,4329.230957,4336.025879,4324.615234,4462.820313,4490.769043,4353.974121,4403.205078,1516.000000,0.000000,6.000000,,,,0.000000,2.000000,2.000000,0.000000,2.000000,2.000000,2.000000,0.000000,2.000000,4.000000,4.000000,4.000000,4.000000,2.000000,4.000000,16.666666,,,,,,,,,,,,,,,,,,,,,,,,,,,,
1732083494.246287,1732083494.247115,104.000000,0.000000,4293.205078,4295.769043,4318.717773,4299.230957,4295.641113,4310.256348,4267.948730,4330.256348,4338.461426,4315.897461,4461.153809,4486.025879,4348.974121,4399.487305,1748.000000,0.000000,6.000000,,,,0.000000,2.000000,2.000000,0.000000,2.000000,2.000000,2.000000,0.000000,2.000000,4.000000,4.000000,4.000000,4.000000,2.000000,4.000000,16.666666,,,,,,,,,,,,,,,,,26.000000,0.000000,0.515961,0.315918,-0.675964,0.420776,0.952753,-0.240264,-0.114272,-82.864815,41.237492,22.154213
1732083494.254095,1732083494.254923,105.000000,0.000000,4295.512695,4298.333496,4322.436035,4301.153809,4311.538574,4301.538574,4266.025879,4329.487305,4336.153809,4315.512695,4460.384766,4483.077148,4351.153809,4398.717773,1573.000000,0.000000,6.000000,,,,0.000000,2.000000,2.000000,0.000000,2.000000,2.000000,2.000000,0.000000,2.000000,4.000000,4.000000,4.000000,4.000000,2.000000,4.000000,16.666666,,,,,,,,,,,,,,,,,,,,,,,,,,,,
1732083494.261904,1732083494.262931,106.000000,0.000000,4296.153809,4305.000000,4323.333496,4308.717773,4317.307617,4299.743652,4269.487305,4321.153809,4330.641113,4326.666504,4463.717773,4486.410156,4352.179688,4403.205078,1387.000000,0.000000,6.000000,,,,0.000000,2.000000,2.000000,0.000000,2.000000,2.000000,2.000000,0.000000,2.000000,4.000000,4.000000,4.000000,4.000000,2.000000,4.000000,16.666666,,,,,,,,,,,,,,,,,,,,,,,,,,,,
1732083494.269712,1732083494.270739,107.000000,0.000000,4294.871582,4301.922852,4320.000000,4305.897461,4306.282227,4299.358887,4272.820313,4320.897461,4328.717773,4325.000000,4465.128418,4487.948730,4350.000000,4406.153809,1516.000000,0.000000,6.000000,,,,0.000000,2.000000,2.000000,0.000000,2.000000,2.000000,2.000000,0.000000,2.000000,4.000000,4.000000,4.000000,4.000000,2.000000,4.000000,16.666666,,,,,,,,,,,,,,,,,,,,,,,,,,,,
1732083494.277520,1732083494.278647,108.000000,0.000000,4294.487305,4295.897461,4320.641113,4302.051270,4292.436035,4301.410156,4269.871582,4333.077148,4330.128418,4314.102539,4462.436035,4488.717773,4349.487305,4403.717773,1748.000000,0.000000,6.000000,,,,0.000000,2.000000,2.000000,0.000000,2.000000,2.000000,2.000000,0.000000,2.000000,4.000000,4.000000,4.000000,4.000000,2.000000,4.000000,16.666666,,,,,,,,,,,,,,,,,27.000000,0.000000,0.516486,0.315430,-0.676208,0.420105,0.945916,-0.231962,-0.117202,-82.700500,41.084034,22.128246
1732083494.285329,1732083494.286455,109.000000,0.000000,4295.641113,4298.846191,4321.794922,4309.102539,4290.512695,4308.717773,4267.820313,4329.743652,4328.717773,4316.666504,4460.512695,4487.307617,4350.512695,4402.692383,1573.000000,0.000000,6.000000,,,,0.000000,2.000000,2.000000,0.000000,2.000000,2.000000,2.000000,0.000000,2.000000,4.000000,4.000000,4.000000,4.000000,2.000000,4.000000,16.666666,,,,,,,,,,,,,,,,,,,,,,,,,,,,
1732083494.293137,1732083494.294463,110.000000,0.000000,4294.871582,4300.128418,4319.358887,4306.282227,4307.307617,4305.256348,4267.692383,4328.077148,4335.256348,4325.384766,4460.897461,4484.487305,4350.769043,4401.538574,1387.000000,0.000000,6.000000,,,,0.000000,2.000000,2.000000,0.000000,2.000000,2.000000,2.000000,0.000000,2.000000,4.000000,4.000000,4.000000,4.000000,2.000000,4.000000,16.666666,,,,,,,,,,,,,,,,,,,,,,,,,,,,
1732083494.300945,1732083494.302272,111.000000,0.000000,4292.820313,4297.179688,4318.846191,4298.205078,4316.538574,4304.871582,4271.153809,4337.820313,4339.743652,4321.410156,4461.666504,4487.948730,4350.256348,4397.436035,1516.000000,0.000000,6.000000,,,,0.000000,2.000000,2.000000,0.000000,2.000000,2.000000,2.000000,0.000000,2.000000,4.000000,4.000000,4.000000,4.000000,2.000000,4.000000,16.666666,,,,,,,,,,,,,,,,,,,,,,,,,,,,
1732083494.308753,1732083494.310180,112.000000,0.000000,4295.256348,4300.384766,4321.794922,4305.641113,4304.358887,4312.051270,4271.794922,4326.282227,4326.410156,4312.436035,4461.794922,4490.512695,4350.256348,4398.333496,1748.000000,0.000000,6.000000,,,,0.000000,2.000000,2.000000,0.000000,2.000000,2.000000,2.000000,0.000000,2.000000,4.000000,4.000000,4.000000,4.000000,2.000000,4.000000,16.666666,,,,,,,,,,,,,,,,,28.000000,0.000000,0.516605,0.315186,-0.676270,0.420044,0.952753,-0.239287,-0.119155,-82.634071,40.988068,22.115545
1732083494.316561,1732083494.317988,113.000000,0.000000,4297.307617,4306.282227,4322.563965,4314.358887,4292.563965,4310.897461,4268.717773,4318.077148,4322.307617,4315.256348,4462.307617,4487.307617,4352.436035,4405.384766,1573.000000,0.000000,6.000000,,,,0.000000,2.000000,2.000000,0.000000,2.000000,2.000000,2.000000,0.000000,2.000000,4.000000,4.000000,4.000000,4.000000,2.000000,4.000000,16.666666,,,,,,,,,,,,,,,,,,,,,,,,,,,,
1732083494.324370,1732083494.325996,114.000000,0.000000,4290.384766,4304.487305,4320.897461,4308.077148,4301.538574,4311.922852,4273.333496,4337.436035,4335.769043,4315.128418,4460.897461,4484.743652,4353.974121,4403.974121,1387.000000,0.000000,6.000000,,,,0.000000,2.000000,2.000000,0.000000,2.000000,2.000000,2.000000,0.000000,2.000000,4.000000,4.000000,4.000000,4.000000,2.000000,4.000000,16.666666,,,,,,,,,,,,,,,,,,,,,,,,,,,,
1732083494.332178,1732083494.333804,115.000000,0.000000,4281.025879,4298.205078,4323.333496,4299.102539,4320.128418,4314.230957,4276.794922,4342.948730,4339.230957,4306.538574,4457.307617,4484.871582,4348.717773,4394.487305,1516.000000,0.000000,6.000000,,,,0.000000,2.000000,2.000000,0.000000,2.000000,2.000000,2.000000,0.000000,2.000000,4.000000,4.000000,4.000000,4.000000,2.000000,4.000000,16.666666,,,,,,,,,,,,,,,,,,,,,,,,,,,,
1732083494.339986,1732083494.341712,116.000000,0.000000,4281.666504,4296.410156,4324.487305,4300.384766,4318.717773,4309.230957,4271.794922,4324.487305,4330.769043,4309.615234,4457.179688,4482.436035,4343.589844,4389.743652,1748.000000,0.000000,6.000000,,,,0.000000,2.000000,2.000000,0.000000,2.000000,2.000000,2.000000,0.000000,2.000000,4.000000,4.000000,4.000000,4.000000,2.000000,4.000000,16.666666,,,,,,,,,,,,,,,,,29.000000,0.000000,0.516741,0.315125,-0.676270,0.419922,0.942010,-0.235869,-0.118178,-82.513596,41.085335,21.935259
1732083494.347794,1732083494.349520,117.000000,0.000000,4287.563965,4297.179688,4321.410156,4303.589844,4302.179688,4306.666504,4266.282227,4323.717773,4331.794922,4318.205078,4457.948730,4480.128418,4342.179688,4393.205078,1573.000000,0.000000,6.000000,,,,0.000000,2.000000,2.000000,0.000000,2.000000,2.000000,2.000000,0.000000,2.000000,4.000000,4.000000,4.000000,4.000000,2.000000,4.000000,16.666666,,,,,,,,,,,,,,,,,,,,,,,,,,,,
1732083494.355603,1732083494.357528,118.000000,0.000000,4290.256348,4298.589844,4319.871582,4306.794922,4295.769043,4312.307617,4271.025879,4337.563965,4337.179688,4315.384766,4454.871582,4483.205078,4342.307617,4399.487305,1387.000000,0.000000,6.000000,,,,0.000000,2.000000,2.000000,0.000000,2.000000,2.000000,2.000000,0.000000,2.000000,4.000000,4.000000,4.000000,4.000000,2.000000,4.000000,16.666666,,,,,,,,,,,,,,,,,,,,,,,,,,,,
1732083494.363411,1732083494.365337,119.000000,0.000000,4292.179688,4306.922852,4322.179688,4310.128418,4304.871582,4312.051270,4272.307617,4335.256348,4336.282227,4313.846191,4454.871582,4489.102539,4346.410156,4400.000000,1516.000000,0.000000,6.000000,,,,0.000000,2.000000,2.000000,0.000000,2.000000,2.000000,2.000000,0.000000,2.000000,4.000000,4.000000,4.000000,4.000000,2.000000,4.000000,16.666666,,,,,,,,,,,,,,,,,,,,,,,,,,,,
1732083494.371219,1732083494.373245,120.000000,0.000000,4293.205078,4311.666504,4322.179688,4311.666504,4307.820313,4309.102539,4270.384766,4323.974121,4329.615234,4318.846191,4459.358887,4488.846191,4352.563965,4395.512695,1748.000000,0.000000,6.000000,,,,0.000000,2.000000,2.000000,0.000000,2.000000,2.000000,2.000000,0.000000,2.000000,4.000000,4.000000,4.000000,4.000000,2.000000,4.000000,16.666666,,,,,,,,,,,,,,,,,30.000000,0.000000,0.516786,0.315002,-0.676331,0.419861,0.948846,-0.232450,-0.104017,-82.477676,41.105789,22.047560
1732083494.379027,1732083494.381053,121.000000,0.000000,4291.538574,4306.410156,4320.512695,4310.897461,4307.948730,4310.384766,4269.230957,4322.179688,4322.820313,4312.692383,4456.282227,4481.666504,4350.128418,4391.410156,1573.000000,0.000000,6.000000,,,,0.000000,2.000000,2.000000,0.000000,2.000000,2.000000,2.000000,0.000000,2.000000,4.000000,4.000000,4.000000,4.000000,2.000000,4.000000,16.666666,,,,,,,,,,,,,,,,,,,,,,,,,,,,
1732083494.386836,1732083494.388661,122.000000,0.000000,4289.871582,4306.282227,4319.743652,4308.205078,4316.025879,4307.692383,4272.051270,4326.282227,4323.077148,4303.846191,4449.358887,4479.615234,4344.615234,4392.307617,1387.000000,0.000000,6.000000,,,,0.000000,2.000000,2.000000,0.000000,2.000000,2.000000,2.000000,0.000000,2.000000,4.000000,4.000000,4.000000,4.000000,2.000000,4.000000,16.666666,,,,,,,,,,,,,,,,,,,,,,,,,,,,
1732083494.394644,1732083494.396470,123.000000,0.000000,4286.538574,4307.436035,4321.410156,4302.692383,4305.641113,4303.333496,4270.897461,4326.153809,4326.153809,4305.128418,4446.538574,4482.692383,4342.179688,4390.641113,1516.000000,0.000000,6.000000,,,,0.000000,2.000000,2.000000,0.000000,2.000000,2.000000,2.000000,0.000000,2.000000,4.000000,4.000000,4.000000,4.000000,2.000000,4.000000,16.666666,,,,,,,,,,,,,,,,,,,,,,,,,,,,
1732083494.402452,1732083494.404178,124.000000,0.000000,4279.871582,4296.922852,4321.282227,4296.153809,4289.743652,4306.282227,4268.333496,4322.307617,4319.487305,4299.230957,4437.436035,4474.102539,4335.384766,4379.487305,1748.000000,0.000000,6.000000,,,,0.000000,2.000000,2.000000,0.000000,2.000000,2.000000,2.000000,0.000000,2.000000,4.000000,4.000000,4.000000,4.000000,2.000000,4.000000,16.666666,,,,,,,,,,,,,,,,,31.000000,0.000000,0.517233,0.314819,-0.676453,0.419250,0.941521,-0.232939,-0.119155,-82.580254,41.237354,22.098524
1732083494.410261,1732083494.411986,125.000000,0.000000,4281.922852,4291.025879,4318.589844,4299.230957,4298.461426,4311.025879,4270.000000,4321.025879,4316.666504,4295.000000,4434.487305,4465.384766,4336.538574,4378.717773,1573.000000,0.000000,6.000000,,,,0.000000,2.000000,2.000000,0.000000,2.000000,2.000000,2.000000,0.000000,2.000000,4.000000,4.000000,4.000000,4.000000,2.000000,4.000000,16.666666,,,,,,,,,,,,,,,,,,,,,,,,,,,,
1732083494.418069,1732083494.419595,126.000000,0.000000,4293.717773,4302.436035,4319.487305,4308.589844,4310.769043,4309.102539,4275.256348,4327.820313,4330.384766,4308.077148,4451.153809,4475.384766,4350.512695,4394.358887,1387.000000,0.000000,6.000000,,,,0.000000,2.000000,2.000000,0.000000,2.000000,2.000000,2.000000,0.000000,2.000000,4.000000,4.000000,4.000000,4.000000,2.000000,4.000000,16.666666,,,,,,,,,,,,,,,,,,,,,,,,,,,,
1732083494.425877,1732083494.427403,127.000000,0.000000,4299.615234,4312.948730,4321.538574,4311.794922,4308.461426,4306.794922,4275.512695,4333.589844,4340.128418,4324.230957,4464.230957,4487.948730,4358.974121,4403.333496,6.000000,0.000000,6.000000,,,,0.000000,2.000000,2.000000,0.000000,2.000000,2.000000,2.000000,0.000000,2.000000,4.000000,4.000000,4.000000,4.000000,2.000000,4.000000,16.666666,,,,,,,,,,,,,,,,,,,,,,,,,,,,
1732083494.433685,1732083494.435111,0.000000,0.000000,4295.384766,4311.025879,4320.256348,4309.871582,4304.743652,4309.230957,4274.743652,4332.563965,4338.717773,4330.641113,4462.179688,4486.794922,4357.436035,4398.974121,0.000000,0.000000,6.000000,,,,0.000000,2.000000,2.000000,0.000000,2.000000,2.000000,2.000000,0.000000,2.000000,4.000000,4.000000,4.000000,4.000000,2.000000,4.000000,16.666666,,,,,,,,,,,,,,,,,0.000000,0.000000,0.517461,0.314819,-0.676392,0.419067,0.936149,-0.230497,-0.118178,-82.656670,41.325592,22.146471
1732083494.441494,1732083494.442919,1.000000,0.000000,4290.384766,4306.025879,4319.743652,4309.871582,4304.615234,4312.563965,4279.743652,4340.897461,4343.461426,4323.333496,4460.512695,4484.871582,4353.974121,4398.077148,1324.000000,0.000000,6.000000,,,,0.000000,2.000000,2.000000,0.000000,2.000000,2.000000,2.000000,0.000000,2.000000,4.000000,4.000000,4.000000,4.000000,2.000000,4.000000,16.666666,,,,,,,,,,,,,,,,,,,,,,,,,,,,
1732083494.449302,1732083494.450528,2.000000,0.000000,4290.897461,4306.794922,4321.410156,4309.743652,4317.436035,4313.461426,4278.974121,4345.512695,4343.974121,4311.922852,4463.589844,4486.794922,4351.794922,4403.077148,1247.000000,0.000000,6.000000,,,,0.000000,2.000000,2.000000,0.000000,2.000000,2.000000,2.000000,0.000000,2.000000,4.000000,4.000000,4.000000,4.000000,2.000000,4.000000,16.666666,,,,,,,,,,,,,,,,,,,,,,,,,,,,
1732083494.457110,1732083494.458336,3.000000,0.000000,4293.205078,4310.384766,4321.666504,4308.846191,4328.461426,4308.077148,4273.077148,4327.820313,4332.051270,4312.179688,4461.153809,4482.692383,4351.282227,4401.025879,1199.000000,0.000000,6.000000,,,,0.000000,2.000000,2.000000,0.000000,2.000000,2.000000,2.000000,0.000000,2.000000,4.000000,4.000000,4.000000,4.000000,2.000000,4.000000,16.666666,,,,,,,,,,,,,,,,,,,,,,,,,,,,
1732083494.464919,1732083494.466044,4.000000,0.000000,4293.461426,4309.230957,4323.717773,4309.487305,4312.179688,4305.769043,4271.025879,4320.769043,4326.538574,4317.692383,4457.051270,4478.461426,4352.179688,4396.153809,1214.000000,0.000000,6.000000,,,,0.000000,2.000000,2.000000,0.000000,2.000000,2.000000,2.000000,0.000000,2.000000,4.000000,4.000000,4.000000,4.000000,2.000000,4.000000,16.666666,,,,,,,,,,,,,,,,,1.000000,0.000000,0.517829,0.315063,-0.676147,0.418823,0.954218,-0.227078,-0.113783,-82.626907,41.675396,22.055307
1732083494.472727,1732083494.473852,5.000000,0.000000,4292.563965,4306.025879,4324.487305,4311.025879,4298.846191,4313.717773,4276.153809,4334.487305,4331.153809,4313.077148,4457.436035,4478.205078,4350.512695,4395.128418,1082.000000,0.000000,6.000000,,,,0.000000,2.000000,2.000000,0.000000,2.000000,2.000000,2.000000,0.000000,2.000000,4.000000,4.000000,4.000000,4.000000,2.000000,4.000000,16.666666,,,,,,,,,,,,,,,,,,,,,,,,,,,,
1732083494.480535,1732083494.481461,6.000000,0.000000,4291.794922,4307.436035,4323.717773,4312.820313,4308.461426,4318.974121,4276.282227,4338.589844,4334.102539,4311.153809,4459.871582,4480.769043,4350.769043,4398.846191,0.000000,0.000000,6.000000,,,,0.000000,2.000000,2.000000,0.000000,2.000000,2.000000,2.000000,0.000000,2.000000,4.000000,4.000000,4.000000,4.000000,2.000000,4.000000,16.666666,,,,,,,,,,,,,,,,,,,,,,,,,,,,
1732083494.488343,1732083494.489269,7.000000,0.000000,4289.871582,4311.922852,4322.307617,4313.077148,4318.589844,4312.820313,4272.563965,4328.461426,4327.948730,4314.487305,4459.102539,4480.641113,4351.153809,4399.230957,1172.000000,0.000000,6.000000,,,,0.000000,2.000000,2.000000,0.000000,2.000000,2.000000,2.000000,0.000000,2.000000,4.000000,4.000000,4.000000,4.000000,2.000000,4.000000,16.666666,,,,,,,,,,,,,,,,,,,,,,,,,,,,
1732083494.496152,1732083494.496977,8.000000,0.000000,4289.230957,4303.205078,4320.512695,4311.153809,4317.307617,4305.897461,4272.179688,4327.948730,4326.794922,4313.717773,4456.153809,4481.025879,4348.717773,4393.717773,1366.000000,0.000000,6.000000,,,,0.000000,2.000000,2.000000,0.000000,2.000000,2.000000,2.000000,0.000000,2.000000,4.000000,4.000000,4.000000,4.000000,2.000000,4.000000,16.666666,,,,,,,,,,,,,,,,,2.000000,0.000000,0.518416,0.315308,-0.675659,0.418701,0.957636,-0.231474,-0.116225,-82.672791,41.718739,22.096466
1732083494.503960,1732083494.504786,9.000000,0.000000,4290.256348,4291.794922,4318.846191,4311.153809,4312.820313,4311.666504,4278.717773,4336.153809,4336.410156,4314.743652,4456.538574,4484.230957,4348.333496,4389.615234,1519.000000,0.000000,6.000000,,,,0.000000,2.000000,2.000000,0.000000,2.000000,2.000000,2.000000,0.000000,2.000000,4.000000,4.000000,4.000000,4.000000,2.000000,4.000000,16.666666,,,,,,,,,,,,,,,,,,,,,,,,,,,,
1732083494.511768,1732083494.512794,10.000000,0.000000,4292.051270,4301.410156,4320.128418,4313.077148,4308.333496,4319.230957,4280.256348,4334.743652,4334.871582,4311.666504,4457.051270,4486.922852,4349.615234,4391.025879,1387.000000,0.000000,6.000000,,,,0.000000,2.000000,2.000000,0.000000,2.000000,2.000000,2.000000,0.000000,2.000000,4.000000,4.000000,4.000000,4.000000,2.000000,4.000000,16.666666,,,,,,,,,,,,,,,,,,,,,,,,,,,,
1732083494.519576,1732083494.520602,11.000000,0.000000,4296.025879,4313.846191,4322.051270,4312.948730,4305.384766,4316.025879,4277.948730,4327.307617,4324.743652,4312.179688,4457.307617,4485.000000,4350.256348,4396.794922,1523.000000,0.000000,6.000000,,,,0.000000,2.000000,2.000000,0.000000,2.000000,2.000000,2.000000,0.000000,2.000000,4.000000,4.000000,4.000000,4.000000,2.000000,4.000000,16.666666,,,,,,,,,,,,,,,,,,,,,,,,,,,,
1732083494.527385,1732083494.528510,12.000000,0.000000,4297.692383,4306.666504,4322.051270,4311.666504,4305.384766,4309.487305,4278.846191,4330.641113,4329.102539,4315.000000,4460.512695,4484.230957,4351.922852,4398.846191,1748.000000,0.000000,6.000000,,,,0.000000,2.000000,2.000000,0.000000,2.000000,2.000000,2.000000,0.000000,2.000000,4.000000,4.000000,4.000000,4.000000,2.000000,4.000000,16.666666,,,,,,,,,,,,,,,,,3.000000,0.000000,0.518664,0.314880,-0.675781,0.418518,0.945916,-0.247100,-0.115737,-82.729965,41.692177,22.271471
1732083494.535193,1732083494.536318,13.000000,0.000000,4294.358887,4298.461426,4321.922852,4311.922852,4308.589844,4312.563965,4280.256348,4342.179688,4336.282227,4304.358887,4460.256348,4486.025879,4350.000000,4395.256348,1576.000000,0.000000,6.000000,,,,0.000000,2.000000,2.000000,0.000000,2.000000,2.000000,2.000000,0.000000,2.000000,4.000000,4.000000,4.000000,4.000000,2.000000,4.000000,16.666666,,,,,,,,,,,,,,,,,,,,,,,,,,,,
1732083494.543001,1732083494.544326,14.000000,0.000000,4292.307617,4299.102539,4322.563965,4311.794922,4309.615234,4317.179688,4276.282227,4338.589844,4330.512695,4296.410156,4454.871582,4483.461426,4343.974121,4393.461426,1387.000000,0.000000,6.000000,,,,0.000000,2.000000,2.000000,0.000000,2.000000,2.000000,2.000000,0.000000,2.000000,4.000000,4.000000,4.000000,4.000000,2.000000,4.000000,16.666666,1.000000,16.666666,2.000000,2.000000,0.000000,2.000000,2.000000,2.000000,0.000000,2.000000,4.000000,4.000000,4.000000,4.000000,2.000000,4.000000,,,,,,,,,,,,
1732083494.550809,1732083494.552134,15.000000,0.000000,4293.333496,4298.846191,4322.692383,4310.641113,4305.897461,4313.589844,4275.256348,4327.307617,4329.230957,4306.025879,4453.717773,4480.897461,4344.743652,4396.410156,1523.000000,0.000000,6.000000,,,,0.000000,2.000000,2.000000,0.000000,2.000000,2.000000,2.000000,0.000000,2.000000,4.000000,4.000000,4.000000,4.000000,2.000000,4.000000,16.666666,,,,,,,,,,,,,,,,,,,,,,,,,,,,
1732083494.558618,1732083494.559843,16.000000,0.000000,4295.384766,4299.102539,4322.051270,4307.179688,4316.666504,4308.205078,4278.461426,4330.512695,4337.436035,4316.153809,4459.358887,4485.128418,4352.436035,4399.102539,0.000000,0.000000,6.000000,,,,0.000000,2.000000,2.000000,0.000000,2.000000,2.000000,2.000000,0.000000,2.000000,4.000000,4.000000,4.000000,4.000000,2.000000,4.000000,16.666666,,,,,,,,,,,,,,,,,4.000000,0.000000,0.518794,0.314697,-0.675842,0.418396,0.957636,-0.247589,-0.108412,-82.812935,41.370663,22.188225
1732083494.566426,1732083494.567651,17.000000,0.000000,4300.000000,4301.153809,4322.307617,4307.051270,4319.615234,4307.436035,4278.589844,4336.794922,4334.358887,4308.846191,4461.794922,4487.179688,4351.153809,4398.974121,0.000000,0.000000,6.000000,,,,0.000000,2.000000,2.000000,0.000000,2.000000,2.000000,2.000000,0.000000,2.000000,4.000000,4.000000,4.000000,4.000000,2.000000,4.000000,16.666666,,,,,,,,,,,,,,,,,,,,,,,,,,,,
1732083494.574234,1732083494.575259,18.000000,0.000000,4299.102539,4299.487305,4322.307617,4309.358887,4296.794922,4309.871582,4274.743652,4333.717773,4327.179688,4299.358887,4457.948730,4482.692383,4345.256348,4396.025879,0.000000,0.000000,6.000000,,,,0.000000,2.000000,2.000000,0.000000,2.000000,2.000000,2.000000,0.000000,2.000000,4.000000,4.000000,4.000000,4.000000,2.000000,4.000000,16.666666,,,,,,,,,,,,,,,,,,,,,,,,,,,,
1732083494.582042,1732083494.583067,19.000000,0.000000,4294.615234,4295.769043,4322.563965,4307.051270,4294.871582,4311.410156,4274.358887,4333.205078,4334.358887,4306.794922,4459.358887,4484.358887,4350.897461,4396.794922,0.000000,0.000000,6.000000,,,,0.000000,2.000000,2.000000,0.000000,2.000000,2.000000,2.000000,0.000000,2.000000,4.000000,4.000000,4.000000,4.000000,2.000000,4.000000,16.666666,,,,,,,,,,,,,,,,,,,,,,,,,,,,
1732083494.589851,1732083494.590976,20.000000,0.000000,4295.000000,4298.205078,4321.282227,4304.102539,4311.922852,4310.128418,4278.077148,4336.794922,4341.538574,4316.153809,4465.384766,4488.717773,4359.358887,4399.102539,0.000000,0.000000,6.000000,,,,0.000000,2.000000,2.000000,0.000000,2.000000,2.000000,2.000000,0.000000,2.000000,4.000000,4.000000,4.000000,4.000000,2.000000,4.000000,16.666666,,,,,,,,,,,,,,,,,5.000000,0.000000,0.518752,0.314636,-0.675903,0.418396,0.951776,-0.230009,-0.116713,-82.746811,41.508572,22.394129
1732083494.597659,1732083494.598784,21.000000,0.000000,4296.794922,4305.384766,4319.230957,4305.128418,4301.922852,4308.589844,4277.563965,4333.717773,4335.384766,4311.153809,4464.871582,4487.307617,4357.948730,4399.871582,0.000000,0.000000,6.000000,,,,0.000000,2.000000,2.000000,0.000000,2.000000,2.000000,2.000000,0.000000,2.000000,4.000000,4.000000,4.000000,4.000000,2.000000,4.000000,16.666666,,,,,,,,,,,,,,,,,,,,,,,,,,,,
1732083494.605467,1732083494.606792,22.000000,0.000000,4294.871582,4304.102539,4316.410156,4304.743652,4297.179688,4306.922852,4278.974121,4336.153809,4338.205078,4306.794922,4462.307617,4485.641113,4353.077148,4400.000000,0.000000,0.000000,6.000000,,,,0.000000,2.000000,2.000000,0.000000,2.000000,2.000000,2.000000,0.000000,2.000000,4.000000,4.000000,4.000000,4.000000,2.000000,4.000000,16.666666,,,,,,,,,,,,,,,,,,,,,,,,,,,,
1732083494.613275,1732083494.614600,23.000000,0.000000,4291.794922,4295.897461,4316.794922,4301.025879,4313.333496,4307.820313,4280.641113,4348.461426,4348.846191,4311.025879,4462.436035,4487.820313,4352.563965,4397.563965,0.000000,0.000000,6.000000,,,,0.000000,2.000000,2.000000,0.000000,2.000000,2.000000,2.000000,0.000000,2.000000,4.000000,4.000000,4.000000,4.000000,2.000000,4.000000,16.666666,,,,,,,,,,,,,,,,,,,,,,,,,,,,
1732083494.621084,1732083494.622508,24.000000,0.000000,4294.487305,4303.974121,4316.666504,4306.153809,4306.794922,4313.333496,4281.666504,4346.282227,4343.974121,4307.436035,4463.717773,4488.077148,4355.384766,4394.871582,0.000000,0.000000,6.000000,,,,0.000000,2.000000,2.000000,0.000000,2.000000,2.000000,2.000000,0.000000,2.000000,4.000000,4.000000,4.000000,4.000000,2.000000,4.000000,16.666666,,,,,,,,,,,,,,,,,6.000000,0.000000,0.519037,0.314209,-0.676147,0.417969,0.958125,-0.225613,-0.108412,-82.626587,41.520275,22.377577
1732083494.628892,1732083494.630316,25.000000,0.000000,4300.256348,4313.205078,4315.641113,4315.512695,4291.794922,4316.025879,4279.487305,4330.512695,4334.871582,4309.871582,4467.692383,4487.692383,4356.538574,4397.179688,0.000000,0.000000,6.000000,,,,0.000000,2.000000,2.000000,0.000000,2.000000,2.000000,2.000000,0.000000,2.000000,4.000000,4.000000,4.000000,4.000000,2.000000,4.000000,16.666666,,,,,,,,,,,,,,,,,,,,,,,,,,,,
1732083494.636700,1732083494.638324,26.000000,0.000000,4299.358887,4302.948730,4315.641113,4313.974121,4295.256348,4311.794922,4279.615234,4331.025879,4335.897461,4315.384766,4468.589844,4485.256348,4357.307617,4399.487305,0.000000,0.000000,6.000000,,,,0.000000,2.000000,2.000000,0.000000,2.000000,2.000000,2.000000,0.000000,2.000000,4.000000,4.000000,4.000000,4.000000,2.000000,4.000000,16.666666,,,,,,,,,,,,,,,,,,,,,,,,,,,,
1732083494.644508,1732083494.646133,27.000000,0.000000,4297.436035,4297.692383,4317.820313,4309.615234,4298.589844,4305.128418,4278.205078,4341.794922,4340.384766,4308.717773,4464.487305,4481.666504,4359.102539,4397.692383,0.000000,0.000000,6.000000,,,,0.000000,2.000000,2.000000,0.000000,2.000000,2.000000,2.000000,0.000000,2.000000,4.000000,4.000000,4.000000,4.000000,2.000000,4.000000,16.666666,,,,,,,,,,,,,,,,,,,,,,,,,,,,
1732083494.652317,1732083494.654041,28.000000,0.000000,4300.256348,4303.974121,4317.820313,4310.769043,4295.897461,4305.769043,4280.256348,4337.051270,4340.384766,4306.794922,4461.410156,4482.051270,4355.512695,4397.820313,0.000000,0.000000,6.000000,,,,0.000000,2.000000,2.000000,0.000000,2.000000,2.000000,2.000000,0.000000,2.000000,4.000000,4.000000,4.000000,4.000000,2.000000,4.000000,16.666666,,,,,,,,,,,,,,,,,7.000000,0.000000,0.519037,0.314209,-0.676147,0.417969,0.951288,-0.241729,-0.104017,-82.405869,41.643089,22.444172
1732083494.660125,1732083494.661849,29.000000,0.000000,4298.974121,4304.615234,4315.897461,4311.410156,4297.307617,4311.153809,4281.153809,4325.128418,4335.897461,4313.333496,4464.102539,4482.179688,4352.179688,4399.615234,0.000000,0.000000,6.000000,,,,0.000000,2.000000,2.000000,0.000000,2.000000,2.000000,2.000000,0.000000,2.000000,4.000000,4.000000,4.000000,4.000000,2.000000,4.000000,16.666666,,,,,,,,,,,,,,,,,,,,,,,,,,,,
1732083494.667933,1732083494.669857,30.000000,0.000000,4296.025879,4302.051270,4317.436035,4309.743652,4306.282227,4311.538574,4278.205078,4326.025879,4333.333496,4313.974121,4466.538574,4479.871582,4357.051270,4397.307617,0.000000,0.000000,6.000000,,,,0.000000,2.000000,2.000000,0.000000,2.000000,2.000000,2.000000,0.000000,2.000000,4.000000,4.000000,4.000000,4.000000,2.000000,4.000000,16.666666,,,,,,,,,,,,,,,,,,,,,,,,,,,,
1732083494.675742,1732083494.677665,31.000000,0.000000,4298.205078,4301.666504,4318.077148,4309.487305,4316.410156,4310.128418,4278.333496,4336.153809,4335.128418,4309.615234,4464.230957,4478.717773,4359.615234,4394.102539,0.000000,0.000000,6.000000,,,,0.000000,2.000000,2.000000,0.000000,2.000000,2.000000,2.000000,0.000000,2.000000,4.000000,4.000000,4.000000,4.000000,2.000000,4.000000,16.666666,,,,,,,,,,,,,,,,,,,,,,,,,,,,
1732083494.683550,1732083494.685573,32.000000,0.000000,4297.307617,4301.410156,4315.384766,4308.077148,4307.179688,4312.436035,4281.153809,4338.846191,4336.153809,4306.794922,4461.410156,4480.512695,4355.256348,4393.461426,0.000000,0.000000,6.000000,,,,0.000000,2.000000,2.000000,0.000000,2.000000,2.000000,2.000000,0.000000,2.000000,4.000000,4.000000,4.000000,4.000000,2.000000,4.000000,16.666666,,,,,,,,,,,,,,,,,8.000000,0.000000,0.519222,0.313965,-0.676270,0.417725,0.940056,-0.232450,-0.118667,-82.583755,41.534237,22.611444
1732083494.691358,1732083494.693381,33.000000,0.000000,4295.000000,4301.922852,4314.871582,4308.205078,4290.769043,4315.000000,4282.563965,4334.743652,4337.436035,4308.461426,4462.948730,4485.128418,4356.538574,4398.846191,0.000000,0.000000,6.000000,,,,0.000000,2.000000,2.000000,0.000000,2.000000,2.000000,2.000000,0.000000,2.000000,4.000000,4.000000,4.000000,4.000000,2.000000,4.000000,16.666666,,,,,,,,,,,,,,,,,,,,,,,,,,,,
