title:seven, start timestamp:1732081831.561612, stop timestamp:1732081859.140372, headset type:EPOCX, headset serial:E5020C3A, headset firmware:730, channels:67, sampling rate:eeg_128;mot_32, samples:3533      , version:2.2, 
Timestamp,OriginalTimestamp,EEG.Counter,EEG.Interpolated,EEG.AF3,EEG.F7,EEG.F3,EEG.FC5,EEG.T7,EEG.P7,EEG.O1,EEG.O2,EEG.P8,EEG.T8,EEG.FC6,EEG.F4,EEG.F8,EEG.AF4,EEG.RawCq,EEG.Battery,EEG.BatteryPercent,MarkerIndex,MarkerType,MarkerValueInt,EEG.MarkerHardware,CQ.AF3,CQ.F7,CQ.F3,CQ.FC5,CQ.T7,CQ.P7,CQ.O1,CQ.O2,CQ.P8,CQ.T8,CQ.FC6,CQ.F4,CQ.F8,CQ.AF4,CQ.Overall,EQ.SampleRateQuality,EQ.OVERALL,EQ.AF3,EQ.F7,EQ.F3,EQ.FC5,EQ.T7,EQ.P7,EQ.O1,EQ.O2,EQ.P8,EQ.T8,EQ.FC6,EQ.F4,EQ.F8,EQ.AF4,MOT.CounterMems,MOT.InterpolatedMems,MOT.Q0,MOT.Q1,MOT.Q2,MOT.Q3,MOT.AccX,MOT.AccY,MOT.AccZ,MOT.MagX,MOT.MagY,MOT.MagZ
1732081831.561612,1732081831.562410,29.000000,0.000000,4329.230957,4310.000000,4312.436035,4318.974121,4306.410156,4306.153809,4315.641113,4330.512695,4331.922852,4311.410156,4423.717773,4450.000000,4343.205078,4392.179688,0.000000,0.000000,12.000000,,,,0.000000,2.000000,2.000000,0.000000,2.000000,2.000000,2.000000,1.000000,2.000000,4.000000,4.000000,4.000000,4.000000,2.000000,4.000000,25.000000,,,,,,,,,,,,,,,,,,,,,,,,,,,,
1732081831.569421,1732081831.570418,30.000000,0.000000,4324.615234,4306.666504,4311.922852,4315.641113,4306.410156,4311.794922,4318.717773,4336.153809,4338.077148,4315.512695,4426.025879,4455.128418,4347.179688,4393.333496,0.000000,0.000000,12.000000,,,,0.000000,2.000000,2.000000,0.000000,2.000000,2.000000,2.000000,1.000000,2.000000,4.000000,4.000000,4.000000,4.000000,2.000000,4.000000,25.000000,,,,,,,,,,,,,,,,,,,,,,,,,,,,
1732081831.577229,1732081831.578226,31.000000,0.000000,4324.615234,4303.974121,4309.743652,4316.282227,4312.051270,4312.307617,4318.205078,4337.820313,4335.000000,4315.512695,4425.384766,4452.692383,4343.205078,4393.717773,0.000000,0.000000,12.000000,,,,0.000000,2.000000,2.000000,0.000000,2.000000,2.000000,2.000000,1.000000,2.000000,4.000000,4.000000,4.000000,4.000000,2.000000,4.000000,25.000000,,,,,,,,,,,,,,,,,,,,,,,,,,,,
1732081831.585037,1732081831.586134,32.000000,0.000000,4328.077148,4306.282227,4311.410156,4318.333496,4314.102539,4306.922852,4316.282227,4333.461426,4328.589844,4310.384766,4421.666504,4448.846191,4336.922852,4390.128418,0.000000,0.000000,12.000000,,,,0.000000,2.000000,2.000000,0.000000,2.000000,2.000000,2.000000,1.000000,2.000000,4.000000,4.000000,4.000000,4.000000,2.000000,4.000000,25.000000,,,,,,,,,,,,,,,,,8.000000,0.000000,0.624110,0.396057,-0.606873,0.292114,0.978635,0.121597,-0.062019,-75.153877,65.568230,28.706450
1732081831.592846,1732081831.593942,33.000000,0.000000,4328.717773,4304.487305,4311.922852,4314.487305,4305.512695,4305.512695,4315.384766,4334.487305,4330.641113,4312.948730,4425.000000,4455.000000,4340.000000,4389.358887,0.000000,0.000000,12.000000,,,,0.000000,2.000000,2.000000,0.000000,2.000000,2.000000,2.000000,1.000000,2.000000,4.000000,4.000000,4.000000,4.000000,2.000000,4.000000,25.000000,,,,,,,,,,,,,,,,,,,,,,,,,,,,
1732081831.600654,1732081831.601950,34.000000,0.000000,4330.512695,4301.282227,4313.461426,4311.025879,4304.743652,4310.769043,4316.410156,4336.025879,4333.077148,4316.794922,4427.307617,4465.000000,4342.051270,4394.487305,0.000000,0.000000,12.000000,,,,0.000000,2.000000,2.000000,0.000000,2.000000,2.000000,2.000000,1.000000,2.000000,4.000000,4.000000,4.000000,4.000000,2.000000,4.000000,25.000000,,,,,,,,,,,,,,,,,,,,,,,,,,,,
1732081831.608462,1732081831.609759,35.000000,0.000000,4334.358887,4302.820313,4317.051270,4315.384766,4310.256348,4313.974121,4315.000000,4335.000000,4332.563965,4317.563965,4425.641113,4468.589844,4338.589844,4400.769043,0.000000,0.000000,12.000000,,,,0.000000,2.000000,2.000000,0.000000,2.000000,2.000000,2.000000,1.000000,2.000000,4.000000,4.000000,4.000000,4.000000,2.000000,4.000000,25.000000,,,,,,,,,,,,,,,,,,,,,,,,,,,,
1732081831.616270,1732081831.617467,36.000000,0.000000,4335.128418,4305.384766,4318.589844,4316.410156,4308.205078,4313.461426,4313.717773,4334.871582,4332.436035,4319.487305,4428.846191,4469.358887,4341.025879,4402.820313,0.000000,0.000000,12.000000,,,,0.000000,2.000000,2.000000,0.000000,2.000000,2.000000,2.000000,1.000000,2.000000,4.000000,4.000000,4.000000,4.000000,2.000000,4.000000,25.000000,,,,,,,,,,,,,,,,,9.000000,0.000000,0.623626,0.396179,-0.607056,0.292603,0.951776,0.132340,-0.052741,-75.029640,65.143600,28.635557
1732081831.624079,1732081831.625275,37.000000,0.000000,4336.666504,4306.922852,4314.871582,4312.179688,4305.641113,4312.179688,4314.743652,4334.358887,4330.512695,4317.436035,4429.615234,4470.128418,4343.077148,4398.717773,0.000000,0.000000,12.000000,,,,0.000000,2.000000,2.000000,0.000000,2.000000,2.000000,2.000000,1.000000,2.000000,4.000000,4.000000,4.000000,4.000000,2.000000,4.000000,25.000000,,,,,,,,,,,,,,,,,,,,,,,,,,,,
1732081831.631887,1732081831.632884,38.000000,0.000000,4338.461426,4305.256348,4313.589844,4310.384766,4303.846191,4307.820313,4314.871582,4331.922852,4328.846191,4313.717773,4425.641113,4469.358887,4340.641113,4399.615234,0.000000,0.000000,12.000000,,,,0.000000,2.000000,2.000000,0.000000,2.000000,2.000000,2.000000,1.000000,2.000000,4.000000,4.000000,4.000000,4.000000,2.000000,4.000000,25.000000,,,,,,,,,,,,,,,,,,,,,,,,,,,,
1732081831.639695,1732081831.640692,39.000000,0.000000,4340.897461,4303.077148,4316.025879,4310.512695,4298.589844,4306.666504,4313.717773,4330.384766,4331.794922,4316.025879,4424.102539,4469.230957,4340.641113,4406.538574,0.000000,0.000000,12.000000,,,,0.000000,2.000000,2.000000,0.000000,2.000000,2.000000,2.000000,1.000000,2.000000,4.000000,4.000000,4.000000,4.000000,2.000000,4.000000,25.000000,,,,,,,,,,,,,,,,,,,,,,,,,,,,
1732081831.647504,1732081831.648600,40.000000,0.000000,4343.846191,4302.051270,4315.897461,4310.512695,4297.692383,4311.538574,4316.153809,4330.512695,4331.666504,4314.358887,4428.205078,4471.538574,4347.948730,4411.410156,0.000000,0.000000,12.000000,,,,0.000000,2.000000,2.000000,0.000000,2.000000,2.000000,2.000000,1.000000,2.000000,4.000000,4.000000,4.000000,4.000000,2.000000,4.000000,25.000000,,,,,,,,,,,,,,,,,10.000000,0.000000,0.623326,0.397400,-0.606506,0.292725,0.969357,0.153827,-0.057136,-75.382339,65.044655,28.424801
1732081831.655312,1732081831.656408,41.000000,0.000000,4345.641113,4301.794922,4314.358887,4309.487305,4298.077148,4313.461426,4320.384766,4327.948730,4326.666504,4303.974121,4430.000000,4469.358887,4353.077148,4411.666504,0.000000,0.000000,12.000000,,,,0.000000,2.000000,2.000000,0.000000,2.000000,2.000000,2.000000,1.000000,2.000000,4.000000,4.000000,4.000000,4.000000,2.000000,4.000000,25.000000,,,,,,,,,,,,,,,,,,,,,,,,,,,,
1732081831.663120,1732081831.664416,42.000000,0.000000,4351.410156,4304.743652,4315.256348,4310.256348,4292.436035,4309.230957,4316.922852,4326.410156,4326.025879,4296.794922,4427.820313,4466.410156,4349.487305,4413.589844,0.000000,0.000000,12.000000,,,,0.000000,2.000000,2.000000,0.000000,2.000000,2.000000,2.000000,1.000000,2.000000,4.000000,4.000000,4.000000,4.000000,2.000000,4.000000,25.000000,,,,,,,,,,,,,,,,,,,,,,,,,,,,
1732081831.670928,1732081831.672224,43.000000,0.000000,4361.153809,4308.589844,4318.717773,4311.922852,4290.897461,4306.538574,4313.205078,4329.743652,4328.333496,4299.358887,4430.384766,4472.563965,4349.743652,4418.846191,0.000000,0.000000,12.000000,,,,0.000000,2.000000,2.000000,0.000000,2.000000,2.000000,2.000000,1.000000,2.000000,4.000000,4.000000,4.000000,4.000000,2.000000,4.000000,25.000000,,,,,,,,,,,,,,,,,,,,,,,,,,,,
1732081831.678736,1732081831.680132,44.000000,0.000000,4365.512695,4308.205078,4316.666504,4311.410156,4293.717773,4305.128418,4313.077148,4331.153809,4327.051270,4306.025879,4437.948730,4482.563965,4359.102539,4423.333496,0.000000,0.000000,12.000000,,,,0.000000,2.000000,2.000000,0.000000,2.000000,2.000000,2.000000,1.000000,2.000000,4.000000,4.000000,4.000000,4.000000,2.000000,4.000000,25.000000,,,,,,,,,,,,,,,,,11.000000,0.000000,0.623725,0.399475,-0.605408,0.291321,0.939568,0.190453,-0.050787,-75.848030,65.049500,28.259089
1732081831.686545,1732081831.687941,45.000000,0.000000,4370.641113,4306.922852,4313.589844,4313.205078,4284.743652,4300.641113,4313.077148,4329.871582,4323.333496,4305.897461,4442.692383,4483.717773,4364.102539,4428.589844,0.000000,0.000000,12.000000,,,,0.000000,2.000000,2.000000,0.000000,2.000000,2.000000,2.000000,1.000000,2.000000,4.000000,4.000000,4.000000,4.000000,2.000000,4.000000,25.000000,,,,,,,,,,,,,,,,,,,,,,,,,,,,
1732081831.694353,1732081831.695949,46.000000,0.000000,4386.922852,4312.307617,4313.846191,4316.410156,4276.794922,4299.102539,4309.743652,4330.384766,4323.589844,4301.282227,4439.871582,4478.589844,4363.205078,4437.051270,0.000000,0.000000,12.000000,,,,0.000000,2.000000,2.000000,0.000000,2.000000,2.000000,2.000000,1.000000,2.000000,4.000000,4.000000,4.000000,4.000000,2.000000,4.000000,25.000000,,,,,,,,,,,,,,,,,,,,,,,,,,,,
1732081831.702161,1732081831.703757,47.000000,0.000000,4398.205078,4318.077148,4312.948730,4316.922852,4281.794922,4300.512695,4310.769043,4333.333496,4324.102539,4299.615234,4433.589844,4483.717773,4366.153809,4442.051270,0.000000,0.000000,12.000000,,,,0.000000,2.000000,2.000000,0.000000,2.000000,2.000000,2.000000,1.000000,2.000000,4.000000,4.000000,4.000000,4.000000,2.000000,4.000000,25.000000,,,,,,,,,,,,,,,,,,,,,,,,,,,,
1732081831.709969,1732081831.711665,48.000000,0.000000,4398.461426,4317.820313,4313.077148,4317.179688,4283.589844,4300.128418,4311.666504,4334.230957,4322.179688,4299.358887,4432.436035,4493.846191,4365.769043,4440.897461,0.000000,0.000000,12.000000,,,,0.000000,2.000000,2.000000,0.000000,2.000000,2.000000,2.000000,1.000000,2.000000,4.000000,4.000000,4.000000,4.000000,2.000000,4.000000,25.000000,,,,,,,,,,,,,,,,,12.000000,0.000000,0.624145,0.400513,-0.604553,0.290771,0.939568,0.190453,-0.050787,-75.778572,65.076759,28.281528
1732081831.717778,1732081831.719473,49.000000,0.000000,4399.615234,4312.948730,4318.717773,4317.307617,4275.128418,4297.563965,4312.436035,4331.282227,4323.974121,4302.051270,4436.922852,4492.948730,4364.743652,4444.615234,0.000000,0.000000,12.000000,,,,0.000000,2.000000,2.000000,0.000000,2.000000,2.000000,2.000000,1.000000,2.000000,4.000000,4.000000,4.000000,4.000000,2.000000,4.000000,25.000000,,,,,,,,,,,,,,,,,,,,,,,,,,,,
1732081831.725586,1732081831.727481,50.000000,0.000000,4407.692383,4313.974121,4319.871582,4317.563965,4269.871582,4295.641113,4312.051270,4326.922852,4324.358887,4304.358887,4443.589844,4488.846191,4372.563965,4457.051270,0.000000,0.000000,12.000000,,,,0.000000,2.000000,2.000000,0.000000,2.000000,2.000000,2.000000,1.000000,2.000000,4.000000,4.000000,4.000000,4.000000,2.000000,4.000000,25.000000,,,,,,,,,,,,,,,,,,,,,,,,,,,,
1732081831.733394,1732081831.735289,51.000000,0.000000,4415.897461,4316.922852,4318.974121,4319.230957,4271.794922,4295.641113,4312.307617,4326.666504,4316.025879,4295.641113,4445.897461,4497.436035,4373.974121,4463.589844,0.000000,0.000000,12.000000,,,,0.000000,2.000000,2.000000,0.000000,2.000000,2.000000,2.000000,1.000000,2.000000,4.000000,4.000000,4.000000,4.000000,2.000000,4.000000,25.000000,,,,,,,,,,,,,,,,,,,,,,,,,,,,
1732081831.741202,1732081831.743197,52.000000,0.000000,4416.282227,4312.563965,4319.102539,4318.717773,4273.717773,4296.538574,4312.436035,4331.410156,4313.589844,4284.743652,4445.641113,4507.563965,4370.897461,4464.743652,0.000000,0.000000,12.000000,,,,0.000000,2.000000,2.000000,0.000000,2.000000,2.000000,2.000000,1.000000,2.000000,4.000000,4.000000,4.000000,4.000000,2.000000,4.000000,25.000000,,,,,,,,,,,,,,,,,13.000000,0.000000,0.624803,0.401855,-0.603333,0.290039,0.960566,0.235869,-0.069833,-75.530640,65.043846,28.241371
1732081831.749011,1732081831.751006,53.000000,0.000000,4415.000000,4310.641113,4323.333496,4318.589844,4271.025879,4297.563965,4314.615234,4336.538574,4321.666504,4289.615234,4449.102539,4513.461426,4376.410156,4470.512695,0.000000,0.000000,12.000000,,,,0.000000,2.000000,2.000000,0.000000,2.000000,2.000000,2.000000,1.000000,2.000000,4.000000,4.000000,4.000000,4.000000,2.000000,4.000000,25.000000,,,,,,,,,,,,,,,,,,,,,,,,,,,,
1732081831.756819,1732081831.759014,54.000000,0.000000,4421.282227,4316.538574,4328.205078,4320.897461,4265.256348,4292.820313,4316.538574,4336.794922,4321.282227,4298.461426,4456.153809,4521.282227,4383.974121,4477.051270,0.000000,0.000000,12.000000,,,,0.000000,2.000000,2.000000,0.000000,2.000000,2.000000,2.000000,1.000000,2.000000,4.000000,4.000000,4.000000,4.000000,2.000000,4.000000,25.000000,,,,,,,,,,,,,,,,,,,,,,,,,,,,
1732081831.764627,1732081831.766822,55.000000,0.000000,4428.205078,4320.128418,4329.102539,4319.358887,4263.205078,4289.487305,4315.256348,4331.794922,4312.563965,4297.820313,4463.846191,4521.410156,4387.820313,4480.512695,0.000000,0.000000,12.000000,,,,0.000000,2.000000,2.000000,0.000000,2.000000,2.000000,2.000000,1.000000,2.000000,4.000000,4.000000,4.000000,4.000000,2.000000,4.000000,25.000000,,,,,,,,,,,,,,,,,,,,,,,,,,,,
1732081831.772436,1732081831.774730,56.000000,0.000000,4427.820313,4316.153809,4324.871582,4317.692383,4263.846191,4292.051270,4316.410156,4329.230957,4312.563965,4298.461426,4461.153809,4516.025879,4388.974121,4478.461426,0.000000,0.000000,12.000000,,,,0.000000,2.000000,2.000000,0.000000,2.000000,2.000000,2.000000,1.000000,2.000000,4.000000,4.000000,4.000000,4.000000,2.000000,4.000000,25.000000,,,,,,,,,,,,,,,,,14.000000,0.000000,0.624909,0.408386,-0.599792,0.288025,0.998657,0.120132,-0.068368,-75.396484,65.325516,28.117178
1732081831.780244,1732081831.782538,57.000000,0.000000,4425.000000,4312.948730,4323.205078,4320.769043,4257.692383,4292.692383,4318.077148,4331.282227,4318.333496,4307.692383,4454.615234,4517.820313,4387.051270,4474.871582,0.000000,0.000000,12.000000,,,,0.000000,2.000000,2.000000,0.000000,2.000000,2.000000,2.000000,1.000000,2.000000,4.000000,4.000000,4.000000,4.000000,2.000000,4.000000,25.000000,,,,,,,,,,,,,,,,,,,,,,,,,,,,
1732081831.788052,1732081831.790147,58.000000,0.000000,4424.230957,4316.538574,4326.282227,4320.384766,4261.282227,4290.512695,4315.512695,4327.179688,4315.384766,4311.794922,4456.153809,4519.743652,4385.769043,4474.743652,0.000000,0.000000,12.000000,,,,0.000000,2.000000,2.000000,0.000000,2.000000,2.000000,2.000000,1.000000,2.000000,4.000000,4.000000,4.000000,4.000000,2.000000,4.000000,25.000000,,,,,,,,,,,,,,,,,,,,,,,,,,,,
1732081831.795860,1732081831.797955,59.000000,0.000000,4423.846191,4320.000000,4324.871582,4317.692383,4277.051270,4291.666504,4311.153809,4317.692383,4309.358887,4308.974121,4454.230957,4512.179688,4387.307617,4477.436035,0.000000,0.000000,12.000000,,,,0.000000,2.000000,2.000000,0.000000,2.000000,2.000000,2.000000,1.000000,2.000000,4.000000,4.000000,4.000000,4.000000,2.000000,4.000000,25.000000,,,,,,,,,,,,,,,,,,,,,,,,,,,,
1732081831.803669,1732081831.805663,60.000000,0.000000,4422.307617,4317.563965,4323.205078,4318.974121,4274.487305,4297.563965,4314.615234,4322.307617,4312.436035,4306.410156,4445.769043,4505.000000,4382.692383,4473.846191,0.000000,0.000000,12.000000,,,,0.000000,2.000000,2.000000,0.000000,2.000000,2.000000,2.000000,1.000000,2.000000,4.000000,4.000000,4.000000,4.000000,2.000000,4.000000,25.000000,,,,,,,,,,,,,,,,,15.000000,0.000000,0.622429,0.406494,-0.601379,0.292725,0.994262,0.067879,-0.047369,-75.191154,65.410332,28.014914
1732081831.811477,1732081831.813471,61.000000,0.000000,4422.820313,4317.436035,4320.256348,4320.769043,4264.230957,4298.333496,4315.512695,4330.769043,4320.769043,4310.256348,4448.205078,4506.410156,4379.358887,4471.922852,0.000000,0.000000,12.000000,,,,0.000000,2.000000,2.000000,0.000000,2.000000,2.000000,2.000000,1.000000,2.000000,4.000000,4.000000,4.000000,4.000000,2.000000,4.000000,25.000000,,,,,,,,,,,,,,,,,,,,,,,,,,,,
1732081831.819285,1732081831.821080,62.000000,0.000000,4426.666504,4323.717773,4322.179688,4321.922852,4273.589844,4294.102539,4311.410156,4321.666504,4321.666504,4314.615234,4458.333496,4517.307617,4382.692383,4477.436035,0.000000,0.000000,12.000000,,,,0.000000,2.000000,2.000000,0.000000,2.000000,2.000000,2.000000,1.000000,2.000000,4.000000,4.000000,4.000000,4.000000,2.000000,4.000000,25.000000,,,,,,,,,,,,,,,,,,,,,,,,,,,,
1732081831.827093,1732081831.828888,63.000000,0.000000,4429.487305,4331.794922,4324.743652,4328.589844,4285.000000,4291.666504,4309.615234,4312.948730,4314.743652,4311.282227,4457.692383,4523.077148,4384.358887,4479.615234,0.000000,0.000000,12.000000,,,,0.000000,2.000000,2.000000,0.000000,2.000000,2.000000,2.000000,1.000000,2.000000,4.000000,4.000000,4.000000,4.000000,2.000000,4.000000,25.000000,,,,,,,,,,,,,,,,,,,,,,,,,,,,
1732081831.834901,1732081831.836596,64.000000,0.000000,4427.436035,4331.922852,4324.871582,4330.000000,4284.615234,4290.256348,4311.538574,4318.205078,4314.743652,4307.820313,4454.743652,4520.897461,4385.000000,4477.179688,0.000000,0.000000,12.000000,,,,0.000000,2.000000,2.000000,0.000000,2.000000,2.000000,2.000000,1.000000,2.000000,4.000000,4.000000,4.000000,4.000000,2.000000,4.000000,25.000000,,,,,,,,,,,,,,,,,16.000000,0.000000,0.621565,0.404236,-0.602600,0.295166,0.994262,0.067879,-0.047369,-75.091499,65.300705,27.948748
1732081831.842710,1732081831.844405,65.000000,0.000000,4423.846191,4325.128418,4322.436035,4324.358887,4286.410156,4291.794922,4309.871582,4322.563965,4323.077148,4311.025879,4456.282227,4521.538574,4383.846191,4475.256348,1284.000000,0.000000,12.000000,,,,0.000000,2.000000,2.000000,0.000000,2.000000,2.000000,2.000000,1.000000,2.000000,4.000000,4.000000,4.000000,4.000000,2.000000,4.000000,25.000000,,,,,,,,,,,,,,,,,,,,,,,,,,,,
1732081831.850518,1732081831.852013,66.000000,0.000000,4422.179688,4324.230957,4324.358887,4324.358887,4291.153809,4296.153809,4310.384766,4320.256348,4324.743652,4312.563965,4452.692383,4524.743652,4380.256348,4474.487305,1204.000000,0.000000,12.000000,,,,0.000000,2.000000,2.000000,0.000000,2.000000,2.000000,2.000000,1.000000,2.000000,4.000000,4.000000,4.000000,4.000000,2.000000,4.000000,25.000000,,,,,,,,,,,,,,,,,,,,,,,,,,,,
1732081831.858326,1732081831.859821,67.000000,0.000000,4421.410156,4329.102539,4324.358887,4328.717773,4290.000000,4297.563965,4310.769043,4323.077148,4320.769043,4307.307617,4447.179688,4523.205078,4376.666504,4473.461426,1165.000000,0.000000,12.000000,,,,0.000000,2.000000,2.000000,0.000000,2.000000,2.000000,2.000000,1.000000,2.000000,4.000000,4.000000,4.000000,4.000000,2.000000,4.000000,25.000000,,,,,,,,,,,,,,,,,,,,,,,,,,,,
1732081831.866135,1732081831.867529,68.000000,0.000000,4422.436035,4327.692383,4323.589844,4328.974121,4287.692383,4295.897461,4307.179688,4326.922852,4321.922852,4302.179688,4446.794922,4524.615234,4377.820313,4473.846191,1185.000000,0.000000,12.000000,,,,0.000000,2.000000,2.000000,0.000000,2.000000,2.000000,2.000000,1.000000,2.000000,4.000000,4.000000,4.000000,4.000000,2.000000,4.000000,25.000000,,,,,,,,,,,,,,,,,17.000000,0.000000,0.620135,0.393005,-0.607483,0.303223,0.929313,0.085460,-0.024905,-75.324120,64.960236,27.988485
1732081831.873943,1732081831.875338,69.000000,0.000000,4424.743652,4322.948730,4326.666504,4330.384766,4286.282227,4291.794922,4306.410156,4326.025879,4326.025879,4299.743652,4451.794922,4534.358887,4381.410156,4479.358887,1062.000000,0.000000,12.000000,,,,0.000000,2.000000,2.000000,0.000000,2.000000,2.000000,2.000000,1.000000,2.000000,4.000000,4.000000,4.000000,4.000000,2.000000,4.000000,25.000000,,,,,,,,,,,,,,,,,,,,,,,,,,,,
1732081831.881751,1732081831.883346,70.000000,0.000000,4422.436035,4325.000000,4326.794922,4333.461426,4288.846191,4286.794922,4308.974121,4326.538574,4324.871582,4296.025879,4458.077148,4541.538574,4380.897461,4485.384766,210.000000,0.000000,12.000000,,,,0.000000,2.000000,2.000000,0.000000,2.000000,2.000000,2.000000,1.000000,2.000000,4.000000,4.000000,4.000000,4.000000,2.000000,4.000000,25.000000,,,,,,,,,,,,,,,,,,,,,,,,,,,,
1732081831.889559,1732081831.891154,71.000000,0.000000,4418.461426,4327.692383,4326.410156,4332.563965,4288.333496,4289.871582,4313.205078,4332.820313,4324.871582,4299.743652,4465.641113,4549.230957,4385.128418,4487.948730,1190.000000,0.000000,12.000000,,,,0.000000,2.000000,2.000000,0.000000,2.000000,2.000000,2.000000,1.000000,2.000000,4.000000,4.000000,4.000000,4.000000,2.000000,4.000000,25.000000,,,,,,,,,,,,,,,,,,,,,,,,,,,,
1732081831.897368,1732081831.898862,72.000000,0.000000,4418.717773,4323.717773,4325.512695,4331.410156,4288.589844,4293.974121,4315.000000,4336.153809,4330.000000,4309.358887,4472.692383,4557.948730,4395.512695,4486.153809,1327.000000,0.000000,12.000000,,,,0.000000,2.000000,2.000000,0.000000,2.000000,2.000000,2.000000,1.000000,2.000000,4.000000,4.000000,4.000000,4.000000,2.000000,4.000000,25.000000,,,,,,,,,,,,,,,,,18.000000,0.000000,0.621873,0.387146,-0.608643,0.304871,0.942010,0.107923,-0.027347,-75.419205,64.581123,28.074007
1732081831.905176,1732081831.906670,73.000000,0.000000,4417.563965,4321.538574,4326.922852,4332.436035,4302.820313,4288.846191,4311.025879,4327.563965,4325.256348,4306.538574,4468.333496,4550.512695,4394.230957,4481.025879,1466.000000,0.000000,12.000000,,,,0.000000,2.000000,2.000000,0.000000,2.000000,2.000000,2.000000,1.000000,2.000000,4.000000,4.000000,4.000000,4.000000,2.000000,4.000000,25.000000,,,,,,,,,,,,,,,,,,,,,,,,,,,,
1732081831.912984,1732081831.914279,74.000000,0.000000,4411.666504,4327.820313,4324.615234,4332.692383,4310.512695,4290.897461,4308.717773,4322.948730,4315.384766,4291.282227,4458.589844,4527.948730,4381.282227,4468.974121,1359.000000,0.000000,12.000000,,,,0.000000,2.000000,2.000000,0.000000,2.000000,2.000000,2.000000,1.000000,2.000000,4.000000,4.000000,4.000000,4.000000,2.000000,4.000000,25.000000,,,,,,,,,,,,,,,,,,,,,,,,,,,,
1732081831.920792,1732081831.922087,75.000000,0.000000,4405.769043,4331.025879,4322.692383,4326.794922,4298.077148,4297.692383,4314.871582,4330.384766,4318.846191,4288.205078,4453.846191,4517.436035,4378.333496,4461.153809,1489.000000,0.000000,12.000000,,,,0.000000,2.000000,2.000000,0.000000,2.000000,2.000000,2.000000,1.000000,2.000000,4.000000,4.000000,4.000000,4.000000,2.000000,4.000000,25.000000,,,,,,,,,,,,,,,,,,,,,,,,,,,,
1732081831.928601,1732081831.929795,76.000000,0.000000,4405.000000,4327.307617,4320.384766,4322.692383,4296.922852,4295.897461,4317.436035,4336.153809,4331.410156,4303.589844,4457.820313,4523.077148,4387.307617,4463.846191,1718.000000,0.000000,12.000000,,,,0.000000,2.000000,2.000000,0.000000,2.000000,2.000000,2.000000,1.000000,2.000000,4.000000,4.000000,4.000000,4.000000,2.000000,4.000000,25.000000,,,,,,,,,,,,,,,,,19.000000,0.000000,0.621873,0.387146,-0.608643,0.304871,0.971310,0.115248,-0.031742,-75.526222,64.169044,28.203278
1732081831.936409,1732081831.937604,77.000000,0.000000,4404.615234,4327.307617,4322.307617,4326.922852,4311.666504,4295.512695,4313.205078,4336.410156,4334.487305,4311.666504,4462.692383,4522.307617,4386.153809,4460.641113,1685.000000,0.000000,12.000000,,,,0.000000,2.000000,2.000000,0.000000,2.000000,2.000000,2.000000,1.000000,2.000000,4.000000,4.000000,4.000000,4.000000,2.000000,4.000000,25.000000,,,,,,,,,,,,,,,,,,,,,,,,,,,,
1732081831.944217,1732081831.945212,78.000000,0.000000,4397.051270,4327.436035,4321.666504,4328.717773,4318.077148,4298.077148,4310.384766,4334.871582,4326.153809,4301.410156,4453.846191,4510.128418,4371.153809,4447.820313,1359.000000,0.000000,12.000000,,,,0.000000,2.000000,2.000000,0.000000,2.000000,2.000000,2.000000,1.000000,2.000000,4.000000,4.000000,4.000000,4.000000,2.000000,4.000000,25.000000,1.000000,8.333333,2.000000,2.000000,0.000000,2.000000,2.000000,2.000000,0.000000,1.000000,1.000000,3.000000,4.000000,4.000000,2.000000,3.000000,,,,,,,,,,,,
1732081831.952025,1732081831.953020,79.000000,0.000000,4385.384766,4322.948730,4318.333496,4321.794922,4312.820313,4297.948730,4313.846191,4333.205078,4326.025879,4297.179688,4442.820313,4498.717773,4363.589844,4439.230957,1489.000000,0.000000,12.000000,,,,0.000000,2.000000,2.000000,0.000000,2.000000,2.000000,2.000000,1.000000,2.000000,4.000000,4.000000,4.000000,4.000000,2.000000,4.000000,25.000000,,,,,,,,,,,,,,,,,,,,,,,,,,,,
1732081831.959834,1732081831.960728,80.000000,0.000000,4386.538574,4325.512695,4320.512695,4321.666504,4310.769043,4300.256348,4314.487305,4334.487305,4335.128418,4315.128418,4453.077148,4505.256348,4375.641113,4444.871582,1718.000000,0.000000,12.000000,,,,0.000000,2.000000,2.000000,0.000000,2.000000,2.000000,2.000000,1.000000,2.000000,4.000000,4.000000,4.000000,4.000000,2.000000,4.000000,25.000000,,,,,,,,,,,,,,,,,20.000000,0.000000,0.623263,0.385193,-0.608215,0.305359,0.996215,0.122085,-0.037114,-75.534569,63.821926,28.411322
1732081831.967642,1732081831.968537,81.000000,0.000000,4395.384766,4333.461426,4322.692383,4328.589844,4312.179688,4296.666504,4310.769043,4333.077148,4331.922852,4323.589844,4464.743652,4520.256348,4388.333496,4453.077148,1685.000000,0.000000,12.000000,,,,0.000000,2.000000,2.000000,0.000000,2.000000,2.000000,2.000000,1.000000,2.000000,4.000000,4.000000,4.000000,4.000000,2.000000,4.000000,25.000000,,,,,,,,,,,,,,,,,,,,,,,,,,,,
1732081831.975450,1732081831.976545,82.000000,0.000000,4396.410156,4335.512695,4322.563965,4329.230957,4312.436035,4287.436035,4307.948730,4325.769043,4320.897461,4309.230957,4457.436035,4518.589844,4382.307617,4451.794922,1359.000000,0.000000,12.000000,,,,0.000000,2.000000,2.000000,0.000000,2.000000,2.000000,2.000000,1.000000,2.000000,4.000000,4.000000,4.000000,4.000000,2.000000,4.000000,25.000000,,,,,,,,,,,,,,,,,,,,,,,,,,,,
1732081831.983258,1732081831.984353,83.000000,0.000000,4392.179688,4331.282227,4323.846191,4327.563965,4310.512695,4288.974121,4311.922852,4323.974121,4323.717773,4311.153809,4454.102539,4505.897461,4373.461426,4446.922852,1489.000000,0.000000,12.000000,,,,0.000000,2.000000,2.000000,0.000000,2.000000,2.000000,2.000000,1.000000,2.000000,4.000000,4.000000,4.000000,4.000000,2.000000,4.000000,25.000000,,,,,,,,,,,,,,,,,,,,,,,,,,,,
1732081831.991067,1732081831.992261,84.000000,0.000000,4389.743652,4326.538574,4326.410156,4325.000000,4311.153809,4297.051270,4313.589844,4326.538574,4330.128418,4326.538574,4460.512695,4507.307617,4372.692383,4449.230957,1718.000000,0.000000,12.000000,,,,0.000000,2.000000,2.000000,0.000000,2.000000,2.000000,2.000000,1.000000,2.000000,4.000000,4.000000,4.000000,4.000000,2.000000,4.000000,25.000000,,,,,,,,,,,,,,,,,21.000000,0.000000,0.624877,0.385925,-0.605042,0.307434,0.970822,0.143572,-0.032230,-75.667999,63.425758,28.624838
1732081831.998875,1732081832.000069,85.000000,0.000000,4389.358887,4325.769043,4325.256348,4321.538574,4316.282227,4300.512695,4312.436035,4327.307617,4325.641113,4321.025879,4455.512695,4511.410156,4372.051270,4450.128418,1685.000000,0.000000,12.000000,,,,0.000000,2.000000,2.000000,0.000000,2.000000,2.000000,2.000000,1.000000,2.000000,4.000000,4.000000,4.000000,4.000000,2.000000,4.000000,25.000000,,,,,,,,,,,,,,,,,,,,,,,,,,,,
1732081832.006683,1732081832.008077,86.000000,0.000000,4385.512695,4325.384766,4324.615234,4322.051270,4316.282227,4303.846191,4315.384766,4329.743652,4325.256348,4309.358887,4445.128418,4500.897461,4367.307617,4440.256348,1359.000000,0.000000,12.000000,,,,0.000000,2.000000,2.000000,0.000000,2.000000,2.000000,2.000000,1.000000,2.000000,4.000000,4.000000,4.000000,4.000000,2.000000,4.000000,25.000000,,,,,,,,,,,,,,,,,,,,,,,,,,,,
1732081832.014491,1732081832.015885,87.000000,0.000000,4376.666504,4323.846191,4325.384766,4318.974121,4313.589844,4311.025879,4318.077148,4331.538574,4328.461426,4310.128418,4440.512695,4488.846191,4358.333496,4431.794922,1489.000000,0.000000,12.000000,,,,0.000000,2.000000,2.000000,0.000000,2.000000,2.000000,2.000000,1.000000,2.000000,4.000000,4.000000,4.000000,4.000000,2.000000,4.000000,25.000000,,,,,,,,,,,,,,,,,,,,,,,,,,,,
1732081832.022300,1732081832.023794,88.000000,0.000000,4369.358887,4322.307617,4324.743652,4312.179688,4313.333496,4314.615234,4318.589844,4331.410156,4326.025879,4309.230957,4440.000000,4489.487305,4353.077148,4429.615234,1718.000000,0.000000,12.000000,,,,0.000000,2.000000,2.000000,0.000000,2.000000,2.000000,2.000000,1.000000,2.000000,4.000000,4.000000,4.000000,4.000000,2.000000,4.000000,25.000000,,,,,,,,,,,,,,,,,22.000000,0.000000,0.625129,0.387939,-0.603210,0.307983,0.987914,0.125504,-0.020022,-75.861084,63.249866,28.699451
1732081832.030108,1732081832.031602,89.000000,0.000000,4368.846191,4318.974121,4324.615234,4313.589844,4309.615234,4306.666504,4316.922852,4330.641113,4326.794922,4309.871582,4441.410156,4492.948730,4358.333496,4427.563965,1685.000000,0.000000,12.000000,,,,0.000000,2.000000,2.000000,0.000000,2.000000,2.000000,2.000000,1.000000,2.000000,4.000000,4.000000,4.000000,4.000000,2.000000,4.000000,25.000000,,,,,,,,,,,,,,,,,,,,,,,,,,,,
1732081832.037916,1732081832.039610,90.000000,0.000000,4368.846191,4318.974121,4323.333496,4320.769043,4305.897461,4297.436035,4316.153809,4328.974121,4330.128418,4316.410156,4445.512695,4487.820313,4366.410156,4428.077148,1359.000000,0.000000,12.000000,,,,0.000000,2.000000,2.000000,0.000000,2.000000,2.000000,2.000000,1.000000,2.000000,4.000000,4.000000,4.000000,4.000000,2.000000,4.000000,25.000000,,,,,,,,,,,,,,,,,,,,,,,,,,,,
1732081832.045725,1732081832.047418,91.000000,0.000000,4368.589844,4321.666504,4322.307617,4313.974121,4309.615234,4300.384766,4315.256348,4328.333496,4332.436035,4323.974121,4451.025879,4484.487305,4372.051270,4433.077148,1489.000000,0.000000,12.000000,,,,0.000000,2.000000,2.000000,0.000000,2.000000,2.000000,2.000000,1.000000,2.000000,4.000000,4.000000,4.000000,4.000000,2.000000,4.000000,25.000000,,,,,,,,,,,,,,,,,,,,,,,,,,,,
1732081832.053533,1732081832.055326,92.000000,0.000000,4369.615234,4322.179688,4325.000000,4307.820313,4311.282227,4306.282227,4317.307617,4337.436035,4338.077148,4325.128418,4449.487305,4485.256348,4372.436035,4431.538574,1718.000000,0.000000,12.000000,,,,0.000000,2.000000,2.000000,0.000000,2.000000,2.000000,2.000000,1.000000,2.000000,4.000000,4.000000,4.000000,4.000000,2.000000,4.000000,25.000000,,,,,,,,,,,,,,,,,23.000000,0.000000,0.625129,0.387939,-0.603210,0.307983,0.989379,0.110365,-0.038091,-76.077477,63.392391,28.819889
1732081832.061341,1732081832.063134,93.000000,0.000000,4366.666504,4322.948730,4327.563965,4323.974121,4308.846191,4311.922852,4320.769043,4348.205078,4342.436035,4319.487305,4443.717773,4480.000000,4366.538574,4422.051270,1685.000000,0.000000,12.000000,,,,0.000000,2.000000,2.000000,0.000000,2.000000,2.000000,2.000000,1.000000,2.000000,4.000000,4.000000,4.000000,4.000000,2.000000,4.000000,25.000000,,,,,,,,,,,,,,,,,,,,,,,,,,,,
1732081832.069149,1732081832.071142,94.000000,0.000000,4359.358887,4319.487305,4327.051270,4332.307617,4321.282227,4318.461426,4325.256348,4341.538574,4336.282227,4315.256348,4439.871582,4471.025879,4362.820313,4416.025879,1359.000000,0.000000,12.000000,,,,0.000000,2.000000,2.000000,0.000000,2.000000,2.000000,2.000000,1.000000,2.000000,4.000000,4.000000,4.000000,4.000000,2.000000,4.000000,25.000000,,,,,,,,,,,,,,,,,,,,,,,,,,,,
1732081832.076958,1732081832.078950,95.000000,0.000000,4351.794922,4312.051270,4325.512695,4321.410156,4334.230957,4319.358887,4324.743652,4327.179688,4326.410156,4311.282227,4431.282227,4462.051270,4358.333496,4412.820313,1489.000000,0.000000,12.000000,,,,0.000000,2.000000,2.000000,0.000000,2.000000,2.000000,2.000000,1.000000,2.000000,4.000000,4.000000,4.000000,4.000000,2.000000,4.000000,25.000000,,,,,,,,,,,,,,,,,,,,,,,,,,,,
1732081832.084766,1732081832.086859,96.000000,0.000000,4346.922852,4310.897461,4325.897461,4318.333496,4321.025879,4320.641113,4321.794922,4325.897461,4324.230957,4305.128418,4421.538574,4460.897461,4348.974121,4408.077148,1718.000000,0.000000,12.000000,,,,0.000000,2.000000,2.000000,0.000000,2.000000,2.000000,2.000000,1.000000,2.000000,4.000000,4.000000,4.000000,4.000000,2.000000,4.000000,25.000000,,,,,,,,,,,,,,,,,24.000000,0.000000,0.624203,0.391296,-0.601563,0.308838,0.962520,0.104505,-0.036626,-76.147758,63.447838,28.935778
1732081832.092574,1732081832.094667,97.000000,0.000000,4343.333496,4312.436035,4323.717773,4323.461426,4310.256348,4326.153809,4320.384766,4335.000000,4327.563965,4307.563965,4423.846191,4469.871582,4347.820313,4407.948730,1685.000000,0.000000,12.000000,,,,0.000000,2.000000,2.000000,0.000000,2.000000,2.000000,2.000000,1.000000,2.000000,4.000000,4.000000,4.000000,4.000000,2.000000,4.000000,25.000000,,,,,,,,,,,,,,,,,,,,,,,,,,,,
1732081832.100382,1732081832.102675,98.000000,0.000000,4340.897461,4308.974121,4324.615234,4322.692383,4321.922852,4325.000000,4321.922852,4336.922852,4334.871582,4317.692383,4431.922852,4475.256348,4352.948730,4411.282227,1359.000000,0.000000,12.000000,,,,0.000000,2.000000,2.000000,0.000000,2.000000,2.000000,2.000000,1.000000,2.000000,4.000000,4.000000,4.000000,4.000000,2.000000,4.000000,25.000000,,,,,,,,,,,,,,,,,,,,,,,,,,,,
1732081832.108190,1732081832.110483,99.000000,0.000000,4343.717773,4309.615234,4325.897461,4322.820313,4326.282227,4316.282227,4319.358887,4332.179688,4338.461426,4323.205078,4436.410156,4473.077148,4353.974121,4413.846191,1489.000000,0.000000,12.000000,,,,0.000000,2.000000,2.000000,0.000000,2.000000,2.000000,2.000000,1.000000,2.000000,4.000000,4.000000,4.000000,4.000000,2.000000,4.000000,25.000000,,,,,,,,,,,,,,,,,,,,,,,,,,,,
1732081832.115999,1732081832.118191,100.000000,0.000000,4342.948730,4309.487305,4322.436035,4324.102539,4318.974121,4315.897461,4317.051270,4334.358887,4332.563965,4320.128418,4435.128418,4473.589844,4354.487305,4412.563965,1718.000000,0.000000,12.000000,,,,0.000000,2.000000,2.000000,0.000000,2.000000,2.000000,2.000000,1.000000,2.000000,4.000000,4.000000,4.000000,4.000000,2.000000,4.000000,25.000000,,,,,,,,,,,,,,,,,25.000000,0.000000,0.623634,0.391541,-0.601868,0.309082,0.966915,0.077646,-0.028812,-76.309685,63.552750,28.991312
1732081832.123807,1732081832.125999,101.000000,0.000000,4338.974121,4306.666504,4316.410156,4326.666504,4320.897461,4321.153809,4316.666504,4337.436035,4326.025879,4314.102539,4433.589844,4470.897461,4357.436035,4409.487305,1685.000000,0.000000,12.000000,,,,0.000000,2.000000,2.000000,0.000000,2.000000,2.000000,2.000000,1.000000,2.000000,4.000000,4.000000,4.000000,4.000000,2.000000,4.000000,25.000000,,,,,,,,,,,,,,,,,,,,,,,,,,,,
1732081832.131615,1732081832.134008,102.000000,0.000000,4343.333496,4310.000000,4318.077148,4325.897461,4320.769043,4322.436035,4314.102539,4338.717773,4331.282227,4316.153809,4434.615234,4466.922852,4353.717773,4409.358887,1359.000000,0.000000,12.000000,,,,0.000000,2.000000,2.000000,0.000000,2.000000,2.000000,2.000000,1.000000,2.000000,4.000000,4.000000,4.000000,4.000000,2.000000,4.000000,25.000000,,,,,,,,,,,,,,,,,,,,,,,,,,,,
1732081832.139423,1732081832.141816,103.000000,0.000000,4345.641113,4311.410156,4321.025879,4311.666504,4312.563965,4321.538574,4315.512695,4344.615234,4341.153809,4322.563965,4433.846191,4472.051270,4350.769043,4412.436035,1489.000000,0.000000,12.000000,,,,0.000000,2.000000,2.000000,0.000000,2.000000,2.000000,2.000000,1.000000,2.000000,4.000000,4.000000,4.000000,4.000000,2.000000,4.000000,25.000000,,,,,,,,,,,,,,,,,,,,,,,,,,,,
1732081832.147232,1732081832.149524,104.000000,0.000000,4336.538574,4307.563965,4315.897461,4308.846191,4314.615234,4323.077148,4321.410156,4346.922852,4337.307617,4317.436035,4431.025879,4475.641113,4354.358887,4414.743652,1718.000000,0.000000,12.000000,,,,0.000000,2.000000,2.000000,0.000000,2.000000,2.000000,2.000000,1.000000,2.000000,4.000000,4.000000,4.000000,4.000000,2.000000,4.000000,25.000000,,,,,,,,,,,,,,,,,26.000000,0.000000,0.623655,0.391174,-0.601990,0.309265,0.972775,0.097180,-0.026370,-76.472511,63.511059,28.771297
1732081832.155040,1732081832.157332,105.000000,0.000000,4335.256348,4311.282227,4310.512695,4326.794922,4324.615234,4326.538574,4319.102539,4336.025879,4325.897461,4309.102539,4429.743652,4474.615234,4354.230957,4413.461426,1685.000000,0.000000,12.000000,,,,0.000000,2.000000,2.000000,0.000000,2.000000,2.000000,2.000000,1.000000,2.000000,4.000000,4.000000,4.000000,4.000000,2.000000,4.000000,25.000000,,,,,,,,,,,,,,,,,,,,,,,,,,,,
1732081832.162848,1732081832.164941,106.000000,0.000000,4341.153809,4315.641113,4313.589844,4333.846191,4327.307617,4320.000000,4311.282227,4330.769043,4326.666504,4312.436035,4431.153809,4474.230957,4349.743652,4413.333496,1359.000000,0.000000,12.000000,,,,0.000000,2.000000,2.000000,0.000000,2.000000,2.000000,2.000000,1.000000,2.000000,4.000000,4.000000,4.000000,4.000000,2.000000,4.000000,25.000000,,,,,,,,,,,,,,,,,,,,,,,,,,,,
1732081832.170657,1732081832.172749,107.000000,0.000000,4337.179688,4314.358887,4316.794922,4326.282227,4323.077148,4316.410156,4314.615234,4340.256348,4334.743652,4316.410156,4434.487305,4474.102539,4350.000000,4415.256348,1489.000000,0.000000,12.000000,,,,0.000000,2.000000,2.000000,0.000000,2.000000,2.000000,2.000000,1.000000,2.000000,4.000000,4.000000,4.000000,4.000000,2.000000,4.000000,25.000000,,,,,,,,,,,,,,,,,,,,,,,,,,,,
1732081832.178465,1732081832.180457,108.000000,0.000000,4334.358887,4310.769043,4315.897461,4323.974121,4332.563965,4323.461426,4317.948730,4345.897461,4335.128418,4313.846191,4436.410156,4474.102539,4353.974121,4413.717773,1718.000000,0.000000,12.000000,,,,0.000000,2.000000,2.000000,0.000000,2.000000,2.000000,2.000000,1.000000,2.000000,4.000000,4.000000,4.000000,4.000000,2.000000,4.000000,25.000000,,,,,,,,,,,,,,,,,27.000000,0.000000,0.624005,0.389771,-0.602600,0.309143,0.974240,0.101087,-0.019534,-76.482735,63.407291,28.569750
1732081832.186273,1732081832.188265,109.000000,0.000000,4335.769043,4303.589844,4317.307617,4323.461426,4343.461426,4322.307617,4315.000000,4343.717773,4337.051270,4315.769043,4432.051270,4467.051270,4351.282227,4408.461426,1685.000000,0.000000,12.000000,,,,0.000000,2.000000,2.000000,0.000000,2.000000,2.000000,2.000000,1.000000,2.000000,4.000000,4.000000,4.000000,4.000000,2.000000,4.000000,25.000000,,,,,,,,,,,,,,,,,,,,,,,,,,,,
1732081832.194081,1732081832.195874,110.000000,0.000000,4333.077148,4300.897461,4316.922852,4325.384766,4333.077148,4318.846191,4313.846191,4349.615234,4347.820313,4322.436035,4427.563965,4458.974121,4346.282227,4401.538574,1359.000000,0.000000,12.000000,,,,0.000000,2.000000,2.000000,0.000000,2.000000,2.000000,2.000000,1.000000,2.000000,4.000000,4.000000,4.000000,4.000000,2.000000,4.000000,25.000000,,,,,,,,,,,,,,,,,,,,,,,,,,,,
1732081832.201890,1732081832.203682,111.000000,0.000000,4335.128418,4308.974121,4316.025879,4327.563965,4322.820313,4323.205078,4316.922852,4355.512695,4351.282227,4324.615234,4433.461426,4466.538574,4348.205078,4400.256348,1489.000000,0.000000,12.000000,,,,0.000000,2.000000,2.000000,0.000000,2.000000,2.000000,2.000000,1.000000,2.000000,4.000000,4.000000,4.000000,4.000000,2.000000,4.000000,25.000000,,,,,,,,,,,,,,,,,,,,,,,,,,,,
1732081832.209698,1732081832.211390,112.000000,0.000000,4342.436035,4313.589844,4317.948730,4324.615234,4331.282227,4322.820313,4314.615234,4346.282227,4338.333496,4316.922852,4438.589844,4469.871582,4350.641113,4403.974121,1718.000000,0.000000,12.000000,,,,0.000000,2.000000,2.000000,0.000000,2.000000,2.000000,2.000000,1.000000,2.000000,4.000000,4.000000,4.000000,4.000000,2.000000,4.000000,25.000000,,,,,,,,,,,,,,,,,28.000000,0.000000,0.624658,0.387024,-0.603943,0.308655,0.978147,0.096691,-0.010255,-76.487679,63.279907,28.608164
1732081832.217506,1732081832.219199,113.000000,0.000000,4341.410156,4307.436035,4318.974121,4326.794922,4336.282227,4316.794922,4312.179688,4337.179688,4330.128418,4312.820313,4434.743652,4456.666504,4349.487305,4403.205078,1685.000000,0.000000,12.000000,,,,0.000000,2.000000,2.000000,0.000000,2.000000,2.000000,2.000000,1.000000,2.000000,4.000000,4.000000,4.000000,4.000000,2.000000,4.000000,25.000000,,,,,,,,,,,,,,,,,,,,,,,,,,,,
1732081832.225314,1732081832.226807,114.000000,0.000000,4340.512695,4306.153809,4317.051270,4329.871582,4332.563965,4313.461426,4312.563965,4339.615234,4333.333496,4320.128418,4436.025879,4462.436035,4351.025879,4404.102539,1359.000000,0.000000,12.000000,,,,0.000000,2.000000,2.000000,0.000000,2.000000,2.000000,2.000000,1.000000,2.000000,4.000000,4.000000,4.000000,4.000000,2.000000,4.000000,25.000000,,,,,,,,,,,,,,,,,,,,,,,,,,,,
1732081832.233123,1732081832.234615,115.000000,0.000000,4344.871582,4311.153809,4318.461426,4326.922852,4334.615234,4309.615234,4314.743652,4342.051270,4336.282227,4326.794922,4446.153809,4480.641113,4356.153809,4408.717773,1489.000000,0.000000,12.000000,,,,0.000000,2.000000,2.000000,0.000000,2.000000,2.000000,2.000000,1.000000,2.000000,4.000000,4.000000,4.000000,4.000000,2.000000,4.000000,25.000000,,,,,,,,,,,,,,,,,,,,,,,,,,,,
1732081832.240931,1732081832.242323,116.000000,0.000000,4342.692383,4309.358887,4318.846191,4323.846191,4333.205078,4318.205078,4318.717773,4343.974121,4337.051270,4323.717773,4445.897461,4470.384766,4351.282227,4403.717773,1718.000000,0.000000,12.000000,,,,0.000000,2.000000,2.000000,0.000000,2.000000,2.000000,2.000000,1.000000,2.000000,4.000000,4.000000,4.000000,4.000000,2.000000,4.000000,25.000000,,,,,,,,,,,,,,,,,29.000000,0.000000,0.624747,0.385315,-0.605347,0.307861,0.974728,0.111342,-0.041997,-76.371689,63.198391,28.730946
1732081832.248739,1732081832.250132,117.000000,0.000000,4339.615234,4310.512695,4317.436035,4325.769043,4337.179688,4328.077148,4320.897461,4344.871582,4335.512695,4318.205078,4438.205078,4456.538574,4346.922852,4398.717773,1685.000000,0.000000,12.000000,,,,0.000000,2.000000,2.000000,0.000000,2.000000,2.000000,2.000000,1.000000,2.000000,4.000000,4.000000,4.000000,4.000000,2.000000,4.000000,25.000000,,,,,,,,,,,,,,,,,,,,,,,,,,,,
1732081832.256547,1732081832.257740,118.000000,0.000000,4344.487305,4315.769043,4315.769043,4326.922852,4345.384766,4317.948730,4316.922852,4342.051270,4337.051270,4322.948730,4442.436035,4465.000000,4356.153809,4408.077148,1359.000000,0.000000,12.000000,,,,0.000000,2.000000,2.000000,0.000000,2.000000,2.000000,2.000000,1.000000,2.000000,4.000000,4.000000,4.000000,4.000000,2.000000,4.000000,25.000000,,,,,,,,,,,,,,,,,,,,,,,,,,,,
1732081832.264356,1732081832.265548,119.000000,0.000000,4349.230957,4318.077148,4315.769043,4327.436035,4335.641113,4313.205078,4311.666504,4341.666504,4337.948730,4325.897461,4448.974121,4471.666504,4358.717773,4413.077148,1489.000000,0.000000,12.000000,,,,0.000000,2.000000,2.000000,0.000000,2.000000,2.000000,2.000000,1.000000,2.000000,4.000000,4.000000,4.000000,4.000000,2.000000,4.000000,25.000000,,,,,,,,,,,,,,,,,,,,,,,,,,,,
1732081832.272164,1732081832.273257,120.000000,0.000000,4348.974121,4320.256348,4318.205078,4332.692383,4326.538574,4323.974121,4313.717773,4342.563965,4332.179688,4318.717773,4444.743652,4463.589844,4354.358887,4404.871582,1718.000000,0.000000,12.000000,,,,0.000000,2.000000,2.000000,0.000000,2.000000,2.000000,2.000000,1.000000,2.000000,4.000000,4.000000,4.000000,4.000000,2.000000,4.000000,25.000000,,,,,,,,,,,,,,,,,30.000000,0.000000,0.624547,0.384827,-0.605957,0.307678,0.974728,0.111342,-0.041997,-76.397736,63.102364,28.830400
1732081832.279972,1732081832.281065,121.000000,0.000000,4347.948730,4320.512695,4321.025879,4331.282227,4328.846191,4320.769043,4318.461426,4342.307617,4330.897461,4316.794922,4443.077148,4460.641113,4358.846191,4400.769043,1685.000000,0.000000,12.000000,,,,0.000000,2.000000,2.000000,0.000000,2.000000,2.000000,2.000000,1.000000,2.000000,4.000000,4.000000,4.000000,4.000000,2.000000,4.000000,25.000000,,,,,,,,,,,,,,,,,,,,,,,,,,,,
1732081832.287780,1732081832.289073,122.000000,0.000000,4347.307617,4318.589844,4319.743652,4325.128418,4324.230957,4309.102539,4315.000000,4343.846191,4337.179688,4325.384766,4447.307617,4471.794922,4362.948730,4405.256348,1359.000000,0.000000,12.000000,,,,0.000000,2.000000,2.000000,0.000000,2.000000,2.000000,2.000000,1.000000,2.000000,4.000000,4.000000,4.000000,4.000000,2.000000,4.000000,25.000000,,,,,,,,,,,,,,,,,,,,,,,,,,,,
1732081832.295589,1732081832.296881,123.000000,0.000000,4351.282227,4322.820313,4318.205078,4327.307617,4316.922852,4307.820313,4308.974121,4339.743652,4335.641113,4330.000000,4449.487305,4478.333496,4362.307617,4411.282227,1489.000000,0.000000,12.000000,,,,0.000000,2.000000,2.000000,0.000000,2.000000,2.000000,2.000000,1.000000,2.000000,4.000000,4.000000,4.000000,4.000000,2.000000,4.000000,25.000000,,,,,,,,,,,,,,,,,,,,,,,,,,,,
1732081832.303397,1732081832.304789,124.000000,0.000000,4355.641113,4330.769043,4321.282227,4332.307617,4323.333496,4310.897461,4312.051270,4334.358887,4329.102539,4323.589844,4446.666504,4473.717773,4367.179688,4408.461426,1718.000000,0.000000,12.000000,,,,0.000000,2.000000,2.000000,0.000000,2.000000,2.000000,2.000000,1.000000,2.000000,4.000000,4.000000,4.000000,4.000000,2.000000,4.000000,25.000000,,,,,,,,,,,,,,,,,31.000000,0.000000,0.623484,0.385254,-0.606934,0.307373,0.975705,0.113783,-0.042486,-76.365494,63.062916,29.015957
1732081832.311205,1732081832.312597,125.000000,0.000000,4351.153809,4327.307617,4322.563965,4329.487305,4326.025879,4314.487305,4318.333496,4342.820313,4335.256348,4320.000000,4446.025879,4473.461426,4367.820313,4401.410156,1685.000000,0.000000,12.000000,,,,0.000000,2.000000,2.000000,0.000000,2.000000,2.000000,2.000000,1.000000,2.000000,4.000000,4.000000,4.000000,4.000000,2.000000,4.000000,25.000000,,,,,,,,,,,,,,,,,,,,,,,,,,,,
1732081832.319013,1732081832.320605,126.000000,0.000000,4342.948730,4319.871582,4318.974121,4327.948730,4316.153809,4318.974121,4319.487305,4347.948730,4339.230957,4321.153809,4445.641113,4472.948730,4358.974121,4398.333496,1359.000000,0.000000,12.000000,,,,0.000000,2.000000,2.000000,0.000000,2.000000,2.000000,2.000000,1.000000,2.000000,4.000000,4.000000,4.000000,4.000000,2.000000,4.000000,25.000000,,,,,,,,,,,,,,,,,,,,,,,,,,,,
1732081832.326822,1732081832.328414,127.000000,0.000000,4341.282227,4322.563965,4319.102539,4331.025879,4322.436035,4317.820313,4315.769043,4338.077148,4331.538574,4318.333496,4441.666504,4460.000000,4356.538574,4397.179688,12.000000,0.000000,12.000000,,,,0.000000,2.000000,2.000000,0.000000,2.000000,2.000000,2.000000,1.000000,2.000000,4.000000,4.000000,4.000000,4.000000,2.000000,4.000000,25.000000,,,,,,,,,,,,,,,,,,,,,,,,,,,,
1732081832.334630,1732081832.336122,0.000000,0.000000,4343.589844,4326.282227,4322.179688,4331.025879,4338.589844,4318.846191,4318.077148,4338.077148,4326.410156,4313.589844,4440.897461,4459.743652,4362.051270,4397.307617,0.000000,0.000000,12.000000,,,,0.000000,2.000000,2.000000,0.000000,2.000000,2.000000,2.000000,1.000000,2.000000,4.000000,4.000000,4.000000,4.000000,2.000000,4.000000,25.000000,,,,,,,,,,,,,,,,,0.000000,0.000000,0.622775,0.386108,-0.606934,0.307739,0.971798,0.077646,-0.023440,-76.272720,62.897629,29.132925
1732081832.342438,1732081832.343930,1.000000,0.000000,4343.333496,4323.205078,4321.282227,4330.128418,4332.051270,4324.871582,4320.897461,4350.641113,4331.025879,4315.000000,4445.000000,4474.871582,4363.589844,4399.230957,1285.000000,0.000000,12.000000,,,,0.000000,2.000000,2.000000,0.000000,2.000000,2.000000,2.000000,1.000000,2.000000,4.000000,4.000000,4.000000,4.000000,2.000000,4.000000,25.000000,,,,,,,,,,,,,,,,,,,,,,,,,,,,
1732081832.350246,1732081832.351538,2.000000,0.000000,4343.589844,4319.871582,4321.282227,4328.461426,4316.282227,4320.897461,4318.589844,4346.410156,4331.666504,4314.358887,4445.256348,4470.769043,4361.794922,4399.102539,1205.000000,0.000000,12.000000,,,,0.000000,2.000000,2.000000,0.000000,2.000000,2.000000,2.000000,1.000000,2.000000,4.000000,4.000000,4.000000,4.000000,2.000000,4.000000,25.000000,,,,,,,,,,,,,,,,,,,,,,,,,,,,
1732081832.358055,1732081832.359347,3.000000,0.000000,4347.563965,4322.692383,4324.358887,4324.230957,4322.820313,4312.820313,4315.769043,4331.282227,4325.256348,4312.563965,4443.333496,4456.538574,4366.666504,4401.410156,1165.000000,0.000000,12.000000,,,,0.000000,2.000000,2.000000,0.000000,2.000000,2.000000,2.000000,1.000000,2.000000,4.000000,4.000000,4.000000,4.000000,2.000000,4.000000,25.000000,,,,,,,,,,,,,,,,,,,,,,,,,,,,
1732081832.365863,1732081832.367055,4.000000,0.000000,4343.461426,4318.717773,4321.282227,4318.205078,4326.922852,4318.974121,4319.358887,4336.282227,4332.692383,4316.794922,4444.615234,4455.512695,4367.307617,4402.179688,1185.000000,0.000000,12.000000,,,,0.000000,2.000000,2.000000,0.000000,2.000000,2.000000,2.000000,1.000000,2.000000,4.000000,4.000000,4.000000,4.000000,2.000000,4.000000,25.000000,,,,,,,,,,,,,,,,,1.000000,0.000000,0.622486,0.386475,-0.606873,0.307983,0.977170,0.092785,-0.032719,-76.030907,62.663746,29.044336
1732081832.373671,1732081832.374863,5.000000,0.000000,4335.256348,4312.051270,4315.897461,4317.948730,4324.102539,4322.179688,4316.922852,4345.000000,4341.153809,4315.384766,4441.538574,4456.666504,4357.307617,4396.794922,1067.000000,0.000000,12.000000,,,,0.000000,2.000000,2.000000,0.000000,2.000000,2.000000,2.000000,1.000000,2.000000,4.000000,4.000000,4.000000,4.000000,2.000000,4.000000,25.000000,,,,,,,,,,,,,,,,,,,,,,,,,,,,
1732081832.381479,1732081832.382871,6.000000,0.000000,4337.948730,4319.615234,4320.384766,4324.358887,4335.641113,4316.153809,4313.717773,4336.153809,4330.128418,4311.922852,4439.102539,4462.051270,4361.282227,4398.589844,228.000000,0.000000,12.000000,,,,0.000000,2.000000,2.000000,0.000000,2.000000,2.000000,2.000000,1.000000,2.000000,4.000000,4.000000,4.000000,4.000000,2.000000,4.000000,25.000000,,,,,,,,,,,,,,,,,,,,,,,,,,,,
1732081832.389288,1732081832.390679,7.000000,0.000000,4340.000000,4323.974121,4324.871582,4325.128418,4334.230957,4318.333496,4322.179688,4334.871582,4329.102539,4320.000000,4445.000000,4472.307617,4372.563965,4404.230957,1204.000000,0.000000,12.000000,,,,0.000000,2.000000,2.000000,0.000000,2.000000,2.000000,2.000000,1.000000,2.000000,4.000000,4.000000,4.000000,4.000000,2.000000,4.000000,25.000000,,,,,,,,,,,,,,,,,,,,,,,,,,,,
1732081832.397096,1732081832.398588,8.000000,0.000000,4331.794922,4315.641113,4325.128418,4321.282227,4318.974121,4323.077148,4324.230957,4344.358887,4340.000000,4321.666504,4441.538574,4466.794922,4361.025879,4397.179688,1357.000000,0.000000,12.000000,,,,0.000000,2.000000,2.000000,0.000000,2.000000,2.000000,2.000000,1.000000,2.000000,4.000000,4.000000,4.000000,4.000000,2.000000,4.000000,25.000000,,,,,,,,,,,,,,,,,2.000000,0.000000,0.621729,0.387634,-0.606506,0.308777,0.969357,0.078623,-0.046881,-76.120033,62.759300,29.004246
1732081832.404904,1732081832.406396,9.000000,0.000000,4329.743652,4313.333496,4323.333496,4323.846191,4322.563965,4322.820313,4317.820313,4339.743652,4333.589844,4310.256348,4427.692383,4454.487305,4346.153809,4388.461426,1484.000000,0.000000,12.000000,,,,0.000000,2.000000,2.000000,0.000000,2.000000,2.000000,2.000000,1.000000,2.000000,4.000000,4.000000,4.000000,4.000000,2.000000,4.000000,25.000000,,,,,,,,,,,,,,,,,,,,,,,,,,,,
1732081832.412712,1732081832.414404,10.000000,0.000000,4334.871582,4319.743652,4322.563965,4328.974121,4328.589844,4321.153809,4316.794922,4331.538574,4322.948730,4308.461426,4428.461426,4457.948730,4356.922852,4393.333496,1357.000000,0.000000,12.000000,,,,0.000000,2.000000,2.000000,0.000000,2.000000,2.000000,2.000000,1.000000,2.000000,4.000000,4.000000,4.000000,4.000000,2.000000,4.000000,25.000000,,,,,,,,,,,,,,,,,,,,,,,,,,,,
1732081832.420521,1732081832.422212,11.000000,0.000000,4333.589844,4318.077148,4321.153809,4326.922852,4322.948730,4317.948730,4320.000000,4338.205078,4326.922852,4313.974121,4442.179688,4463.333496,4367.692383,4400.000000,1492.000000,0.000000,12.000000,,,,0.000000,2.000000,2.000000,0.000000,2.000000,2.000000,2.000000,1.000000,2.000000,4.000000,4.000000,4.000000,4.000000,2.000000,4.000000,25.000000,,,,,,,,,,,,,,,,,,,,,,,,,,,,
1732081832.428329,1732081832.430120,12.000000,0.000000,4329.871582,4312.307617,4322.179688,4323.846191,4324.871582,4318.717773,4321.282227,4344.743652,4332.307617,4316.282227,4442.948730,4461.410156,4359.743652,4396.153809,1728.000000,0.000000,12.000000,,,,0.000000,2.000000,2.000000,0.000000,2.000000,2.000000,2.000000,1.000000,2.000000,4.000000,4.000000,4.000000,4.000000,2.000000,4.000000,25.000000,,,,,,,,,,,,,,,,,3.000000,0.000000,0.622011,0.389038,-0.605286,0.308838,0.969845,0.099133,-0.053229,-76.142227,62.811699,28.971773
1732081832.436137,1732081832.437928,13.000000,0.000000,4330.512695,4312.563965,4322.563965,4325.384766,4323.974121,4320.897461,4321.153809,4335.384766,4331.794922,4314.102539,4431.538574,4462.179688,4350.769043,4390.128418,1700.000000,0.000000,12.000000,,,,0.000000,2.000000,2.000000,0.000000,2.000000,2.000000,2.000000,1.000000,2.000000,4.000000,4.000000,4.000000,4.000000,2.000000,4.000000,25.000000,,,,,,,,,,,,,,,,,,,,,,,,,,,,
1732081832.443946,1732081832.445936,14.000000,0.000000,4330.000000,4313.589844,4320.256348,4326.538574,4317.563965,4319.615234,4316.794922,4330.000000,4331.153809,4309.358887,4426.794922,4459.230957,4349.487305,4387.820313,1357.000000,0.000000,12.000000,,,,0.000000,2.000000,2.000000,0.000000,2.000000,2.000000,2.000000,1.000000,2.000000,4.000000,4.000000,4.000000,4.000000,2.000000,4.000000,25.000000,1.000000,16.666666,2.000000,2.000000,0.000000,2.000000,2.000000,2.000000,0.000000,2.000000,3.000000,4.000000,4.000000,4.000000,2.000000,4.000000,,,,,,,,,,,,
1732081832.451754,1732081832.453744,15.000000,0.000000,4325.128418,4310.256348,4320.769043,4324.358887,4330.384766,4317.692383,4317.307617,4344.743652,4332.436035,4308.974121,4431.538574,4453.077148,4353.205078,4388.333496,1492.000000,0.000000,12.000000,,,,0.000000,2.000000,2.000000,0.000000,2.000000,2.000000,2.000000,1.000000,2.000000,4.000000,4.000000,4.000000,4.000000,2.000000,4.000000,25.000000,,,,,,,,,,,,,,,,,,,,,,,,,,,,
1732081832.459562,1732081832.461653,16.000000,0.000000,4323.077148,4307.820313,4322.563965,4323.205078,4336.410156,4318.589844,4322.051270,4351.282227,4333.974121,4312.307617,4434.615234,4453.461426,4357.307617,4391.794922,0.000000,0.000000,12.000000,,,,0.000000,2.000000,2.000000,0.000000,2.000000,2.000000,2.000000,1.000000,2.000000,4.000000,4.000000,4.000000,4.000000,2.000000,4.000000,25.000000,,,,,,,,,,,,,,,,,4.000000,0.000000,0.622621,0.390015,-0.604309,0.308289,0.973263,0.098645,-0.041021,-76.231873,62.857475,28.978802
1732081832.467370,1732081832.469461,17.000000,0.000000,4324.615234,4312.051270,4324.102539,4327.051270,4318.589844,4321.794922,4323.333496,4342.307617,4332.179688,4308.717773,4427.820313,4452.563965,4354.102539,4390.384766,0.000000,0.000000,12.000000,,,,0.000000,2.000000,2.000000,0.000000,2.000000,2.000000,2.000000,1.000000,2.000000,4.000000,4.000000,4.000000,4.000000,2.000000,4.000000,25.000000,,,,,,,,,,,,,,,,,,,,,,,,,,,,
1732081832.475179,1732081832.477469,18.000000,0.000000,4324.230957,4312.692383,4321.025879,4327.948730,4317.179688,4328.974121,4321.153809,4341.666504,4330.769043,4308.205078,4424.615234,4454.230957,4351.922852,4387.948730,0.000000,0.000000,12.000000,,,,0.000000,2.000000,2.000000,0.000000,2.000000,2.000000,2.000000,1.000000,2.000000,4.000000,4.000000,4.000000,4.000000,2.000000,4.000000,25.000000,,,,,,,,,,,,,,,,,,,,,,,,,,,,
1732081832.482987,1732081832.485277,19.000000,0.000000,4316.794922,4305.641113,4318.461426,4319.230957,4337.307617,4328.333496,4321.282227,4341.538574,4330.256348,4314.358887,4428.333496,4456.025879,4356.410156,4389.358887,0.000000,0.000000,12.000000,,,,0.000000,2.000000,2.000000,0.000000,2.000000,2.000000,2.000000,1.000000,2.000000,4.000000,4.000000,4.000000,4.000000,2.000000,4.000000,25.000000,,,,,,,,,,,,,,,,,,,,,,,,,,,,
1732081832.490795,1732081832.493085,20.000000,0.000000,4311.666504,4303.717773,4319.743652,4313.205078,4337.051270,4323.589844,4319.871582,4336.666504,4329.230957,4313.077148,4428.974121,4449.358887,4355.384766,4387.436035,0.000000,0.000000,12.000000,,,,0.000000,2.000000,2.000000,0.000000,2.000000,2.000000,2.000000,1.000000,2.000000,4.000000,4.000000,4.000000,4.000000,2.000000,4.000000,25.000000,,,,,,,,,,,,,,,,,5.000000,0.000000,0.622964,0.390747,-0.603638,0.307983,0.961543,0.120620,-0.037114,-76.409477,63.137890,28.931164
1732081832.498603,1732081832.500893,21.000000,0.000000,4314.358887,4308.077148,4322.692383,4317.563965,4321.410156,4326.794922,4321.282227,4340.000000,4329.743652,4308.846191,4427.436035,4447.948730,4349.743652,4382.820313,0.000000,0.000000,12.000000,,,,0.000000,2.000000,2.000000,0.000000,2.000000,2.000000,2.000000,1.000000,2.000000,4.000000,4.000000,4.000000,4.000000,2.000000,4.000000,25.000000,,,,,,,,,,,,,,,,,,,,,,,,,,,,
1732081832.506411,1732081832.508502,22.000000,0.000000,4313.077148,4307.563965,4319.743652,4320.512695,4320.000000,4328.974121,4321.922852,4345.769043,4332.436035,4312.307617,4428.333496,4452.436035,4351.538574,4384.487305,0.000000,0.000000,12.000000,,,,0.000000,2.000000,2.000000,0.000000,2.000000,2.000000,2.000000,1.000000,2.000000,4.000000,4.000000,4.000000,4.000000,2.000000,4.000000,25.000000,,,,,,,,,,,,,,,,,,,,,,,,,,,,
1732081832.514220,1732081832.516310,23.000000,0.000000,4307.563965,4300.897461,4320.000000,4316.922852,4324.230957,4326.410156,4321.538574,4343.974121,4335.641113,4316.282227,4430.256348,4450.384766,4355.897461,4386.153809,0.000000,0.000000,12.000000,,,,0.000000,2.000000,2.000000,0.000000,2.000000,2.000000,2.000000,1.000000,2.000000,4.000000,4.000000,4.000000,4.000000,2.000000,4.000000,25.000000,,,,,,,,,,,,,,,,,,,,,,,,,,,,
1732081832.522028,1732081832.524018,24.000000,0.000000,4306.282227,4299.102539,4321.794922,4318.717773,4323.589844,4326.538574,4323.333496,4341.922852,4335.769043,4313.205078,4429.230957,4445.769043,4352.307617,4381.666504,0.000000,0.000000,12.000000,,,,0.000000,2.000000,2.000000,0.000000,2.000000,2.000000,2.000000,1.000000,2.000000,4.000000,4.000000,4.000000,4.000000,2.000000,4.000000,25.000000,,,,,,,,,,,,,,,,,6.000000,0.000000,0.625093,0.394043,-0.600403,0.305786,0.979612,0.124039,-0.041021,-76.551682,63.488358,29.079243
1732081832.529836,1732081832.531827,25.000000,0.000000,4306.153809,4299.358887,4321.410156,4318.589844,4321.794922,4326.410156,4324.487305,4345.769043,4334.743652,4310.512695,4425.384766,4449.743652,4345.769043,4376.025879,0.000000,0.000000,12.000000,,,,0.000000,2.000000,2.000000,0.000000,2.000000,2.000000,2.000000,1.000000,2.000000,4.000000,4.000000,4.000000,4.000000,2.000000,4.000000,25.000000,,,,,,,,,,,,,,,,,,,,,,,,,,,,
1732081832.537645,1732081832.539435,26.000000,0.000000,4307.948730,4298.974121,4320.769043,4313.077148,4320.384766,4324.615234,4325.897461,4348.846191,4335.384766,4311.025879,4423.589844,4451.922852,4346.153809,4376.282227,0.000000,0.000000,12.000000,,,,0.000000,2.000000,2.000000,0.000000,2.000000,2.000000,2.000000,1.000000,2.000000,4.000000,4.000000,4.000000,4.000000,2.000000,4.000000,25.000000,,,,,,,,,,,,,,,,,,,,,,,,,,,,
1732081832.545453,1732081832.547243,27.000000,0.000000,4309.102539,4298.077148,4323.205078,4313.974121,4320.897461,4326.153809,4323.077148,4343.846191,4332.436035,4309.615234,4420.897461,4450.512695,4350.000000,4376.794922,0.000000,0.000000,12.000000,,,,0.000000,2.000000,2.000000,0.000000,2.000000,2.000000,2.000000,1.000000,2.000000,4.000000,4.000000,4.000000,4.000000,2.000000,4.000000,25.000000,,,,,,,,,,,,,,,,,,,,,,,,,,,,
1732081832.553261,1732081832.554951,28.000000,0.000000,4305.384766,4296.666504,4321.922852,4316.410156,4331.410156,4327.307617,4318.333496,4337.563965,4325.897461,4305.769043,4417.179688,4453.589844,4346.538574,4371.922852,0.000000,0.000000,12.000000,,,,0.000000,2.000000,2.000000,0.000000,2.000000,2.000000,2.000000,1.000000,2.000000,4.000000,4.000000,4.000000,4.000000,2.000000,4.000000,25.000000,,,,,,,,,,,,,,,,,7.000000,0.000000,0.626164,0.394958,-0.599243,0.304688,0.994750,0.122085,-0.041509,-76.460197,63.687237,29.037519
1732081832.561069,1732081832.562760,29.000000,0.000000,4304.358887,4297.436035,4318.846191,4313.461426,4332.948730,4323.205078,4320.769043,4340.769043,4326.153809,4306.666504,4417.307617,4457.563965,4340.641113,4371.666504,0.000000,0.000000,12.000000,,,,0.000000,2.000000,2.000000,0.000000,2.000000,2.000000,2.000000,1.000000,2.000000,4.000000,4.000000,4.000000,4.000000,2.000000,4.000000,25.000000,,,,,,,,,,,,,,,,,,,,,,,,,,,,
1732081832.568878,1732081832.570368,30.000000,0.000000,4306.025879,4299.615234,4319.230957,4312.820313,4320.000000,4326.025879,4328.461426,4344.487305,4330.897461,4314.102539,4422.179688,4454.615234,4342.051270,4376.282227,0.000000,0.000000,12.000000,,,,0.000000,2.000000,2.000000,0.000000,2.000000,2.000000,2.000000,1.000000,2.000000,4.000000,4.000000,4.000000,4.000000,2.000000,4.000000,25.000000,,,,,,,,,,,,,,,,,,,,,,,,,,,,
1732081832.576686,1732081832.578176,31.000000,0.000000,4303.846191,4300.384766,4319.871582,4314.615234,4316.922852,4333.205078,4327.948730,4342.307617,4329.615234,4314.487305,4423.333496,4447.563965,4347.692383,4374.743652,0.000000,0.000000,12.000000,,,,0.000000,2.000000,2.000000,0.000000,2.000000,2.000000,2.000000,1.000000,2.000000,4.000000,4.000000,4.000000,4.000000,2.000000,4.000000,25.000000,,,,,,,,,,,,,,,,,,,,,,,,,,,,
1732081832.584494,1732081832.585885,32.000000,0.000000,4304.102539,4298.589844,4320.897461,4313.205078,4324.487305,4329.615234,4323.077148,4342.948730,4328.974121,4312.563965,4422.820313,4451.922852,4348.461426,4373.205078,0.000000,0.000000,12.000000,,,,0.000000,2.000000,2.000000,0.000000,2.000000,2.000000,2.000000,1.000000,2.000000,4.000000,4.000000,4.000000,4.000000,2.000000,4.000000,25.000000,,,,,,,,,,,,,,,,,8.000000,0.000000,0.626164,0.394958,-0.599243,0.304688,0.986937,0.131852,-0.035161,-76.266090,63.728329,29.303724
1732081832.592302,1732081832.593693,33.000000,0.000000,4305.769043,4297.436035,4320.384766,4312.436035,4326.538574,4321.794922,4320.384766,4342.307617,4331.794922,4316.538574,4423.846191,4456.794922,4343.077148,4378.077148,0.000000,0.000000,12.000000,,,,0.000000,2.000000,2.000000,0.000000,2.000000,2.000000,2.000000,1.000000,2.000000,4.000000,4.000000,4.000000,4.000000,2.000000,4.000000,25.000000,,,,,,,,,,,,,,,,,,,,,,,,,,,,
1732081832.600111,1732081832.601301,34.000000,0.000000,4301.538574,4300.128418,4322.051270,4312.563965,4319.230957,4327.436035,4325.128418,4342.820313,4332.692383,4321.025879,4425.000000,4451.538574,4339.230957,4375.897461,0.000000,0.000000,12.000000,,,,0.000000,2.000000,2.000000,0.000000,2.000000,2.000000,2.000000,1.000000,2.000000,4.000000,4.000000,4.000000,4.000000,2.000000,4.000000,25.000000,,,,,,,,,,,,,,,,,,,,,,,,,,,,
1732081832.607919,1732081832.609109,35.000000,0.000000,4300.897461,4302.563965,4321.025879,4312.051270,4324.230957,4333.846191,4328.717773,4348.077148,4334.102539,4319.487305,4425.512695,4451.025879,4341.922852,4373.461426,0.000000,0.000000,12.000000,,,,0.000000,2.000000,2.000000,0.000000,2.000000,2.000000,2.000000,1.000000,2.000000,4.000000,4.000000,4.000000,4.000000,2.000000,4.000000,25.000000,,,,,,,,,,,,,,,,,,,,,,,,,,,,
1732081832.615727,1732081832.616818,36.000000,0.000000,4301.794922,4300.769043,4320.897461,4310.641113,4334.102539,4329.358887,4324.358887,4347.692383,4333.589844,4314.487305,4424.487305,4454.230957,4342.820313,4381.282227,0.000000,0.000000,12.000000,,,,0.000000,2.000000,2.000000,0.000000,2.000000,2.000000,2.000000,1.000000,2.000000,4.000000,4.000000,4.000000,4.000000,2.000000,4.000000,25.000000,,,,,,,,,,,,,,,,,9.000000,0.000000,0.627699,0.396057,-0.597900,0.302734,0.986449,0.145526,-0.025882,-76.113869,63.981613,29.386017
1732081832.623535,1732081832.624626,37.000000,0.000000,4300.000000,4300.256348,4322.307617,4310.769043,4321.538574,4324.615234,4320.512695,4341.025879,4330.256348,4315.384766,4425.256348,4448.846191,4342.051270,4383.077148,0.000000,0.000000,12.000000,,,,0.000000,2.000000,2.000000,0.000000,2.000000,2.000000,2.000000,1.000000,2.000000,4.000000,4.000000,4.000000,4.000000,2.000000,4.000000,25.000000,,,,,,,,,,,,,,,,,,,,,,,,,,,,
1732081832.631344,1732081832.632234,38.000000,0.000000,4301.922852,4305.128418,4324.743652,4313.461426,4306.666504,4325.897461,4327.179688,4340.769043,4330.384766,4320.512695,4429.487305,4447.307617,4348.846191,4381.153809,0.000000,0.000000,12.000000,,,,0.000000,2.000000,2.000000,0.000000,2.000000,2.000000,2.000000,1.000000,2.000000,4.000000,4.000000,4.000000,4.000000,2.000000,4.000000,25.000000,,,,,,,,,,,,,,,,,,,,,,,,,,,,
1732081832.639152,1732081832.640043,39.000000,0.000000,4301.153809,4305.384766,4322.563965,4315.384766,4317.563965,4330.000000,4330.384766,4349.358887,4337.692383,4325.384766,4431.025879,4453.717773,4354.230957,4382.051270,0.000000,0.000000,12.000000,,,,0.000000,2.000000,2.000000,0.000000,2.000000,2.000000,2.000000,1.000000,2.000000,4.000000,4.000000,4.000000,4.000000,2.000000,4.000000,25.000000,,,,,,,,,,,,,,,,,,,,,,,,,,,,
1732081832.646960,1732081832.647751,40.000000,0.000000,4297.692383,4302.820313,4322.307617,4314.871582,4326.282227,4332.563965,4327.948730,4350.512695,4338.589844,4322.820313,4428.077148,4452.051270,4346.922852,4378.589844,0.000000,0.000000,12.000000,,,,0.000000,2.000000,2.000000,0.000000,2.000000,2.000000,2.000000,1.000000,2.000000,4.000000,4.000000,4.000000,4.000000,2.000000,4.000000,25.000000,,,,,,,,,,,,,,,,,10.000000,0.000000,0.628151,0.397095,-0.597046,0.302124,0.963008,0.159199,-0.038091,-76.038895,64.045105,29.224340
1732081832.654768,1732081832.655559,41.000000,0.000000,4296.282227,4304.358887,4322.820313,4315.641113,4315.128418,4332.563965,4327.820313,4343.974121,4331.538574,4316.410156,4423.589844,4451.538574,4341.410156,4374.230957,0.000000,0.000000,12.000000,,,,0.000000,2.000000,2.000000,0.000000,2.000000,2.000000,2.000000,1.000000,2.000000,4.000000,4.000000,4.000000,4.000000,2.000000,4.000000,25.000000,,,,,,,,,,,,,,,,,,,,,,,,,,,,
1732081832.662577,1732081832.663567,42.000000,0.000000,4298.461426,4303.974121,4322.179688,4317.051270,4312.948730,4329.615234,4324.615234,4342.051270,4330.384766,4314.230957,4425.384766,4460.128418,4345.897461,4380.000000,0.000000,0.000000,12.000000,,,,0.000000,2.000000,2.000000,0.000000,2.000000,2.000000,2.000000,1.000000,2.000000,4.000000,4.000000,4.000000,4.000000,2.000000,4.000000,25.000000,,,,,,,,,,,,,,,,,,,,,,,,,,,,
1732081832.670385,1732081832.671375,43.000000,0.000000,4306.538574,4302.948730,4321.922852,4315.512695,4319.102539,4327.179688,4322.307617,4343.974121,4332.179688,4316.282227,4428.846191,4465.641113,4348.461426,4385.384766,0.000000,0.000000,12.000000,,,,0.000000,2.000000,2.000000,0.000000,2.000000,2.000000,2.000000,1.000000,2.000000,4.000000,4.000000,4.000000,4.000000,2.000000,4.000000,25.000000,,,,,,,,,,,,,,,,,,,,,,,,,,,,
1732081832.678193,1732081832.679084,44.000000,0.000000,4312.307617,4308.205078,4323.333496,4315.897461,4314.358887,4327.692383,4325.512695,4343.077148,4331.153809,4321.282227,4429.230957,4460.512695,4348.077148,4383.717773,0.000000,0.000000,12.000000,,,,0.000000,2.000000,2.000000,0.000000,2.000000,2.000000,2.000000,1.000000,2.000000,4.000000,4.000000,4.000000,4.000000,2.000000,4.000000,25.000000,,,,,,,,,,,,,,,,,11.000000,0.000000,0.628482,0.398132,-0.596252,0.301636,0.963497,0.173849,-0.029300,-75.856506,64.269867,29.195049
1732081832.686001,1732081832.686892,45.000000,0.000000,4308.717773,4313.589844,4322.820313,4322.948730,4311.153809,4328.589844,4328.589844,4342.820313,4331.794922,4322.820313,4430.641113,4458.333496,4352.563965,4384.871582,0.000000,0.000000,12.000000,,,,0.000000,2.000000,2.000000,0.000000,2.000000,2.000000,2.000000,1.000000,2.000000,4.000000,4.000000,4.000000,4.000000,2.000000,4.000000,25.000000,,,,,,,,,,,,,,,,,,,,,,,,,,,,
1732081832.693810,1732081832.694500,46.000000,0.000000,4304.358887,4314.487305,4320.897461,4327.692383,4324.102539,4326.538574,4324.487305,4344.102539,4332.692383,4320.512695,4432.436035,4462.051270,4353.077148,4387.179688,0.000000,0.000000,12.000000,,,,0.000000,2.000000,2.000000,0.000000,2.000000,2.000000,2.000000,1.000000,2.000000,4.000000,4.000000,4.000000,4.000000,2.000000,4.000000,25.000000,,,,,,,,,,,,,,,,,,,,,,,,,,,,
1732081832.701618,1732081832.702308,47.000000,0.000000,4304.743652,4313.974121,4321.794922,4325.000000,4331.666504,4325.128418,4323.717773,4342.563965,4333.589844,4319.102539,4430.769043,4464.615234,4350.897461,4385.897461,0.000000,0.000000,12.000000,,,,0.000000,2.000000,2.000000,0.000000,2.000000,2.000000,2.000000,1.000000,2.000000,4.000000,4.000000,4.000000,4.000000,2.000000,4.000000,25.000000,,,,,,,,,,,,,,,,,,,,,,,,,,,,
1732081832.709426,1732081832.710217,48.000000,0.000000,4303.974121,4315.000000,4321.794922,4323.205078,4317.051270,4327.820313,4324.487305,4342.820313,4336.794922,4321.153809,4430.897461,4461.794922,4354.102539,4388.077148,0.000000,0.000000,12.000000,,,,0.000000,2.000000,2.000000,0.000000,2.000000,2.000000,2.000000,1.000000,2.000000,4.000000,4.000000,4.000000,4.000000,2.000000,4.000000,25.000000,,,,,,,,,,,,,,,,,12.000000,0.000000,0.628540,0.398315,-0.596130,0.301514,0.963497,0.173849,-0.029300,-76.105438,64.503593,29.411324
1732081832.717234,1732081832.718025,49.000000,0.000000,4305.256348,4315.897461,4321.922852,4326.153809,4305.641113,4330.384766,4325.897461,4343.589844,4335.256348,4323.974121,4432.436035,4458.717773,4354.358887,4390.769043,0.000000,0.000000,12.000000,,,,0.000000,2.000000,2.000000,0.000000,2.000000,2.000000,2.000000,1.000000,2.000000,4.000000,4.000000,4.000000,4.000000,2.000000,4.000000,25.000000,,,,,,,,,,,,,,,,,,,,,,,,,,,,
1732081832.725043,1732081832.726033,50.000000,0.000000,4309.615234,4315.769043,4319.743652,4326.282227,4320.641113,4329.871582,4327.692383,4341.025879,4330.000000,4323.974121,4430.384766,4461.282227,4354.102539,4390.256348,0.000000,0.000000,12.000000,,,,0.000000,2.000000,2.000000,0.000000,2.000000,2.000000,2.000000,1.000000,2.000000,4.000000,4.000000,4.000000,4.000000,2.000000,4.000000,25.000000,,,,,,,,,,,,,,,,,,,,,,,,,,,,
1732081832.732851,1732081832.733841,51.000000,0.000000,4307.436035,4314.102539,4318.846191,4320.512695,4333.077148,4328.205078,4328.205078,4341.282227,4333.077148,4321.153809,4428.461426,4462.692383,4356.410156,4387.436035,0.000000,0.000000,12.000000,,,,0.000000,2.000000,2.000000,0.000000,2.000000,2.000000,2.000000,1.000000,2.000000,4.000000,4.000000,4.000000,4.000000,2.000000,4.000000,25.000000,,,,,,,,,,,,,,,,,,,,,,,,,,,,
1732081832.740659,1732081832.741749,52.000000,0.000000,4302.820313,4315.384766,4320.384766,4321.025879,4321.922852,4331.282227,4324.743652,4344.871582,4339.743652,4320.384766,4428.717773,4464.358887,4352.692383,4383.846191,0.000000,0.000000,12.000000,,,,0.000000,2.000000,2.000000,0.000000,2.000000,2.000000,2.000000,1.000000,2.000000,4.000000,4.000000,4.000000,4.000000,2.000000,4.000000,25.000000,,,,,,,,,,,,,,,,,13.000000,0.000000,0.628661,0.398621,-0.595459,0.302185,0.960078,0.154316,-0.031254,-75.952072,64.691246,29.488171
1732081832.748468,1732081832.749557,53.000000,0.000000,4305.641113,4315.000000,4321.282227,4327.820313,4313.205078,4333.717773,4325.641113,4345.641113,4338.461426,4320.256348,4426.410156,4471.153809,4348.077148,4381.410156,0.000000,0.000000,12.000000,,,,0.000000,2.000000,2.000000,0.000000,2.000000,2.000000,2.000000,1.000000,2.000000,4.000000,4.000000,4.000000,4.000000,2.000000,4.000000,25.000000,,,,,,,,,,,,,,,,,,,,,,,,,,,,
1732081832.756276,1732081832.757565,54.000000,0.000000,4310.769043,4311.538574,4318.589844,4327.948730,4314.358887,4330.000000,4328.846191,4340.128418,4334.743652,4316.153809,4423.974121,4469.487305,4349.615234,4380.512695,0.000000,0.000000,12.000000,,,,0.000000,2.000000,2.000000,0.000000,2.000000,2.000000,2.000000,1.000000,2.000000,4.000000,4.000000,4.000000,4.000000,2.000000,4.000000,25.000000,,,,,,,,,,,,,,,,,,,,,,,,,,,,
1732081832.764084,1732081832.765374,55.000000,0.000000,4306.410156,4310.769043,4320.897461,4323.717773,4318.077148,4327.307617,4325.000000,4335.897461,4331.666504,4311.153809,4421.410156,4459.743652,4348.461426,4379.871582,0.000000,0.000000,12.000000,,,,0.000000,2.000000,2.000000,0.000000,2.000000,2.000000,2.000000,1.000000,2.000000,4.000000,4.000000,4.000000,4.000000,2.000000,4.000000,25.000000,,,,,,,,,,,,,,,,,,,,,,,,,,,,
1732081832.771892,1732081832.773282,56.000000,0.000000,4296.794922,4311.922852,4324.102539,4322.051270,4325.769043,4327.436035,4322.179688,4337.820313,4328.589844,4309.102539,4416.025879,4456.666504,4340.512695,4376.794922,0.000000,0.000000,12.000000,,,,0.000000,2.000000,2.000000,0.000000,2.000000,2.000000,2.000000,1.000000,2.000000,4.000000,4.000000,4.000000,4.000000,2.000000,4.000000,25.000000,,,,,,,,,,,,,,,,,14.000000,0.000000,0.629140,0.398315,-0.594971,0.302551,0.961543,0.144549,-0.033696,-75.686180,64.713242,29.600418
1732081832.779700,1732081832.781090,57.000000,0.000000,4295.641113,4310.256348,4321.538574,4319.487305,4324.358887,4326.025879,4325.641113,4339.487305,4330.641113,4307.563965,4410.769043,4454.358887,4333.333496,4372.179688,0.000000,0.000000,12.000000,,,,0.000000,2.000000,2.000000,0.000000,2.000000,2.000000,2.000000,1.000000,2.000000,4.000000,4.000000,4.000000,4.000000,2.000000,4.000000,25.000000,,,,,,,,,,,,,,,,,,,,,,,,,,,,
1732081832.787509,1732081832.789098,58.000000,0.000000,4297.948730,4309.358887,4319.871582,4320.897461,4311.794922,4327.692383,4330.256348,4340.256348,4332.563965,4307.692383,4411.538574,4445.384766,4331.410156,4368.461426,0.000000,0.000000,12.000000,,,,0.000000,2.000000,2.000000,0.000000,2.000000,2.000000,2.000000,1.000000,2.000000,4.000000,4.000000,4.000000,4.000000,2.000000,4.000000,25.000000,,,,,,,,,,,,,,,,,,,,,,,,,,,,
1732081832.795317,1732081832.796906,59.000000,0.000000,4300.256348,4312.436035,4324.487305,4327.307617,4311.153809,4332.948730,4330.128418,4340.641113,4329.743652,4309.615234,4413.846191,4446.794922,4333.333496,4373.333496,0.000000,0.000000,12.000000,,,,0.000000,2.000000,2.000000,0.000000,2.000000,2.000000,2.000000,1.000000,2.000000,4.000000,4.000000,4.000000,4.000000,2.000000,4.000000,25.000000,,,,,,,,,,,,,,,,,,,,,,,,,,,,
1732081832.803125,1732081832.804814,60.000000,0.000000,4306.922852,4314.743652,4324.230957,4326.794922,4323.077148,4331.410156,4327.563965,4336.410156,4327.179688,4305.384766,4413.461426,4454.743652,4337.051270,4382.692383,0.000000,0.000000,12.000000,,,,0.000000,2.000000,2.000000,0.000000,2.000000,2.000000,2.000000,1.000000,2.000000,4.000000,4.000000,4.000000,4.000000,2.000000,4.000000,25.000000,,,,,,,,,,,,,,,,,15.000000,0.000000,0.629428,0.398132,-0.594727,0.302673,0.970333,0.148456,-0.035161,-75.525803,64.861061,29.549673
1732081832.810933,1732081832.812622,61.000000,0.000000,4310.256348,4314.487305,4320.256348,4324.230957,4318.205078,4328.333496,4324.871582,4332.436035,4328.589844,4304.230957,4419.358887,4457.051270,4340.000000,4382.179688,0.000000,0.000000,12.000000,,,,0.000000,2.000000,2.000000,0.000000,2.000000,2.000000,2.000000,1.000000,2.000000,4.000000,4.000000,4.000000,4.000000,2.000000,4.000000,25.000000,,,,,,,,,,,,,,,,,,,,,,,,,,,,
1732081832.818742,1732081832.820630,62.000000,0.000000,4304.102539,4311.794922,4322.307617,4328.077148,4314.358887,4329.102539,4325.641113,4335.000000,4328.461426,4310.000000,4428.205078,4465.256348,4339.358887,4380.000000,0.000000,0.000000,12.000000,,,,0.000000,2.000000,2.000000,0.000000,2.000000,2.000000,2.000000,1.000000,2.000000,4.000000,4.000000,4.000000,4.000000,2.000000,4.000000,25.000000,,,,,,,,,,,,,,,,,,,,,,,,,,,,
1732081832.826550,1732081832.828439,63.000000,0.000000,4303.846191,4313.846191,4324.743652,4328.589844,4330.512695,4326.282227,4326.025879,4337.948730,4330.000000,4313.333496,4429.487305,4472.051270,4340.769043,4387.436035,0.000000,0.000000,12.000000,,,,0.000000,2.000000,2.000000,0.000000,2.000000,2.000000,2.000000,1.000000,2.000000,4.000000,4.000000,4.000000,4.000000,2.000000,4.000000,25.000000,,,,,,,,,,,,,,,,,,,,,,,,,,,,
1732081832.834358,1732081832.836347,64.000000,0.000000,4310.128418,4320.897461,4321.922852,4324.615234,4329.230957,4325.897461,4327.051270,4338.846191,4336.025879,4312.307617,4429.102539,4467.051270,4345.256348,4390.641113,0.000000,0.000000,12.000000,,,,0.000000,2.000000,2.000000,0.000000,2.000000,2.000000,2.000000,1.000000,2.000000,4.000000,4.000000,4.000000,4.000000,2.000000,4.000000,25.000000,,,,,,,,,,,,,,,,,16.000000,0.000000,0.630127,0.397888,-0.593994,0.302979,0.951776,0.146991,-0.021975,-75.362572,64.950790,29.033567
1732081832.842167,1732081832.844155,65.000000,0.000000,4309.358887,4320.000000,4318.717773,4322.692383,4310.384766,4329.615234,4325.641113,4340.512695,4334.487305,4311.025879,4428.333496,4459.743652,4344.358887,4382.692383,1285.000000,0.000000,12.000000,,,,0.000000,2.000000,2.000000,0.000000,2.000000,2.000000,2.000000,1.000000,2.000000,4.000000,4.000000,4.000000,4.000000,2.000000,4.000000,25.000000,,,,,,,,,,,,,,,,,,,,,,,,,,,,
1732081832.849975,1732081832.852163,66.000000,0.000000,4305.512695,4313.333496,4324.743652,4322.563965,4309.358887,4326.794922,4323.205078,4337.051270,4326.410156,4307.051270,4423.974121,4458.461426,4337.948730,4378.974121,1214.000000,0.000000,12.000000,,,,0.000000,2.000000,2.000000,0.000000,2.000000,2.000000,2.000000,1.000000,2.000000,4.000000,4.000000,4.000000,4.000000,2.000000,4.000000,25.000000,,,,,,,,,,,,,,,,,,,,,,,,,,,,
1732081832.857783,1732081832.859971,67.000000,0.000000,4308.589844,4313.589844,4326.538574,4323.717773,4318.205078,4322.179688,4324.358887,4333.333496,4327.820313,4307.692383,4422.436035,4460.769043,4338.333496,4383.333496,1160.000000,0.000000,12.000000,,,,0.000000,2.000000,2.000000,0.000000,2.000000,2.000000,2.000000,1.000000,2.000000,4.000000,4.000000,4.000000,4.000000,2.000000,4.000000,25.000000,,,,,,,,,,,,,,,,,,,,,,,,,,,,
1732081832.865591,1732081832.867879,68.000000,0.000000,4307.820313,4315.384766,4322.051270,4320.128418,4323.333496,4322.179688,4329.487305,4336.666504,4332.563965,4314.743652,4425.128418,4462.179688,4340.512695,4382.563965,1175.000000,0.000000,12.000000,,,,0.000000,2.000000,2.000000,0.000000,2.000000,2.000000,2.000000,1.000000,2.000000,4.000000,4.000000,4.000000,4.000000,2.000000,4.000000,25.000000,,,,,,,,,,,,,,,,,17.000000,0.000000,0.631980,0.397400,-0.592163,0.303345,0.963008,0.139177,-0.024417,-75.157013,64.921806,29.033857
1732081832.873400,1732081832.875687,69.000000,0.000000,4297.051270,4311.538574,4318.717773,4315.128418,4331.282227,4323.205078,4327.820313,4338.974121,4327.820313,4314.102539,4422.820313,4460.128418,4337.948730,4374.358887,1067.000000,0.000000,12.000000,,,,0.000000,2.000000,2.000000,0.000000,2.000000,2.000000,2.000000,1.000000,2.000000,4.000000,4.000000,4.000000,4.000000,2.000000,4.000000,25.000000,,,,,,,,,,,,,,,,,,,,,,,,,,,,
1732081832.881208,1732081832.883695,70.000000,0.000000,4291.666504,4309.358887,4319.487305,4313.974121,4326.153809,4325.512695,4325.897461,4336.794922,4324.230957,4309.871582,4420.128418,4456.538574,4337.436035,4371.410156,213.000000,0.000000,12.000000,,,,0.000000,2.000000,2.000000,0.000000,2.000000,2.000000,2.000000,1.000000,2.000000,4.000000,4.000000,4.000000,4.000000,2.000000,4.000000,25.000000,,,,,,,,,,,,,,,,,,,,,,,,,,,,
1732081832.889016,1732081832.891504,71.000000,0.000000,4296.538574,4309.871582,4318.077148,4312.948730,4311.025879,4327.179688,4327.436035,4335.769043,4327.692383,4311.153809,4422.692383,4455.769043,4336.538574,4376.538574,1204.000000,0.000000,12.000000,,,,0.000000,2.000000,2.000000,0.000000,2.000000,2.000000,2.000000,1.000000,2.000000,4.000000,4.000000,4.000000,4.000000,2.000000,4.000000,25.000000,,,,,,,,,,,,,,,,,,,,,,,,,,,,
1732081832.896824,1732081832.899412,72.000000,0.000000,4299.743652,4311.282227,4318.717773,4311.538574,4315.384766,4322.436035,4325.128418,4335.897461,4325.641113,4310.256348,4420.128418,4455.769043,4333.846191,4380.384766,1344.000000,0.000000,12.000000,,,,0.000000,2.000000,2.000000,0.000000,2.000000,2.000000,2.000000,1.000000,2.000000,4.000000,4.000000,4.000000,4.000000,2.000000,4.000000,25.000000,,,,,,,,,,,,,,,,,18.000000,0.000000,0.631980,0.397400,-0.592163,0.303345,0.963497,0.136247,-0.021975,-74.960518,65.018333,29.259090
1732081832.904633,1732081832.907220,73.000000,0.000000,4298.205078,4312.307617,4321.666504,4312.948730,4320.512695,4319.615234,4323.717773,4335.512695,4323.333496,4308.461426,4418.077148,4458.333496,4333.205078,4376.538574,1472.000000,0.000000,12.000000,,,,0.000000,2.000000,2.000000,0.000000,2.000000,2.000000,2.000000,1.000000,2.000000,4.000000,4.000000,4.000000,4.000000,2.000000,4.000000,25.000000,,,,,,,,,,,,,,,,,,,,,,,,,,,,
1732081832.912441,1732081832.914828,74.000000,0.000000,4297.692383,4310.512695,4322.179688,4315.256348,4320.384766,4321.666504,4324.487305,4335.384766,4326.538574,4308.589844,4420.000000,4461.153809,4334.358887,4370.384766,1357.000000,0.000000,12.000000,,,,0.000000,2.000000,2.000000,0.000000,2.000000,2.000000,2.000000,1.000000,2.000000,4.000000,4.000000,4.000000,4.000000,2.000000,4.000000,25.000000,,,,,,,,,,,,,,,,,,,,,,,,,,,,
1732081832.920249,1732081832.922637,75.000000,0.000000,4298.717773,4311.025879,4320.897461,4314.487305,4328.333496,4321.794922,4323.589844,4334.743652,4325.256348,4307.692383,4418.333496,4461.025879,4335.384766,4373.974121,1492.000000,0.000000,12.000000,,,,0.000000,2.000000,2.000000,0.000000,2.000000,2.000000,2.000000,1.000000,2.000000,4.000000,4.000000,4.000000,4.000000,2.000000,4.000000,25.000000,,,,,,,,,,,,,,,,,,,,,,,,,,,,
1732081832.928057,1732081832.930345,76.000000,0.000000,4302.179688,4315.769043,4321.025879,4315.128418,4325.897461,4324.615234,4322.436035,4334.102539,4321.794922,4304.871582,4412.948730,4461.410156,4333.333496,4379.487305,1728.000000,0.000000,12.000000,,,,0.000000,2.000000,2.000000,0.000000,2.000000,2.000000,2.000000,1.000000,2.000000,4.000000,4.000000,4.000000,4.000000,2.000000,4.000000,25.000000,,,,,,,,,,,,,,,,,19.000000,0.000000,0.633907,0.396423,-0.590881,0.303101,0.974728,0.147479,-0.001465,-75.094681,64.919846,29.494864
1732081832.935866,1732081832.938153,77.000000,0.000000,4305.384766,4315.384766,4323.717773,4317.820313,4316.153809,4327.436035,4325.128418,4334.743652,4321.538574,4303.717773,4410.000000,4461.666504,4328.717773,4374.871582,1698.000000,0.000000,12.000000,,,,0.000000,2.000000,2.000000,0.000000,2.000000,2.000000,2.000000,1.000000,2.000000,4.000000,4.000000,4.000000,4.000000,2.000000,4.000000,25.000000,,,,,,,,,,,,,,,,,,,,,,,,,,,,
1732081832.943674,1732081832.945761,78.000000,0.000000,4305.128418,4311.410156,4324.358887,4319.743652,4320.897461,4325.897461,4325.384766,4337.948730,4323.717773,4304.230957,4410.641113,4461.922852,4329.358887,4368.205078,1357.000000,0.000000,12.000000,,,,0.000000,2.000000,2.000000,0.000000,2.000000,2.000000,2.000000,1.000000,2.000000,4.000000,4.000000,4.000000,4.000000,2.000000,4.000000,25.000000,1.000000,16.666666,2.000000,2.000000,0.000000,2.000000,2.000000,2.000000,0.000000,2.000000,4.000000,4.000000,4.000000,4.000000,2.000000,4.000000,,,,,,,,,,,,
1732081832.951482,1732081832.953570,79.000000,0.000000,4300.512695,4311.153809,4322.436035,4317.436035,4332.563965,4328.974121,4327.307617,4341.538574,4323.846191,4305.000000,4407.436035,4458.974121,4331.794922,4367.820313,1492.000000,0.000000,12.000000,,,,0.000000,2.000000,2.000000,0.000000,2.000000,2.000000,2.000000,1.000000,2.000000,4.000000,4.000000,4.000000,4.000000,2.000000,4.000000,25.000000,,,,,,,,,,,,,,,,,,,,,,,,,,,,
1732081832.959290,1732081832.961278,80.000000,0.000000,4297.436035,4311.153809,4320.512695,4312.563965,4332.307617,4333.974121,4327.563965,4339.743652,4324.102539,4306.025879,4407.563965,4450.897461,4328.333496,4369.102539,1728.000000,0.000000,12.000000,,,,0.000000,2.000000,2.000000,0.000000,2.000000,2.000000,2.000000,1.000000,2.000000,4.000000,4.000000,4.000000,4.000000,2.000000,4.000000,25.000000,,,,,,,,,,,,,,,,,20.000000,0.000000,0.636192,0.394714,-0.589600,0.303040,0.985472,0.140154,0.010255,-75.065025,65.125076,29.620840
1732081832.967099,1732081832.969086,81.000000,0.000000,4298.846191,4309.487305,4322.051270,4313.846191,4322.179688,4329.871582,4326.666504,4335.000000,4325.128418,4305.000000,4410.384766,4443.333496,4325.641113,4367.948730,1698.000000,0.000000,12.000000,,,,0.000000,2.000000,2.000000,0.000000,2.000000,2.000000,2.000000,1.000000,2.000000,4.000000,4.000000,4.000000,4.000000,2.000000,4.000000,25.000000,,,,,,,,,,,,,,,,,,,,,,,,,,,,
1732081832.974907,1732081832.976695,82.000000,0.000000,4298.589844,4308.974121,4321.922852,4319.487305,4315.128418,4325.641113,4328.717773,4335.000000,4325.769043,4306.666504,4413.077148,4444.102539,4328.077148,4366.794922,1357.000000,0.000000,12.000000,,,,0.000000,2.000000,2.000000,0.000000,2.000000,2.000000,2.000000,1.000000,2.000000,4.000000,4.000000,4.000000,4.000000,2.000000,4.000000,25.000000,,,,,,,,,,,,,,,,,,,,,,,,,,,,
1732081832.982715,1732081832.984503,83.000000,0.000000,4296.025879,4309.743652,4320.128418,4320.128418,4323.589844,4329.102539,4330.384766,4337.436035,4326.410156,4309.871582,4415.128418,4450.256348,4328.717773,4363.589844,1492.000000,0.000000,12.000000,,,,0.000000,2.000000,2.000000,0.000000,2.000000,2.000000,2.000000,1.000000,2.000000,4.000000,4.000000,4.000000,4.000000,2.000000,4.000000,25.000000,,,,,,,,,,,,,,,,,,,,,,,,,,,,
1732081832.990523,1732081832.992411,84.000000,0.000000,4295.256348,4309.102539,4317.307617,4315.128418,4338.461426,4325.256348,4323.974121,4335.897461,4326.538574,4308.077148,4413.205078,4451.538574,4325.641113,4363.077148,1728.000000,0.000000,12.000000,,,,0.000000,2.000000,2.000000,0.000000,2.000000,2.000000,2.000000,1.000000,2.000000,4.000000,4.000000,4.000000,4.000000,2.000000,4.000000,25.000000,,,,,,,,,,,,,,,,,21.000000,0.000000,0.637328,0.392822,-0.589417,0.303467,0.982542,0.146014,0.016115,-75.016006,64.974648,29.792879
1732081832.998332,1732081833.000219,85.000000,0.000000,4299.230957,4307.179688,4318.205078,4314.230957,4332.051270,4316.153809,4319.358887,4333.333496,4324.743652,4305.256348,4410.769043,4450.256348,4326.410156,4363.717773,1698.000000,0.000000,12.000000,,,,0.000000,2.000000,2.000000,0.000000,2.000000,2.000000,2.000000,1.000000,2.000000,4.000000,4.000000,4.000000,4.000000,2.000000,4.000000,25.000000,,,,,,,,,,,,,,,,,,,,,,,,,,,,
1732081833.006140,1732081833.008227,86.000000,0.000000,4304.230957,4307.436035,4319.871582,4319.487305,4319.871582,4315.641113,4321.666504,4333.333496,4321.410156,4306.922852,4411.153809,4447.307617,4330.256348,4362.307617,1357.000000,0.000000,12.000000,,,,0.000000,2.000000,2.000000,0.000000,2.000000,2.000000,2.000000,1.000000,2.000000,4.000000,4.000000,4.000000,4.000000,2.000000,4.000000,25.000000,,,,,,,,,,,,,,,,,,,,,,,,,,,,
1732081833.013948,1732081833.016035,87.000000,0.000000,4304.487305,4307.436035,4319.615234,4321.025879,4322.563965,4322.436035,4325.512695,4338.077148,4323.461426,4311.410156,4413.333496,4447.563965,4330.256348,4363.717773,1492.000000,0.000000,12.000000,,,,0.000000,2.000000,2.000000,0.000000,2.000000,2.000000,2.000000,1.000000,2.000000,4.000000,4.000000,4.000000,4.000000,2.000000,4.000000,25.000000,,,,,,,,,,,,,,,,,,,,,,,,,,,,
1732081833.021757,1732081833.023744,88.000000,0.000000,4304.230957,4307.820313,4318.461426,4318.589844,4327.563965,4326.666504,4326.410156,4340.769043,4328.589844,4311.794922,4414.743652,4451.538574,4329.230957,4365.897461,1728.000000,0.000000,12.000000,,,,0.000000,2.000000,2.000000,0.000000,2.000000,2.000000,2.000000,1.000000,2.000000,4.000000,4.000000,4.000000,4.000000,2.000000,4.000000,25.000000,,,,,,,,,,,,,,,,,22.000000,0.000000,0.637625,0.392151,-0.589417,0.303711,0.982542,0.146014,0.016115,-75.012962,65.169464,29.895567
1732081833.029565,1732081833.031552,89.000000,0.000000,4306.666504,4309.871582,4318.974121,4317.307617,4332.563965,4321.538574,4324.358887,4336.153809,4327.307617,4310.897461,4416.153809,4455.128418,4333.077148,4367.948730,1698.000000,0.000000,12.000000,,,,0.000000,2.000000,2.000000,0.000000,2.000000,2.000000,2.000000,1.000000,2.000000,4.000000,4.000000,4.000000,4.000000,2.000000,4.000000,25.000000,,,,,,,,,,,,,,,,,,,,,,,,,,,,
1732081833.037373,1732081833.039160,90.000000,0.000000,4304.871582,4310.641113,4318.333496,4317.307617,4339.102539,4314.615234,4324.358887,4337.307617,4324.487305,4309.615234,4415.512695,4457.820313,4336.410156,4367.692383,1357.000000,0.000000,12.000000,,,,0.000000,2.000000,2.000000,0.000000,2.000000,2.000000,2.000000,1.000000,2.000000,4.000000,4.000000,4.000000,4.000000,2.000000,4.000000,25.000000,,,,,,,,,,,,,,,,,,,,,,,,,,,,
1732081833.045181,1732081833.046969,91.000000,0.000000,4297.051270,4309.871582,4316.282227,4316.922852,4327.948730,4318.333496,4326.153809,4341.282227,4326.153809,4311.282227,4413.333496,4458.846191,4335.000000,4365.769043,1492.000000,0.000000,12.000000,,,,0.000000,2.000000,2.000000,0.000000,2.000000,2.000000,2.000000,1.000000,2.000000,4.000000,4.000000,4.000000,4.000000,2.000000,4.000000,25.000000,,,,,,,,,,,,,,,,,,,,,,,,,,,,
1732081833.052989,1732081833.054677,92.000000,0.000000,4298.333496,4310.641113,4316.025879,4315.128418,4315.256348,4322.692383,4326.538574,4334.871582,4328.846191,4313.205078,4414.358887,4457.948730,4336.025879,4365.384766,1728.000000,0.000000,12.000000,,,,0.000000,2.000000,2.000000,0.000000,2.000000,2.000000,2.000000,1.000000,2.000000,4.000000,4.000000,4.000000,4.000000,2.000000,4.000000,25.000000,,,,,,,,,,,,,,,,,23.000000,0.000000,0.637740,0.391724,-0.589355,0.304138,0.982053,0.150409,0.015627,-74.937164,65.255600,30.143742
1732081833.060798,1732081833.062485,93.000000,0.000000,4303.717773,4311.410156,4316.025879,4313.205078,4329.102539,4314.487305,4322.692383,4333.077148,4328.333496,4312.563965,4415.000000,4455.641113,4337.307617,4366.153809,1698.000000,0.000000,12.000000,,,,0.000000,2.000000,2.000000,0.000000,2.000000,2.000000,2.000000,1.000000,2.000000,4.000000,4.000000,4.000000,4.000000,2.000000,4.000000,25.000000,,,,,,,,,,,,,,,,,,,,,,,,,,,,
1732081833.068606,1732081833.070093,94.000000,0.000000,4304.358887,4310.769043,4317.436035,4313.974121,4333.974121,4313.333496,4324.487305,4341.666504,4330.256348,4315.384766,4417.948730,4456.410156,4337.563965,4366.410156,1357.000000,0.000000,12.000000,,,,0.000000,2.000000,2.000000,0.000000,2.000000,2.000000,2.000000,1.000000,2.000000,4.000000,4.000000,4.000000,4.000000,2.000000,4.000000,25.000000,,,,,,,,,,,,,,,,,,,,,,,,,,,,
1732081833.076414,1732081833.077902,95.000000,0.000000,4306.282227,4312.051270,4318.077148,4315.897461,4320.384766,4322.820313,4326.410156,4343.974121,4332.820313,4318.717773,4423.461426,4459.615234,4341.538574,4369.230957,1492.000000,0.000000,12.000000,,,,0.000000,2.000000,2.000000,0.000000,2.000000,2.000000,2.000000,1.000000,2.000000,4.000000,4.000000,4.000000,4.000000,2.000000,4.000000,25.000000,,,,,,,,,,,,,,,,,,,,,,,,,,,,
1732081833.084222,1732081833.085810,96.000000,0.000000,4306.025879,4310.897461,4317.179688,4313.333496,4320.897461,4319.358887,4325.384766,4340.128418,4331.794922,4315.128418,4420.769043,4460.000000,4341.282227,4369.487305,1728.000000,0.000000,12.000000,,,,0.000000,2.000000,2.000000,0.000000,2.000000,2.000000,2.000000,1.000000,2.000000,4.000000,4.000000,4.000000,4.000000,2.000000,4.000000,25.000000,,,,,,,,,,,,,,,,,24.000000,0.000000,0.637906,0.389709,-0.589722,0.305664,0.968380,0.125504,0.013674,-74.995773,65.352036,30.291431
1732081833.092031,1732081833.093618,97.000000,0.000000,4304.102539,4308.333496,4317.179688,4311.666504,4324.487305,4313.461426,4324.358887,4341.410156,4330.128418,4311.794922,4413.589844,4453.846191,4337.948730,4364.871582,1698.000000,0.000000,12.000000,,,,0.000000,2.000000,2.000000,0.000000,2.000000,2.000000,2.000000,1.000000,2.000000,4.000000,4.000000,4.000000,4.000000,2.000000,4.000000,25.000000,,,,,,,,,,,,,,,,,,,,,,,,,,,,
1732081833.099839,1732081833.101626,98.000000,0.000000,4306.153809,4310.000000,4321.025879,4312.307617,4327.179688,4317.820313,4326.922852,4340.769043,4329.743652,4315.128418,4412.820313,4450.128418,4341.153809,4364.615234,1357.000000,0.000000,12.000000,,,,0.000000,2.000000,2.000000,0.000000,2.000000,2.000000,2.000000,1.000000,2.000000,4.000000,4.000000,4.000000,4.000000,2.000000,4.000000,25.000000,,,,,,,,,,,,,,,,,,,,,,,,,,,,
1732081833.107647,1732081833.109434,99.000000,0.000000,4306.666504,4311.282227,4321.153809,4310.641113,4335.512695,4319.487305,4326.410156,4342.692383,4331.538574,4319.743652,4415.897461,4456.282227,4344.358887,4366.282227,1492.000000,0.000000,12.000000,,,,0.000000,2.000000,2.000000,0.000000,2.000000,2.000000,2.000000,1.000000,2.000000,4.000000,4.000000,4.000000,4.000000,2.000000,4.000000,25.000000,,,,,,,,,,,,,,,,,,,,,,,,,,,,
1732081833.115456,1732081833.117342,100.000000,0.000000,4302.436035,4308.333496,4318.333496,4309.615234,4327.179688,4319.358887,4326.666504,4348.846191,4332.820313,4319.102539,4415.769043,4459.487305,4340.512695,4366.282227,1728.000000,0.000000,12.000000,,,,0.000000,2.000000,2.000000,0.000000,2.000000,2.000000,2.000000,1.000000,2.000000,4.000000,4.000000,4.000000,4.000000,2.000000,4.000000,25.000000,,,,,,,,,,,,,,,,,25.000000,0.000000,0.637733,0.389465,-0.589722,0.306335,0.968380,0.125504,0.013674,-75.028244,65.760147,30.426060
1732081833.123264,1732081833.125150,101.000000,0.000000,4304.230957,4306.922852,4316.666504,4310.128418,4315.256348,4324.871582,4328.846191,4345.256348,4331.282227,4315.256348,4414.230957,4452.692383,4338.846191,4367.436035,1698.000000,0.000000,12.000000,,,,0.000000,2.000000,2.000000,0.000000,2.000000,2.000000,2.000000,1.000000,2.000000,4.000000,4.000000,4.000000,4.000000,2.000000,4.000000,25.000000,,,,,,,,,,,,,,,,,,,,,,,,,,,,
1732081833.131072,1732081833.133158,102.000000,0.000000,4305.384766,4307.820313,4317.820313,4309.230957,4322.563965,4325.769043,4328.717773,4339.230957,4328.589844,4312.563965,4413.974121,4449.871582,4338.717773,4364.615234,1357.000000,0.000000,12.000000,,,,0.000000,2.000000,2.000000,0.000000,2.000000,2.000000,2.000000,1.000000,2.000000,4.000000,4.000000,4.000000,4.000000,2.000000,4.000000,25.000000,,,,,,,,,,,,,,,,,,,,,,,,,,,,
1732081833.138880,1732081833.140967,103.000000,0.000000,4298.974121,4309.487305,4316.410156,4309.487305,4329.871582,4320.256348,4326.666504,4341.410156,4328.461426,4313.461426,4414.102539,4450.641113,4337.436035,4363.205078,1492.000000,0.000000,12.000000,,,,0.000000,2.000000,2.000000,0.000000,2.000000,2.000000,2.000000,1.000000,2.000000,4.000000,4.000000,4.000000,4.000000,2.000000,4.000000,25.000000,,,,,,,,,,,,,,,,,,,,,,,,,,,,
1732081833.146689,1732081833.148675,104.000000,0.000000,4296.794922,4309.487305,4315.256348,4307.179688,4336.025879,4319.487305,4326.538574,4341.410156,4328.077148,4313.717773,4414.743652,4445.769043,4336.282227,4366.538574,1728.000000,0.000000,12.000000,,,,0.000000,2.000000,2.000000,0.000000,2.000000,2.000000,2.000000,1.000000,2.000000,4.000000,4.000000,4.000000,4.000000,2.000000,4.000000,25.000000,,,,,,,,,,,,,,,,,26.000000,0.000000,0.637337,0.388306,-0.590088,0.307922,0.983518,0.108412,0.017580,-75.181213,65.394051,30.408442
1732081833.154497,1732081833.156483,105.000000,0.000000,4298.461426,4307.820313,4315.384766,4303.846191,4337.948730,4322.436035,4328.461426,4338.974121,4327.179688,4310.384766,4413.589844,4443.461426,4331.794922,4364.230957,1698.000000,0.000000,12.000000,,,,0.000000,2.000000,2.000000,0.000000,2.000000,2.000000,2.000000,1.000000,2.000000,4.000000,4.000000,4.000000,4.000000,2.000000,4.000000,25.000000,,,,,,,,,,,,,,,,,,,,,,,,,,,,
1732081833.162305,1732081833.164491,106.000000,0.000000,4300.256348,4306.794922,4316.410156,4308.333496,4322.307617,4323.461426,4327.436035,4340.128418,4329.615234,4308.205078,4412.820313,4444.487305,4330.769043,4362.563965,1357.000000,0.000000,12.000000,,,,0.000000,2.000000,2.000000,0.000000,2.000000,2.000000,2.000000,1.000000,2.000000,4.000000,4.000000,4.000000,4.000000,2.000000,4.000000,25.000000,,,,,,,,,,,,,,,,,,,,,,,,,,,,
1732081833.170113,1732081833.172299,107.000000,0.000000,4300.384766,4308.205078,4316.538574,4313.846191,4315.512695,4324.358887,4324.615234,4337.051270,4329.743652,4310.769043,4414.230957,4445.000000,4334.871582,4367.563965,1492.000000,0.000000,12.000000,,,,0.000000,2.000000,2.000000,0.000000,2.000000,2.000000,2.000000,1.000000,2.000000,4.000000,4.000000,4.000000,4.000000,2.000000,4.000000,25.000000,,,,,,,,,,,,,,,,,,,,,,,,,,,,
1732081833.177922,1732081833.180208,108.000000,0.000000,4297.307617,4309.358887,4316.153809,4313.205078,4330.384766,4325.256348,4323.846191,4332.051270,4325.769043,4311.922852,4411.538574,4443.589844,4335.256348,4365.128418,1728.000000,0.000000,12.000000,,,,0.000000,2.000000,2.000000,0.000000,2.000000,2.000000,2.000000,1.000000,2.000000,4.000000,4.000000,4.000000,4.000000,2.000000,4.000000,25.000000,,,,,,,,,,,,,,,,,27.000000,0.000000,0.636672,0.387329,-0.590393,0.309937,0.975705,0.113783,0.013674,-75.380112,65.242516,30.619171
1732081833.185730,1732081833.188016,109.000000,0.000000,4297.179688,4310.512695,4317.436035,4312.692383,4330.769043,4322.179688,4327.307617,4336.666504,4322.563965,4307.948730,4411.922852,4442.692383,4334.615234,4362.820313,1698.000000,0.000000,12.000000,,,,0.000000,2.000000,2.000000,0.000000,2.000000,2.000000,2.000000,1.000000,2.000000,4.000000,4.000000,4.000000,4.000000,2.000000,4.000000,25.000000,,,,,,,,,,,,,,,,,,,,,,,,,,,,
1732081833.193538,1732081833.196024,110.000000,0.000000,4305.512695,4313.974121,4317.179688,4314.743652,4326.153809,4318.461426,4326.153809,4340.128418,4323.333496,4306.538574,4418.974121,4446.538574,4337.820313,4371.922852,1357.000000,0.000000,12.000000,,,,0.000000,2.000000,2.000000,0.000000,2.000000,2.000000,2.000000,1.000000,2.000000,4.000000,4.000000,4.000000,4.000000,2.000000,4.000000,25.000000,,,,,,,,,,,,,,,,,,,,,,,,,,,,
1732081833.201346,1732081833.203832,111.000000,0.000000,4308.205078,4314.358887,4317.820313,4312.948730,4336.282227,4317.436035,4323.461426,4335.384766,4323.077148,4307.051270,4423.461426,4451.410156,4339.615234,4377.179688,1492.000000,0.000000,12.000000,,,,0.000000,2.000000,2.000000,0.000000,2.000000,2.000000,2.000000,1.000000,2.000000,4.000000,4.000000,4.000000,4.000000,2.000000,4.000000,25.000000,,,,,,,,,,,,,,,,,,,,,,,,,,,,
1732081833.209154,1732081833.211740,112.000000,0.000000,4302.307617,4310.897461,4317.948730,4309.615234,4333.974121,4319.102539,4325.128418,4334.230957,4323.589844,4307.307617,4422.051270,4450.769043,4338.333496,4370.769043,1728.000000,0.000000,12.000000,,,,0.000000,2.000000,2.000000,0.000000,2.000000,2.000000,2.000000,1.000000,2.000000,4.000000,4.000000,4.000000,4.000000,2.000000,4.000000,25.000000,,,,,,,,,,,,,,,,,28.000000,0.000000,0.636492,0.386902,-0.590515,0.310608,0.963008,0.119155,0.012209,-75.451225,65.214775,30.549862
1732081833.216963,1732081833.219548,113.000000,0.000000,4301.666504,4308.589844,4317.948730,4310.512695,4315.512695,4321.153809,4328.205078,4336.666504,4325.769043,4307.563965,4419.102539,4451.153809,4335.897461,4366.666504,1698.000000,0.000000,12.000000,,,,0.000000,2.000000,2.000000,0.000000,2.000000,2.000000,2.000000,1.000000,2.000000,4.000000,4.000000,4.000000,4.000000,2.000000,4.000000,25.000000,,,,,,,,,,,,,,,,,,,,,,,,,,,,
1732081833.224771,1732081833.227556,114.000000,0.000000,4303.974121,4309.358887,4318.589844,4314.358887,4314.743652,4322.051270,4326.153809,4336.025879,4325.897461,4307.820313,4417.051270,4456.666504,4333.333496,4370.128418,1357.000000,0.000000,12.000000,,,,0.000000,2.000000,2.000000,0.000000,2.000000,2.000000,2.000000,1.000000,2.000000,4.000000,4.000000,4.000000,4.000000,2.000000,4.000000,25.000000,,,,,,,,,,,,,,,,,,,,,,,,,,,,
1732081833.232579,1732081833.235364,115.000000,0.000000,4302.051270,4311.666504,4319.871582,4315.000000,4333.974121,4321.666504,4323.846191,4335.769043,4325.000000,4308.077148,4415.000000,4457.307617,4331.794922,4366.794922,1492.000000,0.000000,12.000000,,,,0.000000,2.000000,2.000000,0.000000,2.000000,2.000000,2.000000,1.000000,2.000000,4.000000,4.000000,4.000000,4.000000,2.000000,4.000000,25.000000,,,,,,,,,,,,,,,,,,,,,,,,,,,,
1732081833.240388,1732081833.243273,116.000000,0.000000,4299.230957,4311.666504,4317.820313,4312.692383,4336.922852,4322.179688,4324.615234,4336.794922,4327.563965,4311.153809,4413.717773,4455.641113,4330.256348,4359.230957,1728.000000,0.000000,12.000000,,,,0.000000,2.000000,2.000000,0.000000,2.000000,2.000000,2.000000,1.000000,2.000000,4.000000,4.000000,4.000000,4.000000,2.000000,4.000000,25.000000,,,,,,,,,,,,,,,,,29.000000,0.000000,0.636253,0.386902,-0.590515,0.311096,0.972775,0.125015,0.008302,-75.745491,65.142296,30.793722
1732081833.248196,1732081833.251081,117.000000,0.000000,4299.358887,4310.256348,4316.410156,4313.974121,4319.102539,4325.641113,4327.948730,4337.436035,4330.512695,4313.333496,4413.461426,4459.487305,4330.641113,4362.692383,1698.000000,0.000000,12.000000,,,,0.000000,2.000000,2.000000,0.000000,2.000000,2.000000,2.000000,1.000000,2.000000,4.000000,4.000000,4.000000,4.000000,2.000000,4.000000,25.000000,,,,,,,,,,,,,,,,,,,,,,,,,,,,
1732081833.256004,1732081833.259089,118.000000,0.000000,4301.025879,4311.410156,4316.794922,4317.436035,4315.769043,4327.563965,4328.077148,4337.563965,4330.384766,4311.666504,4413.846191,4458.589844,4334.743652,4368.717773,1357.000000,0.000000,12.000000,,,,0.000000,2.000000,2.000000,0.000000,2.000000,2.000000,2.000000,1.000000,2.000000,4.000000,4.000000,4.000000,4.000000,2.000000,4.000000,25.000000,,,,,,,,,,,,,,,,,,,,,,,,,,,,
1732081833.263812,1732081833.266897,119.000000,0.000000,4301.025879,4312.820313,4317.563965,4314.615234,4327.436035,4320.512695,4324.230957,4335.769043,4327.820313,4310.512695,4413.205078,4453.846191,4335.641113,4366.282227,1492.000000,0.000000,12.000000,,,,0.000000,2.000000,2.000000,0.000000,2.000000,2.000000,2.000000,1.000000,2.000000,4.000000,4.000000,4.000000,4.000000,2.000000,4.000000,25.000000,,,,,,,,,,,,,,,,,,,,,,,,,,,,
1732081833.271621,1732081833.274605,120.000000,0.000000,4297.692383,4310.384766,4316.410156,4311.282227,4323.077148,4313.589844,4323.077148,4333.589844,4327.948730,4311.666504,4413.974121,4457.820313,4335.641113,4366.282227,1728.000000,0.000000,12.000000,,,,0.000000,2.000000,2.000000,0.000000,2.000000,2.000000,2.000000,1.000000,2.000000,4.000000,4.000000,4.000000,4.000000,2.000000,4.000000,25.000000,,,,,,,,,,,,,,,,,30.000000,0.000000,0.635934,0.387024,-0.590393,0.311829,0.969845,0.122574,0.015139,-75.752182,64.883598,30.729580
1732081833.279429,1732081833.282414,121.000000,0.000000,4297.820313,4308.717773,4316.025879,4313.205078,4316.538574,4314.871582,4325.384766,4334.487305,4330.128418,4315.769043,4417.948730,4463.589844,4339.230957,4373.205078,1698.000000,0.000000,12.000000,,,,0.000000,2.000000,2.000000,0.000000,2.000000,2.000000,2.000000,1.000000,2.000000,4.000000,4.000000,4.000000,4.000000,2.000000,4.000000,25.000000,,,,,,,,,,,,,,,,,,,,,,,,,,,,
1732081833.287237,1732081833.290122,122.000000,0.000000,4299.358887,4309.102539,4317.179688,4313.846191,4329.230957,4316.410156,4325.384766,4335.128418,4327.436035,4314.615234,4415.256348,4461.922852,4336.410156,4369.358887,1357.000000,0.000000,12.000000,,,,0.000000,2.000000,2.000000,0.000000,2.000000,2.000000,2.000000,1.000000,2.000000,4.000000,4.000000,4.000000,4.000000,2.000000,4.000000,25.000000,,,,,,,,,,,,,,,,,,,,,,,,,,,,
1732081833.295046,1732081833.297930,123.000000,0.000000,4298.205078,4307.820313,4317.820313,4311.153809,4326.410156,4316.025879,4323.461426,4333.333496,4323.461426,4309.743652,4411.153809,4458.846191,4328.589844,4362.948730,1492.000000,0.000000,12.000000,,,,0.000000,2.000000,2.000000,0.000000,2.000000,2.000000,2.000000,1.000000,2.000000,4.000000,4.000000,4.000000,4.000000,2.000000,4.000000,25.000000,,,,,,,,,,,,,,,,,,,,,,,,,,,,
1732081833.302854,1732081833.305638,124.000000,0.000000,4297.051270,4308.333496,4316.538574,4311.410156,4311.153809,4317.948730,4325.512695,4333.077148,4324.487305,4310.256348,4412.179688,4459.487305,4328.205078,4363.461426,1728.000000,0.000000,12.000000,,,,0.000000,2.000000,2.000000,0.000000,2.000000,2.000000,2.000000,1.000000,2.000000,4.000000,4.000000,4.000000,4.000000,2.000000,4.000000,25.000000,,,,,,,,,,,,,,,,,31.000000,0.000000,0.635415,0.387634,-0.589905,0.313049,0.969845,0.113783,0.004395,-75.962601,64.795715,30.662626
1732081833.310662,1732081833.313447,125.000000,0.000000,4297.948730,4308.461426,4316.282227,4314.487305,4311.922852,4319.487305,4324.871582,4335.128418,4326.153809,4311.538574,4413.846191,4464.230957,4332.179688,4365.256348,1698.000000,0.000000,12.000000,,,,0.000000,2.000000,2.000000,0.000000,2.000000,2.000000,2.000000,1.000000,2.000000,4.000000,4.000000,4.000000,4.000000,2.000000,4.000000,25.000000,,,,,,,,,,,,,,,,,,,,,,,,,,,,
1732081833.318470,1732081833.321055,126.000000,0.000000,4296.794922,4304.871582,4318.077148,4315.128418,4316.922852,4319.102539,4323.589844,4335.769043,4322.692383,4307.051270,4414.743652,4469.102539,4330.641113,4366.282227,1357.000000,0.000000,12.000000,,,,0.000000,2.000000,2.000000,0.000000,2.000000,2.000000,2.000000,1.000000,2.000000,4.000000,4.000000,4.000000,4.000000,2.000000,4.000000,25.000000,,,,,,,,,,,,,,,,,,,,,,,,,,,,
1732081833.326278,1732081833.328863,127.000000,0.000000,4297.307617,4304.615234,4318.077148,4313.461426,4322.820313,4316.410156,4326.282227,4335.512695,4322.307617,4304.358887,4414.230957,4470.128418,4329.615234,4365.384766,12.000000,0.000000,12.000000,,,,0.000000,2.000000,2.000000,0.000000,2.000000,2.000000,2.000000,1.000000,2.000000,4.000000,4.000000,4.000000,4.000000,2.000000,4.000000,25.000000,,,,,,,,,,,,,,,,,,,,,,,,,,,,
1732081833.334087,1732081833.336771,0.000000,0.000000,4299.230957,4307.948730,4318.333496,4312.051270,4326.922852,4313.205078,4329.102539,4335.128418,4326.025879,4309.615234,4415.256348,4472.436035,4333.717773,4367.307617,0.000000,0.000000,12.000000,,,,0.000000,2.000000,2.000000,0.000000,2.000000,2.000000,2.000000,1.000000,2.000000,4.000000,4.000000,4.000000,4.000000,2.000000,4.000000,25.000000,,,,,,,,,,,,,,,,,0.000000,0.000000,0.635285,0.387878,-0.589722,0.313354,0.959590,0.123062,0.010743,-76.123039,64.839523,30.540062
1732081833.341895,1732081833.344580,1.000000,0.000000,4299.102539,4307.563965,4317.820313,4313.333496,4316.794922,4315.000000,4327.436035,4334.487305,4326.794922,4315.256348,4421.153809,4471.025879,4335.000000,4372.307617,1285.000000,0.000000,12.000000,,,,0.000000,2.000000,2.000000,0.000000,2.000000,2.000000,2.000000,1.000000,2.000000,4.000000,4.000000,4.000000,4.000000,2.000000,4.000000,25.000000,,,,,,,,,,,,,,,,,,,,,,,,,,,,
1732081833.349703,1732081833.352188,2.000000,0.000000,4298.717773,4306.538574,4317.051270,4316.538574,4304.871582,4319.358887,4330.000000,4335.256348,4327.179688,4316.666504,4423.333496,4461.666504,4332.948730,4372.307617,1214.000000,0.000000,12.000000,,,,0.000000,2.000000,2.000000,0.000000,2.000000,2.000000,2.000000,1.000000,2.000000,4.000000,4.000000,4.000000,4.000000,2.000000,4.000000,25.000000,,,,,,,,,,,,,,,,,,,,,,,,,,,,
1732081833.357511,1732081833.359996,3.000000,0.000000,4297.948730,4307.820313,4315.897461,4315.000000,4318.717773,4316.794922,4328.717773,4336.410156,4327.307617,4314.358887,4417.051270,4456.282227,4332.051270,4368.205078,1160.000000,0.000000,12.000000,,,,0.000000,2.000000,2.000000,0.000000,2.000000,2.000000,2.000000,1.000000,2.000000,4.000000,4.000000,4.000000,4.000000,2.000000,4.000000,25.000000,,,,,,,,,,,,,,,,,,,,,,,,,,,,
1732081833.365320,1732081833.367704,4.000000,0.000000,4295.897461,4305.641113,4317.179688,4310.897461,4328.717773,4311.025879,4324.743652,4336.025879,4325.256348,4309.487305,4412.820313,4461.282227,4330.128418,4367.051270,1170.000000,0.000000,12.000000,,,,0.000000,2.000000,2.000000,0.000000,2.000000,2.000000,2.000000,1.000000,2.000000,4.000000,4.000000,4.000000,4.000000,2.000000,4.000000,25.000000,,,,,,,,,,,,,,,,,1.000000,0.000000,0.635308,0.387878,-0.589600,0.313538,0.968380,0.122085,0.007813,-76.162994,64.648354,30.754116
1732081833.373128,1732081833.375513,5.000000,0.000000,4293.333496,4301.794922,4316.666504,4311.794922,4313.205078,4312.436035,4326.025879,4336.410156,4322.948730,4306.922852,4412.692383,4459.487305,4329.230957,4365.897461,1068.000000,0.000000,12.000000,,,,0.000000,2.000000,2.000000,0.000000,2.000000,2.000000,2.000000,1.000000,2.000000,4.000000,4.000000,4.000000,4.000000,2.000000,4.000000,25.000000,,,,,,,,,,,,,,,,,,,,,,,,,,,,
1732081833.380936,1732081833.383121,6.000000,0.000000,4292.436035,4302.051270,4315.512695,4313.717773,4303.205078,4319.615234,4328.461426,4337.051270,4324.230957,4308.717773,4412.692383,4455.256348,4330.512695,4363.461426,218.000000,0.000000,12.000000,,,,0.000000,2.000000,2.000000,0.000000,2.000000,2.000000,2.000000,1.000000,2.000000,4.000000,4.000000,4.000000,4.000000,2.000000,4.000000,25.000000,,,,,,,,,,,,,,,,,,,,,,,,,,,,
1732081833.388744,1732081833.390929,7.000000,0.000000,4291.282227,4304.487305,4315.384766,4311.153809,4313.077148,4321.794922,4328.974121,4335.000000,4324.743652,4310.128418,4414.230957,4462.692383,4330.641113,4366.282227,1200.000000,0.000000,12.000000,,,,0.000000,2.000000,2.000000,0.000000,2.000000,2.000000,2.000000,1.000000,2.000000,4.000000,4.000000,4.000000,4.000000,2.000000,4.000000,25.000000,,,,,,,,,,,,,,,,,,,,,,,,,,,,
1732081833.396553,1732081833.398638,8.000000,0.000000,4286.666504,4302.692383,4316.282227,4308.077148,4321.025879,4317.051270,4331.282227,4333.589844,4321.794922,4307.692383,4413.077148,4465.256348,4328.461426,4365.384766,1342.000000,0.000000,12.000000,,,,0.000000,2.000000,2.000000,0.000000,2.000000,2.000000,2.000000,1.000000,2.000000,4.000000,4.000000,4.000000,4.000000,2.000000,4.000000,25.000000,,,,,,,,,,,,,,,,,2.000000,0.000000,0.634721,0.388062,-0.589722,0.314270,0.977658,0.118667,0.009767,-76.043694,64.653496,30.789167
1732081833.404361,1732081833.406446,9.000000,0.000000,4288.717773,4297.563965,4313.974121,4311.538574,4314.230957,4318.846191,4332.948730,4334.743652,4323.717773,4308.461426,4411.153809,4461.153809,4327.820313,4360.512695,1472.000000,0.000000,12.000000,,,,0.000000,2.000000,2.000000,0.000000,2.000000,2.000000,2.000000,1.000000,2.000000,4.000000,4.000000,4.000000,4.000000,2.000000,4.000000,25.000000,,,,,,,,,,,,,,,,,,,,,,,,,,,,
1732081833.412169,1732081833.414454,10.000000,0.000000,4294.487305,4300.256348,4313.077148,4316.922852,4320.128418,4320.384766,4329.358887,4334.871582,4325.256348,4311.794922,4415.769043,4460.256348,4332.563965,4363.589844,1357.000000,0.000000,12.000000,,,,0.000000,2.000000,2.000000,0.000000,2.000000,2.000000,2.000000,1.000000,2.000000,4.000000,4.000000,4.000000,4.000000,2.000000,4.000000,25.000000,,,,,,,,,,,,,,,,,,,,,,,,,,,,
1732081833.419978,1732081833.422262,11.000000,0.000000,4290.897461,4307.436035,4316.025879,4314.871582,4332.948730,4314.615234,4327.179688,4333.205078,4321.025879,4310.384766,4417.051270,4461.538574,4335.769043,4368.589844,1492.000000,0.000000,12.000000,,,,0.000000,2.000000,2.000000,0.000000,2.000000,2.000000,2.000000,1.000000,2.000000,4.000000,4.000000,4.000000,4.000000,2.000000,4.000000,25.000000,,,,,,,,,,,,,,,,,,,,,,,,,,,,
1732081833.427786,1732081833.430170,12.000000,0.000000,4283.461426,4308.333496,4317.051270,4312.179688,4319.358887,4313.846191,4327.307617,4333.717773,4318.846191,4307.051270,4411.153809,4461.282227,4331.794922,4366.410156,1728.000000,0.000000,12.000000,,,,0.000000,2.000000,2.000000,0.000000,2.000000,2.000000,2.000000,1.000000,2.000000,4.000000,4.000000,4.000000,4.000000,2.000000,4.000000,25.000000,,,,,,,,,,,,,,,,,3.000000,0.000000,0.634006,0.388550,-0.589844,0.314880,0.971798,0.125504,0.004395,-76.032059,64.670998,30.875893
1732081833.435594,1732081833.437978,13.000000,0.000000,4287.307617,4308.205078,4315.384766,4315.384766,4305.641113,4317.179688,4329.102539,4335.256348,4322.307617,4306.922852,4411.666504,4461.922852,4328.974121,4362.820313,1695.000000,0.000000,12.000000,,,,0.000000,2.000000,2.000000,0.000000,2.000000,2.000000,2.000000,1.000000,2.000000,4.000000,4.000000,4.000000,4.000000,2.000000,4.000000,25.000000,,,,,,,,,,,,,,,,,,,,,,,,,,,,
1732081833.443402,1732081833.445986,14.000000,0.000000,4289.487305,4309.871582,4314.487305,4317.563965,4316.538574,4315.897461,4327.563965,4335.512695,4322.948730,4305.769043,4413.077148,4461.282227,4330.000000,4360.256348,1357.000000,0.000000,12.000000,,,,0.000000,2.000000,2.000000,0.000000,2.000000,2.000000,2.000000,1.000000,2.000000,4.000000,4.000000,4.000000,4.000000,2.000000,4.000000,25.000000,1.000000,16.666666,2.000000,2.000000,0.000000,2.000000,2.000000,2.000000,0.000000,2.000000,4.000000,4.000000,4.000000,4.000000,2.000000,4.000000,,,,,,,,,,,,
1732081833.451210,1732081833.453795,15.000000,0.000000,4285.641113,4306.282227,4314.615234,4314.743652,4326.410156,4315.000000,4326.282227,4334.230957,4320.384766,4303.589844,4407.692383,4459.358887,4327.436035,4357.307617,1492.000000,0.000000,12.000000,,,,0.000000,2.000000,2.000000,0.000000,2.000000,2.000000,2.000000,1.000000,2.000000,4.000000,4.000000,4.000000,4.000000,2.000000,4.000000,25.000000,,,,,,,,,,,,,,,,,,,,,,,,,,,,
1732081833.459019,1732081833.461503,16.000000,0.000000,4287.436035,4303.589844,4314.102539,4314.487305,4315.256348,4317.563965,4327.307617,4331.794922,4321.410156,4304.230957,4406.025879,4457.051270,4324.102539,4357.820313,0.000000,0.000000,12.000000,,,,0.000000,2.000000,2.000000,0.000000,2.000000,2.000000,2.000000,1.000000,2.000000,4.000000,4.000000,4.000000,4.000000,2.000000,4.000000,25.000000,,,,,,,,,,,,,,,,,4.000000,0.000000,0.633814,0.388672,-0.589905,0.315002,0.977170,0.120132,-0.001953,-76.025970,64.321846,30.962807
1732081833.466827,1732081833.469311,17.000000,0.000000,4289.743652,4305.897461,4315.128418,4316.282227,4311.153809,4315.256348,4328.974121,4332.692383,4321.922852,4302.948730,4409.615234,4453.589844,4325.641113,4359.743652,0.000000,0.000000,12.000000,,,,0.000000,2.000000,2.000000,0.000000,2.000000,2.000000,2.000000,1.000000,2.000000,4.000000,4.000000,4.000000,4.000000,2.000000,4.000000,25.000000,,,,,,,,,,,,,,,,,,,,,,,,,,,,
1732081833.474635,1732081833.476919,18.000000,0.000000,4288.846191,4308.589844,4312.820313,4314.487305,4328.205078,4312.948730,4327.307617,4335.641113,4322.179688,4301.025879,4408.589844,4454.358887,4325.512695,4357.051270,0.000000,0.000000,12.000000,,,,0.000000,2.000000,2.000000,0.000000,2.000000,2.000000,2.000000,1.000000,2.000000,4.000000,4.000000,4.000000,4.000000,2.000000,4.000000,25.000000,,,,,,,,,,,,,,,,,,,,,,,,,,,,
1732081833.482443,1732081833.484728,19.000000,0.000000,4286.666504,4308.333496,4311.794922,4313.077148,4331.153809,4318.205078,4327.307617,4336.666504,4323.461426,4305.128418,4406.153809,4460.000000,4321.025879,4353.461426,0.000000,0.000000,12.000000,,,,0.000000,2.000000,2.000000,0.000000,2.000000,2.000000,2.000000,1.000000,2.000000,4.000000,4.000000,4.000000,4.000000,2.000000,4.000000,25.000000,,,,,,,,,,,,,,,,,,,,,,,,,,,,
1732081833.490252,1732081833.492636,20.000000,0.000000,4289.230957,4307.563965,4314.743652,4314.615234,4311.794922,4321.025879,4327.051270,4336.410156,4323.846191,4311.410156,4409.487305,4463.461426,4323.589844,4358.461426,0.000000,0.000000,12.000000,,,,0.000000,2.000000,2.000000,0.000000,2.000000,2.000000,2.000000,1.000000,2.000000,4.000000,4.000000,4.000000,4.000000,2.000000,4.000000,25.000000,,,,,,,,,,,,,,,,,5.000000,0.000000,0.633123,0.389038,-0.590210,0.315369,0.978147,0.122574,-0.003907,-76.361031,64.369026,30.983206
1732081833.498060,1732081833.500444,21.000000,0.000000,4290.641113,4308.077148,4317.820313,4316.025879,4307.563965,4316.410156,4327.051270,4336.025879,4322.820313,4307.692383,4407.179688,4460.641113,4327.820313,4364.743652,0.000000,0.000000,12.000000,,,,0.000000,2.000000,2.000000,0.000000,2.000000,2.000000,2.000000,1.000000,2.000000,4.000000,4.000000,4.000000,4.000000,2.000000,4.000000,25.000000,,,,,,,,,,,,,,,,,,,,,,,,,,,,
1732081833.505868,1732081833.508452,22.000000,0.000000,4284.743652,4309.102539,4314.487305,4313.077148,4317.307617,4315.000000,4328.333496,4335.000000,4320.128418,4298.974121,4397.948730,4458.461426,4318.974121,4361.410156,0.000000,0.000000,12.000000,,,,0.000000,2.000000,2.000000,0.000000,2.000000,2.000000,2.000000,1.000000,2.000000,4.000000,4.000000,4.000000,4.000000,2.000000,4.000000,25.000000,,,,,,,,,,,,,,,,,,,,,,,,,,,,
1732081833.513677,1732081833.516260,23.000000,0.000000,4282.692383,4304.102539,4310.897461,4307.051270,4317.820313,4321.794922,4328.589844,4334.615234,4319.743652,4297.820313,4394.615234,4465.384766,4309.102539,4351.922852,0.000000,0.000000,12.000000,,,,0.000000,2.000000,2.000000,0.000000,2.000000,2.000000,2.000000,1.000000,2.000000,4.000000,4.000000,4.000000,4.000000,2.000000,4.000000,25.000000,,,,,,,,,,,,,,,,,,,,,,,,,,,,
1732081833.521485,1732081833.524168,24.000000,0.000000,4284.230957,4297.436035,4310.128418,4304.102539,4322.307617,4321.153809,4327.307617,4336.282227,4318.717773,4297.307617,4394.871582,4473.589844,4311.025879,4347.051270,0.000000,0.000000,12.000000,,,,0.000000,2.000000,2.000000,0.000000,2.000000,2.000000,2.000000,1.000000,2.000000,4.000000,4.000000,4.000000,4.000000,2.000000,4.000000,25.000000,,,,,,,,,,,,,,,,,6.000000,0.000000,0.631910,0.389709,-0.590576,0.316284,0.964473,0.112318,-0.002442,-76.499107,64.407242,31.033064
1732081833.529293,1732081833.531977,25.000000,0.000000,4282.051270,4297.820313,4310.769043,4307.436035,4323.333496,4314.358887,4327.307617,4335.128418,4317.563965,4297.563965,4394.615234,4478.077148,4317.179688,4350.128418,0.000000,0.000000,12.000000,,,,0.000000,2.000000,2.000000,0.000000,2.000000,2.000000,2.000000,1.000000,2.000000,4.000000,4.000000,4.000000,4.000000,2.000000,4.000000,25.000000,,,,,,,,,,,,,,,,,,,,,,,,,,,,
1732081833.537101,1732081833.539985,26.000000,0.000000,4286.538574,4300.128418,4313.077148,4312.436035,4307.436035,4312.307617,4328.589844,4334.102539,4321.025879,4305.641113,4401.794922,4483.333496,4321.282227,4357.692383,0.000000,0.000000,12.000000,,,,0.000000,2.000000,2.000000,0.000000,2.000000,2.000000,2.000000,1.000000,2.000000,4.000000,4.000000,4.000000,4.000000,2.000000,4.000000,25.000000,,,,,,,,,,,,,,,,,,,,,,,,,,,,
1732081833.544910,1732081833.547793,27.000000,0.000000,4295.897461,4301.410156,4314.358887,4313.461426,4305.769043,4312.436035,4326.282227,4334.743652,4321.153809,4310.256348,4412.179688,4487.051270,4325.769043,4365.128418,0.000000,0.000000,12.000000,,,,0.000000,2.000000,2.000000,0.000000,2.000000,2.000000,2.000000,1.000000,2.000000,4.000000,4.000000,4.000000,4.000000,2.000000,4.000000,25.000000,,,,,,,,,,,,,,,,,,,,,,,,,,,,
1732081833.552718,1732081833.555501,28.000000,0.000000,4290.256348,4298.717773,4312.179688,4311.794922,4315.000000,4312.692383,4326.025879,4333.846191,4315.897461,4305.512695,4409.102539,4483.589844,4323.205078,4366.025879,0.000000,0.000000,12.000000,,,,0.000000,2.000000,2.000000,0.000000,2.000000,2.000000,2.000000,1.000000,2.000000,4.000000,4.000000,4.000000,4.000000,2.000000,4.000000,25.000000,,,,,,,,,,,,,,,,,7.000000,0.000000,0.631572,0.389832,-0.590759,0.316467,0.964473,0.112318,-0.002442,-76.364273,64.269867,30.966782
1732081833.560526,1732081833.563309,29.000000,0.000000,4280.769043,4295.384766,4312.436035,4311.666504,4309.358887,4317.563965,4326.794922,4333.846191,4317.692383,4304.615234,4403.077148,4480.769043,4320.384766,4363.077148,0.000000,0.000000,12.000000,,,,0.000000,2.000000,2.000000,0.000000,2.000000,2.000000,2.000000,1.000000,2.000000,4.000000,4.000000,4.000000,4.000000,2.000000,4.000000,25.000000,,,,,,,,,,,,,,,,,,,,,,,,,,,,
1732081833.568334,1732081833.571317,30.000000,0.000000,4285.641113,4296.666504,4316.538574,4312.051270,4313.077148,4318.205078,4325.512695,4335.000000,4323.461426,4306.282227,4406.025879,4477.563965,4327.436035,4363.717773,0.000000,0.000000,12.000000,,,,0.000000,2.000000,2.000000,0.000000,2.000000,2.000000,2.000000,1.000000,2.000000,4.000000,4.000000,4.000000,4.000000,2.000000,4.000000,25.000000,,,,,,,,,,,,,,,,,,,,,,,,,,,,
1732081833.576143,1732081833.579125,31.000000,0.000000,4290.256348,4298.333496,4317.692383,4310.769043,4325.512695,4310.769043,4325.128418,4334.358887,4321.666504,4304.615234,4407.820313,4475.384766,4330.000000,4366.153809,0.000000,0.000000,12.000000,,,,0.000000,2.000000,2.000000,0.000000,2.000000,2.000000,2.000000,1.000000,2.000000,4.000000,4.000000,4.000000,4.000000,2.000000,4.000000,25.000000,,,,,,,,,,,,,,,,,,,,,,,,,,,,
1732081833.583951,1732081833.587034,32.000000,0.000000,4288.333496,4301.153809,4316.282227,4311.794922,4316.794922,4311.538574,4326.410156,4333.205078,4320.256348,4306.025879,4405.641113,4481.538574,4322.051270,4366.794922,0.000000,0.000000,12.000000,,,,0.000000,2.000000,2.000000,0.000000,2.000000,2.000000,2.000000,1.000000,2.000000,4.000000,4.000000,4.000000,4.000000,2.000000,4.000000,25.000000,,,,,,,,,,,,,,,,,8.000000,0.000000,0.631359,0.389893,-0.590881,0.316589,0.972775,0.103528,-0.019045,-76.220062,64.188591,31.006426
1732081833.591759,1732081833.594842,33.000000,0.000000,4288.461426,4304.102539,4315.384766,4317.563965,4304.615234,4314.615234,4322.820313,4334.871582,4324.358887,4310.384766,4408.333496,4488.974121,4321.666504,4370.641113,0.000000,0.000000,12.000000,,,,0.000000,2.000000,2.000000,0.000000,2.000000,2.000000,2.000000,1.000000,2.000000,4.000000,4.000000,4.000000,4.000000,2.000000,4.000000,25.000000,,,,,,,,,,,,,,,,,,,,,,,,,,,,
