title:seven4, start timestamp:1732083541.166277, stop timestamp:1732083591.701367, headset type:EPOCX, headset serial:E5020C3A, headset firmware:730, channels:67, sampling rate:eeg_128;mot_32, samples:6473      , version:2.2, 
Timestamp,OriginalTimestamp,EEG.Counter,EEG.Interpolated,EEG.AF3,EEG.F7,EEG.F3,EEG.FC5,EEG.T7,EEG.P7,EEG.O1,EEG.O2,EEG.P8,EEG.T8,EEG.FC6,EEG.F4,EEG.F8,EEG.AF4,EEG.RawCq,EEG.Battery,EEG.BatteryPercent,MarkerIndex,MarkerType,MarkerValueInt,EEG.MarkerHardware,CQ.AF3,CQ.F7,CQ.F3,CQ.FC5,CQ.T7,CQ.P7,CQ.O1,CQ.O2,CQ.P8,CQ.T8,CQ.FC6,CQ.F4,CQ.F8,CQ.AF4,CQ.Overall,EQ.SampleRateQuality,EQ.OVERALL,EQ.AF3,EQ.F7,EQ.F3,EQ.FC5,EQ.T7,EQ.P7,EQ.O1,EQ.O2,EQ.P8,EQ.T8,EQ.FC6,EQ.F4,EQ.F8,EQ.AF4,MOT.CounterMems,MOT.InterpolatedMems,MOT.Q0,MOT.Q1,MOT.Q2,MOT.Q3,MOT.AccX,MOT.AccY,MOT.AccZ,MOT.MagX,MOT.MagY,MOT.MagZ
1732083541.166277,1732083541.167139,97.000000,0.000000,4318.589844,4274.615234,4315.897461,4321.025879,4306.282227,4297.820313,4314.743652,4331.153809,4314.230957,4303.589844,4451.666504,4471.794922,4345.256348,4406.794922,1566.000000,0.000000,6.000000,,,,0.000000,2.000000,2.000000,0.000000,2.000000,2.000000,2.000000,0.000000,2.000000,4.000000,4.000000,4.000000,4.000000,2.000000,4.000000,16.666666,,,,,,,,,,,,,,,,,,,,,,,,,,,,
1732083541.174085,1732083541.174747,98.000000,0.000000,4320.256348,4277.051270,4314.230957,4321.922852,4300.256348,4294.871582,4315.897461,4328.205078,4312.820313,4308.077148,4455.512695,4473.205078,4344.230957,4410.641113,1379.000000,0.000000,6.000000,,,,0.000000,2.000000,2.000000,0.000000,2.000000,2.000000,2.000000,0.000000,2.000000,4.000000,4.000000,4.000000,4.000000,2.000000,4.000000,16.666666,,,,,,,,,,,,,,,,,,,,,,,,,,,,
1732083541.181893,1732083541.182555,99.000000,0.000000,4318.717773,4277.563965,4315.897461,4317.692383,4301.922852,4294.102539,4317.692383,4327.179688,4316.410156,4311.282227,4457.948730,4471.538574,4350.512695,4413.333496,1518.000000,0.000000,6.000000,,,,0.000000,2.000000,2.000000,0.000000,2.000000,2.000000,2.000000,0.000000,2.000000,4.000000,4.000000,4.000000,4.000000,2.000000,4.000000,16.666666,,,,,,,,,,,,,,,,,,,,,,,,,,,,
1732083541.189701,1732083541.190264,100.000000,0.000000,4321.538574,4280.000000,4314.871582,4316.282227,4313.333496,4291.025879,4315.769043,4329.358887,4316.410156,4311.922852,4458.717773,4469.358887,4354.743652,4415.000000,1743.000000,0.000000,6.000000,,,,0.000000,2.000000,2.000000,0.000000,2.000000,2.000000,2.000000,0.000000,2.000000,4.000000,4.000000,4.000000,4.000000,2.000000,4.000000,16.666666,,,,,,,,,,,,,,,,,25.000000,0.000000,0.673880,0.404785,-0.544312,0.292847,0.990355,0.232450,0.085460,-70.771179,67.974342,34.883698
1732083541.197510,1732083541.198072,101.000000,0.000000,4320.641113,4278.717773,4313.589844,4316.282227,4304.230957,4293.846191,4314.743652,4333.461426,4313.717773,4307.179688,4453.205078,4471.153809,4346.794922,4413.717773,1566.000000,0.000000,6.000000,,,,0.000000,2.000000,2.000000,0.000000,2.000000,2.000000,2.000000,0.000000,2.000000,4.000000,4.000000,4.000000,4.000000,2.000000,4.000000,16.666666,,,,,,,,,,,,,,,,,,,,,,,,,,,,
1732083541.205318,1732083541.205680,102.000000,0.000000,4318.077148,4277.179688,4316.025879,4318.717773,4289.615234,4297.692383,4316.922852,4336.794922,4314.358887,4304.230957,4450.256348,4476.153809,4344.615234,4412.307617,1379.000000,0.000000,6.000000,,,,0.000000,2.000000,2.000000,0.000000,2.000000,2.000000,2.000000,0.000000,2.000000,4.000000,4.000000,4.000000,4.000000,2.000000,4.000000,16.666666,,,,,,,,,,,,,,,,,,,,,,,,,,,,
1732083541.213126,1732083541.213489,103.000000,0.000000,4324.871582,4282.563965,4315.512695,4324.230957,4294.743652,4294.102539,4315.512695,4335.897461,4317.820313,4308.461426,4451.922852,4476.922852,4355.256348,4417.051270,1518.000000,0.000000,6.000000,,,,0.000000,2.000000,2.000000,0.000000,2.000000,2.000000,2.000000,0.000000,2.000000,4.000000,4.000000,4.000000,4.000000,2.000000,4.000000,16.666666,,,,,,,,,,,,,,,,,,,,,,,,,,,,
1732083541.220935,1732083541.221197,104.000000,0.000000,4330.384766,4287.563965,4315.000000,4321.794922,4298.589844,4291.794922,4314.487305,4330.384766,4313.974121,4308.846191,4451.025879,4477.179688,4356.794922,4416.794922,1743.000000,0.000000,6.000000,,,,0.000000,2.000000,2.000000,0.000000,2.000000,2.000000,2.000000,0.000000,2.000000,4.000000,4.000000,4.000000,4.000000,2.000000,4.000000,16.666666,,,,,,,,,,,,,,,,,26.000000,0.000000,0.672798,0.405151,-0.544983,0.293579,0.980588,0.230009,0.074228,-70.561317,67.915878,34.874130
1732083541.228743,1732083541.229005,105.000000,0.000000,4325.897461,4285.769043,4315.512695,4317.948730,4293.205078,4293.205078,4315.512695,4327.179688,4310.641113,4307.948730,4451.153809,4479.102539,4348.589844,4410.897461,1566.000000,0.000000,6.000000,,,,0.000000,2.000000,2.000000,0.000000,2.000000,2.000000,2.000000,0.000000,2.000000,4.000000,4.000000,4.000000,4.000000,2.000000,4.000000,16.666666,,,,,,,,,,,,,,,,,,,,,,,,,,,,
1732083541.236551,1732083541.236614,106.000000,0.000000,4319.487305,4283.589844,4317.179688,4319.615234,4296.025879,4290.897461,4316.922852,4327.179688,4312.307617,4308.846191,4451.794922,4479.230957,4346.410156,4409.230957,1379.000000,0.000000,6.000000,,,,0.000000,2.000000,2.000000,0.000000,2.000000,2.000000,2.000000,0.000000,2.000000,4.000000,4.000000,4.000000,4.000000,2.000000,4.000000,16.666666,,,,,,,,,,,,,,,,,,,,,,,,,,,,
1732083541.244359,1732083541.244422,107.000000,0.000000,4320.000000,4283.974121,4316.666504,4318.846191,4295.769043,4291.666504,4316.922852,4326.282227,4311.410156,4308.077148,4449.102539,4477.820313,4347.563965,4411.922852,1518.000000,0.000000,6.000000,,,,0.000000,2.000000,2.000000,0.000000,2.000000,2.000000,2.000000,0.000000,2.000000,4.000000,4.000000,4.000000,4.000000,2.000000,4.000000,16.666666,,,,,,,,,,,,,,,,,,,,,,,,,,,,
1732083541.252168,1732083541.252130,108.000000,0.000000,4321.025879,4280.641113,4318.461426,4315.897461,4292.692383,4298.461426,4318.846191,4328.717773,4311.794922,4306.922852,4446.666504,4478.077148,4344.102539,4410.128418,1743.000000,0.000000,6.000000,,,,0.000000,2.000000,2.000000,0.000000,2.000000,2.000000,2.000000,0.000000,2.000000,4.000000,4.000000,4.000000,4.000000,2.000000,4.000000,16.666666,,,,,,,,,,,,,,,,,27.000000,0.000000,0.667704,0.407227,-0.547974,0.296753,0.943963,0.199243,0.071786,-70.413002,67.673531,34.728046
1732083541.259976,1732083541.259938,109.000000,0.000000,4318.461426,4276.794922,4316.794922,4316.538574,4306.666504,4296.922852,4317.051270,4332.563965,4317.820313,4308.333496,4449.743652,4475.769043,4341.282227,4407.051270,1566.000000,0.000000,6.000000,,,,0.000000,2.000000,2.000000,0.000000,2.000000,2.000000,2.000000,0.000000,2.000000,4.000000,4.000000,4.000000,4.000000,2.000000,4.000000,16.666666,,,,,,,,,,,,,,,,,,,,,,,,,,,,
1732083541.267784,1732083541.267547,110.000000,0.000000,4316.922852,4278.974121,4315.256348,4315.641113,4308.333496,4290.641113,4317.820313,4331.922852,4320.000000,4311.153809,4455.000000,4475.256348,4349.230957,4411.794922,1379.000000,0.000000,6.000000,,,,0.000000,2.000000,2.000000,0.000000,2.000000,2.000000,2.000000,0.000000,2.000000,4.000000,4.000000,4.000000,4.000000,2.000000,4.000000,16.666666,,,,,,,,,,,,,,,,,,,,,,,,,,,,
1732083541.275592,1732083541.275355,111.000000,0.000000,4318.974121,4283.077148,4311.794922,4315.256348,4290.128418,4292.563965,4318.205078,4330.384766,4317.563965,4311.922852,4456.666504,4476.794922,4357.179688,4415.769043,1518.000000,0.000000,6.000000,,,,0.000000,2.000000,2.000000,0.000000,2.000000,2.000000,2.000000,0.000000,2.000000,4.000000,4.000000,4.000000,4.000000,2.000000,4.000000,16.666666,,,,,,,,,,,,,,,,,,,,,,,,,,,,
1732083541.283401,1732083541.283063,112.000000,0.000000,4319.230957,4283.461426,4314.871582,4316.153809,4285.512695,4294.743652,4317.179688,4328.589844,4316.666504,4309.487305,4452.820313,4472.948730,4350.897461,4409.102539,1743.000000,0.000000,6.000000,,,,0.000000,2.000000,2.000000,0.000000,2.000000,2.000000,2.000000,0.000000,2.000000,4.000000,4.000000,4.000000,4.000000,2.000000,4.000000,16.666666,,,,,,,,,,,,,,,,,28.000000,0.000000,0.665181,0.408020,-0.549622,0.298279,0.939568,0.191430,0.075204,-70.612869,67.363892,34.548050
1732083541.291209,1732083541.290871,113.000000,0.000000,4317.179688,4282.948730,4314.871582,4312.563965,4296.538574,4292.179688,4315.256348,4325.769043,4315.512695,4308.205078,4448.974121,4468.333496,4344.871582,4404.230957,1566.000000,0.000000,6.000000,,,,0.000000,2.000000,2.000000,0.000000,2.000000,2.000000,2.000000,0.000000,2.000000,4.000000,4.000000,4.000000,4.000000,2.000000,4.000000,16.666666,,,,,,,,,,,,,,,,,,,,,,,,,,,,
1732083541.299017,1732083541.298480,114.000000,0.000000,4313.717773,4282.948730,4311.538574,4308.461426,4297.179688,4294.102539,4315.769043,4329.358887,4313.077148,4305.256348,4446.794922,4473.846191,4345.512695,4404.743652,1379.000000,0.000000,6.000000,,,,0.000000,2.000000,2.000000,0.000000,2.000000,2.000000,2.000000,0.000000,2.000000,4.000000,4.000000,4.000000,4.000000,2.000000,4.000000,16.666666,,,,,,,,,,,,,,,,,,,,,,,,,,,,
1732083541.306826,1732083541.306288,115.000000,0.000000,4313.974121,4281.153809,4311.794922,4309.358887,4293.974121,4297.436035,4316.538574,4336.025879,4313.717773,4302.051270,4446.538574,4484.230957,4345.384766,4407.948730,1518.000000,0.000000,6.000000,,,,0.000000,2.000000,2.000000,0.000000,2.000000,2.000000,2.000000,0.000000,2.000000,4.000000,4.000000,4.000000,4.000000,2.000000,4.000000,16.666666,,,,,,,,,,,,,,,,,,,,,,,,,,,,
1732083541.314634,1732083541.314196,116.000000,0.000000,4316.153809,4281.538574,4316.025879,4309.102539,4296.922852,4293.333496,4316.666504,4332.436035,4313.589844,4302.307617,4449.487305,4486.666504,4345.641113,4409.871582,1743.000000,0.000000,6.000000,,,,0.000000,2.000000,2.000000,0.000000,2.000000,2.000000,2.000000,0.000000,2.000000,4.000000,4.000000,4.000000,4.000000,2.000000,4.000000,16.666666,,,,,,,,,,,,,,,,,29.000000,0.000000,0.665181,0.408020,-0.549622,0.298279,0.971310,0.194360,0.057136,-70.804756,67.158089,34.312252
1732083541.322442,1732083541.322004,117.000000,0.000000,4312.179688,4283.077148,4314.871582,4305.897461,4295.769043,4291.794922,4315.897461,4327.692383,4312.179688,4305.256348,4450.000000,4482.820313,4346.282227,4407.179688,1566.000000,0.000000,6.000000,,,,0.000000,2.000000,2.000000,0.000000,2.000000,2.000000,2.000000,0.000000,2.000000,4.000000,4.000000,4.000000,4.000000,2.000000,4.000000,16.666666,,,,,,,,,,,,,,,,,,,,,,,,,,,,
1732083541.330250,1732083541.330012,118.000000,0.000000,4310.256348,4282.692383,4312.820313,4308.589844,4294.743652,4297.051270,4315.512695,4331.922852,4313.717773,4305.000000,4448.077148,4481.666504,4342.820313,4405.769043,1379.000000,0.000000,6.000000,,,,0.000000,2.000000,2.000000,0.000000,2.000000,2.000000,2.000000,0.000000,2.000000,4.000000,4.000000,4.000000,4.000000,2.000000,4.000000,16.666666,,,,,,,,,,,,,,,,,,,,,,,,,,,,
1732083541.338058,1732083541.337821,119.000000,0.000000,4315.897461,4285.512695,4315.512695,4315.769043,4295.641113,4297.051270,4316.025879,4333.974121,4314.615234,4302.436035,4451.153809,4486.794922,4344.358887,4411.538574,1518.000000,0.000000,6.000000,,,,0.000000,2.000000,2.000000,0.000000,2.000000,2.000000,2.000000,0.000000,2.000000,4.000000,4.000000,4.000000,4.000000,2.000000,4.000000,16.666666,,,,,,,,,,,,,,,,,,,,,,,,,,,,
1732083541.345867,1732083541.345729,120.000000,0.000000,4318.205078,4287.436035,4315.512695,4316.410156,4293.846191,4294.102539,4315.897461,4327.307617,4313.589844,4304.358887,4451.794922,4487.051270,4350.128418,4412.692383,1743.000000,0.000000,6.000000,,,,0.000000,2.000000,2.000000,0.000000,2.000000,2.000000,2.000000,0.000000,2.000000,4.000000,4.000000,4.000000,4.000000,2.000000,4.000000,16.666666,,,,,,,,,,,,,,,,,30.000000,0.000000,0.660292,0.409607,-0.553162,0.300415,0.964473,0.191430,0.063484,-71.051849,66.799721,34.166260
1732083541.353675,1732083541.353537,121.000000,0.000000,4317.051270,4286.538574,4315.000000,4313.077148,4292.563965,4294.615234,4318.333496,4326.153809,4314.358887,4312.307617,4448.461426,4484.230957,4350.512695,4407.948730,1566.000000,0.000000,6.000000,,,,0.000000,2.000000,2.000000,0.000000,2.000000,2.000000,2.000000,0.000000,2.000000,4.000000,4.000000,4.000000,4.000000,2.000000,4.000000,16.666666,,,,,,,,,,,,,,,,,,,,,,,,,,,,
1732083541.361483,1732083541.361545,122.000000,0.000000,4320.384766,4287.436035,4312.436035,4314.743652,4293.077148,4295.256348,4317.692383,4331.794922,4315.769043,4312.436035,4450.897461,4484.487305,4348.589844,4407.307617,1379.000000,0.000000,6.000000,,,,0.000000,2.000000,2.000000,0.000000,2.000000,2.000000,2.000000,0.000000,2.000000,4.000000,4.000000,4.000000,4.000000,2.000000,4.000000,16.666666,,,,,,,,,,,,,,,,,,,,,,,,,,,,
1732083541.369291,1732083541.369353,123.000000,0.000000,4319.615234,4287.820313,4312.820313,4315.897461,4290.897461,4294.102539,4315.384766,4330.000000,4312.179688,4297.692383,4444.102539,4482.307617,4340.641113,4404.102539,1518.000000,0.000000,6.000000,,,,0.000000,2.000000,2.000000,0.000000,2.000000,2.000000,2.000000,0.000000,2.000000,4.000000,4.000000,4.000000,4.000000,2.000000,4.000000,16.666666,,,,,,,,,,,,,,,,,,,,,,,,,,,,
1732083541.377100,1732083541.377261,124.000000,0.000000,4318.846191,4287.692383,4314.358887,4316.666504,4289.487305,4293.846191,4314.871582,4325.000000,4309.230957,4295.384766,4436.410156,4476.025879,4338.205078,4403.077148,1743.000000,0.000000,6.000000,,,,0.000000,2.000000,2.000000,0.000000,2.000000,2.000000,2.000000,0.000000,2.000000,4.000000,4.000000,4.000000,4.000000,2.000000,4.000000,16.666666,,,,,,,,,,,,,,,,,31.000000,0.000000,0.656636,0.409912,-0.556580,0.301697,0.959590,0.224148,0.031254,-71.293663,66.667770,34.148003
1732083541.384908,1732083541.385069,125.000000,0.000000,4326.025879,4291.666504,4318.461426,4318.461426,4296.153809,4295.128418,4316.922852,4327.179688,4313.461426,4308.974121,4445.384766,4477.948730,4349.743652,4408.717773,1566.000000,0.000000,6.000000,,,,0.000000,2.000000,2.000000,0.000000,2.000000,2.000000,2.000000,0.000000,2.000000,4.000000,4.000000,4.000000,4.000000,2.000000,4.000000,16.666666,,,,,,,,,,,,,,,,,,,,,,,,,,,,
1732083541.392716,1732083541.392678,126.000000,0.000000,4328.717773,4295.897461,4316.538574,4320.256348,4293.846191,4295.769043,4317.179688,4325.641113,4312.051270,4310.641113,4449.102539,4481.410156,4352.948730,4409.487305,1379.000000,0.000000,6.000000,,,,0.000000,2.000000,2.000000,0.000000,2.000000,2.000000,2.000000,0.000000,2.000000,4.000000,4.000000,4.000000,4.000000,2.000000,4.000000,16.666666,,,,,,,,,,,,,,,,,,,,,,,,,,,,
1732083541.400525,1732083541.400486,127.000000,0.000000,4322.820313,4293.846191,4316.153809,4321.666504,4289.743652,4292.692383,4320.512695,4317.948730,4306.025879,4301.794922,4441.025879,4479.102539,4342.948730,4405.256348,6.000000,0.000000,6.000000,,,,0.000000,2.000000,2.000000,0.000000,2.000000,2.000000,2.000000,0.000000,2.000000,4.000000,4.000000,4.000000,4.000000,2.000000,4.000000,16.666666,,,,,,,,,,,,,,,,,,,,,,,,,,,,
1732083541.408333,1732083541.408394,0.000000,0.000000,4318.077148,4289.743652,4317.692383,4318.205078,4304.230957,4292.179688,4318.333496,4323.205078,4313.461426,4303.974121,4446.153809,4479.230957,4343.205078,4404.743652,0.000000,0.000000,6.000000,,,,0.000000,2.000000,2.000000,0.000000,2.000000,2.000000,2.000000,0.000000,2.000000,4.000000,4.000000,4.000000,4.000000,2.000000,4.000000,16.666666,,,,,,,,,,,,,,,,,0.000000,0.000000,0.652041,0.410400,-0.560974,0.302856,0.936149,0.279819,-0.005372,-71.359535,66.552559,33.921551
1732083541.416141,1732083541.416202,1.000000,0.000000,4313.974121,4285.384766,4318.205078,4309.871582,4305.256348,4299.743652,4317.948730,4336.922852,4324.871582,4310.256348,4455.256348,4483.974121,4349.358887,4404.358887,1329.000000,0.000000,6.000000,,,,0.000000,2.000000,2.000000,0.000000,2.000000,2.000000,2.000000,0.000000,2.000000,4.000000,4.000000,4.000000,4.000000,2.000000,4.000000,16.666666,,,,,,,,,,,,,,,,,,,,,,,,,,,,
1732083541.423949,1732083541.424210,2.000000,0.000000,4310.897461,4286.666504,4314.743652,4313.461426,4286.922852,4305.128418,4321.025879,4338.846191,4321.410156,4307.307617,4450.000000,4485.512695,4347.436035,4402.051270,1249.000000,0.000000,6.000000,,,,0.000000,2.000000,2.000000,0.000000,2.000000,2.000000,2.000000,0.000000,2.000000,4.000000,4.000000,4.000000,4.000000,2.000000,4.000000,16.666666,,,,,,,,,,,,,,,,,,,,,,,,,,,,
1732083541.431758,1732083541.432019,3.000000,0.000000,4311.538574,4289.871582,4316.282227,4322.179688,4286.153809,4300.128418,4319.487305,4331.025879,4312.820313,4303.077148,4446.153809,4485.384766,4347.179688,4402.692383,1200.000000,0.000000,6.000000,,,,0.000000,2.000000,2.000000,0.000000,2.000000,2.000000,2.000000,0.000000,2.000000,4.000000,4.000000,4.000000,4.000000,2.000000,4.000000,16.666666,,,,,,,,,,,,,,,,,,,,,,,,,,,,
1732083541.439566,1732083541.439927,4.000000,0.000000,4312.948730,4289.487305,4317.307617,4316.025879,4297.692383,4295.384766,4314.615234,4325.641113,4311.794922,4305.128418,4448.589844,4486.794922,4349.615234,4404.743652,1217.000000,0.000000,6.000000,,,,0.000000,2.000000,2.000000,0.000000,2.000000,2.000000,2.000000,0.000000,2.000000,4.000000,4.000000,4.000000,4.000000,2.000000,4.000000,16.666666,,,,,,,,,,,,,,,,,1.000000,0.000000,0.650350,0.411072,-0.562378,0.302979,0.936149,0.279819,-0.005372,-71.924561,66.384239,33.429787
1732083541.447374,1732083541.447735,5.000000,0.000000,4310.769043,4289.102539,4317.179688,4308.077148,4293.205078,4298.205078,4317.307617,4325.256348,4311.794922,4307.692383,4447.563965,4485.641113,4349.102539,4407.692383,1082.000000,0.000000,6.000000,,,,0.000000,2.000000,2.000000,0.000000,2.000000,2.000000,2.000000,0.000000,2.000000,4.000000,4.000000,4.000000,4.000000,2.000000,4.000000,16.666666,,,,,,,,,,,,,,,,,,,,,,,,,,,,
1732083541.455182,1732083541.455743,6.000000,0.000000,4309.743652,4290.000000,4318.589844,4313.846191,4288.333496,4299.358887,4320.641113,4326.538574,4311.666504,4307.948730,4449.230957,4483.846191,4355.000000,4410.512695,0.000000,0.000000,6.000000,,,,0.000000,2.000000,2.000000,0.000000,2.000000,2.000000,2.000000,0.000000,2.000000,4.000000,4.000000,4.000000,4.000000,2.000000,4.000000,16.666666,,,,,,,,,,,,,,,,,,,,,,,,,,,,
1732083541.462991,1732083541.463551,7.000000,0.000000,4313.589844,4290.769043,4315.769043,4318.589844,4291.922852,4296.410156,4319.230957,4324.358887,4312.692383,4309.615234,4450.897461,4482.948730,4359.487305,4408.846191,1177.000000,0.000000,6.000000,,,,0.000000,2.000000,2.000000,0.000000,2.000000,2.000000,2.000000,0.000000,2.000000,4.000000,4.000000,4.000000,4.000000,2.000000,4.000000,16.666666,,,,,,,,,,,,,,,,,,,,,,,,,,,,
1732083541.470799,1732083541.471459,8.000000,0.000000,4316.666504,4291.666504,4315.256348,4313.846191,4286.025879,4295.384766,4319.871582,4319.615234,4310.641113,4310.769043,4449.743652,4482.563965,4354.871582,4409.358887,1372.000000,0.000000,6.000000,,,,0.000000,2.000000,2.000000,0.000000,2.000000,2.000000,2.000000,0.000000,2.000000,4.000000,4.000000,4.000000,4.000000,2.000000,4.000000,16.666666,,,,,,,,,,,,,,,,,2.000000,0.000000,0.642973,0.413086,-0.568298,0.304932,0.981077,0.245635,-0.003907,-72.142227,66.376236,32.909794
1732083541.478607,1732083541.479267,9.000000,0.000000,4317.436035,4293.589844,4316.538574,4314.102539,4280.641113,4295.897461,4319.615234,4320.897461,4312.563965,4311.282227,4451.794922,4483.077148,4357.179688,4417.436035,1518.000000,0.000000,6.000000,,,,0.000000,2.000000,2.000000,0.000000,2.000000,2.000000,2.000000,0.000000,2.000000,4.000000,4.000000,4.000000,4.000000,2.000000,4.000000,16.666666,,,,,,,,,,,,,,,,,,,,,,,,,,,,
1732083541.486416,1732083541.487275,10.000000,0.000000,4321.153809,4290.769043,4319.871582,4318.717773,4282.307617,4296.153809,4320.256348,4321.538574,4315.128418,4314.615234,4453.205078,4485.128418,4362.563965,4421.025879,1386.000000,0.000000,6.000000,,,,0.000000,2.000000,2.000000,0.000000,2.000000,2.000000,2.000000,0.000000,2.000000,4.000000,4.000000,4.000000,4.000000,2.000000,4.000000,16.666666,,,,,,,,,,,,,,,,,,,,,,,,,,,,
1732083541.494224,1732083541.495084,11.000000,0.000000,4328.717773,4288.589844,4317.051270,4317.436035,4280.128418,4292.179688,4316.666504,4317.179688,4309.102539,4309.487305,4451.538574,4484.102539,4356.153809,4420.000000,1518.000000,0.000000,6.000000,,,,0.000000,2.000000,2.000000,0.000000,2.000000,2.000000,2.000000,0.000000,2.000000,4.000000,4.000000,4.000000,4.000000,2.000000,4.000000,16.666666,,,,,,,,,,,,,,,,,,,,,,,,,,,,
1732083541.502032,1732083541.502992,12.000000,0.000000,4336.794922,4291.922852,4317.307617,4314.615234,4273.846191,4287.563965,4316.025879,4312.563965,4307.436035,4298.077148,4455.641113,4483.205078,4353.846191,4425.512695,1755.000000,0.000000,6.000000,,,,0.000000,2.000000,2.000000,0.000000,2.000000,2.000000,2.000000,0.000000,2.000000,4.000000,4.000000,4.000000,4.000000,2.000000,4.000000,16.666666,,,,,,,,,,,,,,,,,3.000000,0.000000,0.640789,0.412781,-0.570129,0.306519,0.961055,0.193871,-0.009767,-72.335205,66.049751,32.335266
1732083541.509840,1732083541.510800,13.000000,0.000000,4348.205078,4299.102539,4316.538574,4320.256348,4273.717773,4290.641113,4315.897461,4311.794922,4316.794922,4305.128418,4466.025879,4487.179688,4367.563965,4439.102539,1573.000000,0.000000,6.000000,,,,0.000000,2.000000,2.000000,0.000000,2.000000,2.000000,2.000000,0.000000,2.000000,4.000000,4.000000,4.000000,4.000000,2.000000,4.000000,16.666666,,,,,,,,,,,,,,,,,,,,,,,,,,,,
1732083541.517649,1732083541.518808,14.000000,0.000000,4357.051270,4301.410156,4317.820313,4323.589844,4275.769043,4295.384766,4317.563965,4313.333496,4318.589844,4315.384766,4466.922852,4488.846191,4370.512695,4445.000000,1386.000000,0.000000,6.000000,,,,0.000000,2.000000,2.000000,0.000000,2.000000,2.000000,2.000000,0.000000,2.000000,4.000000,4.000000,4.000000,4.000000,2.000000,4.000000,16.666666,1.000000,16.666666,2.000000,2.000000,0.000000,2.000000,2.000000,2.000000,0.000000,2.000000,4.000000,4.000000,4.000000,4.000000,2.000000,4.000000,,,,,,,,,,,,
1732083541.525457,1732083541.526616,15.000000,0.000000,4365.128418,4301.922852,4314.358887,4318.077148,4271.794922,4288.717773,4316.282227,4307.179688,4308.846191,4306.153809,4464.487305,4482.563965,4361.025879,4445.769043,1518.000000,0.000000,6.000000,,,,0.000000,2.000000,2.000000,0.000000,2.000000,2.000000,2.000000,0.000000,2.000000,4.000000,4.000000,4.000000,4.000000,2.000000,4.000000,16.666666,,,,,,,,,,,,,,,,,,,,,,,,,,,,
1732083541.533265,1732083541.534324,16.000000,0.000000,4378.077148,4308.077148,4312.563965,4320.128418,4269.743652,4282.563965,4315.897461,4294.871582,4301.282227,4297.051270,4468.205078,4481.666504,4366.538574,4453.205078,0.000000,0.000000,6.000000,,,,0.000000,2.000000,2.000000,0.000000,2.000000,2.000000,2.000000,0.000000,2.000000,4.000000,4.000000,4.000000,4.000000,2.000000,4.000000,16.666666,,,,,,,,,,,,,,,,,4.000000,0.000000,0.638543,0.411987,-0.572266,0.308289,0.961055,0.193871,-0.009767,-72.569847,65.705299,32.081566
1732083541.541073,1732083541.542133,17.000000,0.000000,4387.692383,4310.384766,4311.666504,4330.384766,4272.307617,4287.051270,4314.871582,4291.410156,4303.717773,4303.717773,4472.307617,4487.692383,4380.769043,4463.205078,0.000000,0.000000,6.000000,,,,0.000000,2.000000,2.000000,0.000000,2.000000,2.000000,2.000000,0.000000,2.000000,4.000000,4.000000,4.000000,4.000000,2.000000,4.000000,16.666666,,,,,,,,,,,,,,,,,,,,,,,,,,,,
1732083541.548882,1732083541.550141,18.000000,0.000000,4392.307617,4306.794922,4308.846191,4334.487305,4270.384766,4283.589844,4307.820313,4289.102539,4306.410156,4304.487305,4475.641113,4488.974121,4382.820313,4469.487305,0.000000,0.000000,6.000000,,,,0.000000,2.000000,2.000000,0.000000,2.000000,2.000000,2.000000,0.000000,2.000000,4.000000,4.000000,4.000000,4.000000,2.000000,4.000000,16.666666,,,,,,,,,,,,,,,,,,,,,,,,,,,,
1732083541.556690,1732083541.557949,19.000000,0.000000,4397.820313,4311.282227,4308.974121,4334.230957,4267.307617,4274.871582,4300.769043,4280.897461,4304.230957,4297.692383,4475.000000,4491.410156,4376.794922,4471.410156,0.000000,0.000000,6.000000,,,,0.000000,2.000000,2.000000,0.000000,2.000000,2.000000,2.000000,0.000000,2.000000,4.000000,4.000000,4.000000,4.000000,2.000000,4.000000,16.666666,,,,,,,,,,,,,,,,,,,,,,,,,,,,
1732083541.564498,1732083541.565857,20.000000,0.000000,4403.589844,4322.948730,4306.153809,4339.102539,4269.487305,4275.256348,4302.692383,4279.487305,4303.846191,4300.897461,4476.410156,4497.563965,4381.153809,4477.051270,0.000000,0.000000,6.000000,,,,0.000000,2.000000,2.000000,0.000000,2.000000,2.000000,2.000000,0.000000,2.000000,4.000000,4.000000,4.000000,4.000000,2.000000,4.000000,16.666666,,,,,,,,,,,,,,,,,5.000000,0.000000,0.628864,0.405029,-0.582214,0.318604,0.934684,0.122574,0.024417,-73.031578,65.254623,31.369402
1732083541.572307,1732083541.573665,21.000000,0.000000,4407.436035,4324.743652,4307.692383,4343.077148,4272.563965,4278.333496,4306.025879,4283.205078,4308.717773,4301.153809,4481.666504,4496.922852,4389.358887,4484.358887,0.000000,0.000000,6.000000,,,,0.000000,2.000000,2.000000,0.000000,2.000000,2.000000,2.000000,0.000000,2.000000,4.000000,4.000000,4.000000,4.000000,2.000000,4.000000,16.666666,,,,,,,,,,,,,,,,,,,,,,,,,,,,
1732083541.580115,1732083541.581274,22.000000,0.000000,4408.846191,4324.102539,4308.846191,4342.563965,4278.589844,4279.743652,4302.179688,4281.282227,4307.307617,4292.948730,4481.025879,4491.410156,4386.666504,4482.563965,0.000000,0.000000,6.000000,,,,0.000000,2.000000,2.000000,0.000000,2.000000,2.000000,2.000000,0.000000,2.000000,4.000000,4.000000,4.000000,4.000000,2.000000,4.000000,16.666666,,,,,,,,,,,,,,,,,,,,,,,,,,,,
1732083541.587923,1732083541.589082,23.000000,0.000000,4404.615234,4326.666504,4313.846191,4342.307617,4282.692383,4277.820313,4303.974121,4280.256348,4300.897461,4288.589844,4477.692383,4493.846191,4383.461426,4479.358887,0.000000,0.000000,6.000000,,,,0.000000,2.000000,2.000000,0.000000,2.000000,2.000000,2.000000,0.000000,2.000000,4.000000,4.000000,4.000000,4.000000,2.000000,4.000000,16.666666,,,,,,,,,,,,,,,,,,,,,,,,,,,,
1732083541.595731,1732083541.596790,24.000000,0.000000,4401.282227,4323.717773,4310.897461,4339.871582,4277.307617,4278.717773,4311.538574,4279.743652,4299.358887,4289.871582,4480.897461,4497.179688,4390.897461,4484.615234,0.000000,0.000000,6.000000,,,,0.000000,2.000000,2.000000,0.000000,2.000000,2.000000,2.000000,0.000000,2.000000,4.000000,4.000000,4.000000,4.000000,2.000000,4.000000,16.666666,,,,,,,,,,,,,,,,,6.000000,0.000000,0.622312,0.398438,-0.589294,0.326660,0.953730,0.076181,0.013674,-73.305580,64.772911,30.875883
1732083541.603539,1732083541.604598,25.000000,0.000000,4402.051270,4322.307617,4314.358887,4334.871582,4281.282227,4279.743652,4312.436035,4276.538574,4300.384766,4293.461426,4479.358887,4499.615234,4394.487305,4487.179688,0.000000,0.000000,6.000000,,,,0.000000,2.000000,2.000000,0.000000,2.000000,2.000000,2.000000,0.000000,2.000000,4.000000,4.000000,4.000000,4.000000,2.000000,4.000000,16.666666,,,,,,,,,,,,,,,,,,,,,,,,,,,,
1732083541.611348,1732083541.612207,26.000000,0.000000,4404.615234,4327.307617,4315.128418,4335.384766,4295.641113,4274.358887,4308.589844,4282.051270,4303.589844,4299.230957,4480.384766,4501.153809,4392.436035,4485.384766,0.000000,0.000000,6.000000,,,,0.000000,2.000000,2.000000,0.000000,2.000000,2.000000,2.000000,0.000000,2.000000,4.000000,4.000000,4.000000,4.000000,2.000000,4.000000,16.666666,,,,,,,,,,,,,,,,,,,,,,,,,,,,
1732083541.619156,1732083541.620015,27.000000,0.000000,4408.333496,4329.358887,4315.897461,4338.717773,4285.641113,4269.230957,4309.487305,4281.025879,4305.769043,4297.051270,4490.000000,4501.666504,4399.487305,4490.769043,0.000000,0.000000,6.000000,,,,0.000000,2.000000,2.000000,0.000000,2.000000,2.000000,2.000000,0.000000,2.000000,4.000000,4.000000,4.000000,4.000000,2.000000,4.000000,16.666666,,,,,,,,,,,,,,,,,,,,,,,,,,,,
1732083541.626964,1732083541.627723,28.000000,0.000000,4409.743652,4333.077148,4315.000000,4342.307617,4269.487305,4274.487305,4309.358887,4266.794922,4305.384766,4294.230957,4493.077148,4501.794922,4408.333496,4495.256348,0.000000,0.000000,6.000000,,,,0.000000,2.000000,2.000000,0.000000,2.000000,2.000000,2.000000,0.000000,2.000000,4.000000,4.000000,4.000000,4.000000,2.000000,4.000000,16.666666,,,,,,,,,,,,,,,,,7.000000,0.000000,0.622312,0.398438,-0.589294,0.326660,0.948358,0.048346,0.016604,-73.542519,64.187729,30.521132
1732083541.634772,1732083541.635531,29.000000,0.000000,4406.410156,4337.820313,4316.153809,4341.282227,4279.487305,4281.282227,4311.025879,4270.256348,4305.256348,4301.410156,4488.846191,4501.025879,4406.153809,4491.666504,0.000000,0.000000,6.000000,,,,0.000000,2.000000,2.000000,0.000000,2.000000,2.000000,2.000000,0.000000,2.000000,4.000000,4.000000,4.000000,4.000000,2.000000,4.000000,16.666666,,,,,,,,,,,,,,,,,,,,,,,,,,,,
1732083541.642581,1732083541.643140,30.000000,0.000000,4407.179688,4336.666504,4314.358887,4338.333496,4289.871582,4277.307617,4310.000000,4282.307617,4307.051270,4307.563965,4489.230957,4505.128418,4402.179688,4489.743652,0.000000,0.000000,6.000000,,,,0.000000,2.000000,2.000000,0.000000,2.000000,2.000000,2.000000,0.000000,2.000000,4.000000,4.000000,4.000000,4.000000,2.000000,4.000000,16.666666,,,,,,,,,,,,,,,,,,,,,,,,,,,,
1732083541.650389,1732083541.650948,31.000000,0.000000,4408.589844,4336.538574,4315.769043,4338.077148,4285.769043,4272.820313,4310.641113,4273.846191,4307.051270,4302.179688,4491.153809,4517.051270,4405.641113,4491.153809,0.000000,0.000000,6.000000,,,,0.000000,2.000000,2.000000,0.000000,2.000000,2.000000,2.000000,0.000000,2.000000,4.000000,4.000000,4.000000,4.000000,2.000000,4.000000,16.666666,,,,,,,,,,,,,,,,,,,,,,,,,,,,
1732083541.658197,1732083541.658856,32.000000,0.000000,4406.666504,4340.128418,4321.025879,4340.897461,4290.512695,4271.538574,4313.461426,4262.307617,4300.769043,4294.743652,4489.358887,4525.897461,4409.487305,4495.000000,0.000000,0.000000,6.000000,,,,0.000000,2.000000,2.000000,0.000000,2.000000,2.000000,2.000000,0.000000,2.000000,4.000000,4.000000,4.000000,4.000000,2.000000,4.000000,16.666666,,,,,,,,,,,,,,,,,8.000000,0.000000,0.616832,0.393005,-0.594849,0.333496,0.950311,0.062019,-0.000977,-73.882774,63.487057,30.168783
1732083541.666005,1732083541.666664,33.000000,0.000000,4404.102539,4340.384766,4320.512695,4341.666504,4292.948730,4270.256348,4313.461426,4264.487305,4296.794922,4292.948730,4490.256348,4522.307617,4408.077148,4499.487305,0.000000,0.000000,6.000000,,,,0.000000,2.000000,2.000000,0.000000,2.000000,2.000000,2.000000,0.000000,2.000000,4.000000,4.000000,4.000000,4.000000,2.000000,4.000000,16.666666,,,,,,,,,,,,,,,,,,,,,,,,,,,,
1732083541.673814,1732083541.674672,34.000000,0.000000,4401.410156,4340.000000,4322.436035,4340.000000,4286.153809,4273.717773,4310.897461,4266.922852,4300.256348,4292.563965,4492.179688,4523.717773,4404.615234,4495.769043,0.000000,0.000000,6.000000,,,,0.000000,2.000000,2.000000,0.000000,2.000000,2.000000,2.000000,0.000000,2.000000,4.000000,4.000000,4.000000,4.000000,2.000000,4.000000,16.666666,,,,,,,,,,,,,,,,,,,,,,,,,,,,
1732083541.681622,1732083541.682481,35.000000,0.000000,4399.615234,4340.256348,4323.717773,4338.974121,4299.743652,4275.128418,4313.333496,4266.282227,4303.077148,4289.871582,4492.436035,4526.794922,4402.051270,4487.948730,0.000000,0.000000,6.000000,,,,0.000000,2.000000,2.000000,0.000000,2.000000,2.000000,2.000000,0.000000,2.000000,4.000000,4.000000,4.000000,4.000000,2.000000,4.000000,16.666666,,,,,,,,,,,,,,,,,,,,,,,,,,,,
1732083541.689430,1732083541.690189,36.000000,0.000000,4396.538574,4337.948730,4323.846191,4336.025879,4308.846191,4273.717773,4315.641113,4266.538574,4298.077148,4291.025879,4487.051270,4521.025879,4399.743652,4486.025879,0.000000,0.000000,6.000000,,,,0.000000,2.000000,2.000000,0.000000,2.000000,2.000000,2.000000,0.000000,2.000000,4.000000,4.000000,4.000000,4.000000,2.000000,4.000000,16.666666,,,,,,,,,,,,,,,,,9.000000,0.000000,0.610406,0.390198,-0.599609,0.340027,0.999145,0.053717,-0.020999,-74.488380,62.589516,29.723381
1732083541.697239,1732083541.697997,37.000000,0.000000,4395.128418,4339.871582,4320.000000,4337.820313,4288.589844,4277.948730,4312.820313,4264.102539,4295.512695,4299.871582,4486.153809,4515.512695,4404.358887,4489.871582,0.000000,0.000000,6.000000,,,,0.000000,2.000000,2.000000,0.000000,2.000000,2.000000,2.000000,0.000000,2.000000,4.000000,4.000000,4.000000,4.000000,2.000000,4.000000,16.666666,,,,,,,,,,,,,,,,,,,,,,,,,,,,
1732083541.705047,1732083541.705606,38.000000,0.000000,4398.077148,4343.461426,4326.025879,4340.897461,4276.410156,4282.051270,4314.615234,4264.743652,4301.922852,4302.179688,4497.820313,4516.794922,4413.589844,4495.000000,0.000000,0.000000,6.000000,,,,0.000000,2.000000,2.000000,0.000000,2.000000,2.000000,2.000000,0.000000,2.000000,4.000000,4.000000,4.000000,4.000000,2.000000,4.000000,16.666666,,,,,,,,,,,,,,,,,,,,,,,,,,,,
1732083541.712855,1732083541.713414,39.000000,0.000000,4397.563965,4338.461426,4326.153809,4337.948730,4288.717773,4280.512695,4317.820313,4267.051270,4307.820313,4303.205078,4502.563965,4513.717773,4413.717773,4494.871582,0.000000,0.000000,6.000000,,,,0.000000,2.000000,2.000000,0.000000,2.000000,2.000000,2.000000,0.000000,2.000000,4.000000,4.000000,4.000000,4.000000,2.000000,4.000000,16.666666,,,,,,,,,,,,,,,,,,,,,,,,,,,,
1732083541.720663,1732083541.721122,40.000000,0.000000,4391.153809,4332.051270,4325.384766,4332.051270,4290.256348,4276.666504,4319.102539,4264.358887,4302.692383,4309.743652,4495.512695,4512.307617,4409.102539,4491.282227,0.000000,0.000000,6.000000,,,,0.000000,2.000000,2.000000,0.000000,2.000000,2.000000,2.000000,0.000000,2.000000,4.000000,4.000000,4.000000,4.000000,2.000000,4.000000,16.666666,,,,,,,,,,,,,,,,,10.000000,0.000000,0.606338,0.389343,-0.602478,0.343201,0.990844,0.042974,-0.009767,-75.085587,61.774174,29.499271
1732083541.728472,1732083541.728930,41.000000,0.000000,4391.282227,4335.769043,4326.282227,4331.538574,4278.205078,4277.692383,4318.461426,4263.333496,4300.256348,4313.589844,4491.794922,4511.922852,4409.871582,4490.256348,0.000000,0.000000,6.000000,,,,0.000000,2.000000,2.000000,0.000000,2.000000,2.000000,2.000000,0.000000,2.000000,4.000000,4.000000,4.000000,4.000000,2.000000,4.000000,16.666666,,,,,,,,,,,,,,,,,,,,,,,,,,,,
1732083541.736280,1732083541.736938,42.000000,0.000000,4390.384766,4335.000000,4329.102539,4330.769043,4276.025879,4279.358887,4319.487305,4267.820313,4307.307617,4315.000000,4494.615234,4508.846191,4407.436035,4486.153809,0.000000,0.000000,6.000000,,,,0.000000,2.000000,2.000000,0.000000,2.000000,2.000000,2.000000,0.000000,2.000000,4.000000,4.000000,4.000000,4.000000,2.000000,4.000000,16.666666,,,,,,,,,,,,,,,,,,,,,,,,,,,,
1732083541.744088,1732083541.744746,43.000000,0.000000,4383.846191,4325.384766,4327.692383,4326.153809,4295.000000,4280.256348,4319.871582,4268.974121,4308.461426,4315.000000,4495.256348,4505.256348,4399.487305,4479.615234,0.000000,0.000000,6.000000,,,,0.000000,2.000000,2.000000,0.000000,2.000000,2.000000,2.000000,0.000000,2.000000,4.000000,4.000000,4.000000,4.000000,2.000000,4.000000,16.666666,,,,,,,,,,,,,,,,,,,,,,,,,,,,
1732083541.751897,1732083541.752655,44.000000,0.000000,4383.333496,4324.743652,4326.282227,4325.897461,4306.025879,4277.692383,4319.743652,4265.256348,4304.230957,4314.102539,4490.897461,4503.077148,4400.000000,4475.256348,0.000000,0.000000,6.000000,,,,0.000000,2.000000,2.000000,0.000000,2.000000,2.000000,2.000000,0.000000,2.000000,4.000000,4.000000,4.000000,4.000000,2.000000,4.000000,16.666666,,,,,,,,,,,,,,,,,11.000000,0.000000,0.604412,0.388733,-0.604004,0.344604,0.952265,0.048834,-0.031254,-75.622658,60.983749,28.969410
1732083541.759705,1732083541.760463,45.000000,0.000000,4385.256348,4330.769043,4323.717773,4331.922852,4286.410156,4280.384766,4317.948730,4267.820313,4310.512695,4316.282227,4490.128418,4502.563965,4406.538574,4474.615234,0.000000,0.000000,6.000000,,,,0.000000,2.000000,2.000000,0.000000,2.000000,2.000000,2.000000,0.000000,2.000000,4.000000,4.000000,4.000000,4.000000,2.000000,4.000000,16.666666,,,,,,,,,,,,,,,,,,,,,,,,,,,,
1732083541.767513,1732083541.768471,46.000000,0.000000,4382.563965,4328.205078,4323.077148,4336.025879,4274.487305,4290.769043,4320.897461,4280.128418,4317.692383,4316.666504,4492.948730,4504.102539,4405.128418,4475.641113,0.000000,0.000000,6.000000,,,,0.000000,2.000000,2.000000,0.000000,2.000000,2.000000,2.000000,0.000000,2.000000,4.000000,4.000000,4.000000,4.000000,2.000000,4.000000,16.666666,,,,,,,,,,,,,,,,,,,,,,,,,,,,
1732083541.775321,1732083541.776279,47.000000,0.000000,4383.333496,4328.205078,4327.948730,4336.538574,4289.871582,4287.179688,4320.897461,4281.922852,4313.205078,4308.974121,4492.179688,4505.000000,4403.974121,4476.794922,0.000000,0.000000,6.000000,,,,0.000000,2.000000,2.000000,0.000000,2.000000,2.000000,2.000000,0.000000,2.000000,4.000000,4.000000,4.000000,4.000000,2.000000,4.000000,16.666666,,,,,,,,,,,,,,,,,,,,,,,,,,,,
1732083541.783130,1732083541.784187,48.000000,0.000000,4383.589844,4332.051270,4330.128418,4335.000000,4296.538574,4280.384766,4317.563965,4267.948730,4308.205078,4305.769043,4488.974121,4503.717773,4405.897461,4475.384766,0.000000,0.000000,6.000000,,,,0.000000,2.000000,2.000000,0.000000,2.000000,2.000000,2.000000,0.000000,2.000000,4.000000,4.000000,4.000000,4.000000,2.000000,4.000000,16.666666,,,,,,,,,,,,,,,,,12.000000,0.000000,0.600703,0.388428,-0.606567,0.346924,0.964473,0.081553,-0.068856,-75.536018,60.195171,28.563555
1732083541.790938,1732083541.791995,49.000000,0.000000,4381.410156,4329.358887,4328.077148,4334.615234,4289.102539,4289.487305,4316.153809,4263.333496,4307.692383,4311.666504,4490.256348,4505.128418,4402.820313,4473.974121,0.000000,0.000000,6.000000,,,,0.000000,2.000000,2.000000,0.000000,2.000000,2.000000,2.000000,0.000000,2.000000,4.000000,4.000000,4.000000,4.000000,2.000000,4.000000,16.666666,,,,,,,,,,,,,,,,,,,,,,,,,,,,
1732083541.798746,1732083541.799604,50.000000,0.000000,4382.179688,4326.025879,4325.256348,4333.461426,4288.846191,4293.846191,4318.077148,4274.743652,4307.820313,4311.153809,4492.948730,4505.512695,4403.077148,4477.692383,0.000000,0.000000,6.000000,,,,0.000000,2.000000,2.000000,0.000000,2.000000,2.000000,2.000000,0.000000,2.000000,4.000000,4.000000,4.000000,4.000000,2.000000,4.000000,16.666666,,,,,,,,,,,,,,,,,,,,,,,,,,,,
1732083541.806554,1732083541.807412,51.000000,0.000000,4379.358887,4327.436035,4326.025879,4330.769043,4287.820313,4290.384766,4320.000000,4282.436035,4311.922852,4307.563965,4491.794922,4508.077148,4404.615234,4478.717773,0.000000,0.000000,6.000000,,,,0.000000,2.000000,2.000000,0.000000,2.000000,2.000000,2.000000,0.000000,2.000000,4.000000,4.000000,4.000000,4.000000,2.000000,4.000000,16.666666,,,,,,,,,,,,,,,,,,,,,,,,,,,,
1732083541.814363,1732083541.815320,52.000000,0.000000,4373.846191,4330.512695,4324.743652,4332.563965,4293.461426,4291.794922,4319.871582,4278.461426,4314.743652,4311.666504,4491.538574,4508.717773,4398.205078,4475.384766,0.000000,0.000000,6.000000,,,,0.000000,2.000000,2.000000,0.000000,2.000000,2.000000,2.000000,0.000000,2.000000,4.000000,4.000000,4.000000,4.000000,2.000000,4.000000,16.666666,,,,,,,,,,,,,,,,,13.000000,0.000000,0.592919,0.387268,-0.612305,0.351501,1.009401,0.028324,-0.068368,-76.217506,59.584755,28.251480
1732083541.822171,1732083541.823128,53.000000,0.000000,4373.461426,4329.743652,4326.153809,4336.410156,4307.179688,4289.102539,4316.922852,4274.230957,4307.692383,4315.512695,4489.871582,4505.128418,4395.000000,4474.615234,0.000000,0.000000,6.000000,,,,0.000000,2.000000,2.000000,0.000000,2.000000,2.000000,2.000000,0.000000,2.000000,4.000000,4.000000,4.000000,4.000000,2.000000,4.000000,16.666666,,,,,,,,,,,,,,,,,,,,,,,,,,,,
1732083541.829979,1732083541.831136,54.000000,0.000000,4371.666504,4324.871582,4327.563965,4333.974121,4296.922852,4288.461426,4317.692383,4277.563965,4308.846191,4318.333496,4489.358887,4505.769043,4402.948730,4478.461426,0.000000,0.000000,6.000000,,,,0.000000,2.000000,2.000000,0.000000,2.000000,2.000000,2.000000,0.000000,2.000000,4.000000,4.000000,4.000000,4.000000,2.000000,4.000000,16.666666,,,,,,,,,,,,,,,,,,,,,,,,,,,,
1732083541.837788,1732083541.838944,55.000000,0.000000,4365.384766,4322.563965,4328.205078,4328.974121,4277.563965,4295.512695,4324.871582,4282.563965,4322.436035,4326.153809,4493.333496,4510.000000,4401.794922,4478.846191,0.000000,0.000000,6.000000,,,,0.000000,2.000000,2.000000,0.000000,2.000000,2.000000,2.000000,0.000000,2.000000,4.000000,4.000000,4.000000,4.000000,2.000000,4.000000,16.666666,,,,,,,,,,,,,,,,,,,,,,,,,,,,
1732083541.845596,1732083541.846853,56.000000,0.000000,4364.230957,4323.846191,4327.051270,4330.000000,4284.230957,4294.102539,4323.333496,4280.769043,4320.641113,4326.025879,4491.282227,4508.974121,4396.410156,4475.897461,0.000000,0.000000,6.000000,,,,0.000000,2.000000,2.000000,0.000000,2.000000,2.000000,2.000000,0.000000,2.000000,4.000000,4.000000,4.000000,4.000000,2.000000,4.000000,16.666666,,,,,,,,,,,,,,,,,14.000000,0.000000,0.590750,0.386475,-0.613953,0.353149,1.009401,0.028324,-0.068368,-76.721184,58.813652,27.897032
1732083541.853404,1732083541.854661,57.000000,0.000000,4362.307617,4322.307617,4330.641113,4332.563965,4298.717773,4290.512695,4317.948730,4277.179688,4309.102539,4316.794922,4485.256348,4504.871582,4398.589844,4475.256348,0.000000,0.000000,6.000000,,,,0.000000,2.000000,2.000000,0.000000,2.000000,2.000000,2.000000,0.000000,2.000000,4.000000,4.000000,4.000000,4.000000,2.000000,4.000000,16.666666,,,,,,,,,,,,,,,,,,,,,,,,,,,,
1732083541.861212,1732083541.862669,58.000000,0.000000,4355.128418,4319.230957,4332.820313,4331.025879,4297.179688,4297.563965,4317.563965,4279.487305,4312.179688,4316.153809,4480.512695,4504.102539,4400.000000,4470.641113,0.000000,0.000000,6.000000,,,,0.000000,2.000000,2.000000,0.000000,2.000000,2.000000,2.000000,0.000000,2.000000,4.000000,4.000000,4.000000,4.000000,2.000000,4.000000,16.666666,,,,,,,,,,,,,,,,,,,,,,,,,,,,
1732083541.869021,1732083541.870477,59.000000,0.000000,4352.051270,4320.384766,4331.025879,4328.589844,4293.589844,4296.922852,4319.102539,4278.461426,4318.717773,4320.000000,4480.384766,4504.743652,4397.179688,4464.230957,0.000000,0.000000,6.000000,,,,0.000000,2.000000,2.000000,0.000000,2.000000,2.000000,2.000000,0.000000,2.000000,4.000000,4.000000,4.000000,4.000000,2.000000,4.000000,16.666666,,,,,,,,,,,,,,,,,,,,,,,,,,,,
1732083541.876829,1732083541.878385,60.000000,0.000000,4352.820313,4322.436035,4330.000000,4332.051270,4297.948730,4295.000000,4318.846191,4275.897461,4320.128418,4318.846191,4482.436035,4504.743652,4394.487305,4462.948730,0.000000,0.000000,6.000000,,,,0.000000,2.000000,2.000000,0.000000,2.000000,2.000000,2.000000,0.000000,2.000000,4.000000,4.000000,4.000000,4.000000,2.000000,4.000000,16.666666,,,,,,,,,,,,,,,,,15.000000,0.000000,0.586380,0.384216,-0.617432,0.356812,0.974728,0.000488,-0.074228,-76.937492,58.207390,27.528263
1732083541.884637,1732083541.886193,61.000000,0.000000,4351.410156,4321.922852,4332.820313,4335.384766,4300.897461,4304.102539,4323.974121,4278.846191,4319.102539,4320.512695,4484.743652,4505.128418,4397.820313,4463.974121,0.000000,0.000000,6.000000,,,,0.000000,2.000000,2.000000,0.000000,2.000000,2.000000,2.000000,0.000000,2.000000,4.000000,4.000000,4.000000,4.000000,2.000000,4.000000,16.666666,,,,,,,,,,,,,,,,,,,,,,,,,,,,
1732083541.892445,1732083541.893802,62.000000,0.000000,4349.743652,4320.000000,4333.717773,4328.461426,4310.512695,4302.820313,4323.205078,4279.615234,4314.487305,4318.589844,4485.384766,4504.102539,4399.871582,4460.256348,0.000000,0.000000,6.000000,,,,0.000000,2.000000,2.000000,0.000000,2.000000,2.000000,2.000000,0.000000,2.000000,4.000000,4.000000,4.000000,4.000000,2.000000,4.000000,16.666666,,,,,,,,,,,,,,,,,,,,,,,,,,,,
1732083541.900253,1732083541.901610,63.000000,0.000000,4352.051270,4321.153809,4333.461426,4328.333496,4311.153809,4285.641113,4318.205078,4275.897461,4308.974121,4308.461426,4483.461426,4504.743652,4398.846191,4459.743652,0.000000,0.000000,6.000000,,,,0.000000,2.000000,2.000000,0.000000,2.000000,2.000000,2.000000,0.000000,2.000000,4.000000,4.000000,4.000000,4.000000,2.000000,4.000000,16.666666,,,,,,,,,,,,,,,,,,,,,,,,,,,,
1732083541.908062,1732083541.909318,64.000000,0.000000,4357.179688,4327.436035,4334.102539,4340.256348,4296.538574,4279.615234,4317.563965,4272.307617,4311.025879,4308.846191,4487.563965,4506.282227,4405.128418,4468.974121,0.000000,0.000000,6.000000,,,,0.000000,2.000000,2.000000,0.000000,2.000000,2.000000,2.000000,0.000000,2.000000,4.000000,4.000000,4.000000,4.000000,2.000000,4.000000,16.666666,,,,,,,,,,,,,,,,,16.000000,0.000000,0.579471,0.379211,-0.624207,0.361633,0.998169,-0.035649,-0.072763,-77.112701,57.716320,27.312893
1732083541.915870,1732083541.917126,65.000000,0.000000,4356.410156,4331.410156,4334.230957,4340.641113,4290.897461,4290.641113,4320.897461,4275.897461,4316.410156,4318.077148,4489.102539,4507.436035,4407.307617,4471.282227,1319.000000,0.000000,6.000000,,,,0.000000,2.000000,2.000000,0.000000,2.000000,2.000000,2.000000,0.000000,2.000000,4.000000,4.000000,4.000000,4.000000,2.000000,4.000000,16.666666,,,,,,,,,,,,,,,,,,,,,,,,,,,,
1732083541.923678,1732083541.924735,66.000000,0.000000,4347.179688,4325.512695,4333.717773,4330.769043,4298.077148,4300.128418,4321.538574,4283.205078,4315.641113,4313.846191,4479.615234,4506.794922,4398.205078,4459.358887,1237.000000,0.000000,6.000000,,,,0.000000,2.000000,2.000000,0.000000,2.000000,2.000000,2.000000,0.000000,2.000000,4.000000,4.000000,4.000000,4.000000,2.000000,4.000000,16.666666,,,,,,,,,,,,,,,,,,,,,,,,,,,,
1732083541.931486,1732083541.932543,67.000000,0.000000,4341.538574,4317.948730,4333.846191,4330.897461,4299.871582,4302.436035,4322.436035,4282.948730,4309.102539,4305.769043,4472.948730,4498.589844,4394.615234,4453.461426,1194.000000,0.000000,6.000000,,,,0.000000,2.000000,2.000000,0.000000,2.000000,2.000000,2.000000,0.000000,2.000000,4.000000,4.000000,4.000000,4.000000,2.000000,4.000000,16.666666,,,,,,,,,,,,,,,,,,,,,,,,,,,,
1732083541.939295,1732083541.940251,68.000000,0.000000,4343.205078,4314.615234,4337.692383,4332.820313,4303.974121,4303.974121,4320.897461,4277.051270,4306.538574,4308.205078,4475.000000,4496.410156,4395.641113,4460.256348,1224.000000,0.000000,6.000000,,,,0.000000,2.000000,2.000000,0.000000,2.000000,2.000000,2.000000,0.000000,2.000000,4.000000,4.000000,4.000000,4.000000,2.000000,4.000000,16.666666,,,,,,,,,,,,,,,,,17.000000,0.000000,0.574683,0.375305,-0.629517,0.364136,0.944940,-0.044439,-0.089366,-77.394623,57.018551,27.130110
1732083541.947103,1732083541.948060,69.000000,0.000000,4341.922852,4315.897461,4335.256348,4331.794922,4320.512695,4301.153809,4318.589844,4279.230957,4311.794922,4307.436035,4472.436035,4501.282227,4385.641113,4455.128418,1080.000000,0.000000,6.000000,,,,0.000000,2.000000,2.000000,0.000000,2.000000,2.000000,2.000000,0.000000,2.000000,4.000000,4.000000,4.000000,4.000000,2.000000,4.000000,16.666666,,,,,,,,,,,,,,,,,,,,,,,,,,,,
1732083541.954911,1732083541.955668,70.000000,0.000000,4345.641113,4316.153809,4330.512695,4334.871582,4317.436035,4294.230957,4320.512695,4289.615234,4316.666504,4307.436035,4471.538574,4504.358887,4388.205078,4449.487305,0.000000,0.000000,6.000000,,,,0.000000,2.000000,2.000000,0.000000,2.000000,2.000000,2.000000,0.000000,2.000000,4.000000,4.000000,4.000000,4.000000,2.000000,4.000000,16.666666,,,,,,,,,,,,,,,,,,,,,,,,,,,,
1732083541.962720,1732083541.963476,71.000000,0.000000,4357.436035,4318.717773,4330.512695,4341.282227,4291.410156,4293.589844,4321.025879,4292.307617,4318.974121,4322.179688,4489.358887,4512.692383,4408.974121,4468.974121,1177.000000,0.000000,6.000000,,,,0.000000,2.000000,2.000000,0.000000,2.000000,2.000000,2.000000,0.000000,2.000000,4.000000,4.000000,4.000000,4.000000,2.000000,4.000000,16.666666,,,,,,,,,,,,,,,,,,,,,,,,,,,,
1732083541.970528,1732083541.971185,72.000000,0.000000,4359.230957,4323.205078,4333.846191,4347.051270,4291.666504,4296.538574,4319.102539,4284.487305,4314.615234,4323.333496,4499.102539,4526.666504,4412.051270,4480.128418,1374.000000,0.000000,6.000000,,,,0.000000,2.000000,2.000000,0.000000,2.000000,2.000000,2.000000,0.000000,2.000000,4.000000,4.000000,4.000000,4.000000,2.000000,4.000000,16.666666,,,,,,,,,,,,,,,,,18.000000,0.000000,0.573268,0.373840,-0.631287,0.364807,0.933708,-0.044927,-0.083506,-77.636307,56.350029,26.598722
1732083541.978336,1732083541.978993,73.000000,0.000000,4355.384766,4326.153809,4331.282227,4349.487305,4320.897461,4296.153809,4319.871582,4278.077148,4311.410156,4310.128418,4491.282227,4521.922852,4397.436035,4464.871582,1514.000000,0.000000,6.000000,,,,0.000000,2.000000,2.000000,0.000000,2.000000,2.000000,2.000000,0.000000,2.000000,4.000000,4.000000,4.000000,4.000000,2.000000,4.000000,16.666666,,,,,,,,,,,,,,,,,,,,,,,,,,,,
1732083541.986144,1732083541.987001,74.000000,0.000000,4355.512695,4326.538574,4333.205078,4345.641113,4321.153809,4295.512695,4322.820313,4284.230957,4321.410156,4318.974121,4488.717773,4507.692383,4397.692383,4454.871582,1381.000000,0.000000,6.000000,,,,0.000000,2.000000,2.000000,0.000000,2.000000,2.000000,2.000000,0.000000,2.000000,4.000000,4.000000,4.000000,4.000000,2.000000,4.000000,16.666666,,,,,,,,,,,,,,,,,,,,,,,,,,,,
1732083541.993953,1732083541.994809,75.000000,0.000000,4355.000000,4325.128418,4335.769043,4341.282227,4293.077148,4296.153809,4318.846191,4286.666504,4321.153809,4329.230957,4494.615234,4513.846191,4409.487305,4461.538574,1518.000000,0.000000,6.000000,,,,0.000000,2.000000,2.000000,0.000000,2.000000,2.000000,2.000000,0.000000,2.000000,4.000000,4.000000,4.000000,4.000000,2.000000,4.000000,16.666666,,,,,,,,,,,,,,,,,,,,,,,,,,,,
1732083542.001761,1732083542.002517,76.000000,0.000000,4352.948730,4324.102539,4334.102539,4339.102539,4291.410156,4294.487305,4315.256348,4279.871582,4310.000000,4311.153809,4491.282227,4521.410156,4404.102539,4464.230957,1745.000000,0.000000,6.000000,,,,0.000000,2.000000,2.000000,0.000000,2.000000,2.000000,2.000000,0.000000,2.000000,4.000000,4.000000,4.000000,4.000000,2.000000,4.000000,16.666666,,,,,,,,,,,,,,,,,19.000000,0.000000,0.567432,0.370422,-0.636780,0.367859,0.969845,-0.033696,-0.116713,-78.020409,55.868523,26.074965
1732083542.009569,1732083542.010325,77.000000,0.000000,4350.897461,4322.820313,4333.589844,4333.846191,4307.051270,4291.538574,4316.922852,4285.000000,4318.589844,4306.153809,4481.153809,4513.846191,4391.410156,4458.333496,1566.000000,0.000000,6.000000,,,,0.000000,2.000000,2.000000,0.000000,2.000000,2.000000,2.000000,0.000000,2.000000,4.000000,4.000000,4.000000,4.000000,2.000000,4.000000,16.666666,,,,,,,,,,,,,,,,,,,,,,,,,,,,
1732083542.017378,1732083542.017934,78.000000,0.000000,4344.230957,4320.384766,4335.769043,4331.410156,4312.051270,4298.974121,4322.820313,4294.230957,4325.641113,4315.897461,4475.128418,4504.230957,4385.384766,4446.922852,1381.000000,0.000000,6.000000,,,,0.000000,2.000000,2.000000,0.000000,2.000000,2.000000,2.000000,0.000000,2.000000,4.000000,4.000000,4.000000,4.000000,2.000000,4.000000,16.666666,1.000000,16.666666,2.000000,2.000000,0.000000,2.000000,2.000000,2.000000,0.000000,2.000000,3.000000,4.000000,4.000000,4.000000,2.000000,4.000000,,,,,,,,,,,,
1732083542.025186,1732083542.025742,79.000000,0.000000,4336.538574,4322.820313,4335.512695,4338.974121,4308.717773,4310.384766,4323.333496,4299.358887,4313.333496,4309.102539,4471.794922,4504.358887,4378.333496,4436.153809,1518.000000,0.000000,6.000000,,,,0.000000,2.000000,2.000000,0.000000,2.000000,2.000000,2.000000,0.000000,2.000000,4.000000,4.000000,4.000000,4.000000,2.000000,4.000000,16.666666,,,,,,,,,,,,,,,,,,,,,,,,,,,,
1732083542.032994,1732083542.033450,80.000000,0.000000,4336.282227,4326.282227,4332.563965,4342.179688,4302.692383,4305.384766,4321.282227,4300.641113,4315.256348,4306.922852,4475.641113,4509.102539,4376.153809,4439.743652,1745.000000,0.000000,6.000000,,,,0.000000,2.000000,2.000000,0.000000,2.000000,2.000000,2.000000,0.000000,2.000000,4.000000,4.000000,4.000000,4.000000,2.000000,4.000000,16.666666,,,,,,,,,,,,,,,,,20.000000,0.000000,0.564549,0.369385,-0.638916,0.369629,0.962031,-0.042974,-0.101575,-78.201530,55.401836,25.647388
1732083542.040802,1732083542.041259,81.000000,0.000000,4340.384766,4326.794922,4330.000000,4335.384766,4300.897461,4296.922852,4317.563965,4289.871582,4323.717773,4316.538574,4485.256348,4508.077148,4382.436035,4451.025879,1566.000000,0.000000,6.000000,,,,0.000000,2.000000,2.000000,0.000000,2.000000,2.000000,2.000000,0.000000,2.000000,4.000000,4.000000,4.000000,4.000000,2.000000,4.000000,16.666666,,,,,,,,,,,,,,,,,,,,,,,,,,,,
1732083542.048611,1732083542.048867,82.000000,0.000000,4345.641113,4327.692383,4328.205078,4335.256348,4303.717773,4297.307617,4313.461426,4280.769043,4317.051270,4316.538574,4490.897461,4505.384766,4385.384766,4453.717773,1381.000000,0.000000,6.000000,,,,0.000000,2.000000,2.000000,0.000000,2.000000,2.000000,2.000000,0.000000,2.000000,4.000000,4.000000,4.000000,4.000000,2.000000,4.000000,16.666666,,,,,,,,,,,,,,,,,,,,,,,,,,,,
1732083542.056419,1732083542.056675,83.000000,0.000000,4347.051270,4328.589844,4329.487305,4337.692383,4299.487305,4296.666504,4311.666504,4287.307617,4315.769043,4318.333496,4490.256348,4506.410156,4387.307617,4454.871582,1518.000000,0.000000,6.000000,,,,0.000000,2.000000,2.000000,0.000000,2.000000,2.000000,2.000000,0.000000,2.000000,4.000000,4.000000,4.000000,4.000000,2.000000,4.000000,16.666666,,,,,,,,,,,,,,,,,,,,,,,,,,,,
1732083542.064227,1732083542.064583,84.000000,0.000000,4339.102539,4325.000000,4326.794922,4330.384766,4297.436035,4303.717773,4315.128418,4298.205078,4326.025879,4326.153809,4487.820313,4503.205078,4393.205078,4456.153809,1745.000000,0.000000,6.000000,,,,0.000000,2.000000,2.000000,0.000000,2.000000,2.000000,2.000000,0.000000,2.000000,4.000000,4.000000,4.000000,4.000000,2.000000,4.000000,16.666666,,,,,,,,,,,,,,,,,21.000000,0.000000,0.563141,0.368591,-0.640015,0.370667,0.962031,-0.070321,-0.103528,-78.654907,54.520489,25.489384
1732083542.072035,1732083542.072392,85.000000,0.000000,4330.512695,4321.538574,4324.230957,4324.487305,4306.538574,4317.948730,4318.846191,4303.205078,4326.153809,4310.128418,4477.820313,4492.051270,4383.077148,4446.025879,1566.000000,0.000000,6.000000,,,,0.000000,2.000000,2.000000,0.000000,2.000000,2.000000,2.000000,0.000000,2.000000,4.000000,4.000000,4.000000,4.000000,2.000000,4.000000,16.666666,,,,,,,,,,,,,,,,,,,,,,,,,,,,
1732083542.079844,1732083542.080400,86.000000,0.000000,4329.871582,4326.410156,4324.871582,4328.589844,4312.820313,4317.692383,4318.205078,4304.230957,4317.307617,4293.846191,4463.461426,4485.128418,4369.102539,4429.871582,1381.000000,0.000000,6.000000,,,,0.000000,2.000000,2.000000,0.000000,2.000000,2.000000,2.000000,0.000000,2.000000,4.000000,4.000000,4.000000,4.000000,2.000000,4.000000,16.666666,,,,,,,,,,,,,,,,,,,,,,,,,,,,
1732083542.087652,1732083542.088208,87.000000,0.000000,4331.410156,4327.307617,4327.563965,4329.102539,4313.333496,4311.153809,4317.051270,4296.922852,4311.025879,4306.153809,4465.256348,4490.641113,4374.358887,4428.846191,1518.000000,0.000000,6.000000,,,,0.000000,2.000000,2.000000,0.000000,2.000000,2.000000,2.000000,0.000000,2.000000,4.000000,4.000000,4.000000,4.000000,2.000000,4.000000,16.666666,,,,,,,,,,,,,,,,,,,,,,,,,,,,
1732083542.095460,1732083542.095916,88.000000,0.000000,4328.333496,4319.358887,4324.871582,4324.615234,4306.282227,4311.922852,4316.794922,4292.563965,4314.871582,4316.794922,4469.102539,4496.410156,4382.563965,4436.410156,1745.000000,0.000000,6.000000,,,,0.000000,2.000000,2.000000,0.000000,2.000000,2.000000,2.000000,0.000000,2.000000,4.000000,4.000000,4.000000,4.000000,2.000000,4.000000,16.666666,,,,,,,,,,,,,,,,,22.000000,0.000000,0.560383,0.366638,-0.642029,0.373291,0.965450,-0.087901,-0.101087,-78.657143,53.914928,25.111401
1732083542.103269,1732083542.103724,89.000000,0.000000,4328.333496,4316.282227,4323.205078,4322.563965,4300.256348,4302.948730,4316.153809,4296.922852,4324.102539,4308.461426,4465.512695,4495.641113,4381.794922,4436.666504,1566.000000,0.000000,6.000000,,,,0.000000,2.000000,2.000000,0.000000,2.000000,2.000000,2.000000,0.000000,2.000000,4.000000,4.000000,4.000000,4.000000,2.000000,4.000000,16.666666,,,,,,,,,,,,,,,,,,,,,,,,,,,,
1732083542.111077,1732083542.111333,90.000000,0.000000,4332.563965,4320.641113,4325.384766,4320.128418,4309.743652,4294.358887,4313.077148,4294.102539,4322.820313,4306.666504,4470.897461,4492.692383,4382.563965,4435.128418,1381.000000,0.000000,6.000000,,,,0.000000,2.000000,2.000000,0.000000,2.000000,2.000000,2.000000,0.000000,2.000000,4.000000,4.000000,4.000000,4.000000,2.000000,4.000000,16.666666,,,,,,,,,,,,,,,,,,,,,,,,,,,,
1732083542.118885,1732083542.119141,91.000000,0.000000,4325.769043,4317.563965,4327.436035,4313.205078,4306.666504,4301.410156,4314.871582,4299.230957,4321.922852,4317.179688,4474.102539,4491.794922,4377.820313,4428.461426,1518.000000,0.000000,6.000000,,,,0.000000,2.000000,2.000000,0.000000,2.000000,2.000000,2.000000,0.000000,2.000000,4.000000,4.000000,4.000000,4.000000,2.000000,4.000000,16.666666,,,,,,,,,,,,,,,,,,,,,,,,,,,,
1732083542.126693,1732083542.126849,92.000000,0.000000,4318.333496,4308.461426,4326.666504,4312.948730,4289.743652,4312.948730,4317.179688,4311.922852,4326.666504,4312.692383,4461.922852,4493.077148,4363.589844,4422.563965,1745.000000,0.000000,6.000000,,,,0.000000,2.000000,2.000000,0.000000,2.000000,2.000000,2.000000,0.000000,2.000000,4.000000,4.000000,4.000000,4.000000,2.000000,4.000000,16.666666,,,,,,,,,,,,,,,,,23.000000,0.000000,0.554369,0.361023,-0.646729,0.379578,0.965938,-0.128434,-0.109388,-79.042282,53.051090,24.748569
1732083542.134502,1732083542.134657,93.000000,0.000000,4323.846191,4310.256348,4327.820313,4319.743652,4294.615234,4319.615234,4319.102539,4301.410156,4320.512695,4304.743652,4458.205078,4489.102539,4364.230957,4425.000000,1566.000000,0.000000,6.000000,,,,0.000000,2.000000,2.000000,0.000000,2.000000,2.000000,2.000000,0.000000,2.000000,4.000000,4.000000,4.000000,4.000000,2.000000,4.000000,16.666666,,,,,,,,,,,,,,,,,,,,,,,,,,,,
1732083542.142310,1732083542.142665,94.000000,0.000000,4323.974121,4314.743652,4328.333496,4318.077148,4310.384766,4316.922852,4318.717773,4288.974121,4317.820313,4306.794922,4460.512695,4479.487305,4370.256348,4421.153809,1381.000000,0.000000,6.000000,,,,0.000000,2.000000,2.000000,0.000000,2.000000,2.000000,2.000000,0.000000,2.000000,4.000000,4.000000,4.000000,4.000000,2.000000,4.000000,16.666666,,,,,,,,,,,,,,,,,,,,,,,,,,,,
1732083542.150118,1732083542.150474,95.000000,0.000000,4307.948730,4305.769043,4326.025879,4309.615234,4310.256348,4316.922852,4318.717773,4308.717773,4335.641113,4306.025879,4445.384766,4473.974121,4355.897461,4405.256348,1518.000000,0.000000,6.000000,,,,0.000000,2.000000,2.000000,0.000000,2.000000,2.000000,2.000000,0.000000,2.000000,4.000000,4.000000,4.000000,4.000000,2.000000,4.000000,16.666666,,,,,,,,,,,,,,,,,,,,,,,,,,,,
1732083542.157926,1732083542.158382,96.000000,0.000000,4302.563965,4297.820313,4326.794922,4310.256348,4309.871582,4323.589844,4319.615234,4319.487305,4340.000000,4302.179688,4440.000000,4474.487305,4345.256348,4399.102539,1745.000000,0.000000,6.000000,,,,0.000000,2.000000,2.000000,0.000000,2.000000,2.000000,2.000000,0.000000,2.000000,4.000000,4.000000,4.000000,4.000000,2.000000,4.000000,16.666666,,,,,,,,,,,,,,,,,24.000000,0.000000,0.550382,0.355835,-0.650513,0.383789,0.966915,-0.155292,-0.105970,-79.262581,52.269718,24.456341
1732083542.165735,1732083542.166190,97.000000,0.000000,4316.025879,4305.512695,4326.153809,4318.333496,4313.974121,4319.230957,4320.256348,4297.051270,4320.128418,4300.897461,4454.743652,4475.000000,4358.077148,4410.512695,1566.000000,0.000000,6.000000,,,,0.000000,2.000000,2.000000,0.000000,2.000000,2.000000,2.000000,0.000000,2.000000,4.000000,4.000000,4.000000,4.000000,2.000000,4.000000,16.666666,,,,,,,,,,,,,,,,,,,,,,,,,,,,
1732083542.173543,1732083542.174198,98.000000,0.000000,4326.410156,4315.256348,4325.384766,4323.589844,4305.641113,4308.717773,4317.179688,4288.461426,4317.436035,4307.436035,4463.589844,4481.794922,4379.358887,4425.897461,1381.000000,0.000000,6.000000,,,,0.000000,2.000000,2.000000,0.000000,2.000000,2.000000,2.000000,0.000000,2.000000,4.000000,4.000000,4.000000,4.000000,2.000000,4.000000,16.666666,,,,,,,,,,,,,,,,,,,,,,,,,,,,
1732083542.181351,1732083542.182006,99.000000,0.000000,4323.974121,4311.025879,4325.384766,4320.769043,4309.615234,4306.410156,4313.974121,4297.692383,4325.641113,4308.717773,4461.794922,4487.820313,4382.051270,4429.487305,1518.000000,0.000000,6.000000,,,,0.000000,2.000000,2.000000,0.000000,2.000000,2.000000,2.000000,0.000000,2.000000,4.000000,4.000000,4.000000,4.000000,2.000000,4.000000,16.666666,,,,,,,,,,,,,,,,,,,,,,,,,,,,
1732083542.189159,1732083542.189914,100.000000,0.000000,4314.487305,4300.512695,4327.179688,4310.256348,4320.769043,4303.077148,4313.846191,4297.051270,4323.333496,4306.282227,4457.820313,4485.641113,4366.282227,4417.948730,1745.000000,0.000000,6.000000,,,,0.000000,2.000000,2.000000,0.000000,2.000000,2.000000,2.000000,0.000000,2.000000,4.000000,4.000000,4.000000,4.000000,2.000000,4.000000,16.666666,,,,,,,,,,,,,,,,,25.000000,0.000000,0.549432,0.353699,-0.651794,0.384949,0.964962,-0.163594,-0.107923,-79.561028,51.553471,24.432970
1732083542.196967,1732083542.197722,101.000000,0.000000,4308.589844,4295.384766,4325.641113,4306.538574,4310.256348,4306.282227,4317.051270,4297.563965,4328.205078,4315.000000,4458.846191,4481.538574,4362.563965,4411.153809,1566.000000,0.000000,6.000000,,,,0.000000,2.000000,2.000000,0.000000,2.000000,2.000000,2.000000,0.000000,2.000000,4.000000,4.000000,4.000000,4.000000,2.000000,4.000000,16.666666,,,,,,,,,,,,,,,,,,,,,,,,,,,,
1732083542.204776,1732083542.205331,102.000000,0.000000,4312.692383,4299.871582,4326.282227,4313.205078,4300.641113,4317.307617,4319.102539,4298.589844,4332.436035,4319.358887,4462.820313,4484.743652,4375.897461,4417.051270,1381.000000,0.000000,6.000000,,,,0.000000,2.000000,2.000000,0.000000,2.000000,2.000000,2.000000,0.000000,2.000000,4.000000,4.000000,4.000000,4.000000,2.000000,4.000000,16.666666,,,,,,,,,,,,,,,,,,,,,,,,,,,,
1732083542.212584,1732083542.213139,103.000000,0.000000,4316.282227,4305.384766,4327.692383,4314.743652,4314.358887,4315.512695,4316.410156,4295.000000,4322.436035,4311.922852,4462.307617,4486.922852,4378.461426,4420.256348,1518.000000,0.000000,6.000000,,,,0.000000,2.000000,2.000000,0.000000,2.000000,2.000000,2.000000,0.000000,2.000000,4.000000,4.000000,4.000000,4.000000,2.000000,4.000000,16.666666,,,,,,,,,,,,,,,,,,,,,,,,,,,,
1732083542.220392,1732083542.221047,104.000000,0.000000,4306.538574,4299.743652,4328.974121,4309.102539,4322.563965,4313.974121,4318.333496,4308.077148,4323.974121,4308.974121,4457.051270,4483.205078,4366.153809,4412.692383,1745.000000,0.000000,6.000000,,,,0.000000,2.000000,2.000000,0.000000,2.000000,2.000000,2.000000,0.000000,2.000000,4.000000,4.000000,4.000000,4.000000,2.000000,4.000000,16.666666,,,,,,,,,,,,,,,,,26.000000,0.000000,0.547277,0.347046,-0.655762,0.387329,0.970822,-0.177756,-0.117690,-79.787766,50.696644,24.315704
1732083542.228201,1732083542.228855,105.000000,0.000000,4302.820313,4294.743652,4326.153809,4311.282227,4317.948730,4320.897461,4322.563965,4318.717773,4330.384766,4310.769043,4456.794922,4477.948730,4363.333496,4406.282227,1566.000000,0.000000,6.000000,,,,0.000000,2.000000,2.000000,0.000000,2.000000,2.000000,2.000000,0.000000,2.000000,4.000000,4.000000,4.000000,4.000000,2.000000,4.000000,16.666666,,,,,,,,,,,,,,,,,,,,,,,,,,,,
1732083542.236009,1732083542.236863,106.000000,0.000000,4310.512695,4297.051270,4324.615234,4313.974121,4320.000000,4317.948730,4321.538574,4315.128418,4329.230957,4306.538574,4458.205078,4480.512695,4366.666504,4409.358887,1381.000000,0.000000,6.000000,,,,0.000000,2.000000,2.000000,0.000000,2.000000,2.000000,2.000000,0.000000,2.000000,4.000000,4.000000,4.000000,4.000000,2.000000,4.000000,16.666666,,,,,,,,,,,,,,,,,,,,,,,,,,,,
1732083542.243817,1732083542.244672,107.000000,0.000000,4314.871582,4299.487305,4325.641113,4311.282227,4314.358887,4310.769043,4317.563965,4308.717773,4330.641113,4314.871582,4461.025879,4485.512695,4370.384766,4419.358887,1518.000000,0.000000,6.000000,,,,0.000000,2.000000,2.000000,0.000000,2.000000,2.000000,2.000000,0.000000,2.000000,4.000000,4.000000,4.000000,4.000000,2.000000,4.000000,16.666666,,,,,,,,,,,,,,,,,,,,,,,,,,,,
1732083542.251625,1732083542.252580,108.000000,0.000000,4313.077148,4302.436035,4328.461426,4314.615234,4312.948730,4309.615234,4317.051270,4298.077148,4323.205078,4322.692383,4465.384766,4482.051270,4374.358887,4420.897461,1745.000000,0.000000,6.000000,,,,0.000000,2.000000,2.000000,0.000000,2.000000,2.000000,2.000000,0.000000,2.000000,4.000000,4.000000,4.000000,4.000000,2.000000,4.000000,16.666666,,,,,,,,,,,,,,,,,27.000000,0.000000,0.545927,0.340881,-0.659424,0.388489,0.983518,-0.172384,-0.105482,-80.103088,49.884281,24.060720
1732083542.259434,1732083542.260388,109.000000,0.000000,4311.922852,4304.487305,4327.436035,4316.922852,4333.461426,4308.846191,4312.948730,4296.922852,4316.538574,4309.358887,4464.102539,4481.794922,4374.487305,4413.717773,1566.000000,0.000000,6.000000,,,,0.000000,2.000000,2.000000,0.000000,2.000000,2.000000,2.000000,0.000000,2.000000,4.000000,4.000000,4.000000,4.000000,2.000000,4.000000,16.666666,,,,,,,,,,,,,,,,,,,,,,,,,,,,
1732083542.267242,1732083542.268396,110.000000,0.000000,4311.538574,4300.769043,4323.589844,4313.974121,4330.384766,4308.589844,4314.615234,4313.205078,4329.358887,4308.205078,4464.230957,4485.000000,4373.077148,4414.358887,1381.000000,0.000000,6.000000,,,,0.000000,2.000000,2.000000,0.000000,2.000000,2.000000,2.000000,0.000000,2.000000,4.000000,4.000000,4.000000,4.000000,2.000000,4.000000,16.666666,,,,,,,,,,,,,,,,,,,,,,,,,,,,
1732083542.275050,1732083542.276204,111.000000,0.000000,4312.692383,4296.922852,4323.974121,4315.384766,4310.897461,4311.410156,4318.974121,4313.077148,4333.205078,4319.615234,4463.717773,4482.948730,4370.897461,4415.769043,1518.000000,0.000000,6.000000,,,,0.000000,2.000000,2.000000,0.000000,2.000000,2.000000,2.000000,0.000000,2.000000,4.000000,4.000000,4.000000,4.000000,2.000000,4.000000,16.666666,,,,,,,,,,,,,,,,,,,,,,,,,,,,
1732083542.282858,1732083542.283912,112.000000,0.000000,4316.025879,4298.589844,4325.769043,4317.051270,4313.589844,4317.179688,4320.384766,4297.563965,4320.512695,4321.922852,4462.692383,4481.282227,4377.307617,4416.794922,1745.000000,0.000000,6.000000,,,,0.000000,2.000000,2.000000,0.000000,2.000000,2.000000,2.000000,0.000000,2.000000,4.000000,4.000000,4.000000,4.000000,2.000000,4.000000,16.666666,,,,,,,,,,,,,,,,,28.000000,0.000000,0.545637,0.339172,-0.660400,0.388733,0.983518,-0.172384,-0.105482,-80.528503,49.301270,24.015850
1732083542.290667,1732083542.291721,113.000000,0.000000,4317.563965,4298.717773,4327.307617,4311.794922,4320.384766,4314.358887,4321.794922,4299.487305,4321.025879,4323.205078,4467.948730,4484.871582,4387.307617,4423.077148,1566.000000,0.000000,6.000000,,,,0.000000,2.000000,2.000000,0.000000,2.000000,2.000000,2.000000,0.000000,2.000000,4.000000,4.000000,4.000000,4.000000,2.000000,4.000000,16.666666,,,,,,,,,,,,,,,,,,,,,,,,,,,,
1732083542.298475,1732083542.299329,114.000000,0.000000,4316.025879,4297.948730,4327.179688,4312.563965,4318.589844,4301.922852,4321.794922,4308.846191,4325.897461,4324.615234,4472.179688,4484.230957,4382.307617,4422.436035,1381.000000,0.000000,6.000000,,,,0.000000,2.000000,2.000000,0.000000,2.000000,2.000000,2.000000,0.000000,2.000000,4.000000,4.000000,4.000000,4.000000,2.000000,4.000000,16.666666,,,,,,,,,,,,,,,,,,,,,,,,,,,,
1732083542.306283,1732083542.307137,115.000000,0.000000,4313.077148,4295.769043,4328.333496,4314.358887,4314.230957,4304.871582,4319.743652,4313.974121,4328.461426,4326.282227,4471.538574,4481.922852,4376.538574,4416.282227,1518.000000,0.000000,6.000000,,,,0.000000,2.000000,2.000000,0.000000,2.000000,2.000000,2.000000,0.000000,2.000000,4.000000,4.000000,4.000000,4.000000,2.000000,4.000000,16.666666,,,,,,,,,,,,,,,,,,,,,,,,,,,,
1732083542.314092,1732083542.314846,116.000000,0.000000,4311.282227,4292.307617,4327.307617,4312.563965,4315.000000,4314.102539,4318.846191,4316.153809,4334.487305,4330.384766,4473.846191,4484.230957,4381.666504,4416.153809,1745.000000,0.000000,6.000000,,,,0.000000,2.000000,2.000000,0.000000,2.000000,2.000000,2.000000,0.000000,2.000000,4.000000,4.000000,4.000000,4.000000,2.000000,4.000000,16.666666,,,,,,,,,,,,,,,,,29.000000,0.000000,0.545304,0.337402,-0.661438,0.388977,0.975705,-0.154316,-0.108900,-80.671417,48.647362,23.782839
1732083542.321900,1732083542.322654,117.000000,0.000000,4314.487305,4294.230957,4327.436035,4315.512695,4327.179688,4301.025879,4315.897461,4305.769043,4328.461426,4330.384766,4478.333496,4486.153809,4389.102539,4420.897461,1566.000000,0.000000,6.000000,,,,0.000000,2.000000,2.000000,0.000000,2.000000,2.000000,2.000000,0.000000,2.000000,4.000000,4.000000,4.000000,4.000000,2.000000,4.000000,16.666666,,,,,,,,,,,,,,,,,,,,,,,,,,,,
1732083542.329708,1732083542.330262,118.000000,0.000000,4315.769043,4295.128418,4323.589844,4314.871582,4328.205078,4291.794922,4314.487305,4310.256348,4329.743652,4328.589844,4477.692383,4490.256348,4388.974121,4421.153809,1381.000000,0.000000,6.000000,,,,0.000000,2.000000,2.000000,0.000000,2.000000,2.000000,2.000000,0.000000,2.000000,4.000000,4.000000,4.000000,4.000000,2.000000,4.000000,16.666666,,,,,,,,,,,,,,,,,,,,,,,,,,,,
1732083542.337516,1732083542.338070,119.000000,0.000000,4315.256348,4295.897461,4322.051270,4313.589844,4308.846191,4304.871582,4317.436035,4324.871582,4337.179688,4329.615234,4475.897461,4494.358887,4385.000000,4421.538574,1518.000000,0.000000,6.000000,,,,0.000000,2.000000,2.000000,0.000000,2.000000,2.000000,2.000000,0.000000,2.000000,4.000000,4.000000,4.000000,4.000000,2.000000,4.000000,16.666666,,,,,,,,,,,,,,,,,,,,,,,,,,,,
1732083542.345325,1732083542.345779,120.000000,0.000000,4313.461426,4295.897461,4325.000000,4315.769043,4308.461426,4311.666504,4317.307617,4314.487305,4328.717773,4327.563965,4477.051270,4490.000000,4387.948730,4422.307617,1745.000000,0.000000,6.000000,,,,0.000000,2.000000,2.000000,0.000000,2.000000,2.000000,2.000000,0.000000,2.000000,4.000000,4.000000,4.000000,4.000000,2.000000,4.000000,16.666666,,,,,,,,,,,,,,,,,30.000000,0.000000,0.543843,0.332947,-0.664246,0.390076,0.952265,-0.148944,-0.108900,-81.000519,47.966030,23.612432
1732083542.353133,1732083542.353587,121.000000,0.000000,4305.769043,4289.358887,4325.769043,4312.563965,4324.230957,4307.820313,4319.230957,4302.307617,4324.358887,4324.615234,4472.051270,4482.179688,4389.487305,4416.025879,1566.000000,0.000000,6.000000,,,,0.000000,2.000000,2.000000,0.000000,2.000000,2.000000,2.000000,0.000000,2.000000,4.000000,4.000000,4.000000,4.000000,2.000000,4.000000,16.666666,,,,,,,,,,,,,,,,,,,,,,,,,,,,
1732083542.360941,1732083542.361195,122.000000,0.000000,4304.615234,4288.333496,4325.384766,4310.897461,4318.717773,4311.410156,4321.538574,4307.436035,4331.410156,4325.641113,4462.820313,4482.563965,4382.179688,4410.897461,1381.000000,0.000000,6.000000,,,,0.000000,2.000000,2.000000,0.000000,2.000000,2.000000,2.000000,0.000000,2.000000,4.000000,4.000000,4.000000,4.000000,2.000000,4.000000,16.666666,,,,,,,,,,,,,,,,,,,,,,,,,,,,
1732083542.368750,1732083542.369004,123.000000,0.000000,4310.897461,4293.974121,4326.666504,4313.717773,4317.563965,4310.641113,4320.128418,4310.000000,4332.307617,4328.333496,4463.333496,4484.230957,4378.974121,4412.563965,1518.000000,0.000000,6.000000,,,,0.000000,2.000000,2.000000,0.000000,2.000000,2.000000,2.000000,0.000000,2.000000,4.000000,4.000000,4.000000,4.000000,2.000000,4.000000,16.666666,,,,,,,,,,,,,,,,,,,,,,,,,,,,
1732083542.376558,1732083542.376712,124.000000,0.000000,4315.512695,4296.538574,4326.410156,4310.897461,4326.666504,4297.692383,4316.538574,4309.615234,4331.666504,4332.436035,4473.077148,4486.410156,4388.077148,4416.794922,1745.000000,0.000000,6.000000,,,,0.000000,2.000000,2.000000,0.000000,2.000000,2.000000,2.000000,0.000000,2.000000,4.000000,4.000000,4.000000,4.000000,2.000000,4.000000,16.666666,,,,,,,,,,,,,,,,,31.000000,0.000000,0.543469,0.332275,-0.664673,0.390442,0.952265,-0.148944,-0.108900,-81.255417,47.272484,23.636070
1732083542.384366,1732083542.384520,125.000000,0.000000,4316.282227,4294.743652,4325.128418,4308.077148,4317.563965,4294.743652,4318.974121,4313.461426,4333.589844,4333.589844,4475.256348,4491.410156,4390.769043,4418.717773,1566.000000,0.000000,6.000000,,,,0.000000,2.000000,2.000000,0.000000,2.000000,2.000000,2.000000,0.000000,2.000000,4.000000,4.000000,4.000000,4.000000,2.000000,4.000000,16.666666,,,,,,,,,,,,,,,,,,,,,,,,,,,,
1732083542.392174,1732083542.392129,126.000000,0.000000,4311.922852,4295.000000,4327.948730,4311.410156,4307.307617,4308.077148,4319.102539,4310.641113,4330.897461,4331.025879,4474.230957,4492.179688,4387.051270,4422.563965,1381.000000,0.000000,6.000000,,,,0.000000,2.000000,2.000000,0.000000,2.000000,2.000000,2.000000,0.000000,2.000000,4.000000,4.000000,4.000000,4.000000,2.000000,4.000000,16.666666,,,,,,,,,,,,,,,,,,,,,,,,,,,,
1732083542.399983,1732083542.399937,127.000000,0.000000,4307.051270,4297.307617,4330.769043,4311.538574,4310.128418,4313.461426,4319.871582,4308.461426,4325.897461,4324.871582,4475.128418,4489.230957,4386.153809,4422.820313,6.000000,0.000000,6.000000,,,,0.000000,2.000000,2.000000,0.000000,2.000000,2.000000,2.000000,0.000000,2.000000,4.000000,4.000000,4.000000,4.000000,2.000000,4.000000,16.666666,,,,,,,,,,,,,,,,,,,,,,,,,,,,
1732083542.407791,1732083542.407645,0.000000,0.000000,4305.128418,4292.820313,4328.846191,4307.692383,4322.692383,4306.538574,4321.282227,4316.025879,4325.128418,4317.436035,4468.205078,4487.436035,4379.230957,4412.692383,0.000000,0.000000,6.000000,,,,0.000000,2.000000,2.000000,0.000000,2.000000,2.000000,2.000000,0.000000,2.000000,4.000000,4.000000,4.000000,4.000000,2.000000,4.000000,16.666666,,,,,,,,,,,,,,,,,0.000000,0.000000,0.542613,0.330688,-0.665588,0.391418,0.971798,-0.161152,-0.109877,-81.238556,47.284046,23.641884
1732083542.415599,1732083542.415453,1.000000,0.000000,4305.000000,4287.307617,4324.102539,4307.307617,4331.025879,4306.282227,4323.461426,4319.743652,4331.282227,4323.077148,4466.538574,4488.846191,4379.871582,4410.641113,1322.000000,0.000000,6.000000,,,,0.000000,2.000000,2.000000,0.000000,2.000000,2.000000,2.000000,0.000000,2.000000,4.000000,4.000000,4.000000,4.000000,2.000000,4.000000,16.666666,,,,,,,,,,,,,,,,,,,,,,,,,,,,
1732083542.423407,1732083542.423062,2.000000,0.000000,4306.922852,4291.025879,4327.179688,4313.077148,4320.128418,4313.205078,4322.563965,4320.897461,4338.333496,4334.358887,4477.307617,4495.897461,4388.333496,4418.717773,1242.000000,0.000000,6.000000,,,,0.000000,2.000000,2.000000,0.000000,2.000000,2.000000,2.000000,0.000000,2.000000,4.000000,4.000000,4.000000,4.000000,2.000000,4.000000,16.666666,,,,,,,,,,,,,,,,,,,,,,,,,,,,
1732083542.431216,1732083542.430870,3.000000,0.000000,4308.846191,4298.974121,4332.051270,4319.615234,4309.230957,4315.000000,4320.512695,4317.436035,4333.205078,4325.641113,4474.487305,4494.102539,4384.358887,4416.153809,1197.000000,0.000000,6.000000,,,,0.000000,2.000000,2.000000,0.000000,2.000000,2.000000,2.000000,0.000000,2.000000,4.000000,4.000000,4.000000,4.000000,2.000000,4.000000,16.666666,,,,,,,,,,,,,,,,,,,,,,,,,,,,
1732083542.439024,1732083542.438578,4.000000,0.000000,4308.589844,4297.820313,4328.717773,4317.307617,4316.282227,4311.410156,4320.128418,4307.820313,4323.974121,4314.487305,4459.487305,4480.384766,4374.871582,4407.436035,1219.000000,0.000000,6.000000,,,,0.000000,2.000000,2.000000,0.000000,2.000000,2.000000,2.000000,0.000000,2.000000,4.000000,4.000000,4.000000,4.000000,2.000000,4.000000,16.666666,,,,,,,,,,,,,,,,,1.000000,0.000000,0.541061,0.329285,-0.666504,0.393188,0.962031,-0.192406,-0.102063,-81.076561,46.760075,23.641592
1732083542.446832,1732083542.446386,5.000000,0.000000,4309.230957,4296.025879,4324.487305,4312.563965,4323.461426,4307.051270,4318.205078,4304.743652,4322.179688,4318.717773,4458.333496,4481.025879,4377.307617,4409.230957,1082.000000,0.000000,6.000000,,,,0.000000,2.000000,2.000000,0.000000,2.000000,2.000000,2.000000,0.000000,2.000000,4.000000,4.000000,4.000000,4.000000,2.000000,4.000000,16.666666,,,,,,,,,,,,,,,,,,,,,,,,,,,,
1732083542.454640,1732083542.454394,6.000000,0.000000,4305.512695,4296.282227,4328.077148,4310.384766,4316.282227,4306.538574,4315.641113,4312.051270,4328.333496,4323.333496,4470.897461,4494.871582,4385.512695,4416.282227,0.000000,0.000000,6.000000,,,,0.000000,2.000000,2.000000,0.000000,2.000000,2.000000,2.000000,0.000000,2.000000,4.000000,4.000000,4.000000,4.000000,2.000000,4.000000,16.666666,,,,,,,,,,,,,,,,,,,,,,,,,,,,
1732083542.462449,1732083542.462203,7.000000,0.000000,4298.589844,4293.846191,4328.717773,4309.102539,4310.512695,4310.512695,4314.487305,4310.512695,4332.307617,4322.436035,4471.410156,4490.897461,4385.256348,4414.358887,1170.000000,0.000000,6.000000,,,,0.000000,2.000000,2.000000,0.000000,2.000000,2.000000,2.000000,0.000000,2.000000,4.000000,4.000000,4.000000,4.000000,2.000000,4.000000,16.666666,,,,,,,,,,,,,,,,,,,,,,,,,,,,
1732083542.470257,1732083542.469911,8.000000,0.000000,4298.846191,4294.871582,4324.743652,4309.230957,4312.948730,4312.051270,4316.922852,4305.897461,4325.256348,4318.461426,4459.358887,4477.179688,4377.179688,4405.769043,1366.000000,0.000000,6.000000,,,,0.000000,2.000000,2.000000,0.000000,2.000000,2.000000,2.000000,0.000000,2.000000,4.000000,4.000000,4.000000,4.000000,2.000000,4.000000,16.666666,,,,,,,,,,,,,,,,,2.000000,0.000000,0.539668,0.328430,-0.667297,0.394470,0.964473,-0.185570,-0.110365,-81.208687,46.258995,23.584690
1732083542.478065,1732083542.477719,9.000000,0.000000,4297.948730,4290.897461,4326.410156,4306.538574,4326.666504,4311.922852,4321.410156,4328.461426,4329.230957,4318.589844,4457.051270,4477.563965,4371.025879,4398.461426,1511.000000,0.000000,6.000000,,,,0.000000,2.000000,2.000000,0.000000,2.000000,2.000000,2.000000,0.000000,2.000000,4.000000,4.000000,4.000000,4.000000,2.000000,4.000000,16.666666,,,,,,,,,,,,,,,,,,,,,,,,,,,,
1732083542.485873,1732083542.485727,10.000000,0.000000,4294.743652,4287.307617,4329.615234,4306.410156,4332.948730,4312.692383,4322.948730,4337.436035,4338.077148,4321.922852,4461.922852,4484.487305,4372.563965,4399.358887,1384.000000,0.000000,6.000000,,,,0.000000,2.000000,2.000000,0.000000,2.000000,2.000000,2.000000,0.000000,2.000000,4.000000,4.000000,4.000000,4.000000,2.000000,4.000000,16.666666,,,,,,,,,,,,,,,,,,,,,,,,,,,,
1732083542.493682,1732083542.493535,11.000000,0.000000,4296.666504,4293.589844,4329.102539,4312.179688,4316.666504,4314.487305,4320.641113,4318.461426,4328.589844,4321.538574,4461.025879,4483.974121,4376.538574,4405.769043,1523.000000,0.000000,6.000000,,,,0.000000,2.000000,2.000000,0.000000,2.000000,2.000000,2.000000,0.000000,2.000000,4.000000,4.000000,4.000000,4.000000,2.000000,4.000000,16.666666,,,,,,,,,,,,,,,,,,,,,,,,,,,,
1732083542.501490,1732083542.501443,12.000000,0.000000,4295.897461,4295.000000,4327.051270,4311.922852,4309.871582,4316.410156,4323.333496,4319.102539,4324.230957,4322.307617,4462.179688,4482.051270,4381.794922,4409.358887,1748.000000,0.000000,6.000000,,,,0.000000,2.000000,2.000000,0.000000,2.000000,2.000000,2.000000,0.000000,2.000000,4.000000,4.000000,4.000000,4.000000,2.000000,4.000000,16.666666,,,,,,,,,,,,,,,,,3.000000,0.000000,0.539668,0.328430,-0.667297,0.394470,0.956171,-0.186546,-0.116225,-81.300697,45.883118,23.478600
1732083542.509298,1732083542.509252,13.000000,0.000000,4295.769043,4292.692383,4328.333496,4307.307617,4317.179688,4314.615234,4320.897461,4322.436035,4332.563965,4324.358887,4465.641113,4482.179688,4382.436035,4407.948730,1578.000000,0.000000,6.000000,,,,0.000000,2.000000,2.000000,0.000000,2.000000,2.000000,2.000000,0.000000,2.000000,4.000000,4.000000,4.000000,4.000000,2.000000,4.000000,16.666666,,,,,,,,,,,,,,,,,,,,,,,,,,,,
1732083542.517106,1732083542.516860,14.000000,0.000000,4299.615234,4295.256348,4328.333496,4308.846191,4314.743652,4308.333496,4313.717773,4305.512695,4330.769043,4321.410156,4460.897461,4478.974121,4373.077148,4402.307617,1384.000000,0.000000,6.000000,,,,0.000000,2.000000,2.000000,0.000000,2.000000,2.000000,2.000000,0.000000,2.000000,4.000000,4.000000,4.000000,4.000000,2.000000,4.000000,16.666666,1.000000,16.666666,2.000000,2.000000,0.000000,2.000000,2.000000,2.000000,0.000000,2.000000,4.000000,4.000000,4.000000,4.000000,2.000000,4.000000,,,,,,,,,,,,
1732083542.524915,1732083542.524668,15.000000,0.000000,4296.794922,4298.077148,4325.512695,4311.153809,4309.871582,4302.948730,4311.922852,4306.538574,4327.820313,4320.000000,4459.487305,4480.256348,4372.948730,4402.948730,1523.000000,0.000000,6.000000,,,,0.000000,2.000000,2.000000,0.000000,2.000000,2.000000,2.000000,0.000000,2.000000,4.000000,4.000000,4.000000,4.000000,2.000000,4.000000,16.666666,,,,,,,,,,,,,,,,,,,,,,,,,,,,
1732083542.532723,1732083542.532377,16.000000,0.000000,4294.615234,4294.487305,4321.538574,4306.025879,4314.358887,4305.641113,4317.948730,4327.436035,4335.128418,4326.282227,4466.538574,4487.307617,4385.256348,4408.333496,0.000000,0.000000,6.000000,,,,0.000000,2.000000,2.000000,0.000000,2.000000,2.000000,2.000000,0.000000,2.000000,4.000000,4.000000,4.000000,4.000000,2.000000,4.000000,16.666666,,,,,,,,,,,,,,,,,4.000000,0.000000,0.538952,0.328003,-0.667725,0.395081,0.960078,-0.183128,-0.104993,-81.435234,45.768661,23.369331
1732083542.540531,1732083542.540185,17.000000,0.000000,4295.128418,4286.666504,4322.179688,4301.666504,4314.487305,4312.436035,4319.615234,4328.205078,4334.871582,4325.000000,4463.589844,4488.205078,4382.563965,4403.077148,0.000000,0.000000,6.000000,,,,0.000000,2.000000,2.000000,0.000000,2.000000,2.000000,2.000000,0.000000,2.000000,4.000000,4.000000,4.000000,4.000000,2.000000,4.000000,16.666666,,,,,,,,,,,,,,,,,,,,,,,,,,,,
1732083542.548339,1732083542.548193,18.000000,0.000000,4291.666504,4287.179688,4323.974121,4306.282227,4319.487305,4311.922852,4316.794922,4320.128418,4325.641113,4309.102539,4455.641113,4481.666504,4367.820313,4393.205078,0.000000,0.000000,6.000000,,,,0.000000,2.000000,2.000000,0.000000,2.000000,2.000000,2.000000,0.000000,2.000000,4.000000,4.000000,4.000000,4.000000,2.000000,4.000000,16.666666,,,,,,,,,,,,,,,,,,,,,,,,,,,,
1732083542.556148,1732083542.556001,19.000000,0.000000,4291.153809,4291.153809,4323.846191,4308.077148,4335.769043,4309.615234,4315.641113,4325.384766,4326.153809,4301.538574,4456.410156,4477.179688,4364.743652,4394.615234,0.000000,0.000000,6.000000,,,,0.000000,2.000000,2.000000,0.000000,2.000000,2.000000,2.000000,0.000000,2.000000,4.000000,4.000000,4.000000,4.000000,2.000000,4.000000,16.666666,,,,,,,,,,,,,,,,,,,,,,,,,,,,
1732083542.563956,1732083542.563909,20.000000,0.000000,4292.051270,4289.230957,4324.615234,4304.230957,4330.384766,4317.820313,4320.897461,4330.256348,4332.051270,4312.948730,4456.410156,4475.897461,4368.077148,4396.410156,0.000000,0.000000,6.000000,,,,0.000000,2.000000,2.000000,0.000000,2.000000,2.000000,2.000000,0.000000,2.000000,4.000000,4.000000,4.000000,4.000000,2.000000,4.000000,16.666666,,,,,,,,,,,,,,,,,5.000000,0.000000,0.537941,0.327393,-0.668152,0.396240,0.959590,-0.184593,-0.103040,-81.305870,45.327614,23.259159
1732083542.571764,1732083542.571717,21.000000,0.000000,4287.563965,4289.102539,4325.256348,4305.641113,4309.615234,4322.948730,4323.846191,4327.179688,4330.256348,4318.974121,4452.563965,4473.461426,4366.153809,4391.666504,0.000000,0.000000,6.000000,,,,0.000000,2.000000,2.000000,0.000000,2.000000,2.000000,2.000000,0.000000,2.000000,4.000000,4.000000,4.000000,4.000000,2.000000,4.000000,16.666666,,,,,,,,,,,,,,,,,,,,,,,,,,,,
1732083542.579573,1732083542.579725,22.000000,0.000000,4281.922852,4289.487305,4322.692383,4305.897461,4307.692383,4312.820313,4318.461426,4330.256348,4330.769043,4315.384766,4455.641113,4474.871582,4366.025879,4392.948730,0.000000,0.000000,6.000000,,,,0.000000,2.000000,2.000000,0.000000,2.000000,2.000000,2.000000,0.000000,2.000000,4.000000,4.000000,4.000000,4.000000,2.000000,4.000000,16.666666,,,,,,,,,,,,,,,,,,,,,,,,,,,,
1732083542.587381,1732083542.587534,23.000000,0.000000,4282.179688,4282.179688,4323.333496,4302.179688,4318.461426,4312.820313,4316.410156,4335.000000,4337.307617,4318.846191,4460.000000,4476.794922,4368.205078,4395.641113,0.000000,0.000000,6.000000,,,,0.000000,2.000000,2.000000,0.000000,2.000000,2.000000,2.000000,0.000000,2.000000,4.000000,4.000000,4.000000,4.000000,2.000000,4.000000,16.666666,,,,,,,,,,,,,,,,,,,,,,,,,,,,
1732083542.595189,1732083542.595442,24.000000,0.000000,4285.641113,4282.948730,4327.948730,4306.410156,4321.025879,4319.871582,4317.692383,4323.974121,4334.102539,4321.153809,4456.410156,4476.922852,4367.179688,4394.871582,0.000000,0.000000,6.000000,,,,0.000000,2.000000,2.000000,0.000000,2.000000,2.000000,2.000000,0.000000,2.000000,4.000000,4.000000,4.000000,4.000000,2.000000,4.000000,16.666666,,,,,,,,,,,,,,,,,6.000000,0.000000,0.537795,0.327087,-0.668274,0.396484,0.960078,-0.190453,-0.111342,-81.512756,45.487034,23.031586
1732083542.602997,1732083542.603250,25.000000,0.000000,4290.897461,4294.230957,4327.948730,4312.948730,4315.641113,4315.000000,4318.974121,4317.820313,4326.282227,4317.563965,4455.897461,4479.487305,4365.128418,4397.051270,0.000000,0.000000,6.000000,,,,0.000000,2.000000,2.000000,0.000000,2.000000,2.000000,2.000000,0.000000,2.000000,4.000000,4.000000,4.000000,4.000000,2.000000,4.000000,16.666666,,,,,,,,,,,,,,,,,,,,,,,,,,,,
1732083542.610806,1732083542.611258,26.000000,0.000000,4292.436035,4290.641113,4325.769043,4310.512695,4315.897461,4311.282227,4320.256348,4329.102539,4327.692383,4314.358887,4459.358887,4482.948730,4366.538574,4399.102539,0.000000,0.000000,6.000000,,,,0.000000,2.000000,2.000000,0.000000,2.000000,2.000000,2.000000,0.000000,2.000000,4.000000,4.000000,4.000000,4.000000,2.000000,4.000000,16.666666,,,,,,,,,,,,,,,,,,,,,,,,,,,,
1732083542.618614,1732083542.619066,27.000000,0.000000,4287.436035,4280.128418,4324.230957,4309.358887,4328.333496,4314.743652,4320.641113,4329.358887,4326.666504,4305.384766,4453.333496,4481.666504,4366.666504,4391.922852,0.000000,0.000000,6.000000,,,,0.000000,2.000000,2.000000,0.000000,2.000000,2.000000,2.000000,0.000000,2.000000,4.000000,4.000000,4.000000,4.000000,2.000000,4.000000,16.666666,,,,,,,,,,,,,,,,,,,,,,,,,,,,
1732083542.626422,1732083542.626974,28.000000,0.000000,4286.282227,4282.051270,4322.820313,4309.871582,4331.153809,4311.282227,4316.410156,4322.820313,4324.358887,4302.820313,4447.948730,4478.974121,4363.974121,4387.948730,0.000000,0.000000,6.000000,,,,0.000000,2.000000,2.000000,0.000000,2.000000,2.000000,2.000000,0.000000,2.000000,4.000000,4.000000,4.000000,4.000000,2.000000,4.000000,16.666666,,,,,,,,,,,,,,,,,7.000000,0.000000,0.537795,0.327087,-0.668274,0.396484,0.959101,-0.182639,-0.099622,-81.605331,45.616165,22.772251
1732083542.634231,1732083542.634782,29.000000,0.000000,4289.743652,4288.461426,4321.282227,4308.717773,4312.051270,4309.615234,4318.589844,4325.512695,4325.384766,4318.205078,4454.615234,4480.000000,4366.282227,4396.794922,0.000000,0.000000,6.000000,,,,0.000000,2.000000,2.000000,0.000000,2.000000,2.000000,2.000000,0.000000,2.000000,4.000000,4.000000,4.000000,4.000000,2.000000,4.000000,16.666666,,,,,,,,,,,,,,,,,,,,,,,,,,,,
1732083542.642039,1732083542.642790,30.000000,0.000000,4293.205078,4293.461426,4321.282227,4310.384766,4304.487305,4315.512695,4321.153809,4327.692383,4323.717773,4325.000000,4461.538574,4483.333496,4370.384766,4403.461426,0.000000,0.000000,6.000000,,,,0.000000,2.000000,2.000000,0.000000,2.000000,2.000000,2.000000,0.000000,2.000000,4.000000,4.000000,4.000000,4.000000,2.000000,4.000000,16.666666,,,,,,,,,,,,,,,,,,,,,,,,,,,,
1732083542.649847,1732083542.650599,31.000000,0.000000,4297.692383,4295.897461,4322.692383,4311.410156,4316.538574,4316.025879,4319.102539,4328.589844,4326.153809,4316.666504,4460.256348,4485.897461,4368.589844,4400.384766,0.000000,0.000000,6.000000,,,,0.000000,2.000000,2.000000,0.000000,2.000000,2.000000,2.000000,0.000000,2.000000,4.000000,4.000000,4.000000,4.000000,2.000000,4.000000,16.666666,,,,,,,,,,,,,,,,,,,,,,,,,,,,
1732083542.657655,1732083542.658507,32.000000,0.000000,4299.102539,4289.102539,4325.384766,4311.153809,4316.025879,4310.128418,4316.025879,4330.256348,4332.820313,4316.794922,4460.641113,4487.051270,4365.897461,4400.769043,0.000000,0.000000,6.000000,,,,0.000000,2.000000,2.000000,0.000000,2.000000,2.000000,2.000000,0.000000,2.000000,4.000000,4.000000,4.000000,4.000000,2.000000,4.000000,16.666666,,,,,,,,,,,,,,,,,8.000000,0.000000,0.537876,0.326538,-0.668152,0.397034,0.968380,-0.182151,-0.112807,-81.648651,45.182426,22.902189
1732083542.665464,1732083542.666315,33.000000,0.000000,4290.384766,4280.256348,4326.025879,4308.077148,4313.589844,4314.102539,4320.641113,4342.179688,4336.922852,4322.179688,4464.871582,4487.179688,4366.538574,4404.358887,0.000000,0.000000,6.000000,,,,0.000000,2.000000,2.000000,0.000000,2.000000,2.000000,2.000000,0.000000,2.000000,4.000000,4.000000,4.000000,4.000000,2.000000,4.000000,16.666666,,,,,,,,,,,,,,,,,,,,,,,,,,,,
1732083542.673272,1732083542.674223,34.000000,0.000000,4288.461426,4283.461426,4323.461426,4308.717773,4319.487305,4324.102539,4325.384766,4348.717773,4336.282227,4318.717773,4469.871582,4490.128418,4368.333496,4399.615234,0.000000,0.000000,6.000000,,,,0.000000,2.000000,2.000000,0.000000,2.000000,2.000000,2.000000,0.000000,2.000000,4.000000,4.000000,4.000000,4.000000,2.000000,4.000000,16.666666,,,,,,,,,,,,,,,,,,,,,,,,,,,,
1732083542.681080,1732083542.682031,35.000000,0.000000,4295.769043,4286.794922,4321.922852,4313.077148,4318.077148,4318.589844,4321.538574,4327.820313,4329.102539,4315.384766,4470.769043,4484.615234,4369.743652,4395.769043,0.000000,0.000000,6.000000,,,,0.000000,2.000000,2.000000,0.000000,2.000000,2.000000,2.000000,0.000000,2.000000,4.000000,4.000000,4.000000,4.000000,2.000000,4.000000,16.666666,,,,,,,,,,,,,,,,,,,,,,,,,,,,
1732083542.688888,1732083542.689740,36.000000,0.000000,4286.282227,4280.897461,4321.794922,4304.871582,4324.487305,4304.230957,4314.615234,4313.205078,4322.436035,4314.615234,4460.256348,4471.025879,4365.128418,4394.615234,0.000000,0.000000,6.000000,,,,0.000000,2.000000,2.000000,0.000000,2.000000,2.000000,2.000000,0.000000,2.000000,4.000000,4.000000,4.000000,4.000000,2.000000,4.000000,16.666666,,,,,,,,,,,,,,,,,9.000000,0.000000,0.538181,0.326538,-0.667725,0.397339,0.961055,-0.190453,-0.103040,-81.633743,44.997765,22.940773
1732083542.696697,1732083542.697548,37.000000,0.000000,4276.282227,4278.717773,4322.948730,4295.128418,4326.922852,4308.846191,4315.000000,4324.743652,4323.846191,4306.922852,4449.230957,4464.615234,4356.794922,4387.179688,0.000000,0.000000,6.000000,,,,0.000000,2.000000,2.000000,0.000000,2.000000,2.000000,2.000000,0.000000,2.000000,4.000000,4.000000,4.000000,4.000000,2.000000,4.000000,16.666666,,,,,,,,,,,,,,,,,,,,,,,,,,,,
1732083542.704505,1732083542.705156,38.000000,0.000000,4284.743652,4284.230957,4324.615234,4303.461426,4311.282227,4318.589844,4319.102539,4330.641113,4324.615234,4299.487305,4447.051270,4465.128418,4354.358887,4383.461426,0.000000,0.000000,6.000000,,,,0.000000,2.000000,2.000000,0.000000,2.000000,2.000000,2.000000,0.000000,2.000000,4.000000,4.000000,4.000000,4.000000,2.000000,4.000000,16.666666,,,,,,,,,,,,,,,,,,,,,,,,,,,,
1732083542.712313,1732083542.712964,39.000000,0.000000,4295.384766,4289.615234,4325.128418,4313.846191,4303.205078,4312.563965,4317.692383,4321.666504,4320.512695,4306.538574,4450.897461,4468.974121,4357.563965,4391.922852,0.000000,0.000000,6.000000,,,,0.000000,2.000000,2.000000,0.000000,2.000000,2.000000,2.000000,0.000000,2.000000,4.000000,4.000000,4.000000,4.000000,2.000000,4.000000,16.666666,,,,,,,,,,,,,,,,,,,,,,,,,,,,
1732083542.720121,1732083542.720673,40.000000,0.000000,4294.871582,4295.000000,4323.717773,4312.179688,4313.461426,4306.410156,4316.025879,4318.717773,4321.025879,4314.871582,4456.410156,4476.153809,4361.794922,4398.717773,0.000000,0.000000,6.000000,,,,0.000000,2.000000,2.000000,0.000000,2.000000,2.000000,2.000000,0.000000,2.000000,4.000000,4.000000,4.000000,4.000000,2.000000,4.000000,16.666666,,,,,,,,,,,,,,,,,10.000000,0.000000,0.538279,0.326477,-0.667603,0.397461,0.967403,-0.191430,-0.103040,-81.735001,44.839855,22.825359
1732083542.727930,1732083542.728481,41.000000,0.000000,4294.743652,4297.820313,4324.358887,4312.051270,4317.179688,4308.333496,4317.051270,4325.000000,4324.871582,4312.051270,4461.794922,4483.205078,4365.256348,4398.717773,0.000000,0.000000,6.000000,,,,0.000000,2.000000,2.000000,0.000000,2.000000,2.000000,2.000000,0.000000,2.000000,4.000000,4.000000,4.000000,4.000000,2.000000,4.000000,16.666666,,,,,,,,,,,,,,,,,,,,,,,,,,,,
1732083542.735738,1732083542.736089,42.000000,0.000000,4297.820313,4295.128418,4327.307617,4313.846191,4307.820313,4309.743652,4318.846191,4336.282227,4327.179688,4311.153809,4466.410156,4487.563965,4367.436035,4400.512695,0.000000,0.000000,6.000000,,,,0.000000,2.000000,2.000000,0.000000,2.000000,2.000000,2.000000,0.000000,2.000000,4.000000,4.000000,4.000000,4.000000,2.000000,4.000000,16.666666,,,,,,,,,,,,,,,,,,,,,,,,,,,,
1732083542.743546,1732083542.743897,43.000000,0.000000,4297.179688,4292.563965,4329.102539,4311.282227,4313.974121,4309.102539,4316.922852,4338.077148,4329.230957,4315.000000,4466.025879,4489.615234,4365.512695,4400.000000,0.000000,0.000000,6.000000,,,,0.000000,2.000000,2.000000,0.000000,2.000000,2.000000,2.000000,0.000000,2.000000,4.000000,4.000000,4.000000,4.000000,2.000000,4.000000,16.666666,,,,,,,,,,,,,,,,,,,,,,,,,,,,
1732083542.751354,1732083542.751606,44.000000,0.000000,4294.743652,4293.077148,4326.538574,4311.025879,4325.384766,4308.461426,4317.051270,4326.410156,4326.410156,4315.897461,4463.205078,4485.769043,4361.794922,4394.871582,0.000000,0.000000,6.000000,,,,0.000000,2.000000,2.000000,0.000000,2.000000,2.000000,2.000000,0.000000,2.000000,4.000000,4.000000,4.000000,4.000000,2.000000,4.000000,16.666666,,,,,,,,,,,,,,,,,11.000000,0.000000,0.538580,0.326355,-0.667419,0.397461,0.990355,-0.187035,-0.096203,-81.627014,44.941952,23.005209
1732083542.759163,1732083542.759414,45.000000,0.000000,4293.333496,4294.615234,4324.230957,4313.333496,4318.717773,4310.256348,4320.512695,4328.974121,4325.128418,4316.666504,4462.436035,4483.461426,4360.769043,4392.948730,0.000000,0.000000,6.000000,,,,0.000000,2.000000,2.000000,0.000000,2.000000,2.000000,2.000000,0.000000,2.000000,4.000000,4.000000,4.000000,4.000000,2.000000,4.000000,16.666666,,,,,,,,,,,,,,,,,,,,,,,,,,,,
1732083542.766971,1732083542.767022,46.000000,0.000000,4294.615234,4293.589844,4324.615234,4311.538574,4305.128418,4313.205078,4322.948730,4343.846191,4333.846191,4315.128418,4464.743652,4486.666504,4360.512695,4393.205078,0.000000,0.000000,6.000000,,,,0.000000,2.000000,2.000000,0.000000,2.000000,2.000000,2.000000,0.000000,2.000000,4.000000,4.000000,4.000000,4.000000,2.000000,4.000000,16.666666,,,,,,,,,,,,,,,,,,,,,,,,,,,,
1732083542.774779,1732083542.774831,47.000000,0.000000,4296.025879,4293.589844,4325.000000,4310.384766,4308.077148,4315.256348,4320.256348,4343.461426,4338.333496,4314.871582,4464.743652,4487.436035,4358.077148,4393.717773,0.000000,0.000000,6.000000,,,,0.000000,2.000000,2.000000,0.000000,2.000000,2.000000,2.000000,0.000000,2.000000,4.000000,4.000000,4.000000,4.000000,2.000000,4.000000,16.666666,,,,,,,,,,,,,,,,,,,,,,,,,,,,
1732083542.782587,1732083542.782539,48.000000,0.000000,4295.769043,4295.769043,4324.743652,4312.692383,4315.384766,4313.589844,4320.000000,4327.692383,4326.153809,4314.615234,4463.077148,4483.461426,4355.384766,4396.666504,0.000000,0.000000,6.000000,,,,0.000000,2.000000,2.000000,0.000000,2.000000,2.000000,2.000000,0.000000,2.000000,4.000000,4.000000,4.000000,4.000000,2.000000,4.000000,16.666666,,,,,,,,,,,,,,,,,12.000000,0.000000,0.539045,0.326111,-0.667236,0.397339,0.966915,-0.176779,-0.101087,-81.756218,44.901314,23.242552
1732083542.790396,1732083542.790347,49.000000,0.000000,4296.666504,4297.563965,4327.307617,4311.922852,4310.769043,4310.512695,4320.897461,4321.794922,4318.077148,4309.102539,4461.666504,4483.333496,4356.538574,4397.820313,0.000000,0.000000,6.000000,,,,0.000000,2.000000,2.000000,0.000000,2.000000,2.000000,2.000000,0.000000,2.000000,4.000000,4.000000,4.000000,4.000000,2.000000,4.000000,16.666666,,,,,,,,,,,,,,,,,,,,,,,,,,,,
1732083542.798204,1732083542.797956,50.000000,0.000000,4298.461426,4297.563965,4327.820313,4311.410156,4307.179688,4312.692383,4322.307617,4334.102539,4327.563965,4307.436035,4460.897461,4485.384766,4359.102539,4394.743652,0.000000,0.000000,6.000000,,,,0.000000,2.000000,2.000000,0.000000,2.000000,2.000000,2.000000,0.000000,2.000000,4.000000,4.000000,4.000000,4.000000,2.000000,4.000000,16.666666,,,,,,,,,,,,,,,,,,,,,,,,,,,,
1732083542.806012,1732083542.805764,51.000000,0.000000,4299.615234,4296.538574,4326.666504,4318.333496,4306.666504,4310.897461,4321.410156,4336.538574,4331.153809,4314.358887,4460.384766,4483.077148,4359.102539,4394.358887,0.000000,0.000000,6.000000,,,,0.000000,2.000000,2.000000,0.000000,2.000000,2.000000,2.000000,0.000000,2.000000,4.000000,4.000000,4.000000,4.000000,2.000000,4.000000,16.666666,,,,,,,,,,,,,,,,,,,,,,,,,,,,
1732083542.813820,1732083542.813472,52.000000,0.000000,4297.051270,4296.282227,4328.846191,4321.538574,4315.897461,4301.282227,4318.205078,4325.128418,4322.563965,4315.256348,4457.436035,4477.820313,4354.102539,4393.077148,0.000000,0.000000,6.000000,,,,0.000000,2.000000,2.000000,0.000000,2.000000,2.000000,2.000000,0.000000,2.000000,4.000000,4.000000,4.000000,4.000000,2.000000,4.000000,16.666666,,,,,,,,,,,,,,,,,13.000000,0.000000,0.539008,0.326172,-0.667236,0.397339,0.964473,-0.165059,-0.104017,-81.927536,44.851730,23.201468
1732083542.821629,1732083542.821280,53.000000,0.000000,4297.051270,4297.563965,4329.230957,4317.179688,4319.358887,4303.077148,4318.205078,4332.436035,4326.153809,4313.461426,4457.436035,4479.230957,4355.000000,4391.666504,0.000000,0.000000,6.000000,,,,0.000000,2.000000,2.000000,0.000000,2.000000,2.000000,2.000000,0.000000,2.000000,4.000000,4.000000,4.000000,4.000000,2.000000,4.000000,16.666666,,,,,,,,,,,,,,,,,,,,,,,,,,,,
1732083542.829437,1732083542.828889,54.000000,0.000000,4301.153809,4297.948730,4326.666504,4317.820313,4302.948730,4312.820313,4320.256348,4341.794922,4330.641113,4316.025879,4460.512695,4484.102539,4362.820313,4395.512695,0.000000,0.000000,6.000000,,,,0.000000,2.000000,2.000000,0.000000,2.000000,2.000000,2.000000,0.000000,2.000000,4.000000,4.000000,4.000000,4.000000,2.000000,4.000000,16.666666,,,,,,,,,,,,,,,,,,,,,,,,,,,,
1732083542.837245,1732083542.836697,55.000000,0.000000,4299.871582,4296.153809,4325.256348,4318.974121,4297.820313,4312.692383,4319.871582,4330.000000,4321.922852,4310.769043,4458.461426,4481.538574,4360.897461,4395.000000,0.000000,0.000000,6.000000,,,,0.000000,2.000000,2.000000,0.000000,2.000000,2.000000,2.000000,0.000000,2.000000,4.000000,4.000000,4.000000,4.000000,2.000000,4.000000,16.666666,,,,,,,,,,,,,,,,,,,,,,,,,,,,
1732083542.845054,1732083542.844405,56.000000,0.000000,4294.615234,4295.256348,4326.282227,4315.128418,4305.000000,4309.871582,4318.205078,4323.589844,4318.974121,4305.769043,4456.282227,4478.205078,4353.077148,4389.615234,0.000000,0.000000,6.000000,,,,0.000000,2.000000,2.000000,0.000000,2.000000,2.000000,2.000000,0.000000,2.000000,4.000000,4.000000,4.000000,4.000000,2.000000,4.000000,16.666666,,,,,,,,,,,,,,,,,14.000000,0.000000,0.539027,0.326416,-0.666992,0.397522,0.958125,-0.173849,-0.099622,-82.059639,44.966568,23.319855
1732083542.852862,1732083542.852213,57.000000,0.000000,4293.717773,4296.666504,4325.769043,4314.743652,4304.743652,4311.025879,4318.461426,4333.461426,4326.538574,4312.692383,4458.589844,4478.461426,4353.589844,4390.384766,0.000000,0.000000,6.000000,,,,0.000000,2.000000,2.000000,0.000000,2.000000,2.000000,2.000000,0.000000,2.000000,4.000000,4.000000,4.000000,4.000000,2.000000,4.000000,16.666666,,,,,,,,,,,,,,,,,,,,,,,,,,,,
1732083542.860670,1732083542.860221,58.000000,0.000000,4293.974121,4297.820313,4327.948730,4314.871582,4313.205078,4309.615234,4316.025879,4335.256348,4325.384766,4313.077148,4455.512695,4482.948730,4354.102539,4388.333496,0.000000,0.000000,6.000000,,,,0.000000,2.000000,2.000000,0.000000,2.000000,2.000000,2.000000,0.000000,2.000000,4.000000,4.000000,4.000000,4.000000,2.000000,4.000000,16.666666,,,,,,,,,,,,,,,,,,,,,,,,,,,,
1732083542.868478,1732083542.868030,59.000000,0.000000,4293.589844,4297.179688,4328.333496,4312.307617,4320.000000,4310.512695,4320.128418,4332.051270,4321.153809,4301.282227,4451.153809,4490.128418,4350.384766,4382.436035,0.000000,0.000000,6.000000,,,,0.000000,2.000000,2.000000,0.000000,2.000000,2.000000,2.000000,0.000000,2.000000,4.000000,4.000000,4.000000,4.000000,2.000000,4.000000,16.666666,,,,,,,,,,,,,,,,,,,,,,,,,,,,
1732083542.876287,1732083542.875938,60.000000,0.000000,4292.563965,4296.410156,4325.000000,4311.410156,4301.410156,4314.230957,4323.205078,4337.436035,4328.077148,4307.179688,4455.769043,4495.897461,4354.358887,4387.436035,0.000000,0.000000,6.000000,,,,0.000000,2.000000,2.000000,0.000000,2.000000,2.000000,2.000000,0.000000,2.000000,4.000000,4.000000,4.000000,4.000000,2.000000,4.000000,16.666666,,,,,,,,,,,,,,,,,15.000000,0.000000,0.538894,0.326538,-0.666931,0.397705,0.963985,-0.189476,-0.095715,-82.049973,45.064587,23.207417
1732083542.884095,1732083542.883746,61.000000,0.000000,4289.743652,4296.410156,4322.307617,4311.153809,4293.077148,4313.589844,4319.743652,4336.666504,4330.384766,4320.641113,4461.410156,4494.615234,4357.179688,4392.179688,0.000000,0.000000,6.000000,,,,0.000000,2.000000,2.000000,0.000000,2.000000,2.000000,2.000000,0.000000,2.000000,4.000000,4.000000,4.000000,4.000000,2.000000,4.000000,16.666666,,,,,,,,,,,,,,,,,,,,,,,,,,,,
1732083542.891903,1732083542.891754,62.000000,0.000000,4287.307617,4296.538574,4322.563965,4309.615234,4305.641113,4311.666504,4316.666504,4332.307617,4326.410156,4307.563965,4458.333496,4490.769043,4351.282227,4387.948730,0.000000,0.000000,6.000000,,,,0.000000,2.000000,2.000000,0.000000,2.000000,2.000000,2.000000,0.000000,2.000000,4.000000,4.000000,4.000000,4.000000,2.000000,4.000000,16.666666,,,,,,,,,,,,,,,,,,,,,,,,,,,,
1732083542.899711,1732083542.899562,63.000000,0.000000,4289.102539,4296.538574,4324.487305,4309.102539,4304.487305,4311.666504,4319.487305,4336.794922,4326.666504,4292.051270,4453.205078,4491.410156,4347.436035,4385.512695,0.000000,0.000000,6.000000,,,,0.000000,2.000000,2.000000,0.000000,2.000000,2.000000,2.000000,0.000000,2.000000,4.000000,4.000000,4.000000,4.000000,2.000000,4.000000,16.666666,,,,,,,,,,,,,,,,,,,,,,,,,,,,
1732083542.907520,1732083542.907470,64.000000,0.000000,4291.666504,4296.282227,4325.897461,4309.230957,4301.410156,4314.615234,4320.769043,4343.077148,4327.948730,4302.948730,4454.358887,4490.384766,4349.743652,4386.153809,0.000000,0.000000,6.000000,,,,0.000000,2.000000,2.000000,0.000000,2.000000,2.000000,2.000000,0.000000,2.000000,4.000000,4.000000,4.000000,4.000000,2.000000,4.000000,16.666666,,,,,,,,,,,,,,,,,16.000000,0.000000,0.538886,0.326477,-0.666931,0.397766,0.960566,-0.179709,-0.100110,-82.092148,44.943981,23.066339
1732083542.915328,1732083542.915278,65.000000,0.000000,4290.897461,4296.025879,4326.153809,4308.846191,4308.205078,4317.179688,4320.256348,4343.974121,4328.974121,4314.871582,4458.589844,4484.102539,4350.769043,4386.153809,1330.000000,0.000000,6.000000,,,,0.000000,2.000000,2.000000,0.000000,2.000000,2.000000,2.000000,0.000000,2.000000,4.000000,4.000000,4.000000,4.000000,2.000000,4.000000,16.666666,,,,,,,,,,,,,,,,,,,,,,,,,,,,
1732083542.923136,1732083542.922887,66.000000,0.000000,4292.307617,4296.922852,4325.769043,4310.256348,4308.846191,4316.922852,4319.358887,4336.666504,4327.051270,4308.717773,4457.692383,4479.615234,4348.846191,4386.922852,1255.000000,0.000000,6.000000,,,,0.000000,2.000000,2.000000,0.000000,2.000000,2.000000,2.000000,0.000000,2.000000,4.000000,4.000000,4.000000,4.000000,2.000000,4.000000,16.666666,,,,,,,,,,,,,,,,,,,,,,,,,,,,
1732083542.930945,1732083542.930695,67.000000,0.000000,4294.615234,4297.692383,4324.358887,4312.179688,4303.846191,4319.615234,4322.563965,4332.051270,4324.358887,4302.820313,4453.589844,4480.769043,4349.615234,4385.384766,1202.000000,0.000000,6.000000,,,,0.000000,2.000000,2.000000,0.000000,2.000000,2.000000,2.000000,0.000000,2.000000,4.000000,4.000000,4.000000,4.000000,2.000000,4.000000,16.666666,,,,,,,,,,,,,,,,,,,,,,,,,,,,
1732083542.938753,1732083542.938403,68.000000,0.000000,4294.615234,4297.436035,4323.333496,4312.948730,4306.025879,4319.358887,4323.846191,4335.384766,4327.563965,4301.794922,4453.717773,4481.153809,4351.538574,4382.692383,1230.000000,0.000000,6.000000,,,,0.000000,2.000000,2.000000,0.000000,2.000000,2.000000,2.000000,0.000000,2.000000,4.000000,4.000000,4.000000,4.000000,2.000000,4.000000,16.666666,,,,,,,,,,,,,,,,,17.000000,0.000000,0.538760,0.326660,-0.666870,0.397888,0.962520,-0.175314,-0.103040,-81.916306,45.017960,22.863735
1732083542.946561,1732083542.946212,69.000000,0.000000,4297.179688,4297.051270,4322.179688,4311.282227,4317.563965,4312.820313,4318.717773,4338.846191,4329.743652,4298.717773,4456.410156,4478.205078,4351.666504,4384.102539,1070.000000,0.000000,6.000000,,,,0.000000,2.000000,2.000000,0.000000,2.000000,2.000000,2.000000,0.000000,2.000000,4.000000,4.000000,4.000000,4.000000,2.000000,4.000000,16.666666,,,,,,,,,,,,,,,,,,,,,,,,,,,,
1732083542.954369,1732083542.954220,70.000000,0.000000,4299.102539,4297.051270,4320.384766,4308.589844,4313.974121,4306.922852,4316.922852,4338.846191,4327.179688,4302.820313,4457.051270,4478.205078,4352.948730,4388.461426,0.000000,0.000000,6.000000,,,,0.000000,2.000000,2.000000,0.000000,2.000000,2.000000,2.000000,0.000000,2.000000,4.000000,4.000000,4.000000,4.000000,2.000000,4.000000,16.666666,,,,,,,,,,,,,,,,,,,,,,,,,,,,
1732083542.962178,1732083542.962028,71.000000,0.000000,4297.179688,4297.307617,4322.307617,4309.102539,4295.128418,4310.000000,4322.563965,4338.333496,4329.358887,4309.487305,4459.230957,4480.000000,4354.615234,4392.948730,1152.000000,0.000000,6.000000,,,,0.000000,2.000000,2.000000,0.000000,2.000000,2.000000,2.000000,0.000000,2.000000,4.000000,4.000000,4.000000,4.000000,2.000000,4.000000,16.666666,,,,,,,,,,,,,,,,,,,,,,,,,,,,
1732083542.969986,1732083542.969936,72.000000,0.000000,4294.358887,4295.384766,4325.769043,4311.153809,4295.256348,4319.102539,4326.153809,4347.820313,4334.358887,4307.820313,4461.666504,4480.512695,4350.897461,4391.666504,1351.000000,0.000000,6.000000,,,,0.000000,2.000000,2.000000,0.000000,2.000000,2.000000,2.000000,0.000000,2.000000,4.000000,4.000000,4.000000,4.000000,2.000000,4.000000,16.666666,,,,,,,,,,,,,,,,,18.000000,0.000000,0.538849,0.326538,-0.666931,0.397766,0.960078,-0.189476,-0.100598,-81.932205,44.982880,22.952959
1732083542.977794,1732083542.977744,73.000000,0.000000,4295.384766,4294.358887,4325.769043,4311.794922,4308.461426,4318.461426,4321.666504,4354.615234,4334.358887,4306.025879,4462.179688,4485.769043,4352.820313,4390.256348,1511.000000,0.000000,6.000000,,,,0.000000,2.000000,2.000000,0.000000,2.000000,2.000000,2.000000,0.000000,2.000000,4.000000,4.000000,4.000000,4.000000,2.000000,4.000000,16.666666,,,,,,,,,,,,,,,,,,,,,,,,,,,,
1732083542.985602,1732083542.985752,74.000000,0.000000,4301.410156,4300.128418,4323.717773,4314.487305,4301.282227,4309.358887,4319.871582,4346.794922,4335.512695,4310.897461,4462.051270,4492.307617,4362.692383,4396.666504,1387.000000,0.000000,6.000000,,,,0.000000,2.000000,2.000000,0.000000,2.000000,2.000000,2.000000,0.000000,2.000000,4.000000,4.000000,4.000000,4.000000,2.000000,4.000000,16.666666,,,,,,,,,,,,,,,,,,,,,,,,,,,,
1732083542.993411,1732083542.993560,75.000000,0.000000,4306.153809,4304.102539,4328.205078,4317.051270,4290.384766,4308.589844,4319.615234,4339.871582,4335.769043,4312.692383,4462.436035,4492.948730,4362.307617,4399.743652,1524.000000,0.000000,6.000000,,,,0.000000,2.000000,2.000000,0.000000,2.000000,2.000000,2.000000,0.000000,2.000000,4.000000,4.000000,4.000000,4.000000,2.000000,4.000000,16.666666,,,,,,,,,,,,,,,,,,,,,,,,,,,,
1732083543.001219,1732083543.001468,76.000000,0.000000,4301.538574,4298.333496,4331.538574,4314.615234,4307.051270,4310.897461,4322.179688,4340.897461,4331.538574,4309.102539,4460.128418,4487.563965,4353.077148,4390.897461,1751.000000,0.000000,6.000000,,,,0.000000,2.000000,2.000000,0.000000,2.000000,2.000000,2.000000,0.000000,2.000000,4.000000,4.000000,4.000000,4.000000,2.000000,4.000000,16.666666,,,,,,,,,,,,,,,,,19.000000,0.000000,0.539200,0.326233,-0.666687,0.397949,0.961543,-0.178244,-0.102552,-81.766754,45.037800,23.108564
1732083543.009027,1732083543.009277,77.000000,0.000000,4297.307617,4295.128418,4327.179688,4311.666504,4315.256348,4305.769043,4321.025879,4337.436035,4329.615234,4307.436035,4458.589844,4487.051270,4353.077148,4388.589844,1568.000000,0.000000,6.000000,,,,0.000000,2.000000,2.000000,0.000000,2.000000,2.000000,2.000000,0.000000,2.000000,4.000000,4.000000,4.000000,4.000000,2.000000,4.000000,16.666666,,,,,,,,,,,,,,,,,,,,,,,,,,,,
1732083543.016835,1732083543.017285,78.000000,0.000000,4300.000000,4299.615234,4322.692383,4312.692383,4299.615234,4307.436035,4321.410156,4337.179688,4330.641113,4305.769043,4462.179688,4492.563965,4359.871582,4395.384766,1387.000000,0.000000,6.000000,,,,0.000000,2.000000,2.000000,0.000000,2.000000,2.000000,2.000000,0.000000,2.000000,4.000000,4.000000,4.000000,4.000000,2.000000,4.000000,16.666666,1.000000,16.666666,2.000000,2.000000,0.000000,2.000000,2.000000,2.000000,0.000000,2.000000,4.000000,4.000000,4.000000,4.000000,2.000000,4.000000,,,,,,,,,,,,
1732083543.024644,1732083543.025093,79.000000,0.000000,4300.000000,4303.077148,4323.974121,4314.871582,4291.538574,4316.025879,4324.102539,4347.820313,4333.077148,4310.128418,4466.153809,4492.307617,4361.025879,4395.128418,1524.000000,0.000000,6.000000,,,,0.000000,2.000000,2.000000,0.000000,2.000000,2.000000,2.000000,0.000000,2.000000,4.000000,4.000000,4.000000,4.000000,2.000000,4.000000,16.666666,,,,,,,,,,,,,,,,,,,,,,,,,,,,
1732083543.032452,1732083543.033001,80.000000,0.000000,4300.897461,4309.102539,4323.205078,4314.871582,4299.230957,4314.615234,4323.846191,4351.538574,4336.282227,4316.666504,4464.487305,4486.282227,4360.512695,4395.000000,1751.000000,0.000000,6.000000,,,,0.000000,2.000000,2.000000,0.000000,2.000000,2.000000,2.000000,0.000000,2.000000,4.000000,4.000000,4.000000,4.000000,2.000000,4.000000,16.666666,,,,,,,,,,,,,,,,,20.000000,0.000000,0.539408,0.325989,-0.666748,0.397766,0.981565,-0.176779,-0.104017,-81.749405,44.898952,23.251270
1732083543.040260,1732083543.040809,81.000000,0.000000,4305.256348,4310.128418,4320.641113,4313.461426,4313.717773,4310.128418,4321.025879,4345.769043,4337.179688,4312.307617,4461.025879,4482.436035,4358.589844,4398.461426,1568.000000,0.000000,6.000000,,,,0.000000,2.000000,2.000000,0.000000,2.000000,2.000000,2.000000,0.000000,2.000000,4.000000,4.000000,4.000000,4.000000,2.000000,4.000000,16.666666,,,,,,,,,,,,,,,,,,,,,,,,,,,,
1732083543.048068,1732083543.048817,82.000000,0.000000,4301.794922,4300.641113,4321.922852,4312.307617,4317.307617,4311.410156,4322.820313,4342.051270,4333.589844,4307.692383,4460.000000,4482.307617,4355.000000,4395.256348,1387.000000,0.000000,6.000000,,,,0.000000,2.000000,2.000000,0.000000,2.000000,2.000000,2.000000,0.000000,2.000000,4.000000,4.000000,4.000000,4.000000,2.000000,4.000000,16.666666,,,,,,,,,,,,,,,,,,,,,,,,,,,,
1732083543.055877,1732083543.056625,83.000000,0.000000,4295.000000,4299.358887,4323.589844,4313.077148,4304.102539,4317.179688,4325.512695,4342.436035,4329.230957,4310.256348,4461.538574,4484.102539,4355.641113,4392.051270,1524.000000,0.000000,6.000000,,,,0.000000,2.000000,2.000000,0.000000,2.000000,2.000000,2.000000,0.000000,2.000000,4.000000,4.000000,4.000000,4.000000,2.000000,4.000000,16.666666,,,,,,,,,,,,,,,,,,,,,,,,,,,,
1732083543.063685,1732083543.064534,84.000000,0.000000,4296.538574,4306.666504,4322.307617,4312.948730,4293.974121,4322.179688,4324.230957,4348.333496,4329.871582,4310.512695,4461.922852,4482.179688,4357.051270,4394.487305,1751.000000,0.000000,6.000000,,,,0.000000,2.000000,2.000000,0.000000,2.000000,2.000000,2.000000,0.000000,2.000000,4.000000,4.000000,4.000000,4.000000,2.000000,4.000000,16.666666,,,,,,,,,,,,,,,,,21.000000,0.000000,0.539444,0.325928,-0.666748,0.397766,0.966427,-0.171896,-0.094250,-81.702019,44.823151,23.266861
1732083543.071493,1732083543.072342,85.000000,0.000000,4296.025879,4302.179688,4322.692383,4310.897461,4301.025879,4318.077148,4322.307617,4352.436035,4332.179688,4307.948730,4458.974121,4477.948730,4352.436035,4390.128418,1568.000000,0.000000,6.000000,,,,0.000000,2.000000,2.000000,0.000000,2.000000,2.000000,2.000000,0.000000,2.000000,4.000000,4.000000,4.000000,4.000000,2.000000,4.000000,16.666666,,,,,,,,,,,,,,,,,,,,,,,,,,,,
1732083543.079301,1732083543.079950,86.000000,0.000000,4293.333496,4297.051270,4323.846191,4310.641113,4303.077148,4309.102539,4322.948730,4345.769043,4333.846191,4309.358887,4458.077148,4478.205078,4350.769043,4384.487305,1387.000000,0.000000,6.000000,,,,0.000000,2.000000,2.000000,0.000000,2.000000,2.000000,2.000000,0.000000,2.000000,4.000000,4.000000,4.000000,4.000000,2.000000,4.000000,16.666666,,,,,,,,,,,,,,,,,,,,,,,,,,,,
1732083543.087110,1732083543.087758,87.000000,0.000000,4296.025879,4301.922852,4322.436035,4310.128418,4294.743652,4308.974121,4324.487305,4343.333496,4335.897461,4313.333496,4463.974121,4482.692383,4358.077148,4392.051270,1524.000000,0.000000,6.000000,,,,0.000000,2.000000,2.000000,0.000000,2.000000,2.000000,2.000000,0.000000,2.000000,4.000000,4.000000,4.000000,4.000000,2.000000,4.000000,16.666666,,,,,,,,,,,,,,,,,,,,,,,,,,,,
1732083543.094918,1732083543.095467,88.000000,0.000000,4297.820313,4300.000000,4322.307617,4308.205078,4294.743652,4311.666504,4321.410156,4350.256348,4334.102539,4311.025879,4464.743652,4482.179688,4358.461426,4395.256348,1751.000000,0.000000,6.000000,,,,0.000000,2.000000,2.000000,0.000000,2.000000,2.000000,2.000000,0.000000,2.000000,4.000000,4.000000,4.000000,4.000000,2.000000,4.000000,16.666666,,,,,,,,,,,,,,,,,22.000000,0.000000,0.539547,0.325684,-0.666748,0.397827,0.971798,-0.177268,-0.095226,-81.736969,44.853420,23.301159
1732083543.102726,1732083543.103275,89.000000,0.000000,4294.743652,4297.307617,4323.461426,4308.333496,4296.025879,4309.871582,4320.256348,4350.769043,4331.666504,4304.102539,4454.871582,4481.153809,4350.897461,4386.922852,1568.000000,0.000000,6.000000,,,,0.000000,2.000000,2.000000,0.000000,2.000000,2.000000,2.000000,0.000000,2.000000,4.000000,4.000000,4.000000,4.000000,2.000000,4.000000,16.666666,,,,,,,,,,,,,,,,,,,,,,,,,,,,
1732083543.110535,1732083543.110883,90.000000,0.000000,4294.871582,4302.692383,4323.974121,4310.384766,4300.128418,4311.922852,4323.077148,4343.205078,4330.641113,4302.436035,4451.794922,4482.948730,4350.641113,4386.153809,1387.000000,0.000000,6.000000,,,,0.000000,2.000000,2.000000,0.000000,2.000000,2.000000,2.000000,0.000000,2.000000,4.000000,4.000000,4.000000,4.000000,2.000000,4.000000,16.666666,,,,,,,,,,,,,,,,,,,,,,,,,,,,
1732083543.118343,1732083543.118691,91.000000,0.000000,4296.410156,4303.717773,4322.563965,4310.000000,4303.077148,4315.897461,4325.256348,4340.769043,4328.846191,4306.922852,4458.974121,4482.692383,4353.589844,4392.307617,1524.000000,0.000000,6.000000,,,,0.000000,2.000000,2.000000,0.000000,2.000000,2.000000,2.000000,0.000000,2.000000,4.000000,4.000000,4.000000,4.000000,2.000000,4.000000,16.666666,,,,,,,,,,,,,,,,,,,,,,,,,,,,
1732083543.126151,1732083543.126400,92.000000,0.000000,4294.487305,4301.025879,4322.948730,4308.205078,4300.897461,4313.461426,4323.205078,4344.358887,4329.615234,4312.179688,4461.538574,4485.769043,4354.487305,4394.743652,1751.000000,0.000000,6.000000,,,,0.000000,2.000000,2.000000,0.000000,2.000000,2.000000,2.000000,0.000000,2.000000,4.000000,4.000000,4.000000,4.000000,2.000000,4.000000,16.666666,,,,,,,,,,,,,,,,,23.000000,0.000000,0.539864,0.325256,-0.666809,0.397644,0.967892,-0.182151,-0.091808,-81.778610,44.712936,23.215605
1732083543.133959,1732083543.134208,93.000000,0.000000,4294.615234,4303.205078,4323.974121,4308.717773,4311.153809,4309.358887,4322.051270,4343.846191,4329.102539,4308.333496,4457.948730,4488.461426,4353.974121,4396.666504,1568.000000,0.000000,6.000000,,,,0.000000,2.000000,2.000000,0.000000,2.000000,2.000000,2.000000,0.000000,2.000000,4.000000,4.000000,4.000000,4.000000,2.000000,4.000000,16.666666,,,,,,,,,,,,,,,,,,,,,,,,,,,,
1732083543.141768,1732083543.141816,94.000000,0.000000,4296.153809,4305.641113,4323.974121,4312.692383,4314.358887,4310.512695,4320.512695,4342.179688,4326.410156,4299.743652,4458.333496,4488.717773,4351.153809,4398.846191,1387.000000,0.000000,6.000000,,,,0.000000,2.000000,2.000000,0.000000,2.000000,2.000000,2.000000,0.000000,2.000000,4.000000,4.000000,4.000000,4.000000,2.000000,4.000000,16.666666,,,,,,,,,,,,,,,,,,,,,,,,,,,,
1732083543.149576,1732083543.149625,95.000000,0.000000,4295.000000,4303.589844,4323.077148,4318.717773,4298.333496,4312.948730,4325.000000,4345.000000,4332.051270,4302.692383,4461.538574,4488.717773,4350.384766,4397.692383,1524.000000,0.000000,6.000000,,,,0.000000,2.000000,2.000000,0.000000,2.000000,2.000000,2.000000,0.000000,2.000000,4.000000,4.000000,4.000000,4.000000,2.000000,4.000000,16.666666,,,,,,,,,,,,,,,,,,,,,,,,,,,,
1732083543.157384,1732083543.157333,96.000000,0.000000,4295.128418,4301.922852,4322.820313,4316.922852,4293.077148,4312.820313,4327.820313,4349.743652,4339.487305,4310.897461,4460.641113,4487.563965,4353.846191,4395.384766,1751.000000,0.000000,6.000000,,,,0.000000,2.000000,2.000000,0.000000,2.000000,2.000000,2.000000,0.000000,2.000000,4.000000,4.000000,4.000000,4.000000,2.000000,4.000000,16.666666,,,,,,,,,,,,,,,,,24.000000,0.000000,0.539864,0.325256,-0.666809,0.397644,0.972287,-0.176291,-0.104993,-81.767342,44.524143,23.101307
1732083543.165192,1732083543.165141,97.000000,0.000000,4296.538574,4302.820313,4323.333496,4312.820313,4295.512695,4312.948730,4323.974121,4349.102539,4332.563965,4306.538574,4458.205078,4482.563965,4353.717773,4390.256348,1568.000000,0.000000,6.000000,,,,0.000000,2.000000,2.000000,0.000000,2.000000,2.000000,2.000000,0.000000,2.000000,4.000000,4.000000,4.000000,4.000000,2.000000,4.000000,16.666666,,,,,,,,,,,,,,,,,,,,,,,,,,,,
1732083543.173001,1732083543.172750,98.000000,0.000000,4295.769043,4301.922852,4323.589844,4314.743652,4295.256348,4308.077148,4319.871582,4339.487305,4325.128418,4301.153809,4456.922852,4479.487305,4349.615234,4387.307617,1387.000000,0.000000,6.000000,,,,0.000000,2.000000,2.000000,0.000000,2.000000,2.000000,2.000000,0.000000,2.000000,4.000000,4.000000,4.000000,4.000000,2.000000,4.000000,16.666666,,,,,,,,,,,,,,,,,,,,,,,,,,,,
1732083543.180809,1732083543.180558,99.000000,0.000000,4293.461426,4298.717773,4322.563965,4313.589844,4306.794922,4306.025879,4323.589844,4342.563965,4331.794922,4305.384766,4457.436035,4479.871582,4348.205078,4390.897461,1524.000000,0.000000,6.000000,,,,0.000000,2.000000,2.000000,0.000000,2.000000,2.000000,2.000000,0.000000,2.000000,4.000000,4.000000,4.000000,4.000000,2.000000,4.000000,16.666666,,,,,,,,,,,,,,,,,,,,,,,,,,,,
1732083543.188617,1732083543.188266,100.000000,0.000000,4294.358887,4299.871582,4319.871582,4309.102539,4309.230957,4314.487305,4326.410156,4356.153809,4339.230957,4309.230957,4460.000000,4481.666504,4349.615234,4392.179688,1751.000000,0.000000,6.000000,,,,0.000000,2.000000,2.000000,0.000000,2.000000,2.000000,2.000000,0.000000,2.000000,4.000000,4.000000,4.000000,4.000000,2.000000,4.000000,16.666666,,,,,,,,,,,,,,,,,25.000000,0.000000,0.540162,0.324585,-0.666931,0.397583,0.956171,-0.186058,-0.098645,-81.943214,44.501225,23.113726
1732083543.196426,1732083543.196074,101.000000,0.000000,4296.794922,4303.717773,4319.230957,4310.897461,4290.384766,4316.410156,4321.794922,4349.487305,4335.641113,4309.615234,4462.307617,4484.230957,4352.692383,4393.461426,1568.000000,0.000000,6.000000,,,,0.000000,2.000000,2.000000,0.000000,2.000000,2.000000,2.000000,0.000000,2.000000,4.000000,4.000000,4.000000,4.000000,2.000000,4.000000,16.666666,,,,,,,,,,,,,,,,,,,,,,,,,,,,
