title:1four, start timestamp:1732157575.866023, stop timestamp:1732157635.708424, headset type:EPOCX, headset serial:E5020C3A, headset firmware:730, channels:67, sampling rate:eeg_128;mot_32, samples:7665      , version:2.2, 
Timestamp,OriginalTimestamp,EEG.Counter,EEG.Interpolated,EEG.AF3,EEG.F7,EEG.F3,EEG.FC5,EEG.T7,EEG.P7,EEG.O1,EEG.O2,EEG.P8,EEG.T8,EEG.FC6,EEG.F4,EEG.F8,EEG.AF4,EEG.RawCq,EEG.Battery,EEG.BatteryPercent,MarkerIndex,MarkerType,MarkerValueInt,EEG.MarkerHardware,CQ.AF3,CQ.F7,CQ.F3,CQ.FC5,CQ.T7,CQ.P7,CQ.O1,CQ.O2,CQ.P8,CQ.T8,CQ.FC6,CQ.F4,CQ.F8,CQ.AF4,CQ.Overall,EQ.SampleRateQuality,EQ.OVERALL,EQ.AF3,EQ.F7,EQ.F3,EQ.FC5,EQ.T7,EQ.P7,EQ.O1,EQ.O2,EQ.P8,EQ.T8,EQ.FC6,EQ.F4,EQ.F8,EQ.AF4,MOT.CounterMems,MOT.InterpolatedMems,MOT.Q0,MOT.Q1,MOT.Q2,MOT.Q3,MOT.AccX,MOT.AccY,MOT.AccZ,MOT.MagX,MOT.MagY,MOT.MagZ
1732157575.866023,1732157575.868486,117.000000,0.000000,4279.487305,4279.615234,4315.256348,4293.205078,4287.436035,4296.025879,4334.230957,4398.461426,4297.820313,4277.179688,4477.179688,4493.846191,4344.615234,4395.512695,1639.000000,1.000000,24.000000,,,,0.000000,2.000000,2.000000,0.000000,4.000000,2.000000,2.000000,0.000000,0.000000,4.000000,4.000000,4.000000,4.000000,4.000000,4.000000,0.000000,,,,,,,,,,,,,,,,,,,,,,,,,,,,
1732157575.873831,1732157575.876494,118.000000,0.000000,4278.589844,4280.128418,4314.615234,4296.153809,4297.307617,4294.615234,4335.512695,4399.871582,4298.974121,4279.487305,4477.436035,4489.487305,4341.153809,4396.538574,1541.000000,1.000000,24.000000,,,,0.000000,2.000000,2.000000,0.000000,4.000000,2.000000,2.000000,0.000000,0.000000,4.000000,4.000000,4.000000,4.000000,4.000000,4.000000,0.000000,,,,,,,,,,,,,,,,,,,,,,,,,,,,
1732157575.881639,1732157575.884302,119.000000,0.000000,4277.436035,4277.051270,4311.153809,4297.179688,4285.384766,4289.743652,4335.512695,4401.666504,4296.794922,4276.666504,4475.256348,4490.641113,4342.307617,4399.102539,1573.000000,1.000000,24.000000,,,,0.000000,2.000000,2.000000,0.000000,4.000000,2.000000,2.000000,0.000000,0.000000,4.000000,4.000000,4.000000,4.000000,4.000000,4.000000,0.000000,,,,,,,,,,,,,,,,,,,,,,,,,,,,
1732157575.889447,1732157575.892210,120.000000,0.000000,4275.256348,4277.948730,4311.922852,4296.025879,4280.769043,4291.794922,4334.358887,4401.666504,4297.051270,4267.436035,4472.948730,4497.692383,4344.871582,4397.820313,1706.000000,1.000000,24.000000,,,,0.000000,2.000000,2.000000,0.000000,4.000000,2.000000,2.000000,0.000000,0.000000,4.000000,4.000000,4.000000,4.000000,4.000000,4.000000,0.000000,,,,,,,,,,,,,,,,,30.000000,0.000000,0.516608,0.503906,-0.515259,0.462280,0.978147,0.035161,-0.037602,-34.628746,46.294209,31.293016
1732157575.897256,1732157575.900018,121.000000,0.000000,4279.358887,4277.436035,4315.128418,4296.794922,4293.077148,4294.743652,4335.256348,4401.922852,4298.333496,4264.487305,4476.025879,4506.538574,4338.717773,4397.692383,1639.000000,1.000000,24.000000,,,,0.000000,2.000000,2.000000,0.000000,4.000000,2.000000,2.000000,0.000000,0.000000,4.000000,4.000000,4.000000,4.000000,4.000000,4.000000,0.000000,,,,,,,,,,,,,,,,,,,,,,,,,,,,
1732157575.905064,1732157575.907627,122.000000,0.000000,4278.077148,4268.589844,4314.102539,4297.179688,4289.358887,4293.717773,4335.256348,4402.820313,4295.897461,4265.384766,4472.820313,4506.666504,4331.794922,4397.692383,1541.000000,1.000000,24.000000,,,,0.000000,2.000000,2.000000,0.000000,4.000000,2.000000,2.000000,0.000000,0.000000,4.000000,4.000000,4.000000,4.000000,4.000000,4.000000,0.000000,,,,,,,,,,,,,,,,,,,,,,,,,,,,
1732157575.912872,1732157575.915435,123.000000,0.000000,4266.794922,4261.922852,4311.922852,4294.487305,4283.589844,4295.384766,4333.589844,4401.922852,4296.025879,4267.692383,4466.922852,4502.307617,4333.461426,4391.410156,1573.000000,1.000000,24.000000,,,,0.000000,2.000000,2.000000,0.000000,4.000000,2.000000,2.000000,0.000000,0.000000,4.000000,4.000000,4.000000,4.000000,4.000000,4.000000,0.000000,,,,,,,,,,,,,,,,,,,,,,,,,,,,
1732157575.920680,1732157575.923143,124.000000,0.000000,4262.948730,4263.717773,4313.974121,4288.717773,4305.000000,4294.102539,4333.205078,4401.282227,4299.102539,4273.589844,4471.538574,4503.589844,4335.128418,4386.794922,1706.000000,1.000000,24.000000,,,,0.000000,2.000000,2.000000,0.000000,4.000000,2.000000,2.000000,0.000000,0.000000,4.000000,4.000000,4.000000,4.000000,4.000000,4.000000,0.000000,,,,,,,,,,,,,,,,,31.000000,0.000000,0.516734,0.503906,-0.515625,0.461731,0.970822,0.064949,-0.030765,-34.540951,46.206642,31.142344
1732157575.928489,1732157575.930951,125.000000,0.000000,4275.384766,4269.615234,4315.897461,4292.563965,4307.948730,4284.743652,4333.974121,4403.461426,4297.436035,4279.230957,4476.410156,4505.897461,4335.512695,4394.358887,1639.000000,1.000000,24.000000,,,,0.000000,2.000000,2.000000,0.000000,4.000000,2.000000,2.000000,0.000000,0.000000,4.000000,4.000000,4.000000,4.000000,4.000000,4.000000,0.000000,,,,,,,,,,,,,,,,,,,,,,,,,,,,
1732157575.936297,1732157575.938560,126.000000,0.000000,4286.666504,4276.666504,4315.000000,4303.461426,4279.871582,4279.871582,4333.461426,4404.743652,4294.102539,4279.871582,4476.538574,4505.384766,4343.717773,4400.512695,1541.000000,1.000000,23.000000,,,,0.000000,2.000000,2.000000,0.000000,4.000000,2.000000,2.000000,0.000000,0.000000,4.000000,4.000000,4.000000,4.000000,4.000000,4.000000,0.000000,,,,,,,,,,,,,,,,,,,,,,,,,,,,
1732157575.944105,1732157575.946368,127.000000,0.000000,4286.282227,4280.769043,4314.487305,4302.948730,4272.179688,4282.051270,4334.487305,4402.307617,4295.000000,4281.153809,4482.948730,4505.000000,4352.051270,4397.948730,23.000000,1.000000,23.000000,,,,0.000000,2.000000,2.000000,0.000000,4.000000,2.000000,2.000000,0.000000,0.000000,4.000000,4.000000,4.000000,4.000000,4.000000,4.000000,0.000000,,,,,,,,,,,,,,,,,,,,,,,,,,,,
1732157575.951913,1732157575.954076,0.000000,0.000000,4285.769043,4280.897461,4313.461426,4298.077148,4281.922852,4279.358887,4334.487305,4398.461426,4296.282227,4282.307617,4490.000000,4508.717773,4352.948730,4405.512695,0.000000,1.000000,23.000000,,,,0.000000,2.000000,2.000000,0.000000,4.000000,2.000000,2.000000,0.000000,0.000000,4.000000,4.000000,4.000000,4.000000,4.000000,4.000000,0.000000,,,,,,,,,,,,,,,,,0.000000,0.000000,0.517821,0.504639,-0.514526,0.460938,0.979123,0.089366,-0.046881,-34.483170,46.437378,31.275299
1732157575.959722,1732157575.961885,1.000000,0.000000,4291.410156,4281.410156,4311.794922,4299.871582,4278.589844,4276.153809,4331.410156,4396.153809,4295.128418,4274.487305,4487.307617,4511.922852,4351.922852,4416.794922,1594.000000,1.000000,23.000000,,,,0.000000,2.000000,2.000000,0.000000,4.000000,2.000000,2.000000,0.000000,0.000000,4.000000,4.000000,4.000000,4.000000,4.000000,4.000000,0.000000,,,,,,,,,,,,,,,,,,,,,,,,,,,,
1732157575.967530,1732157575.969493,2.000000,0.000000,4294.743652,4280.769043,4312.051270,4298.461426,4275.256348,4278.333496,4332.307617,4397.563965,4293.461426,4265.769043,4487.436035,4510.256348,4349.743652,4413.205078,1372.000000,1.000000,23.000000,,,,0.000000,2.000000,2.000000,0.000000,4.000000,2.000000,2.000000,0.000000,0.000000,4.000000,4.000000,4.000000,4.000000,4.000000,4.000000,0.000000,,,,,,,,,,,,,,,,,,,,,,,,,,,,
1732157575.975338,1732157575.977301,3.000000,0.000000,4295.000000,4278.589844,4312.820313,4296.538574,4283.333496,4281.410156,4335.512695,4400.512695,4291.922852,4263.205078,4489.743652,4513.205078,4346.153809,4410.769043,1416.000000,1.000000,23.000000,,,,0.000000,2.000000,2.000000,0.000000,4.000000,2.000000,2.000000,0.000000,0.000000,4.000000,4.000000,4.000000,4.000000,4.000000,4.000000,0.000000,,,,,,,,,,,,,,,,,,,,,,,,,,,,
1732157575.983146,1732157575.985009,4.000000,0.000000,4291.922852,4278.077148,4311.025879,4300.641113,4282.436035,4282.051270,4336.410156,4400.512695,4292.948730,4266.282227,4483.333496,4518.461426,4341.153809,4411.410156,1422.000000,1.000000,23.000000,,,,0.000000,2.000000,2.000000,0.000000,4.000000,2.000000,2.000000,0.000000,0.000000,4.000000,4.000000,4.000000,4.000000,4.000000,4.000000,0.000000,,,,,,,,,,,,,,,,,1.000000,0.000000,0.518039,0.505737,-0.513611,0.460510,0.975705,0.097180,-0.039067,-34.541367,46.824276,31.396324
1732157575.990955,1732157575.992818,5.000000,0.000000,4282.436035,4276.410156,4309.743652,4299.230957,4280.769043,4281.153809,4337.563965,4400.256348,4297.051270,4274.487305,4481.025879,4511.538574,4339.102539,4399.615234,1219.000000,1.000000,23.000000,,,,0.000000,2.000000,2.000000,0.000000,4.000000,2.000000,2.000000,0.000000,0.000000,4.000000,4.000000,4.000000,4.000000,4.000000,4.000000,0.000000,,,,,,,,,,,,,,,,,,,,,,,,,,,,
1732157575.998763,1732157576.000426,6.000000,0.000000,4277.051270,4275.641113,4309.743652,4293.717773,4291.794922,4280.512695,4336.282227,4401.282227,4298.717773,4281.153809,4487.820313,4506.282227,4343.077148,4392.820313,0.000000,1.000000,23.000000,,,,0.000000,2.000000,2.000000,0.000000,4.000000,2.000000,2.000000,0.000000,0.000000,4.000000,4.000000,4.000000,4.000000,4.000000,4.000000,0.000000,,,,,,,,,,,,,,,,,,,,,,,,,,,,
1732157576.006571,1732157576.008234,7.000000,0.000000,4283.077148,4274.871582,4309.615234,4295.769043,4294.871582,4280.512695,4331.538574,4399.358887,4297.563965,4283.717773,4492.436035,4513.974121,4347.948730,4402.307617,0.000000,1.000000,23.000000,,,,0.000000,2.000000,2.000000,0.000000,4.000000,2.000000,2.000000,0.000000,0.000000,4.000000,4.000000,4.000000,4.000000,4.000000,4.000000,0.000000,,,,,,,,,,,,,,,,,,,,,,,,,,,,
1732157576.014379,1732157576.015943,8.000000,0.000000,4284.871582,4273.589844,4306.410156,4295.641113,4287.051270,4280.897461,4330.256348,4397.820313,4297.692383,4281.666504,4492.179688,4512.948730,4348.333496,4406.410156,1531.000000,1.000000,23.000000,,,,0.000000,2.000000,2.000000,0.000000,4.000000,2.000000,2.000000,0.000000,0.000000,4.000000,4.000000,4.000000,4.000000,4.000000,4.000000,0.000000,,,,,,,,,,,,,,,,,2.000000,0.000000,0.517907,0.506287,-0.513367,0.460327,0.992309,0.077646,-0.040044,-34.768509,46.777664,31.359356
1732157576.022188,1732157576.023751,9.000000,0.000000,4281.153809,4274.102539,4304.230957,4294.230957,4298.077148,4280.769043,4331.666504,4398.461426,4296.025879,4274.230957,4486.538574,4503.589844,4346.410156,4398.846191,1686.000000,1.000000,23.000000,,,,0.000000,2.000000,2.000000,0.000000,4.000000,2.000000,2.000000,0.000000,0.000000,4.000000,4.000000,4.000000,4.000000,4.000000,4.000000,0.000000,,,,,,,,,,,,,,,,,,,,,,,,,,,,
1732157576.029996,1732157576.031359,10.000000,0.000000,4283.717773,4275.641113,4302.307617,4300.384766,4310.000000,4278.589844,4330.769043,4397.692383,4292.820313,4264.230957,4477.307617,4503.974121,4343.461426,4392.948730,1541.000000,1.000000,23.000000,,,,0.000000,2.000000,2.000000,0.000000,4.000000,2.000000,2.000000,0.000000,0.000000,4.000000,4.000000,4.000000,4.000000,4.000000,4.000000,0.000000,,,,,,,,,,,,,,,,,,,,,,,,,,,,
1732157576.037804,1732157576.039167,11.000000,0.000000,4288.589844,4277.948730,4298.205078,4302.436035,4288.205078,4279.871582,4328.717773,4397.436035,4293.333496,4261.153809,4479.230957,4508.974121,4339.871582,4400.384766,1573.000000,1.000000,23.000000,,,,0.000000,2.000000,2.000000,0.000000,4.000000,2.000000,2.000000,0.000000,0.000000,4.000000,4.000000,4.000000,4.000000,4.000000,4.000000,0.000000,,,,,,,,,,,,,,,,,,,,,,,,,,,,
1732157576.045612,1732157576.046876,12.000000,0.000000,4288.846191,4279.102539,4294.743652,4299.871582,4271.922852,4285.128418,4328.974121,4398.333496,4297.563965,4271.538574,4491.666504,4511.538574,4341.025879,4410.897461,1713.000000,1.000000,23.000000,,,,0.000000,2.000000,2.000000,0.000000,4.000000,2.000000,2.000000,0.000000,0.000000,4.000000,4.000000,4.000000,4.000000,4.000000,4.000000,0.000000,,,,,,,,,,,,,,,,,3.000000,0.000000,0.516914,0.507202,-0.513245,0.460571,0.973752,0.035649,-0.040044,-34.684158,46.666576,31.226078
1732157576.053421,1732157576.054684,13.000000,0.000000,4286.410156,4272.307617,4294.743652,4299.871582,4284.230957,4285.384766,4330.256348,4397.948730,4298.461426,4278.846191,4488.461426,4509.230957,4343.077148,4407.820313,1644.000000,1.000000,23.000000,,,,0.000000,2.000000,2.000000,0.000000,4.000000,2.000000,2.000000,0.000000,0.000000,4.000000,4.000000,4.000000,4.000000,4.000000,4.000000,0.000000,,,,,,,,,,,,,,,,,,,,,,,,,,,,
1732157576.061229,1732157576.062292,14.000000,0.000000,4286.666504,4266.794922,4294.743652,4301.282227,4287.436035,4281.794922,4328.846191,4395.769043,4296.410156,4273.333496,4475.384766,4504.230957,4339.615234,4396.410156,1541.000000,1.000000,23.000000,,,,0.000000,2.000000,2.000000,0.000000,4.000000,2.000000,2.000000,0.000000,0.000000,4.000000,4.000000,4.000000,4.000000,4.000000,4.000000,0.000000,1.000000,0.000000,2.000000,2.000000,0.000000,4.000000,2.000000,2.000000,0.000000,0.000000,4.000000,4.000000,4.000000,4.000000,4.000000,4.000000,,,,,,,,,,,,
1732157576.069037,1732157576.070101,15.000000,0.000000,4290.641113,4274.102539,4294.102539,4302.051270,4278.589844,4281.282227,4327.307617,4395.641113,4296.538574,4271.538574,4475.384766,4503.974121,4338.717773,4396.922852,1573.000000,1.000000,23.000000,,,,0.000000,2.000000,2.000000,0.000000,4.000000,2.000000,2.000000,0.000000,0.000000,4.000000,4.000000,4.000000,4.000000,4.000000,4.000000,0.000000,,,,,,,,,,,,,,,,,,,,,,,,,,,,
1732157576.076845,1732157576.078009,16.000000,0.000000,4291.538574,4279.230957,4295.384766,4300.641113,4279.487305,4282.051270,4327.948730,4398.461426,4297.820313,4279.615234,4481.666504,4509.230957,4343.717773,4408.333496,0.000000,1.000000,23.000000,,,,0.000000,2.000000,2.000000,0.000000,4.000000,2.000000,2.000000,0.000000,0.000000,4.000000,4.000000,4.000000,4.000000,4.000000,4.000000,0.000000,,,,,,,,,,,,,,,,,4.000000,0.000000,0.515198,0.506042,-0.516052,0.460632,0.974728,0.019045,-0.045904,-34.809166,46.444927,31.404791
1732157576.084654,1732157576.085817,17.000000,0.000000,4290.000000,4274.487305,4297.820313,4296.282227,4285.000000,4280.384766,4328.717773,4396.410156,4297.692383,4283.974121,4477.948730,4502.692383,4341.794922,4407.948730,0.000000,1.000000,23.000000,,,,0.000000,2.000000,2.000000,0.000000,4.000000,2.000000,2.000000,0.000000,0.000000,4.000000,4.000000,4.000000,4.000000,4.000000,4.000000,0.000000,,,,,,,,,,,,,,,,,,,,,,,,,,,,
1732157576.092462,1732157576.093425,18.000000,0.000000,4290.641113,4274.871582,4296.922852,4296.666504,4288.846191,4281.794922,4326.794922,4392.948730,4297.948730,4281.153809,4470.512695,4496.538574,4333.461426,4397.820313,0.000000,1.000000,23.000000,,,,0.000000,2.000000,2.000000,0.000000,4.000000,2.000000,2.000000,0.000000,0.000000,4.000000,4.000000,4.000000,4.000000,4.000000,4.000000,0.000000,,,,,,,,,,,,,,,,,,,,,,,,,,,,
1732157576.100270,1732157576.101234,19.000000,0.000000,4291.922852,4279.615234,4296.410156,4303.589844,4290.769043,4288.333496,4327.692383,4396.025879,4298.974121,4279.871582,4473.461426,4504.358887,4338.077148,4397.436035,0.000000,1.000000,23.000000,,,,0.000000,2.000000,2.000000,0.000000,4.000000,2.000000,2.000000,0.000000,0.000000,4.000000,4.000000,4.000000,4.000000,4.000000,4.000000,0.000000,,,,,,,,,,,,,,,,,,,,,,,,,,,,
1732157576.108078,1732157576.108942,20.000000,0.000000,4287.948730,4275.769043,4300.000000,4302.948730,4290.897461,4293.974121,4330.128418,4399.358887,4296.922852,4275.128418,4477.692383,4505.512695,4344.871582,4403.077148,0.000000,1.000000,23.000000,,,,0.000000,2.000000,2.000000,0.000000,4.000000,2.000000,2.000000,0.000000,0.000000,4.000000,4.000000,4.000000,4.000000,4.000000,4.000000,0.000000,,,,,,,,,,,,,,,,,5.000000,0.000000,0.514923,0.505249,-0.517212,0.460510,0.974728,0.019045,-0.045904,-35.007092,46.198723,31.532881
1732157576.115887,1732157576.116750,21.000000,0.000000,4282.692383,4272.692383,4301.538574,4297.179688,4293.846191,4296.025879,4329.871582,4397.436035,4295.000000,4273.717773,4476.025879,4495.897461,4338.205078,4399.743652,0.000000,1.000000,23.000000,,,,0.000000,2.000000,2.000000,0.000000,4.000000,2.000000,2.000000,0.000000,0.000000,4.000000,4.000000,4.000000,4.000000,4.000000,4.000000,0.000000,,,,,,,,,,,,,,,,,,,,,,,,,,,,
1732157576.123695,1732157576.124758,22.000000,0.000000,4281.538574,4276.922852,4302.820313,4297.948730,4294.871582,4294.871582,4329.487305,4397.563965,4295.256348,4277.179688,4475.512695,4493.333496,4334.102539,4394.743652,0.000000,1.000000,23.000000,,,,0.000000,2.000000,2.000000,0.000000,4.000000,2.000000,2.000000,0.000000,0.000000,4.000000,4.000000,4.000000,4.000000,4.000000,4.000000,0.000000,,,,,,,,,,,,,,,,,,,,,,,,,,,,
1732157576.131503,1732157576.132566,23.000000,0.000000,4282.051270,4279.871582,4308.589844,4297.820313,4292.179688,4293.589844,4332.692383,4399.102539,4294.358887,4272.820313,4475.769043,4494.102539,4336.153809,4397.948730,0.000000,1.000000,23.000000,,,,0.000000,2.000000,2.000000,0.000000,4.000000,2.000000,2.000000,0.000000,0.000000,4.000000,4.000000,4.000000,4.000000,4.000000,4.000000,0.000000,,,,,,,,,,,,,,,,,,,,,,,,,,,,
1732157576.139311,1732157576.140474,24.000000,0.000000,4282.307617,4275.256348,4311.538574,4295.641113,4292.948730,4294.487305,4335.000000,4398.589844,4293.461426,4271.666504,4473.077148,4495.512695,4334.230957,4397.820313,0.000000,1.000000,23.000000,,,,0.000000,2.000000,2.000000,0.000000,4.000000,2.000000,2.000000,0.000000,0.000000,4.000000,4.000000,4.000000,4.000000,4.000000,4.000000,0.000000,,,,,,,,,,,,,,,,,6.000000,0.000000,0.515009,0.502380,-0.520508,0.459839,0.978635,0.021975,-0.045416,-34.689079,46.477631,31.589966
1732157576.147120,1732157576.148283,25.000000,0.000000,4280.897461,4267.948730,4309.230957,4295.256348,4295.384766,4295.512695,4333.333496,4398.589844,4295.641113,4281.153809,4472.820313,4499.615234,4333.205078,4396.538574,0.000000,1.000000,23.000000,,,,0.000000,2.000000,2.000000,0.000000,4.000000,2.000000,2.000000,0.000000,0.000000,4.000000,4.000000,4.000000,4.000000,4.000000,4.000000,0.000000,,,,,,,,,,,,,,,,,,,,,,,,,,,,
1732157576.154928,1732157576.156291,26.000000,0.000000,4280.128418,4266.666504,4310.256348,4296.666504,4290.769043,4291.666504,4333.333496,4398.077148,4297.436035,4280.128418,4474.487305,4499.743652,4335.256348,4398.461426,0.000000,1.000000,23.000000,,,,0.000000,2.000000,2.000000,0.000000,4.000000,2.000000,2.000000,0.000000,0.000000,4.000000,4.000000,4.000000,4.000000,4.000000,4.000000,0.000000,,,,,,,,,,,,,,,,,,,,,,,,,,,,
1732157576.162736,1732157576.164099,27.000000,0.000000,4280.128418,4268.974121,4311.025879,4295.512695,4287.948730,4290.256348,4335.256348,4397.820313,4295.384766,4267.948730,4473.717773,4497.820313,4327.307617,4397.051270,0.000000,1.000000,23.000000,,,,0.000000,2.000000,2.000000,0.000000,4.000000,2.000000,2.000000,0.000000,0.000000,4.000000,4.000000,4.000000,4.000000,4.000000,4.000000,0.000000,,,,,,,,,,,,,,,,,,,,,,,,,,,,
1732157576.170544,1732157576.172007,28.000000,0.000000,4280.384766,4267.820313,4311.282227,4296.410156,4292.820313,4295.384766,4334.743652,4399.615234,4294.358887,4271.153809,4471.538574,4500.641113,4320.641113,4398.333496,0.000000,1.000000,23.000000,,,,0.000000,2.000000,2.000000,0.000000,4.000000,2.000000,2.000000,0.000000,0.000000,4.000000,4.000000,4.000000,4.000000,4.000000,4.000000,0.000000,,,,,,,,,,,,,,,,,7.000000,0.000000,0.516072,0.499512,-0.523499,0.458374,0.966915,0.035161,-0.068368,-34.601486,46.603550,31.511206
1732157576.178352,1732157576.179815,29.000000,0.000000,4280.897461,4264.358887,4314.358887,4297.307617,4290.128418,4291.922852,4334.230957,4399.871582,4294.230957,4281.666504,4473.589844,4503.717773,4334.743652,4407.307617,0.000000,1.000000,23.000000,,,,0.000000,2.000000,2.000000,0.000000,4.000000,2.000000,2.000000,0.000000,0.000000,4.000000,4.000000,4.000000,4.000000,4.000000,4.000000,0.000000,,,,,,,,,,,,,,,,,,,,,,,,,,,,
1732157576.186161,1732157576.187823,30.000000,0.000000,4282.563965,4265.128418,4312.436035,4289.358887,4280.897461,4282.179688,4334.358887,4398.461426,4293.205078,4276.794922,4482.179688,4505.000000,4350.256348,4414.230957,0.000000,1.000000,23.000000,,,,0.000000,2.000000,2.000000,0.000000,4.000000,2.000000,2.000000,0.000000,0.000000,4.000000,4.000000,4.000000,4.000000,4.000000,4.000000,0.000000,,,,,,,,,,,,,,,,,,,,,,,,,,,,
1732157576.193969,1732157576.195631,31.000000,0.000000,4283.846191,4266.025879,4309.358887,4281.410156,4280.897461,4280.897461,4333.589844,4397.820313,4292.692383,4274.102539,4489.871582,4505.384766,4354.358887,4418.974121,0.000000,1.000000,23.000000,,,,0.000000,2.000000,2.000000,0.000000,4.000000,2.000000,2.000000,0.000000,0.000000,4.000000,4.000000,4.000000,4.000000,4.000000,4.000000,0.000000,,,,,,,,,,,,,,,,,,,,,,,,,,,,
1732157576.201777,1732157576.203539,32.000000,0.000000,4286.922852,4258.077148,4311.153809,4276.025879,4283.461426,4282.692383,4333.974121,4401.025879,4295.769043,4288.717773,4496.153809,4507.436035,4360.128418,4426.922852,0.000000,1.000000,23.000000,,,,0.000000,2.000000,2.000000,0.000000,4.000000,2.000000,2.000000,0.000000,0.000000,4.000000,4.000000,4.000000,4.000000,4.000000,4.000000,0.000000,,,,,,,,,,,,,,,,,8.000000,0.000000,0.516473,0.498657,-0.523865,0.458435,0.973263,0.045416,-0.041509,-34.522205,46.598873,31.460743
1732157576.209586,1732157576.211348,33.000000,0.000000,4290.769043,4248.974121,4314.358887,4269.358887,4277.307617,4280.128418,4334.743652,4402.051270,4298.205078,4299.487305,4504.487305,4511.794922,4371.922852,4432.051270,0.000000,1.000000,23.000000,,,,0.000000,2.000000,2.000000,0.000000,4.000000,2.000000,2.000000,0.000000,0.000000,4.000000,4.000000,4.000000,4.000000,4.000000,4.000000,0.000000,,,,,,,,,,,,,,,,,,,,,,,,,,,,
1732157576.217394,1732157576.219356,34.000000,0.000000,4289.230957,4247.820313,4313.333496,4269.871582,4274.871582,4279.102539,4336.153809,4399.487305,4296.922852,4296.282227,4507.051270,4513.589844,4375.897461,4430.769043,0.000000,1.000000,23.000000,,,,0.000000,2.000000,2.000000,0.000000,4.000000,2.000000,2.000000,0.000000,0.000000,4.000000,4.000000,4.000000,4.000000,4.000000,4.000000,0.000000,,,,,,,,,,,,,,,,,,,,,,,,,,,,
1732157576.225202,1732157576.227164,35.000000,0.000000,4282.563965,4248.717773,4311.922852,4276.538574,4280.256348,4281.410156,4337.179688,4399.871582,4301.410156,4295.384766,4503.717773,4516.410156,4371.666504,4428.846191,0.000000,1.000000,23.000000,,,,0.000000,2.000000,2.000000,0.000000,4.000000,2.000000,2.000000,0.000000,0.000000,4.000000,4.000000,4.000000,4.000000,4.000000,4.000000,0.000000,,,,,,,,,,,,,,,,,,,,,,,,,,,,
1732157576.233010,1732157576.235072,36.000000,0.000000,4280.384766,4246.153809,4312.179688,4276.282227,4282.051270,4282.563965,4336.025879,4401.538574,4307.692383,4297.820313,4503.333496,4521.794922,4370.512695,4428.461426,0.000000,1.000000,23.000000,,,,0.000000,2.000000,2.000000,0.000000,4.000000,2.000000,2.000000,0.000000,0.000000,4.000000,4.000000,4.000000,4.000000,4.000000,4.000000,0.000000,,,,,,,,,,,,,,,,,9.000000,0.000000,0.516642,0.498169,-0.524109,0.458496,0.984495,0.045904,-0.035649,-34.454651,46.453423,31.594870
1732157576.240819,1732157576.242880,37.000000,0.000000,4287.307617,4246.538574,4315.384766,4274.358887,4281.025879,4282.563965,4335.256348,4400.256348,4301.410156,4297.820313,4504.102539,4522.307617,4371.666504,4428.333496,0.000000,1.000000,23.000000,,,,0.000000,2.000000,2.000000,0.000000,4.000000,2.000000,2.000000,0.000000,0.000000,4.000000,4.000000,4.000000,4.000000,4.000000,4.000000,0.000000,,,,,,,,,,,,,,,,,,,,,,,,,,,,
1732157576.248627,1732157576.250888,38.000000,0.000000,4293.589844,4250.256348,4317.051270,4279.230957,4280.641113,4282.436035,4336.410156,4398.205078,4293.461426,4293.974121,4502.692383,4521.666504,4374.487305,4428.846191,0.000000,1.000000,23.000000,,,,0.000000,2.000000,2.000000,0.000000,4.000000,2.000000,2.000000,0.000000,0.000000,4.000000,4.000000,4.000000,4.000000,4.000000,4.000000,0.000000,,,,,,,,,,,,,,,,,,,,,,,,,,,,
1732157576.256435,1732157576.258696,39.000000,0.000000,4293.717773,4249.615234,4315.256348,4280.384766,4281.282227,4282.563965,4337.051270,4399.102539,4295.897461,4285.897461,4504.230957,4522.948730,4374.487305,4427.820313,0.000000,1.000000,23.000000,,,,0.000000,2.000000,2.000000,0.000000,4.000000,2.000000,2.000000,0.000000,0.000000,4.000000,4.000000,4.000000,4.000000,4.000000,4.000000,0.000000,,,,,,,,,,,,,,,,,,,,,,,,,,,,
1732157576.264243,1732157576.266604,40.000000,0.000000,4287.948730,4248.461426,4315.769043,4278.846191,4284.743652,4282.820313,4336.410156,4398.846191,4297.307617,4280.256348,4503.974121,4521.922852,4369.871582,4427.307617,0.000000,1.000000,23.000000,,,,0.000000,2.000000,2.000000,0.000000,4.000000,2.000000,2.000000,0.000000,0.000000,4.000000,4.000000,4.000000,4.000000,4.000000,4.000000,0.000000,,,,,,,,,,,,,,,,,10.000000,0.000000,0.517084,0.496277,-0.524292,0.459839,1.006471,0.009767,-0.024417,-34.619934,46.430607,31.520178
1732157576.272051,1732157576.274413,41.000000,0.000000,4283.974121,4250.769043,4317.820313,4280.897461,4282.563965,4283.077148,4336.538574,4399.487305,4293.974121,4282.948730,4503.333496,4521.794922,4367.948730,4427.051270,0.000000,1.000000,23.000000,,,,0.000000,2.000000,2.000000,0.000000,4.000000,2.000000,2.000000,0.000000,0.000000,4.000000,4.000000,4.000000,4.000000,4.000000,4.000000,0.000000,,,,,,,,,,,,,,,,,,,,,,,,,,,,
1732157576.279860,1732157576.282121,42.000000,0.000000,4286.025879,4252.051270,4317.051270,4282.692383,4278.974121,4282.436035,4336.666504,4402.436035,4294.615234,4284.615234,4505.641113,4523.461426,4369.102539,4427.307617,0.000000,1.000000,23.000000,,,,0.000000,2.000000,2.000000,0.000000,4.000000,2.000000,2.000000,0.000000,0.000000,4.000000,4.000000,4.000000,4.000000,4.000000,4.000000,0.000000,,,,,,,,,,,,,,,,,,,,,,,,,,,,
1732157576.287668,1732157576.289929,43.000000,0.000000,4287.948730,4248.974121,4313.461426,4282.436035,4293.846191,4281.410156,4336.666504,4400.128418,4295.641113,4280.641113,4501.410156,4519.871582,4366.282227,4429.102539,0.000000,1.000000,23.000000,,,,0.000000,2.000000,2.000000,0.000000,4.000000,2.000000,2.000000,0.000000,0.000000,4.000000,4.000000,4.000000,4.000000,4.000000,4.000000,0.000000,,,,,,,,,,,,,,,,,,,,,,,,,,,,
1732157576.295476,1732157576.297638,44.000000,0.000000,4290.000000,4250.512695,4310.897461,4281.538574,4301.666504,4281.410156,4336.538574,4397.692383,4296.410156,4280.512695,4494.102539,4519.230957,4363.846191,4428.974121,0.000000,1.000000,23.000000,,,,0.000000,2.000000,2.000000,0.000000,4.000000,2.000000,2.000000,0.000000,0.000000,4.000000,4.000000,4.000000,4.000000,4.000000,4.000000,0.000000,,,,,,,,,,,,,,,,,11.000000,0.000000,0.516842,0.495300,-0.525024,0.460327,1.021609,0.025882,-0.027835,-34.757149,46.245457,31.496344
1732157576.303285,1732157576.305446,45.000000,0.000000,4288.846191,4255.769043,4311.153809,4281.794922,4283.846191,4280.769043,4336.538574,4400.897461,4298.974121,4282.820313,4493.333496,4523.077148,4366.282227,4425.512695,0.000000,1.000000,23.000000,,,,0.000000,2.000000,2.000000,0.000000,4.000000,2.000000,2.000000,0.000000,0.000000,4.000000,4.000000,4.000000,4.000000,4.000000,4.000000,0.000000,,,,,,,,,,,,,,,,,,,,,,,,,,,,
1732157576.311093,1732157576.313054,46.000000,0.000000,4284.230957,4253.974121,4314.102539,4281.025879,4272.820313,4284.743652,4336.666504,4401.538574,4297.307617,4282.436035,4493.461426,4517.820313,4362.436035,4418.589844,0.000000,1.000000,23.000000,,,,0.000000,2.000000,2.000000,0.000000,4.000000,2.000000,2.000000,0.000000,0.000000,4.000000,4.000000,4.000000,4.000000,4.000000,4.000000,0.000000,,,,,,,,,,,,,,,,,,,,,,,,,,,,
1732157576.318901,1732157576.320862,47.000000,0.000000,4281.666504,4250.128418,4317.179688,4280.128418,4279.230957,4292.948730,4336.282227,4398.205078,4296.282227,4280.769043,4490.641113,4505.256348,4356.666504,4413.589844,0.000000,1.000000,23.000000,,,,0.000000,2.000000,2.000000,0.000000,4.000000,2.000000,2.000000,0.000000,0.000000,4.000000,4.000000,4.000000,4.000000,4.000000,4.000000,0.000000,,,,,,,,,,,,,,,,,,,,,,,,,,,,
1732157576.326709,1732157576.328571,48.000000,0.000000,4282.307617,4251.282227,4315.897461,4280.256348,4291.153809,4289.871582,4336.794922,4400.000000,4297.563965,4279.487305,4489.102539,4501.025879,4357.692383,4413.461426,0.000000,1.000000,23.000000,,,,0.000000,2.000000,2.000000,0.000000,4.000000,2.000000,2.000000,0.000000,0.000000,4.000000,4.000000,4.000000,4.000000,4.000000,4.000000,0.000000,,,,,,,,,,,,,,,,,12.000000,0.000000,0.516464,0.494934,-0.525635,0.460449,1.011354,0.014650,-0.046881,-34.644955,46.053822,31.518705
1732157576.334517,1732157576.336379,49.000000,0.000000,4282.820313,4250.000000,4316.666504,4281.153809,4299.102539,4280.128418,4336.794922,4402.436035,4295.384766,4276.794922,4485.769043,4505.641113,4358.974121,4413.205078,0.000000,1.000000,23.000000,,,,0.000000,2.000000,2.000000,0.000000,4.000000,2.000000,2.000000,0.000000,0.000000,4.000000,4.000000,4.000000,4.000000,4.000000,4.000000,0.000000,,,,,,,,,,,,,,,,,,,,,,,,,,,,
1732157576.342326,1732157576.343987,50.000000,0.000000,4286.922852,4250.256348,4317.307617,4283.461426,4289.102539,4282.820313,4335.641113,4400.641113,4295.256348,4278.589844,4489.230957,4506.794922,4362.563965,4412.563965,0.000000,1.000000,23.000000,,,,0.000000,2.000000,2.000000,0.000000,4.000000,2.000000,2.000000,0.000000,0.000000,4.000000,4.000000,4.000000,4.000000,4.000000,4.000000,0.000000,,,,,,,,,,,,,,,,,,,,,,,,,,,,
1732157576.350134,1732157576.351795,51.000000,0.000000,4289.743652,4258.333496,4320.256348,4284.230957,4273.589844,4287.307617,4337.179688,4402.692383,4298.717773,4284.358887,4500.769043,4505.897461,4369.358887,4417.051270,0.000000,1.000000,23.000000,,,,0.000000,2.000000,2.000000,0.000000,4.000000,2.000000,2.000000,0.000000,0.000000,4.000000,4.000000,4.000000,4.000000,4.000000,4.000000,0.000000,,,,,,,,,,,,,,,,,,,,,,,,,,,,
1732157576.357942,1732157576.359504,52.000000,0.000000,4284.615234,4257.948730,4332.051270,4280.384766,4273.205078,4281.153809,4341.922852,4406.282227,4295.641113,4283.846191,4500.512695,4513.717773,4370.384766,4423.333496,0.000000,1.000000,23.000000,,,,0.000000,2.000000,2.000000,0.000000,4.000000,2.000000,2.000000,0.000000,0.000000,4.000000,4.000000,4.000000,4.000000,4.000000,4.000000,0.000000,,,,,,,,,,,,,,,,,13.000000,0.000000,0.515360,0.494568,-0.526794,0.460754,0.979612,0.011720,-0.046392,-34.744080,46.011929,31.578484
1732157576.365750,1732157576.367312,53.000000,0.000000,4283.589844,4251.153809,4311.153809,4283.077148,4273.461426,4280.256348,4335.512695,4398.205078,4295.384766,4282.051270,4493.717773,4516.410156,4371.153809,4424.102539,0.000000,1.000000,23.000000,,,,0.000000,2.000000,2.000000,0.000000,4.000000,2.000000,2.000000,0.000000,0.000000,4.000000,4.000000,4.000000,4.000000,4.000000,4.000000,0.000000,,,,,,,,,,,,,,,,,,,,,,,,,,,,
1732157576.373559,1732157576.374920,54.000000,0.000000,4285.128418,4249.358887,4323.077148,4279.743652,4266.666504,4277.563965,4338.589844,4400.897461,4295.384766,4281.282227,4494.358887,4512.563965,4367.820313,4417.436035,0.000000,1.000000,23.000000,,,,0.000000,2.000000,2.000000,0.000000,4.000000,2.000000,2.000000,0.000000,0.000000,4.000000,4.000000,4.000000,4.000000,4.000000,4.000000,0.000000,,,,,,,,,,,,,,,,,,,,,,,,,,,,
1732157576.381367,1732157576.382729,55.000000,0.000000,4281.282227,4245.000000,4410.128418,4263.589844,4262.563965,4265.641113,4366.282227,4425.512695,4285.641113,4277.179688,4492.179688,4520.641113,4356.025879,4413.205078,0.000000,1.000000,23.000000,,,,0.000000,2.000000,2.000000,0.000000,4.000000,2.000000,2.000000,0.000000,0.000000,4.000000,4.000000,4.000000,4.000000,4.000000,4.000000,0.000000,,,,,,,,,,,,,,,,,,,,,,,,,,,,
1732157576.389175,1732157576.390437,56.000000,0.000000,4280.512695,4243.205078,4415.512695,4265.256348,4262.179688,4268.717773,4371.025879,4429.230957,4285.512695,4276.538574,4488.589844,4529.615234,4356.922852,4420.384766,0.000000,1.000000,23.000000,,,,0.000000,2.000000,2.000000,0.000000,4.000000,2.000000,2.000000,0.000000,0.000000,4.000000,4.000000,4.000000,4.000000,4.000000,4.000000,0.000000,,,,,,,,,,,,,,,,,14.000000,0.000000,0.513584,0.494202,-0.528442,0.461243,0.959101,0.005860,-0.058601,-34.772705,46.112995,31.763573
1732157576.396984,1732157576.398245,57.000000,0.000000,4286.025879,4252.307617,4326.025879,4282.051270,4278.846191,4280.769043,4343.974121,4406.666504,4296.794922,4280.641113,4491.922852,4518.974121,4366.794922,4424.871582,0.000000,1.000000,23.000000,,,,0.000000,2.000000,2.000000,0.000000,4.000000,2.000000,2.000000,0.000000,0.000000,4.000000,4.000000,4.000000,4.000000,4.000000,4.000000,0.000000,,,,,,,,,,,,,,,,,,,,,,,,,,,,
1732157576.404792,1732157576.406253,58.000000,0.000000,4292.307617,4260.000000,4306.025879,4281.794922,4292.820313,4279.230957,4331.794922,4399.358887,4297.051270,4285.384766,4492.179688,4512.179688,4366.153809,4419.230957,0.000000,1.000000,23.000000,,,,0.000000,2.000000,2.000000,0.000000,4.000000,2.000000,2.000000,0.000000,0.000000,4.000000,4.000000,4.000000,4.000000,4.000000,4.000000,0.000000,,,,,,,,,,,,,,,,,,,,,,,,,,,,
1732157576.412600,1732157576.414061,59.000000,0.000000,4292.948730,4258.333496,4338.461426,4279.102539,4275.512695,4276.025879,4343.077148,4407.436035,4291.794922,4287.563965,4488.846191,4519.487305,4362.563965,4416.794922,0.000000,1.000000,23.000000,,,,0.000000,2.000000,2.000000,0.000000,4.000000,2.000000,2.000000,0.000000,0.000000,4.000000,4.000000,4.000000,4.000000,4.000000,4.000000,0.000000,,,,,,,,,,,,,,,,,,,,,,,,,,,,
1732157576.420408,1732157576.421969,60.000000,0.000000,4290.000000,4261.410156,4326.153809,4289.487305,4258.205078,4279.871582,4346.025879,4405.000000,4294.102539,4285.000000,4490.512695,4520.128418,4366.922852,4420.000000,0.000000,1.000000,23.000000,,,,0.000000,2.000000,2.000000,0.000000,4.000000,2.000000,2.000000,0.000000,0.000000,4.000000,4.000000,4.000000,4.000000,4.000000,4.000000,0.000000,,,,,,,,,,,,,,,,,15.000000,0.000000,0.512596,0.494690,-0.528625,0.461609,0.962520,0.000977,-0.056159,-34.820892,46.244858,31.875160
1732157576.428216,1732157576.429778,61.000000,0.000000,4289.615234,4259.871582,4314.743652,4288.077148,4264.743652,4279.230957,4340.512695,4403.333496,4294.871582,4284.102539,4492.051270,4514.615234,4371.538574,4419.230957,0.000000,1.000000,23.000000,,,,0.000000,2.000000,2.000000,0.000000,4.000000,2.000000,2.000000,0.000000,0.000000,4.000000,4.000000,4.000000,4.000000,4.000000,4.000000,0.000000,,,,,,,,,,,,,,,,,,,,,,,,,,,,
1732157576.436025,1732157576.437386,62.000000,0.000000,4289.743652,4247.307617,4323.333496,4278.589844,4275.384766,4278.717773,4339.615234,4405.256348,4292.436035,4289.230957,4490.641113,4516.282227,4366.538574,4414.487305,0.000000,1.000000,23.000000,,,,0.000000,2.000000,2.000000,0.000000,4.000000,2.000000,2.000000,0.000000,0.000000,4.000000,4.000000,4.000000,4.000000,4.000000,4.000000,0.000000,,,,,,,,,,,,,,,,,,,,,,,,,,,,
1732157576.443833,1732157576.445194,63.000000,0.000000,4287.820313,4251.794922,4320.641113,4283.717773,4277.179688,4281.794922,4341.025879,4402.307617,4296.410156,4288.461426,4490.256348,4517.820313,4358.717773,4413.846191,0.000000,1.000000,23.000000,,,,0.000000,2.000000,2.000000,0.000000,4.000000,2.000000,2.000000,0.000000,0.000000,4.000000,4.000000,4.000000,4.000000,4.000000,4.000000,0.000000,,,,,,,,,,,,,,,,,,,,,,,,,,,,
1732157576.451641,1732157576.453102,64.000000,0.000000,4288.846191,4271.794922,4325.256348,4291.153809,4277.692383,4278.461426,4341.666504,4403.974121,4295.897461,4279.230957,4489.358887,4510.000000,4354.743652,4412.820313,0.000000,1.000000,23.000000,,,,0.000000,2.000000,2.000000,0.000000,4.000000,2.000000,2.000000,0.000000,0.000000,4.000000,4.000000,4.000000,4.000000,4.000000,4.000000,0.000000,,,,,,,,,,,,,,,,,16.000000,0.000000,0.512227,0.495056,-0.528320,0.461975,0.961055,0.012209,-0.065438,-34.823254,46.135002,31.677214
1732157576.459449,1732157576.460911,65.000000,0.000000,4292.563965,4281.025879,4325.256348,4296.153809,4280.128418,4275.384766,4337.179688,4404.358887,4285.897461,4279.102539,4483.077148,4501.666504,4352.179688,4407.051270,1606.000000,1.000000,23.000000,,,,0.000000,2.000000,2.000000,0.000000,4.000000,2.000000,2.000000,0.000000,0.000000,4.000000,4.000000,4.000000,4.000000,4.000000,4.000000,0.000000,,,,,,,,,,,,,,,,,,,,,,,,,,,,
1732157576.467258,1732157576.468519,66.000000,0.000000,4296.025879,4285.384766,4322.436035,4303.846191,4281.410156,4276.794922,4336.538574,4401.538574,4280.641113,4279.102539,4476.025879,4505.512695,4345.512695,4399.230957,1372.000000,1.000000,23.000000,,,,0.000000,2.000000,2.000000,0.000000,4.000000,2.000000,2.000000,0.000000,0.000000,4.000000,4.000000,4.000000,4.000000,4.000000,4.000000,0.000000,,,,,,,,,,,,,,,,,,,,,,,,,,,,
1732157576.475066,1732157576.476327,67.000000,0.000000,4297.307617,4295.897461,4322.563965,4308.974121,4281.538574,4277.563965,4336.410156,4403.974121,4287.820313,4269.743652,4472.948730,4504.743652,4335.769043,4397.436035,1427.000000,1.000000,23.000000,,,,0.000000,2.000000,2.000000,0.000000,4.000000,2.000000,2.000000,0.000000,0.000000,4.000000,4.000000,4.000000,4.000000,4.000000,4.000000,0.000000,,,,,,,,,,,,,,,,,,,,,,,,,,,,
1732157576.482874,1732157576.484036,68.000000,0.000000,4295.128418,4300.897461,4319.871582,4310.128418,4281.153809,4277.051270,4336.922852,4407.436035,4289.487305,4263.974121,4468.077148,4492.563965,4327.692383,4396.538574,1422.000000,1.000000,23.000000,,,,0.000000,2.000000,2.000000,0.000000,4.000000,2.000000,2.000000,0.000000,0.000000,4.000000,4.000000,4.000000,4.000000,4.000000,4.000000,0.000000,,,,,,,,,,,,,,,,,17.000000,0.000000,0.511243,0.496216,-0.527222,0.463074,0.989867,0.026370,-0.065926,-34.798504,46.331020,31.511875
1732157576.490682,1732157576.491844,69.000000,0.000000,4293.461426,4297.179688,4321.794922,4311.410156,4281.153809,4277.436035,4341.153809,4405.384766,4280.897461,4265.384766,4460.897461,4493.461426,4325.256348,4393.205078,1219.000000,1.000000,23.000000,,,,0.000000,2.000000,2.000000,0.000000,4.000000,2.000000,2.000000,0.000000,0.000000,4.000000,4.000000,4.000000,4.000000,4.000000,4.000000,0.000000,,,,,,,,,,,,,,,,,,,,,,,,,,,,
1732157576.498491,1732157576.499852,70.000000,0.000000,4294.871582,4296.025879,4321.666504,4312.179688,4281.538574,4278.333496,4341.538574,4402.820313,4279.358887,4266.282227,4459.230957,4502.820313,4325.641113,4395.512695,0.000000,1.000000,23.000000,,,,0.000000,2.000000,2.000000,0.000000,4.000000,2.000000,2.000000,0.000000,0.000000,4.000000,4.000000,4.000000,4.000000,4.000000,4.000000,0.000000,,,,,,,,,,,,,,,,,,,,,,,,,,,,
1732157576.506299,1732157576.507660,71.000000,0.000000,4292.692383,4295.256348,4320.128418,4310.769043,4283.205078,4279.230957,4340.256348,4403.077148,4282.563965,4264.358887,4462.563965,4502.820313,4320.128418,4396.922852,0.000000,1.000000,23.000000,,,,0.000000,2.000000,2.000000,0.000000,4.000000,2.000000,2.000000,0.000000,0.000000,4.000000,4.000000,4.000000,4.000000,4.000000,4.000000,0.000000,,,,,,,,,,,,,,,,,,,,,,,,,,,,
1732157576.514107,1732157576.515568,72.000000,0.000000,4291.153809,4293.974121,4320.256348,4309.871582,4278.974121,4280.641113,4340.641113,4403.974121,4281.794922,4264.230957,4462.948730,4498.461426,4316.153809,4393.846191,1531.000000,1.000000,23.000000,,,,0.000000,2.000000,2.000000,0.000000,4.000000,2.000000,2.000000,0.000000,0.000000,4.000000,4.000000,4.000000,4.000000,4.000000,4.000000,0.000000,,,,,,,,,,,,,,,,,18.000000,0.000000,0.510223,0.496765,-0.526672,0.464233,0.979123,0.012209,-0.041509,-34.901787,46.239792,31.439619
1732157576.521915,1732157576.523376,73.000000,0.000000,4293.589844,4292.436035,4321.410156,4310.000000,4282.051270,4281.282227,4341.922852,4405.384766,4280.769043,4264.615234,4460.512695,4498.974121,4320.256348,4394.102539,1686.000000,1.000000,23.000000,,,,0.000000,2.000000,2.000000,0.000000,4.000000,2.000000,2.000000,0.000000,0.000000,4.000000,4.000000,4.000000,4.000000,4.000000,4.000000,0.000000,,,,,,,,,,,,,,,,,,,,,,,,,,,,
1732157576.529724,1732157576.531384,74.000000,0.000000,4293.333496,4290.641113,4321.922852,4310.000000,4298.077148,4278.974121,4341.025879,4401.666504,4280.769043,4263.974121,4464.102539,4501.794922,4318.717773,4394.615234,1536.000000,1.000000,23.000000,,,,0.000000,2.000000,2.000000,0.000000,4.000000,2.000000,2.000000,0.000000,0.000000,4.000000,4.000000,4.000000,4.000000,4.000000,4.000000,0.000000,,,,,,,,,,,,,,,,,,,,,,,,,,,,
1732157576.537532,1732157576.539192,75.000000,0.000000,4292.820313,4290.256348,4319.615234,4312.051270,4290.641113,4277.563965,4341.282227,4399.230957,4283.205078,4265.256348,4473.205078,4505.256348,4316.282227,4394.102539,1573.000000,1.000000,23.000000,,,,0.000000,2.000000,2.000000,0.000000,4.000000,2.000000,2.000000,0.000000,0.000000,4.000000,4.000000,4.000000,4.000000,4.000000,4.000000,0.000000,,,,,,,,,,,,,,,,,,,,,,,,,,,,
1732157576.545340,1732157576.547101,76.000000,0.000000,4294.358887,4289.743652,4316.538574,4312.948730,4265.512695,4282.051270,4343.333496,4402.307617,4282.820313,4267.692383,4477.051270,4508.717773,4323.077148,4396.410156,1706.000000,1.000000,23.000000,,,,0.000000,2.000000,2.000000,0.000000,4.000000,2.000000,2.000000,0.000000,0.000000,4.000000,4.000000,4.000000,4.000000,4.000000,4.000000,0.000000,,,,,,,,,,,,,,,,,19.000000,0.000000,0.509852,0.496948,-0.526428,0.464722,0.979123,0.012209,-0.041509,-34.713783,46.109230,31.154425
1732157576.553148,1732157576.554909,77.000000,0.000000,4294.102539,4288.589844,4317.692383,4312.563965,4267.051270,4277.051270,4341.538574,4402.307617,4280.256348,4268.077148,4472.820313,4507.179688,4328.077148,4398.846191,1644.000000,1.000000,23.000000,,,,0.000000,2.000000,2.000000,0.000000,4.000000,2.000000,2.000000,0.000000,0.000000,4.000000,4.000000,4.000000,4.000000,4.000000,4.000000,0.000000,,,,,,,,,,,,,,,,,,,,,,,,,,,,
1732157576.560957,1732157576.562917,78.000000,0.000000,4293.846191,4284.615234,4320.897461,4313.205078,4281.410156,4267.307617,4334.871582,4401.666504,4284.358887,4265.769043,4469.743652,4505.897461,4323.717773,4397.948730,1536.000000,1.000000,23.000000,,,,0.000000,2.000000,2.000000,0.000000,4.000000,2.000000,2.000000,0.000000,0.000000,4.000000,4.000000,4.000000,4.000000,4.000000,4.000000,0.000000,1.000000,0.000000,2.000000,2.000000,0.000000,4.000000,2.000000,2.000000,0.000000,0.000000,4.000000,4.000000,4.000000,4.000000,4.000000,4.000000,,,,,,,,,,,,
1732157576.568765,1732157576.570725,79.000000,0.000000,4292.179688,4280.641113,4319.102539,4309.615234,4278.333496,4271.153809,4332.436035,4404.102539,4291.666504,4266.410156,4472.563965,4505.384766,4322.179688,4396.794922,1573.000000,1.000000,23.000000,,,,0.000000,2.000000,2.000000,0.000000,4.000000,2.000000,2.000000,0.000000,0.000000,4.000000,4.000000,4.000000,4.000000,4.000000,4.000000,0.000000,,,,,,,,,,,,,,,,,,,,,,,,,,,,
1732157576.576573,1732157576.578633,80.000000,0.000000,4289.230957,4281.025879,4318.077148,4304.743652,4275.897461,4273.589844,4336.794922,4401.922852,4296.794922,4272.051270,4474.743652,4506.666504,4326.538574,4398.205078,1706.000000,1.000000,23.000000,,,,0.000000,2.000000,2.000000,0.000000,4.000000,2.000000,2.000000,0.000000,0.000000,4.000000,4.000000,4.000000,4.000000,4.000000,4.000000,0.000000,,,,,,,,,,,,,,,,,20.000000,0.000000,0.509537,0.497009,-0.526245,0.465210,0.971798,0.000000,-0.046392,-34.638165,45.998478,31.108418
1732157576.584381,1732157576.586441,81.000000,0.000000,4293.205078,4281.922852,4321.025879,4308.333496,4281.922852,4266.794922,4336.666504,4398.205078,4293.717773,4275.897461,4471.153809,4506.794922,4327.820313,4399.487305,1644.000000,1.000000,23.000000,,,,0.000000,2.000000,2.000000,0.000000,4.000000,2.000000,2.000000,0.000000,0.000000,4.000000,4.000000,4.000000,4.000000,4.000000,4.000000,0.000000,,,,,,,,,,,,,,,,,,,,,,,,,,,,
1732157576.592190,1732157576.594449,82.000000,0.000000,4295.384766,4281.666504,4320.769043,4312.179688,4281.153809,4267.820313,4334.615234,4399.743652,4284.487305,4271.025879,4470.000000,4505.897461,4326.922852,4400.128418,1536.000000,1.000000,23.000000,,,,0.000000,2.000000,2.000000,0.000000,4.000000,2.000000,2.000000,0.000000,0.000000,4.000000,4.000000,4.000000,4.000000,4.000000,4.000000,0.000000,,,,,,,,,,,,,,,,,,,,,,,,,,,,
1732157576.599998,1732157576.602258,83.000000,0.000000,4285.512695,4281.538574,4317.436035,4302.820313,4279.615234,4270.256348,4337.563965,4401.153809,4282.692383,4264.871582,4475.128418,4507.307617,4326.794922,4398.333496,1573.000000,1.000000,23.000000,,,,0.000000,2.000000,2.000000,0.000000,4.000000,2.000000,2.000000,0.000000,0.000000,4.000000,4.000000,4.000000,4.000000,4.000000,4.000000,0.000000,,,,,,,,,,,,,,,,,,,,,,,,,,,,
1732157576.607806,1732157576.610166,84.000000,0.000000,4278.974121,4280.000000,4318.974121,4293.205078,4280.000000,4265.128418,4340.897461,4400.384766,4284.615234,4265.384766,4469.102539,4506.666504,4325.000000,4391.666504,1706.000000,1.000000,23.000000,,,,0.000000,2.000000,2.000000,0.000000,4.000000,2.000000,2.000000,0.000000,0.000000,4.000000,4.000000,4.000000,4.000000,4.000000,4.000000,0.000000,,,,,,,,,,,,,,,,,21.000000,0.000000,0.509541,0.496582,-0.526428,0.465454,0.993285,-0.000488,-0.049322,-34.911911,46.060432,31.106152
1732157576.615614,1732157576.617974,85.000000,0.000000,4282.307617,4278.205078,4319.487305,4298.333496,4283.205078,4270.769043,4340.897461,4399.615234,4283.974121,4266.025879,4461.410156,4504.615234,4325.512695,4387.563965,1644.000000,1.000000,23.000000,,,,0.000000,2.000000,2.000000,0.000000,4.000000,2.000000,2.000000,0.000000,0.000000,4.000000,4.000000,4.000000,4.000000,4.000000,4.000000,0.000000,,,,,,,,,,,,,,,,,,,,,,,,,,,,
1732157576.623423,1732157576.625982,86.000000,0.000000,4282.563965,4279.358887,4316.153809,4302.563965,4284.358887,4280.641113,4337.820313,4399.615234,4290.897461,4266.410156,4470.641113,4505.128418,4327.179688,4392.820313,1536.000000,1.000000,23.000000,,,,0.000000,2.000000,2.000000,0.000000,4.000000,2.000000,2.000000,0.000000,0.000000,4.000000,4.000000,4.000000,4.000000,4.000000,4.000000,0.000000,,,,,,,,,,,,,,,,,,,,,,,,,,,,
1732157576.631231,1732157576.633790,87.000000,0.000000,4279.615234,4280.512695,4316.538574,4298.077148,4278.205078,4281.153809,4335.256348,4401.025879,4300.256348,4270.128418,4472.436035,4507.051270,4327.179688,4394.743652,1573.000000,1.000000,23.000000,,,,0.000000,2.000000,2.000000,0.000000,4.000000,2.000000,2.000000,0.000000,0.000000,4.000000,4.000000,4.000000,4.000000,4.000000,4.000000,0.000000,,,,,,,,,,,,,,,,,,,,,,,,,,,,
1732157576.639039,1732157576.641698,88.000000,0.000000,4279.743652,4278.205078,4319.358887,4295.384766,4288.077148,4276.666504,4335.384766,4402.307617,4290.256348,4269.743652,4460.769043,4506.282227,4327.692383,4388.589844,1706.000000,1.000000,23.000000,,,,0.000000,2.000000,2.000000,0.000000,4.000000,2.000000,2.000000,0.000000,0.000000,4.000000,4.000000,4.000000,4.000000,4.000000,4.000000,0.000000,,,,,,,,,,,,,,,,,22.000000,0.000000,0.509991,0.495972,-0.527161,0.464783,0.988402,0.000977,-0.053717,-35.001984,46.048950,31.299316
1732157576.646847,1732157576.649506,89.000000,0.000000,4281.538574,4276.410156,4320.512695,4297.179688,4299.230957,4271.153809,4335.384766,4402.948730,4280.256348,4265.000000,4463.717773,4501.153809,4329.615234,4390.512695,1644.000000,1.000000,23.000000,,,,0.000000,2.000000,2.000000,0.000000,4.000000,2.000000,2.000000,0.000000,0.000000,4.000000,4.000000,4.000000,4.000000,4.000000,4.000000,0.000000,,,,,,,,,,,,,,,,,,,,,,,,,,,,
1732157576.654656,1732157576.657115,90.000000,0.000000,4283.205078,4278.333496,4322.051270,4296.794922,4278.077148,4273.589844,4334.615234,4403.717773,4286.410156,4265.769043,4471.538574,4500.384766,4328.077148,4397.948730,1536.000000,1.000000,23.000000,,,,0.000000,2.000000,2.000000,0.000000,4.000000,2.000000,2.000000,0.000000,0.000000,4.000000,4.000000,4.000000,4.000000,4.000000,4.000000,0.000000,,,,,,,,,,,,,,,,,,,,,,,,,,,,
1732157576.662464,1732157576.664923,91.000000,0.000000,4282.436035,4279.358887,4321.922852,4294.230957,4258.717773,4280.000000,4335.641113,4403.461426,4289.487305,4268.974121,4462.436035,4501.410156,4323.717773,4397.563965,1573.000000,1.000000,23.000000,,,,0.000000,2.000000,2.000000,0.000000,4.000000,2.000000,2.000000,0.000000,0.000000,4.000000,4.000000,4.000000,4.000000,4.000000,4.000000,0.000000,,,,,,,,,,,,,,,,,,,,,,,,,,,,
1732157576.670272,1732157576.672631,92.000000,0.000000,4281.153809,4276.153809,4320.897461,4294.487305,4270.897461,4280.256348,4337.051270,4403.461426,4291.153809,4267.307617,4456.922852,4499.743652,4323.717773,4395.641113,1706.000000,1.000000,23.000000,,,,0.000000,2.000000,2.000000,0.000000,4.000000,2.000000,2.000000,0.000000,0.000000,4.000000,4.000000,4.000000,4.000000,4.000000,4.000000,0.000000,,,,,,,,,,,,,,,,,23.000000,0.000000,0.510176,0.495850,-0.527527,0.464294,0.975217,0.014650,-0.056648,-34.969940,46.387985,31.369112
1732157576.678080,1732157576.680440,93.000000,0.000000,4283.589844,4276.025879,4321.410156,4297.179688,4280.769043,4278.589844,4336.666504,4403.333496,4295.512695,4265.769043,4467.563965,4494.358887,4326.282227,4397.563965,1644.000000,1.000000,23.000000,,,,0.000000,2.000000,2.000000,0.000000,4.000000,2.000000,2.000000,0.000000,0.000000,4.000000,4.000000,4.000000,4.000000,4.000000,4.000000,0.000000,,,,,,,,,,,,,,,,,,,,,,,,,,,,
1732157576.685889,1732157576.688048,94.000000,0.000000,4285.512695,4280.641113,4321.153809,4297.179688,4274.743652,4279.743652,4336.410156,4401.025879,4294.743652,4270.512695,4470.897461,4494.230957,4327.051270,4398.077148,1536.000000,1.000000,23.000000,,,,0.000000,2.000000,2.000000,0.000000,4.000000,2.000000,2.000000,0.000000,0.000000,4.000000,4.000000,4.000000,4.000000,4.000000,4.000000,0.000000,,,,,,,,,,,,,,,,,,,,,,,,,,,,
1732157576.693697,1732157576.695856,95.000000,0.000000,4288.846191,4281.282227,4321.153809,4296.538574,4277.948730,4278.461426,4335.769043,4399.487305,4292.051270,4277.436035,4463.589844,4499.743652,4329.615234,4399.743652,1573.000000,1.000000,23.000000,,,,0.000000,2.000000,2.000000,0.000000,4.000000,2.000000,2.000000,0.000000,0.000000,4.000000,4.000000,4.000000,4.000000,4.000000,4.000000,0.000000,,,,,,,,,,,,,,,,,,,,,,,,,,,,
1732157576.701505,1732157576.703564,96.000000,0.000000,4292.307617,4280.641113,4322.948730,4300.769043,4282.307617,4277.820313,4335.641113,4399.615234,4293.461426,4279.743652,4463.974121,4498.461426,4335.128418,4399.102539,1706.000000,1.000000,23.000000,,,,0.000000,2.000000,2.000000,0.000000,4.000000,2.000000,2.000000,0.000000,0.000000,4.000000,4.000000,4.000000,4.000000,4.000000,4.000000,0.000000,,,,,,,,,,,,,,,,,24.000000,0.000000,0.511813,0.496155,-0.526672,0.463135,0.971798,0.021487,-0.065438,-35.033985,46.495934,31.300648
1732157576.709313,1732157576.711373,97.000000,0.000000,4288.461426,4282.692383,4323.077148,4301.282227,4276.794922,4276.153809,4336.153809,4400.256348,4293.589844,4277.179688,4467.436035,4491.666504,4334.743652,4391.666504,1644.000000,1.000000,23.000000,,,,0.000000,2.000000,2.000000,0.000000,4.000000,2.000000,2.000000,0.000000,0.000000,4.000000,4.000000,4.000000,4.000000,4.000000,4.000000,0.000000,,,,,,,,,,,,,,,,,,,,,,,,,,,,
1732157576.717121,1732157576.718981,98.000000,0.000000,4284.871582,4281.538574,4319.743652,4295.256348,4272.948730,4268.077148,4335.769043,4400.256348,4292.563965,4278.974121,4462.307617,4489.358887,4328.077148,4388.205078,1536.000000,1.000000,23.000000,,,,0.000000,2.000000,2.000000,0.000000,4.000000,2.000000,2.000000,0.000000,0.000000,4.000000,4.000000,4.000000,4.000000,4.000000,4.000000,0.000000,,,,,,,,,,,,,,,,,,,,,,,,,,,,
1732157576.724930,1732157576.726789,99.000000,0.000000,4288.077148,4278.461426,4315.384766,4294.358887,4275.256348,4263.461426,4335.384766,4400.384766,4290.512695,4277.948730,4459.230957,4490.128418,4327.563965,4392.307617,1573.000000,1.000000,23.000000,,,,0.000000,2.000000,2.000000,0.000000,4.000000,2.000000,2.000000,0.000000,0.000000,4.000000,4.000000,4.000000,4.000000,4.000000,4.000000,0.000000,,,,,,,,,,,,,,,,,,,,,,,,,,,,
1732157576.732738,1732157576.734498,100.000000,0.000000,4288.846191,4279.230957,4315.512695,4297.692383,4281.025879,4271.025879,4335.512695,4402.307617,4281.922852,4268.974121,4463.333496,4489.230957,4332.436035,4396.025879,1706.000000,1.000000,23.000000,,,,0.000000,2.000000,2.000000,0.000000,4.000000,2.000000,2.000000,0.000000,0.000000,4.000000,4.000000,4.000000,4.000000,4.000000,4.000000,0.000000,,,,,,,,,,,,,,,,,25.000000,0.000000,0.513981,0.496033,-0.526123,0.461487,0.957636,0.029789,-0.058113,-35.162525,46.450039,31.341858
1732157576.740546,1732157576.742306,101.000000,0.000000,4287.179688,4281.794922,4322.179688,4298.077148,4277.179688,4280.769043,4335.641113,4403.589844,4277.692383,4264.102539,4463.205078,4497.563965,4334.358887,4394.871582,1644.000000,1.000000,23.000000,,,,0.000000,2.000000,2.000000,0.000000,4.000000,2.000000,2.000000,0.000000,0.000000,4.000000,4.000000,4.000000,4.000000,4.000000,4.000000,0.000000,,,,,,,,,,,,,,,,,,,,,,,,,,,,
1732157576.748355,1732157576.750314,102.000000,0.000000,4289.487305,4282.051270,4322.179688,4296.922852,4278.589844,4272.692383,4335.769043,4402.563965,4281.922852,4266.538574,4461.922852,4503.077148,4333.205078,4394.487305,1536.000000,1.000000,23.000000,,,,0.000000,2.000000,2.000000,0.000000,4.000000,2.000000,2.000000,0.000000,0.000000,4.000000,4.000000,4.000000,4.000000,4.000000,4.000000,0.000000,,,,,,,,,,,,,,,,,,,,,,,,,,,,
1732157576.756163,1732157576.758122,103.000000,0.000000,4288.974121,4281.282227,4316.922852,4297.436035,4293.333496,4261.922852,4335.384766,4401.666504,4281.666504,4267.051270,4461.794922,4495.000000,4330.897461,4396.666504,1573.000000,1.000000,23.000000,,,,0.000000,2.000000,2.000000,0.000000,4.000000,2.000000,2.000000,0.000000,0.000000,4.000000,4.000000,4.000000,4.000000,4.000000,4.000000,0.000000,,,,,,,,,,,,,,,,,,,,,,,,,,,,
1732157576.763971,1732157576.765830,104.000000,0.000000,4283.333496,4281.666504,4318.717773,4297.563965,4288.077148,4270.512695,4335.128418,4399.230957,4278.333496,4263.717773,4458.333496,4497.948730,4324.487305,4395.512695,1706.000000,1.000000,23.000000,,,,0.000000,2.000000,2.000000,0.000000,4.000000,2.000000,2.000000,0.000000,0.000000,4.000000,4.000000,4.000000,4.000000,4.000000,4.000000,0.000000,,,,,,,,,,,,,,,,,26.000000,0.000000,0.513981,0.496033,-0.526123,0.461487,0.966427,0.041997,-0.050299,-35.266647,46.442863,31.420238
1732157576.771779,1732157576.773639,105.000000,0.000000,4281.282227,4280.512695,4320.000000,4296.922852,4264.615234,4282.948730,4335.897461,4399.487305,4286.538574,4267.179688,4462.436035,4509.743652,4324.230957,4395.000000,1644.000000,1.000000,23.000000,,,,0.000000,2.000000,2.000000,0.000000,4.000000,2.000000,2.000000,0.000000,0.000000,4.000000,4.000000,4.000000,4.000000,4.000000,4.000000,0.000000,,,,,,,,,,,,,,,,,,,,,,,,,,,,
1732157576.779588,1732157576.781247,106.000000,0.000000,4281.410156,4276.282227,4316.282227,4293.974121,4262.820313,4281.538574,4336.666504,4404.102539,4297.179688,4276.153809,4473.077148,4502.820313,4336.794922,4397.692383,1536.000000,1.000000,23.000000,,,,0.000000,2.000000,2.000000,0.000000,4.000000,2.000000,2.000000,0.000000,0.000000,4.000000,4.000000,4.000000,4.000000,4.000000,4.000000,0.000000,,,,,,,,,,,,,,,,,,,,,,,,,,,,
1732157576.787396,1732157576.789055,107.000000,0.000000,4281.410156,4276.025879,4314.102539,4293.589844,4273.974121,4272.820313,4335.256348,4402.948730,4295.256348,4279.871582,4474.743652,4490.897461,4344.743652,4398.589844,1573.000000,1.000000,23.000000,,,,0.000000,2.000000,2.000000,0.000000,4.000000,2.000000,2.000000,0.000000,0.000000,4.000000,4.000000,4.000000,4.000000,4.000000,4.000000,0.000000,,,,,,,,,,,,,,,,,,,,,,,,,,,,
1732157576.795204,1732157576.796763,108.000000,0.000000,4282.436035,4276.538574,4314.487305,4293.974121,4268.589844,4266.282227,4334.871582,4397.436035,4291.153809,4278.717773,4472.563965,4499.743652,4344.743652,4395.384766,1706.000000,1.000000,23.000000,,,,0.000000,2.000000,2.000000,0.000000,4.000000,2.000000,2.000000,0.000000,0.000000,4.000000,4.000000,4.000000,4.000000,4.000000,4.000000,0.000000,,,,,,,,,,,,,,,,,27.000000,0.000000,0.515454,0.495483,-0.526001,0.460571,0.959101,0.040044,-0.039067,-35.015984,46.363720,31.482059
1732157576.803012,1732157576.804572,109.000000,0.000000,4282.436035,4270.000000,4313.974121,4286.922852,4263.717773,4265.641113,4337.179688,4397.692383,4295.256348,4279.358887,4476.282227,4507.692383,4351.666504,4397.179688,1644.000000,1.000000,23.000000,,,,0.000000,2.000000,2.000000,0.000000,4.000000,2.000000,2.000000,0.000000,0.000000,4.000000,4.000000,4.000000,4.000000,4.000000,4.000000,0.000000,,,,,,,,,,,,,,,,,,,,,,,,,,,,
1732157576.810820,1732157576.812180,110.000000,0.000000,4281.025879,4263.589844,4314.102539,4279.743652,4266.794922,4267.948730,4336.410156,4400.384766,4297.692383,4280.897461,4481.153809,4502.563965,4361.282227,4407.307617,1536.000000,1.000000,23.000000,,,,0.000000,2.000000,2.000000,0.000000,4.000000,2.000000,2.000000,0.000000,0.000000,4.000000,4.000000,4.000000,4.000000,4.000000,4.000000,0.000000,,,,,,,,,,,,,,,,,,,,,,,,,,,,
1732157576.818629,1732157576.819988,111.000000,0.000000,4282.179688,4262.563965,4312.948730,4279.871582,4264.871582,4265.512695,4333.589844,4398.461426,4293.205078,4278.589844,4479.358887,4502.436035,4357.820313,4408.205078,1573.000000,1.000000,23.000000,,,,0.000000,2.000000,2.000000,0.000000,4.000000,2.000000,2.000000,0.000000,0.000000,4.000000,4.000000,4.000000,4.000000,4.000000,4.000000,0.000000,,,,,,,,,,,,,,,,,,,,,,,,,,,,
1732157576.826437,1732157576.827896,112.000000,0.000000,4281.410156,4260.897461,4311.794922,4280.000000,4267.307617,4266.922852,4334.487305,4397.820313,4291.410156,4277.307617,4474.487305,4506.922852,4351.025879,4399.487305,1706.000000,1.000000,23.000000,,,,0.000000,2.000000,2.000000,0.000000,4.000000,2.000000,2.000000,0.000000,0.000000,4.000000,4.000000,4.000000,4.000000,4.000000,4.000000,0.000000,,,,,,,,,,,,,,,,,28.000000,0.000000,0.518555,0.492310,-0.526733,0.459656,0.966915,0.037602,-0.024417,-35.204613,46.276279,31.508802
1732157576.834245,1732157576.835705,113.000000,0.000000,4278.205078,4262.051270,4313.333496,4278.974121,4267.563965,4277.179688,4336.538574,4399.487305,4293.974121,4279.358887,4474.230957,4503.589844,4351.922852,4397.436035,1644.000000,1.000000,23.000000,,,,0.000000,2.000000,2.000000,0.000000,4.000000,2.000000,2.000000,0.000000,0.000000,4.000000,4.000000,4.000000,4.000000,4.000000,4.000000,0.000000,,,,,,,,,,,,,,,,,,,,,,,,,,,,
1732157576.842054,1732157576.843713,114.000000,0.000000,4278.333496,4262.051270,4314.487305,4279.743652,4263.461426,4281.153809,4335.384766,4398.974121,4288.717773,4277.820313,4478.846191,4499.487305,4352.436035,4401.153809,1536.000000,1.000000,23.000000,,,,0.000000,2.000000,2.000000,0.000000,4.000000,2.000000,2.000000,0.000000,0.000000,4.000000,4.000000,4.000000,4.000000,4.000000,4.000000,0.000000,,,,,,,,,,,,,,,,,,,,,,,,,,,,
1732157576.849862,1732157576.851521,115.000000,0.000000,4279.487305,4250.769043,4312.948730,4279.358887,4277.436035,4278.077148,4334.487305,4398.461426,4281.282227,4275.256348,4478.077148,4501.025879,4350.128418,4397.948730,1573.000000,1.000000,23.000000,,,,0.000000,2.000000,2.000000,0.000000,4.000000,2.000000,2.000000,0.000000,0.000000,4.000000,4.000000,4.000000,4.000000,4.000000,4.000000,0.000000,,,,,,,,,,,,,,,,,,,,,,,,,,,,
1732157576.857670,1732157576.859429,116.000000,0.000000,4277.948730,4247.948730,4313.333496,4278.077148,4287.692383,4277.051270,4335.512695,4401.666504,4289.871582,4278.589844,4472.948730,4503.589844,4350.769043,4393.589844,1706.000000,1.000000,23.000000,,,,0.000000,2.000000,2.000000,0.000000,4.000000,2.000000,2.000000,0.000000,0.000000,4.000000,4.000000,4.000000,4.000000,4.000000,4.000000,0.000000,,,,,,,,,,,,,,,,,29.000000,0.000000,0.519725,0.490845,-0.527161,0.459412,0.977170,0.046881,-0.015627,-35.320736,46.310455,31.647129
1732157576.865478,1732157576.867237,117.000000,0.000000,4277.820313,4259.743652,4314.871582,4281.794922,4268.717773,4278.974121,4334.743652,4404.615234,4297.307617,4282.948730,4473.205078,4503.077148,4351.410156,4396.410156,1644.000000,1.000000,23.000000,,,,0.000000,2.000000,2.000000,0.000000,4.000000,2.000000,2.000000,0.000000,0.000000,4.000000,4.000000,4.000000,4.000000,4.000000,4.000000,0.000000,,,,,,,,,,,,,,,,,,,,,,,,,,,,
1732157576.873286,1732157576.875245,118.000000,0.000000,4279.358887,4256.922852,4314.102539,4283.461426,4255.897461,4281.538574,4334.487305,4401.025879,4286.538574,4280.897461,4476.025879,4500.897461,4349.743652,4397.179688,1536.000000,1.000000,23.000000,,,,0.000000,2.000000,2.000000,0.000000,4.000000,2.000000,2.000000,0.000000,0.000000,4.000000,4.000000,4.000000,4.000000,4.000000,4.000000,0.000000,,,,,,,,,,,,,,,,,,,,,,,,,,,,
1732157576.881095,1732157576.883053,119.000000,0.000000,4280.128418,4247.436035,4311.410156,4279.871582,4264.743652,4282.051270,4336.538574,4398.077148,4283.717773,4278.717773,4476.666504,4497.948730,4356.153809,4396.666504,1573.000000,1.000000,23.000000,,,,0.000000,2.000000,2.000000,0.000000,4.000000,2.000000,2.000000,0.000000,0.000000,4.000000,4.000000,4.000000,4.000000,4.000000,4.000000,0.000000,,,,,,,,,,,,,,,,,,,,,,,,,,,,
1732157576.888903,1732157576.890762,120.000000,0.000000,4281.794922,4253.846191,4309.743652,4279.487305,4268.974121,4280.000000,4332.948730,4399.230957,4294.871582,4279.743652,4474.102539,4494.230957,4360.256348,4398.717773,1706.000000,1.000000,23.000000,,,,0.000000,2.000000,2.000000,0.000000,4.000000,2.000000,2.000000,0.000000,0.000000,4.000000,4.000000,4.000000,4.000000,4.000000,4.000000,0.000000,,,,,,,,,,,,,,,,,30.000000,0.000000,0.519725,0.490845,-0.527161,0.459412,1.000610,0.037602,-0.025882,-35.219795,46.338135,31.864176
1732157576.896711,1732157576.898570,121.000000,0.000000,4281.538574,4262.051270,4312.692383,4282.436035,4266.794922,4277.563965,4330.512695,4400.128418,4295.897461,4279.102539,4477.436035,4491.282227,4351.794922,4397.692383,1644.000000,1.000000,23.000000,,,,0.000000,2.000000,2.000000,0.000000,4.000000,2.000000,2.000000,0.000000,0.000000,4.000000,4.000000,4.000000,4.000000,4.000000,4.000000,0.000000,,,,,,,,,,,,,,,,,,,,,,,,,,,,
1732157576.904519,1732157576.906578,122.000000,0.000000,4280.000000,4258.589844,4313.589844,4282.051270,4264.615234,4277.692383,4333.589844,4398.589844,4291.666504,4279.615234,4488.717773,4497.820313,4351.666504,4399.615234,1536.000000,1.000000,23.000000,,,,0.000000,2.000000,2.000000,0.000000,4.000000,2.000000,2.000000,0.000000,0.000000,4.000000,4.000000,4.000000,4.000000,4.000000,4.000000,0.000000,,,,,,,,,,,,,,,,,,,,,,,,,,,,
1732157576.912328,1732157576.914386,123.000000,0.000000,4281.153809,4252.948730,4311.922852,4280.256348,4271.538574,4278.205078,4335.897461,4398.333496,4294.615234,4282.051270,4490.512695,4504.487305,4359.487305,4405.256348,1573.000000,1.000000,23.000000,,,,0.000000,2.000000,2.000000,0.000000,4.000000,2.000000,2.000000,0.000000,0.000000,4.000000,4.000000,4.000000,4.000000,4.000000,4.000000,0.000000,,,,,,,,,,,,,,,,,,,,,,,,,,,,
1732157576.920136,1732157576.922294,124.000000,0.000000,4281.922852,4250.000000,4310.897461,4280.128418,4288.205078,4277.051270,4332.179688,4398.461426,4295.256348,4281.538574,4477.179688,4499.102539,4353.717773,4403.461426,1706.000000,1.000000,23.000000,,,,0.000000,2.000000,2.000000,0.000000,4.000000,2.000000,2.000000,0.000000,0.000000,4.000000,4.000000,4.000000,4.000000,4.000000,4.000000,0.000000,,,,,,,,,,,,,,,,,31.000000,0.000000,0.520787,0.489563,-0.527039,0.459717,0.983030,0.039067,-0.021975,-35.198036,46.400555,31.763315
1732157576.927944,1732157576.930102,125.000000,0.000000,4280.897461,4253.077148,4312.179688,4279.230957,4281.538574,4278.077148,4330.897461,4397.692383,4293.077148,4280.256348,4472.948730,4497.692383,4345.256348,4397.948730,1644.000000,1.000000,23.000000,,,,0.000000,2.000000,2.000000,0.000000,4.000000,2.000000,2.000000,0.000000,0.000000,4.000000,4.000000,4.000000,4.000000,4.000000,4.000000,0.000000,,,,,,,,,,,,,,,,,,,,,,,,,,,,
1732157576.935753,1732157576.938110,126.000000,0.000000,4281.282227,4260.256348,4312.820313,4280.256348,4258.333496,4281.153809,4333.717773,4396.538574,4294.230957,4284.230957,4485.384766,4506.538574,4353.589844,4402.820313,1536.000000,1.000000,23.000000,,,,0.000000,2.000000,2.000000,0.000000,4.000000,2.000000,2.000000,0.000000,0.000000,4.000000,4.000000,4.000000,4.000000,4.000000,4.000000,0.000000,,,,,,,,,,,,,,,,,,,,,,,,,,,,
1732157576.943561,1732157576.945919,127.000000,0.000000,4281.922852,4263.717773,4313.077148,4286.025879,4259.743652,4281.410156,4334.743652,4396.410156,4295.256348,4290.256348,4487.692383,4507.179688,4359.615234,4410.512695,23.000000,1.000000,23.000000,,,,0.000000,2.000000,2.000000,0.000000,4.000000,2.000000,2.000000,0.000000,0.000000,4.000000,4.000000,4.000000,4.000000,4.000000,4.000000,0.000000,,,,,,,,,,,,,,,,,,,,,,,,,,,,
1732157576.951369,1732157576.953827,0.000000,0.000000,4281.538574,4265.512695,4312.820313,4287.051270,4273.461426,4279.487305,4335.000000,4396.922852,4295.000000,4289.102539,4478.205078,4498.589844,4353.205078,4407.051270,0.000000,1.000000,23.000000,,,,0.000000,2.000000,2.000000,0.000000,4.000000,2.000000,2.000000,0.000000,0.000000,4.000000,4.000000,4.000000,4.000000,4.000000,4.000000,0.000000,,,,,,,,,,,,,,,,,0.000000,0.000000,0.520775,0.489380,-0.526794,0.460205,0.985472,0.034184,-0.017580,-35.238743,46.434448,31.798285
1732157576.959177,1732157576.961635,1.000000,0.000000,4281.282227,4263.589844,4310.769043,4286.025879,4277.436035,4279.487305,4334.743652,4396.538574,4293.333496,4282.179688,4475.000000,4495.384766,4347.563965,4401.538574,1604.000000,1.000000,23.000000,,,,0.000000,2.000000,2.000000,0.000000,4.000000,2.000000,2.000000,0.000000,0.000000,4.000000,4.000000,4.000000,4.000000,4.000000,4.000000,0.000000,,,,,,,,,,,,,,,,,,,,,,,,,,,,
1732157576.966985,1732157576.969643,2.000000,0.000000,4282.563965,4264.743652,4309.358887,4293.333496,4273.974121,4280.512695,4334.230957,4396.666504,4292.563965,4279.102539,4478.205078,4496.538574,4348.717773,4403.077148,1372.000000,1.000000,23.000000,,,,0.000000,2.000000,2.000000,0.000000,4.000000,2.000000,2.000000,0.000000,0.000000,4.000000,4.000000,4.000000,4.000000,4.000000,4.000000,0.000000,,,,,,,,,,,,,,,,,,,,,,,,,,,,
1732157576.974794,1732157576.977451,3.000000,0.000000,4283.717773,4266.666504,4309.487305,4292.563965,4277.820313,4278.974121,4334.358887,4396.666504,4294.743652,4281.410156,4478.846191,4497.307617,4353.846191,4406.666504,1424.000000,1.000000,23.000000,,,,0.000000,2.000000,2.000000,0.000000,4.000000,2.000000,2.000000,0.000000,0.000000,4.000000,4.000000,4.000000,4.000000,4.000000,4.000000,0.000000,,,,,,,,,,,,,,,,,,,,,,,,,,,,
1732157576.982602,1732157576.985359,4.000000,0.000000,4280.512695,4252.179688,4310.512695,4279.743652,4292.051270,4280.000000,4335.512695,4396.666504,4295.256348,4281.666504,4476.538574,4499.615234,4352.179688,4404.230957,1422.000000,1.000000,23.000000,,,,0.000000,2.000000,2.000000,0.000000,4.000000,2.000000,2.000000,0.000000,0.000000,4.000000,4.000000,4.000000,4.000000,4.000000,4.000000,0.000000,,,,,,,,,,,,,,,,,1.000000,0.000000,0.520575,0.489502,-0.526611,0.460510,0.985960,0.027835,-0.018069,-35.161713,46.763573,31.614944
1732157576.990410,1732157576.993167,5.000000,0.000000,4281.922852,4247.820313,4310.769043,4285.256348,4288.589844,4282.436035,4334.871582,4396.666504,4291.922852,4278.717773,4474.871582,4503.077148,4342.948730,4398.077148,1219.000000,1.000000,23.000000,,,,0.000000,2.000000,2.000000,0.000000,4.000000,2.000000,2.000000,0.000000,0.000000,4.000000,4.000000,4.000000,4.000000,4.000000,4.000000,0.000000,,,,,,,,,,,,,,,,,,,,,,,,,,,,
1732157576.998218,1732157577.001175,6.000000,0.000000,4290.769043,4272.948730,4310.256348,4301.666504,4264.615234,4280.512695,4332.436035,4396.666504,4289.487305,4279.102539,4472.179688,4501.025879,4341.410156,4398.333496,0.000000,1.000000,23.000000,,,,0.000000,2.000000,2.000000,0.000000,4.000000,2.000000,2.000000,0.000000,0.000000,4.000000,4.000000,4.000000,4.000000,4.000000,4.000000,0.000000,,,,,,,,,,,,,,,,,,,,,,,,,,,,
1732157577.006027,1732157577.008984,7.000000,0.000000,4292.820313,4286.282227,4310.769043,4301.025879,4258.974121,4276.666504,4330.897461,4396.538574,4287.436035,4277.692383,4474.230957,4494.102539,4344.358887,4398.974121,0.000000,1.000000,23.000000,,,,0.000000,2.000000,2.000000,0.000000,4.000000,2.000000,2.000000,0.000000,0.000000,4.000000,4.000000,4.000000,4.000000,4.000000,4.000000,0.000000,,,,,,,,,,,,,,,,,,,,,,,,,,,,
1732157577.013835,1732157577.016692,8.000000,0.000000,4283.461426,4279.743652,4311.922852,4297.948730,4272.692383,4276.410156,4330.769043,4396.794922,4282.051270,4270.000000,4471.794922,4491.282227,4335.384766,4395.000000,1534.000000,1.000000,23.000000,,,,0.000000,2.000000,2.000000,0.000000,4.000000,2.000000,2.000000,0.000000,0.000000,4.000000,4.000000,4.000000,4.000000,4.000000,4.000000,0.000000,,,,,,,,,,,,,,,,,2.000000,0.000000,0.519961,0.489990,-0.526123,0.461243,0.993774,0.015627,-0.024417,-35.252655,46.571827,31.749771
1732157577.021643,1732157577.024500,9.000000,0.000000,4279.230957,4285.641113,4311.282227,4303.846191,4276.666504,4277.563965,4333.461426,4396.922852,4283.589844,4264.487305,4462.948730,4488.589844,4325.512695,4390.641113,1686.000000,1.000000,23.000000,,,,0.000000,2.000000,2.000000,0.000000,4.000000,2.000000,2.000000,0.000000,0.000000,4.000000,4.000000,4.000000,4.000000,4.000000,4.000000,0.000000,,,,,,,,,,,,,,,,,,,,,,,,,,,,
1732157577.029451,1732157577.032109,10.000000,0.000000,4289.102539,4296.410156,4310.000000,4307.179688,4279.358887,4276.922852,4334.871582,4396.153809,4292.692383,4266.666504,4459.615234,4486.666504,4327.179688,4384.230957,1534.000000,1.000000,23.000000,,,,0.000000,2.000000,2.000000,0.000000,4.000000,2.000000,2.000000,0.000000,0.000000,4.000000,4.000000,4.000000,4.000000,4.000000,4.000000,0.000000,,,,,,,,,,,,,,,,,,,,,,,,,,,,
1732157577.037260,1732157577.039917,11.000000,0.000000,4295.000000,4295.256348,4310.256348,4309.615234,4281.794922,4278.077148,4331.922852,4397.307617,4290.000000,4267.820313,4460.641113,4489.358887,4327.563965,4382.051270,1573.000000,1.000000,23.000000,,,,0.000000,2.000000,2.000000,0.000000,4.000000,2.000000,2.000000,0.000000,0.000000,4.000000,4.000000,4.000000,4.000000,4.000000,4.000000,0.000000,,,,,,,,,,,,,,,,,,,,,,,,,,,,
1732157577.045068,1732157577.047625,12.000000,0.000000,4290.128418,4295.769043,4311.538574,4311.025879,4276.538574,4281.410156,4330.256348,4399.358887,4280.384766,4265.256348,4459.871582,4486.538574,4323.717773,4388.333496,1708.000000,1.000000,23.000000,,,,0.000000,2.000000,2.000000,0.000000,4.000000,2.000000,2.000000,0.000000,0.000000,4.000000,4.000000,4.000000,4.000000,4.000000,4.000000,0.000000,,,,,,,,,,,,,,,,,3.000000,0.000000,0.518825,0.490845,-0.525269,0.462585,0.977658,0.013185,-0.025882,-34.856319,46.336514,31.733982
1732157577.052876,1732157577.055433,13.000000,0.000000,4286.922852,4297.436035,4310.641113,4307.692383,4290.128418,4281.538574,4331.282227,4399.230957,4280.000000,4264.487305,4457.692383,4476.025879,4320.769043,4388.717773,1638.000000,1.000000,23.000000,,,,0.000000,2.000000,2.000000,0.000000,4.000000,2.000000,2.000000,0.000000,0.000000,4.000000,4.000000,4.000000,4.000000,4.000000,4.000000,0.000000,,,,,,,,,,,,,,,,,,,,,,,,,,,,
1732157577.060684,1732157577.063042,14.000000,0.000000,4293.333496,4296.666504,4310.256348,4309.102539,4303.589844,4278.717773,4331.922852,4397.436035,4280.769043,4264.615234,4459.743652,4479.358887,4322.436035,4386.153809,1534.000000,1.000000,23.000000,,,,0.000000,2.000000,2.000000,0.000000,4.000000,2.000000,2.000000,0.000000,0.000000,4.000000,4.000000,4.000000,4.000000,4.000000,4.000000,0.000000,1.000000,0.000000,2.000000,2.000000,0.000000,4.000000,2.000000,2.000000,0.000000,0.000000,4.000000,4.000000,4.000000,4.000000,4.000000,4.000000,,,,,,,,,,,,
1732157577.068493,1732157577.070850,15.000000,0.000000,4297.563965,4297.692383,4313.205078,4313.461426,4282.051270,4278.077148,4332.820313,4397.307617,4280.641113,4264.871582,4460.641113,4488.846191,4325.384766,4391.538574,1573.000000,1.000000,23.000000,,,,0.000000,2.000000,2.000000,0.000000,4.000000,2.000000,2.000000,0.000000,0.000000,4.000000,4.000000,4.000000,4.000000,4.000000,4.000000,0.000000,,,,,,,,,,,,,,,,,,,,,,,,,,,,
1732157577.076301,1732157577.078558,16.000000,0.000000,4290.897461,4297.051270,4312.692383,4312.563965,4256.794922,4278.846191,4336.282227,4398.205078,4287.563965,4265.000000,4459.487305,4487.051270,4322.051270,4390.641113,0.000000,1.000000,23.000000,,,,0.000000,2.000000,2.000000,0.000000,4.000000,2.000000,2.000000,0.000000,0.000000,4.000000,4.000000,4.000000,4.000000,4.000000,4.000000,0.000000,,,,,,,,,,,,,,,,,4.000000,0.000000,0.518297,0.491333,-0.524902,0.463074,0.975705,0.016604,-0.030765,-34.701950,46.262573,31.804525
1732157577.084109,1732157577.086366,17.000000,0.000000,4287.563965,4294.487305,4311.282227,4310.256348,4269.230957,4277.820313,4336.666504,4397.820313,4290.256348,4264.230957,4459.487305,4485.769043,4315.769043,4382.692383,0.000000,1.000000,23.000000,,,,0.000000,2.000000,2.000000,0.000000,4.000000,2.000000,2.000000,0.000000,0.000000,4.000000,4.000000,4.000000,4.000000,4.000000,4.000000,0.000000,,,,,,,,,,,,,,,,,,,,,,,,,,,,
1732157577.091917,1732157577.093975,18.000000,0.000000,4288.333496,4293.205078,4314.358887,4308.461426,4295.769043,4277.436035,4331.538574,4396.538574,4280.769043,4264.743652,4454.487305,4489.743652,4316.410156,4383.846191,0.000000,1.000000,23.000000,,,,0.000000,2.000000,2.000000,0.000000,4.000000,2.000000,2.000000,0.000000,0.000000,4.000000,4.000000,4.000000,4.000000,4.000000,4.000000,0.000000,,,,,,,,,,,,,,,,,,,,,,,,,,,,
1732157577.099726,1732157577.101783,19.000000,0.000000,4285.000000,4294.358887,4313.589844,4307.820313,4295.256348,4277.051270,4330.769043,4395.897461,4279.358887,4265.512695,4453.717773,4490.641113,4318.205078,4386.282227,0.000000,1.000000,23.000000,,,,0.000000,2.000000,2.000000,0.000000,4.000000,2.000000,2.000000,0.000000,0.000000,4.000000,4.000000,4.000000,4.000000,4.000000,4.000000,0.000000,,,,,,,,,,,,,,,,,,,,,,,,,,,,
1732157577.107534,1732157577.109491,20.000000,0.000000,4281.153809,4293.846191,4309.358887,4309.487305,4274.487305,4278.461426,4334.615234,4397.820313,4290.256348,4265.769043,4460.256348,4489.743652,4317.563965,4381.922852,0.000000,1.000000,23.000000,,,,0.000000,2.000000,2.000000,0.000000,4.000000,2.000000,2.000000,0.000000,0.000000,4.000000,4.000000,4.000000,4.000000,4.000000,4.000000,0.000000,,,,,,,,,,,,,,,,,5.000000,0.000000,0.517917,0.491699,-0.524719,0.463318,0.975705,0.016604,-0.030765,-34.685246,46.249352,31.666666
1732157577.115342,1732157577.117300,21.000000,0.000000,4282.307617,4292.436035,4310.256348,4309.871582,4271.922852,4284.230957,4335.256348,4398.974121,4291.410156,4266.538574,4456.794922,4490.641113,4317.563965,4380.641113,0.000000,1.000000,23.000000,,,,0.000000,2.000000,2.000000,0.000000,4.000000,2.000000,2.000000,0.000000,0.000000,4.000000,4.000000,4.000000,4.000000,4.000000,4.000000,0.000000,,,,,,,,,,,,,,,,,,,,,,,,,,,,
1732157577.123150,1732157577.124908,22.000000,0.000000,4283.846191,4292.563965,4313.205078,4308.846191,4295.897461,4286.282227,4333.333496,4397.179688,4281.794922,4265.000000,4446.410156,4488.846191,4317.307617,4381.282227,0.000000,1.000000,23.000000,,,,0.000000,2.000000,2.000000,0.000000,4.000000,2.000000,2.000000,0.000000,0.000000,4.000000,4.000000,4.000000,4.000000,4.000000,4.000000,0.000000,,,,,,,,,,,,,,,,,,,,,,,,,,,,
1732157577.130959,1732157577.132716,23.000000,0.000000,4282.051270,4291.153809,4310.769043,4309.743652,4298.461426,4282.051270,4334.230957,4396.282227,4278.333496,4262.051270,4450.512695,4487.948730,4321.282227,4380.897461,0.000000,1.000000,23.000000,,,,0.000000,2.000000,2.000000,0.000000,4.000000,2.000000,2.000000,0.000000,0.000000,4.000000,4.000000,4.000000,4.000000,4.000000,4.000000,0.000000,,,,,,,,,,,,,,,,,,,,,,,,,,,,
1732157577.138767,1732157577.140425,24.000000,0.000000,4282.820313,4292.820313,4309.487305,4311.282227,4275.128418,4281.666504,4336.410156,4397.563965,4281.538574,4263.333496,4458.974121,4489.871582,4327.563965,4382.179688,0.000000,1.000000,23.000000,,,,0.000000,2.000000,2.000000,0.000000,4.000000,2.000000,2.000000,0.000000,0.000000,4.000000,4.000000,4.000000,4.000000,4.000000,4.000000,0.000000,,,,,,,,,,,,,,,,,6.000000,0.000000,0.517333,0.492554,-0.524170,0.463684,0.970822,0.020510,-0.033696,-34.531715,46.235310,31.503332
1732157577.146575,1732157577.148233,25.000000,0.000000,4283.461426,4295.256348,4311.666504,4311.153809,4272.692383,4283.333496,4335.897461,4398.333496,4280.641113,4265.769043,4456.025879,4491.153809,4326.538574,4385.384766,0.000000,1.000000,23.000000,,,,0.000000,2.000000,2.000000,0.000000,4.000000,2.000000,2.000000,0.000000,0.000000,4.000000,4.000000,4.000000,4.000000,4.000000,4.000000,0.000000,,,,,,,,,,,,,,,,,,,,,,,,,,,,
1732157577.154383,1732157577.155841,26.000000,0.000000,4281.410156,4290.128418,4312.436035,4305.769043,4283.589844,4281.794922,4333.717773,4397.563965,4280.641113,4264.230957,4457.307617,4491.025879,4323.846191,4385.641113,0.000000,1.000000,23.000000,,,,0.000000,2.000000,2.000000,0.000000,4.000000,2.000000,2.000000,0.000000,0.000000,4.000000,4.000000,4.000000,4.000000,4.000000,4.000000,0.000000,,,,,,,,,,,,,,,,,,,,,,,,,,,,
1732157577.162192,1732157577.163649,27.000000,0.000000,4278.589844,4283.461426,4311.794922,4298.205078,4283.205078,4280.384766,4333.077148,4397.692383,4282.948730,4262.436035,4461.153809,4491.025879,4325.384766,4381.410156,0.000000,1.000000,23.000000,,,,0.000000,2.000000,2.000000,0.000000,4.000000,2.000000,2.000000,0.000000,0.000000,4.000000,4.000000,4.000000,4.000000,4.000000,4.000000,0.000000,,,,,,,,,,,,,,,,,,,,,,,,,,,,
1732157577.170000,1732157577.171557,28.000000,0.000000,4277.692383,4283.717773,4310.641113,4298.461426,4278.974121,4281.153809,4333.974121,4397.948730,4279.743652,4261.410156,4458.461426,4491.025879,4326.538574,4380.256348,0.000000,1.000000,23.000000,,,,0.000000,2.000000,2.000000,0.000000,4.000000,2.000000,2.000000,0.000000,0.000000,4.000000,4.000000,4.000000,4.000000,4.000000,4.000000,0.000000,,,,,,,,,,,,,,,,,7.000000,0.000000,0.516985,0.493042,-0.524109,0.463623,0.989379,0.033207,-0.044439,-34.607357,46.457268,31.521032
1732157577.177808,1732157577.179366,29.000000,0.000000,4279.871582,4283.589844,4311.666504,4299.230957,4281.282227,4280.897461,4334.230957,4397.692383,4278.077148,4262.179688,4457.179688,4490.641113,4328.717773,4385.384766,0.000000,1.000000,23.000000,,,,0.000000,2.000000,2.000000,0.000000,4.000000,2.000000,2.000000,0.000000,0.000000,4.000000,4.000000,4.000000,4.000000,4.000000,4.000000,0.000000,,,,,,,,,,,,,,,,,,,,,,,,,,,,
1732157577.185616,1732157577.186974,30.000000,0.000000,4280.128418,4278.589844,4313.205078,4296.922852,4282.436035,4280.128418,4333.846191,4398.077148,4281.666504,4266.025879,4457.820313,4491.794922,4326.538574,4385.384766,0.000000,1.000000,23.000000,,,,0.000000,2.000000,2.000000,0.000000,4.000000,2.000000,2.000000,0.000000,0.000000,4.000000,4.000000,4.000000,4.000000,4.000000,4.000000,0.000000,,,,,,,,,,,,,,,,,,,,,,,,,,,,
1732157577.193425,1732157577.194782,31.000000,0.000000,4280.512695,4279.358887,4312.436035,4300.128418,4277.692383,4280.897461,4334.358887,4397.948730,4282.948730,4265.769043,4458.589844,4492.307617,4322.307617,4382.948730,0.000000,1.000000,23.000000,,,,0.000000,2.000000,2.000000,0.000000,4.000000,2.000000,2.000000,0.000000,0.000000,4.000000,4.000000,4.000000,4.000000,4.000000,4.000000,0.000000,,,,,,,,,,,,,,,,,,,,,,,,,,,,
1732157577.201233,1732157577.202491,32.000000,0.000000,4285.641113,4289.487305,4311.153809,4304.487305,4285.769043,4278.461426,4334.487305,4398.974121,4279.358887,4264.102539,4458.333496,4491.025879,4323.077148,4384.871582,0.000000,1.000000,23.000000,,,,0.000000,2.000000,2.000000,0.000000,4.000000,2.000000,2.000000,0.000000,0.000000,4.000000,4.000000,4.000000,4.000000,4.000000,4.000000,0.000000,,,,,,,,,,,,,,,,,8.000000,0.000000,0.516752,0.493286,-0.524109,0.463623,0.981077,0.026370,-0.039067,-34.713627,46.275387,31.327036
1732157577.209041,1732157577.210299,33.000000,0.000000,4292.179688,4301.922852,4311.153809,4306.538574,4299.487305,4272.820313,4332.948730,4400.000000,4277.051270,4263.846191,4452.692383,4489.615234,4320.000000,4385.256348,0.000000,1.000000,23.000000,,,,0.000000,2.000000,2.000000,0.000000,4.000000,2.000000,2.000000,0.000000,0.000000,4.000000,4.000000,4.000000,4.000000,4.000000,4.000000,0.000000,,,,,,,,,,,,,,,,,,,,,,,,,,,,
1732157577.216849,1732157577.217907,34.000000,0.000000,4294.487305,4306.282227,4311.025879,4313.589844,4283.077148,4273.589844,4333.589844,4398.589844,4276.282227,4257.948730,4446.153809,4485.512695,4312.307617,4381.922852,0.000000,1.000000,23.000000,,,,0.000000,2.000000,2.000000,0.000000,4.000000,2.000000,2.000000,0.000000,0.000000,4.000000,4.000000,4.000000,4.000000,4.000000,4.000000,0.000000,,,,,,,,,,,,,,,,,,,,,,,,,,,,
1732157577.224658,1732157577.225715,35.000000,0.000000,4294.230957,4304.230957,4310.512695,4317.307617,4259.743652,4280.000000,4336.666504,4397.563965,4275.512695,4251.025879,4444.615234,4484.615234,4309.230957,4381.666504,0.000000,1.000000,23.000000,,,,0.000000,2.000000,2.000000,0.000000,4.000000,2.000000,2.000000,0.000000,0.000000,4.000000,4.000000,4.000000,4.000000,4.000000,4.000000,0.000000,,,,,,,,,,,,,,,,,,,,,,,,,,,,
1732157577.232466,1732157577.233424,36.000000,0.000000,4293.974121,4305.128418,4311.025879,4312.948730,4268.974121,4280.512695,4338.077148,4397.563965,4277.179688,4251.282227,4445.384766,4485.000000,4310.128418,4381.922852,0.000000,1.000000,23.000000,,,,0.000000,2.000000,2.000000,0.000000,4.000000,2.000000,2.000000,0.000000,0.000000,4.000000,4.000000,4.000000,4.000000,4.000000,4.000000,0.000000,,,,,,,,,,,,,,,,,9.000000,0.000000,0.515573,0.493713,-0.524597,0.463928,0.966915,0.033207,-0.044927,-34.736370,46.254730,31.296566
1732157577.240274,1732157577.241232,37.000000,0.000000,4292.179688,4304.871582,4311.153809,4310.769043,4282.436035,4277.692383,4335.000000,4397.820313,4277.692383,4251.922852,4443.717773,4478.077148,4309.615234,4377.692383,0.000000,1.000000,23.000000,,,,0.000000,2.000000,2.000000,0.000000,4.000000,2.000000,2.000000,0.000000,0.000000,4.000000,4.000000,4.000000,4.000000,4.000000,4.000000,0.000000,,,,,,,,,,,,,,,,,,,,,,,,,,,,
1732157577.248082,1732157577.249240,38.000000,0.000000,4289.230957,4299.743652,4311.410156,4312.820313,4280.000000,4280.769043,4333.846191,4399.102539,4278.205078,4248.461426,4442.820313,4470.512695,4306.025879,4370.769043,0.000000,1.000000,23.000000,,,,0.000000,2.000000,2.000000,0.000000,4.000000,2.000000,2.000000,0.000000,0.000000,4.000000,4.000000,4.000000,4.000000,4.000000,4.000000,0.000000,,,,,,,,,,,,,,,,,,,,,,,,,,,,
1732157577.255890,1732157577.257048,39.000000,0.000000,4285.897461,4296.922852,4313.717773,4312.179688,4281.794922,4281.666504,4333.461426,4399.487305,4278.205078,4248.846191,4441.282227,4470.769043,4301.538574,4366.025879,0.000000,1.000000,23.000000,,,,0.000000,2.000000,2.000000,0.000000,4.000000,2.000000,2.000000,0.000000,0.000000,4.000000,4.000000,4.000000,4.000000,4.000000,4.000000,0.000000,,,,,,,,,,,,,,,,,,,,,,,,,,,,
1732157577.263699,1732157577.264956,40.000000,0.000000,4286.282227,4296.922852,4313.846191,4310.769043,4278.717773,4278.974121,4331.538574,4397.051270,4271.410156,4251.410156,4441.025879,4473.461426,4304.358887,4369.358887,0.000000,1.000000,23.000000,,,,0.000000,2.000000,2.000000,0.000000,4.000000,2.000000,2.000000,0.000000,0.000000,4.000000,4.000000,4.000000,4.000000,4.000000,4.000000,0.000000,,,,,,,,,,,,,,,,,10.000000,0.000000,0.513395,0.494446,-0.524475,0.465698,0.949823,0.020999,-0.047857,-34.866459,46.076332,31.141886
1732157577.271507,1732157577.272764,41.000000,0.000000,4291.282227,4296.410156,4313.077148,4309.871582,4279.615234,4274.871582,4332.307617,4395.641113,4266.922852,4249.102539,4443.846191,4476.410156,4311.282227,4373.461426,0.000000,1.000000,23.000000,,,,0.000000,2.000000,2.000000,0.000000,4.000000,2.000000,2.000000,0.000000,0.000000,4.000000,4.000000,4.000000,4.000000,4.000000,4.000000,0.000000,,,,,,,,,,,,,,,,,,,,,,,,,,,,
1732157577.279315,1732157577.280772,42.000000,0.000000,4293.461426,4300.384766,4314.358887,4311.922852,4295.000000,4270.512695,4333.333496,4396.922852,4273.589844,4248.717773,4443.846191,4477.948730,4310.256348,4373.974121,0.000000,1.000000,23.000000,,,,0.000000,2.000000,2.000000,0.000000,4.000000,2.000000,2.000000,0.000000,0.000000,4.000000,4.000000,4.000000,4.000000,4.000000,4.000000,0.000000,,,,,,,,,,,,,,,,,,,,,,,,,,,,
1732157577.287124,1732157577.288581,43.000000,0.000000,4294.871582,4305.897461,4313.717773,4318.589844,4286.153809,4273.461426,4333.333496,4396.410156,4280.769043,4259.358887,4445.128418,4475.000000,4310.256348,4378.717773,0.000000,1.000000,23.000000,,,,0.000000,2.000000,2.000000,0.000000,4.000000,2.000000,2.000000,0.000000,0.000000,4.000000,4.000000,4.000000,4.000000,4.000000,4.000000,0.000000,,,,,,,,,,,,,,,,,,,,,,,,,,,,
1732157577.294932,1732157577.296489,44.000000,0.000000,4293.333496,4301.538574,4311.282227,4318.077148,4261.538574,4279.743652,4336.410156,4396.282227,4275.384766,4265.641113,4447.436035,4479.230957,4314.102539,4383.077148,0.000000,1.000000,23.000000,,,,0.000000,2.000000,2.000000,0.000000,4.000000,2.000000,2.000000,0.000000,0.000000,4.000000,4.000000,4.000000,4.000000,4.000000,4.000000,0.000000,,,,,,,,,,,,,,,,,11.000000,0.000000,0.512660,0.494568,-0.524048,0.466858,0.975705,0.007325,-0.036137,-35.036831,45.921829,30.906593
1732157577.302740,1732157577.304297,45.000000,0.000000,4285.897461,4294.230957,4311.922852,4310.256348,4263.333496,4278.077148,4334.487305,4396.538574,4266.153809,4251.666504,4446.538574,4489.102539,4310.897461,4380.769043,0.000000,1.000000,23.000000,,,,0.000000,2.000000,2.000000,0.000000,4.000000,2.000000,2.000000,0.000000,0.000000,4.000000,4.000000,4.000000,4.000000,4.000000,4.000000,0.000000,,,,,,,,,,,,,,,,,,,,,,,,,,,,
1732157577.310548,1732157577.312305,46.000000,0.000000,4286.153809,4297.179688,4312.692383,4311.410156,4277.307617,4274.487305,4330.000000,4396.538574,4264.102539,4248.461426,4444.358887,4492.563965,4310.512695,4380.384766,0.000000,1.000000,23.000000,,,,0.000000,2.000000,2.000000,0.000000,4.000000,2.000000,2.000000,0.000000,0.000000,4.000000,4.000000,4.000000,4.000000,4.000000,4.000000,0.000000,,,,,,,,,,,,,,,,,,,,,,,,,,,,
1732157577.318357,1732157577.320113,47.000000,0.000000,4295.256348,4302.179688,4310.512695,4316.666504,4278.589844,4277.179688,4333.077148,4396.538574,4265.641113,4264.102539,4444.230957,4490.000000,4316.025879,4382.179688,0.000000,1.000000,23.000000,,,,0.000000,2.000000,2.000000,0.000000,4.000000,2.000000,2.000000,0.000000,0.000000,4.000000,4.000000,4.000000,4.000000,4.000000,4.000000,0.000000,,,,,,,,,,,,,,,,,,,,,,,,,,,,
1732157577.326165,1732157577.328021,48.000000,0.000000,4294.102539,4298.974121,4309.358887,4313.077148,4277.563965,4279.230957,4333.717773,4396.538574,4267.948730,4260.641113,4445.641113,4489.358887,4315.641113,4380.000000,0.000000,1.000000,23.000000,,,,0.000000,2.000000,2.000000,0.000000,4.000000,2.000000,2.000000,0.000000,0.000000,4.000000,4.000000,4.000000,4.000000,4.000000,4.000000,0.000000,,,,,,,,,,,,,,,,,12.000000,0.000000,0.512399,0.494507,-0.523926,0.467346,0.990355,0.013674,-0.021975,-35.228168,45.866680,30.874340
1732157577.333973,1732157577.335830,49.000000,0.000000,4286.538574,4294.358887,4311.922852,4309.102539,4281.153809,4277.948730,4328.589844,4396.538574,4269.358887,4246.153809,4448.077148,4490.897461,4315.256348,4382.179688,0.000000,1.000000,23.000000,,,,0.000000,2.000000,2.000000,0.000000,4.000000,2.000000,2.000000,0.000000,0.000000,4.000000,4.000000,4.000000,4.000000,4.000000,4.000000,0.000000,,,,,,,,,,,,,,,,,,,,,,,,,,,,
1732157577.341781,1732157577.343838,50.000000,0.000000,4289.230957,4296.282227,4314.615234,4313.717773,4283.461426,4277.820313,4331.922852,4396.538574,4268.846191,4249.487305,4448.846191,4491.922852,4317.051270,4384.743652,0.000000,1.000000,23.000000,,,,0.000000,2.000000,2.000000,0.000000,4.000000,2.000000,2.000000,0.000000,0.000000,4.000000,4.000000,4.000000,4.000000,4.000000,4.000000,0.000000,,,,,,,,,,,,,,,,,,,,,,,,,,,,
1732157577.349589,1732157577.351646,51.000000,0.000000,4293.589844,4298.589844,4313.974121,4314.487305,4279.615234,4279.230957,4337.307617,4396.538574,4265.384766,4256.153809,4444.743652,4491.025879,4315.384766,4378.717773,0.000000,1.000000,23.000000,,,,0.000000,2.000000,2.000000,0.000000,4.000000,2.000000,2.000000,0.000000,0.000000,4.000000,4.000000,4.000000,4.000000,4.000000,4.000000,0.000000,,,,,,,,,,,,,,,,,,,,,,,,,,,,
1732157577.357398,1732157577.359554,52.000000,0.000000,4293.846191,4294.743652,4312.563965,4308.974121,4282.179688,4276.794922,4332.307617,4396.538574,4268.077148,4249.230957,4442.692383,4487.563965,4311.922852,4373.974121,0.000000,1.000000,23.000000,,,,0.000000,2.000000,2.000000,0.000000,4.000000,2.000000,2.000000,0.000000,0.000000,4.000000,4.000000,4.000000,4.000000,4.000000,4.000000,0.000000,,,,,,,,,,,,,,,,,13.000000,0.000000,0.511182,0.494080,-0.524536,0.468445,0.994750,0.011720,-0.036626,-35.099815,45.972012,31.069883
1732157577.365206,1732157577.367362,53.000000,0.000000,4294.358887,4294.230957,4311.794922,4307.948730,4297.436035,4266.922852,4329.487305,4396.538574,4277.307617,4247.820313,4443.974121,4487.436035,4312.692383,4377.820313,0.000000,1.000000,23.000000,,,,0.000000,2.000000,2.000000,0.000000,4.000000,2.000000,2.000000,0.000000,0.000000,4.000000,4.000000,4.000000,4.000000,4.000000,4.000000,0.000000,,,,,,,,,,,,,,,,,,,,,,,,,,,,
1732157577.373014,1732157577.375370,54.000000,0.000000,4293.461426,4294.102539,4311.794922,4310.000000,4288.205078,4263.461426,4333.205078,4396.538574,4276.282227,4255.897461,4444.487305,4490.512695,4315.000000,4382.179688,0.000000,1.000000,23.000000,,,,0.000000,2.000000,2.000000,0.000000,4.000000,2.000000,2.000000,0.000000,0.000000,4.000000,4.000000,4.000000,4.000000,4.000000,4.000000,0.000000,,,,,,,,,,,,,,,,,,,,,,,,,,,,
1732157577.380823,1732157577.383178,55.000000,0.000000,4292.179688,4285.641113,4311.282227,4304.102539,4263.077148,4271.666504,4334.615234,4396.538574,4273.077148,4255.897461,4445.000000,4487.179688,4315.000000,4379.358887,0.000000,1.000000,23.000000,,,,0.000000,2.000000,2.000000,0.000000,4.000000,2.000000,2.000000,0.000000,0.000000,4.000000,4.000000,4.000000,4.000000,4.000000,4.000000,0.000000,,,,,,,,,,,,,,,,,,,,,,,,,,,,
1732157577.388631,1732157577.391086,56.000000,0.000000,4288.205078,4277.563965,4310.512695,4294.871582,4266.538574,4278.333496,4333.333496,4396.410156,4275.256348,4249.871582,4441.282227,4478.974121,4312.563965,4373.077148,0.000000,1.000000,23.000000,,,,0.000000,2.000000,2.000000,0.000000,4.000000,2.000000,2.000000,0.000000,0.000000,4.000000,4.000000,4.000000,4.000000,4.000000,4.000000,0.000000,,,,,,,,,,,,,,,,,14.000000,0.000000,0.510468,0.494507,-0.524719,0.468567,0.990355,0.024417,-0.030277,-35.262516,45.815662,31.223272
1732157577.396439,1732157577.398895,57.000000,0.000000,4281.666504,4278.589844,4310.769043,4298.077148,4281.282227,4279.615234,4330.641113,4396.282227,4271.282227,4246.025879,4432.820313,4473.589844,4308.461426,4369.230957,0.000000,1.000000,23.000000,,,,0.000000,2.000000,2.000000,0.000000,4.000000,2.000000,2.000000,0.000000,0.000000,4.000000,4.000000,4.000000,4.000000,4.000000,4.000000,0.000000,,,,,,,,,,,,,,,,,,,,,,,,,,,,
1732157577.404247,1732157577.406903,58.000000,0.000000,4281.794922,4283.205078,4311.794922,4305.512695,4277.948730,4275.769043,4331.025879,4396.794922,4267.051270,4246.922852,4432.692383,4476.794922,4308.589844,4373.589844,0.000000,1.000000,23.000000,,,,0.000000,2.000000,2.000000,0.000000,4.000000,2.000000,2.000000,0.000000,0.000000,4.000000,4.000000,4.000000,4.000000,4.000000,4.000000,0.000000,,,,,,,,,,,,,,,,,,,,,,,,,,,,
1732157577.412055,1732157577.414711,59.000000,0.000000,4289.615234,4289.615234,4311.282227,4303.717773,4274.615234,4267.436035,4335.897461,4396.153809,4274.102539,4251.922852,4442.179688,4481.794922,4312.179688,4380.000000,0.000000,1.000000,23.000000,,,,0.000000,2.000000,2.000000,0.000000,4.000000,2.000000,2.000000,0.000000,0.000000,4.000000,4.000000,4.000000,4.000000,4.000000,4.000000,0.000000,,,,,,,,,,,,,,,,,,,,,,,,,,,,
1732157577.419864,1732157577.422419,60.000000,0.000000,4294.102539,4295.256348,4310.384766,4303.205078,4280.512695,4263.333496,4334.102539,4396.282227,4275.128418,4256.922852,4446.538574,4482.307617,4316.410156,4379.871582,0.000000,1.000000,23.000000,,,,0.000000,2.000000,2.000000,0.000000,4.000000,2.000000,2.000000,0.000000,0.000000,4.000000,4.000000,4.000000,4.000000,4.000000,4.000000,0.000000,,,,,,,,,,,,,,,,,15.000000,0.000000,0.510468,0.494507,-0.524719,0.468567,0.991332,0.006348,-0.043462,-35.394306,45.719021,31.302517
1732157577.427672,1732157577.430227,61.000000,0.000000,4294.871582,4294.871582,4310.897461,4311.538574,4281.922852,4266.153809,4329.102539,4398.205078,4270.256348,4259.615234,4444.871582,4484.487305,4318.077148,4383.461426,0.000000,1.000000,23.000000,,,,0.000000,2.000000,2.000000,0.000000,4.000000,2.000000,2.000000,0.000000,0.000000,4.000000,4.000000,4.000000,4.000000,4.000000,4.000000,0.000000,,,,,,,,,,,,,,,,,,,,,,,,,,,,
1732157577.435480,1732157577.437836,62.000000,0.000000,4297.436035,4294.487305,4311.794922,4313.846191,4277.436035,4268.974121,4331.794922,4398.974121,4272.563965,4260.512695,4447.948730,4490.000000,4320.000000,4388.717773,0.000000,1.000000,23.000000,,,,0.000000,2.000000,2.000000,0.000000,4.000000,2.000000,2.000000,0.000000,0.000000,4.000000,4.000000,4.000000,4.000000,4.000000,4.000000,0.000000,,,,,,,,,,,,,,,,,,,,,,,,,,,,
1732157577.443288,1732157577.445644,63.000000,0.000000,4296.282227,4294.743652,4313.589844,4305.256348,4285.128418,4267.820313,4335.000000,4398.461426,4270.512695,4261.922852,4449.358887,4492.820313,4321.282227,4383.974121,0.000000,1.000000,23.000000,,,,0.000000,2.000000,2.000000,0.000000,4.000000,2.000000,2.000000,0.000000,0.000000,4.000000,4.000000,4.000000,4.000000,4.000000,4.000000,0.000000,,,,,,,,,,,,,,,,,,,,,,,,,,,,
1732157577.451097,1732157577.453352,64.000000,0.000000,4292.692383,4289.230957,4313.461426,4304.871582,4299.743652,4265.256348,4333.333496,4398.589844,4269.102539,4261.153809,4445.384766,4490.897461,4319.487305,4378.205078,0.000000,1.000000,23.000000,,,,0.000000,2.000000,2.000000,0.000000,4.000000,2.000000,2.000000,0.000000,0.000000,4.000000,4.000000,4.000000,4.000000,4.000000,4.000000,0.000000,,,,,,,,,,,,,,,,,16.000000,0.000000,0.508534,0.495850,-0.525330,0.468567,0.954218,0.000977,-0.047857,-35.152721,45.607407,31.261705
1732157577.458905,1732157577.461160,65.000000,0.000000,4293.205078,4288.333496,4309.743652,4311.794922,4284.102539,4271.153809,4333.205078,4397.948730,4279.102539,4263.846191,4450.384766,4489.358887,4320.769043,4381.666504,1603.000000,1.000000,23.000000,,,,0.000000,2.000000,2.000000,0.000000,4.000000,2.000000,2.000000,0.000000,0.000000,4.000000,4.000000,4.000000,4.000000,4.000000,4.000000,0.000000,,,,,,,,,,,,,,,,,,,,,,,,,,,,
1732157577.466713,1732157577.468769,66.000000,0.000000,4293.846191,4293.846191,4309.615234,4312.436035,4260.256348,4281.025879,4336.282227,4397.436035,4282.436035,4268.077148,4457.307617,4490.128418,4323.589844,4384.871582,1372.000000,1.000000,23.000000,,,,0.000000,2.000000,2.000000,0.000000,4.000000,2.000000,2.000000,0.000000,0.000000,4.000000,4.000000,4.000000,4.000000,4.000000,4.000000,0.000000,,,,,,,,,,,,,,,,,,,,,,,,,,,,
1732157577.474522,1732157577.476577,67.000000,0.000000,4293.717773,4289.615234,4311.538574,4306.922852,4271.538574,4275.512695,4335.384766,4398.077148,4276.794922,4267.692383,4453.461426,4491.410156,4319.743652,4381.025879,1424.000000,1.000000,23.000000,,,,0.000000,2.000000,2.000000,0.000000,4.000000,2.000000,2.000000,0.000000,0.000000,4.000000,4.000000,4.000000,4.000000,4.000000,4.000000,0.000000,,,,,,,,,,,,,,,,,,,,,,,,,,,,
1732157577.482330,1732157577.484285,68.000000,0.000000,4294.487305,4279.871582,4310.512695,4299.871582,4284.487305,4262.436035,4330.384766,4397.051270,4279.615234,4267.307617,4450.897461,4495.256348,4317.307617,4382.051270,1422.000000,1.000000,23.000000,,,,0.000000,2.000000,2.000000,0.000000,4.000000,2.000000,2.000000,0.000000,0.000000,4.000000,4.000000,4.000000,4.000000,4.000000,4.000000,0.000000,,,,,,,,,,,,,,,,,17.000000,0.000000,0.507373,0.496887,-0.525635,0.468384,0.976682,0.001953,-0.069344,-35.258705,45.413666,31.343647
1732157577.490138,1732157577.492094,69.000000,0.000000,4289.487305,4280.128418,4308.205078,4299.102539,4269.487305,4262.051270,4325.641113,4396.410156,4281.922852,4267.948730,4454.743652,4495.128418,4322.563965,4385.000000,1219.000000,1.000000,23.000000,,,,0.000000,2.000000,2.000000,0.000000,4.000000,2.000000,2.000000,0.000000,0.000000,4.000000,4.000000,4.000000,4.000000,4.000000,4.000000,0.000000,,,,,,,,,,,,,,,,,,,,,,,,,,,,
1732157577.497946,1732157577.499702,70.000000,0.000000,4281.410156,4283.205078,4307.436035,4300.000000,4274.358887,4266.794922,4327.692383,4396.922852,4270.256348,4266.025879,4449.102539,4488.461426,4322.563965,4378.077148,0.000000,1.000000,23.000000,,,,0.000000,2.000000,2.000000,0.000000,4.000000,2.000000,2.000000,0.000000,0.000000,4.000000,4.000000,4.000000,4.000000,4.000000,4.000000,0.000000,,,,,,,,,,,,,,,,,,,,,,,,,,,,
1732157577.505754,1732157577.507510,71.000000,0.000000,4284.230957,4280.000000,4308.717773,4298.461426,4293.717773,4265.128418,4334.743652,4397.563965,4264.871582,4263.974121,4439.615234,4484.230957,4316.666504,4372.436035,0.000000,1.000000,23.000000,,,,0.000000,2.000000,2.000000,0.000000,4.000000,2.000000,2.000000,0.000000,0.000000,4.000000,4.000000,4.000000,4.000000,4.000000,4.000000,0.000000,,,,,,,,,,,,,,,,,,,,,,,,,,,,
1732157577.513563,1732157577.515219,72.000000,0.000000,4292.820313,4277.692383,4308.717773,4299.102539,4279.102539,4264.615234,4333.205078,4397.820313,4274.615234,4265.128418,4445.769043,4489.102539,4317.179688,4379.358887,1528.000000,1.000000,23.000000,,,,0.000000,2.000000,2.000000,0.000000,4.000000,2.000000,2.000000,0.000000,0.000000,4.000000,4.000000,4.000000,4.000000,4.000000,4.000000,0.000000,,,,,,,,,,,,,,,,,18.000000,0.000000,0.507272,0.496826,-0.526062,0.468079,0.960078,-0.001953,-0.054694,-35.444550,45.388401,31.383354
1732157577.521371,1732157577.523027,73.000000,0.000000,4290.256348,4279.615234,4307.307617,4301.794922,4260.256348,4266.153809,4326.666504,4397.692383,4281.025879,4267.307617,4456.666504,4493.589844,4323.333496,4385.256348,1686.000000,1.000000,23.000000,,,,0.000000,2.000000,2.000000,0.000000,4.000000,2.000000,2.000000,0.000000,0.000000,4.000000,4.000000,4.000000,4.000000,4.000000,4.000000,0.000000,,,,,,,,,,,,,,,,,,,,,,,,,,,,
1732157577.529179,1732157577.530635,74.000000,0.000000,4282.948730,4279.487305,4307.563965,4297.692383,4262.692383,4266.025879,4328.846191,4398.205078,4277.307617,4267.820313,4460.512695,4492.563965,4326.410156,4380.769043,1534.000000,1.000000,23.000000,,,,0.000000,2.000000,2.000000,0.000000,4.000000,2.000000,2.000000,0.000000,0.000000,4.000000,4.000000,4.000000,4.000000,4.000000,4.000000,0.000000,,,,,,,,,,,,,,,,,,,,,,,,,,,,
1732157577.536987,1732157577.538443,75.000000,0.000000,4281.922852,4279.102539,4309.102539,4295.641113,4268.205078,4266.025879,4334.615234,4398.717773,4276.538574,4267.436035,4456.538574,4493.717773,4324.743652,4379.743652,1573.000000,1.000000,23.000000,,,,0.000000,2.000000,2.000000,0.000000,4.000000,2.000000,2.000000,0.000000,0.000000,4.000000,4.000000,4.000000,4.000000,4.000000,4.000000,0.000000,,,,,,,,,,,,,,,,,,,,,,,,,,,,
1732157577.544796,1732157577.546152,76.000000,0.000000,4283.205078,4279.358887,4309.743652,4298.077148,4278.846191,4265.128418,4332.820313,4398.461426,4279.743652,4267.692383,4451.025879,4493.846191,4324.487305,4383.077148,1688.000000,1.000000,23.000000,,,,0.000000,2.000000,2.000000,0.000000,4.000000,2.000000,2.000000,0.000000,0.000000,4.000000,4.000000,4.000000,4.000000,4.000000,4.000000,0.000000,,,,,,,,,,,,,,,,,19.000000,0.000000,0.507170,0.496765,-0.526001,0.468323,0.960078,-0.001953,-0.054694,-35.265087,45.441273,31.278851
1732157577.552604,1732157577.553960,77.000000,0.000000,4284.487305,4279.358887,4310.384766,4295.641113,4284.230957,4267.307617,4329.871582,4397.948730,4278.077148,4267.436035,4454.358887,4487.692383,4322.948730,4380.769043,1629.000000,1.000000,23.000000,,,,0.000000,2.000000,2.000000,0.000000,4.000000,2.000000,2.000000,0.000000,0.000000,4.000000,4.000000,4.000000,4.000000,4.000000,4.000000,0.000000,,,,,,,,,,,,,,,,,,,,,,,,,,,,
1732157577.560412,1732157577.561568,78.000000,0.000000,4289.230957,4279.358887,4309.615234,4294.871582,4266.538574,4276.025879,4334.871582,4397.820313,4275.256348,4267.948730,4457.948730,4485.897461,4320.641113,4380.000000,1534.000000,1.000000,23.000000,,,,0.000000,2.000000,2.000000,0.000000,4.000000,2.000000,2.000000,0.000000,0.000000,4.000000,4.000000,4.000000,4.000000,4.000000,4.000000,0.000000,1.000000,0.000000,2.000000,2.000000,0.000000,4.000000,2.000000,2.000000,0.000000,0.000000,4.000000,4.000000,4.000000,4.000000,4.000000,4.000000,,,,,,,,,,,,
1732157577.568221,1732157577.569377,79.000000,0.000000,4291.666504,4279.358887,4306.153809,4297.948730,4256.025879,4282.948730,4335.384766,4396.794922,4271.282227,4267.820313,4452.692383,4491.666504,4319.487305,4382.692383,1573.000000,1.000000,23.000000,,,,0.000000,2.000000,2.000000,0.000000,4.000000,2.000000,2.000000,0.000000,0.000000,4.000000,4.000000,4.000000,4.000000,4.000000,4.000000,0.000000,,,,,,,,,,,,,,,,,,,,,,,,,,,,
1732157577.576029,1732157577.577285,80.000000,0.000000,4285.384766,4279.102539,4308.333496,4296.666504,4265.641113,4280.512695,4328.589844,4396.153809,4267.436035,4265.897461,4446.538574,4492.051270,4318.077148,4381.410156,1688.000000,1.000000,23.000000,,,,0.000000,2.000000,2.000000,0.000000,4.000000,2.000000,2.000000,0.000000,0.000000,4.000000,4.000000,4.000000,4.000000,4.000000,4.000000,0.000000,,,,,,,,,,,,,,,,,20.000000,0.000000,0.507262,0.495728,-0.526184,0.469116,0.962520,0.000488,-0.033207,-35.143051,45.452431,31.109203
1732157577.583837,1732157577.585093,81.000000,0.000000,4281.282227,4279.487305,4312.051270,4294.871582,4268.974121,4277.820313,4325.128418,4396.794922,4267.820313,4265.384766,4446.666504,4480.897461,4316.282227,4376.666504,1629.000000,1.000000,23.000000,,,,0.000000,2.000000,2.000000,0.000000,4.000000,2.000000,2.000000,0.000000,0.000000,4.000000,4.000000,4.000000,4.000000,4.000000,4.000000,0.000000,,,,,,,,,,,,,,,,,,,,,,,,,,,,
1732157577.591645,1732157577.593101,82.000000,0.000000,4282.692383,4279.487305,4310.256348,4295.897461,4275.897461,4280.384766,4330.256348,4396.922852,4268.589844,4266.410156,4444.487305,4471.410156,4318.205078,4376.025879,1534.000000,1.000000,23.000000,,,,0.000000,2.000000,2.000000,0.000000,4.000000,2.000000,2.000000,0.000000,0.000000,4.000000,4.000000,4.000000,4.000000,4.000000,4.000000,0.000000,,,,,,,,,,,,,,,,,,,,,,,,,,,,
1732157577.599453,1732157577.600909,83.000000,0.000000,4283.205078,4278.461426,4308.589844,4298.589844,4280.641113,4281.666504,4335.000000,4396.282227,4268.333496,4266.282227,4442.948730,4472.563965,4320.512695,4377.948730,1573.000000,1.000000,23.000000,,,,0.000000,2.000000,2.000000,0.000000,4.000000,2.000000,2.000000,0.000000,0.000000,4.000000,4.000000,4.000000,4.000000,4.000000,4.000000,0.000000,,,,,,,,,,,,,,,,,,,,,,,,,,,,
1732157577.607262,1732157577.608617,84.000000,0.000000,4285.256348,4279.743652,4311.410156,4304.743652,4279.358887,4281.538574,4334.102539,4395.897461,4266.153809,4265.000000,4445.641113,4475.897461,4317.692383,4378.717773,1688.000000,1.000000,23.000000,,,,0.000000,2.000000,2.000000,0.000000,4.000000,2.000000,2.000000,0.000000,0.000000,4.000000,4.000000,4.000000,4.000000,4.000000,4.000000,0.000000,,,,,,,,,,,,,,,,,21.000000,0.000000,0.507651,0.495178,-0.526489,0.468933,0.981077,0.004883,-0.042974,-35.012539,45.493137,31.350121
1732157577.615070,1732157577.616426,85.000000,0.000000,4289.743652,4282.051270,4311.538574,4304.871582,4294.102539,4280.897461,4330.769043,4398.077148,4262.820313,4261.666504,4446.153809,4476.922852,4315.128418,4381.282227,1629.000000,1.000000,23.000000,,,,0.000000,2.000000,2.000000,0.000000,4.000000,2.000000,2.000000,0.000000,0.000000,4.000000,4.000000,4.000000,4.000000,4.000000,4.000000,0.000000,,,,,,,,,,,,,,,,,,,,,,,,,,,,
1732157577.622878,1732157577.624034,86.000000,0.000000,4292.948730,4281.538574,4309.487305,4300.512695,4294.230957,4280.769043,4328.205078,4399.487305,4266.922852,4260.897461,4449.487305,4482.820313,4317.563965,4383.077148,1534.000000,1.000000,23.000000,,,,0.000000,2.000000,2.000000,0.000000,4.000000,2.000000,2.000000,0.000000,0.000000,4.000000,4.000000,4.000000,4.000000,4.000000,4.000000,0.000000,,,,,,,,,,,,,,,,,,,,,,,,,,,,
1732157577.630686,1732157577.631842,87.000000,0.000000,4293.974121,4279.743652,4310.897461,4304.615234,4267.563965,4280.769043,4330.769043,4398.333496,4276.025879,4264.743652,4455.769043,4486.794922,4321.282227,4383.589844,1573.000000,1.000000,23.000000,,,,0.000000,2.000000,2.000000,0.000000,4.000000,2.000000,2.000000,0.000000,0.000000,4.000000,4.000000,4.000000,4.000000,4.000000,4.000000,0.000000,,,,,,,,,,,,,,,,,,,,,,,,,,,,
1732157577.638495,1732157577.639550,88.000000,0.000000,4292.179688,4279.358887,4312.692383,4306.153809,4261.922852,4280.384766,4333.205078,4397.436035,4276.282227,4267.692383,4457.179688,4482.948730,4324.743652,4383.974121,1688.000000,1.000000,23.000000,,,,0.000000,2.000000,2.000000,0.000000,4.000000,2.000000,2.000000,0.000000,0.000000,4.000000,4.000000,4.000000,4.000000,4.000000,4.000000,0.000000,,,,,,,,,,,,,,,,,22.000000,0.000000,0.507703,0.495117,-0.526550,0.468872,0.992309,0.013185,-0.036626,-34.911823,45.542774,31.501930
1732157577.646303,1732157577.647359,89.000000,0.000000,4291.025879,4279.615234,4313.077148,4300.897461,4276.922852,4281.025879,4333.333496,4398.205078,4270.512695,4265.256348,4455.512695,4485.128418,4327.179688,4385.256348,1629.000000,1.000000,23.000000,,,,0.000000,2.000000,2.000000,0.000000,4.000000,2.000000,2.000000,0.000000,0.000000,4.000000,4.000000,4.000000,4.000000,4.000000,4.000000,0.000000,,,,,,,,,,,,,,,,,,,,,,,,,,,,
1732157577.654111,1732157577.655367,90.000000,0.000000,4295.000000,4279.230957,4313.461426,4301.282227,4281.538574,4280.256348,4332.051270,4398.205078,4274.487305,4263.846191,4458.589844,4492.948730,4326.794922,4390.769043,1534.000000,1.000000,23.000000,,,,0.000000,2.000000,2.000000,0.000000,4.000000,2.000000,2.000000,0.000000,0.000000,4.000000,4.000000,4.000000,4.000000,4.000000,4.000000,0.000000,,,,,,,,,,,,,,,,,,,,,,,,,,,,
1732157577.661919,1732157577.663175,91.000000,0.000000,4297.563965,4280.384766,4313.077148,4302.692383,4278.974121,4278.717773,4331.153809,4397.307617,4279.743652,4271.153809,4462.307617,4493.205078,4326.666504,4397.051270,1573.000000,1.000000,23.000000,,,,0.000000,2.000000,2.000000,0.000000,4.000000,2.000000,2.000000,0.000000,0.000000,4.000000,4.000000,4.000000,4.000000,4.000000,4.000000,0.000000,,,,,,,,,,,,,,,,,,,,,,,,,,,,
1732157577.669728,1732157577.671083,92.000000,0.000000,4296.538574,4280.256348,4313.205078,4298.077148,4278.077148,4279.230957,4332.563965,4398.333496,4278.461426,4278.589844,4462.692383,4489.487305,4331.410156,4397.436035,1688.000000,1.000000,23.000000,,,,0.000000,2.000000,2.000000,0.000000,4.000000,2.000000,2.000000,0.000000,0.000000,4.000000,4.000000,4.000000,4.000000,4.000000,4.000000,0.000000,,,,,,,,,,,,,,,,,23.000000,0.000000,0.507750,0.495178,-0.526611,0.468689,0.993774,0.022952,-0.040532,-34.833576,45.566315,31.691565
1732157577.677536,1732157577.678891,93.000000,0.000000,4295.256348,4277.948730,4312.179688,4295.641113,4284.743652,4278.717773,4331.025879,4399.230957,4278.846191,4277.563965,4461.922852,4491.922852,4334.358887,4394.615234,1629.000000,1.000000,23.000000,,,,0.000000,2.000000,2.000000,0.000000,4.000000,2.000000,2.000000,0.000000,0.000000,4.000000,4.000000,4.000000,4.000000,4.000000,4.000000,0.000000,,,,,,,,,,,,,,,,,,,,,,,,,,,,
1732157577.685344,1732157577.686899,94.000000,0.000000,4292.820313,4277.179688,4308.333496,4297.179688,4290.512695,4277.051270,4330.512695,4398.077148,4281.153809,4275.897461,4465.000000,4494.871582,4336.922852,4396.922852,1534.000000,1.000000,23.000000,,,,0.000000,2.000000,2.000000,0.000000,4.000000,2.000000,2.000000,0.000000,0.000000,4.000000,4.000000,4.000000,4.000000,4.000000,4.000000,0.000000,,,,,,,,,,,,,,,,,,,,,,,,,,,,
1732157577.693152,1732157577.694707,95.000000,0.000000,4292.051270,4278.717773,4308.077148,4296.410156,4273.333496,4279.871582,4334.743652,4397.051270,4280.128418,4281.282227,4471.922852,4494.615234,4340.512695,4402.820313,1573.000000,1.000000,23.000000,,,,0.000000,2.000000,2.000000,0.000000,4.000000,2.000000,2.000000,0.000000,0.000000,4.000000,4.000000,4.000000,4.000000,4.000000,4.000000,0.000000,,,,,,,,,,,,,,,,,,,,,,,,,,,,
1732157577.700961,1732157577.702616,96.000000,0.000000,4294.615234,4279.102539,4310.897461,4297.179688,4258.205078,4281.410156,4336.538574,4398.077148,4276.410156,4280.641113,4469.487305,4493.077148,4338.077148,4402.436035,1688.000000,1.000000,23.000000,,,,0.000000,2.000000,2.000000,0.000000,4.000000,2.000000,2.000000,0.000000,0.000000,4.000000,4.000000,4.000000,4.000000,4.000000,4.000000,0.000000,,,,,,,,,,,,,,,,,24.000000,0.000000,0.506975,0.495972,-0.526611,0.468689,0.975705,0.010255,-0.049811,-34.890198,45.627048,31.358500
1732157577.708769,1732157577.710424,97.000000,0.000000,4293.205078,4278.077148,4310.128418,4296.025879,4263.461426,4277.692383,4332.436035,4398.333496,4276.282227,4267.948730,4459.615234,4490.641113,4332.820313,4396.794922,1629.000000,1.000000,23.000000,,,,0.000000,2.000000,2.000000,0.000000,4.000000,2.000000,2.000000,0.000000,0.000000,4.000000,4.000000,4.000000,4.000000,4.000000,4.000000,0.000000,,,,,,,,,,,,,,,,,,,,,,,,,,,,
1732157577.716577,1732157577.718432,98.000000,0.000000,4290.641113,4277.051270,4307.563965,4293.974121,4268.205078,4276.794922,4330.897461,4397.563965,4278.461426,4263.461426,4458.205078,4489.358887,4332.436035,4395.000000,1534.000000,1.000000,23.000000,,,,0.000000,2.000000,2.000000,0.000000,4.000000,2.000000,2.000000,0.000000,0.000000,4.000000,4.000000,4.000000,4.000000,4.000000,4.000000,0.000000,,,,,,,,,,,,,,,,,,,,,,,,,,,,
1732157577.724385,1732157577.726240,99.000000,0.000000,4293.077148,4277.307617,4308.589844,4294.871582,4267.692383,4278.589844,4334.615234,4397.820313,4278.077148,4272.307617,4465.000000,4493.077148,4335.000000,4394.743652,1573.000000,1.000000,23.000000,,,,0.000000,2.000000,2.000000,0.000000,4.000000,2.000000,2.000000,0.000000,0.000000,4.000000,4.000000,4.000000,4.000000,4.000000,4.000000,0.000000,,,,,,,,,,,,,,,,,,,,,,,,,,,,
1732157577.732194,1732157577.734148,100.000000,0.000000,4294.358887,4277.948730,4310.641113,4295.384766,4268.333496,4277.436035,4333.846191,4398.205078,4277.692383,4278.717773,4463.717773,4492.563965,4334.102539,4390.256348,1688.000000,1.000000,23.000000,,,,0.000000,2.000000,2.000000,0.000000,4.000000,2.000000,2.000000,0.000000,0.000000,4.000000,4.000000,4.000000,4.000000,4.000000,4.000000,0.000000,,,,,,,,,,,,,,,,,25.000000,0.000000,0.506975,0.495972,-0.526611,0.468689,0.970822,0.011720,-0.053717,-34.756062,45.781242,31.223719
1732157577.740002,1732157577.741956,101.000000,0.000000,4292.948730,4274.871582,4309.615234,4294.487305,4268.077148,4278.717773,4327.563965,4397.692383,4278.333496,4276.794922,4457.563965,4483.333496,4333.205078,4386.153809,1629.000000,1.000000,23.000000,,,,0.000000,2.000000,2.000000,0.000000,4.000000,2.000000,2.000000,0.000000,0.000000,4.000000,4.000000,4.000000,4.000000,4.000000,4.000000,0.000000,,,,,,,,,,,,,,,,,,,,,,,,,,,,
1732157577.747810,1732157577.749964,102.000000,0.000000,4293.333496,4273.974121,4308.461426,4294.615234,4274.230957,4280.769043,4326.538574,4397.179688,4278.205078,4276.025879,4458.589844,4481.025879,4336.666504,4387.436035,1534.000000,1.000000,23.000000,,,,0.000000,2.000000,2.000000,0.000000,4.000000,2.000000,2.000000,0.000000,0.000000,4.000000,4.000000,4.000000,4.000000,4.000000,4.000000,0.000000,,,,,,,,,,,,,,,,,,,,,,,,,,,,
1732157577.755618,1732157577.757772,103.000000,0.000000,4295.256348,4279.615234,4308.461426,4295.897461,4280.641113,4278.846191,4334.230957,4398.461426,4278.461426,4277.692383,4462.820313,4488.974121,4342.436035,4391.922852,1573.000000,1.000000,23.000000,,,,0.000000,2.000000,2.000000,0.000000,4.000000,2.000000,2.000000,0.000000,0.000000,4.000000,4.000000,4.000000,4.000000,4.000000,4.000000,0.000000,,,,,,,,,,,,,,,,,,,,,,,,,,,,
1732157577.763427,1732157577.765681,104.000000,0.000000,4297.436035,4280.256348,4308.461426,4297.692383,4272.692383,4276.410156,4335.897461,4397.563965,4280.512695,4280.000000,4466.666504,4491.922852,4342.948730,4396.922852,1688.000000,1.000000,23.000000,,,,0.000000,2.000000,2.000000,0.000000,4.000000,2.000000,2.000000,0.000000,0.000000,4.000000,4.000000,4.000000,4.000000,4.000000,4.000000,0.000000,,,,,,,,,,,,,,,,,26.000000,0.000000,0.506486,0.496399,-0.526733,0.468628,0.958613,0.004883,-0.049811,-35.024075,45.854473,31.212879
1732157577.771235,1732157577.773489,105.000000,0.000000,4300.512695,4277.948730,4308.846191,4298.461426,4265.384766,4278.077148,4331.410156,4395.897461,4280.641113,4278.717773,4463.205078,4488.717773,4333.589844,4395.769043,1629.000000,1.000000,23.000000,,,,0.000000,2.000000,2.000000,0.000000,4.000000,2.000000,2.000000,0.000000,0.000000,4.000000,4.000000,4.000000,4.000000,4.000000,4.000000,0.000000,,,,,,,,,,,,,,,,,,,,,,,,,,,,
1732157577.779043,1732157577.781497,106.000000,0.000000,4305.641113,4285.897461,4310.000000,4301.410156,4267.051270,4279.487305,4332.307617,4396.666504,4275.256348,4269.230957,4460.128418,4488.077148,4333.974121,4395.769043,1534.000000,1.000000,23.000000,,,,0.000000,2.000000,2.000000,0.000000,4.000000,2.000000,2.000000,0.000000,0.000000,4.000000,4.000000,4.000000,4.000000,4.000000,4.000000,0.000000,,,,,,,,,,,,,,,,,,,,,,,,,,,,
1732157577.786851,1732157577.789305,107.000000,0.000000,4313.717773,4293.461426,4310.128418,4306.282227,4265.641113,4273.717773,4335.384766,4398.461426,4275.000000,4263.717773,4469.743652,4492.563965,4347.307617,4406.794922,1573.000000,1.000000,23.000000,,,,0.000000,2.000000,2.000000,0.000000,4.000000,2.000000,2.000000,0.000000,0.000000,4.000000,4.000000,4.000000,4.000000,4.000000,4.000000,0.000000,,,,,,,,,,,,,,,,,,,,,,,,,,,,
1732157577.794660,1732157577.797213,108.000000,0.000000,4323.589844,4292.307617,4309.871582,4308.974121,4262.948730,4266.410156,4333.846191,4398.333496,4279.102539,4267.436035,4473.717773,4498.589844,4350.641113,4417.179688,1688.000000,1.000000,23.000000,,,,0.000000,2.000000,2.000000,0.000000,4.000000,2.000000,2.000000,0.000000,0.000000,4.000000,4.000000,4.000000,4.000000,4.000000,4.000000,0.000000,,,,,,,,,,,,,,,,,27.000000,0.000000,0.506813,0.496094,-0.526978,0.468323,0.984984,0.018557,-0.048834,-35.132835,45.997124,31.290766
1732157577.802468,1732157577.805021,109.000000,0.000000,4326.922852,4292.820313,4311.153809,4309.102539,4266.538574,4265.000000,4332.179688,4397.179688,4271.922852,4265.641113,4462.051270,4498.846191,4344.615234,4416.282227,1629.000000,1.000000,23.000000,,,,0.000000,2.000000,2.000000,0.000000,4.000000,2.000000,2.000000,0.000000,0.000000,4.000000,4.000000,4.000000,4.000000,4.000000,4.000000,0.000000,,,,,,,,,,,,,,,,,,,,,,,,,,,,
1732157577.810276,1732157577.812630,110.000000,0.000000,4329.230957,4298.205078,4312.307617,4312.436035,4264.871582,4265.769043,4333.846191,4398.333496,4261.666504,4260.512695,4463.205078,4498.974121,4346.153809,4416.153809,1534.000000,1.000000,23.000000,,,,0.000000,2.000000,2.000000,0.000000,4.000000,2.000000,2.000000,0.000000,0.000000,4.000000,4.000000,4.000000,4.000000,4.000000,4.000000,0.000000,,,,,,,,,,,,,,,,,,,,,,,,,,,,
1732157577.818084,1732157577.820438,111.000000,0.000000,4336.153809,4299.102539,4310.512695,4313.974121,4260.769043,4266.538574,4335.000000,4398.717773,4264.871582,4263.717773,4476.666504,4503.846191,4356.025879,4425.897461,1573.000000,1.000000,23.000000,,,,0.000000,2.000000,2.000000,0.000000,4.000000,2.000000,2.000000,0.000000,0.000000,4.000000,4.000000,4.000000,4.000000,4.000000,4.000000,0.000000,,,,,,,,,,,,,,,,,,,,,,,,,,,,
1732157577.825893,1732157577.828146,112.000000,0.000000,4337.692383,4292.692383,4309.230957,4305.512695,4273.077148,4266.538574,4333.974121,4396.922852,4268.077148,4266.922852,4475.128418,4506.153809,4363.717773,4430.384766,1688.000000,1.000000,23.000000,,,,0.000000,2.000000,2.000000,0.000000,4.000000,2.000000,2.000000,0.000000,0.000000,4.000000,4.000000,4.000000,4.000000,4.000000,4.000000,0.000000,,,,,,,,,,,,,,,,,28.000000,0.000000,0.506813,0.496216,-0.526917,0.468262,0.975705,0.022952,-0.052252,-35.065929,45.871002,31.253853
1732157577.833701,1732157577.835954,113.000000,0.000000,4338.333496,4292.051270,4310.128418,4303.589844,4274.487305,4262.948730,4332.307617,4395.256348,4264.743652,4264.871582,4478.205078,4505.384766,4368.077148,4429.871582,1629.000000,1.000000,23.000000,,,,0.000000,2.000000,2.000000,0.000000,4.000000,2.000000,2.000000,0.000000,0.000000,4.000000,4.000000,4.000000,4.000000,4.000000,4.000000,0.000000,,,,,,,,,,,,,,,,,,,,,,,,,,,,
1732157577.841509,1732157577.843563,114.000000,0.000000,4341.922852,4295.384766,4311.410156,4311.410156,4252.179688,4261.025879,4332.563965,4397.563965,4270.897461,4268.205078,4489.358887,4508.846191,4367.563965,4438.205078,1534.000000,1.000000,23.000000,,,,0.000000,2.000000,2.000000,0.000000,4.000000,2.000000,2.000000,0.000000,0.000000,4.000000,4.000000,4.000000,4.000000,4.000000,4.000000,0.000000,,,,,,,,,,,,,,,,,,,,,,,,,,,,
1732157577.849317,1732157577.851371,115.000000,0.000000,4336.282227,4288.974121,4310.256348,4306.538574,4241.922852,4266.538574,4332.307617,4398.717773,4275.000000,4274.102539,4482.051270,4511.922852,4366.153809,4442.051270,1573.000000,1.000000,23.000000,,,,0.000000,2.000000,2.000000,0.000000,4.000000,2.000000,2.000000,0.000000,0.000000,4.000000,4.000000,4.000000,4.000000,4.000000,4.000000,0.000000,,,,,,,,,,,,,,,,,,,,,,,,,,,,
1732157577.857126,1732157577.859079,116.000000,0.000000,4326.153809,4279.230957,4309.230957,4295.000000,4250.512695,4267.563965,4330.897461,4396.025879,4267.051270,4269.230957,4474.487305,4507.307617,4366.794922,4431.410156,1688.000000,1.000000,23.000000,,,,0.000000,2.000000,2.000000,0.000000,4.000000,2.000000,2.000000,0.000000,0.000000,4.000000,4.000000,4.000000,4.000000,4.000000,4.000000,0.000000,,,,,,,,,,,,,,,,,29.000000,0.000000,0.506813,0.496216,-0.526917,0.468262,0.975705,0.022952,-0.052252,-34.981735,45.708847,31.193954
1732157577.864934,1732157577.866888,117.000000,0.000000,4325.256348,4278.974121,4310.641113,4296.538574,4255.512695,4262.692383,4331.153809,4396.666504,4269.102539,4264.871582,4479.487305,4504.102539,4358.974121,4424.230957,1629.000000,1.000000,23.000000,,,,0.000000,2.000000,2.000000,0.000000,4.000000,2.000000,2.000000,0.000000,0.000000,4.000000,4.000000,4.000000,4.000000,4.000000,4.000000,0.000000,,,,,,,,,,,,,,,,,,,,,,,,,,,,
1732157577.872742,1732157577.874496,118.000000,0.000000,4323.077148,4282.436035,4311.282227,4298.461426,4259.358887,4262.563965,4330.512695,4398.589844,4280.128418,4273.589844,4477.692383,4505.897461,4355.641113,4429.487305,1534.000000,1.000000,23.000000,,,,0.000000,2.000000,2.000000,0.000000,4.000000,2.000000,2.000000,0.000000,0.000000,4.000000,4.000000,4.000000,4.000000,4.000000,4.000000,0.000000,,,,,,,,,,,,,,,,,,,,,,,,,,,,
1732157577.880550,1732157577.882304,119.000000,0.000000,4314.871582,4278.205078,4310.897461,4293.077148,4268.333496,4265.384766,4330.256348,4397.436035,4282.179688,4283.461426,4474.358887,4507.307617,4362.948730,4424.871582,1573.000000,1.000000,23.000000,,,,0.000000,2.000000,2.000000,0.000000,4.000000,2.000000,2.000000,0.000000,0.000000,4.000000,4.000000,4.000000,4.000000,4.000000,4.000000,0.000000,,,,,,,,,,,,,,,,,,,,,,,,,,,,
1732157577.888358,1732157577.890013,120.000000,0.000000,4312.820313,4269.871582,4311.282227,4293.589844,4264.871582,4269.743652,4331.538574,4396.025879,4283.589844,4286.666504,4481.538574,4505.641113,4365.000000,4414.358887,1688.000000,1.000000,23.000000,,,,0.000000,2.000000,2.000000,0.000000,4.000000,2.000000,2.000000,0.000000,0.000000,4.000000,4.000000,4.000000,4.000000,4.000000,4.000000,0.000000,,,,,,,,,,,,,,,,,30.000000,0.000000,0.506761,0.496277,-0.526855,0.468323,0.975705,-0.002930,-0.043951,-34.921871,45.624165,31.187103
1732157577.896167,1732157577.897821,121.000000,0.000000,4309.871582,4264.102539,4311.666504,4290.769043,4261.794922,4276.410156,4333.333496,4396.794922,4288.717773,4285.000000,4483.077148,4502.692383,4360.512695,4413.461426,1629.000000,1.000000,23.000000,,,,0.000000,2.000000,2.000000,0.000000,4.000000,2.000000,2.000000,0.000000,0.000000,4.000000,4.000000,4.000000,4.000000,4.000000,4.000000,0.000000,,,,,,,,,,,,,,,,,,,,,,,,,,,,
