title:2four, start timestamp:1732157646.421475, stop timestamp:1732157699.080295, headset type:EPOCX, headset serial:E5020C3A, headset firmware:730, channels:67, sampling rate:eeg_128;mot_32, samples:6745      , version:2.2, 
Timestamp,OriginalTimestamp,EEG.Counter,EEG.Interpolated,EEG.AF3,EEG.F7,EEG.F3,EEG.FC5,EEG.T7,EEG.P7,EEG.O1,EEG.O2,EEG.P8,EEG.T8,EEG.FC6,EEG.F4,EEG.F8,EEG.AF4,EEG.RawCq,EEG.Battery,EEG.BatteryPercent,MarkerIndex,MarkerType,MarkerValueInt,EEG.MarkerHardware,CQ.AF3,CQ.F7,CQ.F3,CQ.FC5,CQ.T7,CQ.P7,CQ.O1,CQ.O2,CQ.P8,CQ.T8,CQ.FC6,CQ.F4,CQ.F8,CQ.AF4,CQ.Overall,EQ.SampleRateQuality,EQ.OVERALL,EQ.AF3,EQ.F7,EQ.F3,EQ.FC5,EQ.T7,EQ.P7,EQ.O1,EQ.O2,EQ.P8,EQ.T8,EQ.FC6,EQ.F4,EQ.F8,EQ.AF4,MOT.CounterMems,MOT.InterpolatedMems,MOT.Q0,MOT.Q1,MOT.Q2,MOT.Q3,MOT.AccX,MOT.AccY,MOT.AccZ,MOT.MagX,MOT.MagY,MOT.MagZ
1732157646.421475,1732157646.423158,65.000000,0.000000,4279.743652,4250.641113,4313.717773,4285.256348,4265.897461,4287.051270,4337.307617,4400.897461,4300.897461,4297.436035,4492.563965,4511.794922,4367.051270,4428.077148,1596.000000,1.000000,23.000000,,,,0.000000,2.000000,2.000000,0.000000,4.000000,2.000000,2.000000,0.000000,0.000000,4.000000,4.000000,4.000000,4.000000,4.000000,4.000000,0.000000,,,,,,,,,,,,,,,,,,,,,,,,,,,,
1732157646.429283,1732157646.431166,66.000000,0.000000,4280.000000,4249.102539,4318.205078,4279.615234,4266.666504,4292.563965,4335.897461,4401.282227,4304.871582,4297.820313,4492.820313,4513.974121,4366.794922,4425.128418,1366.000000,1.000000,23.000000,,,,0.000000,2.000000,2.000000,0.000000,4.000000,2.000000,2.000000,0.000000,0.000000,4.000000,4.000000,4.000000,4.000000,4.000000,4.000000,0.000000,,,,,,,,,,,,,,,,,,,,,,,,,,,,
1732157646.437091,1732157646.438974,67.000000,0.000000,4279.743652,4253.974121,4316.538574,4283.077148,4266.282227,4293.974121,4336.922852,4401.025879,4304.487305,4296.410156,4490.641113,4507.563965,4363.974121,4414.230957,1419.000000,1.000000,23.000000,,,,0.000000,2.000000,2.000000,0.000000,4.000000,2.000000,2.000000,0.000000,0.000000,4.000000,4.000000,4.000000,4.000000,4.000000,4.000000,0.000000,,,,,,,,,,,,,,,,,,,,,,,,,,,,
1732157646.444899,1732157646.446883,68.000000,0.000000,4281.794922,4263.589844,4313.717773,4292.307617,4267.436035,4289.615234,4339.102539,4401.153809,4302.948730,4295.128418,4488.461426,4506.794922,4365.128418,4412.051270,1421.000000,1.000000,23.000000,,,,0.000000,2.000000,2.000000,0.000000,4.000000,2.000000,2.000000,0.000000,0.000000,4.000000,4.000000,4.000000,4.000000,4.000000,4.000000,0.000000,,,,,,,,,,,,,,,,,17.000000,0.000000,0.521441,0.480530,-0.550842,0.440186,0.970822,0.003907,-0.066414,-35.283981,45.860317,31.577005
1732157646.452708,1732157646.454691,69.000000,0.000000,4281.666504,4263.846191,4315.897461,4294.743652,4271.282227,4287.820313,4336.538574,4401.025879,4300.128418,4294.230957,4487.307617,4504.743652,4364.615234,4412.820313,1210.000000,1.000000,23.000000,,,,0.000000,2.000000,2.000000,0.000000,4.000000,2.000000,2.000000,0.000000,0.000000,4.000000,4.000000,4.000000,4.000000,4.000000,4.000000,0.000000,,,,,,,,,,,,,,,,,,,,,,,,,,,,
1732157646.460516,1732157646.462699,70.000000,0.000000,4279.487305,4263.974121,4316.282227,4293.589844,4276.025879,4292.563965,4336.410156,4401.025879,4295.256348,4293.077148,4486.282227,4495.256348,4359.615234,4412.179688,0.000000,1.000000,23.000000,,,,0.000000,2.000000,2.000000,0.000000,4.000000,2.000000,2.000000,0.000000,0.000000,4.000000,4.000000,4.000000,4.000000,4.000000,4.000000,0.000000,,,,,,,,,,,,,,,,,,,,,,,,,,,,
1732157646.468324,1732157646.470507,71.000000,0.000000,4279.871582,4266.666504,4314.615234,4293.077148,4277.563965,4289.230957,4340.512695,4401.153809,4298.717773,4293.974121,4488.077148,4494.871582,4357.563965,4409.615234,0.000000,1.000000,23.000000,,,,0.000000,2.000000,2.000000,0.000000,4.000000,2.000000,2.000000,0.000000,0.000000,4.000000,4.000000,4.000000,4.000000,4.000000,4.000000,0.000000,,,,,,,,,,,,,,,,,,,,,,,,,,,,
1732157646.476133,1732157646.478415,72.000000,0.000000,4279.743652,4265.000000,4314.358887,4291.538574,4275.641113,4281.410156,4340.384766,4400.512695,4303.589844,4295.256348,4486.282227,4496.922852,4358.077148,4404.871582,1534.000000,1.000000,23.000000,,,,0.000000,2.000000,2.000000,0.000000,4.000000,2.000000,2.000000,0.000000,0.000000,4.000000,4.000000,4.000000,4.000000,4.000000,4.000000,0.000000,,,,,,,,,,,,,,,,,18.000000,0.000000,0.522444,0.479858,-0.550964,0.439575,0.961543,0.004883,-0.062508,-35.471691,45.806858,31.599041
1732157646.483941,1732157646.486223,73.000000,0.000000,4277.692383,4263.846191,4314.615234,4286.922852,4270.769043,4281.025879,4338.717773,4399.743652,4296.922852,4291.025879,4480.128418,4490.256348,4357.563965,4407.692383,1680.000000,1.000000,23.000000,,,,0.000000,2.000000,2.000000,0.000000,4.000000,2.000000,2.000000,0.000000,0.000000,4.000000,4.000000,4.000000,4.000000,4.000000,4.000000,0.000000,,,,,,,,,,,,,,,,,,,,,,,,,,,,
1732157646.491749,1732157646.494231,74.000000,0.000000,4278.589844,4265.512695,4313.846191,4283.461426,4266.153809,4280.512695,4340.256348,4398.461426,4293.974121,4290.384766,4482.179688,4489.743652,4358.077148,4414.230957,1544.000000,1.000000,23.000000,,,,0.000000,2.000000,2.000000,0.000000,4.000000,2.000000,2.000000,0.000000,0.000000,4.000000,4.000000,4.000000,4.000000,4.000000,4.000000,0.000000,,,,,,,,,,,,,,,,,,,,,,,,,,,,
1732157646.499557,1732157646.502039,75.000000,0.000000,4281.153809,4264.487305,4313.333496,4284.487305,4266.025879,4278.461426,4338.717773,4396.538574,4296.282227,4293.333496,4489.871582,4497.692383,4358.461426,4414.487305,1568.000000,1.000000,23.000000,,,,0.000000,2.000000,2.000000,0.000000,4.000000,2.000000,2.000000,0.000000,0.000000,4.000000,4.000000,4.000000,4.000000,4.000000,4.000000,0.000000,,,,,,,,,,,,,,,,,,,,,,,,,,,,
1732157646.507366,1732157646.509948,76.000000,0.000000,4280.000000,4262.179688,4310.769043,4283.205078,4266.282227,4279.358887,4334.102539,4398.846191,4297.692383,4293.333496,4489.743652,4502.948730,4359.102539,4415.128418,1700.000000,1.000000,23.000000,,,,0.000000,2.000000,2.000000,0.000000,4.000000,2.000000,2.000000,0.000000,0.000000,4.000000,4.000000,4.000000,4.000000,4.000000,4.000000,0.000000,,,,,,,,,,,,,,,,,19.000000,0.000000,0.523476,0.479797,-0.550476,0.439026,0.966427,0.027347,-0.054206,-35.557068,45.696888,31.483557
1732157646.515174,1732157646.517756,77.000000,0.000000,4279.230957,4262.948730,4312.436035,4280.128418,4265.641113,4280.128418,4335.000000,4404.487305,4311.794922,4299.358887,4488.333496,4506.410156,4363.974121,4418.717773,1628.000000,1.000000,23.000000,,,,0.000000,2.000000,2.000000,0.000000,4.000000,2.000000,2.000000,0.000000,0.000000,4.000000,4.000000,4.000000,4.000000,4.000000,4.000000,0.000000,,,,,,,,,,,,,,,,,,,,,,,,,,,,
1732157646.522982,1732157646.525764,78.000000,0.000000,4281.025879,4265.384766,4317.307617,4284.871582,4265.769043,4279.358887,4336.410156,4402.307617,4324.615234,4306.410156,4492.436035,4509.102539,4367.436035,4420.000000,1544.000000,1.000000,23.000000,,,,0.000000,2.000000,2.000000,0.000000,4.000000,2.000000,2.000000,0.000000,0.000000,4.000000,4.000000,4.000000,4.000000,4.000000,4.000000,0.000000,1.000000,0.000000,2.000000,1.000000,0.000000,4.000000,2.000000,2.000000,0.000000,0.000000,4.000000,4.000000,4.000000,4.000000,4.000000,4.000000,,,,,,,,,,,,
1732157646.530790,1732157646.533572,79.000000,0.000000,4282.436035,4266.153809,4314.743652,4293.589844,4267.692383,4282.179688,4335.256348,4397.436035,4308.461426,4298.589844,4492.307617,4507.051270,4365.897461,4420.128418,1568.000000,1.000000,23.000000,,,,0.000000,2.000000,2.000000,0.000000,4.000000,2.000000,2.000000,0.000000,0.000000,4.000000,4.000000,4.000000,4.000000,4.000000,4.000000,0.000000,,,,,,,,,,,,,,,,,,,,,,,,,,,,
1732157646.538598,1732157646.541480,80.000000,0.000000,4285.384766,4265.512695,4309.743652,4295.897461,4269.230957,4284.615234,4335.000000,4398.461426,4291.282227,4287.692383,4489.615234,4505.000000,4364.615234,4420.897461,1700.000000,1.000000,23.000000,,,,0.000000,2.000000,2.000000,0.000000,4.000000,2.000000,2.000000,0.000000,0.000000,4.000000,4.000000,4.000000,4.000000,4.000000,4.000000,0.000000,,,,,,,,,,,,,,,,,20.000000,0.000000,0.523970,0.480042,-0.549988,0.438782,0.978635,0.054206,-0.046881,-35.356228,45.532814,31.360014
1732157646.546407,1732157646.549288,81.000000,0.000000,4285.000000,4266.410156,4311.794922,4287.051270,4269.487305,4281.794922,4337.051270,4400.000000,4296.153809,4288.333496,4490.512695,4504.487305,4364.358887,4421.538574,1628.000000,1.000000,23.000000,,,,0.000000,2.000000,2.000000,0.000000,4.000000,2.000000,2.000000,0.000000,0.000000,4.000000,4.000000,4.000000,4.000000,4.000000,4.000000,0.000000,,,,,,,,,,,,,,,,,,,,,,,,,,,,
1732157646.554215,1732157646.556897,82.000000,0.000000,4284.102539,4267.692383,4314.615234,4280.769043,4268.461426,4278.333496,4336.794922,4398.717773,4299.102539,4290.256348,4491.153809,4504.230957,4365.769043,4420.512695,1544.000000,1.000000,23.000000,,,,0.000000,2.000000,2.000000,0.000000,4.000000,2.000000,2.000000,0.000000,0.000000,4.000000,4.000000,4.000000,4.000000,4.000000,4.000000,0.000000,,,,,,,,,,,,,,,,,,,,,,,,,,,,
1732157646.562023,1732157646.564705,83.000000,0.000000,4286.922852,4267.692383,4311.922852,4287.436035,4262.307617,4278.333496,4335.128418,4398.846191,4296.025879,4293.717773,4490.256348,4504.871582,4366.922852,4415.769043,1568.000000,1.000000,23.000000,,,,0.000000,2.000000,2.000000,0.000000,4.000000,2.000000,2.000000,0.000000,0.000000,4.000000,4.000000,4.000000,4.000000,4.000000,4.000000,0.000000,,,,,,,,,,,,,,,,,,,,,,,,,,,,
1732157646.569831,1732157646.572413,84.000000,0.000000,4286.153809,4268.077148,4308.205078,4291.922852,4268.846191,4280.128418,4336.410156,4400.000000,4297.563965,4293.077148,4489.230957,4504.102539,4362.563965,4412.692383,1700.000000,1.000000,23.000000,,,,0.000000,2.000000,2.000000,0.000000,4.000000,2.000000,2.000000,0.000000,0.000000,4.000000,4.000000,4.000000,4.000000,4.000000,4.000000,0.000000,,,,,,,,,,,,,,,,,21.000000,0.000000,0.525316,0.482178,-0.548096,0.437195,0.973263,0.047369,-0.063484,-35.150211,45.518246,31.579945
1732157646.577640,1732157646.580221,85.000000,0.000000,4280.384766,4265.256348,4310.384766,4287.820313,4286.922852,4281.666504,4336.922852,4399.230957,4296.666504,4282.051270,4488.333496,4497.436035,4359.358887,4414.230957,1628.000000,1.000000,23.000000,,,,0.000000,2.000000,2.000000,0.000000,4.000000,2.000000,2.000000,0.000000,0.000000,4.000000,4.000000,4.000000,4.000000,4.000000,4.000000,0.000000,,,,,,,,,,,,,,,,,,,,,,,,,,,,
1732157646.585448,1732157646.587830,86.000000,0.000000,4280.128418,4266.794922,4308.974121,4288.333496,4280.256348,4281.410156,4334.871582,4396.922852,4299.358887,4286.410156,4488.205078,4489.230957,4364.358887,4415.769043,1544.000000,1.000000,23.000000,,,,0.000000,2.000000,2.000000,0.000000,4.000000,2.000000,2.000000,0.000000,0.000000,4.000000,4.000000,4.000000,4.000000,4.000000,4.000000,0.000000,,,,,,,,,,,,,,,,,,,,,,,,,,,,
1732157646.593256,1732157646.595638,87.000000,0.000000,4284.230957,4274.102539,4303.461426,4295.769043,4259.358887,4279.871582,4333.205078,4397.692383,4308.205078,4296.538574,4488.589844,4490.000000,4367.436035,4413.846191,1568.000000,1.000000,23.000000,,,,0.000000,2.000000,2.000000,0.000000,4.000000,2.000000,2.000000,0.000000,0.000000,4.000000,4.000000,4.000000,4.000000,4.000000,4.000000,0.000000,,,,,,,,,,,,,,,,,,,,,,,,,,,,
1732157646.601065,1732157646.603346,88.000000,0.000000,4283.589844,4273.333496,4303.589844,4296.538574,4261.025879,4279.358887,4332.307617,4401.282227,4302.948730,4287.051270,4487.948730,4497.563965,4359.871582,4411.025879,1700.000000,1.000000,23.000000,,,,0.000000,2.000000,2.000000,0.000000,4.000000,2.000000,2.000000,0.000000,0.000000,4.000000,4.000000,4.000000,4.000000,4.000000,4.000000,0.000000,,,,,,,,,,,,,,,,,22.000000,0.000000,0.525234,0.483276,-0.547546,0.436768,0.954218,0.053717,-0.066414,-35.103336,45.539780,31.508089
1732157646.608873,1732157646.611155,89.000000,0.000000,4281.025879,4264.487305,4303.717773,4294.230957,4269.487305,4280.128418,4329.230957,4396.922852,4294.615234,4281.922852,4487.820313,4499.487305,4355.897461,4412.692383,1628.000000,1.000000,23.000000,,,,0.000000,2.000000,2.000000,0.000000,4.000000,2.000000,2.000000,0.000000,0.000000,4.000000,4.000000,4.000000,4.000000,4.000000,4.000000,0.000000,,,,,,,,,,,,,,,,,,,,,,,,,,,,
1732157646.616681,1732157646.618763,90.000000,0.000000,4281.922852,4264.358887,4298.205078,4295.769043,4264.487305,4280.256348,4329.487305,4391.153809,4304.871582,4296.794922,4490.641113,4499.743652,4364.230957,4416.410156,1544.000000,1.000000,23.000000,,,,0.000000,2.000000,2.000000,0.000000,4.000000,2.000000,2.000000,0.000000,0.000000,4.000000,4.000000,4.000000,4.000000,4.000000,4.000000,0.000000,,,,,,,,,,,,,,,,,,,,,,,,,,,,
1732157646.624489,1732157646.626571,91.000000,0.000000,4287.563965,4270.897461,4295.512695,4299.487305,4263.717773,4279.871582,4331.282227,4395.384766,4311.922852,4302.307617,4493.461426,4506.153809,4368.077148,4415.384766,1568.000000,1.000000,23.000000,,,,0.000000,2.000000,2.000000,0.000000,4.000000,2.000000,2.000000,0.000000,0.000000,4.000000,4.000000,4.000000,4.000000,4.000000,4.000000,0.000000,,,,,,,,,,,,,,,,,,,,,,,,,,,,
1732157646.632297,1732157646.634479,92.000000,0.000000,4291.538574,4269.102539,4299.871582,4299.615234,4266.410156,4280.128418,4331.025879,4399.102539,4302.051270,4288.846191,4491.410156,4508.461426,4360.769043,4416.666504,1700.000000,1.000000,23.000000,,,,0.000000,2.000000,2.000000,0.000000,4.000000,2.000000,2.000000,0.000000,0.000000,4.000000,4.000000,4.000000,4.000000,4.000000,4.000000,0.000000,,,,,,,,,,,,,,,,,23.000000,0.000000,0.525234,0.483276,-0.547546,0.436768,0.944451,0.037114,-0.085460,-35.200371,45.497219,31.434885
1732157646.640106,1732157646.642288,93.000000,0.000000,4288.333496,4264.871582,4298.205078,4294.230957,4268.077148,4280.256348,4330.512695,4395.384766,4292.563965,4282.948730,4488.717773,4504.615234,4356.153809,4420.256348,1628.000000,1.000000,23.000000,,,,0.000000,2.000000,2.000000,0.000000,4.000000,2.000000,2.000000,0.000000,0.000000,4.000000,4.000000,4.000000,4.000000,4.000000,4.000000,0.000000,,,,,,,,,,,,,,,,,,,,,,,,,,,,
1732157646.647914,1732157646.649896,94.000000,0.000000,4284.871582,4266.922852,4295.641113,4292.820313,4271.153809,4281.153809,4329.102539,4394.615234,4295.128418,4284.102539,4488.974121,4505.641113,4355.384766,4417.563965,1544.000000,1.000000,23.000000,,,,0.000000,2.000000,2.000000,0.000000,4.000000,2.000000,2.000000,0.000000,0.000000,4.000000,4.000000,4.000000,4.000000,4.000000,4.000000,0.000000,,,,,,,,,,,,,,,,,,,,,,,,,,,,
1732157646.655722,1732157646.657704,95.000000,0.000000,4285.512695,4267.179688,4298.974121,4295.128418,4267.692383,4282.692383,4329.487305,4397.051270,4303.333496,4284.230957,4483.461426,4503.461426,4350.384766,4412.692383,1568.000000,1.000000,23.000000,,,,0.000000,2.000000,2.000000,0.000000,4.000000,2.000000,2.000000,0.000000,0.000000,4.000000,4.000000,4.000000,4.000000,4.000000,4.000000,0.000000,,,,,,,,,,,,,,,,,,,,,,,,,,,,
1732157646.663530,1732157646.665412,96.000000,0.000000,4287.307617,4265.128418,4299.358887,4293.717773,4263.461426,4283.077148,4332.948730,4396.922852,4304.871582,4285.897461,4475.000000,4495.641113,4347.436035,4411.794922,1700.000000,1.000000,23.000000,,,,0.000000,2.000000,2.000000,0.000000,4.000000,2.000000,2.000000,0.000000,0.000000,4.000000,4.000000,4.000000,4.000000,4.000000,4.000000,0.000000,,,,,,,,,,,,,,,,,24.000000,0.000000,0.524335,0.483521,-0.547852,0.437195,0.972775,0.021975,-0.080576,-35.263966,45.531082,31.460590
1732157646.671339,1732157646.673221,97.000000,0.000000,4289.871582,4269.871582,4297.563965,4295.000000,4268.461426,4282.820313,4336.282227,4395.641113,4297.948730,4284.102539,4480.256348,4499.743652,4351.922852,4413.717773,1628.000000,1.000000,23.000000,,,,0.000000,2.000000,2.000000,0.000000,4.000000,2.000000,2.000000,0.000000,0.000000,4.000000,4.000000,4.000000,4.000000,4.000000,4.000000,0.000000,,,,,,,,,,,,,,,,,,,,,,,,,,,,
1732157646.679147,1732157646.680829,98.000000,0.000000,4294.615234,4280.000000,4298.205078,4301.794922,4275.769043,4281.538574,4332.692383,4397.436035,4296.153809,4282.563965,4490.128418,4507.436035,4355.512695,4418.205078,1544.000000,1.000000,23.000000,,,,0.000000,2.000000,2.000000,0.000000,4.000000,2.000000,2.000000,0.000000,0.000000,4.000000,4.000000,4.000000,4.000000,4.000000,4.000000,0.000000,,,,,,,,,,,,,,,,,,,,,,,,,,,,
1732157646.686955,1732157646.688637,99.000000,0.000000,4295.384766,4279.230957,4299.358887,4302.948730,4273.077148,4280.000000,4328.589844,4398.717773,4299.871582,4286.025879,4488.333496,4507.179688,4354.230957,4419.615234,1568.000000,1.000000,23.000000,,,,0.000000,2.000000,2.000000,0.000000,4.000000,2.000000,2.000000,0.000000,0.000000,4.000000,4.000000,4.000000,4.000000,4.000000,4.000000,0.000000,,,,,,,,,,,,,,,,,,,,,,,,,,,,
1732157646.694764,1732157646.696545,100.000000,0.000000,4289.487305,4268.846191,4303.077148,4295.769043,4265.000000,4281.282227,4332.563965,4394.743652,4296.410156,4288.333496,4485.897461,4505.641113,4352.820313,4414.871582,1700.000000,1.000000,23.000000,,,,0.000000,2.000000,2.000000,0.000000,4.000000,2.000000,2.000000,0.000000,0.000000,4.000000,4.000000,4.000000,4.000000,4.000000,4.000000,0.000000,,,,,,,,,,,,,,,,,25.000000,0.000000,0.523711,0.481995,-0.549011,0.438171,0.977170,-0.004883,-0.069833,-35.217144,45.655178,31.553078
1732157646.702572,1732157646.704354,101.000000,0.000000,4285.128418,4265.897461,4308.205078,4296.025879,4267.948730,4283.205078,4336.025879,4393.589844,4295.897461,4288.461426,4488.846191,4506.922852,4354.358887,4414.102539,1628.000000,1.000000,23.000000,,,,0.000000,2.000000,2.000000,0.000000,4.000000,2.000000,2.000000,0.000000,0.000000,4.000000,4.000000,4.000000,4.000000,4.000000,4.000000,0.000000,,,,,,,,,,,,,,,,,,,,,,,,,,,,
1732157646.710380,1732157646.712362,102.000000,0.000000,4289.358887,4274.102539,4306.666504,4302.563965,4277.948730,4282.179688,4335.512695,4398.717773,4303.461426,4293.717773,4488.589844,4506.282227,4358.717773,4415.897461,1544.000000,1.000000,23.000000,,,,0.000000,2.000000,2.000000,0.000000,4.000000,2.000000,2.000000,0.000000,0.000000,4.000000,4.000000,4.000000,4.000000,4.000000,4.000000,0.000000,,,,,,,,,,,,,,,,,,,,,,,,,,,,
1732157646.718188,1732157646.720170,103.000000,0.000000,4293.461426,4279.487305,4303.205078,4304.615234,4277.051270,4281.153809,4334.615234,4400.384766,4303.461426,4291.410156,4486.410156,4503.333496,4356.794922,4412.820313,1568.000000,1.000000,23.000000,,,,0.000000,2.000000,2.000000,0.000000,4.000000,2.000000,2.000000,0.000000,0.000000,4.000000,4.000000,4.000000,4.000000,4.000000,4.000000,0.000000,,,,,,,,,,,,,,,,,,,,,,,,,,,,
1732157646.725996,1732157646.728078,104.000000,0.000000,4293.846191,4279.487305,4304.615234,4305.000000,4274.743652,4282.436035,4335.256348,4397.436035,4299.743652,4280.897461,4487.563965,4504.358887,4349.102539,4413.717773,1700.000000,1.000000,23.000000,,,,0.000000,2.000000,2.000000,0.000000,4.000000,2.000000,2.000000,0.000000,0.000000,4.000000,4.000000,4.000000,4.000000,4.000000,4.000000,0.000000,,,,,,,,,,,,,,,,,26.000000,0.000000,0.524195,0.480103,-0.549866,0.438599,0.989379,0.044927,-0.069833,-35.222553,45.632359,31.666327
1732157646.733805,1732157646.735886,105.000000,0.000000,4292.948730,4281.794922,4307.179688,4307.436035,4276.794922,4280.897461,4332.563965,4396.153809,4299.230957,4280.769043,4488.205078,4506.538574,4350.256348,4423.974121,1628.000000,1.000000,23.000000,,,,0.000000,2.000000,2.000000,0.000000,4.000000,2.000000,2.000000,0.000000,0.000000,4.000000,4.000000,4.000000,4.000000,4.000000,4.000000,0.000000,,,,,,,,,,,,,,,,,,,,,,,,,,,,
1732157646.741613,1732157646.743894,106.000000,0.000000,4292.948730,4282.436035,4307.820313,4303.974121,4271.410156,4279.358887,4332.692383,4396.410156,4295.512695,4283.077148,4487.307617,4502.307617,4360.897461,4430.512695,1544.000000,1.000000,23.000000,,,,0.000000,2.000000,2.000000,0.000000,4.000000,2.000000,2.000000,0.000000,0.000000,4.000000,4.000000,4.000000,4.000000,4.000000,4.000000,0.000000,,,,,,,,,,,,,,,,,,,,,,,,,,,,
1732157646.749421,1732157646.751702,107.000000,0.000000,4295.512695,4279.871582,4309.102539,4297.692383,4263.589844,4279.871582,4335.897461,4398.589844,4291.025879,4279.358887,4487.820313,4499.230957,4365.641113,4426.666504,1568.000000,1.000000,23.000000,,,,0.000000,2.000000,2.000000,0.000000,4.000000,2.000000,2.000000,0.000000,0.000000,4.000000,4.000000,4.000000,4.000000,4.000000,4.000000,0.000000,,,,,,,,,,,,,,,,,,,,,,,,,,,,
1732157646.757229,1732157646.759610,108.000000,0.000000,4302.563965,4281.025879,4310.512695,4300.256348,4262.179688,4273.589844,4334.871582,4400.897461,4292.692383,4279.615234,4490.000000,4504.615234,4363.717773,4428.846191,1700.000000,1.000000,23.000000,,,,0.000000,2.000000,2.000000,0.000000,4.000000,2.000000,2.000000,0.000000,0.000000,4.000000,4.000000,4.000000,4.000000,4.000000,4.000000,0.000000,,,,,,,,,,,,,,,,,27.000000,0.000000,0.524371,0.479980,-0.549805,0.438599,0.989379,0.044927,-0.069833,-35.211937,45.765545,31.444725
1732157646.765038,1732157646.767419,109.000000,0.000000,4308.717773,4282.051270,4312.948730,4302.179688,4261.538574,4264.743652,4333.205078,4397.692383,4294.487305,4284.487305,4491.282227,4508.205078,4367.820313,4440.512695,1628.000000,1.000000,23.000000,,,,0.000000,2.000000,2.000000,0.000000,4.000000,2.000000,2.000000,0.000000,0.000000,4.000000,4.000000,4.000000,4.000000,4.000000,4.000000,0.000000,,,,,,,,,,,,,,,,,,,,,,,,,,,,
1732157646.772846,1732157646.775027,110.000000,0.000000,4310.897461,4280.256348,4314.102539,4296.025879,4262.307617,4264.615234,4333.846191,4395.641113,4293.974121,4288.461426,4490.512695,4505.256348,4375.256348,4443.846191,1544.000000,1.000000,23.000000,,,,0.000000,2.000000,2.000000,0.000000,4.000000,2.000000,2.000000,0.000000,0.000000,4.000000,4.000000,4.000000,4.000000,4.000000,4.000000,0.000000,,,,,,,,,,,,,,,,,,,,,,,,,,,,
1732157646.780654,1732157646.782835,111.000000,0.000000,4315.384766,4280.384766,4313.589844,4295.769043,4262.820313,4266.538574,4336.025879,4396.666504,4295.000000,4289.102539,4496.282227,4510.000000,4380.000000,4443.333496,1568.000000,1.000000,23.000000,,,,0.000000,2.000000,2.000000,0.000000,4.000000,2.000000,2.000000,0.000000,0.000000,4.000000,4.000000,4.000000,4.000000,4.000000,4.000000,0.000000,,,,,,,,,,,,,,,,,,,,,,,,,,,,
1732157646.788463,1732157646.790544,112.000000,0.000000,4319.230957,4281.025879,4315.769043,4299.615234,4254.358887,4263.333496,4336.410156,4397.051270,4292.820313,4284.358887,4504.615234,4516.538574,4381.794922,4452.692383,1700.000000,1.000000,23.000000,,,,0.000000,2.000000,2.000000,0.000000,4.000000,2.000000,2.000000,0.000000,0.000000,4.000000,4.000000,4.000000,4.000000,4.000000,4.000000,0.000000,,,,,,,,,,,,,,,,,28.000000,0.000000,0.525581,0.479187,-0.549438,0.438477,0.983030,0.024417,-0.058113,-35.235001,45.468426,31.433559
1732157646.796271,1732157646.798352,113.000000,0.000000,4320.000000,4280.384766,4319.102539,4297.948730,4248.461426,4263.077148,4335.256348,4399.487305,4290.641113,4280.897461,4503.461426,4513.589844,4382.051270,4460.384766,1628.000000,1.000000,23.000000,,,,0.000000,2.000000,2.000000,0.000000,4.000000,2.000000,2.000000,0.000000,0.000000,4.000000,4.000000,4.000000,4.000000,4.000000,4.000000,0.000000,,,,,,,,,,,,,,,,,,,,,,,,,,,,
1732157646.804079,1732157646.806360,114.000000,0.000000,4323.717773,4281.025879,4321.025879,4296.410156,4251.282227,4266.666504,4336.538574,4401.025879,4292.820313,4281.922852,4501.794922,4513.974121,4381.410156,4458.846191,1544.000000,1.000000,23.000000,,,,0.000000,2.000000,2.000000,0.000000,4.000000,2.000000,2.000000,0.000000,0.000000,4.000000,4.000000,4.000000,4.000000,4.000000,4.000000,0.000000,,,,,,,,,,,,,,,,,,,,,,,,,,,,
1732157646.811887,1732157646.814168,115.000000,0.000000,4326.922852,4280.000000,4324.743652,4295.897461,4250.641113,4262.436035,4340.128418,4399.102539,4287.307617,4280.512695,4506.282227,4519.871582,4382.051270,4458.589844,1568.000000,1.000000,23.000000,,,,0.000000,2.000000,2.000000,0.000000,4.000000,2.000000,2.000000,0.000000,0.000000,4.000000,4.000000,4.000000,4.000000,4.000000,4.000000,0.000000,,,,,,,,,,,,,,,,,,,,,,,,,,,,
1732157646.819695,1732157646.822076,116.000000,0.000000,4326.282227,4278.461426,4328.717773,4294.487305,4247.307617,4260.641113,4340.897461,4400.641113,4279.743652,4277.948730,4501.922852,4521.282227,4381.666504,4459.487305,1700.000000,1.000000,23.000000,,,,0.000000,2.000000,2.000000,0.000000,4.000000,2.000000,2.000000,0.000000,0.000000,4.000000,4.000000,4.000000,4.000000,4.000000,4.000000,0.000000,,,,,,,,,,,,,,,,,29.000000,0.000000,0.525757,0.478882,-0.549438,0.438599,0.988890,0.027347,-0.057136,-35.222019,45.596092,31.517851
1732157646.827504,1732157646.829884,117.000000,0.000000,4325.641113,4281.025879,4328.333496,4299.358887,4249.871582,4271.153809,4340.128418,4405.256348,4284.615234,4277.563965,4495.128418,4519.102539,4380.512695,4458.717773,1628.000000,1.000000,23.000000,,,,0.000000,2.000000,2.000000,0.000000,4.000000,2.000000,2.000000,0.000000,0.000000,4.000000,4.000000,4.000000,4.000000,4.000000,4.000000,0.000000,,,,,,,,,,,,,,,,,,,,,,,,,,,,
1732157646.835312,1732157646.837892,118.000000,0.000000,4328.205078,4282.820313,4327.692383,4301.025879,4252.307617,4282.948730,4343.717773,4405.128418,4291.538574,4279.102539,4500.641113,4520.000000,4383.717773,4460.256348,1544.000000,1.000000,23.000000,,,,0.000000,2.000000,2.000000,0.000000,4.000000,2.000000,2.000000,0.000000,0.000000,4.000000,4.000000,4.000000,4.000000,4.000000,4.000000,0.000000,,,,,,,,,,,,,,,,,,,,,,,,,,,,
1732157646.843120,1732157646.845701,119.000000,0.000000,4332.179688,4280.769043,4329.230957,4295.897461,4249.743652,4278.717773,4345.128418,4404.230957,4292.820313,4285.000000,4506.410156,4520.769043,4389.358887,4462.692383,1568.000000,1.000000,23.000000,,,,0.000000,2.000000,2.000000,0.000000,4.000000,2.000000,2.000000,0.000000,0.000000,4.000000,4.000000,4.000000,4.000000,4.000000,4.000000,0.000000,,,,,,,,,,,,,,,,,,,,,,,,,,,,
1732157646.850928,1732157646.853609,120.000000,0.000000,4335.769043,4280.641113,4331.025879,4296.538574,4250.897461,4270.128418,4342.436035,4404.230957,4294.871582,4290.769043,4505.384766,4521.282227,4391.538574,4462.436035,1700.000000,1.000000,23.000000,,,,0.000000,2.000000,2.000000,0.000000,4.000000,2.000000,2.000000,0.000000,0.000000,4.000000,4.000000,4.000000,4.000000,4.000000,4.000000,0.000000,,,,,,,,,,,,,,,,,30.000000,0.000000,0.525989,0.478516,-0.549438,0.438721,0.988890,0.027347,-0.057136,-35.268169,45.621166,31.584459
1732157646.858737,1732157646.861417,121.000000,0.000000,4334.358887,4281.538574,4330.256348,4299.743652,4252.820313,4272.436035,4341.153809,4403.205078,4297.051270,4285.000000,4503.717773,4521.282227,4388.333496,4460.256348,1628.000000,1.000000,23.000000,,,,0.000000,2.000000,2.000000,0.000000,4.000000,2.000000,2.000000,0.000000,0.000000,4.000000,4.000000,4.000000,4.000000,4.000000,4.000000,0.000000,,,,,,,,,,,,,,,,,,,,,,,,,,,,
1732157646.866545,1732157646.869425,122.000000,0.000000,4333.077148,4282.436035,4330.641113,4296.794922,4249.358887,4273.333496,4342.307617,4405.384766,4294.102539,4279.743652,4503.461426,4518.846191,4386.538574,4463.717773,1544.000000,1.000000,23.000000,,,,0.000000,2.000000,2.000000,0.000000,4.000000,2.000000,2.000000,0.000000,0.000000,4.000000,4.000000,4.000000,4.000000,4.000000,4.000000,0.000000,,,,,,,,,,,,,,,,,,,,,,,,,,,,
1732157646.874353,1732157646.877233,123.000000,0.000000,4337.692383,4289.487305,4329.487305,4298.589844,4249.358887,4274.615234,4342.820313,4407.436035,4293.589844,4289.102539,4505.256348,4520.897461,4392.051270,4472.563965,1568.000000,1.000000,23.000000,,,,0.000000,2.000000,2.000000,0.000000,4.000000,2.000000,2.000000,0.000000,0.000000,4.000000,4.000000,4.000000,4.000000,4.000000,4.000000,0.000000,,,,,,,,,,,,,,,,,,,,,,,,,,,,
1732157646.882161,1732157646.885141,124.000000,0.000000,4338.333496,4295.384766,4325.512695,4303.974121,4255.000000,4277.948730,4340.256348,4404.358887,4294.743652,4293.333496,4507.820313,4522.948730,4397.820313,4474.102539,1700.000000,1.000000,23.000000,,,,0.000000,2.000000,2.000000,0.000000,4.000000,2.000000,2.000000,0.000000,0.000000,4.000000,4.000000,4.000000,4.000000,4.000000,4.000000,0.000000,,,,,,,,,,,,,,,,,31.000000,0.000000,0.527275,0.477478,-0.548767,0.439148,0.984984,0.025882,-0.053717,-35.222218,45.449810,31.755079
1732157646.889970,1732157646.892949,125.000000,0.000000,4335.000000,4294.102539,4326.666504,4300.000000,4255.256348,4269.615234,4338.461426,4403.846191,4285.256348,4282.948730,4506.025879,4521.025879,4395.641113,4471.153809,1628.000000,1.000000,23.000000,,,,0.000000,2.000000,2.000000,0.000000,4.000000,2.000000,2.000000,0.000000,0.000000,4.000000,4.000000,4.000000,4.000000,4.000000,4.000000,0.000000,,,,,,,,,,,,,,,,,,,,,,,,,,,,
1732157646.897778,1732157646.900957,126.000000,0.000000,4334.230957,4292.692383,4330.128418,4296.922852,4252.563965,4262.948730,4338.717773,4406.025879,4277.563965,4278.333496,4503.846191,4521.410156,4392.692383,4472.692383,1544.000000,1.000000,23.000000,,,,0.000000,2.000000,2.000000,0.000000,4.000000,2.000000,2.000000,0.000000,0.000000,4.000000,4.000000,4.000000,4.000000,4.000000,4.000000,0.000000,,,,,,,,,,,,,,,,,,,,,,,,,,,,
1732157646.905586,1732157646.908766,127.000000,0.000000,4335.128418,4295.512695,4329.230957,4302.051270,4259.358887,4273.974121,4341.282227,4403.974121,4284.487305,4283.333496,4504.102539,4522.820313,4396.794922,4469.871582,23.000000,1.000000,23.000000,,,,0.000000,2.000000,2.000000,0.000000,4.000000,2.000000,2.000000,0.000000,0.000000,4.000000,4.000000,4.000000,4.000000,4.000000,4.000000,0.000000,,,,,,,,,,,,,,,,,,,,,,,,,,,,
1732157646.913394,1732157646.916674,0.000000,0.000000,4337.948730,4295.769043,4327.307617,4305.641113,4260.384766,4278.589844,4342.563965,4405.128418,4290.256348,4282.436035,4505.000000,4524.615234,4395.256348,4465.256348,0.000000,1.000000,23.000000,,,,0.000000,2.000000,2.000000,0.000000,4.000000,2.000000,2.000000,0.000000,0.000000,4.000000,4.000000,4.000000,4.000000,4.000000,4.000000,0.000000,,,,,,,,,,,,,,,,,0.000000,0.000000,0.527042,0.476990,-0.548828,0.439880,0.981077,0.006348,-0.060066,-35.241661,45.456013,31.833281
1732157646.921203,1732157646.924482,1.000000,0.000000,4342.051270,4295.128418,4329.358887,4306.410156,4254.230957,4273.717773,4342.179688,4409.743652,4285.897461,4277.820313,4506.410156,4526.410156,4389.615234,4468.974121,1601.000000,1.000000,23.000000,,,,0.000000,2.000000,2.000000,0.000000,4.000000,2.000000,2.000000,0.000000,0.000000,4.000000,4.000000,4.000000,4.000000,4.000000,4.000000,0.000000,,,,,,,,,,,,,,,,,,,,,,,,,,,,
1732157646.929011,1732157646.932090,2.000000,0.000000,4343.974121,4298.974121,4332.692383,4310.000000,4257.692383,4277.307617,4342.179688,4407.179688,4280.897461,4278.974121,4506.538574,4527.179688,4393.333496,4473.077148,1366.000000,1.000000,23.000000,,,,0.000000,2.000000,2.000000,0.000000,4.000000,2.000000,2.000000,0.000000,0.000000,4.000000,4.000000,4.000000,4.000000,4.000000,4.000000,0.000000,,,,,,,,,,,,,,,,,,,,,,,,,,,,
1732157646.936819,1732157646.939899,3.000000,0.000000,4342.820313,4300.641113,4332.820313,4314.102539,4259.615234,4273.077148,4344.102539,4401.025879,4283.205078,4281.922852,4506.282227,4527.436035,4397.948730,4474.487305,1419.000000,1.000000,23.000000,,,,0.000000,2.000000,2.000000,0.000000,4.000000,2.000000,2.000000,0.000000,0.000000,4.000000,4.000000,4.000000,4.000000,4.000000,4.000000,0.000000,,,,,,,,,,,,,,,,,,,,,,,,,,,,
1732157646.944627,1732157646.947607,4.000000,0.000000,4342.563965,4296.410156,4331.794922,4308.333496,4247.820313,4262.179688,4343.974121,4403.846191,4288.077148,4282.051270,4507.948730,4531.538574,4392.436035,4475.384766,1421.000000,1.000000,23.000000,,,,0.000000,2.000000,2.000000,0.000000,4.000000,2.000000,2.000000,0.000000,0.000000,4.000000,4.000000,4.000000,4.000000,4.000000,4.000000,0.000000,,,,,,,,,,,,,,,,,1.000000,0.000000,0.527042,0.476990,-0.548828,0.439880,0.974240,0.005860,-0.045416,-35.242413,45.521038,31.881624
1732157646.952436,1732157646.955415,5.000000,0.000000,4343.461426,4294.871582,4331.666504,4302.692383,4246.538574,4262.948730,4340.384766,4408.589844,4288.846191,4281.538574,4507.307617,4537.563965,4390.897461,4475.641113,1210.000000,1.000000,23.000000,,,,0.000000,2.000000,2.000000,0.000000,4.000000,2.000000,2.000000,0.000000,0.000000,4.000000,4.000000,4.000000,4.000000,4.000000,4.000000,0.000000,,,,,,,,,,,,,,,,,,,,,,,,,,,,
1732157646.960244,1732157646.963023,6.000000,0.000000,4344.102539,4297.820313,4332.179688,4305.897461,4259.102539,4267.307617,4341.282227,4404.871582,4288.205078,4282.820313,4510.128418,4539.743652,4398.205078,4477.307617,0.000000,1.000000,23.000000,,,,0.000000,2.000000,2.000000,0.000000,4.000000,2.000000,2.000000,0.000000,0.000000,4.000000,4.000000,4.000000,4.000000,4.000000,4.000000,0.000000,,,,,,,,,,,,,,,,,,,,,,,,,,,,
1732157646.968052,1732157646.970832,7.000000,0.000000,4344.358887,4296.794922,4331.538574,4308.589844,4257.820313,4265.000000,4343.846191,4402.179688,4292.563965,4285.256348,4515.897461,4538.974121,4399.487305,4480.000000,0.000000,1.000000,23.000000,,,,0.000000,2.000000,2.000000,0.000000,4.000000,2.000000,2.000000,0.000000,0.000000,4.000000,4.000000,4.000000,4.000000,4.000000,4.000000,0.000000,,,,,,,,,,,,,,,,,,,,,,,,,,,,
1732157646.975860,1732157646.978540,8.000000,0.000000,4343.461426,4292.948730,4330.256348,4306.410156,4248.333496,4262.436035,4340.512695,4404.743652,4295.641113,4283.717773,4514.102539,4537.948730,4396.666504,4480.256348,1531.000000,1.000000,23.000000,,,,0.000000,2.000000,2.000000,0.000000,4.000000,2.000000,2.000000,0.000000,0.000000,4.000000,4.000000,4.000000,4.000000,4.000000,4.000000,0.000000,,,,,,,,,,,,,,,,,2.000000,0.000000,0.526656,0.476318,-0.549194,0.440613,0.982053,0.002930,-0.045904,-35.164688,45.485374,31.904116
1732157646.983669,1732157646.986348,9.000000,0.000000,4340.641113,4293.333496,4332.307617,4305.769043,4248.589844,4262.563965,4338.717773,4405.128418,4292.051270,4279.487305,4506.922852,4538.333496,4395.256348,4478.461426,1680.000000,1.000000,23.000000,,,,0.000000,2.000000,2.000000,0.000000,4.000000,2.000000,2.000000,0.000000,0.000000,4.000000,4.000000,4.000000,4.000000,4.000000,4.000000,0.000000,,,,,,,,,,,,,,,,,,,,,,,,,,,,
1732157646.991477,1732157646.993957,10.000000,0.000000,4336.025879,4294.102539,4332.436035,4306.153809,4255.512695,4263.974121,4342.436035,4403.846191,4293.461426,4287.563965,4509.871582,4538.974121,4393.717773,4479.487305,1544.000000,1.000000,23.000000,,,,0.000000,2.000000,2.000000,0.000000,4.000000,2.000000,2.000000,0.000000,0.000000,4.000000,4.000000,4.000000,4.000000,4.000000,4.000000,0.000000,,,,,,,,,,,,,,,,,,,,,,,,,,,,
1732157646.999285,1732157647.001765,11.000000,0.000000,4332.179688,4293.333496,4328.717773,4303.077148,4261.153809,4266.538574,4342.563965,4405.000000,4295.769043,4295.000000,4515.384766,4537.948730,4393.461426,4481.666504,1568.000000,1.000000,23.000000,,,,0.000000,2.000000,2.000000,0.000000,4.000000,2.000000,2.000000,0.000000,0.000000,4.000000,4.000000,4.000000,4.000000,4.000000,4.000000,0.000000,,,,,,,,,,,,,,,,,,,,,,,,,,,,
1732157647.007093,1732157647.009473,12.000000,0.000000,4335.384766,4293.846191,4326.538574,4305.128418,4261.794922,4267.948730,4340.256348,4404.230957,4292.820313,4285.897461,4511.922852,4536.794922,4395.512695,4481.153809,1700.000000,1.000000,23.000000,,,,0.000000,2.000000,2.000000,0.000000,4.000000,2.000000,2.000000,0.000000,0.000000,4.000000,4.000000,4.000000,4.000000,4.000000,4.000000,0.000000,,,,,,,,,,,,,,,,,3.000000,0.000000,0.526446,0.476013,-0.549072,0.441345,0.959590,0.008302,-0.054206,-35.191730,45.291485,31.993999
1732157647.014902,1732157647.017281,13.000000,0.000000,4342.563965,4295.641113,4329.102539,4310.128418,4261.025879,4265.769043,4340.769043,4405.000000,4292.692383,4282.948730,4508.589844,4535.769043,4393.974121,4478.589844,1628.000000,1.000000,23.000000,,,,0.000000,2.000000,2.000000,0.000000,4.000000,2.000000,2.000000,0.000000,0.000000,4.000000,4.000000,4.000000,4.000000,4.000000,4.000000,0.000000,,,,,,,,,,,,,,,,,,,,,,,,,,,,
1732157647.022710,1732157647.024890,14.000000,0.000000,4341.153809,4300.897461,4331.666504,4309.358887,4260.641113,4265.512695,4340.256348,4410.256348,4292.820313,4290.256348,4507.179688,4531.666504,4387.179688,4476.538574,1544.000000,1.000000,23.000000,,,,0.000000,2.000000,2.000000,0.000000,4.000000,2.000000,2.000000,0.000000,0.000000,4.000000,4.000000,4.000000,4.000000,4.000000,4.000000,0.000000,1.000000,0.000000,2.000000,2.000000,0.000000,4.000000,2.000000,2.000000,0.000000,0.000000,4.000000,4.000000,4.000000,4.000000,4.000000,4.000000,,,,,,,,,,,,
1732157647.030518,1732157647.032698,15.000000,0.000000,4333.717773,4302.563965,4328.974121,4309.743652,4263.077148,4268.974121,4340.000000,4408.461426,4292.820313,4286.025879,4504.871582,4524.230957,4381.666504,4474.487305,1568.000000,1.000000,23.000000,,,,0.000000,2.000000,2.000000,0.000000,4.000000,2.000000,2.000000,0.000000,0.000000,4.000000,4.000000,4.000000,4.000000,4.000000,4.000000,0.000000,,,,,,,,,,,,,,,,,,,,,,,,,,,,
1732157647.038326,1732157647.040406,16.000000,0.000000,4333.205078,4299.230957,4324.615234,4312.179688,4263.717773,4267.820313,4339.743652,4402.692383,4292.692383,4278.846191,4504.615234,4521.410156,4383.333496,4468.589844,0.000000,1.000000,23.000000,,,,0.000000,2.000000,2.000000,0.000000,4.000000,2.000000,2.000000,0.000000,0.000000,4.000000,4.000000,4.000000,4.000000,4.000000,4.000000,0.000000,,,,,,,,,,,,,,,,,4.000000,0.000000,0.526269,0.475586,-0.549072,0.442017,0.971798,0.005860,-0.046881,-35.190300,45.182770,31.948473
1732157647.046135,1732157647.048214,17.000000,0.000000,4335.256348,4299.358887,4324.743652,4310.641113,4262.820313,4267.820313,4337.307617,4404.230957,4292.179688,4282.051270,4501.282227,4522.307617,4384.743652,4462.820313,0.000000,1.000000,23.000000,,,,0.000000,2.000000,2.000000,0.000000,4.000000,2.000000,2.000000,0.000000,0.000000,4.000000,4.000000,4.000000,4.000000,4.000000,4.000000,0.000000,,,,,,,,,,,,,,,,,,,,,,,,,,,,
1732157647.053943,1732157647.056222,18.000000,0.000000,4331.025879,4302.820313,4329.102539,4310.769043,4264.615234,4277.179688,4336.410156,4405.769043,4292.179688,4282.948730,4493.461426,4522.692383,4376.025879,4458.589844,0.000000,1.000000,23.000000,,,,0.000000,2.000000,2.000000,0.000000,4.000000,2.000000,2.000000,0.000000,0.000000,4.000000,4.000000,4.000000,4.000000,4.000000,4.000000,0.000000,,,,,,,,,,,,,,,,,,,,,,,,,,,,
1732157647.061751,1732157647.064031,19.000000,0.000000,4326.666504,4305.128418,4330.256348,4316.794922,4264.487305,4280.128418,4336.410156,4402.307617,4292.051270,4280.384766,4490.641113,4522.307617,4372.820313,4456.666504,0.000000,1.000000,23.000000,,,,0.000000,2.000000,2.000000,0.000000,4.000000,2.000000,2.000000,0.000000,0.000000,4.000000,4.000000,4.000000,4.000000,4.000000,4.000000,0.000000,,,,,,,,,,,,,,,,,,,,,,,,,,,,
1732157647.069559,1732157647.071739,20.000000,0.000000,4327.563965,4307.692383,4326.794922,4318.077148,4265.641113,4275.897461,4336.794922,4401.922852,4292.563965,4281.025879,4494.102539,4521.410156,4380.128418,4457.179688,0.000000,1.000000,23.000000,,,,0.000000,2.000000,2.000000,0.000000,4.000000,2.000000,2.000000,0.000000,0.000000,4.000000,4.000000,4.000000,4.000000,4.000000,4.000000,0.000000,,,,,,,,,,,,,,,,,5.000000,0.000000,0.526106,0.475342,-0.549194,0.442322,0.979123,0.004395,-0.048346,-34.999146,45.281376,31.973263
1732157647.077368,1732157647.079547,21.000000,0.000000,4331.025879,4305.769043,4325.000000,4315.256348,4273.333496,4278.461426,4339.615234,4405.000000,4293.974121,4279.743652,4493.461426,4522.948730,4380.000000,4456.410156,0.000000,1.000000,23.000000,,,,0.000000,2.000000,2.000000,0.000000,4.000000,2.000000,2.000000,0.000000,0.000000,4.000000,4.000000,4.000000,4.000000,4.000000,4.000000,0.000000,,,,,,,,,,,,,,,,,,,,,,,,,,,,
1732157647.085176,1732157647.087156,22.000000,0.000000,4333.846191,4302.563965,4325.769043,4315.384766,4275.256348,4284.615234,4338.205078,4404.487305,4293.333496,4278.846191,4493.589844,4528.974121,4376.794922,4457.307617,0.000000,1.000000,23.000000,,,,0.000000,2.000000,2.000000,0.000000,4.000000,2.000000,2.000000,0.000000,0.000000,4.000000,4.000000,4.000000,4.000000,4.000000,4.000000,0.000000,,,,,,,,,,,,,,,,,,,,,,,,,,,,
1732157647.092984,1732157647.094964,23.000000,0.000000,4333.846191,4306.025879,4323.717773,4316.794922,4266.025879,4279.358887,4336.410156,4400.128418,4292.563965,4280.384766,4500.641113,4529.230957,4381.153809,4461.410156,0.000000,1.000000,23.000000,,,,0.000000,2.000000,2.000000,0.000000,4.000000,2.000000,2.000000,0.000000,0.000000,4.000000,4.000000,4.000000,4.000000,4.000000,4.000000,0.000000,,,,,,,,,,,,,,,,,,,,,,,,,,,,
1732157647.100792,1732157647.102672,24.000000,0.000000,4335.128418,4306.153809,4322.307617,4318.205078,4263.589844,4270.256348,4340.000000,4400.256348,4294.358887,4281.538574,4505.769043,4522.948730,4382.179688,4463.205078,0.000000,1.000000,23.000000,,,,0.000000,2.000000,2.000000,0.000000,4.000000,2.000000,2.000000,0.000000,0.000000,4.000000,4.000000,4.000000,4.000000,4.000000,4.000000,0.000000,,,,,,,,,,,,,,,,,6.000000,0.000000,0.525718,0.474792,-0.549500,0.442993,0.973263,-0.001953,-0.050299,-35.435974,45.107914,31.906677
1732157647.108601,1732157647.110480,25.000000,0.000000,4336.282227,4302.820313,4324.358887,4320.384766,4268.717773,4270.512695,4341.666504,4406.025879,4293.461426,4280.256348,4499.358887,4520.769043,4373.077148,4457.948730,0.000000,1.000000,23.000000,,,,0.000000,2.000000,2.000000,0.000000,4.000000,2.000000,2.000000,0.000000,0.000000,4.000000,4.000000,4.000000,4.000000,4.000000,4.000000,0.000000,,,,,,,,,,,,,,,,,,,,,,,,,,,,
1732157647.116409,1732157647.118089,26.000000,0.000000,4333.077148,4302.820313,4324.871582,4320.128418,4266.282227,4273.461426,4339.358887,4407.436035,4291.794922,4279.102539,4491.153809,4522.820313,4367.179688,4454.871582,0.000000,1.000000,23.000000,,,,0.000000,2.000000,2.000000,0.000000,4.000000,2.000000,2.000000,0.000000,0.000000,4.000000,4.000000,4.000000,4.000000,4.000000,4.000000,0.000000,,,,,,,,,,,,,,,,,,,,,,,,,,,,
1732157647.124217,1732157647.125897,27.000000,0.000000,4331.922852,4300.641113,4323.717773,4318.974121,4264.487305,4273.589844,4339.487305,4401.794922,4294.615234,4281.666504,4492.948730,4525.000000,4371.410156,4456.666504,0.000000,1.000000,23.000000,,,,0.000000,2.000000,2.000000,0.000000,4.000000,2.000000,2.000000,0.000000,0.000000,4.000000,4.000000,4.000000,4.000000,4.000000,4.000000,0.000000,,,,,,,,,,,,,,,,,,,,,,,,,,,,
1732157647.132025,1732157647.133805,28.000000,0.000000,4332.051270,4295.384766,4325.256348,4319.230957,4265.128418,4275.512695,4340.512695,4401.666504,4296.922852,4283.717773,4494.743652,4523.717773,4374.102539,4456.666504,0.000000,1.000000,23.000000,,,,0.000000,2.000000,2.000000,0.000000,4.000000,2.000000,2.000000,0.000000,0.000000,4.000000,4.000000,4.000000,4.000000,4.000000,4.000000,0.000000,,,,,,,,,,,,,,,,,7.000000,0.000000,0.524965,0.473450,-0.550293,0.444336,0.961543,0.003907,-0.049811,-35.331470,45.124077,31.751074
1732157647.139834,1732157647.141613,29.000000,0.000000,4328.461426,4297.051270,4326.025879,4318.205078,4267.692383,4280.128418,4339.615234,4403.461426,4294.230957,4281.282227,4492.051270,4520.769043,4368.846191,4455.769043,0.000000,1.000000,23.000000,,,,0.000000,2.000000,2.000000,0.000000,4.000000,2.000000,2.000000,0.000000,0.000000,4.000000,4.000000,4.000000,4.000000,4.000000,4.000000,0.000000,,,,,,,,,,,,,,,,,,,,,,,,,,,,
1732157647.147642,1732157647.149621,30.000000,0.000000,4326.538574,4301.538574,4324.102539,4318.846191,4270.384766,4275.512695,4337.820313,4400.384766,4291.538574,4278.974121,4491.922852,4520.128418,4364.615234,4454.102539,0.000000,1.000000,23.000000,,,,0.000000,2.000000,2.000000,0.000000,4.000000,2.000000,2.000000,0.000000,0.000000,4.000000,4.000000,4.000000,4.000000,4.000000,4.000000,0.000000,,,,,,,,,,,,,,,,,,,,,,,,,,,,
1732157647.155450,1732157647.157430,31.000000,0.000000,4327.051270,4301.153809,4322.563965,4319.615234,4265.512695,4268.589844,4335.000000,4398.717773,4295.128418,4280.384766,4491.922852,4517.692383,4365.641113,4449.230957,0.000000,1.000000,23.000000,,,,0.000000,2.000000,2.000000,0.000000,4.000000,2.000000,2.000000,0.000000,0.000000,4.000000,4.000000,4.000000,4.000000,4.000000,4.000000,0.000000,,,,,,,,,,,,,,,,,,,,,,,,,,,,
1732157647.163258,1732157647.165338,32.000000,0.000000,4325.384766,4297.051270,4321.794922,4315.512695,4275.769043,4273.333496,4335.512695,4399.487305,4292.820313,4279.230957,4489.230957,4513.589844,4364.358887,4442.692383,0.000000,1.000000,23.000000,,,,0.000000,2.000000,2.000000,0.000000,4.000000,2.000000,2.000000,0.000000,0.000000,4.000000,4.000000,4.000000,4.000000,4.000000,4.000000,0.000000,,,,,,,,,,,,,,,,,8.000000,0.000000,0.524863,0.473206,-0.550354,0.444641,0.961543,0.003907,-0.049811,-35.360157,45.327171,31.656704
1732157647.171067,1732157647.173146,33.000000,0.000000,4323.205078,4296.538574,4319.871582,4311.922852,4291.794922,4278.461426,4336.922852,4399.743652,4283.205078,4274.615234,4489.102539,4517.692383,4362.820313,4441.922852,0.000000,1.000000,23.000000,,,,0.000000,2.000000,2.000000,0.000000,4.000000,2.000000,2.000000,0.000000,0.000000,4.000000,4.000000,4.000000,4.000000,4.000000,4.000000,0.000000,,,,,,,,,,,,,,,,,,,,,,,,,,,,
1732157647.178875,1732157647.180754,34.000000,0.000000,4324.358887,4302.436035,4321.794922,4314.230957,4278.589844,4277.307617,4335.897461,4401.794922,4283.846191,4276.153809,4492.051270,4526.410156,4366.025879,4446.025879,0.000000,1.000000,23.000000,,,,0.000000,2.000000,2.000000,0.000000,4.000000,2.000000,2.000000,0.000000,0.000000,4.000000,4.000000,4.000000,4.000000,4.000000,4.000000,0.000000,,,,,,,,,,,,,,,,,,,,,,,,,,,,
1732157647.186683,1732157647.188562,35.000000,0.000000,4325.512695,4301.153809,4323.846191,4315.897461,4259.743652,4276.282227,4335.000000,4402.179688,4294.487305,4282.179688,4495.128418,4527.051270,4367.307617,4448.333496,0.000000,1.000000,23.000000,,,,0.000000,2.000000,2.000000,0.000000,4.000000,2.000000,2.000000,0.000000,0.000000,4.000000,4.000000,4.000000,4.000000,4.000000,4.000000,0.000000,,,,,,,,,,,,,,,,,,,,,,,,,,,,
1732157647.194491,1732157647.196471,36.000000,0.000000,4323.461426,4295.384766,4320.641113,4315.128418,4263.589844,4279.358887,4335.769043,4401.282227,4296.794922,4282.692383,4497.307617,4523.717773,4366.153809,4446.666504,0.000000,1.000000,23.000000,,,,0.000000,2.000000,2.000000,0.000000,4.000000,2.000000,2.000000,0.000000,0.000000,4.000000,4.000000,4.000000,4.000000,4.000000,4.000000,0.000000,,,,,,,,,,,,,,,,,9.000000,0.000000,0.524563,0.472717,-0.550171,0.445740,0.977658,0.006837,-0.041997,-35.196728,45.391674,31.246931
1732157647.202299,1732157647.204279,37.000000,0.000000,4317.051270,4299.358887,4319.102539,4315.000000,4272.692383,4280.256348,4336.282227,4403.077148,4293.846191,4280.641113,4494.743652,4521.153809,4366.282227,4442.820313,0.000000,1.000000,23.000000,,,,0.000000,2.000000,2.000000,0.000000,4.000000,2.000000,2.000000,0.000000,0.000000,4.000000,4.000000,4.000000,4.000000,4.000000,4.000000,0.000000,,,,,,,,,,,,,,,,,,,,,,,,,,,,
1732157647.210108,1732157647.212287,38.000000,0.000000,4312.051270,4301.282227,4322.307617,4313.974121,4270.897461,4280.128418,4336.025879,4403.461426,4296.025879,4281.922852,4490.384766,4519.358887,4365.384766,4442.948730,0.000000,1.000000,23.000000,,,,0.000000,2.000000,2.000000,0.000000,4.000000,2.000000,2.000000,0.000000,0.000000,4.000000,4.000000,4.000000,4.000000,4.000000,4.000000,0.000000,,,,,,,,,,,,,,,,,,,,,,,,,,,,
1732157647.217916,1732157647.220095,39.000000,0.000000,4311.538574,4298.077148,4323.077148,4310.897461,4270.000000,4278.846191,4335.000000,4400.512695,4298.461426,4282.051270,4490.256348,4520.641113,4360.641113,4445.512695,0.000000,1.000000,23.000000,,,,0.000000,2.000000,2.000000,0.000000,4.000000,2.000000,2.000000,0.000000,0.000000,4.000000,4.000000,4.000000,4.000000,4.000000,4.000000,0.000000,,,,,,,,,,,,,,,,,,,,,,,,,,,,
1732157647.225724,1732157647.228003,40.000000,0.000000,4312.179688,4299.358887,4320.512695,4309.358887,4271.538574,4276.282227,4334.102539,4399.871582,4294.615234,4279.230957,4491.025879,4515.128418,4357.179688,4441.794922,0.000000,1.000000,23.000000,,,,0.000000,2.000000,2.000000,0.000000,4.000000,2.000000,2.000000,0.000000,0.000000,4.000000,4.000000,4.000000,4.000000,4.000000,4.000000,0.000000,,,,,,,,,,,,,,,,,10.000000,0.000000,0.524574,0.472107,-0.549744,0.446899,0.991332,-0.007813,-0.044927,-35.312683,45.253922,31.463346
1732157647.233533,1732157647.235811,41.000000,0.000000,4312.563965,4300.000000,4319.743652,4310.256348,4270.256348,4278.717773,4335.641113,4400.897461,4289.358887,4279.487305,4488.717773,4512.051270,4358.077148,4432.051270,0.000000,1.000000,23.000000,,,,0.000000,2.000000,2.000000,0.000000,4.000000,2.000000,2.000000,0.000000,0.000000,4.000000,4.000000,4.000000,4.000000,4.000000,4.000000,0.000000,,,,,,,,,,,,,,,,,,,,,,,,,,,,
1732157647.241341,1732157647.243819,42.000000,0.000000,4312.307617,4294.487305,4320.256348,4310.641113,4271.666504,4278.077148,4336.025879,4400.641113,4288.974121,4281.153809,4488.333496,4519.358887,4358.461426,4431.538574,0.000000,1.000000,23.000000,,,,0.000000,2.000000,2.000000,0.000000,4.000000,2.000000,2.000000,0.000000,0.000000,4.000000,4.000000,4.000000,4.000000,4.000000,4.000000,0.000000,,,,,,,,,,,,,,,,,,,,,,,,,,,,
1732157647.249149,1732157647.251627,43.000000,0.000000,4313.077148,4295.769043,4322.820313,4310.128418,4284.230957,4272.692383,4334.358887,4399.743652,4295.128418,4280.897461,4491.410156,4523.205078,4358.846191,4440.641113,0.000000,1.000000,23.000000,,,,0.000000,2.000000,2.000000,0.000000,4.000000,2.000000,2.000000,0.000000,0.000000,4.000000,4.000000,4.000000,4.000000,4.000000,4.000000,0.000000,,,,,,,,,,,,,,,,,,,,,,,,,,,,
1732157647.256957,1732157647.259536,44.000000,0.000000,4316.666504,4303.205078,4323.461426,4312.820313,4286.794922,4273.974121,4334.487305,4398.461426,4302.948730,4288.077148,4493.589844,4521.922852,4362.051270,4443.461426,0.000000,1.000000,23.000000,,,,0.000000,2.000000,2.000000,0.000000,4.000000,2.000000,2.000000,0.000000,0.000000,4.000000,4.000000,4.000000,4.000000,4.000000,4.000000,0.000000,,,,,,,,,,,,,,,,,11.000000,0.000000,0.524613,0.472046,-0.549561,0.447144,0.980588,0.009767,-0.045904,-35.239941,45.309010,31.638643
1732157647.264765,1732157647.267344,45.000000,0.000000,4321.410156,4307.563965,4320.128418,4318.846191,4266.794922,4279.358887,4336.666504,4399.871582,4304.487305,4296.153809,4494.230957,4523.589844,4366.410156,4441.794922,0.000000,1.000000,23.000000,,,,0.000000,2.000000,2.000000,0.000000,4.000000,2.000000,2.000000,0.000000,0.000000,4.000000,4.000000,4.000000,4.000000,4.000000,4.000000,0.000000,,,,,,,,,,,,,,,,,,,,,,,,,,,,
1732157647.272574,1732157647.275352,46.000000,0.000000,4326.025879,4309.871582,4321.153809,4322.563965,4263.717773,4279.487305,4336.922852,4401.666504,4298.077148,4290.000000,4492.948730,4525.384766,4366.025879,4444.487305,0.000000,1.000000,23.000000,,,,0.000000,2.000000,2.000000,0.000000,4.000000,2.000000,2.000000,0.000000,0.000000,4.000000,4.000000,4.000000,4.000000,4.000000,4.000000,0.000000,,,,,,,,,,,,,,,,,,,,,,,,,,,,
1732157647.280382,1732157647.283160,47.000000,0.000000,4326.538574,4310.641113,4325.128418,4323.589844,4281.282227,4279.871582,4335.000000,4398.974121,4292.948730,4279.615234,4490.512695,4525.769043,4360.897461,4444.358887,0.000000,1.000000,23.000000,,,,0.000000,2.000000,2.000000,0.000000,4.000000,2.000000,2.000000,0.000000,0.000000,4.000000,4.000000,4.000000,4.000000,4.000000,4.000000,0.000000,,,,,,,,,,,,,,,,,,,,,,,,,,,,
1732157647.288190,1732157647.291068,48.000000,0.000000,4321.666504,4311.025879,4323.717773,4326.025879,4282.436035,4282.436035,4335.384766,4397.307617,4293.589844,4278.717773,4489.615234,4521.025879,4356.666504,4437.179688,0.000000,1.000000,23.000000,,,,0.000000,2.000000,2.000000,0.000000,4.000000,2.000000,2.000000,0.000000,0.000000,4.000000,4.000000,4.000000,4.000000,4.000000,4.000000,0.000000,,,,,,,,,,,,,,,,,12.000000,0.000000,0.524743,0.471985,-0.549438,0.447205,0.986449,0.005372,-0.033696,-35.479351,45.345299,31.738968
1732157647.295998,1732157647.298876,49.000000,0.000000,4317.692383,4312.307617,4322.179688,4325.897461,4278.205078,4281.153809,4336.538574,4399.743652,4297.948730,4283.333496,4489.743652,4512.436035,4359.487305,4430.769043,0.000000,1.000000,23.000000,,,,0.000000,2.000000,2.000000,0.000000,4.000000,2.000000,2.000000,0.000000,0.000000,4.000000,4.000000,4.000000,4.000000,4.000000,4.000000,0.000000,,,,,,,,,,,,,,,,,,,,,,,,,,,,
1732157647.303807,1732157647.306884,50.000000,0.000000,4314.358887,4308.333496,4322.820313,4321.025879,4283.589844,4279.102539,4335.000000,4400.769043,4307.436035,4292.179688,4491.153809,4516.282227,4364.743652,4428.717773,0.000000,1.000000,23.000000,,,,0.000000,2.000000,2.000000,0.000000,4.000000,2.000000,2.000000,0.000000,0.000000,4.000000,4.000000,4.000000,4.000000,4.000000,4.000000,0.000000,,,,,,,,,,,,,,,,,,,,,,,,,,,,
1732157647.311615,1732157647.314693,51.000000,0.000000,4311.410156,4304.230957,4321.282227,4316.666504,4284.230957,4280.769043,4334.102539,4399.102539,4312.692383,4295.769043,4490.897461,4523.846191,4362.948730,4429.358887,0.000000,1.000000,23.000000,,,,0.000000,2.000000,2.000000,0.000000,4.000000,2.000000,2.000000,0.000000,0.000000,4.000000,4.000000,4.000000,4.000000,4.000000,4.000000,0.000000,,,,,,,,,,,,,,,,,,,,,,,,,,,,
1732157647.319423,1732157647.322601,52.000000,0.000000,4312.692383,4305.769043,4320.769043,4316.666504,4277.179688,4282.692383,4335.769043,4400.769043,4305.128418,4288.205078,4491.153809,4516.794922,4358.589844,4430.128418,0.000000,1.000000,23.000000,,,,0.000000,2.000000,2.000000,0.000000,4.000000,2.000000,2.000000,0.000000,0.000000,4.000000,4.000000,4.000000,4.000000,4.000000,4.000000,0.000000,,,,,,,,,,,,,,,,,13.000000,0.000000,0.524724,0.472290,-0.549194,0.447205,0.987914,0.013185,-0.029789,-35.413277,45.473026,31.755232
1732157647.327232,1732157647.330409,53.000000,0.000000,4311.794922,4301.922852,4320.000000,4315.128418,4284.615234,4281.025879,4336.153809,4402.051270,4304.615234,4283.974121,4490.641113,4507.820313,4356.153809,4423.974121,0.000000,1.000000,23.000000,,,,0.000000,2.000000,2.000000,0.000000,4.000000,2.000000,2.000000,0.000000,0.000000,4.000000,4.000000,4.000000,4.000000,4.000000,4.000000,0.000000,,,,,,,,,,,,,,,,,,,,,,,,,,,,
1732157647.335040,1732157647.338417,54.000000,0.000000,4307.563965,4296.922852,4318.333496,4310.897461,4298.333496,4280.641113,4334.102539,4398.974121,4310.000000,4284.102539,4482.307617,4506.153809,4351.153809,4414.487305,0.000000,1.000000,23.000000,,,,0.000000,2.000000,2.000000,0.000000,4.000000,2.000000,2.000000,0.000000,0.000000,4.000000,4.000000,4.000000,4.000000,4.000000,4.000000,0.000000,,,,,,,,,,,,,,,,,,,,,,,,,,,,
1732157647.342848,1732157647.346225,55.000000,0.000000,4308.077148,4304.358887,4316.922852,4314.487305,4289.743652,4284.230957,4333.974121,4396.794922,4303.717773,4281.538574,4478.717773,4505.256348,4349.743652,4415.256348,0.000000,1.000000,23.000000,,,,0.000000,2.000000,2.000000,0.000000,4.000000,2.000000,2.000000,0.000000,0.000000,4.000000,4.000000,4.000000,4.000000,4.000000,4.000000,0.000000,,,,,,,,,,,,,,,,,,,,,,,,,,,,
1732157647.350656,1732157647.353933,56.000000,0.000000,4310.897461,4312.051270,4317.179688,4321.538574,4272.179688,4283.974121,4335.128418,4400.000000,4295.641113,4286.282227,4487.948730,4507.051270,4357.563965,4424.358887,0.000000,1.000000,23.000000,,,,0.000000,2.000000,2.000000,0.000000,4.000000,2.000000,2.000000,0.000000,0.000000,4.000000,4.000000,4.000000,4.000000,4.000000,4.000000,0.000000,,,,,,,,,,,,,,,,,14.000000,0.000000,0.524179,0.472961,-0.548889,0.447510,0.975705,0.009767,-0.039067,-35.589752,45.351482,31.688404
1732157647.358464,1732157647.361742,57.000000,0.000000,4309.102539,4308.974121,4320.128418,4322.820313,4276.538574,4280.384766,4334.871582,4402.820313,4297.307617,4293.333496,4492.692383,4509.871582,4360.256348,4426.153809,0.000000,1.000000,23.000000,,,,0.000000,2.000000,2.000000,0.000000,4.000000,2.000000,2.000000,0.000000,0.000000,4.000000,4.000000,4.000000,4.000000,4.000000,4.000000,0.000000,,,,,,,,,,,,,,,,,,,,,,,,,,,,
1732157647.366273,1732157647.369350,58.000000,0.000000,4308.974121,4308.589844,4322.948730,4320.000000,4285.641113,4279.102539,4334.743652,4401.282227,4299.358887,4287.307617,4486.794922,4509.487305,4352.179688,4419.230957,0.000000,1.000000,23.000000,,,,0.000000,2.000000,2.000000,0.000000,4.000000,2.000000,2.000000,0.000000,0.000000,4.000000,4.000000,4.000000,4.000000,4.000000,4.000000,0.000000,,,,,,,,,,,,,,,,,,,,,,,,,,,,
1732157647.374081,1732157647.377158,59.000000,0.000000,4311.538574,4312.820313,4320.000000,4315.256348,4281.025879,4280.000000,4334.871582,4398.333496,4295.384766,4278.717773,4485.641113,4508.461426,4349.871582,4418.077148,0.000000,1.000000,23.000000,,,,0.000000,2.000000,2.000000,0.000000,4.000000,2.000000,2.000000,0.000000,0.000000,4.000000,4.000000,4.000000,4.000000,4.000000,4.000000,0.000000,,,,,,,,,,,,,,,,,,,,,,,,,,,,
1732157647.381889,1732157647.384867,60.000000,0.000000,4310.641113,4309.743652,4319.102539,4312.948730,4278.846191,4280.769043,4334.871582,4397.948730,4293.974121,4280.512695,4491.025879,4508.205078,4352.820313,4424.487305,0.000000,1.000000,23.000000,,,,0.000000,2.000000,2.000000,0.000000,4.000000,2.000000,2.000000,0.000000,0.000000,4.000000,4.000000,4.000000,4.000000,4.000000,4.000000,0.000000,,,,,,,,,,,,,,,,,15.000000,0.000000,0.523828,0.473389,-0.548706,0.447693,0.975217,0.003907,-0.048346,-35.867699,45.268036,31.574274
1732157647.389697,1732157647.392675,61.000000,0.000000,4310.000000,4306.410156,4321.025879,4314.358887,4281.922852,4280.512695,4335.000000,4399.871582,4298.333496,4284.743652,4487.948730,4509.102539,4351.282227,4423.205078,0.000000,1.000000,23.000000,,,,0.000000,2.000000,2.000000,0.000000,4.000000,2.000000,2.000000,0.000000,0.000000,4.000000,4.000000,4.000000,4.000000,4.000000,4.000000,0.000000,,,,,,,,,,,,,,,,,,,,,,,,,,,,
1732157647.397506,1732157647.400283,62.000000,0.000000,4312.179688,4305.897461,4320.769043,4314.230957,4283.333496,4280.512695,4334.871582,4399.487305,4298.077148,4283.077148,4479.358887,4507.692383,4350.128418,4417.051270,0.000000,1.000000,23.000000,,,,0.000000,2.000000,2.000000,0.000000,4.000000,2.000000,2.000000,0.000000,0.000000,4.000000,4.000000,4.000000,4.000000,4.000000,4.000000,0.000000,,,,,,,,,,,,,,,,,,,,,,,,,,,,
1732157647.405314,1732157647.408091,63.000000,0.000000,4310.128418,4302.179688,4322.307617,4311.794922,4282.563965,4281.538574,4334.615234,4398.077148,4293.846191,4280.256348,4476.025879,4506.282227,4350.897461,4416.538574,0.000000,1.000000,23.000000,,,,0.000000,2.000000,2.000000,0.000000,4.000000,2.000000,2.000000,0.000000,0.000000,4.000000,4.000000,4.000000,4.000000,4.000000,4.000000,0.000000,,,,,,,,,,,,,,,,,,,,,,,,,,,,
1732157647.413122,1732157647.415800,64.000000,0.000000,4306.282227,4298.589844,4318.461426,4312.692383,4278.974121,4283.333496,4334.871582,4399.230957,4297.051270,4285.769043,4479.358887,4508.333496,4349.230957,4415.897461,0.000000,1.000000,23.000000,,,,0.000000,2.000000,2.000000,0.000000,4.000000,2.000000,2.000000,0.000000,0.000000,4.000000,4.000000,4.000000,4.000000,4.000000,4.000000,0.000000,,,,,,,,,,,,,,,,,16.000000,0.000000,0.523116,0.474182,-0.548401,0.448059,0.967403,-0.002930,-0.050787,-35.734505,44.995441,31.465162
1732157647.420931,1732157647.423608,65.000000,0.000000,4305.128418,4297.692383,4314.230957,4311.282227,4287.820313,4281.410156,4334.358887,4399.487305,4301.922852,4289.487305,4479.230957,4506.922852,4347.179688,4413.589844,1601.000000,1.000000,23.000000,,,,0.000000,2.000000,2.000000,0.000000,4.000000,2.000000,2.000000,0.000000,0.000000,4.000000,4.000000,4.000000,4.000000,4.000000,4.000000,0.000000,,,,,,,,,,,,,,,,,,,,,,,,,,,,
1732157647.428739,1732157647.431216,66.000000,0.000000,4301.666504,4297.692383,4320.384766,4307.692383,4300.000000,4278.461426,4333.333496,4398.846191,4297.820313,4282.948730,4477.307617,4506.794922,4348.974121,4413.846191,1366.000000,1.000000,23.000000,,,,0.000000,2.000000,2.000000,0.000000,4.000000,2.000000,2.000000,0.000000,0.000000,4.000000,4.000000,4.000000,4.000000,4.000000,4.000000,0.000000,,,,,,,,,,,,,,,,,,,,,,,,,,,,
1732157647.436547,1732157647.439024,67.000000,0.000000,4304.487305,4297.563965,4323.717773,4309.358887,4288.333496,4283.333496,4334.743652,4400.128418,4293.461426,4279.743652,4480.256348,4514.230957,4350.000000,4415.384766,1419.000000,1.000000,23.000000,,,,0.000000,2.000000,2.000000,0.000000,4.000000,2.000000,2.000000,0.000000,0.000000,4.000000,4.000000,4.000000,4.000000,4.000000,4.000000,0.000000,,,,,,,,,,,,,,,,,,,,,,,,,,,,
1732157647.444355,1732157647.446733,68.000000,0.000000,4310.000000,4297.051270,4318.333496,4310.128418,4270.384766,4288.974121,4337.436035,4401.410156,4296.666504,4285.384766,4480.769043,4514.743652,4349.358887,4414.615234,1422.000000,1.000000,23.000000,,,,0.000000,2.000000,2.000000,0.000000,4.000000,2.000000,2.000000,0.000000,0.000000,4.000000,4.000000,4.000000,4.000000,4.000000,4.000000,0.000000,,,,,,,,,,,,,,,,,17.000000,0.000000,0.521952,0.475342,-0.548157,0.448486,0.982053,0.000977,-0.058113,-35.641613,45.192974,31.678448
1732157647.452163,1732157647.454541,69.000000,0.000000,4303.333496,4297.948730,4319.102539,4309.358887,4275.000000,4289.743652,4338.205078,4400.641113,4302.692383,4289.230957,4477.051270,4506.666504,4349.615234,4414.230957,1212.000000,1.000000,23.000000,,,,0.000000,2.000000,2.000000,0.000000,4.000000,2.000000,2.000000,0.000000,0.000000,4.000000,4.000000,4.000000,4.000000,4.000000,4.000000,0.000000,,,,,,,,,,,,,,,,,,,,,,,,,,,,
1732157647.459972,1732157647.462149,70.000000,0.000000,4297.436035,4302.051270,4320.897461,4309.871582,4284.743652,4290.256348,4337.820313,4398.974121,4304.487305,4289.102539,4475.384766,4503.717773,4346.922852,4413.077148,0.000000,1.000000,23.000000,,,,0.000000,2.000000,2.000000,0.000000,4.000000,2.000000,2.000000,0.000000,0.000000,4.000000,4.000000,4.000000,4.000000,4.000000,4.000000,0.000000,,,,,,,,,,,,,,,,,,,,,,,,,,,,
1732157647.467780,1732157647.469958,71.000000,0.000000,4303.461426,4304.102539,4317.820313,4308.461426,4281.153809,4287.436035,4338.077148,4398.589844,4300.256348,4286.025879,4475.769043,4504.358887,4342.948730,4411.794922,0.000000,1.000000,23.000000,,,,0.000000,2.000000,2.000000,0.000000,4.000000,2.000000,2.000000,0.000000,0.000000,4.000000,4.000000,4.000000,4.000000,4.000000,4.000000,0.000000,,,,,,,,,,,,,,,,,,,,,,,,,,,,
1732157647.475588,1732157647.477866,72.000000,0.000000,4305.000000,4302.948730,4318.846191,4311.282227,4278.205078,4281.922852,4338.077148,4398.461426,4295.384766,4281.922852,4474.871582,4504.230957,4343.589844,4413.717773,1529.000000,1.000000,23.000000,,,,0.000000,2.000000,2.000000,0.000000,4.000000,2.000000,2.000000,0.000000,0.000000,4.000000,4.000000,4.000000,4.000000,4.000000,4.000000,0.000000,,,,,,,,,,,,,,,,,18.000000,0.000000,0.520934,0.475525,-0.548767,0.448730,0.994750,0.008302,-0.062508,-35.618042,45.072975,31.682877
1732157647.483396,1732157647.485674,73.000000,0.000000,4302.179688,4303.333496,4321.794922,4316.794922,4289.230957,4280.384766,4337.692383,4398.461426,4294.743652,4279.358887,4472.051270,4505.000000,4343.077148,4411.025879,1680.000000,1.000000,23.000000,,,,0.000000,2.000000,2.000000,0.000000,4.000000,2.000000,2.000000,0.000000,0.000000,4.000000,4.000000,4.000000,4.000000,4.000000,4.000000,0.000000,,,,,,,,,,,,,,,,,,,,,,,,,,,,
1732157647.491205,1732157647.493282,74.000000,0.000000,4303.589844,4300.384766,4320.128418,4314.230957,4300.512695,4282.179688,4338.461426,4398.077148,4293.205078,4277.307617,4471.922852,4505.384766,4338.333496,4406.666504,1544.000000,1.000000,23.000000,,,,0.000000,2.000000,2.000000,0.000000,4.000000,2.000000,2.000000,0.000000,0.000000,4.000000,4.000000,4.000000,4.000000,4.000000,4.000000,0.000000,,,,,,,,,,,,,,,,,,,,,,,,,,,,
1732157647.499013,1732157647.501091,75.000000,0.000000,4301.922852,4294.487305,4319.743652,4307.563965,4291.153809,4283.589844,4337.307617,4397.563965,4295.641113,4281.282227,4474.230957,4505.256348,4339.358887,4410.256348,1568.000000,1.000000,23.000000,,,,0.000000,2.000000,2.000000,0.000000,4.000000,2.000000,2.000000,0.000000,0.000000,4.000000,4.000000,4.000000,4.000000,4.000000,4.000000,0.000000,,,,,,,,,,,,,,,,,,,,,,,,,,,,
1732157647.506821,1732157647.508799,76.000000,0.000000,4296.410156,4292.307617,4319.743652,4308.717773,4271.538574,4290.128418,4335.128418,4397.692383,4302.307617,4289.487305,4475.641113,4503.461426,4344.358887,4410.256348,1700.000000,1.000000,23.000000,,,,0.000000,2.000000,2.000000,0.000000,4.000000,2.000000,2.000000,0.000000,0.000000,4.000000,4.000000,4.000000,4.000000,4.000000,4.000000,0.000000,,,,,,,,,,,,,,,,,19.000000,0.000000,0.520454,0.475525,-0.549072,0.448914,0.984007,-0.001465,-0.058601,-35.785614,44.837444,31.774796
1732157647.514629,1732157647.516607,77.000000,0.000000,4295.512695,4296.025879,4321.538574,4311.410156,4272.436035,4296.025879,4334.871582,4398.461426,4303.333496,4292.563965,4473.205078,4502.436035,4341.794922,4402.563965,1631.000000,1.000000,23.000000,,,,0.000000,2.000000,2.000000,0.000000,4.000000,2.000000,2.000000,0.000000,0.000000,4.000000,4.000000,4.000000,4.000000,4.000000,4.000000,0.000000,,,,,,,,,,,,,,,,,,,,,,,,,,,,
1732157647.522438,1732157647.524216,78.000000,0.000000,4298.589844,4298.077148,4322.307617,4310.256348,4293.077148,4293.461426,4334.871582,4398.589844,4302.436035,4292.436035,4471.538574,4502.692383,4340.000000,4404.358887,1544.000000,1.000000,23.000000,,,,0.000000,2.000000,2.000000,0.000000,4.000000,2.000000,2.000000,0.000000,0.000000,4.000000,4.000000,4.000000,4.000000,4.000000,4.000000,0.000000,1.000000,0.000000,2.000000,2.000000,0.000000,4.000000,2.000000,2.000000,0.000000,0.000000,4.000000,4.000000,4.000000,4.000000,4.000000,4.000000,,,,,,,,,,,,
1732157647.530246,1732157647.532024,79.000000,0.000000,4302.307617,4293.974121,4316.922852,4307.436035,4295.897461,4292.692383,4334.743652,4398.846191,4307.563965,4296.538574,4473.589844,4501.666504,4345.897461,4414.102539,1568.000000,1.000000,23.000000,,,,0.000000,2.000000,2.000000,0.000000,4.000000,2.000000,2.000000,0.000000,0.000000,4.000000,4.000000,4.000000,4.000000,4.000000,4.000000,0.000000,,,,,,,,,,,,,,,,,,,,,,,,,,,,
1732157647.538054,1732157647.539732,80.000000,0.000000,4302.179688,4293.461426,4314.230957,4307.307617,4276.538574,4294.230957,4335.769043,4401.153809,4306.282227,4296.282227,4476.922852,4503.589844,4351.282227,4415.897461,1700.000000,1.000000,23.000000,,,,0.000000,2.000000,2.000000,0.000000,4.000000,2.000000,2.000000,0.000000,0.000000,4.000000,4.000000,4.000000,4.000000,4.000000,4.000000,0.000000,,,,,,,,,,,,,,,,,20.000000,0.000000,0.519293,0.475769,-0.549561,0.449402,0.956660,-0.000488,-0.059578,-35.581348,44.804996,31.802586
1732157647.545862,1732157647.547540,81.000000,0.000000,4298.461426,4293.846191,4319.358887,4308.589844,4272.307617,4294.487305,4336.153809,4400.512695,4297.051270,4293.846191,4478.333496,4508.974121,4351.666504,4414.102539,1631.000000,1.000000,23.000000,,,,0.000000,2.000000,2.000000,0.000000,4.000000,2.000000,2.000000,0.000000,0.000000,4.000000,4.000000,4.000000,4.000000,4.000000,4.000000,0.000000,,,,,,,,,,,,,,,,,,,,,,,,,,,,
1732157647.553671,1732157647.555548,82.000000,0.000000,4296.666504,4286.538574,4322.820313,4304.230957,4280.256348,4295.128418,4336.153809,4397.563965,4296.025879,4297.051270,4476.538574,4509.871582,4348.333496,4415.384766,1544.000000,1.000000,23.000000,,,,0.000000,2.000000,2.000000,0.000000,4.000000,2.000000,2.000000,0.000000,0.000000,4.000000,4.000000,4.000000,4.000000,4.000000,4.000000,0.000000,,,,,,,,,,,,,,,,,,,,,,,,,,,,
1732157647.561479,1732157647.563356,83.000000,0.000000,4296.666504,4278.333496,4318.717773,4299.358887,4281.282227,4295.512695,4336.794922,4398.974121,4297.307617,4291.922852,4473.333496,4505.384766,4343.461426,4414.102539,1568.000000,1.000000,23.000000,,,,0.000000,2.000000,2.000000,0.000000,4.000000,2.000000,2.000000,0.000000,0.000000,4.000000,4.000000,4.000000,4.000000,4.000000,4.000000,0.000000,,,,,,,,,,,,,,,,,,,,,,,,,,,,
1732157647.569287,1732157647.571265,84.000000,0.000000,4295.897461,4280.769043,4316.922852,4300.256348,4288.846191,4295.384766,4335.128418,4398.589844,4295.384766,4282.692383,4471.922852,4503.589844,4341.410156,4412.820313,1700.000000,1.000000,23.000000,,,,0.000000,2.000000,2.000000,0.000000,4.000000,2.000000,2.000000,0.000000,0.000000,4.000000,4.000000,4.000000,4.000000,4.000000,4.000000,0.000000,,,,,,,,,,,,,,,,,21.000000,0.000000,0.518098,0.476379,-0.549561,0.450134,0.970333,-0.000488,-0.058601,-35.464226,45.013714,31.673428
1732157647.577095,1732157647.579073,85.000000,0.000000,4295.384766,4286.025879,4321.025879,4300.128418,4297.307617,4296.282227,4333.205078,4397.563965,4300.512695,4287.436035,4472.820313,4504.615234,4343.077148,4412.307617,1631.000000,1.000000,23.000000,,,,0.000000,2.000000,2.000000,0.000000,4.000000,2.000000,2.000000,0.000000,0.000000,4.000000,4.000000,4.000000,4.000000,4.000000,4.000000,0.000000,,,,,,,,,,,,,,,,,,,,,,,,,,,,
1732157647.584904,1732157647.586681,86.000000,0.000000,4296.538574,4286.410156,4323.589844,4300.897461,4285.769043,4297.692383,4334.102539,4401.666504,4306.025879,4295.512695,4473.589844,4505.641113,4343.333496,4410.897461,1544.000000,1.000000,23.000000,,,,0.000000,2.000000,2.000000,0.000000,4.000000,2.000000,2.000000,0.000000,0.000000,4.000000,4.000000,4.000000,4.000000,4.000000,4.000000,0.000000,,,,,,,,,,,,,,,,,,,,,,,,,,,,
1732157647.592712,1732157647.594489,87.000000,0.000000,4298.461426,4287.820313,4318.461426,4307.948730,4272.051270,4297.179688,4334.743652,4402.692383,4304.358887,4290.384766,4473.077148,4506.794922,4342.692383,4411.794922,1568.000000,1.000000,23.000000,,,,0.000000,2.000000,2.000000,0.000000,4.000000,2.000000,2.000000,0.000000,0.000000,4.000000,4.000000,4.000000,4.000000,4.000000,4.000000,0.000000,,,,,,,,,,,,,,,,,,,,,,,,,,,,
1732157647.600520,1732157647.602397,88.000000,0.000000,4298.461426,4290.769043,4314.102539,4309.487305,4279.487305,4296.538574,4334.743652,4399.615234,4301.282227,4282.820313,4471.794922,4506.153809,4343.589844,4412.563965,1700.000000,1.000000,23.000000,,,,0.000000,2.000000,2.000000,0.000000,4.000000,2.000000,2.000000,0.000000,0.000000,4.000000,4.000000,4.000000,4.000000,4.000000,4.000000,0.000000,,,,,,,,,,,,,,,,,22.000000,0.000000,0.517708,0.476501,-0.549622,0.450378,0.970333,-0.000488,-0.058601,-35.434357,45.021107,31.502142
1732157647.608328,1732157647.610206,89.000000,0.000000,4297.563965,4291.538574,4316.282227,4303.717773,4294.871582,4296.025879,4334.871582,4398.974121,4298.333496,4282.179688,4470.897461,4504.358887,4342.436035,4410.256348,1631.000000,1.000000,23.000000,,,,0.000000,2.000000,2.000000,0.000000,4.000000,2.000000,2.000000,0.000000,0.000000,4.000000,4.000000,4.000000,4.000000,4.000000,4.000000,0.000000,,,,,,,,,,,,,,,,,,,,,,,,,,,,
1732157647.616137,1732157647.618214,90.000000,0.000000,4296.794922,4289.487305,4317.051270,4304.871582,4293.077148,4294.230957,4335.512695,4398.974121,4297.051270,4281.025879,4471.153809,4503.333496,4339.615234,4408.077148,1544.000000,1.000000,23.000000,,,,0.000000,2.000000,2.000000,0.000000,4.000000,2.000000,2.000000,0.000000,0.000000,4.000000,4.000000,4.000000,4.000000,4.000000,4.000000,0.000000,,,,,,,,,,,,,,,,,,,,,,,,,,,,
1732157647.623945,1732157647.626022,91.000000,0.000000,4297.563965,4291.666504,4315.769043,4310.769043,4278.205078,4298.461426,4338.974121,4398.205078,4297.820313,4280.128418,4471.794922,4500.384766,4340.641113,4407.179688,1568.000000,1.000000,23.000000,,,,0.000000,2.000000,2.000000,0.000000,4.000000,2.000000,2.000000,0.000000,0.000000,4.000000,4.000000,4.000000,4.000000,4.000000,4.000000,0.000000,,,,,,,,,,,,,,,,,,,,,,,,,,,,
1732157647.631753,1732157647.633930,92.000000,0.000000,4297.692383,4295.512695,4318.846191,4312.948730,4274.102539,4303.974121,4340.256348,4397.948730,4301.025879,4282.692383,4472.179688,4498.717773,4340.512695,4406.922852,1700.000000,1.000000,23.000000,,,,0.000000,2.000000,2.000000,0.000000,4.000000,2.000000,2.000000,0.000000,0.000000,4.000000,4.000000,4.000000,4.000000,4.000000,4.000000,0.000000,,,,,,,,,,,,,,,,,23.000000,0.000000,0.517464,0.476440,-0.549805,0.450500,0.974728,-0.014650,-0.050787,-35.513493,45.008762,31.586735
1732157647.639561,1732157647.641738,93.000000,0.000000,4294.871582,4293.461426,4321.410156,4310.769043,4290.256348,4301.410156,4338.846191,4397.820313,4306.794922,4283.717773,4472.436035,4498.077148,4335.641113,4401.922852,1631.000000,1.000000,23.000000,,,,0.000000,2.000000,2.000000,0.000000,4.000000,2.000000,2.000000,0.000000,0.000000,4.000000,4.000000,4.000000,4.000000,4.000000,4.000000,0.000000,,,,,,,,,,,,,,,,,,,,,,,,,,,,
1732157647.647370,1732157647.649746,94.000000,0.000000,4293.589844,4293.205078,4318.461426,4306.922852,4303.589844,4296.282227,4338.461426,4399.615234,4307.051270,4282.563965,4471.025879,4494.615234,4335.897461,4396.666504,1544.000000,1.000000,23.000000,,,,0.000000,2.000000,2.000000,0.000000,4.000000,2.000000,2.000000,0.000000,0.000000,4.000000,4.000000,4.000000,4.000000,4.000000,4.000000,0.000000,,,,,,,,,,,,,,,,,,,,,,,,,,,,
1732157647.655178,1732157647.657554,95.000000,0.000000,4296.794922,4295.769043,4315.000000,4305.000000,4295.256348,4296.666504,4336.922852,4401.666504,4305.256348,4286.922852,4470.512695,4490.769043,4341.538574,4401.922852,1568.000000,1.000000,23.000000,,,,0.000000,2.000000,2.000000,0.000000,4.000000,2.000000,2.000000,0.000000,0.000000,4.000000,4.000000,4.000000,4.000000,4.000000,4.000000,0.000000,,,,,,,,,,,,,,,,,,,,,,,,,,,,
1732157647.662986,1732157647.665463,96.000000,0.000000,4298.333496,4296.666504,4314.487305,4310.000000,4279.102539,4297.820313,4333.974121,4398.717773,4311.282227,4296.282227,4474.871582,4495.641113,4343.974121,4411.538574,1700.000000,1.000000,23.000000,,,,0.000000,2.000000,2.000000,0.000000,4.000000,2.000000,2.000000,0.000000,0.000000,4.000000,4.000000,4.000000,4.000000,4.000000,4.000000,0.000000,,,,,,,,,,,,,,,,,24.000000,0.000000,0.516330,0.476196,-0.550781,0.450867,0.966427,-0.018557,-0.061043,-35.627598,44.922100,31.498589
1732157647.670794,1732157647.673271,97.000000,0.000000,4294.743652,4294.102539,4318.205078,4312.179688,4277.436035,4297.820313,4333.589844,4397.820313,4313.589844,4296.025879,4476.538574,4500.256348,4343.461426,4412.692383,1631.000000,1.000000,23.000000,,,,0.000000,2.000000,2.000000,0.000000,4.000000,2.000000,2.000000,0.000000,0.000000,4.000000,4.000000,4.000000,4.000000,4.000000,4.000000,0.000000,,,,,,,,,,,,,,,,,,,,,,,,,,,,
1732157647.678603,1732157647.681279,98.000000,0.000000,4293.077148,4292.692383,4317.179688,4308.461426,4286.922852,4299.358887,4334.615234,4401.666504,4302.563965,4287.820313,4472.179688,4498.205078,4342.436035,4408.846191,1544.000000,1.000000,23.000000,,,,0.000000,2.000000,2.000000,0.000000,4.000000,2.000000,2.000000,0.000000,0.000000,4.000000,4.000000,4.000000,4.000000,4.000000,4.000000,0.000000,,,,,,,,,,,,,,,,,,,,,,,,,,,,
1732157647.686411,1732157647.689087,99.000000,0.000000,4295.897461,4295.256348,4315.000000,4309.487305,4291.025879,4301.410156,4335.769043,4400.769043,4295.256348,4283.589844,4472.692383,4501.922852,4343.205078,4411.922852,1568.000000,1.000000,23.000000,,,,0.000000,2.000000,2.000000,0.000000,4.000000,2.000000,2.000000,0.000000,0.000000,4.000000,4.000000,4.000000,4.000000,4.000000,4.000000,0.000000,,,,,,,,,,,,,,,,,,,,,,,,,,,,
1732157647.694219,1732157647.696895,100.000000,0.000000,4296.922852,4296.282227,4320.384766,4311.410156,4293.974121,4302.307617,4335.641113,4398.333496,4298.974121,4286.025879,4477.307617,4506.922852,4349.743652,4414.743652,1700.000000,1.000000,23.000000,,,,0.000000,2.000000,2.000000,0.000000,4.000000,2.000000,2.000000,0.000000,0.000000,4.000000,4.000000,4.000000,4.000000,4.000000,4.000000,0.000000,,,,,,,,,,,,,,,,,25.000000,0.000000,0.516125,0.476135,-0.551025,0.450867,0.966427,-0.018557,-0.061043,-35.556686,45.098568,31.695524
1732157647.702027,1732157647.704703,101.000000,0.000000,4295.769043,4293.333496,4323.974121,4307.820313,4294.358887,4305.769043,4334.230957,4399.615234,4302.563965,4290.641113,4477.563965,4506.666504,4350.641113,4412.051270,1631.000000,1.000000,23.000000,,,,0.000000,2.000000,2.000000,0.000000,4.000000,2.000000,2.000000,0.000000,0.000000,4.000000,4.000000,4.000000,4.000000,4.000000,4.000000,0.000000,,,,,,,,,,,,,,,,,,,,,,,,,,,,
1732157647.709836,1732157647.712312,102.000000,0.000000,4292.051270,4290.256348,4318.333496,4300.641113,4298.974121,4305.384766,4337.436035,4400.897461,4304.871582,4293.205078,4477.179688,4505.000000,4343.589844,4410.384766,1544.000000,1.000000,23.000000,,,,0.000000,2.000000,2.000000,0.000000,4.000000,2.000000,2.000000,0.000000,0.000000,4.000000,4.000000,4.000000,4.000000,4.000000,4.000000,0.000000,,,,,,,,,,,,,,,,,,,,,,,,,,,,
1732157647.717644,1732157647.720120,103.000000,0.000000,4290.512695,4290.512695,4314.615234,4297.179688,4304.615234,4297.563965,4339.743652,4399.871582,4308.077148,4292.820313,4478.205078,4504.615234,4346.153809,4410.256348,1568.000000,1.000000,23.000000,,,,0.000000,2.000000,2.000000,0.000000,4.000000,2.000000,2.000000,0.000000,0.000000,4.000000,4.000000,4.000000,4.000000,4.000000,4.000000,0.000000,,,,,,,,,,,,,,,,,,,,,,,,,,,,
1732157647.725452,1732157647.727828,104.000000,0.000000,4295.384766,4291.410156,4315.384766,4299.102539,4289.871582,4295.897461,4336.025879,4401.153809,4312.307617,4294.871582,4479.230957,4506.538574,4353.461426,4413.461426,1700.000000,1.000000,23.000000,,,,0.000000,2.000000,2.000000,0.000000,4.000000,2.000000,2.000000,0.000000,0.000000,4.000000,4.000000,4.000000,4.000000,4.000000,4.000000,0.000000,,,,,,,,,,,,,,,,,26.000000,0.000000,0.515870,0.475647,-0.551636,0.450928,0.964473,-0.032230,-0.064949,-35.735916,45.016506,31.626707
1732157647.733260,1732157647.735637,105.000000,0.000000,4291.922852,4287.307617,4315.512695,4299.230957,4272.692383,4303.717773,4333.974121,4403.205078,4313.717773,4295.512695,4478.974121,4506.922852,4352.820313,4412.948730,1631.000000,1.000000,23.000000,,,,0.000000,2.000000,2.000000,0.000000,4.000000,2.000000,2.000000,0.000000,0.000000,4.000000,4.000000,4.000000,4.000000,4.000000,4.000000,0.000000,,,,,,,,,,,,,,,,,,,,,,,,,,,,
1732157647.741068,1732157647.743245,106.000000,0.000000,4282.051270,4281.153809,4317.179688,4292.436035,4277.692383,4305.384766,4335.512695,4402.179688,4313.717773,4294.358887,4476.153809,4505.256348,4350.000000,4405.256348,1544.000000,1.000000,23.000000,,,,0.000000,2.000000,2.000000,0.000000,4.000000,2.000000,2.000000,0.000000,0.000000,4.000000,4.000000,4.000000,4.000000,4.000000,4.000000,0.000000,,,,,,,,,,,,,,,,,,,,,,,,,,,,
1732157647.748877,1732157647.751053,107.000000,0.000000,4287.307617,4284.358887,4319.871582,4293.846191,4286.666504,4301.282227,4336.282227,4402.820313,4312.436035,4294.102539,4475.897461,4505.384766,4349.871582,4403.205078,1568.000000,1.000000,23.000000,,,,0.000000,2.000000,2.000000,0.000000,4.000000,2.000000,2.000000,0.000000,0.000000,4.000000,4.000000,4.000000,4.000000,4.000000,4.000000,0.000000,,,,,,,,,,,,,,,,,,,,,,,,,,,,
1732157647.756685,1732157647.758761,108.000000,0.000000,4298.461426,4292.820313,4318.077148,4304.230957,4280.769043,4302.179688,4336.025879,4402.563965,4308.205078,4289.102539,4478.717773,4508.974121,4351.153809,4408.077148,1700.000000,1.000000,23.000000,,,,0.000000,2.000000,2.000000,0.000000,4.000000,2.000000,2.000000,0.000000,0.000000,4.000000,4.000000,4.000000,4.000000,4.000000,4.000000,0.000000,,,,,,,,,,,,,,,,,27.000000,0.000000,0.515294,0.475403,-0.552185,0.451172,0.980588,-0.020510,-0.053717,-35.594425,44.971703,31.524300
1732157647.764493,1732157647.766570,109.000000,0.000000,4294.743652,4289.743652,4316.282227,4301.025879,4281.282227,4302.948730,4336.282227,4398.205078,4301.794922,4281.025879,4476.538574,4509.102539,4352.307617,4407.179688,1631.000000,1.000000,23.000000,,,,0.000000,2.000000,2.000000,0.000000,4.000000,2.000000,2.000000,0.000000,0.000000,4.000000,4.000000,4.000000,4.000000,4.000000,4.000000,0.000000,,,,,,,,,,,,,,,,,,,,,,,,,,,,
1732157647.772302,1732157647.774178,110.000000,0.000000,4290.000000,4285.641113,4318.589844,4295.769043,4299.487305,4302.307617,4335.897461,4398.717773,4296.666504,4278.846191,4470.384766,4505.512695,4346.794922,4402.820313,1544.000000,1.000000,23.000000,,,,0.000000,2.000000,2.000000,0.000000,4.000000,2.000000,2.000000,0.000000,0.000000,4.000000,4.000000,4.000000,4.000000,4.000000,4.000000,0.000000,,,,,,,,,,,,,,,,,,,,,,,,,,,,
1732157647.780110,1732157647.781986,111.000000,0.000000,4293.974121,4292.692383,4318.717773,4306.025879,4301.538574,4306.666504,4336.282227,4401.025879,4299.358887,4280.641113,4470.000000,4503.846191,4340.897461,4404.487305,1568.000000,1.000000,23.000000,,,,0.000000,2.000000,2.000000,0.000000,4.000000,2.000000,2.000000,0.000000,0.000000,4.000000,4.000000,4.000000,4.000000,4.000000,4.000000,0.000000,,,,,,,,,,,,,,,,,,,,,,,,,,,,
1732157647.787918,1732157647.789695,112.000000,0.000000,4295.897461,4296.538574,4315.512695,4314.615234,4282.692383,4306.794922,4335.641113,4398.717773,4306.666504,4281.410156,4473.974121,4506.538574,4347.563965,4407.307617,1700.000000,1.000000,23.000000,,,,0.000000,2.000000,2.000000,0.000000,4.000000,2.000000,2.000000,0.000000,0.000000,4.000000,4.000000,4.000000,4.000000,4.000000,4.000000,0.000000,,,,,,,,,,,,,,,,,28.000000,0.000000,0.515119,0.475464,-0.552246,0.451233,0.970333,-0.022952,-0.062996,-35.516483,45.057079,31.473017
1732157647.795726,1732157647.797503,113.000000,0.000000,4296.538574,4294.230957,4317.948730,4310.384766,4272.948730,4301.666504,4335.641113,4398.205078,4310.769043,4285.512695,4476.282227,4509.871582,4350.384766,4407.948730,1631.000000,1.000000,23.000000,,,,0.000000,2.000000,2.000000,0.000000,4.000000,2.000000,2.000000,0.000000,0.000000,4.000000,4.000000,4.000000,4.000000,4.000000,4.000000,0.000000,,,,,,,,,,,,,,,,,,,,,,,,,,,,
1732157647.803535,1732157647.805111,114.000000,0.000000,4296.538574,4292.948730,4323.077148,4303.974121,4281.538574,4301.922852,4335.897461,4401.538574,4312.179688,4289.615234,4474.743652,4509.487305,4344.358887,4406.538574,1544.000000,1.000000,23.000000,,,,0.000000,2.000000,2.000000,0.000000,4.000000,2.000000,2.000000,0.000000,0.000000,4.000000,4.000000,4.000000,4.000000,4.000000,4.000000,0.000000,,,,,,,,,,,,,,,,,,,,,,,,,,,,
1732157647.811343,1732157647.812919,115.000000,0.000000,4292.307617,4293.205078,4323.205078,4301.153809,4294.102539,4304.743652,4335.256348,4400.641113,4307.563965,4284.102539,4471.666504,4507.436035,4346.153809,4403.461426,1568.000000,1.000000,23.000000,,,,0.000000,2.000000,2.000000,0.000000,4.000000,2.000000,2.000000,0.000000,0.000000,4.000000,4.000000,4.000000,4.000000,4.000000,4.000000,0.000000,,,,,,,,,,,,,,,,,,,,,,,,,,,,
1732157647.819151,1732157647.820628,116.000000,0.000000,4290.897461,4293.333496,4320.769043,4302.692383,4293.461426,4303.461426,4334.871582,4400.128418,4298.589844,4276.794922,4472.307617,4507.307617,4351.666504,4406.666504,1700.000000,1.000000,23.000000,,,,0.000000,2.000000,2.000000,0.000000,4.000000,2.000000,2.000000,0.000000,0.000000,4.000000,4.000000,4.000000,4.000000,4.000000,4.000000,0.000000,,,,,,,,,,,,,,,,,29.000000,0.000000,0.515119,0.475464,-0.552246,0.451233,0.965450,-0.008790,-0.064949,-35.558353,45.216236,31.446476
1732157647.826959,1732157647.828436,117.000000,0.000000,4294.615234,4294.743652,4318.333496,4309.487305,4280.000000,4305.000000,4334.743652,4401.666504,4296.153809,4278.077148,4474.230957,4507.563965,4350.000000,4413.205078,1631.000000,1.000000,23.000000,,,,0.000000,2.000000,2.000000,0.000000,4.000000,2.000000,2.000000,0.000000,0.000000,4.000000,4.000000,4.000000,4.000000,4.000000,4.000000,0.000000,,,,,,,,,,,,,,,,,,,,,,,,,,,,
1732157647.834767,1732157647.836044,118.000000,0.000000,4295.256348,4294.102539,4316.666504,4310.384766,4274.487305,4313.461426,4334.743652,4398.717773,4302.563965,4282.563965,4473.589844,4506.794922,4350.128418,4411.538574,1544.000000,1.000000,23.000000,,,,0.000000,2.000000,2.000000,0.000000,4.000000,2.000000,2.000000,0.000000,0.000000,4.000000,4.000000,4.000000,4.000000,4.000000,4.000000,0.000000,,,,,,,,,,,,,,,,,,,,,,,,,,,,
1732157647.842576,1732157647.843853,119.000000,0.000000,4291.794922,4292.436035,4316.025879,4304.487305,4284.615234,4313.717773,4335.256348,4398.717773,4306.410156,4281.410156,4471.922852,4507.051270,4353.974121,4407.820313,1568.000000,1.000000,23.000000,,,,0.000000,2.000000,2.000000,0.000000,4.000000,2.000000,2.000000,0.000000,0.000000,4.000000,4.000000,4.000000,4.000000,4.000000,4.000000,0.000000,,,,,,,,,,,,,,,,,,,,,,,,,,,,
1732157647.850384,1732157647.851561,120.000000,0.000000,4290.384766,4294.871582,4315.256348,4303.077148,4285.641113,4305.256348,4336.410156,4403.461426,4302.436035,4280.512695,4471.025879,4507.563965,4353.461426,4408.974121,1700.000000,1.000000,23.000000,,,,0.000000,2.000000,2.000000,0.000000,4.000000,2.000000,2.000000,0.000000,0.000000,4.000000,4.000000,4.000000,4.000000,4.000000,4.000000,0.000000,,,,,,,,,,,,,,,,,30.000000,0.000000,0.515053,0.475464,-0.552307,0.451233,0.977170,-0.004883,-0.064461,-35.590599,45.023483,31.679979
1732157647.858192,1732157647.859369,121.000000,0.000000,4288.717773,4293.717773,4317.948730,4304.615234,4278.461426,4305.641113,4336.410156,4401.922852,4301.666504,4282.948730,4471.282227,4506.025879,4352.563965,4407.051270,1631.000000,1.000000,23.000000,,,,0.000000,2.000000,2.000000,0.000000,4.000000,2.000000,2.000000,0.000000,0.000000,4.000000,4.000000,4.000000,4.000000,4.000000,4.000000,0.000000,,,,,,,,,,,,,,,,,,,,,,,,,,,,
1732157647.866001,1732157647.866978,122.000000,0.000000,4286.282227,4286.153809,4323.205078,4300.769043,4289.487305,4308.974121,4335.384766,4400.128418,4308.717773,4282.436035,4472.563965,4505.641113,4353.333496,4401.538574,1544.000000,1.000000,23.000000,,,,0.000000,2.000000,2.000000,0.000000,4.000000,2.000000,2.000000,0.000000,0.000000,4.000000,4.000000,4.000000,4.000000,4.000000,4.000000,0.000000,,,,,,,,,,,,,,,,,,,,,,,,,,,,
1732157647.873809,1732157647.874786,123.000000,0.000000,4289.358887,4286.025879,4320.897461,4297.436035,4301.538574,4302.307617,4334.871582,4402.948730,4313.717773,4281.922852,4474.615234,4505.897461,4352.948730,4401.410156,1568.000000,1.000000,23.000000,,,,0.000000,2.000000,2.000000,0.000000,4.000000,2.000000,2.000000,0.000000,0.000000,4.000000,4.000000,4.000000,4.000000,4.000000,4.000000,0.000000,,,,,,,,,,,,,,,,,,,,,,,,,,,,
1732157647.881617,1732157647.882694,124.000000,0.000000,4294.487305,4293.717773,4316.538574,4300.769043,4290.384766,4298.077148,4334.871582,4401.282227,4309.230957,4283.974121,4475.897461,4505.897461,4352.436035,4405.897461,1700.000000,1.000000,23.000000,,,,0.000000,2.000000,2.000000,0.000000,4.000000,2.000000,2.000000,0.000000,0.000000,4.000000,4.000000,4.000000,4.000000,4.000000,4.000000,0.000000,,,,,,,,,,,,,,,,,31.000000,0.000000,0.515298,0.474915,-0.552551,0.451233,0.989379,-0.014162,-0.068368,-35.600052,44.995689,31.590784
1732157647.889425,1732157647.890502,125.000000,0.000000,4296.153809,4295.769043,4318.077148,4306.025879,4270.256348,4307.820313,4334.871582,4397.051270,4306.538574,4283.717773,4475.641113,4508.205078,4352.820313,4410.128418,1631.000000,1.000000,23.000000,,,,0.000000,2.000000,2.000000,0.000000,4.000000,2.000000,2.000000,0.000000,0.000000,4.000000,4.000000,4.000000,4.000000,4.000000,4.000000,0.000000,,,,,,,,,,,,,,,,,,,,,,,,,,,,
1732157647.897234,1732157647.898110,126.000000,0.000000,4295.897461,4293.589844,4318.717773,4306.025879,4270.128418,4311.410156,4334.743652,4398.333496,4305.897461,4282.692383,4475.128418,4509.871582,4353.205078,4412.051270,1544.000000,1.000000,23.000000,,,,0.000000,2.000000,2.000000,0.000000,4.000000,2.000000,2.000000,0.000000,0.000000,4.000000,4.000000,4.000000,4.000000,4.000000,4.000000,0.000000,,,,,,,,,,,,,,,,,,,,,,,,,,,,
1732157647.905042,1732157647.905919,127.000000,0.000000,4295.000000,4293.461426,4316.794922,4303.717773,4290.769043,4303.974121,4334.743652,4399.871582,4299.358887,4282.051270,4475.384766,4506.538574,4352.436035,4411.410156,23.000000,1.000000,23.000000,,,,0.000000,2.000000,2.000000,0.000000,4.000000,2.000000,2.000000,0.000000,0.000000,4.000000,4.000000,4.000000,4.000000,4.000000,4.000000,0.000000,,,,,,,,,,,,,,,,,,,,,,,,,,,,
1732157647.912850,1732157647.913627,0.000000,0.000000,4292.948730,4293.846191,4315.769043,4304.102539,4297.692383,4305.512695,4335.000000,4397.436035,4297.307617,4280.128418,4475.641113,4504.230957,4353.846191,4411.794922,0.000000,1.000000,23.000000,,,,0.000000,2.000000,2.000000,0.000000,4.000000,2.000000,2.000000,0.000000,0.000000,4.000000,4.000000,4.000000,4.000000,4.000000,4.000000,0.000000,,,,,,,,,,,,,,,,,0.000000,0.000000,0.515097,0.475159,-0.552429,0.451355,0.985472,-0.009278,-0.058601,-35.371040,44.831509,31.560202
1732157647.920658,1732157647.921435,1.000000,0.000000,4289.487305,4293.589844,4315.641113,4305.512695,4283.205078,4312.563965,4334.871582,4397.820313,4303.974121,4283.461426,4476.025879,4507.179688,4360.512695,4413.589844,1589.000000,1.000000,23.000000,,,,0.000000,2.000000,2.000000,0.000000,4.000000,2.000000,2.000000,0.000000,0.000000,4.000000,4.000000,4.000000,4.000000,4.000000,4.000000,0.000000,,,,,,,,,,,,,,,,,,,,,,,,,,,,
1732157647.928466,1732157647.929044,2.000000,0.000000,4289.615234,4293.846191,4317.179688,4306.153809,4274.358887,4312.820313,4334.871582,4399.230957,4312.436035,4292.436035,4476.538574,4508.461426,4363.333496,4406.922852,1366.000000,1.000000,23.000000,,,,0.000000,2.000000,2.000000,0.000000,4.000000,2.000000,2.000000,0.000000,0.000000,4.000000,4.000000,4.000000,4.000000,4.000000,4.000000,0.000000,,,,,,,,,,,,,,,,,,,,,,,,,,,,
1732157647.936275,1732157647.936852,3.000000,0.000000,4292.179688,4293.205078,4318.333496,4307.436035,4281.666504,4310.897461,4336.282227,4397.948730,4313.333496,4291.025879,4475.384766,4506.282227,4359.102539,4402.436035,1414.000000,1.000000,23.000000,,,,0.000000,2.000000,2.000000,0.000000,4.000000,2.000000,2.000000,0.000000,0.000000,4.000000,4.000000,4.000000,4.000000,4.000000,4.000000,0.000000,,,,,,,,,,,,,,,,,,,,,,,,,,,,
1732157647.944083,1732157647.944760,4.000000,0.000000,4287.692383,4292.820313,4317.563965,4306.410156,4286.410156,4310.512695,4337.179688,4399.102539,4302.948730,4280.897461,4473.077148,4505.512695,4356.666504,4403.461426,1421.000000,1.000000,23.000000,,,,0.000000,2.000000,2.000000,0.000000,4.000000,2.000000,2.000000,0.000000,0.000000,4.000000,4.000000,4.000000,4.000000,4.000000,4.000000,0.000000,,,,,,,,,,,,,,,,,1.000000,0.000000,0.515097,0.475159,-0.552429,0.451355,0.979612,-0.007325,-0.053229,-35.230545,44.743523,31.610430
1732157647.951891,1732157647.952568,5.000000,0.000000,4280.897461,4291.794922,4317.563965,4300.769043,4282.179688,4302.948730,4335.641113,4402.436035,4295.128418,4279.743652,4470.512695,4503.846191,4357.948730,4400.000000,1212.000000,1.000000,23.000000,,,,0.000000,2.000000,2.000000,0.000000,4.000000,2.000000,2.000000,0.000000,0.000000,4.000000,4.000000,4.000000,4.000000,4.000000,4.000000,0.000000,,,,,,,,,,,,,,,,,,,,,,,,,,,,
1732157647.959700,1732157647.960576,6.000000,0.000000,4285.000000,4293.205078,4318.333496,4301.410156,4279.230957,4298.717773,4333.589844,4400.769043,4302.179688,4285.384766,4473.077148,4502.820313,4358.589844,4396.922852,0.000000,1.000000,23.000000,,,,0.000000,2.000000,2.000000,0.000000,4.000000,2.000000,2.000000,0.000000,0.000000,4.000000,4.000000,4.000000,4.000000,4.000000,4.000000,0.000000,,,,,,,,,,,,,,,,,,,,,,,,,,,,
1732157647.967508,1732157647.968384,7.000000,0.000000,4289.358887,4295.000000,4320.641113,4304.615234,4284.871582,4303.717773,4335.256348,4396.922852,4306.410156,4284.358887,4473.461426,4502.820313,4355.256348,4400.128418,0.000000,1.000000,23.000000,,,,0.000000,2.000000,2.000000,0.000000,4.000000,2.000000,2.000000,0.000000,0.000000,4.000000,4.000000,4.000000,4.000000,4.000000,4.000000,0.000000,,,,,,,,,,,,,,,,,,,,,,,,,,,,
1732157647.975316,1732157647.976292,8.000000,0.000000,4282.820313,4288.333496,4322.563965,4298.461426,4301.153809,4303.077148,4338.333496,4397.563965,4296.410156,4276.922852,4464.358887,4495.897461,4347.820313,4398.461426,1529.000000,1.000000,23.000000,,,,0.000000,2.000000,2.000000,0.000000,4.000000,2.000000,2.000000,0.000000,0.000000,4.000000,4.000000,4.000000,4.000000,4.000000,4.000000,0.000000,,,,,,,,,,,,,,,,,2.000000,0.000000,0.515154,0.475220,-0.552124,0.451599,0.978635,-0.026370,-0.044927,-35.308407,44.743919,31.279448
1732157647.983124,1732157647.984101,9.000000,0.000000,4280.384766,4281.025879,4317.692383,4293.974121,4298.589844,4304.871582,4340.512695,4400.641113,4292.051270,4274.487305,4462.436035,4492.692383,4345.897461,4394.615234,1681.000000,1.000000,23.000000,,,,0.000000,2.000000,2.000000,0.000000,4.000000,2.000000,2.000000,0.000000,0.000000,4.000000,4.000000,4.000000,4.000000,4.000000,4.000000,0.000000,,,,,,,,,,,,,,,,,,,,,,,,,,,,
1732157647.990933,1732157647.992109,10.000000,0.000000,4283.077148,4284.230957,4311.666504,4296.794922,4270.897461,4311.282227,4340.641113,4401.153809,4304.615234,4281.153809,4474.615234,4502.179688,4354.743652,4398.589844,1541.000000,1.000000,23.000000,,,,0.000000,2.000000,2.000000,0.000000,4.000000,2.000000,2.000000,0.000000,0.000000,4.000000,4.000000,4.000000,4.000000,4.000000,4.000000,0.000000,,,,,,,,,,,,,,,,,,,,,,,,,,,,
1732157647.998741,1732157647.999917,11.000000,0.000000,4281.666504,4288.461426,4317.051270,4295.641113,4271.282227,4306.282227,4337.563965,4399.230957,4310.000000,4283.974121,4479.615234,4508.205078,4357.436035,4404.230957,1568.000000,1.000000,23.000000,,,,0.000000,2.000000,2.000000,0.000000,4.000000,2.000000,2.000000,0.000000,0.000000,4.000000,4.000000,4.000000,4.000000,4.000000,4.000000,0.000000,,,,,,,,,,,,,,,,,,,,,,,,,,,,
1732157648.006549,1732157648.007625,12.000000,0.000000,4283.205078,4290.384766,4322.307617,4296.666504,4292.179688,4298.589844,4335.256348,4397.820313,4302.692383,4281.538574,4473.077148,4503.846191,4351.794922,4408.974121,1700.000000,1.000000,23.000000,,,,0.000000,2.000000,2.000000,0.000000,4.000000,2.000000,2.000000,0.000000,0.000000,4.000000,4.000000,4.000000,4.000000,4.000000,4.000000,0.000000,,,,,,,,,,,,,,,,,3.000000,0.000000,0.515138,0.475037,-0.552246,0.451660,0.971798,-0.011232,-0.051276,-35.281475,44.729240,31.431353
1732157648.014357,1732157648.015433,13.000000,0.000000,4289.487305,4294.487305,4317.692383,4306.794922,4278.717773,4302.820313,4336.025879,4400.384766,4304.871582,4285.384766,4472.179688,4503.974121,4354.615234,4413.205078,1633.000000,1.000000,23.000000,,,,0.000000,2.000000,2.000000,0.000000,4.000000,2.000000,2.000000,0.000000,0.000000,4.000000,4.000000,4.000000,4.000000,4.000000,4.000000,0.000000,,,,,,,,,,,,,,,,,,,,,,,,,,,,
1732157648.022165,1732157648.023441,14.000000,0.000000,4291.410156,4296.922852,4317.051270,4306.410156,4258.205078,4304.358887,4335.512695,4401.153809,4305.384766,4286.666504,4474.615234,4508.205078,4359.487305,4412.563965,1541.000000,1.000000,23.000000,,,,0.000000,2.000000,2.000000,0.000000,4.000000,2.000000,2.000000,0.000000,0.000000,4.000000,4.000000,4.000000,4.000000,4.000000,4.000000,0.000000,1.000000,0.000000,2.000000,2.000000,0.000000,4.000000,2.000000,2.000000,0.000000,0.000000,4.000000,4.000000,4.000000,4.000000,4.000000,4.000000,,,,,,,,,,,,
1732157648.029974,1732157648.031250,15.000000,0.000000,4286.922852,4294.743652,4320.000000,4296.794922,4270.769043,4301.153809,4334.871582,4398.717773,4292.436035,4278.077148,4474.615234,4509.102539,4357.820313,4412.051270,1568.000000,1.000000,23.000000,,,,0.000000,2.000000,2.000000,0.000000,4.000000,2.000000,2.000000,0.000000,0.000000,4.000000,4.000000,4.000000,4.000000,4.000000,4.000000,0.000000,,,,,,,,,,,,,,,,,,,,,,,,,,,,
1732157648.037782,1732157648.039158,16.000000,0.000000,4283.077148,4293.077148,4318.205078,4295.256348,4285.128418,4305.769043,4337.820313,4400.384766,4289.230957,4274.615234,4472.692383,4505.128418,4357.563965,4410.769043,0.000000,1.000000,23.000000,,,,0.000000,2.000000,2.000000,0.000000,4.000000,2.000000,2.000000,0.000000,0.000000,4.000000,4.000000,4.000000,4.000000,4.000000,4.000000,0.000000,,,,,,,,,,,,,,,,,4.000000,0.000000,0.515174,0.474915,-0.552368,0.451599,0.978635,-0.011720,-0.060066,-35.259663,44.622353,31.507729
1732157648.045590,1732157648.046966,17.000000,0.000000,4281.282227,4293.205078,4315.897461,4297.563965,4282.563965,4305.512695,4338.461426,4400.512695,4298.589844,4279.487305,4467.692383,4496.025879,4354.358887,4401.538574,0.000000,1.000000,23.000000,,,,0.000000,2.000000,2.000000,0.000000,4.000000,2.000000,2.000000,0.000000,0.000000,4.000000,4.000000,4.000000,4.000000,4.000000,4.000000,0.000000,,,,,,,,,,,,,,,,,,,,,,,,,,,,
1732157648.053398,1732157648.054974,18.000000,0.000000,4280.897461,4294.615234,4316.794922,4298.077148,4278.077148,4299.358887,4334.230957,4397.179688,4295.769043,4279.871582,4464.615234,4492.051270,4349.102539,4394.487305,0.000000,1.000000,23.000000,,,,0.000000,2.000000,2.000000,0.000000,4.000000,2.000000,2.000000,0.000000,0.000000,4.000000,4.000000,4.000000,4.000000,4.000000,4.000000,0.000000,,,,,,,,,,,,,,,,,,,,,,,,,,,,
1732157648.061207,1732157648.062782,19.000000,0.000000,4281.025879,4295.384766,4316.282227,4298.461426,4284.743652,4301.538574,4333.974121,4398.717773,4288.717773,4278.333496,4464.743652,4494.358887,4355.128418,4398.974121,0.000000,1.000000,23.000000,,,,0.000000,2.000000,2.000000,0.000000,4.000000,2.000000,2.000000,0.000000,0.000000,4.000000,4.000000,4.000000,4.000000,4.000000,4.000000,0.000000,,,,,,,,,,,,,,,,,,,,,,,,,,,,
1732157648.069015,1732157648.070690,20.000000,0.000000,4282.179688,4290.000000,4317.051270,4297.692383,4296.153809,4302.692383,4336.794922,4399.615234,4291.538574,4278.589844,4465.769043,4491.666504,4361.025879,4399.743652,0.000000,1.000000,23.000000,,,,0.000000,2.000000,2.000000,0.000000,4.000000,2.000000,2.000000,0.000000,0.000000,4.000000,4.000000,4.000000,4.000000,4.000000,4.000000,0.000000,,,,,,,,,,,,,,,,,5.000000,0.000000,0.515199,0.474731,-0.552551,0.451538,0.969845,-0.019534,-0.055671,-35.251995,44.652439,31.466261
1732157648.076823,1732157648.078498,21.000000,0.000000,4282.563965,4288.717773,4318.461426,4298.333496,4291.922852,4301.153809,4336.025879,4397.307617,4291.410156,4276.666504,4464.871582,4491.153809,4357.307617,4396.282227,0.000000,1.000000,23.000000,,,,0.000000,2.000000,2.000000,0.000000,4.000000,2.000000,2.000000,0.000000,0.000000,4.000000,4.000000,4.000000,4.000000,4.000000,4.000000,0.000000,,,,,,,,,,,,,,,,,,,,,,,,,,,,
1732157648.084632,1732157648.086506,22.000000,0.000000,4282.051270,4294.743652,4319.230957,4302.948730,4273.205078,4303.846191,4334.871582,4401.153809,4300.641113,4283.717773,4468.333496,4499.102539,4357.307617,4404.743652,0.000000,1.000000,23.000000,,,,0.000000,2.000000,2.000000,0.000000,4.000000,2.000000,2.000000,0.000000,0.000000,4.000000,4.000000,4.000000,4.000000,4.000000,4.000000,0.000000,,,,,,,,,,,,,,,,,,,,,,,,,,,,
1732157648.092440,1732157648.094315,23.000000,0.000000,4286.410156,4295.769043,4320.512695,4302.307617,4272.436035,4306.666504,4338.077148,4404.358887,4312.948730,4293.846191,4474.230957,4503.333496,4360.897461,4408.974121,0.000000,1.000000,23.000000,,,,0.000000,2.000000,2.000000,0.000000,4.000000,2.000000,2.000000,0.000000,0.000000,4.000000,4.000000,4.000000,4.000000,4.000000,4.000000,0.000000,,,,,,,,,,,,,,,,,,,,,,,,,,,,
1732157648.100248,1732157648.102223,24.000000,0.000000,4288.974121,4292.179688,4319.358887,4298.974121,4283.974121,4304.102539,4338.974121,4399.615234,4308.333496,4289.230957,4470.000000,4501.666504,4356.666504,4400.256348,0.000000,1.000000,23.000000,,,,0.000000,2.000000,2.000000,0.000000,4.000000,2.000000,2.000000,0.000000,0.000000,4.000000,4.000000,4.000000,4.000000,4.000000,4.000000,0.000000,,,,,,,,,,,,,,,,,6.000000,0.000000,0.514851,0.474548,-0.552734,0.451904,0.985960,-0.021975,-0.044927,-35.262447,44.811810,31.409338
1732157648.108056,1732157648.110031,25.000000,0.000000,4284.487305,4290.641113,4317.051270,4300.769043,4282.820313,4302.179688,4335.512695,4397.179688,4297.051270,4279.743652,4460.000000,4498.077148,4350.384766,4396.153809,0.000000,1.000000,23.000000,,,,0.000000,2.000000,2.000000,0.000000,4.000000,2.000000,2.000000,0.000000,0.000000,4.000000,4.000000,4.000000,4.000000,4.000000,4.000000,0.000000,,,,,,,,,,,,,,,,,,,,,,,,,,,,
1732157648.115864,1732157648.117639,26.000000,0.000000,4281.666504,4292.692383,4318.205078,4305.000000,4276.025879,4306.282227,4334.230957,4399.102539,4289.743652,4276.538574,4458.077148,4498.717773,4349.102539,4400.769043,0.000000,1.000000,23.000000,,,,0.000000,2.000000,2.000000,0.000000,4.000000,2.000000,2.000000,0.000000,0.000000,4.000000,4.000000,4.000000,4.000000,4.000000,4.000000,0.000000,,,,,,,,,,,,,,,,,,,,,,,,,,,,
1732157648.123673,1732157648.125448,27.000000,0.000000,4282.307617,4293.205078,4317.820313,4305.897461,4283.205078,4311.153809,4335.897461,4400.512695,4288.461426,4275.384766,4462.179688,4501.410156,4350.000000,4402.820313,0.000000,1.000000,23.000000,,,,0.000000,2.000000,2.000000,0.000000,4.000000,2.000000,2.000000,0.000000,0.000000,4.000000,4.000000,4.000000,4.000000,4.000000,4.000000,0.000000,,,,,,,,,,,,,,,,,,,,,,,,,,,,
1732157648.131481,1732157648.133156,28.000000,0.000000,4280.641113,4286.794922,4315.769043,4298.974121,4300.256348,4308.974121,4336.282227,4400.769043,4286.794922,4274.743652,4461.153809,4495.256348,4351.538574,4400.000000,0.000000,1.000000,23.000000,,,,0.000000,2.000000,2.000000,0.000000,4.000000,2.000000,2.000000,0.000000,0.000000,4.000000,4.000000,4.000000,4.000000,4.000000,4.000000,0.000000,,,,,,,,,,,,,,,,,7.000000,0.000000,0.514847,0.473938,-0.553162,0.452026,0.984495,-0.019045,-0.063484,-35.164249,44.844231,31.379896
1732157648.139289,1732157648.140964,29.000000,0.000000,4279.102539,4282.436035,4316.794922,4294.487305,4299.102539,4304.487305,4335.256348,4398.333496,4282.436035,4276.794922,4459.487305,4487.820313,4350.769043,4398.333496,0.000000,1.000000,23.000000,,,,0.000000,2.000000,2.000000,0.000000,4.000000,2.000000,2.000000,0.000000,0.000000,4.000000,4.000000,4.000000,4.000000,4.000000,4.000000,0.000000,,,,,,,,,,,,,,,,,,,,,,,,,,,,
1732157648.147097,1732157648.148972,30.000000,0.000000,4281.025879,4285.769043,4318.205078,4301.025879,4279.102539,4308.846191,4335.000000,4398.205078,4285.769043,4276.153809,4460.384766,4491.410156,4350.000000,4398.205078,0.000000,1.000000,23.000000,,,,0.000000,2.000000,2.000000,0.000000,4.000000,2.000000,2.000000,0.000000,0.000000,4.000000,4.000000,4.000000,4.000000,4.000000,4.000000,0.000000,,,,,,,,,,,,,,,,,,,,,,,,,,,,
1732157648.154906,1732157648.156780,31.000000,0.000000,4281.922852,4286.153809,4319.102539,4303.333496,4269.743652,4313.846191,4334.871582,4402.820313,4300.512695,4279.871582,4461.410156,4498.077148,4351.410156,4398.205078,0.000000,1.000000,23.000000,,,,0.000000,2.000000,2.000000,0.000000,4.000000,2.000000,2.000000,0.000000,0.000000,4.000000,4.000000,4.000000,4.000000,4.000000,4.000000,0.000000,,,,,,,,,,,,,,,,,,,,,,,,,,,,
1732157648.162714,1732157648.164489,32.000000,0.000000,4282.436035,4281.282227,4318.589844,4297.692383,4283.717773,4311.282227,4335.000000,4401.666504,4304.871582,4287.051270,4462.179688,4495.641113,4352.692383,4396.922852,0.000000,1.000000,23.000000,,,,0.000000,2.000000,2.000000,0.000000,4.000000,2.000000,2.000000,0.000000,0.000000,4.000000,4.000000,4.000000,4.000000,4.000000,4.000000,0.000000,,,,,,,,,,,,,,,,,8.000000,0.000000,0.514809,0.473694,-0.553406,0.452026,0.984495,-0.019045,-0.063484,-35.446377,44.858826,31.409384
1732157648.170522,1732157648.172297,33.000000,0.000000,4283.333496,4280.769043,4316.538574,4295.000000,4296.538574,4308.077148,4334.871582,4396.153809,4295.641113,4286.666504,4462.820313,4491.794922,4351.153809,4397.179688,0.000000,1.000000,23.000000,,,,0.000000,2.000000,2.000000,0.000000,4.000000,2.000000,2.000000,0.000000,0.000000,4.000000,4.000000,4.000000,4.000000,4.000000,4.000000,0.000000,,,,,,,,,,,,,,,,,,,,,,,,,,,,
1732157648.178331,1732157648.179905,34.000000,0.000000,4284.230957,4282.692383,4315.641113,4297.051270,4279.743652,4308.205078,4334.871582,4395.769043,4294.230957,4284.487305,4462.179688,4492.436035,4350.769043,4399.615234,0.000000,1.000000,23.000000,,,,0.000000,2.000000,2.000000,0.000000,4.000000,2.000000,2.000000,0.000000,0.000000,4.000000,4.000000,4.000000,4.000000,4.000000,4.000000,0.000000,,,,,,,,,,,,,,,,,,,,,,,,,,,,
1732157648.186139,1732157648.187713,35.000000,0.000000,4282.692383,4281.666504,4317.820313,4295.384766,4258.846191,4310.897461,4335.000000,4399.871582,4295.384766,4284.230957,4462.051270,4498.717773,4351.538574,4400.256348,0.000000,1.000000,23.000000,,,,0.000000,2.000000,2.000000,0.000000,4.000000,2.000000,2.000000,0.000000,0.000000,4.000000,4.000000,4.000000,4.000000,4.000000,4.000000,0.000000,,,,,,,,,,,,,,,,,,,,,,,,,,,,
1732157648.193947,1732157648.195422,36.000000,0.000000,4282.307617,4280.512695,4318.589844,4293.461426,4275.384766,4312.563965,4334.743652,4401.410156,4294.102539,4283.846191,4466.153809,4502.179688,4350.641113,4401.794922,0.000000,1.000000,23.000000,,,,0.000000,2.000000,2.000000,0.000000,4.000000,2.000000,2.000000,0.000000,0.000000,4.000000,4.000000,4.000000,4.000000,4.000000,4.000000,0.000000,,,,,,,,,,,,,,,,,9.000000,0.000000,0.514587,0.473267,-0.554077,0.451904,0.977658,-0.018557,-0.051764,-35.441563,45.028984,31.433268
1732157648.201755,1732157648.203230,37.000000,0.000000,4287.179688,4282.179688,4316.282227,4295.000000,4289.871582,4310.128418,4335.128418,4399.487305,4295.769043,4287.820313,4468.589844,4496.025879,4351.538574,4405.128418,0.000000,1.000000,23.000000,,,,0.000000,2.000000,2.000000,0.000000,4.000000,2.000000,2.000000,0.000000,0.000000,4.000000,4.000000,4.000000,4.000000,4.000000,4.000000,0.000000,,,,,,,,,,,,,,,,,,,,,,,,,,,,
1732157648.209563,1732157648.210838,38.000000,0.000000,4288.333496,4283.974121,4313.461426,4297.692383,4267.563965,4308.846191,4335.000000,4397.436035,4297.563965,4288.205078,4463.846191,4491.538574,4349.487305,4405.641113,0.000000,1.000000,23.000000,,,,0.000000,2.000000,2.000000,0.000000,4.000000,2.000000,2.000000,0.000000,0.000000,4.000000,4.000000,4.000000,4.000000,4.000000,4.000000,0.000000,,,,,,,,,,,,,,,,,,,,,,,,,,,,
1732157648.217372,1732157648.218647,39.000000,0.000000,4282.436035,4284.230957,4317.179688,4298.205078,4263.205078,4311.538574,4334.230957,4398.205078,4294.615234,4280.512695,4460.256348,4491.538574,4342.948730,4399.487305,0.000000,1.000000,23.000000,,,,0.000000,2.000000,2.000000,0.000000,4.000000,2.000000,2.000000,0.000000,0.000000,4.000000,4.000000,4.000000,4.000000,4.000000,4.000000,0.000000,,,,,,,,,,,,,,,,,,,,,,,,,,,,
1732157648.225180,1732157648.226355,40.000000,0.000000,4280.384766,4285.769043,4321.538574,4295.384766,4278.717773,4312.051270,4334.487305,4398.974121,4297.563965,4280.384766,4461.282227,4489.102539,4344.487305,4397.436035,0.000000,1.000000,23.000000,,,,0.000000,2.000000,2.000000,0.000000,4.000000,2.000000,2.000000,0.000000,0.000000,4.000000,4.000000,4.000000,4.000000,4.000000,4.000000,0.000000,,,,,,,,,,,,,,,,,10.000000,0.000000,0.514577,0.473206,-0.554138,0.451904,0.982542,-0.014650,-0.049811,-35.254333,45.066811,31.352613
1732157648.232988,1732157648.234163,41.000000,0.000000,4282.307617,4285.769043,4316.410156,4293.717773,4283.333496,4308.589844,4335.512695,4399.230957,4308.333496,4288.461426,4461.025879,4490.769043,4350.256348,4402.179688,0.000000,1.000000,23.000000,,,,0.000000,2.000000,2.000000,0.000000,4.000000,2.000000,2.000000,0.000000,0.000000,4.000000,4.000000,4.000000,4.000000,4.000000,4.000000,0.000000,,,,,,,,,,,,,,,,,,,,,,,,,,,,
1732157648.240796,1732157648.241772,42.000000,0.000000,4282.436035,4283.846191,4311.794922,4294.615234,4294.102539,4303.461426,4336.025879,4401.025879,4306.538574,4287.692383,4465.128418,4499.358887,4349.487305,4403.589844,0.000000,1.000000,23.000000,,,,0.000000,2.000000,2.000000,0.000000,4.000000,2.000000,2.000000,0.000000,0.000000,4.000000,4.000000,4.000000,4.000000,4.000000,4.000000,0.000000,,,,,,,,,,,,,,,,,,,,,,,,,,,,
1732157648.248605,1732157648.249580,43.000000,0.000000,4282.948730,4288.717773,4316.153809,4298.461426,4289.102539,4301.666504,4335.769043,4401.153809,4296.666504,4286.410156,4474.615234,4505.641113,4350.000000,4406.410156,0.000000,1.000000,23.000000,,,,0.000000,2.000000,2.000000,0.000000,4.000000,2.000000,2.000000,0.000000,0.000000,4.000000,4.000000,4.000000,4.000000,4.000000,4.000000,0.000000,,,,,,,,,,,,,,,,,,,,,,,,,,,,
1732157648.256413,1732157648.257288,44.000000,0.000000,4283.077148,4295.384766,4320.000000,4303.846191,4265.256348,4306.282227,4335.256348,4400.128418,4296.538574,4288.205078,4472.692383,4507.948730,4350.897461,4407.436035,0.000000,1.000000,23.000000,,,,0.000000,2.000000,2.000000,0.000000,4.000000,2.000000,2.000000,0.000000,0.000000,4.000000,4.000000,4.000000,4.000000,4.000000,4.000000,0.000000,,,,,,,,,,,,,,,,,11.000000,0.000000,0.514426,0.473267,-0.554077,0.452087,0.976193,-0.006837,-0.059089,-35.301010,44.990784,31.190617
1732157648.264221,1732157648.265096,45.000000,0.000000,4281.025879,4292.563965,4318.461426,4302.051270,4267.179688,4307.692383,4334.743652,4399.230957,4298.077148,4284.102539,4461.025879,4505.128418,4343.589844,4399.358887,0.000000,1.000000,23.000000,,,,0.000000,2.000000,2.000000,0.000000,4.000000,2.000000,2.000000,0.000000,0.000000,4.000000,4.000000,4.000000,4.000000,4.000000,4.000000,0.000000,,,,,,,,,,,,,,,,,,,,,,,,,,,,
1732157648.272030,1732157648.272705,46.000000,0.000000,4287.563965,4289.487305,4317.436035,4300.897461,4285.512695,4304.615234,4334.615234,4398.333496,4297.948730,4280.384766,4462.820313,4502.820313,4342.563965,4397.307617,0.000000,1.000000,23.000000,,,,0.000000,2.000000,2.000000,0.000000,4.000000,2.000000,2.000000,0.000000,0.000000,4.000000,4.000000,4.000000,4.000000,4.000000,4.000000,0.000000,,,,,,,,,,,,,,,,,,,,,,,,,,,,
1732157648.279838,1732157648.280513,47.000000,0.000000,4292.179688,4295.128418,4316.922852,4306.282227,4281.153809,4305.000000,4335.128418,4399.102539,4302.051270,4282.563965,4475.512695,4506.153809,4349.871582,4407.563965,0.000000,1.000000,23.000000,,,,0.000000,2.000000,2.000000,0.000000,4.000000,2.000000,2.000000,0.000000,0.000000,4.000000,4.000000,4.000000,4.000000,4.000000,4.000000,0.000000,,,,,,,,,,,,,,,,,,,,,,,,,,,,
1732157648.287646,1732157648.288421,48.000000,0.000000,4284.743652,4296.538574,4315.641113,4305.384766,4275.769043,4304.871582,4336.410156,4399.230957,4300.897461,4282.563965,4473.717773,4508.974121,4348.846191,4407.820313,0.000000,1.000000,23.000000,,,,0.000000,2.000000,2.000000,0.000000,4.000000,2.000000,2.000000,0.000000,0.000000,4.000000,4.000000,4.000000,4.000000,4.000000,4.000000,0.000000,,,,,,,,,,,,,,,,,12.000000,0.000000,0.514029,0.473022,-0.554504,0.452271,0.981565,-0.023929,-0.057624,-35.307152,44.960869,31.502733
1732157648.295454,1732157648.296229,49.000000,0.000000,4280.641113,4291.025879,4317.179688,4293.846191,4292.051270,4297.692383,4336.794922,4399.615234,4293.461426,4280.000000,4460.769043,4504.358887,4340.769043,4398.205078,0.000000,1.000000,23.000000,,,,0.000000,2.000000,2.000000,0.000000,4.000000,2.000000,2.000000,0.000000,0.000000,4.000000,4.000000,4.000000,4.000000,4.000000,4.000000,0.000000,,,,,,,,,,,,,,,,,,,,,,,,,,,,
1732157648.303262,1732157648.304237,50.000000,0.000000,4288.077148,4289.615234,4320.384766,4295.000000,4295.769043,4294.871582,4335.512695,4400.256348,4291.922852,4278.077148,4458.717773,4501.025879,4338.589844,4398.589844,0.000000,1.000000,23.000000,,,,0.000000,2.000000,2.000000,0.000000,4.000000,2.000000,2.000000,0.000000,0.000000,4.000000,4.000000,4.000000,4.000000,4.000000,4.000000,0.000000,,,,,,,,,,,,,,,,,,,,,,,,,,,,
1732157648.311071,1732157648.312045,51.000000,0.000000,4291.538574,4294.743652,4320.769043,4308.077148,4277.563965,4301.410156,4335.641113,4400.897461,4294.615234,4278.461426,4468.205078,4506.025879,4344.230957,4405.256348,0.000000,1.000000,23.000000,,,,0.000000,2.000000,2.000000,0.000000,4.000000,2.000000,2.000000,0.000000,0.000000,4.000000,4.000000,4.000000,4.000000,4.000000,4.000000,0.000000,,,,,,,,,,,,,,,,,,,,,,,,,,,,
1732157648.318879,1732157648.319953,52.000000,0.000000,4288.461426,4296.153809,4318.846191,4306.538574,4265.384766,4303.461426,4336.538574,4401.538574,4298.077148,4284.743652,4473.846191,4509.871582,4346.153809,4407.307617,0.000000,1.000000,23.000000,,,,0.000000,2.000000,2.000000,0.000000,4.000000,2.000000,2.000000,0.000000,0.000000,4.000000,4.000000,4.000000,4.000000,4.000000,4.000000,0.000000,,,,,,,,,,,,,,,,,13.000000,0.000000,0.513472,0.472717,-0.554932,0.452698,0.980588,-0.022952,-0.061043,-35.312126,44.994968,31.480547
1732157648.326687,1732157648.327762,53.000000,0.000000,4288.717773,4293.846191,4318.846191,4297.948730,4275.641113,4296.922852,4335.769043,4400.128418,4298.205078,4288.205078,4472.307617,4507.051270,4341.922852,4401.794922,0.000000,1.000000,23.000000,,,,0.000000,2.000000,2.000000,0.000000,4.000000,2.000000,2.000000,0.000000,0.000000,4.000000,4.000000,4.000000,4.000000,4.000000,4.000000,0.000000,,,,,,,,,,,,,,,,,,,,,,,,,,,,
1732157648.334495,1732157648.335770,54.000000,0.000000,4291.282227,4294.487305,4317.820313,4300.512695,4293.205078,4295.384766,4334.487305,4398.077148,4298.974121,4284.743652,4470.897461,4504.487305,4340.641113,4400.256348,0.000000,1.000000,23.000000,,,,0.000000,2.000000,2.000000,0.000000,4.000000,2.000000,2.000000,0.000000,0.000000,4.000000,4.000000,4.000000,4.000000,4.000000,4.000000,0.000000,,,,,,,,,,,,,,,,,,,,,,,,,,,,
1732157648.342304,1732157648.343578,55.000000,0.000000,4293.717773,4296.538574,4316.922852,4308.589844,4289.615234,4304.230957,4334.615234,4397.307617,4303.333496,4282.563965,4473.205078,4505.897461,4343.205078,4407.563965,0.000000,1.000000,23.000000,,,,0.000000,2.000000,2.000000,0.000000,4.000000,2.000000,2.000000,0.000000,0.000000,4.000000,4.000000,4.000000,4.000000,4.000000,4.000000,0.000000,,,,,,,,,,,,,,,,,,,,,,,,,,,,
1732157648.350112,1732157648.351486,56.000000,0.000000,4296.410156,4295.641113,4321.922852,4307.820313,4271.410156,4305.512695,4335.512695,4399.871582,4308.717773,4290.512695,4474.743652,4508.717773,4343.717773,4412.436035,0.000000,1.000000,23.000000,,,,0.000000,2.000000,2.000000,0.000000,4.000000,2.000000,2.000000,0.000000,0.000000,4.000000,4.000000,4.000000,4.000000,4.000000,4.000000,0.000000,,,,,,,,,,,,,,,,,14.000000,0.000000,0.513350,0.472290,-0.555359,0.452759,0.982053,-0.023440,-0.062996,-35.266155,44.939259,31.462576
1732157648.357920,1732157648.359294,57.000000,0.000000,4294.743652,4292.436035,4321.922852,4303.333496,4262.307617,4296.794922,4336.410156,4401.922852,4312.563965,4297.436035,4474.358887,4509.871582,4345.641113,4411.666504,0.000000,1.000000,23.000000,,,,0.000000,2.000000,2.000000,0.000000,4.000000,2.000000,2.000000,0.000000,0.000000,4.000000,4.000000,4.000000,4.000000,4.000000,4.000000,0.000000,,,,,,,,,,,,,,,,,,,,,,,,,,,,
1732157648.365729,1732157648.367302,58.000000,0.000000,4291.794922,4291.282227,4316.538574,4303.333496,4277.820313,4298.974121,4336.922852,4398.846191,4304.102539,4288.333496,4473.974121,4515.000000,4346.922852,4411.153809,0.000000,1.000000,23.000000,,,,0.000000,2.000000,2.000000,0.000000,4.000000,2.000000,2.000000,0.000000,0.000000,4.000000,4.000000,4.000000,4.000000,4.000000,4.000000,0.000000,,,,,,,,,,,,,,,,,,,,,,,,,,,,
1732157648.373537,1732157648.375110,59.000000,0.000000,4291.666504,4292.307617,4315.641113,4304.358887,4296.025879,4305.128418,4336.666504,4396.538574,4297.820313,4282.692383,4472.948730,4516.153809,4342.179688,4413.077148,0.000000,1.000000,23.000000,,,,0.000000,2.000000,2.000000,0.000000,4.000000,2.000000,2.000000,0.000000,0.000000,4.000000,4.000000,4.000000,4.000000,4.000000,4.000000,0.000000,,,,,,,,,,,,,,,,,,,,,,,,,,,,
1732157648.381345,1732157648.383019,60.000000,0.000000,4293.461426,4292.692383,4316.922852,4303.205078,4284.871582,4303.077148,4336.538574,4399.615234,4306.153809,4292.051270,4473.205078,4514.487305,4341.922852,4413.974121,0.000000,1.000000,23.000000,,,,0.000000,2.000000,2.000000,0.000000,4.000000,2.000000,2.000000,0.000000,0.000000,4.000000,4.000000,4.000000,4.000000,4.000000,4.000000,0.000000,,,,,,,,,,,,,,,,,15.000000,0.000000,0.513308,0.472290,-0.555298,0.452881,0.981077,-0.020510,-0.054206,-35.203918,45.089134,31.534687
1732157648.389153,1732157648.390827,61.000000,0.000000,4290.512695,4290.128418,4317.307617,4299.487305,4264.743652,4302.307617,4336.922852,4401.922852,4305.641113,4295.000000,4474.615234,4514.487305,4344.743652,4414.358887,0.000000,1.000000,23.000000,,,,0.000000,2.000000,2.000000,0.000000,4.000000,2.000000,2.000000,0.000000,0.000000,4.000000,4.000000,4.000000,4.000000,4.000000,4.000000,0.000000,,,,,,,,,,,,,,,,,,,,,,,,,,,,
1732157648.396961,1732157648.398835,62.000000,0.000000,4286.410156,4287.692383,4316.282227,4298.077148,4269.230957,4303.846191,4336.538574,4398.717773,4299.358887,4290.128418,4476.282227,4517.692383,4341.538574,4413.846191,0.000000,1.000000,23.000000,,,,0.000000,2.000000,2.000000,0.000000,4.000000,2.000000,2.000000,0.000000,0.000000,4.000000,4.000000,4.000000,4.000000,4.000000,4.000000,0.000000,,,,,,,,,,,,,,,,,,,,,,,,,,,,
1732157648.404770,1732157648.406643,63.000000,0.000000,4289.615234,4287.820313,4315.512695,4297.948730,4283.974121,4298.461426,4335.256348,4397.692383,4304.871582,4294.487305,4477.436035,4520.256348,4341.410156,4413.846191,0.000000,1.000000,23.000000,,,,0.000000,2.000000,2.000000,0.000000,4.000000,2.000000,2.000000,0.000000,0.000000,4.000000,4.000000,4.000000,4.000000,4.000000,4.000000,0.000000,,,,,,,,,,,,,,,,,,,,,,,,,,,,
1732157648.412578,1732157648.414551,64.000000,0.000000,4295.512695,4286.153809,4316.666504,4299.102539,4276.410156,4295.128418,4334.615234,4399.102539,4302.563965,4297.692383,4477.307617,4516.922852,4346.025879,4414.487305,0.000000,1.000000,23.000000,,,,0.000000,2.000000,2.000000,0.000000,4.000000,2.000000,2.000000,0.000000,0.000000,4.000000,4.000000,4.000000,4.000000,4.000000,4.000000,0.000000,,,,,,,,,,,,,,,,,16.000000,0.000000,0.512911,0.471985,-0.555725,0.453125,0.978147,-0.033696,-0.073251,-35.316841,45.125530,31.583096
1732157648.420386,1732157648.422359,65.000000,0.000000,4294.487305,4282.563965,4318.717773,4297.179688,4277.307617,4296.794922,4335.256348,4397.948730,4290.384766,4290.641113,4475.769043,4507.692383,4343.974121,4413.205078,1589.000000,1.000000,23.000000,,,,0.000000,2.000000,2.000000,0.000000,4.000000,2.000000,2.000000,0.000000,0.000000,4.000000,4.000000,4.000000,4.000000,4.000000,4.000000,0.000000,,,,,,,,,,,,,,,,,,,,,,,,,,,,
1732157648.428194,1732157648.430367,66.000000,0.000000,4291.666504,4280.128418,4317.948730,4292.820313,4290.641113,4296.025879,4334.102539,4399.615234,4302.179688,4293.333496,4475.769043,4507.307617,4342.179688,4412.179688,1366.000000,1.000000,23.000000,,,,0.000000,2.000000,2.000000,0.000000,4.000000,2.000000,2.000000,0.000000,0.000000,4.000000,4.000000,4.000000,4.000000,4.000000,4.000000,0.000000,,,,,,,,,,,,,,,,,,,,,,,,,,,,
1732157648.436003,1732157648.438175,67.000000,0.000000,4295.256348,4281.410156,4317.436035,4294.230957,4271.794922,4296.538574,4333.717773,4402.563965,4316.282227,4301.282227,4477.051270,4520.512695,4349.743652,4414.102539,1414.000000,1.000000,23.000000,,,,0.000000,2.000000,2.000000,0.000000,4.000000,2.000000,2.000000,0.000000,0.000000,4.000000,4.000000,4.000000,4.000000,4.000000,4.000000,0.000000,,,,,,,,,,,,,,,,,,,,,,,,,,,,
1732157648.443811,1732157648.446084,68.000000,0.000000,4300.000000,4282.948730,4318.205078,4297.692383,4261.153809,4298.974121,4334.487305,4402.179688,4304.743652,4298.589844,4478.333496,4521.410156,4352.692383,4416.538574,1421.000000,1.000000,23.000000,,,,0.000000,2.000000,2.000000,0.000000,4.000000,2.000000,2.000000,0.000000,0.000000,4.000000,4.000000,4.000000,4.000000,4.000000,4.000000,0.000000,,,,,,,,,,,,,,,,,17.000000,0.000000,0.512881,0.471802,-0.555908,0.453125,0.976193,-0.021975,-0.067879,-35.288307,45.176682,31.588974
1732157648.451619,1732157648.453892,69.000000,0.000000,4293.717773,4283.717773,4318.333496,4298.846191,4287.692383,4300.897461,4335.000000,4401.025879,4291.410156,4290.512695,4476.666504,4507.307617,4343.974121,4411.153809,1212.000000,1.000000,23.000000,,,,0.000000,2.000000,2.000000,0.000000,4.000000,2.000000,2.000000,0.000000,0.000000,4.000000,4.000000,4.000000,4.000000,4.000000,4.000000,0.000000,,,,,,,,,,,,,,,,,,,,,,,,,,,,
