title:3four, start timestamp:1732157707.700424, stop timestamp:1732157767.449124, headset type:EPOCX, headset serial:E5020C3A, headset firmware:730, channels:67, sampling rate:eeg_128;mot_32, samples:7653      , version:2.2, 
Timestamp,OriginalTimestamp,EEG.Counter,EEG.Interpolated,EEG.AF3,EEG.F7,EEG.F3,EEG.FC5,EEG.T7,EEG.P7,EEG.O1,EEG.O2,EEG.P8,EEG.T8,EEG.FC6,EEG.F4,EEG.F8,EEG.AF4,EEG.RawCq,EEG.Battery,EEG.BatteryPercent,MarkerIndex,MarkerType,MarkerValueInt,EEG.MarkerHardware,CQ.AF3,CQ.F7,CQ.F3,CQ.FC5,CQ.T7,CQ.P7,CQ.O1,CQ.O2,CQ.P8,CQ.T8,CQ.FC6,CQ.F4,CQ.F8,CQ.AF4,CQ.Overall,EQ.SampleRateQuality,EQ.OVERALL,EQ.AF3,EQ.F7,EQ.F3,EQ.FC5,EQ.T7,EQ.P7,EQ.O1,EQ.O2,EQ.P8,EQ.T8,EQ.FC6,EQ.F4,EQ.F8,EQ.AF4,MOT.CounterMems,MOT.InterpolatedMems,MOT.Q0,MOT.Q1,MOT.Q2,MOT.Q3,MOT.AccX,MOT.AccY,MOT.AccZ,MOT.MagX,MOT.MagY,MOT.MagZ
1732157707.700424,1732157707.703277,105.000000,0.000000,4280.769043,4279.487305,4313.974121,4304.487305,4272.307617,4289.102539,4335.000000,4401.410156,4312.820313,4296.922852,4489.615234,4516.282227,4355.384766,4409.102539,1616.000000,1.000000,23.000000,,,,0.000000,2.000000,2.000000,0.000000,4.000000,2.000000,2.000000,0.000000,0.000000,4.000000,4.000000,4.000000,4.000000,4.000000,4.000000,0.000000,,,,,,,,,,,,,,,,,,,,,,,,,,,,
1732157707.708232,1732157707.711285,106.000000,0.000000,4280.000000,4278.717773,4315.769043,4304.102539,4283.589844,4284.615234,4335.000000,4400.512695,4306.922852,4297.692383,4486.538574,4513.205078,4350.384766,4407.051270,1543.000000,1.000000,23.000000,,,,0.000000,2.000000,2.000000,0.000000,4.000000,2.000000,2.000000,0.000000,0.000000,4.000000,4.000000,4.000000,4.000000,4.000000,4.000000,0.000000,,,,,,,,,,,,,,,,,,,,,,,,,,,,
1732157707.716040,1732157707.719093,107.000000,0.000000,4281.153809,4280.512695,4315.000000,4308.077148,4284.487305,4280.641113,4335.384766,4400.000000,4301.666504,4298.205078,4486.282227,4513.589844,4351.282227,4412.692383,1574.000000,1.000000,23.000000,,,,0.000000,2.000000,2.000000,0.000000,4.000000,2.000000,2.000000,0.000000,0.000000,4.000000,4.000000,4.000000,4.000000,4.000000,4.000000,0.000000,,,,,,,,,,,,,,,,,,,,,,,,,,,,
1732157707.723849,1732157707.727001,108.000000,0.000000,4280.000000,4278.846191,4313.846191,4304.487305,4280.256348,4281.794922,4335.256348,4401.282227,4305.512695,4296.025879,4490.641113,4517.179688,4353.974121,4414.487305,1701.000000,1.000000,23.000000,,,,0.000000,2.000000,2.000000,0.000000,4.000000,2.000000,2.000000,0.000000,0.000000,4.000000,4.000000,4.000000,4.000000,4.000000,4.000000,0.000000,,,,,,,,,,,,,,,,,27.000000,0.000000,0.508031,0.504944,-0.522339,0.462708,0.984984,0.033207,-0.062019,-34.655159,45.379368,31.049623
1732157707.731657,1732157707.734809,109.000000,0.000000,4278.974121,4276.922852,4313.974121,4299.487305,4280.641113,4282.563965,4333.589844,4400.512695,4308.846191,4298.461426,4487.436035,4520.384766,4349.871582,4407.563965,1616.000000,1.000000,23.000000,,,,0.000000,2.000000,2.000000,0.000000,4.000000,2.000000,2.000000,0.000000,0.000000,4.000000,4.000000,4.000000,4.000000,4.000000,4.000000,0.000000,,,,,,,,,,,,,,,,,,,,,,,,,,,,
1732157707.739465,1732157707.742817,110.000000,0.000000,4280.384766,4276.922852,4313.333496,4301.666504,4284.487305,4281.410156,4333.846191,4396.025879,4308.974121,4301.282227,4482.179688,4522.051270,4348.846191,4407.307617,1543.000000,1.000000,23.000000,,,,0.000000,2.000000,2.000000,0.000000,4.000000,2.000000,2.000000,0.000000,0.000000,4.000000,4.000000,4.000000,4.000000,4.000000,4.000000,0.000000,,,,,,,,,,,,,,,,,,,,,,,,,,,,
1732157707.747274,1732157707.750626,111.000000,0.000000,4281.025879,4277.948730,4315.256348,4299.487305,4283.461426,4280.384766,4335.641113,4396.282227,4309.743652,4300.000000,4486.666504,4523.077148,4353.974121,4412.692383,1574.000000,1.000000,23.000000,,,,0.000000,2.000000,2.000000,0.000000,4.000000,2.000000,2.000000,0.000000,0.000000,4.000000,4.000000,4.000000,4.000000,4.000000,4.000000,0.000000,,,,,,,,,,,,,,,,,,,,,,,,,,,,
1732157707.755082,1732157707.758434,112.000000,0.000000,4279.358887,4278.589844,4318.333496,4296.538574,4275.897461,4281.153809,4334.487305,4400.897461,4305.384766,4297.051270,4492.051270,4520.769043,4355.000000,4413.333496,1701.000000,1.000000,23.000000,,,,0.000000,2.000000,2.000000,0.000000,4.000000,2.000000,2.000000,0.000000,0.000000,4.000000,4.000000,4.000000,4.000000,4.000000,4.000000,0.000000,,,,,,,,,,,,,,,,,28.000000,0.000000,0.508082,0.504822,-0.522461,0.462646,0.981565,0.030277,-0.067879,-34.717342,45.345623,30.988527
1732157707.762890,1732157707.766242,113.000000,0.000000,4276.794922,4277.820313,4316.025879,4301.153809,4289.358887,4281.794922,4333.461426,4400.769043,4295.641113,4293.846191,4483.333496,4511.538574,4350.256348,4406.025879,1616.000000,1.000000,23.000000,,,,0.000000,2.000000,2.000000,0.000000,4.000000,2.000000,2.000000,0.000000,0.000000,4.000000,4.000000,4.000000,4.000000,4.000000,4.000000,0.000000,,,,,,,,,,,,,,,,,,,,,,,,,,,,
1732157707.770698,1732157707.773850,114.000000,0.000000,4278.333496,4277.436035,4310.000000,4304.102539,4306.410156,4282.692383,4335.897461,4401.153809,4296.922852,4293.333496,4475.769043,4505.641113,4349.615234,4401.794922,1543.000000,1.000000,23.000000,,,,0.000000,2.000000,2.000000,0.000000,4.000000,2.000000,2.000000,0.000000,0.000000,4.000000,4.000000,4.000000,4.000000,4.000000,4.000000,0.000000,,,,,,,,,,,,,,,,,,,,,,,,,,,,
1732157707.778507,1732157707.781659,115.000000,0.000000,4282.051270,4278.974121,4312.307617,4306.153809,4288.589844,4283.077148,4336.025879,4402.692383,4306.153809,4294.615234,4484.102539,4508.974121,4351.410156,4407.563965,1574.000000,1.000000,23.000000,,,,0.000000,2.000000,2.000000,0.000000,4.000000,2.000000,2.000000,0.000000,0.000000,4.000000,4.000000,4.000000,4.000000,4.000000,4.000000,0.000000,,,,,,,,,,,,,,,,,,,,,,,,,,,,
1732157707.786315,1732157707.789467,116.000000,0.000000,4282.563965,4279.358887,4319.102539,4311.922852,4268.974121,4281.794922,4334.487305,4401.666504,4307.948730,4298.846191,4493.077148,4514.743652,4352.692383,4413.077148,1701.000000,1.000000,23.000000,,,,0.000000,2.000000,2.000000,0.000000,4.000000,2.000000,2.000000,0.000000,0.000000,4.000000,4.000000,4.000000,4.000000,4.000000,4.000000,0.000000,,,,,,,,,,,,,,,,,29.000000,0.000000,0.508960,0.505554,-0.521545,0.461914,0.966427,0.060066,-0.058601,-34.739384,45.406620,31.275707
1732157707.794123,1732157707.797275,117.000000,0.000000,4281.922852,4278.846191,4318.589844,4311.025879,4278.077148,4280.384766,4336.153809,4403.077148,4304.487305,4300.897461,4491.666504,4520.000000,4357.948730,4413.717773,1616.000000,1.000000,23.000000,,,,0.000000,2.000000,2.000000,0.000000,4.000000,2.000000,2.000000,0.000000,0.000000,4.000000,4.000000,4.000000,4.000000,4.000000,4.000000,0.000000,,,,,,,,,,,,,,,,,,,,,,,,,,,,
1732157707.801931,1732157707.804884,118.000000,0.000000,4283.077148,4280.000000,4315.000000,4304.615234,4287.179688,4281.153809,4336.666504,4403.461426,4301.538574,4298.077148,4488.205078,4523.589844,4358.333496,4413.333496,1543.000000,1.000000,23.000000,,,,0.000000,2.000000,2.000000,0.000000,4.000000,2.000000,2.000000,0.000000,0.000000,4.000000,4.000000,4.000000,4.000000,4.000000,4.000000,0.000000,,,,,,,,,,,,,,,,,,,,,,,,,,,,
1732157707.809739,1732157707.812692,119.000000,0.000000,4281.922852,4279.743652,4315.384766,4303.077148,4281.282227,4283.077148,4335.256348,4399.230957,4298.461426,4296.153809,4489.358887,4521.025879,4350.128418,4412.436035,1574.000000,1.000000,23.000000,,,,0.000000,2.000000,2.000000,0.000000,4.000000,2.000000,2.000000,0.000000,0.000000,4.000000,4.000000,4.000000,4.000000,4.000000,4.000000,0.000000,,,,,,,,,,,,,,,,,,,,,,,,,,,,
1732157707.817548,1732157707.820400,120.000000,0.000000,4279.102539,4278.589844,4318.205078,4305.897461,4288.717773,4283.333496,4335.000000,4398.205078,4296.794922,4295.769043,4485.641113,4511.666504,4347.820313,4406.666504,1701.000000,1.000000,23.000000,,,,0.000000,2.000000,2.000000,0.000000,4.000000,2.000000,2.000000,0.000000,0.000000,4.000000,4.000000,4.000000,4.000000,4.000000,4.000000,0.000000,,,,,,,,,,,,,,,,,30.000000,0.000000,0.509311,0.506165,-0.520935,0.461548,0.963008,0.067391,-0.054694,-34.590565,45.422695,31.374990
1732157707.825356,1732157707.828208,121.000000,0.000000,4279.615234,4278.461426,4316.282227,4307.948730,4305.769043,4279.615234,4335.128418,4401.282227,4295.256348,4293.589844,4478.077148,4510.769043,4349.743652,4403.205078,1616.000000,1.000000,23.000000,,,,0.000000,2.000000,2.000000,0.000000,4.000000,2.000000,2.000000,0.000000,0.000000,4.000000,4.000000,4.000000,4.000000,4.000000,4.000000,0.000000,,,,,,,,,,,,,,,,,,,,,,,,,,,,
1732157707.833164,1732157707.835817,122.000000,0.000000,4280.384766,4281.282227,4315.000000,4310.256348,4299.102539,4280.641113,4335.641113,4401.025879,4294.615234,4291.282227,4479.615234,4518.461426,4348.974121,4409.487305,1543.000000,1.000000,23.000000,,,,0.000000,2.000000,2.000000,0.000000,4.000000,2.000000,2.000000,0.000000,0.000000,4.000000,4.000000,4.000000,4.000000,4.000000,4.000000,0.000000,,,,,,,,,,,,,,,,,,,,,,,,,,,,
1732157707.840973,1732157707.843625,123.000000,0.000000,4282.436035,4284.615234,4317.563965,4313.589844,4277.563965,4290.641113,4335.641113,4402.563965,4301.538574,4295.384766,4490.897461,4522.563965,4351.282227,4412.692383,1574.000000,1.000000,23.000000,,,,0.000000,2.000000,2.000000,0.000000,4.000000,2.000000,2.000000,0.000000,0.000000,4.000000,4.000000,4.000000,4.000000,4.000000,4.000000,0.000000,,,,,,,,,,,,,,,,,,,,,,,,,,,,
1732157707.848781,1732157707.851333,124.000000,0.000000,4285.128418,4282.563965,4316.538574,4313.461426,4276.282227,4292.820313,4334.743652,4405.769043,4307.051270,4298.974121,4489.743652,4523.846191,4350.897461,4407.179688,1701.000000,1.000000,23.000000,,,,0.000000,2.000000,2.000000,0.000000,4.000000,2.000000,2.000000,0.000000,0.000000,4.000000,4.000000,4.000000,4.000000,4.000000,4.000000,0.000000,,,,,,,,,,,,,,,,,31.000000,0.000000,0.509943,0.507629,-0.519592,0.460754,0.949823,0.063484,-0.048834,-34.570026,45.530716,31.322075
1732157707.856589,1732157707.859141,125.000000,0.000000,4283.974121,4278.974121,4312.563965,4311.153809,4285.384766,4281.922852,4335.641113,4403.974121,4298.846191,4292.820313,4476.282227,4520.000000,4344.487305,4401.666504,1616.000000,1.000000,23.000000,,,,0.000000,2.000000,2.000000,0.000000,4.000000,2.000000,2.000000,0.000000,0.000000,4.000000,4.000000,4.000000,4.000000,4.000000,4.000000,0.000000,,,,,,,,,,,,,,,,,,,,,,,,,,,,
1732157707.864397,1732157707.866750,126.000000,0.000000,4280.000000,4277.948730,4310.256348,4309.871582,4280.384766,4279.743652,4335.769043,4399.615234,4290.128418,4289.102539,4479.871582,4510.769043,4346.282227,4399.230957,1543.000000,1.000000,23.000000,,,,0.000000,2.000000,2.000000,0.000000,4.000000,2.000000,2.000000,0.000000,0.000000,4.000000,4.000000,4.000000,4.000000,4.000000,4.000000,0.000000,,,,,,,,,,,,,,,,,,,,,,,,,,,,
1732157707.872206,1732157707.874558,127.000000,0.000000,4277.692383,4276.922852,4307.820313,4308.717773,4282.051270,4290.769043,4335.128418,4398.461426,4294.230957,4294.487305,4488.846191,4512.051270,4354.230957,4398.205078,23.000000,1.000000,23.000000,,,,0.000000,2.000000,2.000000,0.000000,4.000000,2.000000,2.000000,0.000000,0.000000,4.000000,4.000000,4.000000,4.000000,4.000000,4.000000,0.000000,,,,,,,,,,,,,,,,,,,,,,,,,,,,
1732157707.880014,1732157707.882266,0.000000,0.000000,4277.307617,4274.871582,4306.666504,4307.307617,4287.692383,4290.641113,4335.000000,4401.153809,4297.179688,4290.769043,4485.512695,4521.922852,4349.102539,4398.077148,0.000000,1.000000,23.000000,,,,0.000000,2.000000,2.000000,0.000000,4.000000,2.000000,2.000000,0.000000,0.000000,4.000000,4.000000,4.000000,4.000000,4.000000,4.000000,0.000000,,,,,,,,,,,,,,,,,0.000000,0.000000,0.509757,0.509399,-0.517822,0.460999,0.956171,0.042486,-0.052252,-34.511719,45.651546,31.200880
1732157707.887822,1732157707.890075,1.000000,0.000000,4278.974121,4276.025879,4309.358887,4305.769043,4286.025879,4281.282227,4332.820313,4401.666504,4293.333496,4278.333496,4482.051270,4522.307617,4340.897461,4399.102539,1596.000000,1.000000,23.000000,,,,0.000000,2.000000,2.000000,0.000000,4.000000,2.000000,2.000000,0.000000,0.000000,4.000000,4.000000,4.000000,4.000000,4.000000,4.000000,0.000000,,,,,,,,,,,,,,,,,,,,,,,,,,,,
1732157707.895630,1732157707.897683,2.000000,0.000000,4280.769043,4278.589844,4304.615234,4305.769043,4285.641113,4282.692383,4329.615234,4398.974121,4295.128418,4284.230957,4484.102539,4515.000000,4347.436035,4404.615234,1369.000000,1.000000,23.000000,,,,0.000000,2.000000,2.000000,0.000000,4.000000,2.000000,2.000000,0.000000,0.000000,4.000000,4.000000,4.000000,4.000000,4.000000,4.000000,0.000000,,,,,,,,,,,,,,,,,,,,,,,,,,,,
1732157707.903438,1732157707.905491,3.000000,0.000000,4278.589844,4276.282227,4297.436035,4308.717773,4282.307617,4290.256348,4331.153809,4397.051270,4297.948730,4295.000000,4479.871582,4509.743652,4350.641113,4407.563965,1416.000000,1.000000,23.000000,,,,0.000000,2.000000,2.000000,0.000000,4.000000,2.000000,2.000000,0.000000,0.000000,4.000000,4.000000,4.000000,4.000000,4.000000,4.000000,0.000000,,,,,,,,,,,,,,,,,,,,,,,,,,,,
1732157707.911247,1732157707.913399,4.000000,0.000000,4278.077148,4275.512695,4298.974121,4309.358887,4292.436035,4288.846191,4332.692383,4396.794922,4295.000000,4286.538574,4474.230957,4508.461426,4340.641113,4400.512695,1424.000000,1.000000,23.000000,,,,0.000000,2.000000,2.000000,0.000000,4.000000,2.000000,2.000000,0.000000,0.000000,4.000000,4.000000,4.000000,4.000000,4.000000,4.000000,0.000000,,,,,,,,,,,,,,,,,1.000000,0.000000,0.509054,0.509094,-0.517944,0.461975,0.965938,0.023440,-0.056648,-34.547829,45.616085,31.152714
1732157707.919055,1732157707.921207,5.000000,0.000000,4277.692383,4275.256348,4298.846191,4306.666504,4304.615234,4284.230957,4328.077148,4396.794922,4293.589844,4281.282227,4476.410156,4509.230957,4338.077148,4396.282227,1219.000000,1.000000,23.000000,,,,0.000000,2.000000,2.000000,0.000000,4.000000,2.000000,2.000000,0.000000,0.000000,4.000000,4.000000,4.000000,4.000000,4.000000,4.000000,0.000000,,,,,,,,,,,,,,,,,,,,,,,,,,,,
1732157707.926863,1732157707.929215,6.000000,0.000000,4271.153809,4270.128418,4294.615234,4308.461426,4288.205078,4290.000000,4328.333496,4397.436035,4296.922852,4293.461426,4477.692383,4507.179688,4344.487305,4398.846191,0.000000,1.000000,23.000000,,,,0.000000,2.000000,2.000000,0.000000,4.000000,2.000000,2.000000,0.000000,0.000000,4.000000,4.000000,4.000000,4.000000,4.000000,4.000000,0.000000,,,,,,,,,,,,,,,,,,,,,,,,,,,,
1732157707.934672,1732157707.937024,7.000000,0.000000,4267.563965,4263.974121,4298.461426,4306.794922,4267.948730,4298.461426,4332.692383,4397.948730,4296.666504,4298.717773,4476.282227,4504.743652,4345.641113,4396.922852,0.000000,1.000000,23.000000,,,,0.000000,2.000000,2.000000,0.000000,4.000000,2.000000,2.000000,0.000000,0.000000,4.000000,4.000000,4.000000,4.000000,4.000000,4.000000,0.000000,,,,,,,,,,,,,,,,,,,,,,,,,,,,
1732157707.942480,1732157707.944732,8.000000,0.000000,4273.974121,4267.307617,4303.333496,4300.641113,4276.153809,4294.230957,4331.282227,4397.692383,4294.102539,4292.436035,4475.384766,4506.410156,4345.512695,4397.692383,1529.000000,1.000000,23.000000,,,,0.000000,2.000000,2.000000,0.000000,4.000000,2.000000,2.000000,0.000000,0.000000,4.000000,4.000000,4.000000,4.000000,4.000000,4.000000,0.000000,,,,,,,,,,,,,,,,,2.000000,0.000000,0.508606,0.508850,-0.518188,0.462463,0.968868,0.029300,-0.064949,-34.380405,45.562363,31.092031
1732157707.950288,1732157707.952540,9.000000,0.000000,4280.256348,4272.820313,4303.205078,4301.794922,4287.692383,4284.615234,4326.410156,4397.948730,4294.615234,4291.153809,4477.436035,4506.410156,4349.871582,4404.743652,1678.000000,1.000000,23.000000,,,,0.000000,2.000000,2.000000,0.000000,4.000000,2.000000,2.000000,0.000000,0.000000,4.000000,4.000000,4.000000,4.000000,4.000000,4.000000,0.000000,,,,,,,,,,,,,,,,,,,,,,,,,,,,
1732157707.958096,1732157707.960149,10.000000,0.000000,4278.717773,4270.641113,4302.307617,4307.563965,4279.487305,4286.666504,4329.230957,4398.205078,4296.153809,4296.666504,4479.743652,4505.512695,4352.436035,4406.153809,1541.000000,1.000000,23.000000,,,,0.000000,2.000000,2.000000,0.000000,4.000000,2.000000,2.000000,0.000000,0.000000,4.000000,4.000000,4.000000,4.000000,4.000000,4.000000,0.000000,,,,,,,,,,,,,,,,,,,,,,,,,,,,
1732157707.965904,1732157707.967957,11.000000,0.000000,4276.025879,4265.000000,4299.743652,4308.589844,4277.051270,4288.974121,4333.333496,4397.820313,4296.025879,4295.897461,4476.410156,4506.538574,4349.743652,4400.512695,1574.000000,1.000000,23.000000,,,,0.000000,2.000000,2.000000,0.000000,4.000000,2.000000,2.000000,0.000000,0.000000,4.000000,4.000000,4.000000,4.000000,4.000000,4.000000,0.000000,,,,,,,,,,,,,,,,,,,,,,,,,,,,
1732157707.973713,1732157707.975665,12.000000,0.000000,4275.384766,4265.769043,4296.794922,4306.538574,4293.205078,4284.230957,4330.384766,4398.333496,4291.794922,4284.230957,4472.436035,4501.666504,4343.077148,4396.153809,1700.000000,1.000000,23.000000,,,,0.000000,2.000000,2.000000,0.000000,4.000000,2.000000,2.000000,0.000000,0.000000,4.000000,4.000000,4.000000,4.000000,4.000000,4.000000,0.000000,,,,,,,,,,,,,,,,,3.000000,0.000000,0.507221,0.507568,-0.519165,0.464294,0.963985,0.012697,-0.058113,-34.561462,45.835514,31.106213
1732157707.981521,1732157707.983473,13.000000,0.000000,4276.153809,4270.384766,4298.846191,4305.384766,4300.384766,4286.538574,4329.102539,4398.846191,4290.897461,4282.179688,4472.563965,4495.256348,4342.563965,4401.538574,1618.000000,1.000000,23.000000,,,,0.000000,2.000000,2.000000,0.000000,4.000000,2.000000,2.000000,0.000000,0.000000,4.000000,4.000000,4.000000,4.000000,4.000000,4.000000,0.000000,,,,,,,,,,,,,,,,,,,,,,,,,,,,
1732157707.989329,1732157707.991481,14.000000,0.000000,4276.153809,4271.153809,4300.512695,4305.384766,4280.000000,4291.153809,4332.820313,4398.589844,4294.871582,4291.153809,4476.153809,4500.256348,4347.051270,4409.102539,1541.000000,1.000000,23.000000,,,,0.000000,2.000000,2.000000,0.000000,4.000000,2.000000,2.000000,0.000000,0.000000,4.000000,4.000000,4.000000,4.000000,4.000000,4.000000,0.000000,1.000000,0.000000,2.000000,2.000000,0.000000,4.000000,2.000000,2.000000,0.000000,0.000000,4.000000,4.000000,4.000000,4.000000,4.000000,4.000000,,,,,,,,,,,,
1732157707.997137,1732157707.999290,15.000000,0.000000,4274.358887,4269.615234,4301.282227,4307.307617,4268.205078,4290.769043,4335.384766,4398.717773,4295.256348,4290.256348,4479.615234,4507.436035,4345.000000,4406.025879,1574.000000,1.000000,23.000000,,,,0.000000,2.000000,2.000000,0.000000,4.000000,2.000000,2.000000,0.000000,0.000000,4.000000,4.000000,4.000000,4.000000,4.000000,4.000000,0.000000,,,,,,,,,,,,,,,,,,,,,,,,,,,,
1732157708.004946,1732157708.007198,16.000000,0.000000,4277.563965,4271.538574,4306.282227,4305.384766,4281.410156,4292.820313,4332.179688,4398.077148,4293.589844,4282.692383,4478.974121,4504.871582,4340.641113,4402.820313,0.000000,1.000000,23.000000,,,,0.000000,2.000000,2.000000,0.000000,4.000000,2.000000,2.000000,0.000000,0.000000,4.000000,4.000000,4.000000,4.000000,4.000000,4.000000,0.000000,,,,,,,,,,,,,,,,,4.000000,0.000000,0.506624,0.505005,-0.520386,0.466370,0.989867,0.014650,-0.042974,-34.653118,45.818432,31.132698
1732157708.012754,1732157708.015006,17.000000,0.000000,4281.922852,4271.025879,4308.717773,4300.000000,4285.000000,4296.410156,4330.769043,4396.282227,4296.794922,4282.307617,4478.461426,4503.846191,4342.307617,4409.743652,0.000000,1.000000,23.000000,,,,0.000000,2.000000,2.000000,0.000000,4.000000,2.000000,2.000000,0.000000,0.000000,4.000000,4.000000,4.000000,4.000000,4.000000,4.000000,0.000000,,,,,,,,,,,,,,,,,,,,,,,,,,,,
1732157708.020562,1732157708.023014,18.000000,0.000000,4280.897461,4268.846191,4307.820313,4298.077148,4279.615234,4292.307617,4334.102539,4397.179688,4297.948730,4284.102539,4480.897461,4506.794922,4343.589844,4414.743652,0.000000,1.000000,23.000000,,,,0.000000,2.000000,2.000000,0.000000,4.000000,2.000000,2.000000,0.000000,0.000000,4.000000,4.000000,4.000000,4.000000,4.000000,4.000000,0.000000,,,,,,,,,,,,,,,,,,,,,,,,,,,,
1732157708.028371,1732157708.030822,19.000000,0.000000,4281.153809,4271.153809,4308.077148,4301.794922,4280.512695,4288.846191,4334.487305,4398.589844,4293.589844,4282.051270,4481.410156,4502.948730,4343.077148,4413.461426,0.000000,1.000000,23.000000,,,,0.000000,2.000000,2.000000,0.000000,4.000000,2.000000,2.000000,0.000000,0.000000,4.000000,4.000000,4.000000,4.000000,4.000000,4.000000,0.000000,,,,,,,,,,,,,,,,,,,,,,,,,,,,
1732157708.036179,1732157708.038730,20.000000,0.000000,4282.307617,4265.897461,4310.000000,4301.666504,4282.692383,4293.077148,4334.102539,4398.974121,4293.077148,4280.256348,4477.051270,4507.820313,4340.384766,4415.000000,0.000000,1.000000,23.000000,,,,0.000000,2.000000,2.000000,0.000000,4.000000,2.000000,2.000000,0.000000,0.000000,4.000000,4.000000,4.000000,4.000000,4.000000,4.000000,0.000000,,,,,,,,,,,,,,,,,5.000000,0.000000,0.506597,0.504272,-0.520630,0.466919,0.999145,0.033696,-0.032719,-34.594025,45.721264,31.070820
1732157708.043987,1732157708.046538,21.000000,0.000000,4279.743652,4262.563965,4310.128418,4299.487305,4287.948730,4296.025879,4336.025879,4399.358887,4296.410156,4282.436035,4477.948730,4517.436035,4337.692383,4417.051270,0.000000,1.000000,23.000000,,,,0.000000,2.000000,2.000000,0.000000,4.000000,2.000000,2.000000,0.000000,0.000000,4.000000,4.000000,4.000000,4.000000,4.000000,4.000000,0.000000,,,,,,,,,,,,,,,,,,,,,,,,,,,,
1732157708.051795,1732157708.054147,22.000000,0.000000,4282.051270,4276.410156,4309.871582,4305.128418,4287.692383,4289.102539,4334.487305,4400.128418,4298.974121,4288.077148,4488.205078,4516.666504,4344.871582,4415.897461,0.000000,1.000000,23.000000,,,,0.000000,2.000000,2.000000,0.000000,4.000000,2.000000,2.000000,0.000000,0.000000,4.000000,4.000000,4.000000,4.000000,4.000000,4.000000,0.000000,,,,,,,,,,,,,,,,,,,,,,,,,,,,
1732157708.059603,1732157708.061955,23.000000,0.000000,4289.487305,4287.307617,4310.897461,4311.025879,4288.077148,4280.641113,4330.897461,4399.871582,4298.077148,4286.282227,4488.333496,4507.692383,4347.051270,4414.871582,0.000000,1.000000,23.000000,,,,0.000000,2.000000,2.000000,0.000000,4.000000,2.000000,2.000000,0.000000,0.000000,4.000000,4.000000,4.000000,4.000000,4.000000,4.000000,0.000000,,,,,,,,,,,,,,,,,,,,,,,,,,,,
1732157708.067412,1732157708.069863,24.000000,0.000000,4289.102539,4289.871582,4313.205078,4313.333496,4302.307617,4280.641113,4332.179688,4399.487305,4294.230957,4276.282227,4475.641113,4499.102539,4333.077148,4409.871582,0.000000,1.000000,23.000000,,,,0.000000,2.000000,2.000000,0.000000,4.000000,2.000000,2.000000,0.000000,0.000000,4.000000,4.000000,4.000000,4.000000,4.000000,4.000000,0.000000,,,,,,,,,,,,,,,,,6.000000,0.000000,0.506710,0.503906,-0.520874,0.466919,1.006959,0.037602,-0.041509,-34.892826,45.647556,31.469030
1732157708.075220,1732157708.077671,25.000000,0.000000,4283.461426,4295.769043,4315.256348,4314.358887,4300.128418,4280.897461,4333.974121,4399.358887,4292.436035,4274.871582,4467.692383,4493.846191,4322.307617,4403.205078,0.000000,1.000000,23.000000,,,,0.000000,2.000000,2.000000,0.000000,4.000000,2.000000,2.000000,0.000000,0.000000,4.000000,4.000000,4.000000,4.000000,4.000000,4.000000,0.000000,,,,,,,,,,,,,,,,,,,,,,,,,,,,
1732157708.083028,1732157708.085679,26.000000,0.000000,4279.871582,4298.974121,4314.358887,4313.205078,4277.436035,4283.077148,4334.358887,4398.846191,4293.717773,4278.333496,4463.974121,4491.282227,4320.769043,4397.051270,0.000000,1.000000,23.000000,,,,0.000000,2.000000,2.000000,0.000000,4.000000,2.000000,2.000000,0.000000,0.000000,4.000000,4.000000,4.000000,4.000000,4.000000,4.000000,0.000000,,,,,,,,,,,,,,,,,,,,,,,,,,,,
1732157708.090836,1732157708.093488,27.000000,0.000000,4278.589844,4292.948730,4314.743652,4311.538574,4273.846191,4290.897461,4334.743652,4400.128418,4296.153809,4276.282227,4460.128418,4490.256348,4318.717773,4393.589844,0.000000,1.000000,23.000000,,,,0.000000,2.000000,2.000000,0.000000,4.000000,2.000000,2.000000,0.000000,0.000000,4.000000,4.000000,4.000000,4.000000,4.000000,4.000000,0.000000,,,,,,,,,,,,,,,,,,,,,,,,,,,,
1732157708.098645,1732157708.101396,28.000000,0.000000,4279.743652,4292.179688,4314.358887,4316.282227,4285.000000,4290.000000,4334.615234,4400.512695,4296.794922,4276.410156,4463.974121,4490.128418,4320.512695,4394.358887,0.000000,1.000000,23.000000,,,,0.000000,2.000000,2.000000,0.000000,4.000000,2.000000,2.000000,0.000000,0.000000,4.000000,4.000000,4.000000,4.000000,4.000000,4.000000,0.000000,,,,,,,,,,,,,,,,,7.000000,0.000000,0.506075,0.504272,-0.521301,0.466736,0.963008,0.034184,-0.046881,-34.689857,45.637856,31.439915
1732157708.106453,1732157708.109204,29.000000,0.000000,4281.025879,4296.922852,4311.282227,4317.179688,4282.948730,4283.077148,4334.743652,4398.589844,4296.922852,4277.948730,4470.641113,4494.230957,4327.692383,4396.666504,0.000000,1.000000,23.000000,,,,0.000000,2.000000,2.000000,0.000000,4.000000,2.000000,2.000000,0.000000,0.000000,4.000000,4.000000,4.000000,4.000000,4.000000,4.000000,0.000000,,,,,,,,,,,,,,,,,,,,,,,,,,,,
1732157708.114261,1732157708.117212,30.000000,0.000000,4282.307617,4295.641113,4309.743652,4310.897461,4278.205078,4284.615234,4334.615234,4398.077148,4295.769043,4272.051270,4472.051270,4497.692383,4329.615234,4397.820313,0.000000,1.000000,23.000000,,,,0.000000,2.000000,2.000000,0.000000,4.000000,2.000000,2.000000,0.000000,0.000000,4.000000,4.000000,4.000000,4.000000,4.000000,4.000000,0.000000,,,,,,,,,,,,,,,,,,,,,,,,,,,,
1732157708.122069,1732157708.125020,31.000000,0.000000,4282.692383,4287.436035,4309.743652,4310.128418,4281.794922,4289.487305,4333.461426,4399.102539,4293.846191,4265.000000,4471.025879,4500.128418,4328.205078,4397.820313,0.000000,1.000000,23.000000,,,,0.000000,2.000000,2.000000,0.000000,4.000000,2.000000,2.000000,0.000000,0.000000,4.000000,4.000000,4.000000,4.000000,4.000000,4.000000,0.000000,,,,,,,,,,,,,,,,,,,,,,,,,,,,
1732157708.129878,1732157708.132928,32.000000,0.000000,4281.666504,4285.128418,4308.077148,4314.230957,4285.256348,4289.487305,4333.717773,4398.589844,4292.948730,4264.871582,4466.025879,4504.487305,4327.820313,4398.846191,0.000000,1.000000,23.000000,,,,0.000000,2.000000,2.000000,0.000000,4.000000,2.000000,2.000000,0.000000,0.000000,4.000000,4.000000,4.000000,4.000000,4.000000,4.000000,0.000000,,,,,,,,,,,,,,,,,8.000000,0.000000,0.505948,0.504822,-0.521057,0.466553,0.953241,0.040044,-0.058601,-34.710449,45.778328,31.381330
1732157708.137686,1732157708.140736,33.000000,0.000000,4284.743652,4292.179688,4306.794922,4315.384766,4281.922852,4286.282227,4333.589844,4398.077148,4295.000000,4267.820313,4465.000000,4507.436035,4327.563965,4400.128418,0.000000,1.000000,23.000000,,,,0.000000,2.000000,2.000000,0.000000,4.000000,2.000000,2.000000,0.000000,0.000000,4.000000,4.000000,4.000000,4.000000,4.000000,4.000000,0.000000,,,,,,,,,,,,,,,,,,,,,,,,,,,,
1732157708.145494,1732157708.148744,34.000000,0.000000,4289.230957,4292.692383,4309.743652,4310.256348,4279.615234,4282.436035,4333.717773,4398.589844,4295.641113,4267.692383,4472.307617,4508.717773,4327.692383,4400.256348,0.000000,1.000000,23.000000,,,,0.000000,2.000000,2.000000,0.000000,4.000000,2.000000,2.000000,0.000000,0.000000,4.000000,4.000000,4.000000,4.000000,4.000000,4.000000,0.000000,,,,,,,,,,,,,,,,,,,,,,,,,,,,
1732157708.153302,1732157708.156553,35.000000,0.000000,4289.871582,4290.512695,4314.487305,4308.846191,4294.871582,4280.897461,4335.512695,4399.871582,4292.307617,4265.000000,4475.641113,4507.307617,4327.820313,4399.487305,0.000000,1.000000,23.000000,,,,0.000000,2.000000,2.000000,0.000000,4.000000,2.000000,2.000000,0.000000,0.000000,4.000000,4.000000,4.000000,4.000000,4.000000,4.000000,0.000000,,,,,,,,,,,,,,,,,,,,,,,,,,,,
1732157708.161111,1732157708.164261,36.000000,0.000000,4287.563965,4295.769043,4314.615234,4318.077148,4299.487305,4281.794922,4335.897461,4400.512695,4295.000000,4264.230957,4475.512695,4508.461426,4327.692383,4400.128418,0.000000,1.000000,23.000000,,,,0.000000,2.000000,2.000000,0.000000,4.000000,2.000000,2.000000,0.000000,0.000000,4.000000,4.000000,4.000000,4.000000,4.000000,4.000000,0.000000,,,,,,,,,,,,,,,,,9.000000,0.000000,0.505948,0.504822,-0.521057,0.466553,0.965450,0.036626,-0.052741,-34.697132,45.997112,31.333878
1732157708.168919,1732157708.172069,37.000000,0.000000,4283.846191,4293.717773,4313.205078,4321.153809,4275.128418,4283.205078,4335.128418,4399.743652,4299.743652,4266.282227,4473.846191,4509.230957,4326.410156,4401.282227,0.000000,1.000000,23.000000,,,,0.000000,2.000000,2.000000,0.000000,4.000000,2.000000,2.000000,0.000000,0.000000,4.000000,4.000000,4.000000,4.000000,4.000000,4.000000,0.000000,,,,,,,,,,,,,,,,,,,,,,,,,,,,
1732157708.176727,1732157708.179678,38.000000,0.000000,4280.641113,4284.358887,4313.846191,4312.563965,4264.615234,4282.820313,4335.000000,4398.333496,4292.051270,4262.692383,4464.615234,4506.538574,4325.769043,4395.641113,0.000000,1.000000,23.000000,,,,0.000000,2.000000,2.000000,0.000000,4.000000,2.000000,2.000000,0.000000,0.000000,4.000000,4.000000,4.000000,4.000000,4.000000,4.000000,0.000000,,,,,,,,,,,,,,,,,,,,,,,,,,,,
1732157708.184535,1732157708.187486,39.000000,0.000000,4281.153809,4286.922852,4315.512695,4310.000000,4278.717773,4283.461426,4334.743652,4398.974121,4284.871582,4248.846191,4460.256348,4503.333496,4323.846191,4389.102539,0.000000,1.000000,23.000000,,,,0.000000,2.000000,2.000000,0.000000,4.000000,2.000000,2.000000,0.000000,0.000000,4.000000,4.000000,4.000000,4.000000,4.000000,4.000000,0.000000,,,,,,,,,,,,,,,,,,,,,,,,,,,,
1732157708.192344,1732157708.195194,40.000000,0.000000,4281.538574,4296.410156,4315.641113,4314.358887,4285.256348,4292.563965,4336.282227,4400.128418,4291.153809,4246.153809,4464.102539,4504.487305,4320.128418,4387.820313,0.000000,1.000000,23.000000,,,,0.000000,2.000000,2.000000,0.000000,4.000000,2.000000,2.000000,0.000000,0.000000,4.000000,4.000000,4.000000,4.000000,4.000000,4.000000,0.000000,,,,,,,,,,,,,,,,,10.000000,0.000000,0.507475,0.504456,-0.520691,0.465698,0.969357,0.053229,-0.045904,-34.684677,45.979328,31.238775
1732157708.200152,1732157708.203002,41.000000,0.000000,4280.000000,4290.256348,4315.128418,4313.589844,4282.436035,4297.436035,4337.307617,4399.487305,4295.769043,4257.436035,4459.871582,4508.846191,4316.666504,4385.256348,0.000000,1.000000,23.000000,,,,0.000000,2.000000,2.000000,0.000000,4.000000,2.000000,2.000000,0.000000,0.000000,4.000000,4.000000,4.000000,4.000000,4.000000,4.000000,0.000000,,,,,,,,,,,,,,,,,,,,,,,,,,,,
1732157708.207960,1732157708.210611,42.000000,0.000000,4280.128418,4281.538574,4314.743652,4310.512695,4279.615234,4288.589844,4336.025879,4397.563965,4293.077148,4256.794922,4454.743652,4502.563965,4313.717773,4380.641113,0.000000,1.000000,23.000000,,,,0.000000,2.000000,2.000000,0.000000,4.000000,2.000000,2.000000,0.000000,0.000000,4.000000,4.000000,4.000000,4.000000,4.000000,4.000000,0.000000,,,,,,,,,,,,,,,,,,,,,,,,,,,,
1732157708.215768,1732157708.218419,43.000000,0.000000,4280.384766,4286.538574,4315.000000,4309.230957,4285.512695,4281.666504,4334.615234,4397.051270,4293.974121,4247.307617,4458.717773,4492.820313,4315.128418,4381.410156,0.000000,1.000000,23.000000,,,,0.000000,2.000000,2.000000,0.000000,4.000000,2.000000,2.000000,0.000000,0.000000,4.000000,4.000000,4.000000,4.000000,4.000000,4.000000,0.000000,,,,,,,,,,,,,,,,,,,,,,,,,,,,
1732157708.223577,1732157708.226127,44.000000,0.000000,4280.641113,4289.871582,4317.563965,4307.948730,4300.897461,4286.153809,4335.641113,4399.358887,4297.051270,4246.794922,4460.769043,4496.794922,4319.230957,4383.205078,0.000000,1.000000,23.000000,,,,0.000000,2.000000,2.000000,0.000000,4.000000,2.000000,2.000000,0.000000,0.000000,4.000000,4.000000,4.000000,4.000000,4.000000,4.000000,0.000000,,,,,,,,,,,,,,,,,11.000000,0.000000,0.508813,0.503052,-0.521179,0.465210,0.974240,0.062996,-0.052252,-34.737923,45.969921,31.245073
1732157708.231385,1732157708.233935,45.000000,0.000000,4280.384766,4284.871582,4318.461426,4309.230957,4290.384766,4288.846191,4338.205078,4402.436035,4297.820313,4251.538574,4458.205078,4503.333496,4320.128418,4382.436035,0.000000,1.000000,23.000000,,,,0.000000,2.000000,2.000000,0.000000,4.000000,2.000000,2.000000,0.000000,0.000000,4.000000,4.000000,4.000000,4.000000,4.000000,4.000000,0.000000,,,,,,,,,,,,,,,,,,,,,,,,,,,,
1732157708.239193,1732157708.241943,46.000000,0.000000,4281.410156,4285.256348,4313.461426,4310.256348,4263.589844,4289.230957,4340.512695,4400.512695,4296.410156,4256.666504,4461.922852,4501.922852,4320.256348,4387.307617,0.000000,1.000000,23.000000,,,,0.000000,2.000000,2.000000,0.000000,4.000000,2.000000,2.000000,0.000000,0.000000,4.000000,4.000000,4.000000,4.000000,4.000000,4.000000,0.000000,,,,,,,,,,,,,,,,,,,,,,,,,,,,
1732157708.247001,1732157708.249752,47.000000,0.000000,4287.948730,4290.128418,4312.307617,4310.769043,4269.230957,4291.794922,4340.256348,4399.487305,4298.589844,4263.205078,4469.615234,4504.487305,4324.871582,4391.282227,0.000000,1.000000,23.000000,,,,0.000000,2.000000,2.000000,0.000000,4.000000,2.000000,2.000000,0.000000,0.000000,4.000000,4.000000,4.000000,4.000000,4.000000,4.000000,0.000000,,,,,,,,,,,,,,,,,,,,,,,,,,,,
1732157708.254810,1732157708.257460,48.000000,0.000000,4293.589844,4289.102539,4319.358887,4310.897461,4284.871582,4287.051270,4339.487305,4404.871582,4307.820313,4265.000000,4472.692383,4509.230957,4326.410156,4391.025879,0.000000,1.000000,23.000000,,,,0.000000,2.000000,2.000000,0.000000,4.000000,2.000000,2.000000,0.000000,0.000000,4.000000,4.000000,4.000000,4.000000,4.000000,4.000000,0.000000,,,,,,,,,,,,,,,,,12.000000,0.000000,0.509321,0.501770,-0.521973,0.465149,0.974240,0.049811,-0.043951,-34.779385,45.973972,31.258511
1732157708.262618,1732157708.265268,49.000000,0.000000,4292.563965,4287.563965,4322.436035,4309.615234,4278.717773,4280.384766,4339.487305,4405.641113,4306.922852,4262.179688,4472.563965,4506.666504,4322.307617,4395.000000,0.000000,1.000000,23.000000,,,,0.000000,2.000000,2.000000,0.000000,4.000000,2.000000,2.000000,0.000000,0.000000,4.000000,4.000000,4.000000,4.000000,4.000000,4.000000,0.000000,,,,,,,,,,,,,,,,,,,,,,,,,,,,
1732157708.270426,1732157708.272877,50.000000,0.000000,4290.512695,4287.820313,4318.846191,4308.205078,4275.256348,4279.871582,4336.922852,4401.922852,4294.358887,4262.692383,4473.333496,4505.897461,4322.820313,4398.846191,0.000000,1.000000,23.000000,,,,0.000000,2.000000,2.000000,0.000000,4.000000,2.000000,2.000000,0.000000,0.000000,4.000000,4.000000,4.000000,4.000000,4.000000,4.000000,0.000000,,,,,,,,,,,,,,,,,,,,,,,,,,,,
1732157708.278234,1732157708.280685,51.000000,0.000000,4290.256348,4287.307617,4320.384766,4309.615234,4282.692383,4278.846191,4334.102539,4401.666504,4291.282227,4261.666504,4471.922852,4506.922852,4323.205078,4396.666504,0.000000,1.000000,23.000000,,,,0.000000,2.000000,2.000000,0.000000,4.000000,2.000000,2.000000,0.000000,0.000000,4.000000,4.000000,4.000000,4.000000,4.000000,4.000000,0.000000,,,,,,,,,,,,,,,,,,,,,,,,,,,,
1732157708.286043,1732157708.288393,52.000000,0.000000,4289.743652,4287.179688,4323.846191,4309.743652,4276.666504,4277.820313,4336.025879,4402.563965,4298.333496,4260.897461,4470.641113,4506.538574,4320.000000,4397.179688,0.000000,1.000000,23.000000,,,,0.000000,2.000000,2.000000,0.000000,4.000000,2.000000,2.000000,0.000000,0.000000,4.000000,4.000000,4.000000,4.000000,4.000000,4.000000,0.000000,,,,,,,,,,,,,,,,,13.000000,0.000000,0.509084,0.501587,-0.522217,0.465332,0.974240,0.049811,-0.043951,-34.662968,45.883915,31.209393
1732157708.293851,1732157708.296201,53.000000,0.000000,4287.692383,4282.051270,4323.461426,4302.692383,4272.692383,4279.102539,4336.538574,4399.871582,4296.666504,4262.820313,4473.461426,4508.077148,4319.743652,4400.512695,0.000000,1.000000,23.000000,,,,0.000000,2.000000,2.000000,0.000000,4.000000,2.000000,2.000000,0.000000,0.000000,4.000000,4.000000,4.000000,4.000000,4.000000,4.000000,0.000000,,,,,,,,,,,,,,,,,,,,,,,,,,,,
1732157708.301659,1732157708.304209,54.000000,0.000000,4286.282227,4278.205078,4324.615234,4294.743652,4285.769043,4278.974121,4334.871582,4400.641113,4288.974121,4262.563965,4471.025879,4505.512695,4318.846191,4396.025879,0.000000,1.000000,23.000000,,,,0.000000,2.000000,2.000000,0.000000,4.000000,2.000000,2.000000,0.000000,0.000000,4.000000,4.000000,4.000000,4.000000,4.000000,4.000000,0.000000,,,,,,,,,,,,,,,,,,,,,,,,,,,,
1732157708.309467,1732157708.312017,55.000000,0.000000,4288.333496,4279.743652,4322.692383,4295.512695,4284.615234,4276.282227,4337.307617,4403.333496,4288.974121,4261.666504,4467.179688,4503.077148,4315.128418,4394.487305,0.000000,1.000000,23.000000,,,,0.000000,2.000000,2.000000,0.000000,4.000000,2.000000,2.000000,0.000000,0.000000,4.000000,4.000000,4.000000,4.000000,4.000000,4.000000,0.000000,,,,,,,,,,,,,,,,,,,,,,,,,,,,
1732157708.317276,1732157708.319726,56.000000,0.000000,4290.000000,4282.948730,4319.871582,4300.897461,4264.230957,4278.461426,4341.153809,4401.025879,4294.358887,4262.563965,4473.461426,4504.230957,4318.461426,4399.358887,0.000000,1.000000,23.000000,,,,0.000000,2.000000,2.000000,0.000000,4.000000,2.000000,2.000000,0.000000,0.000000,4.000000,4.000000,4.000000,4.000000,4.000000,4.000000,0.000000,,,,,,,,,,,,,,,,,14.000000,0.000000,0.507297,0.500366,-0.523926,0.466675,0.967892,0.015139,-0.053229,-34.620338,45.812637,31.246275
1732157708.325084,1732157708.327534,57.000000,0.000000,4285.897461,4282.051270,4323.974121,4301.153809,4259.615234,4279.615234,4339.871582,4402.563965,4296.666504,4264.487305,4476.794922,4505.897461,4322.179688,4400.128418,0.000000,1.000000,23.000000,,,,0.000000,2.000000,2.000000,0.000000,4.000000,2.000000,2.000000,0.000000,0.000000,4.000000,4.000000,4.000000,4.000000,4.000000,4.000000,0.000000,,,,,,,,,,,,,,,,,,,,,,,,,,,,
1732157708.332892,1732157708.335542,58.000000,0.000000,4280.000000,4279.743652,4328.077148,4295.641113,4268.461426,4278.461426,4339.358887,4404.615234,4296.538574,4265.256348,4471.410156,4507.051270,4314.743652,4396.922852,0.000000,1.000000,23.000000,,,,0.000000,2.000000,2.000000,0.000000,4.000000,2.000000,2.000000,0.000000,0.000000,4.000000,4.000000,4.000000,4.000000,4.000000,4.000000,0.000000,,,,,,,,,,,,,,,,,,,,,,,,,,,,
1732157708.340700,1732157708.343350,59.000000,0.000000,4282.563965,4281.282227,4325.897461,4295.641113,4264.871582,4278.205078,4342.179688,4403.717773,4296.922852,4264.358887,4471.538574,4506.153809,4311.666504,4399.230957,0.000000,1.000000,23.000000,,,,0.000000,2.000000,2.000000,0.000000,4.000000,2.000000,2.000000,0.000000,0.000000,4.000000,4.000000,4.000000,4.000000,4.000000,4.000000,0.000000,,,,,,,,,,,,,,,,,,,,,,,,,,,,
1732157708.348508,1732157708.351059,60.000000,0.000000,4291.410156,4283.974121,4320.512695,4304.743652,4266.153809,4278.205078,4341.538574,4403.461426,4296.153809,4262.436035,4469.871582,4505.769043,4309.743652,4400.256348,0.000000,1.000000,23.000000,,,,0.000000,2.000000,2.000000,0.000000,4.000000,2.000000,2.000000,0.000000,0.000000,4.000000,4.000000,4.000000,4.000000,4.000000,4.000000,0.000000,,,,,,,,,,,,,,,,,15.000000,0.000000,0.506830,0.500000,-0.524292,0.467163,0.977170,0.005860,-0.050787,-34.427471,45.759903,31.306149
1732157708.356317,1732157708.358867,61.000000,0.000000,4294.743652,4282.436035,4323.333496,4307.948730,4278.205078,4279.358887,4339.743652,4404.487305,4295.256348,4261.794922,4463.333496,4510.000000,4304.230957,4396.794922,0.000000,1.000000,23.000000,,,,0.000000,2.000000,2.000000,0.000000,4.000000,2.000000,2.000000,0.000000,0.000000,4.000000,4.000000,4.000000,4.000000,4.000000,4.000000,0.000000,,,,,,,,,,,,,,,,,,,,,,,,,,,,
1732157708.364125,1732157708.366475,62.000000,0.000000,4292.820313,4279.230957,4330.769043,4298.717773,4275.769043,4281.794922,4341.922852,4404.487305,4295.512695,4259.615234,4468.461426,4516.282227,4313.077148,4401.666504,0.000000,1.000000,23.000000,,,,0.000000,2.000000,2.000000,0.000000,4.000000,2.000000,2.000000,0.000000,0.000000,4.000000,4.000000,4.000000,4.000000,4.000000,4.000000,0.000000,,,,,,,,,,,,,,,,,,,,,,,,,,,,
1732157708.371933,1732157708.374283,63.000000,0.000000,4296.794922,4280.512695,4332.820313,4293.589844,4265.128418,4279.615234,4344.102539,4404.102539,4295.384766,4263.589844,4477.948730,4519.743652,4327.179688,4409.230957,0.000000,1.000000,23.000000,,,,0.000000,2.000000,2.000000,0.000000,4.000000,2.000000,2.000000,0.000000,0.000000,4.000000,4.000000,4.000000,4.000000,4.000000,4.000000,0.000000,,,,,,,,,,,,,,,,,,,,,,,,,,,,
1732157708.379742,1732157708.381992,64.000000,0.000000,4297.179688,4277.948730,4329.615234,4296.794922,4263.205078,4268.846191,4342.563965,4405.897461,4295.769043,4275.256348,4476.666504,4521.922852,4331.538574,4410.256348,0.000000,1.000000,23.000000,,,,0.000000,2.000000,2.000000,0.000000,4.000000,2.000000,2.000000,0.000000,0.000000,4.000000,4.000000,4.000000,4.000000,4.000000,4.000000,0.000000,,,,,,,,,,,,,,,,,16.000000,0.000000,0.506295,0.499573,-0.524780,0.467651,0.977170,0.005860,-0.050787,-34.582920,45.803856,31.341314
1732157708.387550,1732157708.389800,65.000000,0.000000,4284.358887,4266.794922,4326.922852,4290.512695,4265.256348,4261.922852,4337.820313,4403.589844,4295.256348,4272.820313,4473.846191,4521.410156,4333.077148,4410.641113,1596.000000,1.000000,23.000000,,,,0.000000,2.000000,2.000000,0.000000,4.000000,2.000000,2.000000,0.000000,0.000000,4.000000,4.000000,4.000000,4.000000,4.000000,4.000000,0.000000,,,,,,,,,,,,,,,,,,,,,,,,,,,,
1732157708.395358,1732157708.397808,66.000000,0.000000,4281.666504,4262.436035,4320.897461,4282.820313,4264.615234,4272.948730,4337.051270,4401.410156,4294.102539,4260.769043,4479.487305,4519.358887,4335.897461,4413.333496,1369.000000,1.000000,23.000000,,,,0.000000,2.000000,2.000000,0.000000,4.000000,2.000000,2.000000,0.000000,0.000000,4.000000,4.000000,4.000000,4.000000,4.000000,4.000000,0.000000,,,,,,,,,,,,,,,,,,,,,,,,,,,,
1732157708.403166,1732157708.405616,67.000000,0.000000,4292.307617,4266.410156,4316.538574,4289.743652,4266.922852,4281.666504,4339.743652,4405.769043,4295.256348,4265.384766,4487.692383,4525.384766,4338.846191,4413.461426,1416.000000,1.000000,23.000000,,,,0.000000,2.000000,2.000000,0.000000,4.000000,2.000000,2.000000,0.000000,0.000000,4.000000,4.000000,4.000000,4.000000,4.000000,4.000000,0.000000,,,,,,,,,,,,,,,,,,,,,,,,,,,,
1732157708.410974,1732157708.413524,68.000000,0.000000,4292.307617,4265.384766,4323.717773,4293.205078,4268.846191,4270.128418,4337.307617,4407.179688,4297.820313,4278.846191,4489.358887,4530.769043,4342.051270,4412.307617,1424.000000,1.000000,23.000000,,,,0.000000,2.000000,2.000000,0.000000,4.000000,2.000000,2.000000,0.000000,0.000000,4.000000,4.000000,4.000000,4.000000,4.000000,4.000000,0.000000,,,,,,,,,,,,,,,,,17.000000,0.000000,0.505067,0.497375,-0.526794,0.469055,0.982542,0.000488,-0.035161,-34.785500,45.654457,31.289799
1732157708.418783,1732157708.421332,69.000000,0.000000,4286.410156,4263.077148,4325.384766,4284.871582,4260.641113,4260.897461,4333.333496,4401.410156,4299.102539,4281.410156,4486.410156,4528.974121,4340.256348,4412.563965,1219.000000,1.000000,23.000000,,,,0.000000,2.000000,2.000000,0.000000,4.000000,2.000000,2.000000,0.000000,0.000000,4.000000,4.000000,4.000000,4.000000,4.000000,4.000000,0.000000,,,,,,,,,,,,,,,,,,,,,,,,,,,,
1732157708.426591,1732157708.429340,70.000000,0.000000,4287.179688,4263.717773,4321.282227,4281.666504,4265.769043,4267.179688,4338.974121,4400.897461,4297.820313,4276.410156,4487.179688,4526.153809,4337.436035,4412.820313,0.000000,1.000000,23.000000,,,,0.000000,2.000000,2.000000,0.000000,4.000000,2.000000,2.000000,0.000000,0.000000,4.000000,4.000000,4.000000,4.000000,4.000000,4.000000,0.000000,,,,,,,,,,,,,,,,,,,,,,,,,,,,
1732157708.434399,1732157708.437149,71.000000,0.000000,4286.794922,4260.256348,4347.051270,4281.153809,4283.333496,4267.820313,4350.384766,4412.051270,4294.230957,4270.769043,4484.487305,4527.179688,4338.589844,4414.102539,0.000000,1.000000,23.000000,,,,0.000000,2.000000,2.000000,0.000000,4.000000,2.000000,2.000000,0.000000,0.000000,4.000000,4.000000,4.000000,4.000000,4.000000,4.000000,0.000000,,,,,,,,,,,,,,,,,,,,,,,,,,,,
1732157708.442207,1732157708.445057,72.000000,0.000000,4289.487305,4257.563965,4378.333496,4280.000000,4273.333496,4264.487305,4354.871582,4418.717773,4293.846191,4263.589844,4477.436035,4531.666504,4335.128418,4414.230957,1529.000000,1.000000,23.000000,,,,0.000000,2.000000,2.000000,0.000000,4.000000,2.000000,2.000000,0.000000,0.000000,4.000000,4.000000,4.000000,4.000000,4.000000,4.000000,0.000000,,,,,,,,,,,,,,,,,18.000000,0.000000,0.503902,0.496094,-0.528137,0.470154,0.984495,0.009278,-0.053229,-34.756252,45.710110,31.319736
1732157708.450016,1732157708.452865,73.000000,0.000000,4295.512695,4262.051270,4355.256348,4288.846191,4252.051270,4273.717773,4349.487305,4412.820313,4297.436035,4263.077148,4477.692383,4537.307617,4332.051270,4414.871582,1690.000000,1.000000,23.000000,,,,0.000000,2.000000,2.000000,0.000000,4.000000,2.000000,2.000000,0.000000,0.000000,4.000000,4.000000,4.000000,4.000000,4.000000,4.000000,0.000000,,,,,,,,,,,,,,,,,,,,,,,,,,,,
1732157708.457824,1732157708.460873,74.000000,0.000000,4290.128418,4265.000000,4314.102539,4292.179688,4258.461426,4282.179688,4341.410156,4403.846191,4298.974121,4268.333496,4480.384766,4535.128418,4334.743652,4415.128418,1546.000000,1.000000,23.000000,,,,0.000000,2.000000,2.000000,0.000000,4.000000,2.000000,2.000000,0.000000,0.000000,4.000000,4.000000,4.000000,4.000000,4.000000,4.000000,0.000000,,,,,,,,,,,,,,,,,,,,,,,,,,,,
1732157708.465632,1732157708.468681,75.000000,0.000000,4280.000000,4263.205078,4311.025879,4282.436035,4270.128418,4280.256348,4336.410156,4402.436035,4297.563965,4268.589844,4476.282227,4522.436035,4334.615234,4412.820313,1573.000000,1.000000,23.000000,,,,0.000000,2.000000,2.000000,0.000000,4.000000,2.000000,2.000000,0.000000,0.000000,4.000000,4.000000,4.000000,4.000000,4.000000,4.000000,0.000000,,,,,,,,,,,,,,,,,,,,,,,,,,,,
1732157708.473441,1732157708.476589,76.000000,0.000000,4278.077148,4262.051270,4318.974121,4280.256348,4265.384766,4280.256348,4336.153809,4408.846191,4297.436035,4266.025879,4472.307617,4516.922852,4329.358887,4411.794922,1703.000000,1.000000,23.000000,,,,0.000000,2.000000,2.000000,0.000000,4.000000,2.000000,2.000000,0.000000,0.000000,4.000000,4.000000,4.000000,4.000000,4.000000,4.000000,0.000000,,,,,,,,,,,,,,,,,19.000000,0.000000,0.503902,0.496094,-0.528137,0.470154,0.978635,-0.006837,-0.054694,-34.672565,45.875191,31.208986
1732157708.481249,1732157708.484397,77.000000,0.000000,4279.871582,4262.051270,4313.205078,4284.487305,4264.102539,4280.897461,4339.487305,4409.743652,4297.692383,4266.153809,4473.717773,4521.922852,4326.922852,4412.307617,1628.000000,1.000000,23.000000,,,,0.000000,2.000000,2.000000,0.000000,4.000000,2.000000,2.000000,0.000000,0.000000,4.000000,4.000000,4.000000,4.000000,4.000000,4.000000,0.000000,,,,,,,,,,,,,,,,,,,,,,,,,,,,
1732157708.489057,1732157708.492405,78.000000,0.000000,4280.512695,4262.436035,4312.051270,4281.538574,4266.410156,4280.384766,4339.230957,4403.974121,4296.410156,4266.410156,4476.153809,4519.743652,4329.743652,4409.487305,1546.000000,1.000000,23.000000,,,,0.000000,2.000000,2.000000,0.000000,4.000000,2.000000,2.000000,0.000000,0.000000,4.000000,4.000000,4.000000,4.000000,4.000000,4.000000,0.000000,1.000000,0.000000,2.000000,2.000000,0.000000,4.000000,2.000000,2.000000,0.000000,0.000000,4.000000,4.000000,4.000000,4.000000,4.000000,4.000000,,,,,,,,,,,,
1732157708.496865,1732157708.500214,79.000000,0.000000,4281.666504,4263.461426,4315.897461,4279.230957,4263.846191,4276.794922,4334.230957,4402.692383,4296.282227,4268.974121,4477.307617,4513.974121,4337.692383,4408.717773,1573.000000,1.000000,23.000000,,,,0.000000,2.000000,2.000000,0.000000,4.000000,2.000000,2.000000,0.000000,0.000000,4.000000,4.000000,4.000000,4.000000,4.000000,4.000000,0.000000,,,,,,,,,,,,,,,,,,,,,,,,,,,,
1732157708.504673,1732157708.507922,80.000000,0.000000,4280.769043,4265.000000,4313.589844,4283.333496,4263.974121,4267.563965,4333.589844,4405.256348,4296.794922,4278.846191,4477.820313,4516.153809,4343.717773,4411.410156,1703.000000,1.000000,23.000000,,,,0.000000,2.000000,2.000000,0.000000,4.000000,2.000000,2.000000,0.000000,0.000000,4.000000,4.000000,4.000000,4.000000,4.000000,4.000000,0.000000,,,,,,,,,,,,,,,,,20.000000,0.000000,0.502803,0.494690,-0.529358,0.471436,0.987425,-0.000977,-0.056159,-34.671444,46.025570,31.232613
1732157708.512482,1732157708.515730,81.000000,0.000000,4282.307617,4264.871582,4311.025879,4285.000000,4264.487305,4267.563965,4335.384766,4405.128418,4296.538574,4281.282227,4478.333496,4515.897461,4340.769043,4408.717773,1628.000000,1.000000,23.000000,,,,0.000000,2.000000,2.000000,0.000000,4.000000,2.000000,2.000000,0.000000,0.000000,4.000000,4.000000,4.000000,4.000000,4.000000,4.000000,0.000000,,,,,,,,,,,,,,,,,,,,,,,,,,,,
1732157708.520290,1732157708.523339,82.000000,0.000000,4285.641113,4263.333496,4313.077148,4284.102539,4264.487305,4277.820313,4332.307617,4403.846191,4295.641113,4269.871582,4476.666504,4513.589844,4334.230957,4406.410156,1546.000000,1.000000,23.000000,,,,0.000000,2.000000,2.000000,0.000000,4.000000,2.000000,2.000000,0.000000,0.000000,4.000000,4.000000,4.000000,4.000000,4.000000,4.000000,0.000000,,,,,,,,,,,,,,,,,,,,,,,,,,,,
1732157708.528098,1732157708.531147,83.000000,0.000000,4286.410156,4263.205078,4316.538574,4282.563965,4264.230957,4275.256348,4329.871582,4405.384766,4293.077148,4270.256348,4473.077148,4515.384766,4333.205078,4409.743652,1573.000000,1.000000,23.000000,,,,0.000000,2.000000,2.000000,0.000000,4.000000,2.000000,2.000000,0.000000,0.000000,4.000000,4.000000,4.000000,4.000000,4.000000,4.000000,0.000000,,,,,,,,,,,,,,,,,,,,,,,,,,,,
1732157708.535906,1732157708.538855,84.000000,0.000000,4290.256348,4264.102539,4313.333496,4284.487305,4262.692383,4264.615234,4331.410156,4404.358887,4293.846191,4276.922852,4473.205078,4515.256348,4335.256348,4412.692383,1703.000000,1.000000,23.000000,,,,0.000000,2.000000,2.000000,0.000000,4.000000,2.000000,2.000000,0.000000,0.000000,4.000000,4.000000,4.000000,4.000000,4.000000,4.000000,0.000000,,,,,,,,,,,,,,,,,21.000000,0.000000,0.500815,0.493042,-0.530762,0.473694,0.981077,-0.019045,-0.043951,-34.818871,45.824043,31.203417
1732157708.543715,1732157708.546663,85.000000,0.000000,4293.846191,4265.384766,4309.743652,4290.769043,4262.307617,4265.897461,4332.179688,4404.230957,4298.333496,4270.256348,4476.922852,4511.794922,4333.846191,4413.461426,1628.000000,1.000000,23.000000,,,,0.000000,2.000000,2.000000,0.000000,4.000000,2.000000,2.000000,0.000000,0.000000,4.000000,4.000000,4.000000,4.000000,4.000000,4.000000,0.000000,,,,,,,,,,,,,,,,,,,,,,,,,,,,
1732157708.551523,1732157708.554272,86.000000,0.000000,4294.743652,4265.256348,4314.743652,4294.358887,4262.948730,4269.487305,4330.897461,4404.102539,4297.051270,4263.205078,4478.589844,4514.615234,4332.563965,4412.436035,1546.000000,1.000000,23.000000,,,,0.000000,2.000000,2.000000,0.000000,4.000000,2.000000,2.000000,0.000000,0.000000,4.000000,4.000000,4.000000,4.000000,4.000000,4.000000,0.000000,,,,,,,,,,,,,,,,,,,,,,,,,,,,
1732157708.559331,1732157708.562080,87.000000,0.000000,4298.717773,4264.743652,4317.692383,4293.077148,4262.436035,4265.641113,4330.897461,4401.922852,4291.794922,4267.051270,4477.692383,4520.897461,4335.769043,4414.487305,1573.000000,1.000000,23.000000,,,,0.000000,2.000000,2.000000,0.000000,4.000000,2.000000,2.000000,0.000000,0.000000,4.000000,4.000000,4.000000,4.000000,4.000000,4.000000,0.000000,,,,,,,,,,,,,,,,,,,,,,,,,,,,
1732157708.567140,1732157708.569788,88.000000,0.000000,4306.410156,4269.743652,4314.871582,4290.897461,4262.051270,4265.512695,4337.051270,4401.922852,4294.102539,4269.871582,4482.179688,4522.436035,4341.025879,4423.461426,1703.000000,1.000000,23.000000,,,,0.000000,2.000000,2.000000,0.000000,4.000000,2.000000,2.000000,0.000000,0.000000,4.000000,4.000000,4.000000,4.000000,4.000000,4.000000,0.000000,,,,,,,,,,,,,,,,,22.000000,0.000000,0.499610,0.492249,-0.531433,0.475037,0.969845,-0.028324,-0.046392,-34.926617,45.809143,30.981434
1732157708.574948,1732157708.577596,89.000000,0.000000,4308.974121,4277.179688,4313.974121,4288.974121,4263.589844,4270.000000,4344.487305,4403.974121,4296.025879,4264.871582,4489.487305,4522.692383,4346.666504,4428.717773,1628.000000,1.000000,23.000000,,,,0.000000,2.000000,2.000000,0.000000,4.000000,2.000000,2.000000,0.000000,0.000000,4.000000,4.000000,4.000000,4.000000,4.000000,4.000000,0.000000,,,,,,,,,,,,,,,,,,,,,,,,,,,,
1732157708.582756,1732157708.585205,90.000000,0.000000,4310.897461,4278.589844,4315.128418,4291.922852,4260.128418,4267.692383,4342.436035,4405.256348,4291.410156,4264.230957,4490.128418,4522.948730,4349.743652,4429.743652,1546.000000,1.000000,23.000000,,,,0.000000,2.000000,2.000000,0.000000,4.000000,2.000000,2.000000,0.000000,0.000000,4.000000,4.000000,4.000000,4.000000,4.000000,4.000000,0.000000,,,,,,,,,,,,,,,,,,,,,,,,,,,,
1732157708.590564,1732157708.593013,91.000000,0.000000,4317.563965,4277.436035,4315.256348,4296.025879,4250.897461,4260.769043,4336.025879,4404.102539,4292.307617,4271.153809,4488.077148,4525.512695,4350.384766,4440.000000,1573.000000,1.000000,23.000000,,,,0.000000,2.000000,2.000000,0.000000,4.000000,2.000000,2.000000,0.000000,0.000000,4.000000,4.000000,4.000000,4.000000,4.000000,4.000000,0.000000,,,,,,,,,,,,,,,,,,,,,,,,,,,,
1732157708.598372,1732157708.600721,92.000000,0.000000,4319.743652,4278.077148,4312.948730,4287.051270,4246.153809,4261.794922,4334.743652,4401.025879,4296.922852,4278.717773,4491.282227,4527.307617,4353.974121,4447.307617,1703.000000,1.000000,23.000000,,,,0.000000,2.000000,2.000000,0.000000,4.000000,2.000000,2.000000,0.000000,0.000000,4.000000,4.000000,4.000000,4.000000,4.000000,4.000000,0.000000,,,,,,,,,,,,,,,,,23.000000,0.000000,0.499007,0.491882,-0.531738,0.475708,0.988402,-0.023929,-0.045416,-34.972229,45.697071,31.023294
1732157708.606181,1732157708.608530,93.000000,0.000000,4320.256348,4279.230957,4313.461426,4279.230957,4250.384766,4265.641113,4337.307617,4399.871582,4296.922852,4278.461426,4492.692383,4524.871582,4361.282227,4445.000000,1628.000000,1.000000,23.000000,,,,0.000000,2.000000,2.000000,0.000000,4.000000,2.000000,2.000000,0.000000,0.000000,4.000000,4.000000,4.000000,4.000000,4.000000,4.000000,0.000000,,,,,,,,,,,,,,,,,,,,,,,,,,,,
1732157708.613989,1732157708.616138,94.000000,0.000000,4328.717773,4281.794922,4314.871582,4288.461426,4250.897461,4261.538574,4338.461426,4404.102539,4295.641113,4275.256348,4493.974121,4525.769043,4367.692383,4450.641113,1546.000000,1.000000,23.000000,,,,0.000000,2.000000,2.000000,0.000000,4.000000,2.000000,2.000000,0.000000,0.000000,4.000000,4.000000,4.000000,4.000000,4.000000,4.000000,0.000000,,,,,,,,,,,,,,,,,,,,,,,,,,,,
1732157708.621797,1732157708.623946,95.000000,0.000000,4337.436035,4283.205078,4315.000000,4291.666504,4243.717773,4258.589844,4336.025879,4405.128418,4295.769043,4280.769043,4501.282227,4534.358887,4367.948730,4461.538574,1573.000000,1.000000,23.000000,,,,0.000000,2.000000,2.000000,0.000000,4.000000,2.000000,2.000000,0.000000,0.000000,4.000000,4.000000,4.000000,4.000000,4.000000,4.000000,0.000000,,,,,,,,,,,,,,,,,,,,,,,,,,,,
1732157708.629605,1732157708.631655,96.000000,0.000000,4335.769043,4281.025879,4315.256348,4281.666504,4252.051270,4261.025879,4332.948730,4401.538574,4294.871582,4280.897461,4505.384766,4536.538574,4365.769043,4460.897461,1703.000000,1.000000,23.000000,,,,0.000000,2.000000,2.000000,0.000000,4.000000,2.000000,2.000000,0.000000,0.000000,4.000000,4.000000,4.000000,4.000000,4.000000,4.000000,0.000000,,,,,,,,,,,,,,,,,24.000000,0.000000,0.498178,0.490601,-0.532715,0.476807,0.975217,-0.043951,-0.044439,-35.157505,45.474628,31.192202
1732157708.637414,1732157708.639463,97.000000,0.000000,4333.461426,4280.000000,4313.205078,4279.487305,4263.974121,4260.512695,4332.820313,4403.077148,4293.077148,4270.512695,4502.179688,4523.333496,4370.897461,4456.410156,1628.000000,1.000000,23.000000,,,,0.000000,2.000000,2.000000,0.000000,4.000000,2.000000,2.000000,0.000000,0.000000,4.000000,4.000000,4.000000,4.000000,4.000000,4.000000,0.000000,,,,,,,,,,,,,,,,,,,,,,,,,,,,
1732157708.645222,1732157708.647071,98.000000,0.000000,4335.384766,4278.333496,4308.333496,4282.692383,4247.563965,4261.282227,4334.358887,4402.179688,4291.666504,4269.743652,4501.666504,4517.948730,4380.512695,4464.487305,1546.000000,1.000000,23.000000,,,,0.000000,2.000000,2.000000,0.000000,4.000000,2.000000,2.000000,0.000000,0.000000,4.000000,4.000000,4.000000,4.000000,4.000000,4.000000,0.000000,,,,,,,,,,,,,,,,,,,,,,,,,,,,
1732157708.653030,1732157708.654879,99.000000,0.000000,4336.922852,4275.769043,4310.769043,4281.666504,4231.410156,4264.871582,4335.000000,4400.128418,4291.410156,4279.615234,4506.922852,4531.922852,4385.128418,4476.794922,1573.000000,1.000000,23.000000,,,,0.000000,2.000000,2.000000,0.000000,4.000000,2.000000,2.000000,0.000000,0.000000,4.000000,4.000000,4.000000,4.000000,4.000000,4.000000,0.000000,,,,,,,,,,,,,,,,,,,,,,,,,,,,
1732157708.660838,1732157708.662588,100.000000,0.000000,4337.436035,4274.230957,4315.256348,4281.666504,4238.077148,4264.487305,4334.487305,4401.794922,4293.461426,4282.820313,4508.717773,4535.897461,4385.897461,4478.717773,1703.000000,1.000000,23.000000,,,,0.000000,2.000000,2.000000,0.000000,4.000000,2.000000,2.000000,0.000000,0.000000,4.000000,4.000000,4.000000,4.000000,4.000000,4.000000,0.000000,,,,,,,,,,,,,,,,,25.000000,0.000000,0.497149,0.488281,-0.534546,0.478210,0.981565,-0.044439,-0.039556,-35.140911,45.194450,31.145683
1732157708.668647,1732157708.670396,101.000000,0.000000,4338.077148,4270.256348,4313.846191,4282.051270,4240.000000,4262.436035,4334.230957,4402.179688,4293.589844,4279.487305,4506.025879,4527.179688,4389.230957,4477.563965,1628.000000,1.000000,23.000000,,,,0.000000,2.000000,2.000000,0.000000,4.000000,2.000000,2.000000,0.000000,0.000000,4.000000,4.000000,4.000000,4.000000,4.000000,4.000000,0.000000,,,,,,,,,,,,,,,,,,,,,,,,,,,,
1732157708.676455,1732157708.678004,102.000000,0.000000,4340.000000,4265.384766,4313.461426,4281.153809,4238.589844,4265.000000,4333.717773,4400.512695,4293.846191,4280.897461,4505.512695,4528.205078,4389.102539,4478.974121,1546.000000,1.000000,23.000000,,,,0.000000,2.000000,2.000000,0.000000,4.000000,2.000000,2.000000,0.000000,0.000000,4.000000,4.000000,4.000000,4.000000,4.000000,4.000000,0.000000,,,,,,,,,,,,,,,,,,,,,,,,,,,,
1732157708.684263,1732157708.685813,103.000000,0.000000,4339.615234,4265.000000,4315.512695,4280.897461,4242.179688,4265.769043,4334.102539,4401.410156,4294.615234,4281.794922,4506.922852,4531.153809,4388.974121,4478.717773,1573.000000,1.000000,23.000000,,,,0.000000,2.000000,2.000000,0.000000,4.000000,2.000000,2.000000,0.000000,0.000000,4.000000,4.000000,4.000000,4.000000,4.000000,4.000000,0.000000,,,,,,,,,,,,,,,,,,,,,,,,,,,,
1732157708.692071,1732157708.693521,104.000000,0.000000,4336.282227,4266.282227,4314.615234,4278.846191,4237.051270,4259.615234,4337.436035,4401.282227,4290.384766,4278.461426,4504.871582,4523.461426,4394.487305,4475.256348,1703.000000,1.000000,23.000000,,,,0.000000,2.000000,2.000000,0.000000,4.000000,2.000000,2.000000,0.000000,0.000000,4.000000,4.000000,4.000000,4.000000,4.000000,4.000000,0.000000,,,,,,,,,,,,,,,,,26.000000,0.000000,0.496779,0.488098,-0.534729,0.478577,0.981565,-0.044439,-0.039556,-35.199139,45.150837,30.894670
1732157708.699880,1732157708.701329,105.000000,0.000000,4333.974121,4264.871582,4312.692383,4276.025879,4235.512695,4258.589844,4336.282227,4400.769043,4290.512695,4282.436035,4507.820313,4523.077148,4397.948730,4476.153809,1628.000000,1.000000,23.000000,,,,0.000000,2.000000,2.000000,0.000000,4.000000,2.000000,2.000000,0.000000,0.000000,4.000000,4.000000,4.000000,4.000000,4.000000,4.000000,0.000000,,,,,,,,,,,,,,,,,,,,,,,,,,,,
1732157708.707688,1732157708.709337,106.000000,0.000000,4337.307617,4263.846191,4312.563965,4274.358887,4246.025879,4264.871582,4331.794922,4400.769043,4295.769043,4289.743652,4519.102539,4532.948730,4400.512695,4483.589844,1546.000000,1.000000,23.000000,,,,0.000000,2.000000,2.000000,0.000000,4.000000,2.000000,2.000000,0.000000,0.000000,4.000000,4.000000,4.000000,4.000000,4.000000,4.000000,0.000000,,,,,,,,,,,,,,,,,,,,,,,,,,,,
1732157708.715496,1732157708.717145,107.000000,0.000000,4341.282227,4264.743652,4314.102539,4275.256348,4250.256348,4266.666504,4332.563965,4398.333496,4295.256348,4291.922852,4523.974121,4533.974121,4405.641113,4490.256348,1573.000000,1.000000,23.000000,,,,0.000000,2.000000,2.000000,0.000000,4.000000,2.000000,2.000000,0.000000,0.000000,4.000000,4.000000,4.000000,4.000000,4.000000,4.000000,0.000000,,,,,,,,,,,,,,,,,,,,,,,,,,,,
1732157708.723304,1732157708.725053,108.000000,0.000000,4338.333496,4265.897461,4316.922852,4277.436035,4241.794922,4263.333496,4335.512695,4400.256348,4293.589844,4292.563965,4520.256348,4531.153809,4407.820313,4488.077148,1703.000000,1.000000,23.000000,,,,0.000000,2.000000,2.000000,0.000000,4.000000,2.000000,2.000000,0.000000,0.000000,4.000000,4.000000,4.000000,4.000000,4.000000,4.000000,0.000000,,,,,,,,,,,,,,,,,27.000000,0.000000,0.495876,0.487488,-0.535522,0.479248,1.005982,-0.031254,-0.041997,-35.224636,45.090511,30.946350
1732157708.731113,1732157708.732862,109.000000,0.000000,4334.358887,4266.153809,4316.794922,4278.717773,4245.641113,4261.282227,4334.230957,4404.743652,4296.666504,4294.743652,4519.487305,4533.461426,4404.102539,4485.128418,1628.000000,1.000000,23.000000,,,,0.000000,2.000000,2.000000,0.000000,4.000000,2.000000,2.000000,0.000000,0.000000,4.000000,4.000000,4.000000,4.000000,4.000000,4.000000,0.000000,,,,,,,,,,,,,,,,,,,,,,,,,,,,
1732157708.738921,1732157708.740870,110.000000,0.000000,4338.974121,4265.512695,4313.717773,4279.102539,4261.025879,4261.410156,4333.846191,4401.666504,4296.922852,4294.487305,4521.538574,4536.025879,4403.205078,4489.615234,1546.000000,1.000000,23.000000,,,,0.000000,2.000000,2.000000,0.000000,4.000000,2.000000,2.000000,0.000000,0.000000,4.000000,4.000000,4.000000,4.000000,4.000000,4.000000,0.000000,,,,,,,,,,,,,,,,,,,,,,,,,,,,
1732157708.746729,1732157708.748678,111.000000,0.000000,4342.692383,4265.512695,4313.589844,4278.717773,4253.717773,4262.051270,4334.615234,4398.974121,4295.256348,4294.230957,4521.282227,4531.794922,4407.436035,4491.410156,1573.000000,1.000000,23.000000,,,,0.000000,2.000000,2.000000,0.000000,4.000000,2.000000,2.000000,0.000000,0.000000,4.000000,4.000000,4.000000,4.000000,4.000000,4.000000,0.000000,,,,,,,,,,,,,,,,,,,,,,,,,,,,
1732157708.754537,1732157708.756586,112.000000,0.000000,4336.922852,4266.153809,4313.846191,4278.846191,4229.358887,4262.563965,4332.436035,4400.769043,4297.179688,4294.487305,4520.897461,4528.589844,4411.922852,4487.179688,1703.000000,1.000000,23.000000,,,,0.000000,2.000000,2.000000,0.000000,4.000000,2.000000,2.000000,0.000000,0.000000,4.000000,4.000000,4.000000,4.000000,4.000000,4.000000,0.000000,,,,,,,,,,,,,,,,,28.000000,0.000000,0.494840,0.487915,-0.536255,0.479065,0.992309,-0.038091,-0.043462,-35.416954,45.009979,30.936543
1732157708.762346,1732157708.764394,113.000000,0.000000,4337.820313,4265.000000,4312.948730,4280.000000,4229.230957,4263.589844,4333.205078,4400.897461,4296.922852,4292.820313,4521.410156,4535.128418,4413.461426,4488.717773,1628.000000,1.000000,23.000000,,,,0.000000,2.000000,2.000000,0.000000,4.000000,2.000000,2.000000,0.000000,0.000000,4.000000,4.000000,4.000000,4.000000,4.000000,4.000000,0.000000,,,,,,,,,,,,,,,,,,,,,,,,,,,,
1732157708.770154,1732157708.772003,114.000000,0.000000,4341.666504,4265.769043,4312.436035,4280.641113,4244.230957,4264.487305,4335.769043,4400.897461,4296.538574,4293.461426,4521.922852,4540.000000,4406.922852,4492.436035,1546.000000,1.000000,23.000000,,,,0.000000,2.000000,2.000000,0.000000,4.000000,2.000000,2.000000,0.000000,0.000000,4.000000,4.000000,4.000000,4.000000,4.000000,4.000000,0.000000,,,,,,,,,,,,,,,,,,,,,,,,,,,,
1732157708.777962,1732157708.779811,115.000000,0.000000,4335.641113,4272.436035,4313.333496,4280.128418,4243.846191,4263.205078,4335.256348,4402.436035,4297.051270,4292.179688,4522.436035,4537.179688,4401.282227,4486.410156,1573.000000,1.000000,23.000000,,,,0.000000,2.000000,2.000000,0.000000,4.000000,2.000000,2.000000,0.000000,0.000000,4.000000,4.000000,4.000000,4.000000,4.000000,4.000000,0.000000,,,,,,,,,,,,,,,,,,,,,,,,,,,,
1732157708.785770,1732157708.787519,116.000000,0.000000,4332.051270,4273.717773,4314.615234,4278.974121,4244.487305,4262.179688,4335.641113,4401.922852,4294.487305,4288.589844,4520.512695,4536.410156,4407.948730,4480.769043,1703.000000,1.000000,23.000000,,,,0.000000,2.000000,2.000000,0.000000,4.000000,2.000000,2.000000,0.000000,0.000000,4.000000,4.000000,4.000000,4.000000,4.000000,4.000000,0.000000,,,,,,,,,,,,,,,,,29.000000,0.000000,0.494456,0.488342,-0.536438,0.478821,0.974728,-0.034184,-0.049811,-35.389400,45.061417,30.978600
1732157708.793579,1732157708.795327,117.000000,0.000000,4335.641113,4267.051270,4315.897461,4279.615234,4245.897461,4263.205078,4336.666504,4400.128418,4295.641113,4292.948730,4520.384766,4543.205078,4411.794922,4485.897461,1628.000000,1.000000,23.000000,,,,0.000000,2.000000,2.000000,0.000000,4.000000,2.000000,2.000000,0.000000,0.000000,4.000000,4.000000,4.000000,4.000000,4.000000,4.000000,0.000000,,,,,,,,,,,,,,,,,,,,,,,,,,,,
1732157708.801387,1732157708.803335,118.000000,0.000000,4333.205078,4263.974121,4313.717773,4278.077148,4241.922852,4261.153809,4336.025879,4400.000000,4300.512695,4298.333496,4523.333496,4542.179688,4403.974121,4490.000000,1546.000000,1.000000,23.000000,,,,0.000000,2.000000,2.000000,0.000000,4.000000,2.000000,2.000000,0.000000,0.000000,4.000000,4.000000,4.000000,4.000000,4.000000,4.000000,0.000000,,,,,,,,,,,,,,,,,,,,,,,,,,,,
1732157708.809195,1732157708.811143,119.000000,0.000000,4330.128418,4265.384766,4310.512695,4274.743652,4255.384766,4261.282227,4334.743652,4400.769043,4298.333496,4291.922852,4522.436035,4535.641113,4402.820313,4486.538574,1573.000000,1.000000,23.000000,,,,0.000000,2.000000,2.000000,0.000000,4.000000,2.000000,2.000000,0.000000,0.000000,4.000000,4.000000,4.000000,4.000000,4.000000,4.000000,0.000000,,,,,,,,,,,,,,,,,,,,,,,,,,,,
1732157708.817003,1732157708.819052,120.000000,0.000000,4334.102539,4265.000000,4312.692383,4275.897461,4259.230957,4262.563965,4334.230957,4400.897461,4293.333496,4288.205078,4520.000000,4536.025879,4407.948730,4479.615234,1703.000000,1.000000,23.000000,,,,0.000000,2.000000,2.000000,0.000000,4.000000,2.000000,2.000000,0.000000,0.000000,4.000000,4.000000,4.000000,4.000000,4.000000,4.000000,0.000000,,,,,,,,,,,,,,,,,30.000000,0.000000,0.494553,0.488342,-0.536621,0.478516,0.963985,-0.034672,-0.041021,-35.632080,45.113083,31.330999
1732157708.824812,1732157708.826860,121.000000,0.000000,4335.000000,4262.948730,4314.743652,4280.000000,4240.512695,4257.563965,4336.153809,4402.692383,4296.538574,4293.974121,4520.512695,4540.769043,4402.692383,4476.282227,1628.000000,1.000000,23.000000,,,,0.000000,2.000000,2.000000,0.000000,4.000000,2.000000,2.000000,0.000000,0.000000,4.000000,4.000000,4.000000,4.000000,4.000000,4.000000,0.000000,,,,,,,,,,,,,,,,,,,,,,,,,,,,
1732157708.832620,1732157708.834868,122.000000,0.000000,4332.820313,4263.333496,4312.692383,4280.000000,4235.641113,4258.461426,4337.436035,4401.025879,4297.820313,4290.128418,4520.641113,4541.025879,4400.512695,4477.948730,1546.000000,1.000000,23.000000,,,,0.000000,2.000000,2.000000,0.000000,4.000000,2.000000,2.000000,0.000000,0.000000,4.000000,4.000000,4.000000,4.000000,4.000000,4.000000,0.000000,,,,,,,,,,,,,,,,,,,,,,,,,,,,
1732157708.840428,1732157708.842676,123.000000,0.000000,4334.743652,4264.487305,4312.563965,4279.230957,4248.461426,4262.948730,4334.487305,4397.820313,4291.922852,4280.128418,4520.769043,4538.717773,4404.358887,4478.461426,1573.000000,1.000000,23.000000,,,,0.000000,2.000000,2.000000,0.000000,4.000000,2.000000,2.000000,0.000000,0.000000,4.000000,4.000000,4.000000,4.000000,4.000000,4.000000,0.000000,,,,,,,,,,,,,,,,,,,,,,,,,,,,
1732157708.848236,1732157708.850584,124.000000,0.000000,4333.846191,4265.769043,4314.615234,4279.743652,4249.487305,4261.025879,4332.051270,4398.846191,4291.153809,4278.205078,4515.769043,4539.102539,4401.025879,4474.230957,1703.000000,1.000000,23.000000,,,,0.000000,2.000000,2.000000,0.000000,4.000000,2.000000,2.000000,0.000000,0.000000,4.000000,4.000000,4.000000,4.000000,4.000000,4.000000,0.000000,,,,,,,,,,,,,,,,,31.000000,0.000000,0.494900,0.488342,-0.536682,0.478088,0.952265,-0.008302,-0.064461,-35.646984,45.096596,31.208109
1732157708.856044,1732157708.858392,125.000000,0.000000,4329.358887,4266.025879,4315.384766,4279.615234,4243.717773,4261.282227,4334.358887,4401.282227,4296.282227,4282.436035,4508.461426,4536.922852,4396.410156,4472.307617,1628.000000,1.000000,23.000000,,,,0.000000,2.000000,2.000000,0.000000,4.000000,2.000000,2.000000,0.000000,0.000000,4.000000,4.000000,4.000000,4.000000,4.000000,4.000000,0.000000,,,,,,,,,,,,,,,,,,,,,,,,,,,,
1732157708.863853,1732157708.866400,126.000000,0.000000,4332.563965,4266.538574,4315.641113,4283.077148,4246.922852,4266.282227,4336.922852,4400.384766,4298.974121,4290.641113,4513.717773,4535.769043,4397.436035,4474.743652,1546.000000,1.000000,23.000000,,,,0.000000,2.000000,2.000000,0.000000,4.000000,2.000000,2.000000,0.000000,0.000000,4.000000,4.000000,4.000000,4.000000,4.000000,4.000000,0.000000,,,,,,,,,,,,,,,,,,,,,,,,,,,,
1732157708.871661,1732157708.874208,127.000000,0.000000,4335.256348,4266.666504,4313.974121,4285.128418,4251.538574,4264.230957,4333.333496,4399.358887,4298.333496,4297.436035,4521.538574,4537.307617,4399.487305,4475.000000,23.000000,1.000000,23.000000,,,,0.000000,2.000000,2.000000,0.000000,4.000000,2.000000,2.000000,0.000000,0.000000,4.000000,4.000000,4.000000,4.000000,4.000000,4.000000,0.000000,,,,,,,,,,,,,,,,,,,,,,,,,,,,
1732157708.879469,1732157708.882117,0.000000,0.000000,4327.692383,4265.384766,4310.897461,4281.025879,4250.384766,4260.256348,4328.717773,4399.487305,4295.641113,4291.282227,4513.461426,4533.333496,4399.743652,4472.436035,0.000000,1.000000,23.000000,,,,0.000000,2.000000,2.000000,0.000000,4.000000,2.000000,2.000000,0.000000,0.000000,4.000000,4.000000,4.000000,4.000000,4.000000,4.000000,0.000000,,,,,,,,,,,,,,,,,0.000000,0.000000,0.495235,0.488098,-0.536377,0.478333,0.972775,-0.020999,-0.044439,-35.742390,45.106575,31.268568
1732157708.887277,1732157708.889925,1.000000,0.000000,4324.230957,4265.897461,4313.205078,4279.615234,4245.256348,4262.948730,4327.948730,4398.589844,4294.871582,4287.563965,4506.025879,4532.051270,4399.743652,4472.179688,1599.000000,1.000000,23.000000,,,,0.000000,2.000000,2.000000,0.000000,4.000000,2.000000,2.000000,0.000000,0.000000,4.000000,4.000000,4.000000,4.000000,4.000000,4.000000,0.000000,,,,,,,,,,,,,,,,,,,,,,,,,,,,
1732157708.895086,1732157708.897533,2.000000,0.000000,4325.512695,4265.769043,4315.256348,4281.666504,4257.820313,4262.820313,4330.000000,4399.487305,4297.692383,4293.077148,4510.512695,4537.820313,4398.717773,4473.974121,1369.000000,1.000000,23.000000,,,,0.000000,2.000000,2.000000,0.000000,4.000000,2.000000,2.000000,0.000000,0.000000,4.000000,4.000000,4.000000,4.000000,4.000000,4.000000,0.000000,,,,,,,,,,,,,,,,,,,,,,,,,,,,
1732157708.902894,1732157708.905341,3.000000,0.000000,4320.769043,4264.487305,4313.205078,4280.128418,4271.410156,4262.692383,4332.820313,4400.769043,4296.025879,4288.205078,4509.743652,4538.589844,4396.538574,4470.641113,1416.000000,1.000000,23.000000,,,,0.000000,2.000000,2.000000,0.000000,4.000000,2.000000,2.000000,0.000000,0.000000,4.000000,4.000000,4.000000,4.000000,4.000000,4.000000,0.000000,,,,,,,,,,,,,,,,,,,,,,,,,,,,
1732157708.910702,1732157708.913050,4.000000,0.000000,4319.871582,4264.743652,4313.077148,4280.000000,4254.871582,4266.794922,4335.641113,4401.410156,4296.153809,4279.871582,4506.794922,4536.025879,4391.153809,4464.358887,1442.000000,1.000000,23.000000,,,,0.000000,2.000000,2.000000,0.000000,4.000000,2.000000,2.000000,0.000000,0.000000,4.000000,4.000000,4.000000,4.000000,4.000000,4.000000,0.000000,,,,,,,,,,,,,,,,,1.000000,0.000000,0.495146,0.488098,-0.536133,0.478699,0.971798,-0.027347,-0.053717,-35.473003,45.071327,31.152540
1732157708.918511,1732157708.920858,5.000000,0.000000,4325.641113,4265.769043,4316.153809,4287.692383,4242.179688,4268.846191,4336.410156,4403.974121,4301.025879,4282.051270,4509.487305,4538.205078,4385.000000,4463.461426,1214.000000,1.000000,23.000000,,,,0.000000,2.000000,2.000000,0.000000,4.000000,2.000000,2.000000,0.000000,0.000000,4.000000,4.000000,4.000000,4.000000,4.000000,4.000000,0.000000,,,,,,,,,,,,,,,,,,,,,,,,,,,,
1732157708.926319,1732157708.928466,6.000000,0.000000,4327.436035,4268.717773,4316.282227,4294.743652,4251.282227,4265.897461,4335.000000,4403.333496,4300.769043,4289.487305,4509.102539,4539.102539,4388.589844,4462.436035,0.000000,1.000000,23.000000,,,,0.000000,2.000000,2.000000,0.000000,4.000000,2.000000,2.000000,0.000000,0.000000,4.000000,4.000000,4.000000,4.000000,4.000000,4.000000,0.000000,,,,,,,,,,,,,,,,,,,,,,,,,,,,
1732157708.934127,1732157708.936275,7.000000,0.000000,4328.589844,4270.769043,4316.538574,4296.538574,4253.589844,4263.717773,4334.487305,4401.282227,4299.102539,4292.948730,4506.025879,4540.512695,4394.358887,4462.436035,0.000000,1.000000,23.000000,,,,0.000000,2.000000,2.000000,0.000000,4.000000,2.000000,2.000000,0.000000,0.000000,4.000000,4.000000,4.000000,4.000000,4.000000,4.000000,0.000000,,,,,,,,,,,,,,,,,,,,,,,,,,,,
1732157708.941935,1732157708.943983,8.000000,0.000000,4331.282227,4268.717773,4317.820313,4295.769043,4252.051270,4265.641113,4335.512695,4401.410156,4302.820313,4288.717773,4506.922852,4544.871582,4389.487305,4466.282227,1529.000000,1.000000,23.000000,,,,0.000000,2.000000,2.000000,0.000000,4.000000,2.000000,2.000000,0.000000,0.000000,4.000000,4.000000,4.000000,4.000000,4.000000,4.000000,0.000000,,,,,,,,,,,,,,,,,2.000000,0.000000,0.494950,0.487793,-0.535828,0.479553,0.980100,-0.025394,-0.044439,-35.858131,45.342773,30.996891
1732157708.949743,1732157708.951791,9.000000,0.000000,4328.077148,4265.256348,4314.487305,4295.897461,4260.512695,4265.769043,4335.000000,4400.128418,4299.743652,4281.922852,4508.205078,4541.538574,4381.794922,4465.769043,1681.000000,1.000000,23.000000,,,,0.000000,2.000000,2.000000,0.000000,4.000000,2.000000,2.000000,0.000000,0.000000,4.000000,4.000000,4.000000,4.000000,4.000000,4.000000,0.000000,,,,,,,,,,,,,,,,,,,,,,,,,,,,
1732157708.957552,1732157708.959400,10.000000,0.000000,4324.615234,4265.512695,4314.230957,4296.153809,4265.512695,4265.769043,4332.948730,4398.333496,4285.128418,4279.871582,4504.102539,4534.358887,4379.871582,4460.641113,1539.000000,1.000000,23.000000,,,,0.000000,2.000000,2.000000,0.000000,4.000000,2.000000,2.000000,0.000000,0.000000,4.000000,4.000000,4.000000,4.000000,4.000000,4.000000,0.000000,,,,,,,,,,,,,,,,,,,,,,,,,,,,
1732157708.965360,1732157708.967208,11.000000,0.000000,4326.282227,4266.794922,4318.077148,4295.384766,4265.512695,4266.410156,4331.794922,4399.871582,4280.769043,4279.230957,4501.410156,4536.410156,4376.922852,4459.743652,1566.000000,1.000000,23.000000,,,,0.000000,2.000000,2.000000,0.000000,4.000000,2.000000,2.000000,0.000000,0.000000,4.000000,4.000000,4.000000,4.000000,4.000000,4.000000,0.000000,,,,,,,,,,,,,,,,,,,,,,,,,,,,
1732157708.973168,1732157708.974916,12.000000,0.000000,4324.102539,4265.769043,4317.307617,4296.153809,4262.307617,4268.846191,4333.717773,4402.692383,4291.153809,4277.436035,4505.256348,4541.282227,4369.871582,4460.512695,1703.000000,1.000000,23.000000,,,,0.000000,2.000000,2.000000,0.000000,4.000000,2.000000,2.000000,0.000000,0.000000,4.000000,4.000000,4.000000,4.000000,4.000000,4.000000,0.000000,,,,,,,,,,,,,,,,,3.000000,0.000000,0.494536,0.487305,-0.535889,0.480408,0.986449,-0.034672,-0.041509,-35.843422,45.314316,31.005816
1732157708.980976,1732157708.982724,13.000000,0.000000,4317.179688,4263.205078,4315.512695,4295.384766,4269.358887,4268.205078,4335.000000,4401.410156,4296.538574,4278.333496,4503.461426,4533.461426,4363.333496,4455.256348,1628.000000,1.000000,23.000000,,,,0.000000,2.000000,2.000000,0.000000,4.000000,2.000000,2.000000,0.000000,0.000000,4.000000,4.000000,4.000000,4.000000,4.000000,4.000000,0.000000,,,,,,,,,,,,,,,,,,,,,,,,,,,,
1732157708.988785,1732157708.990333,14.000000,0.000000,4315.512695,4264.487305,4317.307617,4294.743652,4286.538574,4267.692383,4335.000000,4398.077148,4293.717773,4279.230957,4497.948730,4527.051270,4365.128418,4452.436035,1539.000000,1.000000,23.000000,,,,0.000000,2.000000,2.000000,0.000000,4.000000,2.000000,2.000000,0.000000,0.000000,4.000000,4.000000,4.000000,4.000000,4.000000,4.000000,0.000000,1.000000,0.000000,2.000000,2.000000,0.000000,4.000000,2.000000,2.000000,0.000000,0.000000,4.000000,4.000000,4.000000,4.000000,4.000000,4.000000,,,,,,,,,,,,
1732157708.996593,1732157708.998141,15.000000,0.000000,4324.230957,4270.384766,4316.666504,4297.948730,4279.358887,4272.820313,4334.230957,4397.948730,4293.846191,4280.384766,4501.153809,4534.487305,4375.128418,4452.436035,1566.000000,1.000000,23.000000,,,,0.000000,2.000000,2.000000,0.000000,4.000000,2.000000,2.000000,0.000000,0.000000,4.000000,4.000000,4.000000,4.000000,4.000000,4.000000,0.000000,,,,,,,,,,,,,,,,,,,,,,,,,,,,
1732157709.004401,1732157709.005849,16.000000,0.000000,4327.179688,4269.871582,4314.487305,4298.205078,4256.538574,4273.077148,4333.846191,4401.025879,4297.179688,4283.974121,4506.922852,4539.102539,4377.307617,4448.077148,0.000000,1.000000,23.000000,,,,0.000000,2.000000,2.000000,0.000000,4.000000,2.000000,2.000000,0.000000,0.000000,4.000000,4.000000,4.000000,4.000000,4.000000,4.000000,0.000000,,,,,,,,,,,,,,,,,4.000000,0.000000,0.493900,0.486877,-0.536316,0.481018,0.972775,-0.047369,-0.048346,-35.684837,45.447929,31.028044
1732157709.012210,1732157709.013657,17.000000,0.000000,4320.512695,4264.487305,4316.538574,4295.128418,4257.948730,4265.897461,4334.487305,4404.743652,4295.897461,4284.743652,4505.384766,4536.153809,4367.179688,4444.487305,0.000000,1.000000,23.000000,,,,0.000000,2.000000,2.000000,0.000000,4.000000,2.000000,2.000000,0.000000,0.000000,4.000000,4.000000,4.000000,4.000000,4.000000,4.000000,0.000000,,,,,,,,,,,,,,,,,,,,,,,,,,,,
1732157709.020018,1732157709.021266,18.000000,0.000000,4319.230957,4265.512695,4318.333496,4296.025879,4268.077148,4263.589844,4335.128418,4404.743652,4295.256348,4281.025879,4502.307617,4536.282227,4364.230957,4445.641113,0.000000,1.000000,23.000000,,,,0.000000,2.000000,2.000000,0.000000,4.000000,2.000000,2.000000,0.000000,0.000000,4.000000,4.000000,4.000000,4.000000,4.000000,4.000000,0.000000,,,,,,,,,,,,,,,,,,,,,,,,,,,,
1732157709.027826,1732157709.029074,19.000000,0.000000,4322.179688,4267.563965,4316.025879,4297.692383,4264.358887,4269.743652,4334.230957,4402.820313,4296.153809,4282.051270,4504.487305,4533.717773,4373.589844,4446.922852,0.000000,1.000000,23.000000,,,,0.000000,2.000000,2.000000,0.000000,4.000000,2.000000,2.000000,0.000000,0.000000,4.000000,4.000000,4.000000,4.000000,4.000000,4.000000,0.000000,,,,,,,,,,,,,,,,,,,,,,,,,,,,
1732157709.035634,1732157709.036782,20.000000,0.000000,4320.128418,4266.922852,4315.769043,4295.641113,4264.743652,4275.897461,4335.512695,4403.333496,4295.769043,4286.922852,4503.717773,4529.743652,4375.641113,4446.153809,0.000000,1.000000,23.000000,,,,0.000000,2.000000,2.000000,0.000000,4.000000,2.000000,2.000000,0.000000,0.000000,4.000000,4.000000,4.000000,4.000000,4.000000,4.000000,0.000000,,,,,,,,,,,,,,,,,5.000000,0.000000,0.493804,0.486511,-0.536682,0.481079,0.972287,-0.033207,-0.051764,-35.966385,45.489487,31.149382
1732157709.043442,1732157709.044591,21.000000,0.000000,4318.717773,4267.436035,4316.282227,4295.897461,4270.256348,4278.846191,4335.769043,4403.077148,4295.128418,4284.358887,4496.153809,4530.384766,4367.179688,4444.358887,0.000000,1.000000,23.000000,,,,0.000000,2.000000,2.000000,0.000000,4.000000,2.000000,2.000000,0.000000,0.000000,4.000000,4.000000,4.000000,4.000000,4.000000,4.000000,0.000000,,,,,,,,,,,,,,,,,,,,,,,,,,,,
1732157709.051251,1732157709.052199,22.000000,0.000000,4320.128418,4266.153809,4318.333496,4296.538574,4266.922852,4278.205078,4334.743652,4400.128418,4296.922852,4281.794922,4490.512695,4526.025879,4363.077148,4439.358887,0.000000,1.000000,23.000000,,,,0.000000,2.000000,2.000000,0.000000,4.000000,2.000000,2.000000,0.000000,0.000000,4.000000,4.000000,4.000000,4.000000,4.000000,4.000000,0.000000,,,,,,,,,,,,,,,,,,,,,,,,,,,,
1732157709.059059,1732157709.060007,23.000000,0.000000,4319.358887,4269.102539,4319.743652,4295.769043,4269.871582,4276.282227,4335.512695,4399.102539,4299.230957,4288.589844,4491.410156,4520.512695,4365.512695,4433.717773,0.000000,1.000000,23.000000,,,,0.000000,2.000000,2.000000,0.000000,4.000000,2.000000,2.000000,0.000000,0.000000,4.000000,4.000000,4.000000,4.000000,4.000000,4.000000,0.000000,,,,,,,,,,,,,,,,,,,,,,,,,,,,
1732157709.066867,1732157709.067715,24.000000,0.000000,4321.410156,4278.205078,4318.205078,4297.307617,4275.641113,4277.563965,4334.487305,4400.512695,4297.307617,4289.358887,4492.563965,4522.563965,4366.282227,4431.410156,0.000000,1.000000,23.000000,,,,0.000000,2.000000,2.000000,0.000000,4.000000,2.000000,2.000000,0.000000,0.000000,4.000000,4.000000,4.000000,4.000000,4.000000,4.000000,0.000000,,,,,,,,,,,,,,,,,6.000000,0.000000,0.493484,0.485718,-0.537476,0.481323,0.987425,-0.031742,-0.053717,-36.071106,45.351486,31.085999
1732157709.074675,1732157709.075524,25.000000,0.000000,4322.051270,4274.358887,4316.922852,4298.077148,4274.615234,4273.846191,4332.692383,4400.256348,4294.615234,4283.077148,4491.282227,4523.461426,4364.230957,4432.051270,0.000000,1.000000,23.000000,,,,0.000000,2.000000,2.000000,0.000000,4.000000,2.000000,2.000000,0.000000,0.000000,4.000000,4.000000,4.000000,4.000000,4.000000,4.000000,0.000000,,,,,,,,,,,,,,,,,,,,,,,,,,,,
1732157709.082484,1732157709.083532,26.000000,0.000000,4317.820313,4263.846191,4316.538574,4296.282227,4269.871582,4265.128418,4333.461426,4401.538574,4295.641113,4286.025879,4493.077148,4522.051270,4364.102539,4433.077148,0.000000,1.000000,23.000000,,,,0.000000,2.000000,2.000000,0.000000,4.000000,2.000000,2.000000,0.000000,0.000000,4.000000,4.000000,4.000000,4.000000,4.000000,4.000000,0.000000,,,,,,,,,,,,,,,,,,,,,,,,,,,,
1732157709.090292,1732157709.091340,27.000000,0.000000,4316.153809,4266.922852,4316.282227,4295.641113,4265.512695,4262.692383,4334.102539,4402.436035,4296.153809,4294.230957,4495.512695,4524.230957,4366.410156,4434.230957,0.000000,1.000000,23.000000,,,,0.000000,2.000000,2.000000,0.000000,4.000000,2.000000,2.000000,0.000000,0.000000,4.000000,4.000000,4.000000,4.000000,4.000000,4.000000,0.000000,,,,,,,,,,,,,,,,,,,,,,,,,,,,
1732157709.098100,1732157709.099248,28.000000,0.000000,4318.077148,4268.461426,4315.512695,4296.282227,4275.256348,4265.897461,4333.589844,4398.974121,4294.487305,4291.794922,4493.589844,4522.563965,4365.897461,4435.128418,0.000000,1.000000,23.000000,,,,0.000000,2.000000,2.000000,0.000000,4.000000,2.000000,2.000000,0.000000,0.000000,4.000000,4.000000,4.000000,4.000000,4.000000,4.000000,0.000000,,,,,,,,,,,,,,,,,7.000000,0.000000,0.493386,0.485229,-0.537842,0.481506,0.989867,-0.048834,-0.035649,-35.932594,45.268036,31.007994
1732157709.105909,1732157709.107056,29.000000,0.000000,4317.307617,4262.436035,4315.897461,4294.871582,4290.384766,4268.461426,4332.948730,4397.820313,4294.871582,4287.051270,4493.333496,4519.871582,4361.025879,4433.589844,0.000000,1.000000,23.000000,,,,0.000000,2.000000,2.000000,0.000000,4.000000,2.000000,2.000000,0.000000,0.000000,4.000000,4.000000,4.000000,4.000000,4.000000,4.000000,0.000000,,,,,,,,,,,,,,,,,,,,,,,,,,,,
1732157709.113717,1732157709.114665,30.000000,0.000000,4312.820313,4268.974121,4316.025879,4294.743652,4279.358887,4273.333496,4333.846191,4399.615234,4297.436035,4290.256348,4496.410156,4521.666504,4357.436035,4429.487305,0.000000,1.000000,23.000000,,,,0.000000,2.000000,2.000000,0.000000,4.000000,2.000000,2.000000,0.000000,0.000000,4.000000,4.000000,4.000000,4.000000,4.000000,4.000000,0.000000,,,,,,,,,,,,,,,,,,,,,,,,,,,,
1732157709.121525,1732157709.122473,31.000000,0.000000,4313.589844,4280.384766,4317.436035,4300.256348,4259.615234,4279.230957,4334.487305,4398.974121,4296.922852,4289.102539,4496.282227,4522.436035,4357.179688,4430.000000,0.000000,1.000000,23.000000,,,,0.000000,2.000000,2.000000,0.000000,4.000000,2.000000,2.000000,0.000000,0.000000,4.000000,4.000000,4.000000,4.000000,4.000000,4.000000,0.000000,,,,,,,,,,,,,,,,,,,,,,,,,,,,
1732157709.129333,1732157709.130381,32.000000,0.000000,4320.000000,4279.358887,4319.102539,4305.641113,4265.256348,4278.717773,4335.256348,4396.666504,4294.615234,4283.461426,4493.974121,4523.205078,4357.820313,4435.384766,0.000000,1.000000,23.000000,,,,0.000000,2.000000,2.000000,0.000000,4.000000,2.000000,2.000000,0.000000,0.000000,4.000000,4.000000,4.000000,4.000000,4.000000,4.000000,0.000000,,,,,,,,,,,,,,,,,8.000000,0.000000,0.493366,0.485107,-0.538025,0.481445,0.989867,-0.048834,-0.035649,-35.938736,45.148777,30.963140
1732157709.137141,1732157709.138189,33.000000,0.000000,4320.000000,4275.256348,4317.820313,4301.282227,4272.692383,4278.461426,4335.897461,4397.820313,4293.974121,4287.948730,4494.487305,4524.102539,4358.589844,4435.000000,0.000000,1.000000,23.000000,,,,0.000000,2.000000,2.000000,0.000000,4.000000,2.000000,2.000000,0.000000,0.000000,4.000000,4.000000,4.000000,4.000000,4.000000,4.000000,0.000000,,,,,,,,,,,,,,,,,,,,,,,,,,,,
1732157709.144950,1732157709.146197,34.000000,0.000000,4311.794922,4275.641113,4316.538574,4295.128418,4264.487305,4278.974121,4336.282227,4402.179688,4296.153809,4292.436035,4492.820313,4518.077148,4357.051270,4430.256348,0.000000,1.000000,23.000000,,,,0.000000,2.000000,2.000000,0.000000,4.000000,2.000000,2.000000,0.000000,0.000000,4.000000,4.000000,4.000000,4.000000,4.000000,4.000000,0.000000,,,,,,,,,,,,,,,,,,,,,,,,,,,,
1732157709.152758,1732157709.154005,35.000000,0.000000,4307.948730,4276.794922,4315.512695,4295.641113,4262.307617,4269.230957,4336.666504,4403.333496,4297.948730,4284.487305,4490.128418,4513.205078,4356.282227,4429.487305,0.000000,1.000000,23.000000,,,,0.000000,2.000000,2.000000,0.000000,4.000000,2.000000,2.000000,0.000000,0.000000,4.000000,4.000000,4.000000,4.000000,4.000000,4.000000,0.000000,,,,,,,,,,,,,,,,,,,,,,,,,,,,
1732157709.160566,1732157709.161913,36.000000,0.000000,4310.897461,4279.230957,4313.846191,4297.051270,4266.538574,4263.333496,4335.384766,4400.897461,4295.000000,4280.641113,4492.563965,4516.025879,4358.974121,4431.282227,0.000000,1.000000,23.000000,,,,0.000000,2.000000,2.000000,0.000000,4.000000,2.000000,2.000000,0.000000,0.000000,4.000000,4.000000,4.000000,4.000000,4.000000,4.000000,0.000000,,,,,,,,,,,,,,,,,9.000000,0.000000,0.493413,0.484985,-0.538147,0.481384,0.977170,-0.030277,-0.044439,-35.888710,45.198841,31.103477
1732157709.168374,1732157709.169722,37.000000,0.000000,4310.769043,4281.153809,4314.871582,4296.666504,4272.051270,4274.358887,4334.102539,4401.922852,4295.000000,4285.769043,4492.692383,4518.077148,4357.179688,4430.384766,0.000000,1.000000,23.000000,,,,0.000000,2.000000,2.000000,0.000000,4.000000,2.000000,2.000000,0.000000,0.000000,4.000000,4.000000,4.000000,4.000000,4.000000,4.000000,0.000000,,,,,,,,,,,,,,,,,,,,,,,,,,,,
1732157709.176183,1732157709.177730,38.000000,0.000000,4303.717773,4279.102539,4317.436035,4296.153809,4277.307617,4281.282227,4333.589844,4403.846191,4301.666504,4285.769043,4488.589844,4515.000000,4353.589844,4425.641113,0.000000,1.000000,23.000000,,,,0.000000,2.000000,2.000000,0.000000,4.000000,2.000000,2.000000,0.000000,0.000000,4.000000,4.000000,4.000000,4.000000,4.000000,4.000000,0.000000,,,,,,,,,,,,,,,,,,,,,,,,,,,,
1732157709.183991,1732157709.185538,39.000000,0.000000,4294.871582,4276.666504,4317.820313,4293.846191,4275.128418,4277.948730,4333.846191,4400.128418,4302.307617,4282.179688,4488.589844,4511.153809,4356.025879,4421.410156,0.000000,1.000000,23.000000,,,,0.000000,2.000000,2.000000,0.000000,4.000000,2.000000,2.000000,0.000000,0.000000,4.000000,4.000000,4.000000,4.000000,4.000000,4.000000,0.000000,,,,,,,,,,,,,,,,,,,,,,,,,,,,
1732157709.191799,1732157709.193446,40.000000,0.000000,4296.025879,4277.051270,4316.794922,4292.436035,4276.025879,4277.563965,4333.717773,4397.563965,4295.000000,4279.358887,4489.230957,4507.179688,4357.307617,4421.794922,0.000000,1.000000,23.000000,,,,0.000000,2.000000,2.000000,0.000000,4.000000,2.000000,2.000000,0.000000,0.000000,4.000000,4.000000,4.000000,4.000000,4.000000,4.000000,0.000000,,,,,,,,,,,,,,,,,10.000000,0.000000,0.493749,0.484375,-0.538879,0.480835,0.977658,-0.048346,-0.039556,-35.891521,45.206062,31.275484
1732157709.199607,1732157709.201254,41.000000,0.000000,4302.692383,4279.743652,4316.153809,4296.025879,4280.512695,4281.922852,4332.820313,4398.333496,4294.487305,4279.230957,4489.230957,4506.025879,4354.615234,4426.922852,0.000000,1.000000,23.000000,,,,0.000000,2.000000,2.000000,0.000000,4.000000,2.000000,2.000000,0.000000,0.000000,4.000000,4.000000,4.000000,4.000000,4.000000,4.000000,0.000000,,,,,,,,,,,,,,,,,,,,,,,,,,,,
1732157709.207416,1732157709.209262,42.000000,0.000000,4301.282227,4285.000000,4315.769043,4298.205078,4272.692383,4280.256348,4335.512695,4398.205078,4298.461426,4282.179688,4493.461426,4508.333496,4358.846191,4429.743652,0.000000,1.000000,23.000000,,,,0.000000,2.000000,2.000000,0.000000,4.000000,2.000000,2.000000,0.000000,0.000000,4.000000,4.000000,4.000000,4.000000,4.000000,4.000000,0.000000,,,,,,,,,,,,,,,,,,,,,,,,,,,,
1732157709.215224,1732157709.217070,43.000000,0.000000,4296.922852,4287.820313,4315.384766,4295.769043,4267.179688,4270.897461,4335.384766,4398.589844,4296.025879,4283.205078,4497.179688,4507.563965,4367.051270,4429.615234,0.000000,1.000000,23.000000,,,,0.000000,2.000000,2.000000,0.000000,4.000000,2.000000,2.000000,0.000000,0.000000,4.000000,4.000000,4.000000,4.000000,4.000000,4.000000,0.000000,,,,,,,,,,,,,,,,,,,,,,,,,,,,
1732157709.223032,1732157709.224978,44.000000,0.000000,4298.333496,4284.487305,4315.769043,4296.153809,4282.820313,4262.179688,4331.153809,4400.384766,4292.179688,4280.128418,4492.307617,4505.256348,4361.666504,4428.205078,0.000000,1.000000,23.000000,,,,0.000000,2.000000,2.000000,0.000000,4.000000,2.000000,2.000000,0.000000,0.000000,4.000000,4.000000,4.000000,4.000000,4.000000,4.000000,0.000000,,,,,,,,,,,,,,,,,11.000000,0.000000,0.493928,0.484253,-0.538879,0.480774,0.977658,-0.048346,-0.039556,-35.763798,45.150242,31.261475
1732157709.230840,1732157709.232787,45.000000,0.000000,4301.282227,4281.282227,4315.000000,4299.487305,4287.307617,4264.615234,4329.615234,4400.128418,4293.077148,4278.974121,4485.769043,4505.769043,4350.384766,4426.410156,0.000000,1.000000,23.000000,,,,0.000000,2.000000,2.000000,0.000000,4.000000,2.000000,2.000000,0.000000,0.000000,4.000000,4.000000,4.000000,4.000000,4.000000,4.000000,0.000000,,,,,,,,,,,,,,,,,,,,,,,,,,,,
1732157709.238649,1732157709.240795,46.000000,0.000000,4305.128418,4285.128418,4315.256348,4303.077148,4267.307617,4275.000000,4332.563965,4401.538574,4295.256348,4281.025879,4489.871582,4512.307617,4352.692383,4428.846191,0.000000,1.000000,23.000000,,,,0.000000,2.000000,2.000000,0.000000,4.000000,2.000000,2.000000,0.000000,0.000000,4.000000,4.000000,4.000000,4.000000,4.000000,4.000000,0.000000,,,,,,,,,,,,,,,,,,,,,,,,,,,,
1732157709.246457,1732157709.248603,47.000000,0.000000,4312.948730,4290.384766,4316.666504,4305.384766,4261.153809,4282.436035,4333.077148,4402.692383,4295.641113,4282.051270,4495.769043,4518.333496,4361.153809,4431.922852,0.000000,1.000000,23.000000,,,,0.000000,2.000000,2.000000,0.000000,4.000000,2.000000,2.000000,0.000000,0.000000,4.000000,4.000000,4.000000,4.000000,4.000000,4.000000,0.000000,,,,,,,,,,,,,,,,,,,,,,,,,,,,
1732157709.254265,1732157709.256511,48.000000,0.000000,4310.384766,4286.025879,4316.794922,4303.333496,4272.179688,4283.205078,4331.153809,4399.230957,4295.256348,4281.922852,4494.615234,4517.179688,4357.692383,4429.615234,0.000000,1.000000,23.000000,,,,0.000000,2.000000,2.000000,0.000000,4.000000,2.000000,2.000000,0.000000,0.000000,4.000000,4.000000,4.000000,4.000000,4.000000,4.000000,0.000000,,,,,,,,,,,,,,,,,12.000000,0.000000,0.493502,0.484558,-0.538940,0.480835,0.981565,-0.024905,-0.052252,-35.587009,45.090031,31.085129
1732157709.262073,1732157709.264319,49.000000,0.000000,4299.743652,4278.846191,4315.384766,4298.333496,4272.563965,4278.333496,4332.051270,4397.820313,4300.897461,4281.153809,4491.794922,4513.846191,4350.384766,4426.794922,0.000000,1.000000,23.000000,,,,0.000000,2.000000,2.000000,0.000000,4.000000,2.000000,2.000000,0.000000,0.000000,4.000000,4.000000,4.000000,4.000000,4.000000,4.000000,0.000000,,,,,,,,,,,,,,,,,,,,,,,,,,,,
1732157709.269882,1732157709.272327,50.000000,0.000000,4300.256348,4279.743652,4316.282227,4296.794922,4266.922852,4276.922852,4330.769043,4402.051270,4308.589844,4283.333496,4491.153809,4512.051270,4350.641113,4428.461426,0.000000,1.000000,23.000000,,,,0.000000,2.000000,2.000000,0.000000,4.000000,2.000000,2.000000,0.000000,0.000000,4.000000,4.000000,4.000000,4.000000,4.000000,4.000000,0.000000,,,,,,,,,,,,,,,,,,,,,,,,,,,,
1732157709.277690,1732157709.280135,51.000000,0.000000,4305.769043,4283.461426,4317.820313,4298.333496,4267.051270,4279.358887,4331.025879,4402.563965,4305.384766,4284.743652,4489.615234,4508.846191,4351.410156,4428.077148,0.000000,1.000000,23.000000,,,,0.000000,2.000000,2.000000,0.000000,4.000000,2.000000,2.000000,0.000000,0.000000,4.000000,4.000000,4.000000,4.000000,4.000000,4.000000,0.000000,,,,,,,,,,,,,,,,,,,,,,,,,,,,
1732157709.285498,1732157709.288044,52.000000,0.000000,4306.153809,4280.384766,4316.025879,4299.102539,4265.384766,4273.077148,4332.563965,4400.256348,4296.282227,4281.666504,4488.974121,4505.000000,4350.256348,4421.282227,0.000000,1.000000,23.000000,,,,0.000000,2.000000,2.000000,0.000000,4.000000,2.000000,2.000000,0.000000,0.000000,4.000000,4.000000,4.000000,4.000000,4.000000,4.000000,0.000000,,,,,,,,,,,,,,,,,13.000000,0.000000,0.492953,0.485291,-0.539001,0.480591,0.975705,-0.031254,-0.043462,-35.733810,45.191257,31.120621
1732157709.293306,1732157709.295852,53.000000,0.000000,4306.025879,4283.846191,4314.487305,4300.769043,4264.358887,4262.948730,4328.589844,4400.256348,4297.692383,4282.307617,4490.897461,4505.384766,4351.153809,4417.820313,0.000000,1.000000,23.000000,,,,0.000000,2.000000,2.000000,0.000000,4.000000,2.000000,2.000000,0.000000,0.000000,4.000000,4.000000,4.000000,4.000000,4.000000,4.000000,0.000000,,,,,,,,,,,,,,,,,,,,,,,,,,,,
1732157709.301114,1732157709.303860,54.000000,0.000000,4307.051270,4292.307617,4315.384766,4303.205078,4271.666504,4265.256348,4326.282227,4400.512695,4305.384766,4286.794922,4489.102539,4504.871582,4351.153809,4421.282227,0.000000,1.000000,23.000000,,,,0.000000,2.000000,2.000000,0.000000,4.000000,2.000000,2.000000,0.000000,0.000000,4.000000,4.000000,4.000000,4.000000,4.000000,4.000000,0.000000,,,,,,,,,,,,,,,,,,,,,,,,,,,,
1732157709.308923,1732157709.311668,55.000000,0.000000,4307.179688,4288.333496,4315.641113,4305.897461,4279.871582,4276.922852,4330.641113,4400.769043,4307.051270,4284.102539,4487.692383,4505.641113,4351.025879,4419.487305,0.000000,1.000000,23.000000,,,,0.000000,2.000000,2.000000,0.000000,4.000000,2.000000,2.000000,0.000000,0.000000,4.000000,4.000000,4.000000,4.000000,4.000000,4.000000,0.000000,,,,,,,,,,,,,,,,,,,,,,,,,,,,
1732157709.316731,1732157709.319376,56.000000,0.000000,4306.922852,4284.230957,4315.256348,4309.487305,4281.282227,4280.384766,4332.692383,4402.948730,4302.051270,4278.333496,4486.922852,4506.538574,4347.948730,4413.333496,0.000000,1.000000,23.000000,,,,0.000000,2.000000,2.000000,0.000000,4.000000,2.000000,2.000000,0.000000,0.000000,4.000000,4.000000,4.000000,4.000000,4.000000,4.000000,0.000000,,,,,,,,,,,,,,,,,14.000000,0.000000,0.492501,0.485168,-0.539307,0.480835,0.978635,-0.035649,-0.056648,-35.992722,45.024918,31.056036
1732157709.324539,1732157709.327184,57.000000,0.000000,4306.538574,4286.666504,4316.410156,4310.384766,4277.948730,4276.922852,4331.153809,4402.563965,4296.794922,4277.820313,4481.282227,4501.794922,4343.717773,4413.589844,0.000000,1.000000,23.000000,,,,0.000000,2.000000,2.000000,0.000000,4.000000,2.000000,2.000000,0.000000,0.000000,4.000000,4.000000,4.000000,4.000000,4.000000,4.000000,0.000000,,,,,,,,,,,,,,,,,,,,,,,,,,,,
1732157709.332348,1732157709.334793,58.000000,0.000000,4306.410156,4284.358887,4317.307617,4304.102539,4277.692383,4277.307617,4332.820313,4400.000000,4295.512695,4280.000000,4480.641113,4498.333496,4346.794922,4416.410156,0.000000,1.000000,23.000000,,,,0.000000,2.000000,2.000000,0.000000,4.000000,2.000000,2.000000,0.000000,0.000000,4.000000,4.000000,4.000000,4.000000,4.000000,4.000000,0.000000,,,,,,,,,,,,,,,,,,,,,,,,,,,,
1732157709.340156,1732157709.342601,59.000000,0.000000,4305.641113,4280.384766,4316.538574,4296.538574,4275.641113,4279.743652,4330.384766,4400.384766,4297.820313,4281.922852,4487.179688,4503.461426,4352.436035,4415.769043,0.000000,1.000000,23.000000,,,,0.000000,2.000000,2.000000,0.000000,4.000000,2.000000,2.000000,0.000000,0.000000,4.000000,4.000000,4.000000,4.000000,4.000000,4.000000,0.000000,,,,,,,,,,,,,,,,,,,,,,,,,,,,
1732157709.347964,1732157709.350309,60.000000,0.000000,4301.922852,4283.717773,4316.282227,4297.051270,4273.974121,4279.230957,4325.256348,4399.487305,4296.538574,4281.153809,4489.358887,4506.538574,4349.871582,4413.717773,0.000000,1.000000,23.000000,,,,0.000000,2.000000,2.000000,0.000000,4.000000,2.000000,2.000000,0.000000,0.000000,4.000000,4.000000,4.000000,4.000000,4.000000,4.000000,0.000000,,,,,,,,,,,,,,,,,15.000000,0.000000,0.492501,0.485168,-0.539307,0.480835,0.980100,-0.050299,-0.054206,-36.007439,44.815186,31.078722
1732157709.355772,1732157709.358118,61.000000,0.000000,4302.692383,4288.461426,4317.051270,4302.692383,4273.333496,4279.743652,4328.077148,4397.307617,4295.641113,4282.179688,4488.717773,4505.769043,4348.589844,4417.692383,0.000000,1.000000,23.000000,,,,0.000000,2.000000,2.000000,0.000000,4.000000,2.000000,2.000000,0.000000,0.000000,4.000000,4.000000,4.000000,4.000000,4.000000,4.000000,0.000000,,,,,,,,,,,,,,,,,,,,,,,,,,,,
1732157709.363581,1732157709.365726,62.000000,0.000000,4304.743652,4288.846191,4315.769043,4303.333496,4280.384766,4282.436035,4331.922852,4399.871582,4300.000000,4291.025879,4492.692383,4510.512695,4352.179688,4422.179688,0.000000,1.000000,23.000000,,,,0.000000,2.000000,2.000000,0.000000,4.000000,2.000000,2.000000,0.000000,0.000000,4.000000,4.000000,4.000000,4.000000,4.000000,4.000000,0.000000,,,,,,,,,,,,,,,,,,,,,,,,,,,,
1732157709.371389,1732157709.373534,63.000000,0.000000,4300.000000,4285.128418,4314.615234,4297.692383,4294.230957,4281.410156,4327.436035,4400.512695,4304.487305,4296.794922,4492.307617,4510.000000,4347.820313,4418.077148,0.000000,1.000000,23.000000,,,,0.000000,2.000000,2.000000,0.000000,4.000000,2.000000,2.000000,0.000000,0.000000,4.000000,4.000000,4.000000,4.000000,4.000000,4.000000,0.000000,,,,,,,,,,,,,,,,,,,,,,,,,,,,
1732157709.379197,1732157709.381243,64.000000,0.000000,4296.153809,4278.846191,4313.205078,4297.307617,4290.128418,4280.512695,4326.025879,4398.205078,4306.153809,4296.538574,4488.717773,4502.179688,4339.358887,4412.051270,0.000000,1.000000,23.000000,,,,0.000000,2.000000,2.000000,0.000000,4.000000,2.000000,2.000000,0.000000,0.000000,4.000000,4.000000,4.000000,4.000000,4.000000,4.000000,0.000000,,,,,,,,,,,,,,,,,16.000000,0.000000,0.492088,0.484924,-0.539795,0.480957,0.990355,-0.042974,-0.057136,-36.094357,45.018631,31.253765
1732157709.387005,1732157709.389051,65.000000,0.000000,4298.077148,4284.230957,4312.307617,4306.153809,4274.102539,4281.282227,4330.000000,4400.897461,4302.820313,4293.589844,4490.897461,4501.538574,4337.307617,4414.871582,1603.000000,1.000000,23.000000,,,,0.000000,2.000000,2.000000,0.000000,4.000000,2.000000,2.000000,0.000000,0.000000,4.000000,4.000000,4.000000,4.000000,4.000000,4.000000,0.000000,,,,,,,,,,,,,,,,,,,,,,,,,,,,
1732157709.394813,1732157709.396659,66.000000,0.000000,4299.102539,4291.922852,4313.205078,4312.179688,4273.589844,4285.256348,4331.666504,4402.820313,4294.358887,4286.922852,4485.897461,4499.230957,4335.000000,4414.487305,1369.000000,1.000000,23.000000,,,,0.000000,2.000000,2.000000,0.000000,4.000000,2.000000,2.000000,0.000000,0.000000,4.000000,4.000000,4.000000,4.000000,4.000000,4.000000,0.000000,,,,,,,,,,,,,,,,,,,,,,,,,,,,
1732157709.402622,1732157709.404467,67.000000,0.000000,4295.897461,4287.179688,4315.512695,4309.487305,4284.102539,4293.589844,4333.461426,4397.948730,4291.922852,4280.897461,4475.897461,4490.512695,4328.717773,4404.487305,1419.000000,1.000000,23.000000,,,,0.000000,2.000000,2.000000,0.000000,4.000000,2.000000,2.000000,0.000000,0.000000,4.000000,4.000000,4.000000,4.000000,4.000000,4.000000,0.000000,,,,,,,,,,,,,,,,,,,,,,,,,,,,
1732157709.410430,1732157709.412375,68.000000,0.000000,4295.641113,4283.333496,4315.897461,4307.179688,4290.384766,4297.563965,4336.153809,4398.205078,4297.179688,4283.589844,4476.538574,4490.256348,4325.769043,4404.871582,1424.000000,1.000000,23.000000,,,,0.000000,2.000000,2.000000,0.000000,4.000000,2.000000,2.000000,0.000000,0.000000,4.000000,4.000000,4.000000,4.000000,4.000000,4.000000,0.000000,,,,,,,,,,,,,,,,,17.000000,0.000000,0.491618,0.484070,-0.540771,0.481201,0.979612,-0.049811,-0.041509,-36.264763,44.966759,31.420549
1732157709.418238,1732157709.420184,69.000000,0.000000,4296.538574,4286.025879,4315.256348,4308.846191,4291.538574,4294.358887,4333.461426,4400.897461,4296.538574,4290.256348,4478.333496,4495.769043,4326.025879,4412.051270,1215.000000,1.000000,23.000000,,,,0.000000,2.000000,2.000000,0.000000,4.000000,2.000000,2.000000,0.000000,0.000000,4.000000,4.000000,4.000000,4.000000,4.000000,4.000000,0.000000,,,,,,,,,,,,,,,,,,,,,,,,,,,,
1732157709.426046,1732157709.428192,70.000000,0.000000,4295.897461,4286.666504,4316.025879,4308.589844,4285.769043,4292.948730,4331.025879,4399.615234,4294.487305,4292.948730,4475.128418,4492.948730,4325.897461,4412.820313,0.000000,1.000000,23.000000,,,,0.000000,2.000000,2.000000,0.000000,4.000000,2.000000,2.000000,0.000000,0.000000,4.000000,4.000000,4.000000,4.000000,4.000000,4.000000,0.000000,,,,,,,,,,,,,,,,,,,,,,,,,,,,
1732157709.433855,1732157709.436000,71.000000,0.000000,4299.230957,4282.948730,4316.153809,4307.179688,4283.589844,4293.846191,4333.846191,4398.589844,4307.307617,4299.102539,4480.641113,4492.948730,4329.615234,4413.461426,0.000000,1.000000,23.000000,,,,0.000000,2.000000,2.000000,0.000000,4.000000,2.000000,2.000000,0.000000,0.000000,4.000000,4.000000,4.000000,4.000000,4.000000,4.000000,0.000000,,,,,,,,,,,,,,,,,,,,,,,,,,,,
1732157709.441663,1732157709.443909,72.000000,0.000000,4303.974121,4281.922852,4315.769043,4307.179688,4290.512695,4295.641113,4334.487305,4398.333496,4317.436035,4305.641113,4490.769043,4499.358887,4336.025879,4416.922852,1536.000000,1.000000,23.000000,,,,0.000000,2.000000,2.000000,0.000000,4.000000,2.000000,2.000000,0.000000,0.000000,4.000000,4.000000,4.000000,4.000000,4.000000,4.000000,0.000000,,,,,,,,,,,,,,,,,18.000000,0.000000,0.491642,0.483765,-0.541077,0.481140,0.978635,-0.027835,-0.058601,-36.102791,45.093075,31.153978
1732157709.449471,1732157709.451717,73.000000,0.000000,4304.615234,4283.589844,4316.282227,4308.589844,4285.897461,4294.615234,4332.948730,4397.307617,4306.794922,4301.282227,4487.051270,4497.820313,4335.128418,4416.410156,1686.000000,1.000000,23.000000,,,,0.000000,2.000000,2.000000,0.000000,4.000000,2.000000,2.000000,0.000000,0.000000,4.000000,4.000000,4.000000,4.000000,4.000000,4.000000,0.000000,,,,,,,,,,,,,,,,,,,,,,,,,,,,
1732157709.457280,1732157709.459725,74.000000,0.000000,4303.333496,4284.102539,4317.948730,4310.512695,4289.871582,4287.563965,4332.692383,4398.205078,4293.589844,4291.666504,4478.717773,4492.948730,4330.897461,4413.846191,1543.000000,1.000000,23.000000,,,,0.000000,2.000000,2.000000,0.000000,4.000000,2.000000,2.000000,0.000000,0.000000,4.000000,4.000000,4.000000,4.000000,4.000000,4.000000,0.000000,,,,,,,,,,,,,,,,,,,,,,,,,,,,
1732157709.465088,1732157709.467533,75.000000,0.000000,4304.358887,4285.769043,4317.692383,4311.794922,4304.615234,4285.641113,4334.487305,4398.589844,4294.358887,4290.641113,4481.666504,4493.461426,4334.102539,4415.000000,1574.000000,1.000000,23.000000,,,,0.000000,2.000000,2.000000,0.000000,4.000000,2.000000,2.000000,0.000000,0.000000,4.000000,4.000000,4.000000,4.000000,4.000000,4.000000,0.000000,,,,,,,,,,,,,,,,,,,,,,,,,,,,
1732157709.472896,1732157709.475241,76.000000,0.000000,4302.179688,4287.563965,4315.384766,4310.512695,4296.282227,4292.436035,4335.256348,4397.436035,4297.436035,4294.871582,4487.820313,4493.205078,4337.307617,4415.000000,1701.000000,1.000000,23.000000,,,,0.000000,2.000000,2.000000,0.000000,4.000000,2.000000,2.000000,0.000000,0.000000,4.000000,4.000000,4.000000,4.000000,4.000000,4.000000,0.000000,,,,,,,,,,,,,,,,,19.000000,0.000000,0.491642,0.483765,-0.541077,0.481140,0.980100,-0.049811,-0.055183,-36.061596,45.225391,30.983055
1732157709.480704,1732157709.483049,77.000000,0.000000,4298.333496,4287.563965,4316.025879,4310.000000,4275.512695,4296.538574,4333.333496,4398.717773,4296.410156,4293.846191,4490.000000,4489.615234,4335.897461,4413.846191,1633.000000,1.000000,23.000000,,,,0.000000,2.000000,2.000000,0.000000,4.000000,2.000000,2.000000,0.000000,0.000000,4.000000,4.000000,4.000000,4.000000,4.000000,4.000000,0.000000,,,,,,,,,,,,,,,,,,,,,,,,,,,,
1732157709.488512,1732157709.490658,78.000000,0.000000,4296.666504,4283.717773,4317.051270,4310.256348,4274.615234,4296.538574,4332.563965,4399.615234,4296.153809,4295.256348,4486.282227,4490.128418,4335.769043,4412.307617,1543.000000,1.000000,23.000000,,,,0.000000,2.000000,2.000000,0.000000,4.000000,2.000000,2.000000,0.000000,0.000000,4.000000,4.000000,4.000000,4.000000,4.000000,4.000000,0.000000,1.000000,0.000000,2.000000,2.000000,0.000000,4.000000,2.000000,2.000000,0.000000,0.000000,1.000000,4.000000,4.000000,4.000000,4.000000,4.000000,,,,,,,,,,,,
1732157709.496321,1732157709.498466,79.000000,0.000000,4294.615234,4280.384766,4315.641113,4302.563965,4290.897461,4295.128418,4333.461426,4397.820313,4301.025879,4297.179688,4478.589844,4492.179688,4335.641113,4410.641113,1574.000000,1.000000,23.000000,,,,0.000000,2.000000,2.000000,0.000000,4.000000,2.000000,2.000000,0.000000,0.000000,4.000000,4.000000,4.000000,4.000000,4.000000,4.000000,0.000000,,,,,,,,,,,,,,,,,,,,,,,,,,,,
1732157709.504129,1732157709.506374,80.000000,0.000000,4294.615234,4280.512695,4315.897461,4294.230957,4294.358887,4294.102539,4333.077148,4399.871582,4309.743652,4294.615234,4475.641113,4492.692383,4333.333496,4411.153809,1701.000000,1.000000,23.000000,,,,0.000000,2.000000,2.000000,0.000000,4.000000,2.000000,2.000000,0.000000,0.000000,4.000000,4.000000,4.000000,4.000000,4.000000,4.000000,0.000000,,,,,,,,,,,,,,,,,20.000000,0.000000,0.491113,0.483521,-0.541504,0.481445,0.983030,-0.052741,-0.049811,-36.079891,45.224232,31.007942
1732157709.511937,1732157709.514182,81.000000,0.000000,4297.563965,4283.333496,4318.333496,4301.282227,4281.282227,4293.589844,4335.000000,4401.666504,4308.717773,4295.769043,4478.205078,4494.102539,4335.000000,4412.307617,1633.000000,1.000000,23.000000,,,,0.000000,2.000000,2.000000,0.000000,4.000000,2.000000,2.000000,0.000000,0.000000,4.000000,4.000000,4.000000,4.000000,4.000000,4.000000,0.000000,,,,,,,,,,,,,,,,,,,,,,,,,,,,
1732157709.519745,1732157709.522190,82.000000,0.000000,4298.077148,4287.820313,4317.820313,4311.025879,4273.461426,4289.487305,4334.487305,4398.205078,4298.461426,4296.153809,4477.820313,4493.205078,4338.205078,4412.436035,1543.000000,1.000000,23.000000,,,,0.000000,2.000000,2.000000,0.000000,4.000000,2.000000,2.000000,0.000000,0.000000,4.000000,4.000000,4.000000,4.000000,4.000000,4.000000,0.000000,,,,,,,,,,,,,,,,,,,,,,,,,,,,
1732157709.527554,1732157709.529999,83.000000,0.000000,4296.025879,4288.974121,4315.769043,4308.974121,4278.717773,4286.538574,4328.974121,4395.128418,4295.384766,4287.051270,4474.743652,4492.563965,4336.922852,4411.538574,1574.000000,1.000000,23.000000,,,,0.000000,2.000000,2.000000,0.000000,4.000000,2.000000,2.000000,0.000000,0.000000,4.000000,4.000000,4.000000,4.000000,4.000000,4.000000,0.000000,,,,,,,,,,,,,,,,,,,,,,,,,,,,
1732157709.535362,1732157709.537907,84.000000,0.000000,4297.051270,4286.922852,4314.871582,4307.307617,4286.410156,4291.922852,4331.282227,4398.589844,4295.641113,4278.974121,4475.256348,4492.436035,4332.692383,4411.538574,1701.000000,1.000000,23.000000,,,,0.000000,2.000000,2.000000,0.000000,4.000000,2.000000,2.000000,0.000000,0.000000,4.000000,4.000000,4.000000,4.000000,4.000000,4.000000,0.000000,,,,,,,,,,,,,,,,,21.000000,0.000000,0.490993,0.483582,-0.541504,0.481506,0.984495,-0.045416,-0.052741,-36.266380,45.236629,30.999767
1732157709.543170,1732157709.545715,85.000000,0.000000,4298.974121,4283.077148,4314.230957,4313.846191,4291.282227,4295.384766,4336.922852,4402.436035,4293.077148,4281.538574,4473.461426,4485.897461,4329.743652,4409.358887,1633.000000,1.000000,23.000000,,,,0.000000,2.000000,2.000000,0.000000,4.000000,2.000000,2.000000,0.000000,0.000000,4.000000,4.000000,4.000000,4.000000,4.000000,4.000000,0.000000,,,,,,,,,,,,,,,,,,,,,,,,,,,,
1732157709.550979,1732157709.553723,86.000000,0.000000,4297.948730,4280.256348,4314.615234,4311.025879,4288.333496,4293.717773,4335.384766,4400.512695,4295.641113,4282.820313,4470.000000,4481.794922,4328.333496,4403.974121,1543.000000,1.000000,23.000000,,,,0.000000,2.000000,2.000000,0.000000,4.000000,2.000000,2.000000,0.000000,0.000000,4.000000,4.000000,4.000000,4.000000,4.000000,4.000000,0.000000,,,,,,,,,,,,,,,,,,,,,,,,,,,,
1732157709.558787,1732157709.561531,87.000000,0.000000,4297.051270,4278.077148,4316.025879,4299.358887,4286.153809,4294.487305,4335.384766,4397.692383,4298.589844,4279.102539,4470.128418,4487.948730,4325.512695,4398.077148,1574.000000,1.000000,23.000000,,,,0.000000,2.000000,2.000000,0.000000,4.000000,2.000000,2.000000,0.000000,0.000000,4.000000,4.000000,4.000000,4.000000,4.000000,4.000000,0.000000,,,,,,,,,,,,,,,,,,,,,,,,,,,,
1732157709.566595,1732157709.569439,88.000000,0.000000,4297.307617,4275.256348,4316.922852,4296.666504,4303.077148,4297.051270,4339.102539,4399.615234,4295.897461,4281.410156,4470.256348,4490.641113,4325.128418,4396.025879,1701.000000,1.000000,23.000000,,,,0.000000,2.000000,2.000000,0.000000,4.000000,2.000000,2.000000,0.000000,0.000000,4.000000,4.000000,4.000000,4.000000,4.000000,4.000000,0.000000,,,,,,,,,,,,,,,,,22.000000,0.000000,0.491053,0.483582,-0.541504,0.481445,0.985960,-0.044439,-0.049322,-36.310768,45.033337,31.063145
1732157709.574403,1732157709.577247,89.000000,0.000000,4297.307617,4277.436035,4317.563965,4304.358887,4302.820313,4298.461426,4336.922852,4401.922852,4303.974121,4291.410156,4472.179688,4488.205078,4331.282227,4403.461426,1633.000000,1.000000,23.000000,,,,0.000000,2.000000,2.000000,0.000000,4.000000,2.000000,2.000000,0.000000,0.000000,4.000000,4.000000,4.000000,4.000000,4.000000,4.000000,0.000000,,,,,,,,,,,,,,,,,,,,,,,,,,,,
1732157709.582211,1732157709.585255,90.000000,0.000000,4295.512695,4278.205078,4316.153809,4303.846191,4279.871582,4297.307617,4332.563965,4399.487305,4312.436035,4296.922852,4474.871582,4488.974121,4337.179688,4410.769043,1543.000000,1.000000,23.000000,,,,0.000000,2.000000,2.000000,0.000000,4.000000,2.000000,2.000000,0.000000,0.000000,4.000000,4.000000,4.000000,4.000000,4.000000,4.000000,0.000000,,,,,,,,,,,,,,,,,,,,,,,,,,,,
1732157709.590020,1732157709.593064,91.000000,0.000000,4293.846191,4270.384766,4314.615234,4297.307617,4278.717773,4296.282227,4334.230957,4397.051270,4303.461426,4294.102539,4474.358887,4493.589844,4340.256348,4410.897461,1574.000000,1.000000,23.000000,,,,0.000000,2.000000,2.000000,0.000000,4.000000,2.000000,2.000000,0.000000,0.000000,4.000000,4.000000,4.000000,4.000000,4.000000,4.000000,0.000000,,,,,,,,,,,,,,,,,,,,,,,,,,,,
1732157709.597828,1732157709.600972,92.000000,0.000000,4296.282227,4270.512695,4315.000000,4305.897461,4283.589844,4296.666504,4336.025879,4397.563965,4297.563965,4293.333496,4474.871582,4503.205078,4346.922852,4411.666504,1701.000000,1.000000,23.000000,,,,0.000000,2.000000,2.000000,0.000000,4.000000,2.000000,2.000000,0.000000,0.000000,4.000000,4.000000,4.000000,4.000000,4.000000,4.000000,0.000000,,,,,,,,,,,,,,,,,23.000000,0.000000,0.491046,0.483521,-0.541565,0.481445,0.975705,-0.044927,-0.052252,-36.096722,45.087002,30.941147
1732157709.605636,1732157709.608780,93.000000,0.000000,4299.871582,4281.538574,4314.358887,4314.230957,4284.871582,4291.153809,4332.436035,4398.461426,4303.333496,4296.922852,4479.487305,4506.794922,4353.974121,4415.641113,1633.000000,1.000000,23.000000,,,,0.000000,2.000000,2.000000,0.000000,4.000000,2.000000,2.000000,0.000000,0.000000,4.000000,4.000000,4.000000,4.000000,4.000000,4.000000,0.000000,,,,,,,,,,,,,,,,,,,,,,,,,,,,
1732157709.613444,1732157709.616788,94.000000,0.000000,4296.153809,4279.615234,4314.487305,4302.051270,4299.871582,4288.589844,4330.769043,4399.102539,4298.461426,4295.384766,4478.846191,4496.410156,4353.589844,4414.615234,1543.000000,1.000000,23.000000,,,,0.000000,2.000000,2.000000,0.000000,4.000000,2.000000,2.000000,0.000000,0.000000,4.000000,4.000000,4.000000,4.000000,4.000000,4.000000,0.000000,,,,,,,,,,,,,,,,,,,,,,,,,,,,
1732157709.621253,1732157709.624596,95.000000,0.000000,4289.871582,4268.461426,4317.051270,4292.179688,4296.538574,4294.615234,4334.358887,4399.230957,4293.717773,4292.692383,4473.846191,4488.205078,4353.717773,4411.025879,1574.000000,1.000000,23.000000,,,,0.000000,2.000000,2.000000,0.000000,4.000000,2.000000,2.000000,0.000000,0.000000,4.000000,4.000000,4.000000,4.000000,4.000000,4.000000,0.000000,,,,,,,,,,,,,,,,,,,,,,,,,,,,
1732157709.629061,1732157709.632304,96.000000,0.000000,4292.179688,4270.641113,4316.666504,4300.384766,4274.102539,4298.205078,4336.153809,4398.717773,4306.666504,4295.000000,4474.743652,4490.384766,4353.846191,4411.794922,1701.000000,1.000000,23.000000,,,,0.000000,2.000000,2.000000,0.000000,4.000000,2.000000,2.000000,0.000000,0.000000,4.000000,4.000000,4.000000,4.000000,4.000000,4.000000,0.000000,,,,,,,,,,,,,,,,,24.000000,0.000000,0.490314,0.484558,-0.541138,0.481628,0.976682,-0.041509,-0.043951,-36.033344,45.070473,30.910662
1732157709.636869,1732157709.640113,97.000000,0.000000,4295.897461,4276.538574,4315.256348,4304.615234,4278.974121,4297.436035,4334.358887,4398.333496,4310.641113,4298.846191,4477.179688,4497.948730,4347.179688,4412.051270,1633.000000,1.000000,23.000000,,,,0.000000,2.000000,2.000000,0.000000,4.000000,2.000000,2.000000,0.000000,0.000000,4.000000,4.000000,4.000000,4.000000,4.000000,4.000000,0.000000,,,,,,,,,,,,,,,,,,,,,,,,,,,,
1732157709.644677,1732157709.647721,98.000000,0.000000,4294.487305,4276.666504,4313.717773,4299.871582,4291.666504,4295.641113,4334.743652,4397.307617,4296.922852,4293.077148,4477.820313,4499.615234,4341.153809,4412.179688,1543.000000,1.000000,23.000000,,,,0.000000,2.000000,2.000000,0.000000,4.000000,2.000000,2.000000,0.000000,0.000000,4.000000,4.000000,4.000000,4.000000,4.000000,4.000000,0.000000,,,,,,,,,,,,,,,,,,,,,,,,,,,,
1732157709.652486,1732157709.655529,99.000000,0.000000,4294.102539,4274.487305,4312.436035,4301.410156,4282.051270,4295.256348,4335.256348,4398.846191,4292.948730,4282.692383,4477.051270,4493.333496,4340.384766,4413.333496,1574.000000,1.000000,23.000000,,,,0.000000,2.000000,2.000000,0.000000,4.000000,2.000000,2.000000,0.000000,0.000000,4.000000,4.000000,4.000000,4.000000,4.000000,4.000000,0.000000,,,,,,,,,,,,,,,,,,,,,,,,,,,,
1732157709.660294,1732157709.663238,100.000000,0.000000,4295.769043,4269.871582,4314.743652,4301.538574,4287.179688,4295.128418,4333.846191,4401.666504,4296.794922,4282.948730,4477.051270,4494.230957,4340.128418,4412.307617,1701.000000,1.000000,23.000000,,,,0.000000,2.000000,2.000000,0.000000,4.000000,2.000000,2.000000,0.000000,0.000000,4.000000,4.000000,4.000000,4.000000,4.000000,4.000000,0.000000,,,,,,,,,,,,,,,,,25.000000,0.000000,0.489906,0.484985,-0.541016,0.481750,0.966915,-0.043462,-0.062019,-36.043674,45.090416,30.607635
1732157709.668102,1732157709.671046,101.000000,0.000000,4295.641113,4266.538574,4314.358887,4296.025879,4305.897461,4288.205078,4333.589844,4400.512695,4298.461426,4291.922852,4484.615234,4506.282227,4344.230957,4411.153809,1633.000000,1.000000,23.000000,,,,0.000000,2.000000,2.000000,0.000000,4.000000,2.000000,2.000000,0.000000,0.000000,4.000000,4.000000,4.000000,4.000000,4.000000,4.000000,0.000000,,,,,,,,,,,,,,,,,,,,,,,,,,,,
1732157709.675910,1732157709.678654,102.000000,0.000000,4294.487305,4266.025879,4311.025879,4294.358887,4287.692383,4281.410156,4332.692383,4399.358887,4303.205078,4299.230957,4491.922852,4510.769043,4351.282227,4415.769043,1543.000000,1.000000,23.000000,,,,0.000000,2.000000,2.000000,0.000000,4.000000,2.000000,2.000000,0.000000,0.000000,4.000000,4.000000,4.000000,4.000000,4.000000,4.000000,0.000000,,,,,,,,,,,,,,,,,,,,,,,,,,,,
1732157709.683719,1732157709.686462,103.000000,0.000000,4294.230957,4266.282227,4312.051270,4296.153809,4258.077148,4284.871582,4333.974121,4401.794922,4306.410156,4301.410156,4491.922852,4513.333496,4352.051270,4421.025879,1574.000000,1.000000,23.000000,,,,0.000000,2.000000,2.000000,0.000000,4.000000,2.000000,2.000000,0.000000,0.000000,4.000000,4.000000,4.000000,4.000000,4.000000,4.000000,0.000000,,,,,,,,,,,,,,,,,,,,,,,,,,,,
1732157709.691527,1732157709.694171,104.000000,0.000000,4293.077148,4265.128418,4314.230957,4296.025879,4264.871582,4291.922852,4336.153809,4401.922852,4303.461426,4300.000000,4492.307617,4520.512695,4351.666504,4419.487305,1701.000000,1.000000,23.000000,,,,0.000000,2.000000,2.000000,0.000000,4.000000,2.000000,2.000000,0.000000,0.000000,4.000000,4.000000,4.000000,4.000000,4.000000,4.000000,0.000000,,,,,,,,,,,,,,,,,26.000000,0.000000,0.489565,0.485352,-0.540833,0.481934,0.966915,-0.043462,-0.062019,-35.877045,44.693237,30.840519
1732157709.699335,1732157709.701979,105.000000,0.000000,4291.922852,4266.410156,4313.589844,4296.153809,4286.282227,4294.358887,4335.897461,4398.461426,4303.589844,4297.307617,4485.128418,4515.769043,4350.000000,4414.743652,1633.000000,1.000000,23.000000,,,,0.000000,2.000000,2.000000,0.000000,4.000000,2.000000,2.000000,0.000000,0.000000,4.000000,4.000000,4.000000,4.000000,4.000000,4.000000,0.000000,,,,,,,,,,,,,,,,,,,,,,,,,,,,
1732157709.707143,1732157709.709587,106.000000,0.000000,4291.538574,4266.794922,4315.512695,4298.974121,4282.820313,4297.948730,4336.538574,4399.743652,4311.538574,4298.461426,4474.230957,4507.563965,4344.743652,4408.461426,1543.000000,1.000000,23.000000,,,,0.000000,2.000000,2.000000,0.000000,4.000000,2.000000,2.000000,0.000000,0.000000,4.000000,4.000000,4.000000,4.000000,4.000000,4.000000,0.000000,,,,,,,,,,,,,,,,,,,,,,,,,,,,
1732157709.714952,1732157709.717396,107.000000,0.000000,4289.615234,4265.897461,4317.436035,4299.871582,4275.512695,4297.948730,4336.153809,4401.666504,4316.410156,4298.717773,4480.384766,4509.230957,4340.641113,4402.692383,1574.000000,1.000000,23.000000,,,,0.000000,2.000000,2.000000,0.000000,4.000000,2.000000,2.000000,0.000000,0.000000,4.000000,4.000000,4.000000,4.000000,4.000000,4.000000,0.000000,,,,,,,,,,,,,,,,,,,,,,,,,,,,
1732157709.722760,1732157709.725104,108.000000,0.000000,4285.512695,4264.743652,4316.538574,4296.538574,4291.666504,4287.436035,4332.436035,4398.974121,4304.487305,4291.410156,4486.666504,4510.256348,4336.794922,4404.871582,1701.000000,1.000000,23.000000,,,,0.000000,2.000000,2.000000,0.000000,4.000000,2.000000,2.000000,0.000000,0.000000,4.000000,4.000000,4.000000,4.000000,4.000000,4.000000,0.000000,,,,,,,,,,,,,,,,,27.000000,0.000000,0.489521,0.485352,-0.541199,0.481567,0.973752,-0.048346,-0.074716,-35.900406,44.909855,30.987488
1732157709.730568,1732157709.732912,109.000000,0.000000,4282.563965,4264.743652,4316.538574,4293.461426,4295.641113,4282.948730,4333.333496,4397.692383,4295.128418,4290.897461,4480.000000,4505.769043,4336.666504,4409.743652,1633.000000,1.000000,23.000000,,,,0.000000,2.000000,2.000000,0.000000,4.000000,2.000000,2.000000,0.000000,0.000000,4.000000,4.000000,4.000000,4.000000,4.000000,4.000000,0.000000,,,,,,,,,,,,,,,,,,,,,,,,,,,,
