title:4four, start timestamp:1732157772.009340, stop timestamp:1732157825.230354, headset type:EPOCX, headset serial:E5020C3A, headset firmware:730, channels:67, sampling rate:eeg_128;mot_32, samples:6817      , version:2.2, 
Timestamp,OriginalTimestamp,EEG.Counter,EEG.Interpolated,EEG.AF3,EEG.F7,EEG.F3,EEG.FC5,EEG.T7,EEG.P7,EEG.O1,EEG.O2,EEG.P8,EEG.T8,EEG.FC6,EEG.F4,EEG.F8,EEG.AF4,EEG.RawCq,EEG.Battery,EEG.BatteryPercent,MarkerIndex,MarkerType,MarkerValueInt,EEG.MarkerHardware,CQ.AF3,CQ.F7,CQ.F3,CQ.FC5,CQ.T7,CQ.P7,CQ.O1,CQ.O2,CQ.P8,CQ.T8,CQ.FC6,CQ.F4,CQ.F8,CQ.AF4,CQ.Overall,EQ.SampleRateQuality,EQ.OVERALL,EQ.AF3,EQ.F7,EQ.F3,EQ.FC5,EQ.T7,EQ.P7,EQ.O1,EQ.O2,EQ.P8,EQ.T8,EQ.FC6,EQ.F4,EQ.F8,EQ.AF4,MOT.CounterMems,MOT.InterpolatedMems,MOT.Q0,MOT.Q1,MOT.Q2,MOT.Q3,MOT.AccX,MOT.AccY,MOT.AccZ,MOT.MagX,MOT.MagY,MOT.MagZ
1732157772.009340,1732157772.011682,21.000000,0.000000,4293.461426,4263.205078,4311.794922,4288.461426,4279.102539,4285.256348,4336.666504,4402.051270,4312.436035,4299.487305,4486.538574,4526.666504,4375.641113,4422.436035,0.000000,1.000000,23.000000,,,,0.000000,2.000000,2.000000,0.000000,4.000000,2.000000,2.000000,0.000000,0.000000,4.000000,4.000000,4.000000,4.000000,4.000000,4.000000,0.000000,,,,,,,,,,,,,,,,,,,,,,,,,,,,
1732157772.017149,1732157772.019291,22.000000,0.000000,4284.358887,4260.256348,4312.948730,4285.512695,4279.871582,4293.589844,4336.666504,4402.948730,4305.384766,4284.230957,4475.256348,4520.769043,4363.974121,4411.025879,0.000000,1.000000,23.000000,,,,0.000000,2.000000,2.000000,0.000000,4.000000,2.000000,2.000000,0.000000,0.000000,4.000000,4.000000,4.000000,4.000000,4.000000,4.000000,0.000000,,,,,,,,,,,,,,,,,,,,,,,,,,,,
1732157772.024957,1732157772.027099,23.000000,0.000000,4282.307617,4258.717773,4313.974121,4282.307617,4280.384766,4297.307617,4335.769043,4402.179688,4300.256348,4273.974121,4473.846191,4507.307617,4362.051270,4412.307617,0.000000,1.000000,23.000000,,,,0.000000,2.000000,2.000000,0.000000,4.000000,2.000000,2.000000,0.000000,0.000000,4.000000,4.000000,4.000000,4.000000,4.000000,4.000000,0.000000,,,,,,,,,,,,,,,,,,,,,,,,,,,,
1732157772.032765,1732157772.034807,24.000000,0.000000,4288.589844,4260.384766,4313.974121,4285.769043,4281.666504,4298.077148,4334.871582,4402.436035,4310.897461,4288.846191,4479.487305,4513.205078,4365.512695,4415.641113,0.000000,1.000000,23.000000,,,,0.000000,2.000000,2.000000,0.000000,4.000000,2.000000,2.000000,0.000000,0.000000,4.000000,4.000000,4.000000,4.000000,4.000000,4.000000,0.000000,,,,,,,,,,,,,,,,,6.000000,0.000000,0.517423,0.502625,-0.522644,0.454407,0.960078,0.050299,-0.037114,-34.909054,46.058296,31.021126
1732157772.040573,1732157772.042615,25.000000,0.000000,4295.384766,4264.102539,4314.615234,4292.436035,4281.922852,4294.743652,4334.871582,4402.436035,4316.025879,4300.256348,4480.641113,4524.358887,4372.436035,4418.205078,0.000000,1.000000,23.000000,,,,0.000000,2.000000,2.000000,0.000000,4.000000,2.000000,2.000000,0.000000,0.000000,4.000000,4.000000,4.000000,4.000000,4.000000,4.000000,0.000000,,,,,,,,,,,,,,,,,,,,,,,,,,,,
1732157772.048382,1732157772.050224,26.000000,0.000000,4294.358887,4264.743652,4313.974121,4293.205078,4280.128418,4286.153809,4335.128418,4401.794922,4311.538574,4296.922852,4477.948730,4515.384766,4376.666504,4419.487305,0.000000,1.000000,23.000000,,,,0.000000,2.000000,2.000000,0.000000,4.000000,2.000000,2.000000,0.000000,0.000000,4.000000,4.000000,4.000000,4.000000,4.000000,4.000000,0.000000,,,,,,,,,,,,,,,,,,,,,,,,,,,,
1732157772.056190,1732157772.058032,27.000000,0.000000,4286.282227,4264.871582,4311.025879,4294.102539,4280.512695,4282.051270,4334.871582,4400.384766,4311.153809,4293.589844,4477.563965,4505.000000,4367.820313,4414.358887,0.000000,1.000000,23.000000,,,,0.000000,2.000000,2.000000,0.000000,4.000000,2.000000,2.000000,0.000000,0.000000,4.000000,4.000000,4.000000,4.000000,4.000000,4.000000,0.000000,,,,,,,,,,,,,,,,,,,,,,,,,,,,
1732157772.063998,1732157772.065740,28.000000,0.000000,4278.974121,4263.589844,4310.641113,4290.897461,4282.051270,4284.615234,4335.000000,4399.230957,4312.820313,4293.974121,4479.358887,4513.205078,4363.077148,4412.179688,0.000000,1.000000,23.000000,,,,0.000000,2.000000,2.000000,0.000000,4.000000,2.000000,2.000000,0.000000,0.000000,4.000000,4.000000,4.000000,4.000000,4.000000,4.000000,0.000000,,,,,,,,,,,,,,,,,7.000000,0.000000,0.517929,0.502625,-0.522461,0.454041,0.960078,0.050299,-0.037114,-34.841335,46.165550,31.158777
1732157772.071806,1732157772.073549,29.000000,0.000000,4284.871582,4261.282227,4313.846191,4283.205078,4280.384766,4284.102539,4334.871582,4399.615234,4312.307617,4297.051270,4478.589844,4517.948730,4368.205078,4413.589844,0.000000,1.000000,23.000000,,,,0.000000,2.000000,2.000000,0.000000,4.000000,2.000000,2.000000,0.000000,0.000000,4.000000,4.000000,4.000000,4.000000,4.000000,4.000000,0.000000,,,,,,,,,,,,,,,,,,,,,,,,,,,,
1732157772.079615,1732157772.081557,30.000000,0.000000,4293.589844,4264.102539,4315.000000,4290.000000,4278.333496,4280.000000,4335.000000,4401.666504,4311.794922,4295.769043,4475.256348,4512.051270,4368.589844,4413.077148,0.000000,1.000000,23.000000,,,,0.000000,2.000000,2.000000,0.000000,4.000000,2.000000,2.000000,0.000000,0.000000,4.000000,4.000000,4.000000,4.000000,4.000000,4.000000,0.000000,,,,,,,,,,,,,,,,,,,,,,,,,,,,
1732157772.087423,1732157772.089365,31.000000,0.000000,4287.307617,4266.282227,4312.692383,4293.717773,4278.717773,4281.153809,4335.128418,4402.179688,4308.461426,4283.333496,4475.128418,4508.846191,4365.641113,4413.205078,0.000000,1.000000,23.000000,,,,0.000000,2.000000,2.000000,0.000000,4.000000,2.000000,2.000000,0.000000,0.000000,4.000000,4.000000,4.000000,4.000000,4.000000,4.000000,0.000000,,,,,,,,,,,,,,,,,,,,,,,,,,,,
1732157772.095231,1732157772.097073,32.000000,0.000000,4279.871582,4262.179688,4313.205078,4282.051270,4279.102539,4285.128418,4334.615234,4399.230957,4307.948730,4279.230957,4475.384766,4506.538574,4363.846191,4411.794922,0.000000,1.000000,23.000000,,,,0.000000,2.000000,2.000000,0.000000,4.000000,2.000000,2.000000,0.000000,0.000000,4.000000,4.000000,4.000000,4.000000,4.000000,4.000000,0.000000,,,,,,,,,,,,,,,,,8.000000,0.000000,0.519666,0.503540,-0.520752,0.453003,0.973263,0.072274,-0.043951,-34.554813,46.102428,31.128611
1732157772.103039,1732157772.104881,33.000000,0.000000,4287.820313,4261.666504,4313.333496,4278.717773,4279.230957,4283.589844,4335.256348,4398.205078,4311.538574,4292.948730,4476.153809,4506.282227,4363.974121,4411.025879,0.000000,1.000000,23.000000,,,,0.000000,2.000000,2.000000,0.000000,4.000000,2.000000,2.000000,0.000000,0.000000,4.000000,4.000000,4.000000,4.000000,4.000000,4.000000,0.000000,,,,,,,,,,,,,,,,,,,,,,,,,,,,
1732157772.110848,1732157772.112889,34.000000,0.000000,4298.205078,4269.487305,4310.897461,4290.512695,4279.615234,4279.743652,4337.820313,4398.846191,4304.230957,4292.436035,4476.410156,4509.102539,4366.666504,4414.358887,0.000000,1.000000,23.000000,,,,0.000000,2.000000,2.000000,0.000000,4.000000,2.000000,2.000000,0.000000,0.000000,4.000000,4.000000,4.000000,4.000000,4.000000,4.000000,0.000000,,,,,,,,,,,,,,,,,,,,,,,,,,,,
1732157772.118656,1732157772.120698,35.000000,0.000000,4293.846191,4277.692383,4312.692383,4295.000000,4279.871582,4279.615234,4338.461426,4400.128418,4297.179688,4277.692383,4473.333496,4508.205078,4367.307617,4414.358887,0.000000,1.000000,23.000000,,,,0.000000,2.000000,2.000000,0.000000,4.000000,2.000000,2.000000,0.000000,0.000000,4.000000,4.000000,4.000000,4.000000,4.000000,4.000000,0.000000,,,,,,,,,,,,,,,,,,,,,,,,,,,,
1732157772.126464,1732157772.128406,36.000000,0.000000,4286.666504,4275.000000,4312.307617,4286.666504,4280.384766,4281.922852,4336.666504,4400.512695,4305.000000,4281.666504,4479.102539,4508.205078,4367.307617,4412.948730,0.000000,1.000000,23.000000,,,,0.000000,2.000000,2.000000,0.000000,4.000000,2.000000,2.000000,0.000000,0.000000,4.000000,4.000000,4.000000,4.000000,4.000000,4.000000,0.000000,,,,,,,,,,,,,,,,,9.000000,0.000000,0.521664,0.506348,-0.518250,0.450439,0.975217,0.086436,-0.041997,-34.514400,46.087967,31.284174
1732157772.134272,1732157772.136214,37.000000,0.000000,4289.102539,4268.589844,4308.205078,4282.436035,4279.358887,4283.205078,4335.769043,4400.000000,4311.153809,4297.051270,4487.051270,4513.461426,4367.948730,4414.743652,0.000000,1.000000,23.000000,,,,0.000000,2.000000,2.000000,0.000000,4.000000,2.000000,2.000000,0.000000,0.000000,4.000000,4.000000,4.000000,4.000000,4.000000,4.000000,0.000000,,,,,,,,,,,,,,,,,,,,,,,,,,,,
1732157772.142081,1732157772.143822,38.000000,0.000000,4293.974121,4272.948730,4310.000000,4289.871582,4277.820313,4281.666504,4336.282227,4399.615234,4306.666504,4295.897461,4484.487305,4512.436035,4370.000000,4415.384766,0.000000,1.000000,23.000000,,,,0.000000,2.000000,2.000000,0.000000,4.000000,2.000000,2.000000,0.000000,0.000000,4.000000,4.000000,4.000000,4.000000,4.000000,4.000000,0.000000,,,,,,,,,,,,,,,,,,,,,,,,,,,,
1732157772.149889,1732157772.151631,39.000000,0.000000,4291.282227,4280.769043,4310.769043,4295.897461,4280.641113,4281.282227,4336.153809,4401.025879,4303.333496,4282.436035,4476.410156,4505.000000,4369.743652,4412.820313,0.000000,1.000000,23.000000,,,,0.000000,2.000000,2.000000,0.000000,4.000000,2.000000,2.000000,0.000000,0.000000,4.000000,4.000000,4.000000,4.000000,4.000000,4.000000,0.000000,,,,,,,,,,,,,,,,,,,,,,,,,,,,
1732157772.157697,1732157772.159339,40.000000,0.000000,4287.307617,4276.794922,4304.358887,4290.897461,4285.641113,4287.692383,4335.897461,4402.179688,4304.743652,4281.794922,4474.615234,4503.461426,4366.666504,4408.846191,0.000000,1.000000,23.000000,,,,0.000000,2.000000,2.000000,0.000000,4.000000,2.000000,2.000000,0.000000,0.000000,4.000000,4.000000,4.000000,4.000000,4.000000,4.000000,0.000000,,,,,,,,,,,,,,,,,10.000000,0.000000,0.521889,0.507141,-0.517883,0.449707,0.963008,0.072274,-0.060554,-34.511665,46.082920,31.465181
1732157772.165505,1732157772.167147,41.000000,0.000000,4292.179688,4270.384766,4302.563965,4289.487305,4284.358887,4287.820313,4336.025879,4400.769043,4310.384766,4298.717773,4484.358887,4509.487305,4373.717773,4410.641113,0.000000,1.000000,23.000000,,,,0.000000,2.000000,2.000000,0.000000,4.000000,2.000000,2.000000,0.000000,0.000000,4.000000,4.000000,4.000000,4.000000,4.000000,4.000000,0.000000,,,,,,,,,,,,,,,,,,,,,,,,,,,,
1732157772.173314,1732157772.175155,42.000000,0.000000,4296.538574,4267.820313,4304.230957,4294.871582,4278.974121,4279.230957,4336.025879,4398.589844,4311.282227,4306.410156,4495.641113,4515.000000,4382.307617,4416.025879,0.000000,1.000000,23.000000,,,,0.000000,2.000000,2.000000,0.000000,4.000000,2.000000,2.000000,0.000000,0.000000,4.000000,4.000000,4.000000,4.000000,4.000000,4.000000,0.000000,,,,,,,,,,,,,,,,,,,,,,,,,,,,
1732157772.181122,1732157772.182963,43.000000,0.000000,4292.436035,4263.846191,4303.077148,4294.743652,4278.846191,4279.871582,4336.025879,4397.436035,4300.128418,4294.487305,4487.692383,4510.641113,4372.179688,4415.256348,0.000000,1.000000,23.000000,,,,0.000000,2.000000,2.000000,0.000000,4.000000,2.000000,2.000000,0.000000,0.000000,4.000000,4.000000,4.000000,4.000000,4.000000,4.000000,0.000000,,,,,,,,,,,,,,,,,,,,,,,,,,,,
1732157772.188930,1732157772.190872,44.000000,0.000000,4288.974121,4271.666504,4302.179688,4294.487305,4283.589844,4285.512695,4336.153809,4397.820313,4294.358887,4290.897461,4476.282227,4499.487305,4361.153809,4411.794922,0.000000,1.000000,23.000000,,,,0.000000,2.000000,2.000000,0.000000,4.000000,2.000000,2.000000,0.000000,0.000000,4.000000,4.000000,4.000000,4.000000,4.000000,4.000000,0.000000,,,,,,,,,,,,,,,,,11.000000,0.000000,0.521633,0.507263,-0.518127,0.449585,0.970333,0.061531,-0.062508,-34.256115,46.257168,31.250130
1732157772.196738,1732157772.198680,45.000000,0.000000,4291.922852,4280.256348,4306.153809,4296.025879,4282.948730,4283.205078,4336.153809,4397.051270,4302.179688,4298.974121,4485.256348,4499.615234,4366.025879,4413.717773,0.000000,1.000000,23.000000,,,,0.000000,2.000000,2.000000,0.000000,4.000000,2.000000,2.000000,0.000000,0.000000,4.000000,4.000000,4.000000,4.000000,4.000000,4.000000,0.000000,,,,,,,,,,,,,,,,,,,,,,,,,,,,
1732157772.204547,1732157772.206688,46.000000,0.000000,4294.615234,4272.436035,4306.153809,4295.256348,4275.641113,4286.538574,4335.769043,4397.307617,4310.769043,4299.230957,4493.333496,4508.077148,4368.589844,4415.897461,0.000000,1.000000,23.000000,,,,0.000000,2.000000,2.000000,0.000000,4.000000,2.000000,2.000000,0.000000,0.000000,4.000000,4.000000,4.000000,4.000000,4.000000,4.000000,0.000000,,,,,,,,,,,,,,,,,,,,,,,,,,,,
1732157772.212355,1732157772.214496,47.000000,0.000000,4295.641113,4267.436035,4305.384766,4295.256348,4284.487305,4295.128418,4336.410156,4400.641113,4312.692383,4297.692383,4488.205078,4510.769043,4363.717773,4416.794922,0.000000,1.000000,23.000000,,,,0.000000,2.000000,2.000000,0.000000,4.000000,2.000000,2.000000,0.000000,0.000000,4.000000,4.000000,4.000000,4.000000,4.000000,4.000000,0.000000,,,,,,,,,,,,,,,,,,,,,,,,,,,,
1732157772.220163,1732157772.222404,48.000000,0.000000,4299.358887,4277.820313,4306.282227,4297.307617,4298.974121,4286.153809,4336.025879,4400.641113,4306.794922,4304.358887,4491.153809,4512.179688,4366.282227,4420.897461,0.000000,1.000000,23.000000,,,,0.000000,2.000000,2.000000,0.000000,4.000000,2.000000,2.000000,0.000000,0.000000,4.000000,4.000000,4.000000,4.000000,4.000000,4.000000,0.000000,,,,,,,,,,,,,,,,,12.000000,0.000000,0.520484,0.506287,-0.519653,0.450256,0.956171,0.038091,-0.055671,-34.399120,46.161636,31.167604
1732157772.227971,1732157772.230212,49.000000,0.000000,4302.179688,4281.794922,4304.743652,4301.794922,4283.846191,4274.230957,4334.487305,4397.051270,4302.820313,4306.410156,4495.897461,4511.922852,4368.846191,4422.948730,0.000000,1.000000,23.000000,,,,0.000000,2.000000,2.000000,0.000000,4.000000,2.000000,2.000000,0.000000,0.000000,4.000000,4.000000,4.000000,4.000000,4.000000,4.000000,0.000000,,,,,,,,,,,,,,,,,,,,,,,,,,,,
1732157772.235780,1732157772.238220,50.000000,0.000000,4297.436035,4273.461426,4303.974121,4303.205078,4266.794922,4288.589844,4334.358887,4398.461426,4308.717773,4298.846191,4487.179688,4502.820313,4358.077148,4415.384766,0.000000,1.000000,23.000000,,,,0.000000,2.000000,2.000000,0.000000,4.000000,2.000000,2.000000,0.000000,0.000000,4.000000,4.000000,4.000000,4.000000,4.000000,4.000000,0.000000,,,,,,,,,,,,,,,,,,,,,,,,,,,,
1732157772.243588,1732157772.246028,51.000000,0.000000,4292.179688,4269.102539,4307.051270,4298.974121,4276.794922,4301.282227,4334.871582,4399.230957,4310.000000,4298.717773,4481.153809,4498.333496,4349.102539,4410.256348,0.000000,1.000000,23.000000,,,,0.000000,2.000000,2.000000,0.000000,4.000000,2.000000,2.000000,0.000000,0.000000,4.000000,4.000000,4.000000,4.000000,4.000000,4.000000,0.000000,,,,,,,,,,,,,,,,,,,,,,,,,,,,
1732157772.251396,1732157772.253937,52.000000,0.000000,4295.256348,4270.641113,4308.846191,4297.692383,4284.487305,4287.820313,4334.871582,4396.794922,4304.358887,4303.461426,4483.205078,4504.615234,4350.897461,4418.461426,0.000000,1.000000,23.000000,,,,0.000000,2.000000,2.000000,0.000000,4.000000,2.000000,2.000000,0.000000,0.000000,4.000000,4.000000,4.000000,4.000000,4.000000,4.000000,0.000000,,,,,,,,,,,,,,,,,13.000000,0.000000,0.520642,0.504822,-0.520813,0.450378,0.971310,0.037602,-0.064461,-34.428288,46.165928,31.190760
1732157772.259204,1732157772.261745,53.000000,0.000000,4298.077148,4274.358887,4309.358887,4301.538574,4277.051270,4283.589844,4335.256348,4398.589844,4304.871582,4300.000000,4481.410156,4503.589844,4348.717773,4423.846191,0.000000,1.000000,23.000000,,,,0.000000,2.000000,2.000000,0.000000,4.000000,2.000000,2.000000,0.000000,0.000000,4.000000,4.000000,4.000000,4.000000,4.000000,4.000000,0.000000,,,,,,,,,,,,,,,,,,,,,,,,,,,,
1732157772.267012,1732157772.269753,54.000000,0.000000,4296.282227,4277.820313,4314.743652,4305.000000,4279.871582,4300.512695,4335.384766,4399.358887,4304.615234,4291.666504,4475.000000,4498.589844,4340.769043,4416.538574,0.000000,1.000000,23.000000,,,,0.000000,2.000000,2.000000,0.000000,4.000000,2.000000,2.000000,0.000000,0.000000,4.000000,4.000000,4.000000,4.000000,4.000000,4.000000,0.000000,,,,,,,,,,,,,,,,,,,,,,,,,,,,
1732157772.274821,1732157772.277561,55.000000,0.000000,4298.846191,4276.922852,4314.230957,4308.077148,4287.563965,4301.282227,4335.897461,4397.820313,4304.487305,4292.051270,4476.282227,4503.077148,4338.717773,4410.897461,0.000000,1.000000,23.000000,,,,0.000000,2.000000,2.000000,0.000000,4.000000,2.000000,2.000000,0.000000,0.000000,4.000000,4.000000,4.000000,4.000000,4.000000,4.000000,0.000000,,,,,,,,,,,,,,,,,,,,,,,,,,,,
1732157772.282629,1732157772.285469,56.000000,0.000000,4304.871582,4272.948730,4310.256348,4308.077148,4285.769043,4284.487305,4336.410156,4398.974121,4309.102539,4302.692383,4488.205078,4508.846191,4343.333496,4417.692383,0.000000,1.000000,23.000000,,,,0.000000,2.000000,2.000000,0.000000,4.000000,2.000000,2.000000,0.000000,0.000000,4.000000,4.000000,4.000000,4.000000,4.000000,4.000000,0.000000,,,,,,,,,,,,,,,,,14.000000,0.000000,0.520865,0.503906,-0.521423,0.450439,0.982542,0.056648,-0.056648,-34.593578,46.122734,31.301182
1732157772.290437,1732157772.293277,57.000000,0.000000,4304.743652,4271.794922,4312.948730,4308.974121,4285.256348,4280.769043,4336.666504,4400.384766,4313.333496,4306.666504,4491.922852,4507.948730,4344.102539,4423.974121,0.000000,1.000000,23.000000,,,,0.000000,2.000000,2.000000,0.000000,4.000000,2.000000,2.000000,0.000000,0.000000,4.000000,4.000000,4.000000,4.000000,4.000000,4.000000,0.000000,,,,,,,,,,,,,,,,,,,,,,,,,,,,
1732157772.298246,1732157772.301285,58.000000,0.000000,4297.692383,4270.769043,4313.846191,4314.358887,4286.153809,4289.230957,4337.948730,4401.153809,4312.563965,4300.000000,4487.563965,4506.410156,4338.077148,4421.282227,0.000000,1.000000,23.000000,,,,0.000000,2.000000,2.000000,0.000000,4.000000,2.000000,2.000000,0.000000,0.000000,4.000000,4.000000,4.000000,4.000000,4.000000,4.000000,0.000000,,,,,,,,,,,,,,,,,,,,,,,,,,,,
1732157772.306054,1732157772.309094,59.000000,0.000000,4295.128418,4266.666504,4310.641113,4313.974121,4288.077148,4290.769043,4340.512695,4401.282227,4306.025879,4294.358887,4487.563965,4507.436035,4331.666504,4415.769043,0.000000,1.000000,23.000000,,,,0.000000,2.000000,2.000000,0.000000,4.000000,2.000000,2.000000,0.000000,0.000000,4.000000,4.000000,4.000000,4.000000,4.000000,4.000000,0.000000,,,,,,,,,,,,,,,,,,,,,,,,,,,,
1732157772.313862,1732157772.317002,60.000000,0.000000,4297.179688,4264.358887,4313.333496,4309.358887,4286.025879,4286.410156,4340.769043,4399.871582,4306.922852,4297.307617,4487.436035,4508.589844,4328.077148,4413.589844,0.000000,1.000000,23.000000,,,,0.000000,2.000000,2.000000,0.000000,4.000000,2.000000,2.000000,0.000000,0.000000,4.000000,4.000000,4.000000,4.000000,4.000000,4.000000,0.000000,,,,,,,,,,,,,,,,,15.000000,0.000000,0.521085,0.502747,-0.522217,0.450562,0.985960,0.054694,-0.064461,-34.449131,45.909416,31.243958
1732157772.321670,1732157772.324810,61.000000,0.000000,4295.384766,4262.436035,4316.282227,4310.256348,4286.794922,4291.794922,4337.820313,4398.717773,4312.307617,4298.205078,4478.974121,4505.000000,4328.589844,4414.487305,0.000000,1.000000,23.000000,,,,0.000000,2.000000,2.000000,0.000000,4.000000,2.000000,2.000000,0.000000,0.000000,4.000000,4.000000,4.000000,4.000000,4.000000,4.000000,0.000000,,,,,,,,,,,,,,,,,,,,,,,,,,,,
1732157772.329479,1732157772.332418,62.000000,0.000000,4292.820313,4263.077148,4316.538574,4312.307617,4290.641113,4298.333496,4335.256348,4400.384766,4304.487305,4292.307617,4474.230957,4501.282227,4323.461426,4413.846191,0.000000,1.000000,23.000000,,,,0.000000,2.000000,2.000000,0.000000,4.000000,2.000000,2.000000,0.000000,0.000000,4.000000,4.000000,4.000000,4.000000,4.000000,4.000000,0.000000,,,,,,,,,,,,,,,,,,,,,,,,,,,,
1732157772.337287,1732157772.340226,63.000000,0.000000,4293.589844,4264.102539,4318.205078,4309.230957,4290.256348,4291.538574,4333.077148,4401.153809,4292.436035,4291.922852,4478.333496,4501.025879,4317.948730,4413.333496,0.000000,1.000000,23.000000,,,,0.000000,2.000000,2.000000,0.000000,4.000000,2.000000,2.000000,0.000000,0.000000,4.000000,4.000000,4.000000,4.000000,4.000000,4.000000,0.000000,,,,,,,,,,,,,,,,,,,,,,,,,,,,
1732157772.345095,1732157772.347935,64.000000,0.000000,4297.179688,4262.179688,4318.461426,4309.487305,4286.922852,4289.743652,4334.871582,4401.153809,4296.410156,4294.871582,4478.589844,4501.282227,4322.179688,4415.769043,0.000000,1.000000,23.000000,,,,0.000000,2.000000,2.000000,0.000000,4.000000,2.000000,2.000000,0.000000,0.000000,4.000000,4.000000,4.000000,4.000000,4.000000,4.000000,0.000000,,,,,,,,,,,,,,,,,16.000000,0.000000,0.521395,0.501343,-0.522888,0.450989,0.992797,0.054694,-0.041021,-34.492130,45.704960,31.407606
1732157772.352903,1732157772.355743,65.000000,0.000000,4300.384766,4263.974121,4317.307617,4311.410156,4285.384766,4294.230957,4338.333496,4401.282227,4298.461426,4286.538574,4476.538574,4501.666504,4325.512695,4417.563965,1594.000000,1.000000,23.000000,,,,0.000000,2.000000,2.000000,0.000000,4.000000,2.000000,2.000000,0.000000,0.000000,4.000000,4.000000,4.000000,4.000000,4.000000,4.000000,0.000000,,,,,,,,,,,,,,,,,,,,,,,,,,,,
1732157772.360711,1732157772.363751,66.000000,0.000000,4302.820313,4265.769043,4320.128418,4311.794922,4298.717773,4287.820313,4337.436035,4401.538574,4292.307617,4277.692383,4484.102539,4507.948730,4321.666504,4419.615234,1364.000000,1.000000,23.000000,,,,0.000000,2.000000,2.000000,0.000000,4.000000,2.000000,2.000000,0.000000,0.000000,4.000000,4.000000,4.000000,4.000000,4.000000,4.000000,0.000000,,,,,,,,,,,,,,,,,,,,,,,,,,,,
1732157772.368520,1732157772.371559,67.000000,0.000000,4305.128418,4255.769043,4321.282227,4310.512695,4303.974121,4281.410156,4337.436035,4402.820313,4306.153809,4291.666504,4494.358887,4516.794922,4320.384766,4421.794922,1419.000000,1.000000,23.000000,,,,0.000000,2.000000,2.000000,0.000000,4.000000,2.000000,2.000000,0.000000,0.000000,4.000000,4.000000,4.000000,4.000000,4.000000,4.000000,0.000000,,,,,,,,,,,,,,,,,,,,,,,,,,,,
1732157772.376328,1732157772.379268,68.000000,0.000000,4305.000000,4252.051270,4319.487305,4308.846191,4282.692383,4285.512695,4341.666504,4404.102539,4320.512695,4302.820313,4486.922852,4514.487305,4320.641113,4418.846191,1426.000000,1.000000,23.000000,,,,0.000000,2.000000,2.000000,0.000000,4.000000,2.000000,2.000000,0.000000,0.000000,4.000000,4.000000,4.000000,4.000000,4.000000,4.000000,0.000000,,,,,,,,,,,,,,,,,17.000000,0.000000,0.521496,0.501099,-0.522705,0.451355,0.974728,0.070321,-0.047857,-34.606960,45.622684,31.481827
1732157772.384136,1732157772.387076,69.000000,0.000000,4301.538574,4263.717773,4322.436035,4310.769043,4268.717773,4284.487305,4342.179688,4401.410156,4308.205078,4288.461426,4474.743652,4505.128418,4315.128418,4414.230957,1220.000000,1.000000,23.000000,,,,0.000000,2.000000,2.000000,0.000000,4.000000,2.000000,2.000000,0.000000,0.000000,4.000000,4.000000,4.000000,4.000000,4.000000,4.000000,0.000000,,,,,,,,,,,,,,,,,,,,,,,,,,,,
1732157772.391945,1732157772.394684,70.000000,0.000000,4298.077148,4267.307617,4325.000000,4312.563965,4277.307617,4278.974121,4337.307617,4399.871582,4295.256348,4279.615234,4476.794922,4505.000000,4312.563965,4414.743652,0.000000,1.000000,23.000000,,,,0.000000,2.000000,2.000000,0.000000,4.000000,2.000000,2.000000,0.000000,0.000000,4.000000,4.000000,4.000000,4.000000,4.000000,4.000000,0.000000,,,,,,,,,,,,,,,,,,,,,,,,,,,,
1732157772.399753,1732157772.402492,71.000000,0.000000,4297.436035,4263.846191,4322.436035,4314.871582,4284.615234,4281.025879,4334.102539,4405.256348,4297.051270,4283.333496,4474.871582,4507.820313,4306.794922,4411.153809,0.000000,1.000000,23.000000,,,,0.000000,2.000000,2.000000,0.000000,4.000000,2.000000,2.000000,0.000000,0.000000,4.000000,4.000000,4.000000,4.000000,4.000000,4.000000,0.000000,,,,,,,,,,,,,,,,,,,,,,,,,,,,
1732157772.407561,1732157772.410201,72.000000,0.000000,4296.282227,4269.615234,4318.717773,4319.230957,4286.794922,4289.102539,4335.897461,4406.794922,4298.205078,4278.461426,4460.641113,4499.102539,4295.384766,4399.102539,1533.000000,1.000000,23.000000,,,,0.000000,2.000000,2.000000,0.000000,4.000000,2.000000,2.000000,0.000000,0.000000,4.000000,4.000000,4.000000,4.000000,4.000000,4.000000,0.000000,,,,,,,,,,,,,,,,,18.000000,0.000000,0.521398,0.501282,-0.522522,0.451477,0.977658,0.044439,-0.050787,-34.649971,45.409374,31.200281
1732157772.415369,1732157772.418009,73.000000,0.000000,4293.974121,4273.205078,4320.256348,4317.948730,4292.692383,4296.666504,4339.487305,4402.179688,4294.615234,4273.333496,4456.794922,4497.051270,4294.487305,4394.615234,1688.000000,1.000000,23.000000,,,,0.000000,2.000000,2.000000,0.000000,4.000000,2.000000,2.000000,0.000000,0.000000,4.000000,4.000000,4.000000,4.000000,4.000000,4.000000,0.000000,,,,,,,,,,,,,,,,,,,,,,,,,,,,
1732157772.423178,1732157772.425617,74.000000,0.000000,4289.871582,4265.641113,4321.794922,4311.794922,4291.666504,4297.051270,4339.487305,4403.077148,4295.897461,4278.077148,4462.948730,4500.512695,4297.307617,4398.205078,1549.000000,1.000000,23.000000,,,,0.000000,2.000000,2.000000,0.000000,4.000000,2.000000,2.000000,0.000000,0.000000,4.000000,4.000000,4.000000,4.000000,4.000000,4.000000,0.000000,,,,,,,,,,,,,,,,,,,,,,,,,,,,
1732157772.430986,1732157772.433425,75.000000,0.000000,4289.102539,4263.333496,4320.641113,4311.922852,4291.666504,4290.512695,4334.871582,4405.641113,4293.846191,4277.307617,4462.436035,4495.641113,4296.538574,4398.077148,1571.000000,1.000000,23.000000,,,,0.000000,2.000000,2.000000,0.000000,4.000000,2.000000,2.000000,0.000000,0.000000,4.000000,4.000000,4.000000,4.000000,4.000000,4.000000,0.000000,,,,,,,,,,,,,,,,,,,,,,,,,,,,
1732157772.438794,1732157772.441134,76.000000,0.000000,4295.384766,4267.436035,4320.128418,4318.333496,4295.769043,4290.000000,4334.230957,4403.461426,4292.948730,4273.333496,4461.538574,4499.615234,4295.897461,4398.717773,1706.000000,1.000000,23.000000,,,,0.000000,2.000000,2.000000,0.000000,4.000000,2.000000,2.000000,0.000000,0.000000,4.000000,4.000000,4.000000,4.000000,4.000000,4.000000,0.000000,,,,,,,,,,,,,,,,,19.000000,0.000000,0.520946,0.502014,-0.522217,0.451538,0.962520,0.057136,-0.056648,-34.451477,45.444927,31.330561
1732157772.446602,1732157772.448942,77.000000,0.000000,4297.051270,4267.436035,4322.436035,4318.589844,4292.692383,4294.358887,4340.000000,4405.512695,4300.256348,4277.692383,4460.897461,4508.846191,4292.563965,4400.769043,1628.000000,1.000000,23.000000,,,,0.000000,2.000000,2.000000,0.000000,4.000000,2.000000,2.000000,0.000000,0.000000,4.000000,4.000000,4.000000,4.000000,4.000000,4.000000,0.000000,,,,,,,,,,,,,,,,,,,,,,,,,,,,
1732157772.454410,1732157772.456550,78.000000,0.000000,4293.974121,4265.000000,4323.205078,4317.436035,4292.820313,4295.000000,4340.769043,4408.205078,4302.436035,4280.769043,4461.282227,4502.563965,4291.794922,4398.461426,1549.000000,1.000000,23.000000,,,,0.000000,2.000000,2.000000,0.000000,4.000000,2.000000,2.000000,0.000000,0.000000,4.000000,4.000000,4.000000,4.000000,4.000000,4.000000,0.000000,1.000000,0.000000,2.000000,2.000000,0.000000,4.000000,2.000000,2.000000,0.000000,0.000000,4.000000,4.000000,4.000000,4.000000,4.000000,4.000000,,,,,,,,,,,,
1732157772.462219,1732157772.464359,79.000000,0.000000,4294.871582,4266.153809,4322.820313,4319.487305,4294.358887,4287.179688,4336.282227,4407.307617,4298.461426,4280.641113,4468.717773,4498.717773,4299.487305,4397.820313,1571.000000,1.000000,23.000000,,,,0.000000,2.000000,2.000000,0.000000,4.000000,2.000000,2.000000,0.000000,0.000000,4.000000,4.000000,4.000000,4.000000,4.000000,4.000000,0.000000,,,,,,,,,,,,,,,,,,,,,,,,,,,,
1732157772.470027,1732157772.472067,80.000000,0.000000,4296.794922,4265.897461,4321.538574,4318.205078,4292.307617,4281.794922,4337.948730,4405.769043,4294.102539,4279.230957,4468.974121,4502.948730,4300.512695,4400.000000,1706.000000,1.000000,23.000000,,,,0.000000,2.000000,2.000000,0.000000,4.000000,2.000000,2.000000,0.000000,0.000000,4.000000,4.000000,4.000000,4.000000,4.000000,4.000000,0.000000,,,,,,,,,,,,,,,,,20.000000,0.000000,0.520219,0.502747,-0.521973,0.451843,0.963985,0.061531,-0.051764,-34.364029,45.635391,31.397755
1732157772.477835,1732157772.479875,81.000000,0.000000,4294.102539,4263.461426,4320.384766,4315.897461,4289.615234,4288.974121,4344.102539,4406.666504,4296.922852,4277.307617,4459.102539,4501.922852,4293.974121,4398.974121,1628.000000,1.000000,23.000000,,,,0.000000,2.000000,2.000000,0.000000,4.000000,2.000000,2.000000,0.000000,0.000000,4.000000,4.000000,4.000000,4.000000,4.000000,4.000000,0.000000,,,,,,,,,,,,,,,,,,,,,,,,,,,,
1732157772.485644,1732157772.487484,82.000000,0.000000,4290.897461,4263.333496,4322.436035,4314.230957,4292.051270,4292.179688,4341.922852,4408.077148,4302.179688,4278.717773,4458.974121,4500.769043,4295.000000,4397.436035,1549.000000,1.000000,23.000000,,,,0.000000,2.000000,2.000000,0.000000,4.000000,2.000000,2.000000,0.000000,0.000000,4.000000,4.000000,4.000000,4.000000,4.000000,4.000000,0.000000,,,,,,,,,,,,,,,,,,,,,,,,,,,,
1732157772.493452,1732157772.495292,83.000000,0.000000,4288.717773,4263.589844,4322.436035,4311.153809,4306.282227,4287.051270,4336.025879,4403.846191,4298.461426,4278.461426,4463.077148,4499.230957,4296.794922,4397.179688,1571.000000,1.000000,23.000000,,,,0.000000,2.000000,2.000000,0.000000,4.000000,2.000000,2.000000,0.000000,0.000000,4.000000,4.000000,4.000000,4.000000,4.000000,4.000000,0.000000,,,,,,,,,,,,,,,,,,,,,,,,,,,,
1732157772.501260,1732157772.503000,84.000000,0.000000,4291.282227,4261.153809,4319.487305,4308.717773,4303.461426,4290.256348,4337.563965,4400.384766,4292.692383,4276.538574,4457.179688,4496.410156,4295.769043,4396.025879,1706.000000,1.000000,23.000000,,,,0.000000,2.000000,2.000000,0.000000,4.000000,2.000000,2.000000,0.000000,0.000000,4.000000,4.000000,4.000000,4.000000,4.000000,4.000000,0.000000,,,,,,,,,,,,,,,,,21.000000,0.000000,0.519899,0.502930,-0.521851,0.452148,0.963985,0.061531,-0.051764,-34.323196,45.677998,31.340513
1732157772.509068,1732157772.510808,85.000000,0.000000,4293.333496,4260.256348,4320.512695,4309.743652,4281.153809,4298.077148,4341.794922,4401.794922,4295.000000,4278.846191,4461.410156,4497.051270,4299.102539,4396.025879,1628.000000,1.000000,23.000000,,,,0.000000,2.000000,2.000000,0.000000,4.000000,2.000000,2.000000,0.000000,0.000000,4.000000,4.000000,4.000000,4.000000,4.000000,4.000000,0.000000,,,,,,,,,,,,,,,,,,,,,,,,,,,,
1732157772.516876,1732157772.518417,86.000000,0.000000,4286.922852,4261.538574,4326.410156,4310.256348,4276.538574,4297.307617,4342.051270,4404.487305,4298.461426,4281.538574,4474.230957,4501.282227,4302.820313,4398.461426,1549.000000,1.000000,23.000000,,,,0.000000,2.000000,2.000000,0.000000,4.000000,2.000000,2.000000,0.000000,0.000000,4.000000,4.000000,4.000000,4.000000,4.000000,4.000000,0.000000,,,,,,,,,,,,,,,,,,,,,,,,,,,,
1732157772.524685,1732157772.526225,87.000000,0.000000,4286.410156,4261.153809,4325.512695,4308.205078,4284.487305,4295.000000,4341.282227,4405.384766,4305.769043,4287.820313,4473.077148,4505.000000,4305.000000,4400.897461,1571.000000,1.000000,23.000000,,,,0.000000,2.000000,2.000000,0.000000,4.000000,2.000000,2.000000,0.000000,0.000000,4.000000,4.000000,4.000000,4.000000,4.000000,4.000000,0.000000,,,,,,,,,,,,,,,,,,,,,,,,,,,,
1732157772.532493,1732157772.534133,88.000000,0.000000,4294.230957,4260.128418,4320.769043,4306.922852,4282.563965,4292.307617,4343.205078,4403.333496,4316.410156,4296.922852,4470.769043,4508.846191,4309.487305,4404.358887,1706.000000,1.000000,23.000000,,,,0.000000,2.000000,2.000000,0.000000,4.000000,2.000000,2.000000,0.000000,0.000000,4.000000,4.000000,4.000000,4.000000,4.000000,4.000000,0.000000,,,,,,,,,,,,,,,,,22.000000,0.000000,0.519646,0.503052,-0.521667,0.452515,0.985472,0.068856,-0.062019,-34.215122,45.554180,31.290815
1732157772.540301,1732157772.541941,89.000000,0.000000,4296.922852,4262.563965,4322.051270,4310.769043,4281.538574,4288.974121,4344.487305,4398.974121,4305.897461,4289.230957,4473.333496,4508.461426,4311.794922,4408.717773,1628.000000,1.000000,23.000000,,,,0.000000,2.000000,2.000000,0.000000,4.000000,2.000000,2.000000,0.000000,0.000000,4.000000,4.000000,4.000000,4.000000,4.000000,4.000000,0.000000,,,,,,,,,,,,,,,,,,,,,,,,,,,,
1732157772.548109,1732157772.549949,90.000000,0.000000,4297.307617,4265.000000,4324.358887,4316.666504,4290.128418,4292.307617,4342.307617,4402.692383,4291.025879,4278.461426,4473.205078,4509.743652,4309.615234,4413.589844,1549.000000,1.000000,23.000000,,,,0.000000,2.000000,2.000000,0.000000,4.000000,2.000000,2.000000,0.000000,0.000000,4.000000,4.000000,4.000000,4.000000,4.000000,4.000000,0.000000,,,,,,,,,,,,,,,,,,,,,,,,,,,,
1732157772.555918,1732157772.557757,91.000000,0.000000,4298.589844,4263.589844,4317.948730,4315.641113,4291.025879,4296.794922,4339.615234,4410.128418,4303.077148,4290.256348,4473.333496,4516.153809,4312.307617,4413.461426,1571.000000,1.000000,23.000000,,,,0.000000,2.000000,2.000000,0.000000,4.000000,2.000000,2.000000,0.000000,0.000000,4.000000,4.000000,4.000000,4.000000,4.000000,4.000000,0.000000,,,,,,,,,,,,,,,,,,,,,,,,,,,,
1732157772.563726,1732157772.565666,92.000000,0.000000,4296.282227,4261.410156,4318.205078,4310.384766,4287.948730,4295.769043,4344.743652,4407.179688,4309.358887,4295.256348,4470.769043,4511.025879,4311.666504,4405.512695,1706.000000,1.000000,23.000000,,,,0.000000,2.000000,2.000000,0.000000,4.000000,2.000000,2.000000,0.000000,0.000000,4.000000,4.000000,4.000000,4.000000,4.000000,4.000000,0.000000,,,,,,,,,,,,,,,,,23.000000,0.000000,0.518264,0.502869,-0.521362,0.454651,0.983518,0.025882,-0.049811,-34.097584,45.468884,31.168894
1732157772.571534,1732157772.573474,93.000000,0.000000,4293.205078,4262.820313,4322.692383,4311.410156,4290.512695,4295.000000,4345.641113,4401.282227,4294.487305,4279.615234,4460.641113,4502.820313,4301.282227,4396.794922,1628.000000,1.000000,23.000000,,,,0.000000,2.000000,2.000000,0.000000,4.000000,2.000000,2.000000,0.000000,0.000000,4.000000,4.000000,4.000000,4.000000,4.000000,4.000000,0.000000,,,,,,,,,,,,,,,,,,,,,,,,,,,,
1732157772.579342,1732157772.581482,94.000000,0.000000,4292.179688,4262.436035,4313.461426,4311.794922,4290.769043,4297.948730,4336.794922,4402.307617,4289.743652,4274.615234,4458.077148,4503.205078,4300.256348,4396.922852,1549.000000,1.000000,23.000000,,,,0.000000,2.000000,2.000000,0.000000,4.000000,2.000000,2.000000,0.000000,0.000000,4.000000,4.000000,4.000000,4.000000,4.000000,4.000000,0.000000,,,,,,,,,,,,,,,,,,,,,,,,,,,,
1732157772.587151,1732157772.589290,95.000000,0.000000,4289.487305,4254.358887,4325.641113,4303.077148,4284.871582,4297.948730,4342.179688,4408.974121,4297.051270,4280.769043,4466.666504,4508.205078,4308.846191,4405.128418,1571.000000,1.000000,23.000000,,,,0.000000,2.000000,2.000000,0.000000,4.000000,2.000000,2.000000,0.000000,0.000000,4.000000,4.000000,4.000000,4.000000,4.000000,4.000000,0.000000,,,,,,,,,,,,,,,,,,,,,,,,,,,,
1732157772.594959,1732157772.597198,96.000000,0.000000,4290.000000,4247.179688,4352.051270,4295.897461,4280.641113,4293.717773,4350.512695,4414.487305,4297.820313,4280.128418,4471.282227,4511.922852,4312.820313,4410.256348,1706.000000,1.000000,23.000000,,,,0.000000,2.000000,2.000000,0.000000,4.000000,2.000000,2.000000,0.000000,0.000000,4.000000,4.000000,4.000000,4.000000,4.000000,4.000000,0.000000,,,,,,,,,,,,,,,,,24.000000,0.000000,0.517786,0.501953,-0.521973,0.455505,0.971310,0.016604,-0.041509,-34.214043,45.474796,31.245138
1732157772.602767,1732157772.605006,97.000000,0.000000,4294.487305,4254.358887,4339.871582,4302.436035,4283.717773,4292.563965,4341.666504,4411.538574,4295.769043,4278.461426,4470.512695,4510.769043,4310.512695,4409.615234,1628.000000,1.000000,23.000000,,,,0.000000,2.000000,2.000000,0.000000,4.000000,2.000000,2.000000,0.000000,0.000000,4.000000,4.000000,4.000000,4.000000,4.000000,4.000000,0.000000,,,,,,,,,,,,,,,,,,,,,,,,,,,,
1732157772.610575,1732157772.613014,98.000000,0.000000,4295.769043,4262.436035,4308.205078,4309.615234,4284.743652,4296.538574,4331.282227,4403.077148,4295.641113,4282.307617,4471.153809,4511.282227,4308.589844,4410.128418,1549.000000,1.000000,23.000000,,,,0.000000,2.000000,2.000000,0.000000,4.000000,2.000000,2.000000,0.000000,0.000000,4.000000,4.000000,4.000000,4.000000,4.000000,4.000000,0.000000,,,,,,,,,,,,,,,,,,,,,,,,,,,,
1732157772.618384,1732157772.620822,99.000000,0.000000,4294.871582,4257.051270,4308.589844,4305.897461,4281.794922,4291.922852,4334.615234,4398.974121,4296.282227,4289.871582,4474.358887,4514.102539,4313.205078,4412.179688,1571.000000,1.000000,23.000000,,,,0.000000,2.000000,2.000000,0.000000,4.000000,2.000000,2.000000,0.000000,0.000000,4.000000,4.000000,4.000000,4.000000,4.000000,4.000000,0.000000,,,,,,,,,,,,,,,,,,,,,,,,,,,,
1732157772.626192,1732157772.628731,100.000000,0.000000,4295.128418,4256.153809,4316.922852,4304.743652,4282.051270,4281.666504,4335.897461,4401.153809,4297.051270,4291.794922,4473.974121,4511.794922,4323.205078,4411.282227,1706.000000,1.000000,23.000000,,,,0.000000,2.000000,2.000000,0.000000,4.000000,2.000000,2.000000,0.000000,0.000000,4.000000,4.000000,4.000000,4.000000,4.000000,4.000000,0.000000,,,,,,,,,,,,,,,,,25.000000,0.000000,0.517389,0.501038,-0.522766,0.456055,0.985960,0.034184,-0.050787,-34.141708,45.479588,30.881895
1732157772.634000,1732157772.636539,101.000000,0.000000,4299.487305,4264.358887,4313.333496,4306.666504,4281.538574,4280.256348,4332.820313,4404.871582,4294.487305,4286.153809,4475.384766,4510.769043,4330.128418,4415.384766,1628.000000,1.000000,23.000000,,,,0.000000,2.000000,2.000000,0.000000,4.000000,2.000000,2.000000,0.000000,0.000000,4.000000,4.000000,4.000000,4.000000,4.000000,4.000000,0.000000,,,,,,,,,,,,,,,,,,,,,,,,,,,,
1732157772.641808,1732157772.644547,102.000000,0.000000,4301.538574,4260.641113,4313.461426,4302.307617,4281.153809,4282.820313,4334.358887,4402.563965,4291.794922,4288.077148,4485.897461,4516.410156,4333.974121,4425.641113,1549.000000,1.000000,23.000000,,,,0.000000,2.000000,2.000000,0.000000,4.000000,2.000000,2.000000,0.000000,0.000000,4.000000,4.000000,4.000000,4.000000,4.000000,4.000000,0.000000,,,,,,,,,,,,,,,,,,,,,,,,,,,,
1732157772.649617,1732157772.652355,103.000000,0.000000,4299.358887,4250.256348,4313.077148,4299.102539,4278.077148,4280.512695,4334.615234,4402.563965,4294.615234,4297.948730,4490.641113,4519.358887,4344.743652,4429.230957,1571.000000,1.000000,23.000000,,,,0.000000,2.000000,2.000000,0.000000,4.000000,2.000000,2.000000,0.000000,0.000000,4.000000,4.000000,4.000000,4.000000,4.000000,4.000000,0.000000,,,,,,,,,,,,,,,,,,,,,,,,,,,,
1732157772.657425,1732157772.660263,104.000000,0.000000,4302.179688,4248.205078,4311.025879,4296.794922,4272.692383,4277.436035,4334.358887,4408.333496,4297.436035,4298.461426,4491.794922,4518.333496,4353.846191,4431.538574,1706.000000,1.000000,23.000000,,,,0.000000,2.000000,2.000000,0.000000,4.000000,2.000000,2.000000,0.000000,0.000000,4.000000,4.000000,4.000000,4.000000,4.000000,4.000000,0.000000,,,,,,,,,,,,,,,,,26.000000,0.000000,0.516748,0.497864,-0.525146,0.457520,0.980588,0.017580,-0.045416,-33.981449,45.526798,31.147669
1732157772.665233,1732157772.668071,105.000000,0.000000,4305.512695,4243.461426,4311.666504,4290.000000,4269.871582,4278.589844,4337.563965,4405.769043,4294.615234,4294.871582,4501.922852,4520.000000,4358.333496,4440.128418,1628.000000,1.000000,23.000000,,,,0.000000,2.000000,2.000000,0.000000,4.000000,2.000000,2.000000,0.000000,0.000000,4.000000,4.000000,4.000000,4.000000,4.000000,4.000000,0.000000,,,,,,,,,,,,,,,,,,,,,,,,,,,,
1732157772.673041,1732157772.676079,106.000000,0.000000,4303.846191,4238.205078,4310.769043,4285.256348,4266.922852,4279.102539,4340.000000,4402.692383,4294.487305,4301.666504,4508.333496,4521.282227,4364.102539,4445.128418,1549.000000,1.000000,23.000000,,,,0.000000,2.000000,2.000000,0.000000,4.000000,2.000000,2.000000,0.000000,0.000000,4.000000,4.000000,4.000000,4.000000,4.000000,4.000000,0.000000,,,,,,,,,,,,,,,,,,,,,,,,,,,,
1732157772.680850,1732157772.683888,107.000000,0.000000,4305.512695,4240.256348,4311.922852,4286.282227,4264.487305,4279.102539,4336.666504,4408.077148,4300.000000,4303.589844,4503.589844,4520.512695,4366.538574,4442.307617,1571.000000,1.000000,23.000000,,,,0.000000,2.000000,2.000000,0.000000,4.000000,2.000000,2.000000,0.000000,0.000000,4.000000,4.000000,4.000000,4.000000,4.000000,4.000000,0.000000,,,,,,,,,,,,,,,,,,,,,,,,,,,,
1732157772.688658,1732157772.691796,108.000000,0.000000,4312.436035,4237.820313,4315.000000,4287.563965,4265.769043,4279.102539,4332.563965,4409.358887,4300.769043,4298.205078,4504.743652,4522.948730,4371.410156,4448.077148,1706.000000,1.000000,23.000000,,,,0.000000,2.000000,2.000000,0.000000,4.000000,2.000000,2.000000,0.000000,0.000000,4.000000,4.000000,4.000000,4.000000,4.000000,4.000000,0.000000,,,,,,,,,,,,,,,,,27.000000,0.000000,0.516547,0.494690,-0.527222,0.458801,0.988402,0.017580,-0.053229,-33.881641,45.590038,31.451279
1732157772.696466,1732157772.699604,109.000000,0.000000,4314.358887,4231.538574,4314.102539,4287.563965,4265.641113,4278.333496,4334.358887,4406.410156,4296.153809,4298.717773,4511.153809,4529.358887,4382.307617,4460.512695,1628.000000,1.000000,23.000000,,,,0.000000,2.000000,2.000000,0.000000,4.000000,2.000000,2.000000,0.000000,0.000000,4.000000,4.000000,4.000000,4.000000,4.000000,4.000000,0.000000,,,,,,,,,,,,,,,,,,,,,,,,,,,,
1732157772.704274,1732157772.707612,110.000000,0.000000,4312.307617,4231.410156,4311.410156,4283.589844,4262.948730,4277.563965,4335.384766,4405.897461,4295.384766,4298.846191,4510.128418,4532.179688,4383.077148,4462.307617,1549.000000,1.000000,23.000000,,,,0.000000,2.000000,2.000000,0.000000,4.000000,2.000000,2.000000,0.000000,0.000000,4.000000,4.000000,4.000000,4.000000,4.000000,4.000000,0.000000,,,,,,,,,,,,,,,,,,,,,,,,,,,,
1732157772.712083,1732157772.715420,111.000000,0.000000,4312.692383,4234.230957,4312.436035,4281.153809,4263.717773,4278.333496,4333.589844,4401.794922,4296.282227,4294.358887,4506.794922,4527.307617,4373.461426,4456.538574,1571.000000,1.000000,23.000000,,,,0.000000,2.000000,2.000000,0.000000,4.000000,2.000000,2.000000,0.000000,0.000000,4.000000,4.000000,4.000000,4.000000,4.000000,4.000000,0.000000,,,,,,,,,,,,,,,,,,,,,,,,,,,,
1732157772.719891,1732157772.723328,112.000000,0.000000,4314.487305,4230.512695,4313.461426,4280.897461,4264.487305,4278.589844,4333.974121,4398.589844,4295.769043,4292.436035,4504.102539,4525.000000,4374.230957,4457.307617,1706.000000,1.000000,23.000000,,,,0.000000,2.000000,2.000000,0.000000,4.000000,2.000000,2.000000,0.000000,0.000000,4.000000,4.000000,4.000000,4.000000,4.000000,4.000000,0.000000,,,,,,,,,,,,,,,,,28.000000,0.000000,0.516547,0.494690,-0.527222,0.458801,0.987425,0.010743,-0.050787,-34.100796,45.611267,31.487202
1732157772.727699,1732157772.731136,113.000000,0.000000,4320.256348,4228.846191,4312.307617,4280.000000,4263.461426,4272.820313,4333.974121,4401.538574,4295.641113,4295.769043,4506.153809,4529.615234,4382.692383,4467.948730,1628.000000,1.000000,23.000000,,,,0.000000,2.000000,2.000000,0.000000,4.000000,2.000000,2.000000,0.000000,0.000000,4.000000,4.000000,4.000000,4.000000,4.000000,4.000000,0.000000,,,,,,,,,,,,,,,,,,,,,,,,,,,,
1732157772.735507,1732157772.738745,114.000000,0.000000,4326.025879,4238.461426,4312.179688,4283.974121,4264.358887,4264.871582,4333.717773,4404.487305,4294.487305,4295.641113,4515.769043,4534.487305,4385.384766,4477.051270,1549.000000,1.000000,23.000000,,,,0.000000,2.000000,2.000000,0.000000,4.000000,2.000000,2.000000,0.000000,0.000000,4.000000,4.000000,4.000000,4.000000,4.000000,4.000000,0.000000,,,,,,,,,,,,,,,,,,,,,,,,,,,,
1732157772.743316,1732157772.746553,115.000000,0.000000,4326.410156,4248.205078,4314.743652,4286.794922,4262.820313,4264.102539,4333.974121,4407.563965,4294.487305,4294.230957,4520.000000,4542.051270,4386.282227,4478.333496,1571.000000,1.000000,23.000000,,,,0.000000,2.000000,2.000000,0.000000,4.000000,2.000000,2.000000,0.000000,0.000000,4.000000,4.000000,4.000000,4.000000,4.000000,4.000000,0.000000,,,,,,,,,,,,,,,,,,,,,,,,,,,,
1732157772.751124,1732157772.754261,116.000000,0.000000,4328.589844,4246.794922,4315.769043,4283.846191,4261.025879,4266.025879,4333.846191,4407.563965,4295.512695,4295.256348,4518.077148,4546.922852,4387.179688,4481.666504,1706.000000,1.000000,23.000000,,,,0.000000,2.000000,2.000000,0.000000,4.000000,2.000000,2.000000,0.000000,0.000000,4.000000,4.000000,4.000000,4.000000,4.000000,4.000000,0.000000,,,,,,,,,,,,,,,,,29.000000,0.000000,0.516802,0.492615,-0.528381,0.459412,0.985960,0.010743,-0.050299,-34.418312,45.750126,31.529633
1732157772.758932,1732157772.762070,117.000000,0.000000,4335.000000,4244.358887,4314.358887,4284.230957,4262.692383,4263.589844,4333.846191,4405.641113,4294.102539,4297.179688,4521.025879,4546.666504,4392.179688,4489.102539,1628.000000,1.000000,23.000000,,,,0.000000,2.000000,2.000000,0.000000,4.000000,2.000000,2.000000,0.000000,0.000000,4.000000,4.000000,4.000000,4.000000,4.000000,4.000000,0.000000,,,,,,,,,,,,,,,,,,,,,,,,,,,,
1732157772.766740,1732157772.769678,118.000000,0.000000,4336.538574,4247.948730,4314.871582,4287.051270,4259.743652,4262.051270,4333.846191,4408.974121,4294.743652,4296.025879,4519.871582,4550.384766,4396.025879,4490.897461,1549.000000,1.000000,23.000000,,,,0.000000,2.000000,2.000000,0.000000,4.000000,2.000000,2.000000,0.000000,0.000000,4.000000,4.000000,4.000000,4.000000,4.000000,4.000000,0.000000,,,,,,,,,,,,,,,,,,,,,,,,,,,,
1732157772.774549,1732157772.777486,119.000000,0.000000,4333.077148,4248.846191,4315.256348,4285.897461,4256.410156,4264.743652,4333.846191,4408.077148,4295.897461,4293.589844,4512.820313,4550.256348,4393.077148,4488.461426,1571.000000,1.000000,23.000000,,,,0.000000,2.000000,2.000000,0.000000,4.000000,2.000000,2.000000,0.000000,0.000000,4.000000,4.000000,4.000000,4.000000,4.000000,4.000000,0.000000,,,,,,,,,,,,,,,,,,,,,,,,,,,,
1732157772.782357,1732157772.785394,120.000000,0.000000,4334.615234,4247.563965,4313.205078,4286.153809,4261.153809,4265.512695,4333.846191,4402.948730,4293.333496,4292.948730,4516.153809,4547.563965,4392.692383,4490.769043,1706.000000,1.000000,23.000000,,,,0.000000,2.000000,2.000000,0.000000,4.000000,2.000000,2.000000,0.000000,0.000000,4.000000,4.000000,4.000000,4.000000,4.000000,4.000000,0.000000,,,,,,,,,,,,,,,,,30.000000,0.000000,0.517242,0.488953,-0.529968,0.460999,0.989867,0.017092,-0.040044,-34.448833,45.832600,31.420670
1732157772.790165,1732157772.793202,121.000000,0.000000,4340.256348,4248.846191,4312.051270,4290.512695,4263.461426,4264.230957,4333.846191,4401.538574,4290.897461,4289.615234,4524.487305,4546.922852,4397.051270,4492.179688,1628.000000,1.000000,23.000000,,,,0.000000,2.000000,2.000000,0.000000,4.000000,2.000000,2.000000,0.000000,0.000000,4.000000,4.000000,4.000000,4.000000,4.000000,4.000000,0.000000,,,,,,,,,,,,,,,,,,,,,,,,,,,,
1732157772.797973,1732157772.801210,122.000000,0.000000,4342.051270,4251.282227,4315.000000,4292.563965,4260.128418,4265.128418,4333.846191,4401.666504,4288.077148,4283.333496,4516.282227,4541.538574,4390.641113,4489.358887,1549.000000,1.000000,23.000000,,,,0.000000,2.000000,2.000000,0.000000,4.000000,2.000000,2.000000,0.000000,0.000000,4.000000,4.000000,4.000000,4.000000,4.000000,4.000000,0.000000,,,,,,,,,,,,,,,,,,,,,,,,,,,,
1732157772.805782,1732157772.809019,123.000000,0.000000,4341.410156,4251.922852,4316.153809,4293.974121,4262.948730,4266.410156,4333.846191,4401.153809,4282.436035,4277.692383,4505.769043,4535.384766,4383.077148,4486.410156,1571.000000,1.000000,23.000000,,,,0.000000,2.000000,2.000000,0.000000,4.000000,2.000000,2.000000,0.000000,0.000000,4.000000,4.000000,4.000000,4.000000,4.000000,4.000000,0.000000,,,,,,,,,,,,,,,,,,,,,,,,,,,,
1732157772.813590,1732157772.816727,124.000000,0.000000,4342.179688,4250.000000,4317.948730,4294.743652,4265.641113,4265.256348,4333.846191,4401.794922,4283.846191,4277.307617,4508.205078,4537.307617,4388.333496,4487.563965,1706.000000,1.000000,23.000000,,,,0.000000,2.000000,2.000000,0.000000,4.000000,2.000000,2.000000,0.000000,0.000000,4.000000,4.000000,4.000000,4.000000,4.000000,4.000000,0.000000,,,,,,,,,,,,,,,,,31.000000,0.000000,0.517218,0.487854,-0.530579,0.461487,0.992797,0.004395,-0.020999,-34.311886,45.711075,31.370743
1732157772.821398,1732157772.824535,125.000000,0.000000,4342.179688,4252.051270,4319.102539,4293.717773,4262.820313,4264.743652,4333.846191,4402.692383,4293.333496,4280.000000,4510.512695,4540.384766,4388.461426,4490.769043,1628.000000,1.000000,23.000000,,,,0.000000,2.000000,2.000000,0.000000,4.000000,2.000000,2.000000,0.000000,0.000000,4.000000,4.000000,4.000000,4.000000,4.000000,4.000000,0.000000,,,,,,,,,,,,,,,,,,,,,,,,,,,,
1732157772.829206,1732157772.832144,126.000000,0.000000,4341.922852,4259.871582,4315.384766,4291.538574,4262.307617,4266.153809,4333.846191,4401.922852,4296.025879,4279.743652,4513.077148,4541.410156,4386.794922,4491.666504,1549.000000,1.000000,23.000000,,,,0.000000,2.000000,2.000000,0.000000,4.000000,2.000000,2.000000,0.000000,0.000000,4.000000,4.000000,4.000000,4.000000,4.000000,4.000000,0.000000,,,,,,,,,,,,,,,,,,,,,,,,,,,,
1732157772.837015,1732157772.839952,127.000000,0.000000,4345.384766,4263.333496,4314.871582,4290.000000,4264.358887,4266.282227,4333.846191,4403.333496,4294.743652,4283.333496,4519.615234,4545.384766,4393.974121,4496.153809,23.000000,1.000000,23.000000,,,,0.000000,2.000000,2.000000,0.000000,4.000000,2.000000,2.000000,0.000000,0.000000,4.000000,4.000000,4.000000,4.000000,4.000000,4.000000,0.000000,,,,,,,,,,,,,,,,,,,,,,,,,,,,
1732157772.844823,1732157772.847660,0.000000,0.000000,4350.384766,4261.794922,4315.769043,4291.410156,4263.077148,4262.820313,4333.846191,4402.692383,4296.794922,4289.358887,4521.794922,4546.153809,4397.307617,4502.692383,0.000000,1.000000,23.000000,,,,0.000000,2.000000,2.000000,0.000000,4.000000,2.000000,2.000000,0.000000,0.000000,4.000000,4.000000,4.000000,4.000000,4.000000,4.000000,0.000000,,,,,,,,,,,,,,,,,0.000000,0.000000,0.517218,0.487854,-0.530579,0.461487,0.990844,0.017580,-0.029300,-34.350964,45.597637,31.360302
1732157772.852631,1732157772.855468,1.000000,0.000000,4352.179688,4261.025879,4312.948730,4292.179688,4252.436035,4258.077148,4333.846191,4401.282227,4298.717773,4291.666504,4519.615234,4546.282227,4394.743652,4499.871582,1594.000000,1.000000,23.000000,,,,0.000000,2.000000,2.000000,0.000000,4.000000,2.000000,2.000000,0.000000,0.000000,4.000000,4.000000,4.000000,4.000000,4.000000,4.000000,0.000000,,,,,,,,,,,,,,,,,,,,,,,,,,,,
1732157772.860439,1732157772.863476,2.000000,0.000000,4347.948730,4261.666504,4313.077148,4290.769043,4251.153809,4258.974121,4333.846191,4403.846191,4296.282227,4292.051270,4521.922852,4545.256348,4396.282227,4493.461426,1364.000000,1.000000,23.000000,,,,0.000000,2.000000,2.000000,0.000000,4.000000,2.000000,2.000000,0.000000,0.000000,4.000000,4.000000,4.000000,4.000000,4.000000,4.000000,0.000000,,,,,,,,,,,,,,,,,,,,,,,,,,,,
1732157772.868248,1732157772.871285,3.000000,0.000000,4343.717773,4261.666504,4317.307617,4293.846191,4275.000000,4263.974121,4333.846191,4403.461426,4288.205078,4287.563965,4523.589844,4541.025879,4399.230957,4499.743652,1421.000000,1.000000,23.000000,,,,0.000000,2.000000,2.000000,0.000000,4.000000,2.000000,2.000000,0.000000,0.000000,4.000000,4.000000,4.000000,4.000000,4.000000,4.000000,0.000000,,,,,,,,,,,,,,,,,,,,,,,,,,,,
1732157772.876056,1732157772.879193,4.000000,0.000000,4348.333496,4263.589844,4316.794922,4302.436035,4280.769043,4262.820313,4333.846191,4400.897461,4284.487305,4280.000000,4520.641113,4538.974121,4398.205078,4507.179688,1426.000000,1.000000,23.000000,,,,0.000000,2.000000,2.000000,0.000000,4.000000,2.000000,2.000000,0.000000,0.000000,4.000000,4.000000,4.000000,4.000000,4.000000,4.000000,0.000000,,,,,,,,,,,,,,,,,1.000000,0.000000,0.517045,0.486206,-0.531250,0.462646,0.975217,-0.001953,-0.019534,-34.327614,45.459084,31.255178
1732157772.883864,1732157772.887001,5.000000,0.000000,4352.948730,4266.538574,4315.000000,4308.205078,4253.333496,4259.871582,4333.846191,4405.256348,4291.025879,4280.769043,4519.615234,4539.102539,4396.666504,4499.615234,1217.000000,1.000000,23.000000,,,,0.000000,2.000000,2.000000,0.000000,4.000000,2.000000,2.000000,0.000000,0.000000,4.000000,4.000000,4.000000,4.000000,4.000000,4.000000,0.000000,,,,,,,,,,,,,,,,,,,,,,,,,,,,
1732157772.891672,1732157772.895009,6.000000,0.000000,4347.436035,4267.179688,4317.051270,4307.436035,4247.948730,4262.307617,4333.846191,4408.205078,4295.256348,4283.846191,4519.487305,4538.717773,4395.256348,4489.358887,0.000000,1.000000,23.000000,,,,0.000000,2.000000,2.000000,0.000000,4.000000,2.000000,2.000000,0.000000,0.000000,4.000000,4.000000,4.000000,4.000000,4.000000,4.000000,0.000000,,,,,,,,,,,,,,,,,,,,,,,,,,,,
1732157772.899480,1732157772.902817,7.000000,0.000000,4341.538574,4265.769043,4317.948730,4302.563965,4269.230957,4267.179688,4333.846191,4401.282227,4291.410156,4282.563965,4521.282227,4536.794922,4396.410156,4489.102539,0.000000,1.000000,23.000000,,,,0.000000,2.000000,2.000000,0.000000,4.000000,2.000000,2.000000,0.000000,0.000000,4.000000,4.000000,4.000000,4.000000,4.000000,4.000000,0.000000,,,,,,,,,,,,,,,,,,,,,,,,,,,,
1732157772.907289,1732157772.910725,8.000000,0.000000,4340.512695,4264.871582,4316.153809,4298.205078,4267.179688,4275.769043,4333.846191,4398.461426,4292.820313,4287.820313,4519.743652,4531.025879,4396.153809,4489.102539,1531.000000,1.000000,23.000000,,,,0.000000,2.000000,2.000000,0.000000,4.000000,2.000000,2.000000,0.000000,0.000000,4.000000,4.000000,4.000000,4.000000,4.000000,4.000000,0.000000,,,,,,,,,,,,,,,,,2.000000,0.000000,0.516701,0.485229,-0.532104,0.463074,0.994262,0.006837,-0.037114,-34.400368,45.583527,31.448360
1732157772.915097,1732157772.918533,9.000000,0.000000,4335.256348,4263.461426,4318.717773,4291.794922,4265.384766,4282.563965,4333.846191,4406.666504,4298.077148,4294.743652,4511.922852,4528.846191,4390.897461,4480.897461,1686.000000,1.000000,23.000000,,,,0.000000,2.000000,2.000000,0.000000,4.000000,2.000000,2.000000,0.000000,0.000000,4.000000,4.000000,4.000000,4.000000,4.000000,4.000000,0.000000,,,,,,,,,,,,,,,,,,,,,,,,,,,,
1732157772.922905,1732157772.926142,10.000000,0.000000,4330.000000,4262.179688,4319.743652,4287.563965,4284.871582,4281.282227,4333.846191,4407.563965,4295.512695,4293.333496,4506.666504,4531.282227,4388.589844,4475.000000,1544.000000,1.000000,23.000000,,,,0.000000,2.000000,2.000000,0.000000,4.000000,2.000000,2.000000,0.000000,0.000000,4.000000,4.000000,4.000000,4.000000,4.000000,4.000000,0.000000,,,,,,,,,,,,,,,,,,,,,,,,,,,,
1732157772.930714,1732157772.933950,11.000000,0.000000,4333.205078,4264.230957,4313.974121,4290.000000,4277.436035,4278.717773,4333.846191,4401.922852,4293.589844,4290.897461,4508.717773,4529.743652,4387.051270,4475.128418,1568.000000,1.000000,23.000000,,,,0.000000,2.000000,2.000000,0.000000,4.000000,2.000000,2.000000,0.000000,0.000000,4.000000,4.000000,4.000000,4.000000,4.000000,4.000000,0.000000,,,,,,,,,,,,,,,,,,,,,,,,,,,,
1732157772.938522,1732157772.941658,12.000000,0.000000,4336.025879,4267.307617,4310.641113,4292.948730,4257.179688,4279.615234,4333.846191,4400.512695,4296.794922,4291.922852,4508.974121,4525.512695,4386.282227,4477.179688,1706.000000,1.000000,23.000000,,,,0.000000,2.000000,2.000000,0.000000,4.000000,2.000000,2.000000,0.000000,0.000000,4.000000,4.000000,4.000000,4.000000,4.000000,4.000000,0.000000,,,,,,,,,,,,,,,,,3.000000,0.000000,0.516561,0.484985,-0.532410,0.463135,0.986937,0.000000,-0.027347,-34.609295,45.472656,31.584839
1732157772.946330,1732157772.949467,13.000000,0.000000,4335.000000,4266.153809,4315.256348,4295.256348,4257.436035,4279.230957,4333.846191,4403.717773,4297.307617,4292.692383,4507.563965,4527.051270,4388.717773,4480.000000,1611.000000,1.000000,23.000000,,,,0.000000,2.000000,2.000000,0.000000,4.000000,2.000000,2.000000,0.000000,0.000000,4.000000,4.000000,4.000000,4.000000,4.000000,4.000000,0.000000,,,,,,,,,,,,,,,,,,,,,,,,,,,,
1732157772.954138,1732157772.957475,14.000000,0.000000,4334.358887,4267.948730,4317.436035,4296.282227,4265.384766,4273.077148,4333.846191,4405.897461,4295.000000,4287.948730,4509.230957,4529.102539,4387.051270,4479.615234,1544.000000,1.000000,23.000000,,,,0.000000,2.000000,2.000000,0.000000,4.000000,2.000000,2.000000,0.000000,0.000000,4.000000,4.000000,4.000000,4.000000,4.000000,4.000000,0.000000,1.000000,0.000000,2.000000,2.000000,0.000000,4.000000,2.000000,2.000000,0.000000,0.000000,4.000000,4.000000,4.000000,4.000000,4.000000,4.000000,,,,,,,,,,,,
1732157772.961947,1732157772.965283,15.000000,0.000000,4335.128418,4275.384766,4316.794922,4296.538574,4273.589844,4264.487305,4333.846191,4403.717773,4294.102539,4279.871582,4507.307617,4524.102539,4381.410156,4474.358887,1568.000000,1.000000,23.000000,,,,0.000000,2.000000,2.000000,0.000000,4.000000,2.000000,2.000000,0.000000,0.000000,4.000000,4.000000,4.000000,4.000000,4.000000,4.000000,0.000000,,,,,,,,,,,,,,,,,,,,,,,,,,,,
1732157772.969755,1732157772.973191,16.000000,0.000000,4338.077148,4281.153809,4318.461426,4299.743652,4275.128418,4265.769043,4333.846191,4401.666504,4292.436035,4277.436035,4502.692383,4520.256348,4380.897461,4473.461426,0.000000,1.000000,23.000000,,,,0.000000,2.000000,2.000000,0.000000,4.000000,2.000000,2.000000,0.000000,0.000000,4.000000,4.000000,4.000000,4.000000,4.000000,4.000000,0.000000,,,,,,,,,,,,,,,,,4.000000,0.000000,0.516166,0.484619,-0.533020,0.463257,0.985960,-0.000488,-0.026370,-34.731865,45.332851,31.573719
1732157772.977563,1732157772.980999,17.000000,0.000000,4342.436035,4280.384766,4318.974121,4309.615234,4265.128418,4278.205078,4333.846191,4400.769043,4290.769043,4278.461426,4502.948730,4521.410156,4383.333496,4478.717773,0.000000,1.000000,23.000000,,,,0.000000,2.000000,2.000000,0.000000,4.000000,2.000000,2.000000,0.000000,0.000000,4.000000,4.000000,4.000000,4.000000,4.000000,4.000000,0.000000,,,,,,,,,,,,,,,,,,,,,,,,,,,,
1732157772.985371,1732157772.989007,18.000000,0.000000,4341.282227,4280.641113,4317.948730,4311.153809,4261.025879,4282.436035,4333.846191,4402.307617,4297.436035,4282.307617,4506.538574,4525.512695,4382.692383,4479.230957,0.000000,1.000000,23.000000,,,,0.000000,2.000000,2.000000,0.000000,4.000000,2.000000,2.000000,0.000000,0.000000,4.000000,4.000000,4.000000,4.000000,4.000000,4.000000,0.000000,,,,,,,,,,,,,,,,,,,,,,,,,,,,
1732157772.993179,1732157772.996815,19.000000,0.000000,4332.948730,4278.846191,4316.538574,4300.384766,4270.384766,4278.589844,4333.846191,4403.205078,4304.615234,4292.179688,4508.717773,4523.589844,4382.436035,4475.128418,0.000000,1.000000,23.000000,,,,0.000000,2.000000,2.000000,0.000000,4.000000,2.000000,2.000000,0.000000,0.000000,4.000000,4.000000,4.000000,4.000000,4.000000,4.000000,0.000000,,,,,,,,,,,,,,,,,,,,,,,,,,,,
1732157773.000988,1732157773.004723,20.000000,0.000000,4326.922852,4271.666504,4315.000000,4297.051270,4271.153809,4281.666504,4333.846191,4403.077148,4300.897461,4293.717773,4508.077148,4521.538574,4382.307617,4470.512695,0.000000,1.000000,23.000000,,,,0.000000,2.000000,2.000000,0.000000,4.000000,2.000000,2.000000,0.000000,0.000000,4.000000,4.000000,4.000000,4.000000,4.000000,4.000000,0.000000,,,,,,,,,,,,,,,,,5.000000,0.000000,0.514668,0.484436,-0.533997,0.463989,0.976193,-0.012209,-0.037114,-34.646141,45.329609,31.471380
1732157773.008796,1732157773.012532,21.000000,0.000000,4324.230957,4268.205078,4314.487305,4296.153809,4273.205078,4284.871582,4333.846191,4402.179688,4293.589844,4282.436035,4505.256348,4523.333496,4382.051270,4467.307617,0.000000,1.000000,23.000000,,,,0.000000,2.000000,2.000000,0.000000,4.000000,2.000000,2.000000,0.000000,0.000000,4.000000,4.000000,4.000000,4.000000,4.000000,4.000000,0.000000,,,,,,,,,,,,,,,,,,,,,,,,,,,,
1732157773.016604,1732157773.020140,22.000000,0.000000,4318.461426,4267.948730,4313.589844,4285.512695,4284.871582,4281.282227,4333.846191,4401.025879,4294.743652,4277.436035,4504.230957,4519.743652,4379.743652,4463.589844,0.000000,1.000000,23.000000,,,,0.000000,2.000000,2.000000,0.000000,4.000000,2.000000,2.000000,0.000000,0.000000,4.000000,4.000000,4.000000,4.000000,4.000000,4.000000,0.000000,,,,,,,,,,,,,,,,,,,,,,,,,,,,
1732157773.024413,1732157773.027948,23.000000,0.000000,4317.051270,4270.512695,4312.436035,4282.692383,4280.769043,4279.358887,4333.846191,4403.589844,4301.282227,4288.589844,4506.666504,4517.179688,4377.436035,4459.871582,0.000000,1.000000,23.000000,,,,0.000000,2.000000,2.000000,0.000000,4.000000,2.000000,2.000000,0.000000,0.000000,4.000000,4.000000,4.000000,4.000000,4.000000,4.000000,0.000000,,,,,,,,,,,,,,,,,,,,,,,,,,,,
1732157773.032221,1732157773.035856,24.000000,0.000000,4323.461426,4277.051270,4313.205078,4294.230957,4265.384766,4281.025879,4333.846191,4404.871582,4302.563965,4297.051270,4507.436035,4521.922852,4381.153809,4465.512695,0.000000,1.000000,23.000000,,,,0.000000,2.000000,2.000000,0.000000,4.000000,2.000000,2.000000,0.000000,0.000000,4.000000,4.000000,4.000000,4.000000,4.000000,4.000000,0.000000,,,,,,,,,,,,,,,,,6.000000,0.000000,0.514012,0.484436,-0.534363,0.464294,0.980588,-0.003418,-0.040044,-34.713375,45.316982,31.390150
1732157773.040029,1732157773.043665,25.000000,0.000000,4327.563965,4278.974121,4312.179688,4297.820313,4257.436035,4279.358887,4333.846191,4400.384766,4296.922852,4288.077148,4506.794922,4526.410156,4381.666504,4473.205078,0.000000,1.000000,23.000000,,,,0.000000,2.000000,2.000000,0.000000,4.000000,2.000000,2.000000,0.000000,0.000000,4.000000,4.000000,4.000000,4.000000,4.000000,4.000000,0.000000,,,,,,,,,,,,,,,,,,,,,,,,,,,,
1732157773.047837,1732157773.051673,26.000000,0.000000,4324.230957,4276.410156,4313.205078,4293.717773,4265.512695,4275.128418,4333.846191,4400.512695,4292.436035,4278.205078,4503.333496,4522.051270,4373.717773,4466.666504,0.000000,1.000000,23.000000,,,,0.000000,2.000000,2.000000,0.000000,4.000000,2.000000,2.000000,0.000000,0.000000,4.000000,4.000000,4.000000,4.000000,4.000000,4.000000,0.000000,,,,,,,,,,,,,,,,,,,,,,,,,,,,
1732157773.055646,1732157773.059481,27.000000,0.000000,4325.512695,4277.948730,4317.563965,4302.051270,4271.410156,4279.615234,4333.846191,4406.538574,4293.589844,4278.717773,4495.769043,4515.000000,4366.666504,4456.922852,0.000000,1.000000,23.000000,,,,0.000000,2.000000,2.000000,0.000000,4.000000,2.000000,2.000000,0.000000,0.000000,4.000000,4.000000,4.000000,4.000000,4.000000,4.000000,0.000000,,,,,,,,,,,,,,,,,,,,,,,,,,,,
1732157773.063454,1732157773.067389,28.000000,0.000000,4326.410156,4279.615234,4317.692383,4307.436035,4272.820313,4285.641113,4333.846191,4405.769043,4294.615234,4280.512695,4488.717773,4515.897461,4362.179688,4457.820313,0.000000,1.000000,23.000000,,,,0.000000,2.000000,2.000000,0.000000,4.000000,2.000000,2.000000,0.000000,0.000000,4.000000,4.000000,4.000000,4.000000,4.000000,4.000000,0.000000,,,,,,,,,,,,,,,,,7.000000,0.000000,0.513767,0.484436,-0.534546,0.464355,0.980588,-0.003418,-0.040044,-34.799500,45.098423,31.157688
1732157773.071262,1732157773.075197,29.000000,0.000000,4316.666504,4274.743652,4316.410156,4299.102539,4290.512695,4285.384766,4333.846191,4401.410156,4297.307617,4278.717773,4487.692383,4514.871582,4357.051270,4453.461426,0.000000,1.000000,23.000000,,,,0.000000,2.000000,2.000000,0.000000,4.000000,2.000000,2.000000,0.000000,0.000000,4.000000,4.000000,4.000000,4.000000,4.000000,4.000000,0.000000,,,,,,,,,,,,,,,,,,,,,,,,,,,,
1732157773.079070,1732157773.082805,30.000000,0.000000,4312.820313,4275.000000,4317.692383,4296.922852,4296.025879,4289.230957,4333.846191,4403.461426,4300.128418,4280.641113,4489.615234,4511.153809,4356.538574,4444.743652,0.000000,1.000000,23.000000,,,,0.000000,2.000000,2.000000,0.000000,4.000000,2.000000,2.000000,0.000000,0.000000,4.000000,4.000000,4.000000,4.000000,4.000000,4.000000,0.000000,,,,,,,,,,,,,,,,,,,,,,,,,,,,
1732157773.086878,1732157773.090614,31.000000,0.000000,4322.692383,4278.461426,4316.538574,4304.102539,4273.717773,4293.589844,4333.846191,4404.615234,4299.230957,4282.820313,4489.871582,4515.897461,4358.717773,4448.846191,0.000000,1.000000,23.000000,,,,0.000000,2.000000,2.000000,0.000000,4.000000,2.000000,2.000000,0.000000,0.000000,4.000000,4.000000,4.000000,4.000000,4.000000,4.000000,0.000000,,,,,,,,,,,,,,,,,,,,,,,,,,,,
1732157773.094687,1732157773.098322,32.000000,0.000000,4327.563965,4279.743652,4315.769043,4306.153809,4256.794922,4286.922852,4333.846191,4401.025879,4300.769043,4282.051270,4491.282227,4524.102539,4357.563965,4458.846191,0.000000,1.000000,23.000000,,,,0.000000,2.000000,2.000000,0.000000,4.000000,2.000000,2.000000,0.000000,0.000000,4.000000,4.000000,4.000000,4.000000,4.000000,4.000000,0.000000,,,,,,,,,,,,,,,,,8.000000,0.000000,0.512425,0.484741,-0.534973,0.465027,0.994750,-0.021487,-0.056648,-34.909264,45.426392,31.242727
1732157773.102495,1732157773.106130,33.000000,0.000000,4327.436035,4280.256348,4316.922852,4301.282227,4268.717773,4277.820313,4333.846191,4401.025879,4303.205078,4281.025879,4493.589844,4523.846191,4359.230957,4460.256348,0.000000,1.000000,23.000000,,,,0.000000,2.000000,2.000000,0.000000,4.000000,2.000000,2.000000,0.000000,0.000000,4.000000,4.000000,4.000000,4.000000,4.000000,4.000000,0.000000,,,,,,,,,,,,,,,,,,,,,,,,,,,,
1732157773.110303,1732157773.113739,34.000000,0.000000,4330.641113,4280.897461,4316.666504,4298.589844,4281.922852,4275.256348,4333.846191,4402.692383,4297.948730,4278.717773,4492.820313,4520.897461,4364.358887,4457.563965,0.000000,1.000000,23.000000,,,,0.000000,2.000000,2.000000,0.000000,4.000000,2.000000,2.000000,0.000000,0.000000,4.000000,4.000000,4.000000,4.000000,4.000000,4.000000,0.000000,,,,,,,,,,,,,,,,,,,,,,,,,,,,
1732157773.118111,1732157773.121547,35.000000,0.000000,4329.615234,4282.436035,4316.922852,4304.358887,4273.333496,4278.846191,4333.846191,4403.205078,4293.846191,4278.589844,4491.538574,4523.846191,4366.025879,4457.820313,0.000000,1.000000,23.000000,,,,0.000000,2.000000,2.000000,0.000000,4.000000,2.000000,2.000000,0.000000,0.000000,4.000000,4.000000,4.000000,4.000000,4.000000,4.000000,0.000000,,,,,,,,,,,,,,,,,,,,,,,,,,,,
1732157773.125920,1732157773.129255,36.000000,0.000000,4327.436035,4282.948730,4317.051270,4310.000000,4262.307617,4283.077148,4333.846191,4403.205078,4300.897461,4280.128418,4495.000000,4523.205078,4363.974121,4459.102539,0.000000,1.000000,23.000000,,,,0.000000,2.000000,2.000000,0.000000,4.000000,2.000000,2.000000,0.000000,0.000000,4.000000,4.000000,4.000000,4.000000,4.000000,4.000000,0.000000,,,,,,,,,,,,,,,,,9.000000,0.000000,0.511800,0.484924,-0.535034,0.465454,0.988890,-0.010743,-0.047369,-35.014835,45.508709,31.344942
1732157773.133728,1732157773.137063,37.000000,0.000000,4328.717773,4279.102539,4316.025879,4307.692383,4260.000000,4285.897461,4333.846191,4399.615234,4304.102539,4281.538574,4496.922852,4522.051270,4360.128418,4460.769043,0.000000,1.000000,23.000000,,,,0.000000,2.000000,2.000000,0.000000,4.000000,2.000000,2.000000,0.000000,0.000000,4.000000,4.000000,4.000000,4.000000,4.000000,4.000000,0.000000,,,,,,,,,,,,,,,,,,,,,,,,,,,,
1732157773.141536,1732157773.144672,38.000000,0.000000,4320.384766,4276.025879,4315.512695,4304.743652,4276.153809,4288.077148,4333.846191,4397.436035,4296.025879,4280.256348,4490.256348,4522.563965,4352.692383,4455.256348,0.000000,1.000000,23.000000,,,,0.000000,2.000000,2.000000,0.000000,4.000000,2.000000,2.000000,0.000000,0.000000,4.000000,4.000000,4.000000,4.000000,4.000000,4.000000,0.000000,,,,,,,,,,,,,,,,,,,,,,,,,,,,
1732157773.149345,1732157773.152480,39.000000,0.000000,4311.538574,4276.922852,4318.077148,4304.358887,4292.436035,4288.077148,4333.846191,4406.153809,4292.692383,4278.461426,4485.769043,4520.512695,4348.333496,4444.487305,0.000000,1.000000,23.000000,,,,0.000000,2.000000,2.000000,0.000000,4.000000,2.000000,2.000000,0.000000,0.000000,4.000000,4.000000,4.000000,4.000000,4.000000,4.000000,0.000000,,,,,,,,,,,,,,,,,,,,,,,,,,,,
1732157773.157153,1732157773.160188,40.000000,0.000000,4316.538574,4278.974121,4318.461426,4305.512695,4280.128418,4282.820313,4333.846191,4410.641113,4301.025879,4282.436035,4490.897461,4522.692383,4351.282227,4448.333496,0.000000,1.000000,23.000000,,,,0.000000,2.000000,2.000000,0.000000,4.000000,2.000000,2.000000,0.000000,0.000000,4.000000,4.000000,4.000000,4.000000,4.000000,4.000000,0.000000,,,,,,,,,,,,,,,,,10.000000,0.000000,0.511506,0.484924,-0.535156,0.465637,0.992797,-0.001465,-0.041997,-35.582016,45.697056,31.469404
1732157773.164961,1732157773.167996,41.000000,0.000000,4319.358887,4279.487305,4315.641113,4308.205078,4262.820313,4278.846191,4333.846191,4401.922852,4303.717773,4285.384766,4495.128418,4522.179688,4352.820313,4456.666504,0.000000,1.000000,23.000000,,,,0.000000,2.000000,2.000000,0.000000,4.000000,2.000000,2.000000,0.000000,0.000000,4.000000,4.000000,4.000000,4.000000,4.000000,4.000000,0.000000,,,,,,,,,,,,,,,,,,,,,,,,,,,,
1732157773.172769,1732157773.175605,42.000000,0.000000,4313.077148,4279.871582,4315.000000,4309.487305,4265.512695,4282.948730,4333.846191,4397.051270,4297.307617,4282.692383,4491.666504,4514.615234,4351.153809,4449.615234,0.000000,1.000000,23.000000,,,,0.000000,2.000000,2.000000,0.000000,4.000000,2.000000,2.000000,0.000000,0.000000,4.000000,4.000000,4.000000,4.000000,4.000000,4.000000,0.000000,,,,,,,,,,,,,,,,,,,,,,,,,,,,
1732157773.180577,1732157773.183413,43.000000,0.000000,4311.282227,4280.256348,4319.230957,4308.333496,4281.538574,4287.820313,4333.846191,4400.641113,4294.230957,4280.897461,4487.051270,4506.922852,4350.384766,4440.897461,0.000000,1.000000,23.000000,,,,0.000000,2.000000,2.000000,0.000000,4.000000,2.000000,2.000000,0.000000,0.000000,4.000000,4.000000,4.000000,4.000000,4.000000,4.000000,0.000000,,,,,,,,,,,,,,,,,,,,,,,,,,,,
1732157773.188386,1732157773.191121,44.000000,0.000000,4312.820313,4280.000000,4319.102539,4308.333496,4293.461426,4290.000000,4333.846191,4401.282227,4293.974121,4279.743652,4487.051270,4505.256348,4349.871582,4443.461426,0.000000,1.000000,23.000000,,,,0.000000,2.000000,2.000000,0.000000,4.000000,2.000000,2.000000,0.000000,0.000000,4.000000,4.000000,4.000000,4.000000,4.000000,4.000000,0.000000,,,,,,,,,,,,,,,,,11.000000,0.000000,0.510807,0.485107,-0.535339,0.466003,0.973263,-0.004395,-0.041021,-35.376434,45.691280,31.506884
1732157773.196194,1732157773.198930,45.000000,0.000000,4311.410156,4278.974121,4315.897461,4307.948730,4289.102539,4288.589844,4333.846191,4400.641113,4297.820313,4277.820313,4490.000000,4511.282227,4350.000000,4443.333496,0.000000,1.000000,23.000000,,,,0.000000,2.000000,2.000000,0.000000,4.000000,2.000000,2.000000,0.000000,0.000000,4.000000,4.000000,4.000000,4.000000,4.000000,4.000000,0.000000,,,,,,,,,,,,,,,,,,,,,,,,,,,,
1732157773.204002,1732157773.206938,46.000000,0.000000,4310.769043,4278.717773,4317.692383,4305.769043,4280.769043,4287.179688,4333.846191,4402.179688,4306.410156,4285.512695,4489.615234,4516.410156,4350.128418,4440.128418,0.000000,1.000000,23.000000,,,,0.000000,2.000000,2.000000,0.000000,4.000000,2.000000,2.000000,0.000000,0.000000,4.000000,4.000000,4.000000,4.000000,4.000000,4.000000,0.000000,,,,,,,,,,,,,,,,,,,,,,,,,,,,
1732157773.211810,1732157773.214746,47.000000,0.000000,4311.153809,4279.743652,4320.000000,4308.461426,4282.820313,4291.538574,4333.846191,4401.922852,4311.666504,4296.666504,4488.077148,4516.922852,4350.128418,4441.794922,0.000000,1.000000,23.000000,,,,0.000000,2.000000,2.000000,0.000000,4.000000,2.000000,2.000000,0.000000,0.000000,4.000000,4.000000,4.000000,4.000000,4.000000,4.000000,0.000000,,,,,,,,,,,,,,,,,,,,,,,,,,,,
1732157773.219619,1732157773.222454,48.000000,0.000000,4309.871582,4279.102539,4318.205078,4310.512695,4279.871582,4295.000000,4333.846191,4401.922852,4308.333496,4294.230957,4490.128418,4518.846191,4353.077148,4443.589844,0.000000,1.000000,23.000000,,,,0.000000,2.000000,2.000000,0.000000,4.000000,2.000000,2.000000,0.000000,0.000000,4.000000,4.000000,4.000000,4.000000,4.000000,4.000000,0.000000,,,,,,,,,,,,,,,,,12.000000,0.000000,0.510472,0.485107,-0.535339,0.466370,0.980588,0.002930,-0.047369,-35.424911,45.726604,31.523909
1732157773.227427,1732157773.230262,49.000000,0.000000,4309.743652,4277.436035,4316.794922,4310.897461,4269.230957,4296.025879,4333.846191,4402.820313,4308.333496,4290.128418,4491.666504,4523.077148,4357.563965,4443.461426,0.000000,1.000000,23.000000,,,,0.000000,2.000000,2.000000,0.000000,4.000000,2.000000,2.000000,0.000000,0.000000,4.000000,4.000000,4.000000,4.000000,4.000000,4.000000,0.000000,,,,,,,,,,,,,,,,,,,,,,,,,,,,
1732157773.235235,1732157773.237871,50.000000,0.000000,4310.000000,4277.307617,4317.436035,4308.974121,4277.563965,4290.769043,4333.589844,4401.794922,4312.051270,4295.256348,4488.461426,4522.692383,4358.717773,4441.538574,0.000000,1.000000,23.000000,,,,0.000000,2.000000,2.000000,0.000000,4.000000,2.000000,2.000000,0.000000,0.000000,4.000000,4.000000,4.000000,4.000000,4.000000,4.000000,0.000000,,,,,,,,,,,,,,,,,,,,,,,,,,,,
1732157773.243044,1732157773.245679,51.000000,0.000000,4310.512695,4278.974121,4318.205078,4307.948730,4284.743652,4283.205078,4333.974121,4402.179688,4307.692383,4293.717773,4485.384766,4521.025879,4356.410156,4442.563965,0.000000,1.000000,23.000000,,,,0.000000,2.000000,2.000000,0.000000,4.000000,2.000000,2.000000,0.000000,0.000000,4.000000,4.000000,4.000000,4.000000,4.000000,4.000000,0.000000,,,,,,,,,,,,,,,,,,,,,,,,,,,,
1732157773.250852,1732157773.253387,52.000000,0.000000,4314.230957,4280.897461,4318.717773,4311.538574,4275.897461,4282.179688,4334.102539,4401.794922,4300.384766,4283.205078,4486.666504,4524.230957,4352.692383,4445.512695,0.000000,1.000000,23.000000,,,,0.000000,2.000000,2.000000,0.000000,4.000000,2.000000,2.000000,0.000000,0.000000,4.000000,4.000000,4.000000,4.000000,4.000000,4.000000,0.000000,,,,,,,,,,,,,,,,,13.000000,0.000000,0.510297,0.485107,-0.535400,0.466492,0.976682,-0.017580,-0.035649,-35.445847,45.738548,31.616034
1732157773.258660,1732157773.261195,53.000000,0.000000,4315.512695,4280.641113,4315.897461,4311.538574,4290.769043,4281.410156,4333.077148,4399.743652,4293.333496,4276.410156,4488.333496,4523.974121,4352.563965,4442.563965,0.000000,1.000000,23.000000,,,,0.000000,2.000000,2.000000,0.000000,4.000000,2.000000,2.000000,0.000000,0.000000,4.000000,4.000000,4.000000,4.000000,4.000000,4.000000,0.000000,,,,,,,,,,,,,,,,,,,,,,,,,,,,
1732157773.266468,1732157773.268804,54.000000,0.000000,4311.538574,4278.974121,4316.025879,4307.948730,4299.487305,4282.948730,4334.615234,4404.743652,4293.077148,4281.153809,4489.871582,4523.589844,4356.666504,4439.487305,0.000000,1.000000,23.000000,,,,0.000000,2.000000,2.000000,0.000000,4.000000,2.000000,2.000000,0.000000,0.000000,4.000000,4.000000,4.000000,4.000000,4.000000,4.000000,0.000000,,,,,,,,,,,,,,,,,,,,,,,,,,,,
1732157773.274276,1732157773.276612,55.000000,0.000000,4310.128418,4279.743652,4317.820313,4309.358887,4276.538574,4289.487305,4337.692383,4411.025879,4309.743652,4292.436035,4492.820313,4525.256348,4359.102539,4443.974121,0.000000,1.000000,23.000000,,,,0.000000,2.000000,2.000000,0.000000,4.000000,2.000000,2.000000,0.000000,0.000000,4.000000,4.000000,4.000000,4.000000,4.000000,4.000000,0.000000,,,,,,,,,,,,,,,,,,,,,,,,,,,,
1732157773.282085,1732157773.284520,56.000000,0.000000,4312.820313,4281.410156,4317.820313,4310.897461,4273.077148,4289.230957,4336.538574,4406.538574,4317.436035,4298.461426,4494.358887,4524.743652,4357.692383,4446.410156,0.000000,1.000000,23.000000,,,,0.000000,2.000000,2.000000,0.000000,4.000000,2.000000,2.000000,0.000000,0.000000,4.000000,4.000000,4.000000,4.000000,4.000000,4.000000,0.000000,,,,,,,,,,,,,,,,,14.000000,0.000000,0.510285,0.484985,-0.535522,0.466492,0.979612,-0.008790,-0.048834,-35.252800,45.673225,31.690653
1732157773.289893,1732157773.292328,57.000000,0.000000,4315.000000,4279.487305,4317.179688,4308.974121,4283.205078,4283.974121,4333.846191,4399.615234,4301.538574,4294.615234,4493.461426,4524.615234,4357.563965,4444.743652,0.000000,1.000000,23.000000,,,,0.000000,2.000000,2.000000,0.000000,4.000000,2.000000,2.000000,0.000000,0.000000,4.000000,4.000000,4.000000,4.000000,4.000000,4.000000,0.000000,,,,,,,,,,,,,,,,,,,,,,,,,,,,
1732157773.297701,1732157773.300336,58.000000,0.000000,4313.205078,4279.615234,4318.461426,4311.025879,4273.846191,4291.794922,4335.384766,4401.153809,4294.743652,4289.615234,4491.282227,4523.461426,4357.179688,4445.256348,0.000000,1.000000,23.000000,,,,0.000000,2.000000,2.000000,0.000000,4.000000,2.000000,2.000000,0.000000,0.000000,4.000000,4.000000,4.000000,4.000000,4.000000,4.000000,0.000000,,,,,,,,,,,,,,,,,,,,,,,,,,,,
1732157773.305509,1732157773.308145,59.000000,0.000000,4311.282227,4286.794922,4318.846191,4313.333496,4269.743652,4299.102539,4336.538574,4402.948730,4303.205078,4290.512695,4489.743652,4521.666504,4354.743652,4440.384766,0.000000,1.000000,23.000000,,,,0.000000,2.000000,2.000000,0.000000,4.000000,2.000000,2.000000,0.000000,0.000000,4.000000,4.000000,4.000000,4.000000,4.000000,4.000000,0.000000,,,,,,,,,,,,,,,,,,,,,,,,,,,,
1732157773.313318,1732157773.316053,60.000000,0.000000,4308.589844,4289.871582,4318.974121,4311.538574,4278.589844,4288.589844,4334.871582,4401.538574,4307.436035,4292.948730,4488.974121,4522.692383,4353.333496,4429.743652,0.000000,1.000000,23.000000,,,,0.000000,2.000000,2.000000,0.000000,4.000000,2.000000,2.000000,0.000000,0.000000,4.000000,4.000000,4.000000,4.000000,4.000000,4.000000,0.000000,,,,,,,,,,,,,,,,,15.000000,0.000000,0.510144,0.484863,-0.535767,0.466492,0.975705,-0.020510,-0.056159,-35.394768,45.595314,31.589430
1732157773.321126,1732157773.323861,61.000000,0.000000,4304.615234,4284.743652,4319.487305,4310.128418,4284.358887,4281.153809,4334.487305,4400.897461,4308.461426,4294.487305,4488.461426,4518.333496,4352.563965,4427.179688,0.000000,1.000000,23.000000,,,,0.000000,2.000000,2.000000,0.000000,4.000000,2.000000,2.000000,0.000000,0.000000,4.000000,4.000000,4.000000,4.000000,4.000000,4.000000,0.000000,,,,,,,,,,,,,,,,,,,,,,,,,,,,
1732157773.328934,1732157773.331469,62.000000,0.000000,4300.641113,4280.256348,4318.846191,4307.563965,4298.461426,4284.358887,4335.128418,4400.641113,4305.128418,4291.666504,4487.948730,4511.538574,4351.410156,4430.256348,0.000000,1.000000,23.000000,,,,0.000000,2.000000,2.000000,0.000000,4.000000,2.000000,2.000000,0.000000,0.000000,4.000000,4.000000,4.000000,4.000000,4.000000,4.000000,0.000000,,,,,,,,,,,,,,,,,,,,,,,,,,,,
1732157773.336743,1732157773.339278,63.000000,0.000000,4298.846191,4282.563965,4318.461426,4307.563965,4294.615234,4284.358887,4335.000000,4401.538574,4300.512695,4289.615234,4487.307617,4511.538574,4351.153809,4427.820313,0.000000,1.000000,23.000000,,,,0.000000,2.000000,2.000000,0.000000,4.000000,2.000000,2.000000,0.000000,0.000000,4.000000,4.000000,4.000000,4.000000,4.000000,4.000000,0.000000,,,,,,,,,,,,,,,,,,,,,,,,,,,,
1732157773.344551,1732157773.346986,64.000000,0.000000,4301.153809,4284.743652,4318.333496,4306.666504,4267.820313,4281.153809,4334.871582,4401.153809,4306.922852,4295.256348,4486.794922,4516.025879,4355.256348,4426.025879,0.000000,1.000000,23.000000,,,,0.000000,2.000000,2.000000,0.000000,4.000000,2.000000,2.000000,0.000000,0.000000,4.000000,4.000000,4.000000,4.000000,4.000000,4.000000,0.000000,,,,,,,,,,,,,,,,,16.000000,0.000000,0.509867,0.485046,-0.535706,0.466675,0.984984,-0.010255,-0.028324,-35.636429,45.375538,31.520771
1732157773.352359,1732157773.354794,65.000000,0.000000,4304.615234,4283.333496,4318.077148,4305.000000,4268.589844,4280.128418,4335.000000,4402.948730,4311.410156,4297.179688,4487.692383,4520.128418,4358.589844,4427.948730,1594.000000,1.000000,23.000000,,,,0.000000,2.000000,2.000000,0.000000,4.000000,2.000000,2.000000,0.000000,0.000000,4.000000,4.000000,4.000000,4.000000,4.000000,4.000000,0.000000,,,,,,,,,,,,,,,,,,,,,,,,,,,,
1732157773.360167,1732157773.362802,66.000000,0.000000,4303.461426,4283.461426,4317.948730,4305.512695,4278.846191,4283.077148,4335.000000,4405.769043,4311.153809,4296.282227,4491.410156,4522.563965,4356.922852,4425.000000,1364.000000,1.000000,23.000000,,,,0.000000,2.000000,2.000000,0.000000,4.000000,2.000000,2.000000,0.000000,0.000000,4.000000,4.000000,4.000000,4.000000,4.000000,4.000000,0.000000,,,,,,,,,,,,,,,,,,,,,,,,,,,,
1732157773.367975,1732157773.370610,67.000000,0.000000,4298.461426,4283.205078,4318.333496,4305.000000,4280.384766,4282.563965,4335.000000,4402.563965,4312.692383,4294.743652,4485.256348,4513.589844,4352.307617,4417.820313,1419.000000,1.000000,23.000000,,,,0.000000,2.000000,2.000000,0.000000,4.000000,2.000000,2.000000,0.000000,0.000000,4.000000,4.000000,4.000000,4.000000,4.000000,4.000000,0.000000,,,,,,,,,,,,,,,,,,,,,,,,,,,,
1732157773.375784,1732157773.378518,68.000000,0.000000,4295.897461,4281.153809,4317.436035,4302.692383,4294.615234,4279.102539,4335.000000,4398.461426,4302.692383,4284.358887,4473.333496,4502.820313,4348.717773,4416.282227,1426.000000,1.000000,23.000000,,,,0.000000,2.000000,2.000000,0.000000,4.000000,2.000000,2.000000,0.000000,0.000000,4.000000,4.000000,4.000000,4.000000,4.000000,4.000000,0.000000,,,,,,,,,,,,,,,,,17.000000,0.000000,0.509867,0.485046,-0.535706,0.466675,0.993774,-0.001465,-0.053229,-35.577175,45.257519,31.360157
1732157773.383592,1732157773.386327,69.000000,0.000000,4296.538574,4282.051270,4315.512695,4304.102539,4287.307617,4285.000000,4335.000000,4399.743652,4292.948730,4277.307617,4479.743652,4510.897461,4349.743652,4423.333496,1217.000000,1.000000,23.000000,,,,0.000000,2.000000,2.000000,0.000000,4.000000,2.000000,2.000000,0.000000,0.000000,4.000000,4.000000,4.000000,4.000000,4.000000,4.000000,0.000000,,,,,,,,,,,,,,,,,,,,,,,,,,,,
1732157773.391400,1732157773.394335,70.000000,0.000000,4296.538574,4281.922852,4315.512695,4304.358887,4262.179688,4292.948730,4335.000000,4401.922852,4300.256348,4286.282227,4492.436035,4519.102539,4351.538574,4429.102539,0.000000,1.000000,23.000000,,,,0.000000,2.000000,2.000000,0.000000,4.000000,2.000000,2.000000,0.000000,0.000000,4.000000,4.000000,4.000000,4.000000,4.000000,4.000000,0.000000,,,,,,,,,,,,,,,,,,,,,,,,,,,,
1732157773.399208,1732157773.402143,71.000000,0.000000,4297.948730,4281.282227,4317.692383,4300.128418,4269.871582,4287.436035,4335.000000,4400.897461,4304.871582,4290.641113,4486.794922,4516.025879,4351.538574,4428.461426,0.000000,1.000000,23.000000,,,,0.000000,2.000000,2.000000,0.000000,4.000000,2.000000,2.000000,0.000000,0.000000,4.000000,4.000000,4.000000,4.000000,4.000000,4.000000,0.000000,,,,,,,,,,,,,,,,,,,,,,,,,,,,
1732157773.407017,1732157773.410051,72.000000,0.000000,4297.563965,4287.948730,4317.436035,4304.358887,4283.974121,4285.641113,4335.000000,4399.358887,4297.948730,4282.051270,4482.820313,4513.205078,4350.256348,4427.051270,1531.000000,1.000000,23.000000,,,,0.000000,2.000000,2.000000,0.000000,4.000000,2.000000,2.000000,0.000000,0.000000,4.000000,4.000000,4.000000,4.000000,4.000000,4.000000,0.000000,,,,,,,,,,,,,,,,,18.000000,0.000000,0.509012,0.485718,-0.535645,0.466980,0.963497,-0.016115,-0.038579,-35.840843,45.200256,31.188395
1732157773.414825,1732157773.417859,73.000000,0.000000,4296.153809,4293.333496,4317.179688,4310.000000,4285.641113,4290.512695,4335.000000,4400.769043,4294.102539,4279.743652,4489.487305,4512.179688,4350.128418,4425.897461,1686.000000,1.000000,23.000000,,,,0.000000,2.000000,2.000000,0.000000,4.000000,2.000000,2.000000,0.000000,0.000000,4.000000,4.000000,4.000000,4.000000,4.000000,4.000000,0.000000,,,,,,,,,,,,,,,,,,,,,,,,,,,,
1732157773.422633,1732157773.425867,74.000000,0.000000,4300.384766,4289.743652,4318.205078,4308.333496,4295.897461,4284.743652,4335.000000,4402.179688,4299.743652,4285.128418,4484.102539,4508.974121,4351.153809,4425.384766,1544.000000,1.000000,23.000000,,,,0.000000,2.000000,2.000000,0.000000,4.000000,2.000000,2.000000,0.000000,0.000000,4.000000,4.000000,4.000000,4.000000,4.000000,4.000000,0.000000,,,,,,,,,,,,,,,,,,,,,,,,,,,,
1732157773.430442,1732157773.433675,75.000000,0.000000,4303.461426,4291.922852,4317.563965,4310.128418,4289.230957,4282.820313,4335.000000,4400.384766,4302.307617,4291.922852,4479.743652,4512.307617,4352.948730,4427.820313,1566.000000,1.000000,23.000000,,,,0.000000,2.000000,2.000000,0.000000,4.000000,2.000000,2.000000,0.000000,0.000000,4.000000,4.000000,4.000000,4.000000,4.000000,4.000000,0.000000,,,,,,,,,,,,,,,,,,,,,,,,,,,,
1732157773.438250,1732157773.441583,76.000000,0.000000,4299.358887,4297.692383,4317.179688,4313.077148,4271.538574,4292.948730,4335.000000,4398.974121,4300.641113,4296.922852,4486.025879,4516.410156,4356.282227,4427.948730,1705.000000,1.000000,23.000000,,,,0.000000,2.000000,2.000000,0.000000,4.000000,2.000000,2.000000,0.000000,0.000000,4.000000,4.000000,4.000000,4.000000,4.000000,4.000000,0.000000,,,,,,,,,,,,,,,,,19.000000,0.000000,0.508213,0.486084,-0.535645,0.467468,0.975217,-0.017092,-0.043951,-35.919418,45.070541,31.182600
1732157773.446058,1732157773.449392,77.000000,0.000000,4293.461426,4291.922852,4317.563965,4305.128418,4278.589844,4291.538574,4335.000000,4400.384766,4300.897461,4296.666504,4482.948730,4510.769043,4356.025879,4420.512695,1614.000000,1.000000,23.000000,,,,0.000000,2.000000,2.000000,0.000000,4.000000,2.000000,2.000000,0.000000,0.000000,4.000000,4.000000,4.000000,4.000000,4.000000,4.000000,0.000000,,,,,,,,,,,,,,,,,,,,,,,,,,,,
1732157773.453866,1732157773.457100,78.000000,0.000000,4295.384766,4286.922852,4317.307617,4299.743652,4281.410156,4284.102539,4335.000000,4401.410156,4300.641113,4298.846191,4481.153809,4508.077148,4351.794922,4418.205078,1544.000000,1.000000,23.000000,,,,0.000000,2.000000,2.000000,0.000000,4.000000,2.000000,2.000000,0.000000,0.000000,4.000000,4.000000,4.000000,4.000000,4.000000,4.000000,0.000000,1.000000,0.000000,2.000000,2.000000,0.000000,4.000000,2.000000,2.000000,0.000000,0.000000,4.000000,4.000000,4.000000,4.000000,4.000000,4.000000,,,,,,,,,,,,
1732157773.461674,1732157773.464908,79.000000,0.000000,4300.512695,4291.282227,4318.461426,4307.436035,4279.230957,4285.000000,4335.000000,4401.538574,4297.948730,4297.051270,4489.487305,4514.871582,4350.769043,4426.538574,1566.000000,1.000000,23.000000,,,,0.000000,2.000000,2.000000,0.000000,4.000000,2.000000,2.000000,0.000000,0.000000,4.000000,4.000000,4.000000,4.000000,4.000000,4.000000,0.000000,,,,,,,,,,,,,,,,,,,,,,,,,,,,
1732157773.469483,1732157773.472616,80.000000,0.000000,4298.077148,4288.589844,4319.615234,4304.102539,4296.282227,4283.077148,4335.000000,4402.179688,4295.128418,4284.871582,4484.743652,4516.410156,4351.153809,4427.307617,1705.000000,1.000000,23.000000,,,,0.000000,2.000000,2.000000,0.000000,4.000000,2.000000,2.000000,0.000000,0.000000,4.000000,4.000000,4.000000,4.000000,4.000000,4.000000,0.000000,,,,,,,,,,,,,,,,,20.000000,0.000000,0.507759,0.485962,-0.536133,0.467529,0.978635,-0.017580,-0.050787,-35.763062,44.942139,31.349573
1732157773.477291,1732157773.480425,81.000000,0.000000,4292.948730,4277.948730,4317.820313,4295.512695,4291.025879,4280.128418,4335.000000,4401.794922,4298.461426,4283.077148,4472.692383,4513.077148,4349.230957,4420.256348,1614.000000,1.000000,23.000000,,,,0.000000,2.000000,2.000000,0.000000,4.000000,2.000000,2.000000,0.000000,0.000000,4.000000,4.000000,4.000000,4.000000,4.000000,4.000000,0.000000,,,,,,,,,,,,,,,,,,,,,,,,,,,,
1732157773.485099,1732157773.488033,82.000000,0.000000,4295.641113,4280.897461,4316.666504,4302.436035,4263.717773,4283.333496,4335.000000,4401.666504,4306.538574,4295.512695,4481.794922,4512.820313,4349.743652,4421.538574,1544.000000,1.000000,23.000000,,,,0.000000,2.000000,2.000000,0.000000,4.000000,2.000000,2.000000,0.000000,0.000000,4.000000,4.000000,4.000000,4.000000,4.000000,4.000000,0.000000,,,,,,,,,,,,,,,,,,,,,,,,,,,,
1732157773.492907,1732157773.495841,83.000000,0.000000,4301.794922,4293.077148,4317.179688,4308.205078,4268.461426,4282.948730,4335.000000,4401.153809,4307.436035,4297.692383,4492.692383,4511.666504,4352.563965,4426.794922,1566.000000,1.000000,23.000000,,,,0.000000,2.000000,2.000000,0.000000,4.000000,2.000000,2.000000,0.000000,0.000000,4.000000,4.000000,4.000000,4.000000,4.000000,4.000000,0.000000,,,,,,,,,,,,,,,,,,,,,,,,,,,,
1732157773.500716,1732157773.503550,84.000000,0.000000,4300.384766,4294.487305,4318.461426,4303.461426,4287.179688,4280.512695,4335.000000,4400.641113,4298.846191,4287.563965,4485.641113,4510.769043,4352.179688,4427.948730,1705.000000,1.000000,23.000000,,,,0.000000,2.000000,2.000000,0.000000,4.000000,2.000000,2.000000,0.000000,0.000000,4.000000,4.000000,4.000000,4.000000,4.000000,4.000000,0.000000,,,,,,,,,,,,,,,,,21.000000,0.000000,0.507520,0.485901,-0.536255,0.467712,0.978635,-0.017580,-0.050787,-36.029747,45.016464,31.251488
1732157773.508524,1732157773.511358,85.000000,0.000000,4297.436035,4291.282227,4317.307617,4306.538574,4279.230957,4286.666504,4335.000000,4401.538574,4295.256348,4284.743652,4479.102539,4512.692383,4350.769043,4428.077148,1614.000000,1.000000,23.000000,,,,0.000000,2.000000,2.000000,0.000000,4.000000,2.000000,2.000000,0.000000,0.000000,4.000000,4.000000,4.000000,4.000000,4.000000,4.000000,0.000000,,,,,,,,,,,,,,,,,,,,,,,,,,,,
1732157773.516332,1732157773.518966,86.000000,0.000000,4297.307617,4288.589844,4316.282227,4307.692383,4277.948730,4289.102539,4335.000000,4402.307617,4300.512695,4286.410156,4478.077148,4508.589844,4347.307617,4421.282227,1544.000000,1.000000,23.000000,,,,0.000000,2.000000,2.000000,0.000000,4.000000,2.000000,2.000000,0.000000,0.000000,4.000000,4.000000,4.000000,4.000000,4.000000,4.000000,0.000000,,,,,,,,,,,,,,,,,,,,,,,,,,,,
1732157773.524140,1732157773.526774,87.000000,0.000000,4294.358887,4282.179688,4316.025879,4296.282227,4295.897461,4280.000000,4335.000000,4401.922852,4299.871582,4286.922852,4474.743652,4502.948730,4344.487305,4414.102539,1566.000000,1.000000,23.000000,,,,0.000000,2.000000,2.000000,0.000000,4.000000,2.000000,2.000000,0.000000,0.000000,4.000000,4.000000,4.000000,4.000000,4.000000,4.000000,0.000000,,,,,,,,,,,,,,,,,,,,,,,,,,,,
1732157773.531949,1732157773.534483,88.000000,0.000000,4292.563965,4282.051270,4315.000000,4294.102539,4290.512695,4277.948730,4334.871582,4402.563965,4296.153809,4290.769043,4477.820313,4509.871582,4348.333496,4424.487305,1705.000000,1.000000,23.000000,,,,0.000000,2.000000,2.000000,0.000000,4.000000,2.000000,2.000000,0.000000,0.000000,4.000000,4.000000,4.000000,4.000000,4.000000,4.000000,0.000000,,,,,,,,,,,,,,,,,22.000000,0.000000,0.506806,0.485291,-0.537109,0.468140,0.975217,-0.021975,-0.041509,-35.904095,45.063335,31.233704
1732157773.539757,1732157773.542291,89.000000,0.000000,4293.974121,4292.563965,4314.615234,4303.846191,4276.794922,4287.179688,4334.871582,4402.436035,4297.051270,4294.743652,4483.846191,4515.897461,4352.307617,4433.205078,1614.000000,1.000000,23.000000,,,,0.000000,2.000000,2.000000,0.000000,4.000000,2.000000,2.000000,0.000000,0.000000,4.000000,4.000000,4.000000,4.000000,4.000000,4.000000,0.000000,,,,,,,,,,,,,,,,,,,,,,,,,,,,
1732157773.547565,1732157773.549899,90.000000,0.000000,4295.512695,4294.358887,4316.410156,4308.461426,4278.717773,4287.692383,4335.000000,4400.897461,4297.820313,4294.102539,4478.974121,4512.948730,4349.743652,4421.538574,1544.000000,1.000000,23.000000,,,,0.000000,2.000000,2.000000,0.000000,4.000000,2.000000,2.000000,0.000000,0.000000,4.000000,4.000000,4.000000,4.000000,4.000000,4.000000,0.000000,,,,,,,,,,,,,,,,,,,,,,,,,,,,
1732157773.555373,1732157773.557708,91.000000,0.000000,4294.487305,4283.974121,4316.025879,4306.538574,4281.153809,4283.077148,4334.871582,4400.256348,4296.282227,4294.102539,4475.512695,4511.794922,4347.436035,4412.820313,1566.000000,1.000000,23.000000,,,,0.000000,2.000000,2.000000,0.000000,4.000000,2.000000,2.000000,0.000000,0.000000,4.000000,4.000000,4.000000,4.000000,4.000000,4.000000,0.000000,,,,,,,,,,,,,,,,,,,,,,,,,,,,
1732157773.563182,1732157773.565416,92.000000,0.000000,4294.358887,4279.871582,4316.538574,4302.563965,4290.000000,4285.897461,4334.871582,4401.538574,4296.538574,4297.820313,4479.358887,4512.563965,4348.461426,4419.487305,1705.000000,1.000000,23.000000,,,,0.000000,2.000000,2.000000,0.000000,4.000000,2.000000,2.000000,0.000000,0.000000,4.000000,4.000000,4.000000,4.000000,4.000000,4.000000,0.000000,,,,,,,,,,,,,,,,,23.000000,0.000000,0.506442,0.485291,-0.537292,0.468323,0.982542,-0.015627,-0.050787,-35.712318,44.897968,31.179300
1732157773.570990,1732157773.573224,93.000000,0.000000,4294.230957,4281.153809,4317.948730,4298.974121,4299.487305,4290.641113,4335.769043,4401.794922,4298.333496,4298.974121,4476.922852,4510.384766,4348.846191,4425.641113,1614.000000,1.000000,23.000000,,,,0.000000,2.000000,2.000000,0.000000,4.000000,2.000000,2.000000,0.000000,0.000000,4.000000,4.000000,4.000000,4.000000,4.000000,4.000000,0.000000,,,,,,,,,,,,,,,,,,,,,,,,,,,,
1732157773.578798,1732157773.580833,94.000000,0.000000,4293.205078,4281.282227,4316.153809,4300.128418,4288.974121,4292.820313,4337.179688,4400.000000,4297.179688,4298.461426,4480.256348,4510.897461,4350.384766,4426.410156,1544.000000,1.000000,23.000000,,,,0.000000,2.000000,2.000000,0.000000,4.000000,2.000000,2.000000,0.000000,0.000000,4.000000,4.000000,4.000000,4.000000,4.000000,4.000000,0.000000,,,,,,,,,,,,,,,,,,,,,,,,,,,,
1732157773.586606,1732157773.588641,95.000000,0.000000,4293.717773,4280.641113,4315.769043,4303.717773,4273.077148,4295.769043,4336.666504,4400.512695,4296.794922,4300.897461,4491.025879,4519.358887,4351.666504,4429.102539,1566.000000,1.000000,23.000000,,,,0.000000,2.000000,2.000000,0.000000,4.000000,2.000000,2.000000,0.000000,0.000000,4.000000,4.000000,4.000000,4.000000,4.000000,4.000000,0.000000,,,,,,,,,,,,,,,,,,,,,,,,,,,,
1732157773.594415,1732157773.596349,96.000000,0.000000,4296.025879,4282.179688,4318.333496,4304.102539,4277.436035,4295.897461,4335.384766,4402.051270,4296.538574,4301.282227,4489.358887,4525.769043,4351.025879,4431.794922,1705.000000,1.000000,23.000000,,,,0.000000,2.000000,2.000000,0.000000,4.000000,2.000000,2.000000,0.000000,0.000000,4.000000,4.000000,4.000000,4.000000,4.000000,4.000000,0.000000,,,,,,,,,,,,,,,,,24.000000,0.000000,0.506377,0.485291,-0.537354,0.468323,0.975705,-0.014650,-0.054694,-35.750309,45.020687,31.245234
1732157773.602223,1732157773.604157,97.000000,0.000000,4296.153809,4281.922852,4318.333496,4301.025879,4293.461426,4289.871582,4335.769043,4401.794922,4295.128418,4298.077148,4479.615234,4522.051270,4349.358887,4430.641113,1614.000000,1.000000,23.000000,,,,0.000000,2.000000,2.000000,0.000000,4.000000,2.000000,2.000000,0.000000,0.000000,4.000000,4.000000,4.000000,4.000000,4.000000,4.000000,0.000000,,,,,,,,,,,,,,,,,,,,,,,,,,,,
1732157773.610031,1732157773.611766,98.000000,0.000000,4293.461426,4279.230957,4317.436035,4294.871582,4300.384766,4290.128418,4336.538574,4400.256348,4301.282227,4298.846191,4479.358887,4515.897461,4348.589844,4428.461426,1544.000000,1.000000,23.000000,,,,0.000000,2.000000,2.000000,0.000000,4.000000,2.000000,2.000000,0.000000,0.000000,4.000000,4.000000,4.000000,4.000000,4.000000,4.000000,0.000000,,,,,,,,,,,,,,,,,,,,,,,,,,,,
1732157773.617839,1732157773.619574,99.000000,0.000000,4294.487305,4281.794922,4318.205078,4296.538574,4289.615234,4294.487305,4336.025879,4399.102539,4307.179688,4303.974121,4485.897461,4518.461426,4350.512695,4428.974121,1566.000000,1.000000,23.000000,,,,0.000000,2.000000,2.000000,0.000000,4.000000,2.000000,2.000000,0.000000,0.000000,4.000000,4.000000,4.000000,4.000000,4.000000,4.000000,0.000000,,,,,,,,,,,,,,,,,,,,,,,,,,,,
1732157773.625648,1732157773.627282,100.000000,0.000000,4298.077148,4287.563965,4316.922852,4308.461426,4276.410156,4294.358887,4335.512695,4399.358887,4300.641113,4302.051270,4484.615234,4524.230957,4349.358887,4428.974121,1705.000000,1.000000,23.000000,,,,0.000000,2.000000,2.000000,0.000000,4.000000,2.000000,2.000000,0.000000,0.000000,4.000000,4.000000,4.000000,4.000000,4.000000,4.000000,0.000000,,,,,,,,,,,,,,,,,25.000000,0.000000,0.506313,0.485291,-0.537415,0.468323,0.973752,-0.008302,-0.040044,-35.291084,45.016758,31.198639
1732157773.633456,1732157773.635090,101.000000,0.000000,4296.282227,4286.922852,4316.538574,4308.205078,4278.717773,4293.974121,4335.769043,4400.000000,4296.794922,4297.563965,4477.820313,4522.948730,4344.615234,4425.897461,1614.000000,1.000000,23.000000,,,,0.000000,2.000000,2.000000,0.000000,4.000000,2.000000,2.000000,0.000000,0.000000,4.000000,4.000000,4.000000,4.000000,4.000000,4.000000,0.000000,,,,,,,,,,,,,,,,,,,,,,,,,,,,
1732157773.641264,1732157773.642699,102.000000,0.000000,4292.563965,4280.128418,4315.641113,4295.897461,4293.589844,4295.000000,4335.769043,4400.641113,4303.461426,4296.794922,4474.487305,4515.256348,4344.358887,4424.743652,1544.000000,1.000000,23.000000,,,,0.000000,2.000000,2.000000,0.000000,4.000000,2.000000,2.000000,0.000000,0.000000,4.000000,4.000000,4.000000,4.000000,4.000000,4.000000,0.000000,,,,,,,,,,,,,,,,,,,,,,,,,,,,
1732157773.649072,1732157773.650507,103.000000,0.000000,4293.333496,4280.000000,4316.410156,4293.974121,4305.512695,4294.487305,4335.641113,4401.410156,4305.256348,4296.153809,4476.025879,4512.179688,4348.974121,4428.077148,1566.000000,1.000000,23.000000,,,,0.000000,2.000000,2.000000,0.000000,4.000000,2.000000,2.000000,0.000000,0.000000,4.000000,4.000000,4.000000,4.000000,4.000000,4.000000,0.000000,,,,,,,,,,,,,,,,,,,,,,,,,,,,
1732157773.656881,1732157773.658215,104.000000,0.000000,4296.282227,4284.871582,4319.102539,4301.666504,4295.641113,4292.692383,4335.769043,4400.384766,4302.436035,4299.743652,4477.179688,4515.512695,4350.128418,4426.282227,1705.000000,1.000000,23.000000,,,,0.000000,2.000000,2.000000,0.000000,4.000000,2.000000,2.000000,0.000000,0.000000,4.000000,4.000000,4.000000,4.000000,4.000000,4.000000,0.000000,,,,,,,,,,,,,,,,,26.000000,0.000000,0.506400,0.485046,-0.537659,0.468201,0.982542,-0.021487,-0.045904,-35.349113,45.026909,31.154230
1732157773.664689,1732157773.666024,105.000000,0.000000,4295.897461,4284.871582,4319.230957,4302.051270,4275.384766,4288.461426,4335.769043,4401.538574,4303.461426,4304.102539,4476.410156,4518.205078,4347.307617,4419.230957,1614.000000,1.000000,23.000000,,,,0.000000,2.000000,2.000000,0.000000,4.000000,2.000000,2.000000,0.000000,0.000000,4.000000,4.000000,4.000000,4.000000,4.000000,4.000000,0.000000,,,,,,,,,,,,,,,,,,,,,,,,,,,,
1732157773.672497,1732157773.674032,106.000000,0.000000,4293.717773,4284.102539,4317.307617,4299.358887,4275.769043,4283.461426,4335.769043,4403.974121,4304.102539,4300.769043,4478.333496,4516.153809,4348.974121,4421.153809,1544.000000,1.000000,23.000000,,,,0.000000,2.000000,2.000000,0.000000,4.000000,2.000000,2.000000,0.000000,0.000000,4.000000,4.000000,4.000000,4.000000,4.000000,4.000000,0.000000,,,,,,,,,,,,,,,,,,,,,,,,,,,,
1732157773.680305,1732157773.681840,107.000000,0.000000,4293.589844,4286.153809,4316.922852,4302.307617,4286.922852,4285.641113,4335.769043,4402.307617,4303.589844,4298.077148,4480.769043,4514.871582,4352.051270,4428.205078,1566.000000,1.000000,23.000000,,,,0.000000,2.000000,2.000000,0.000000,4.000000,2.000000,2.000000,0.000000,0.000000,4.000000,4.000000,4.000000,4.000000,4.000000,4.000000,0.000000,,,,,,,,,,,,,,,,,,,,,,,,,,,,
1732157773.688114,1732157773.689548,108.000000,0.000000,4295.000000,4290.897461,4318.333496,4305.897461,4292.820313,4291.666504,4335.769043,4400.000000,4306.922852,4303.333496,4480.769043,4514.743652,4348.333496,4424.743652,1705.000000,1.000000,23.000000,,,,0.000000,2.000000,2.000000,0.000000,4.000000,2.000000,2.000000,0.000000,0.000000,4.000000,4.000000,4.000000,4.000000,4.000000,4.000000,0.000000,,,,,,,,,,,,,,,,,27.000000,0.000000,0.506400,0.485046,-0.537659,0.468201,0.972287,-0.015627,-0.052741,-35.651115,45.155128,31.088261
1732157773.695922,1732157773.697356,109.000000,0.000000,4295.128418,4290.256348,4318.077148,4304.230957,4291.922852,4293.846191,4335.769043,4402.051270,4310.512695,4305.256348,4478.205078,4510.769043,4342.563965,4417.436035,1614.000000,1.000000,23.000000,,,,0.000000,2.000000,2.000000,0.000000,4.000000,2.000000,2.000000,0.000000,0.000000,4.000000,4.000000,4.000000,4.000000,4.000000,4.000000,0.000000,,,,,,,,,,,,,,,,,,,,,,,,,,,,
1732157773.703730,1732157773.705364,110.000000,0.000000,4293.333496,4285.128418,4317.563965,4300.128418,4294.871582,4295.000000,4335.769043,4402.179688,4307.563965,4299.230957,4477.307617,4506.666504,4341.282227,4417.436035,1544.000000,1.000000,23.000000,,,,0.000000,2.000000,2.000000,0.000000,4.000000,2.000000,2.000000,0.000000,0.000000,4.000000,4.000000,4.000000,4.000000,4.000000,4.000000,0.000000,,,,,,,,,,,,,,,,,,,,,,,,,,,,
1732157773.711538,1732157773.713172,111.000000,0.000000,4293.077148,4286.538574,4316.666504,4301.794922,4309.102539,4295.256348,4335.769043,4398.717773,4296.794922,4295.000000,4477.307617,4507.051270,4341.410156,4420.128418,1566.000000,1.000000,23.000000,,,,0.000000,2.000000,2.000000,0.000000,4.000000,2.000000,2.000000,0.000000,0.000000,4.000000,4.000000,4.000000,4.000000,4.000000,4.000000,0.000000,,,,,,,,,,,,,,,,,,,,,,,,,,,,
1732157773.719347,1732157773.721081,112.000000,0.000000,4295.256348,4294.230957,4315.769043,4309.102539,4303.846191,4293.589844,4335.769043,4400.256348,4295.641113,4298.717773,4476.410156,4517.436035,4342.948730,4423.589844,1705.000000,1.000000,23.000000,,,,0.000000,2.000000,2.000000,0.000000,4.000000,2.000000,2.000000,0.000000,0.000000,4.000000,4.000000,4.000000,4.000000,4.000000,4.000000,0.000000,,,,,,,,,,,,,,,,,28.000000,0.000000,0.506438,0.484863,-0.537842,0.468140,0.989379,-0.012697,-0.047369,-35.844070,45.410652,31.356491
1732157773.727155,1732157773.728889,113.000000,0.000000,4296.794922,4294.487305,4316.025879,4311.666504,4276.794922,4293.717773,4335.641113,4403.589844,4305.128418,4302.051270,4477.692383,4523.717773,4344.871582,4428.205078,1614.000000,1.000000,23.000000,,,,0.000000,2.000000,2.000000,0.000000,4.000000,2.000000,2.000000,0.000000,0.000000,4.000000,4.000000,4.000000,4.000000,4.000000,4.000000,0.000000,,,,,,,,,,,,,,,,,,,,,,,,,,,,
1732157773.734963,1732157773.736497,114.000000,0.000000,4296.282227,4286.410156,4318.589844,4306.153809,4276.666504,4292.820313,4335.512695,4402.692383,4307.436035,4298.333496,4477.820313,4514.743652,4344.230957,4426.922852,1544.000000,1.000000,23.000000,,,,0.000000,2.000000,2.000000,0.000000,4.000000,2.000000,2.000000,0.000000,0.000000,4.000000,4.000000,4.000000,4.000000,4.000000,4.000000,0.000000,,,,,,,,,,,,,,,,,,,,,,,,,,,,
1732157773.742771,1732157773.744305,115.000000,0.000000,4296.153809,4286.153809,4319.230957,4304.230957,4292.563965,4292.563965,4335.641113,4400.256348,4305.512695,4298.974121,4475.384766,4504.871582,4341.666504,4423.205078,1566.000000,1.000000,23.000000,,,,0.000000,2.000000,2.000000,0.000000,4.000000,2.000000,2.000000,0.000000,0.000000,4.000000,4.000000,4.000000,4.000000,4.000000,4.000000,0.000000,,,,,,,,,,,,,,,,,,,,,,,,,,,,
1732157773.750579,1732157773.752014,116.000000,0.000000,4295.256348,4288.205078,4318.077148,4305.769043,4291.153809,4294.743652,4335.897461,4399.615234,4304.230957,4302.436035,4474.102539,4506.153809,4338.077148,4425.897461,1705.000000,1.000000,23.000000,,,,0.000000,2.000000,2.000000,0.000000,4.000000,2.000000,2.000000,0.000000,0.000000,4.000000,4.000000,4.000000,4.000000,4.000000,4.000000,0.000000,,,,,,,,,,,,,,,,,29.000000,0.000000,0.506466,0.484680,-0.538086,0.468018,0.970822,-0.010255,-0.050299,-35.842030,45.142628,31.395424
1732157773.758388,1732157773.759822,117.000000,0.000000,4291.922852,4281.922852,4317.948730,4301.282227,4299.615234,4293.461426,4335.128418,4401.410156,4299.743652,4297.436035,4474.102539,4508.589844,4335.897461,4429.358887,1614.000000,1.000000,23.000000,,,,0.000000,2.000000,2.000000,0.000000,4.000000,2.000000,2.000000,0.000000,0.000000,4.000000,4.000000,4.000000,4.000000,4.000000,4.000000,0.000000,,,,,,,,,,,,,,,,,,,,,,,,,,,,
1732157773.766196,1732157773.767830,118.000000,0.000000,4291.410156,4278.846191,4316.153809,4298.205078,4307.179688,4290.769043,4336.025879,4402.051270,4299.871582,4294.743652,4474.615234,4505.769043,4341.282227,4430.128418,1544.000000,1.000000,23.000000,,,,0.000000,2.000000,2.000000,0.000000,4.000000,2.000000,2.000000,0.000000,0.000000,4.000000,4.000000,4.000000,4.000000,4.000000,4.000000,0.000000,,,,,,,,,,,,,,,,,,,,,,,,,,,,
1732157773.774004,1732157773.775638,119.000000,0.000000,4294.615234,4286.153809,4314.615234,4301.410156,4285.384766,4292.436035,4339.102539,4399.615234,4308.974121,4302.307617,4475.384766,4505.512695,4347.307617,4431.025879,1566.000000,1.000000,23.000000,,,,0.000000,2.000000,2.000000,0.000000,4.000000,2.000000,2.000000,0.000000,0.000000,4.000000,4.000000,4.000000,4.000000,4.000000,4.000000,0.000000,,,,,,,,,,,,,,,,,,,,,,,,,,,,
1732157773.781813,1732157773.783546,120.000000,0.000000,4296.538574,4290.128418,4318.077148,4301.794922,4272.948730,4295.769043,4340.769043,4399.487305,4313.077148,4309.230957,4476.410156,4504.358887,4346.538574,4428.846191,1705.000000,1.000000,23.000000,,,,0.000000,2.000000,2.000000,0.000000,4.000000,2.000000,2.000000,0.000000,0.000000,4.000000,4.000000,4.000000,4.000000,4.000000,4.000000,0.000000,,,,,,,,,,,,,,,,,30.000000,0.000000,0.506527,0.484558,-0.538086,0.468079,0.990355,-0.020999,-0.040044,-35.773708,45.192196,31.251961
1732157773.789621,1732157773.791354,121.000000,0.000000,4296.794922,4284.743652,4319.743652,4304.743652,4287.436035,4296.666504,4340.000000,4401.538574,4309.358887,4308.846191,4476.025879,4504.743652,4347.307617,4428.974121,1614.000000,1.000000,23.000000,,,,0.000000,2.000000,2.000000,0.000000,4.000000,2.000000,2.000000,0.000000,0.000000,4.000000,4.000000,4.000000,4.000000,4.000000,4.000000,0.000000,,,,,,,,,,,,,,,,,,,,,,,,,,,,
1732157773.797429,1732157773.799362,122.000000,0.000000,4297.820313,4286.025879,4318.333496,4310.256348,4296.794922,4296.538574,4338.717773,4400.128418,4302.692383,4301.794922,4473.846191,4508.205078,4348.077148,4436.025879,1544.000000,1.000000,23.000000,,,,0.000000,2.000000,2.000000,0.000000,4.000000,2.000000,2.000000,0.000000,0.000000,4.000000,4.000000,4.000000,4.000000,4.000000,4.000000,0.000000,,,,,,,,,,,,,,,,,,,,,,,,,,,,
1732157773.805237,1732157773.807171,123.000000,0.000000,4298.717773,4293.461426,4318.077148,4304.871582,4294.871582,4295.000000,4339.102539,4398.461426,4297.436035,4295.641113,4473.589844,4503.846191,4344.102539,4433.589844,1566.000000,1.000000,23.000000,,,,0.000000,2.000000,2.000000,0.000000,4.000000,2.000000,2.000000,0.000000,0.000000,4.000000,4.000000,4.000000,4.000000,4.000000,4.000000,0.000000,,,,,,,,,,,,,,,,,,,,,,,,,,,,
1732157773.813046,1732157773.815079,124.000000,0.000000,4297.820313,4291.666504,4316.794922,4301.538574,4289.102539,4292.051270,4340.641113,4400.384766,4300.512695,4300.641113,4475.384766,4500.769043,4341.794922,4421.922852,1705.000000,1.000000,23.000000,,,,0.000000,2.000000,2.000000,0.000000,4.000000,2.000000,2.000000,0.000000,0.000000,4.000000,4.000000,4.000000,4.000000,4.000000,4.000000,0.000000,,,,,,,,,,,,,,,,,31.000000,0.000000,0.506477,0.484619,-0.538025,0.468140,0.990355,-0.020999,-0.040044,-35.531704,45.282345,31.172421
1732157773.820854,1732157773.822887,125.000000,0.000000,4295.128418,4284.102539,4317.051270,4303.589844,4290.512695,4291.538574,4338.461426,4400.128418,4305.256348,4306.025879,4475.128418,4502.436035,4340.512695,4421.538574,1614.000000,1.000000,23.000000,,,,0.000000,2.000000,2.000000,0.000000,4.000000,2.000000,2.000000,0.000000,0.000000,4.000000,4.000000,4.000000,4.000000,4.000000,4.000000,0.000000,,,,,,,,,,,,,,,,,,,,,,,,,,,,
1732157773.828662,1732157773.830895,126.000000,0.000000,4294.102539,4281.410156,4317.820313,4297.179688,4307.948730,4293.077148,4334.871582,4397.563965,4303.717773,4303.461426,4473.717773,4499.102539,4341.922852,4427.563965,1544.000000,1.000000,23.000000,,,,0.000000,2.000000,2.000000,0.000000,4.000000,2.000000,2.000000,0.000000,0.000000,4.000000,4.000000,4.000000,4.000000,4.000000,4.000000,0.000000,,,,,,,,,,,,,,,,,,,,,,,,,,,,
1732157773.836470,1732157773.838703,127.000000,0.000000,4295.641113,4285.000000,4314.487305,4295.512695,4306.410156,4293.974121,4334.871582,4399.358887,4301.538574,4303.717773,4474.743652,4499.871582,4349.487305,4428.717773,23.000000,1.000000,23.000000,,,,0.000000,2.000000,2.000000,0.000000,4.000000,2.000000,2.000000,0.000000,0.000000,4.000000,4.000000,4.000000,4.000000,4.000000,4.000000,0.000000,,,,,,,,,,,,,,,,,,,,,,,,,,,,
1732157773.844278,1732157773.846611,0.000000,0.000000,4297.051270,4289.230957,4313.461426,4305.128418,4276.666504,4294.230957,4337.051270,4402.179688,4306.794922,4308.846191,4477.051270,4507.436035,4353.461426,4430.769043,0.000000,1.000000,23.000000,,,,0.000000,2.000000,2.000000,0.000000,4.000000,2.000000,2.000000,0.000000,0.000000,4.000000,4.000000,4.000000,4.000000,4.000000,4.000000,0.000000,,,,,,,,,,,,,,,,,0.000000,0.000000,0.506241,0.484680,-0.538086,0.468262,0.995239,-0.017580,-0.040044,-35.442348,45.240368,31.194662
1732157773.852087,1732157773.854420,1.000000,0.000000,4296.666504,4289.358887,4318.461426,4303.974121,4274.743652,4295.512695,4337.563965,4402.436035,4311.666504,4310.512695,4478.717773,4508.205078,4349.102539,4432.307617,1594.000000,1.000000,23.000000,,,,0.000000,2.000000,2.000000,0.000000,4.000000,2.000000,2.000000,0.000000,0.000000,4.000000,4.000000,4.000000,4.000000,4.000000,4.000000,0.000000,,,,,,,,,,,,,,,,,,,,,,,,,,,,
1732157773.859895,1732157773.862028,2.000000,0.000000,4295.256348,4286.794922,4319.102539,4297.307617,4294.743652,4296.153809,4336.922852,4401.153809,4310.000000,4311.025879,4479.230957,4504.102539,4351.922852,4429.230957,1364.000000,1.000000,23.000000,,,,0.000000,2.000000,2.000000,0.000000,4.000000,2.000000,2.000000,0.000000,0.000000,4.000000,4.000000,4.000000,4.000000,4.000000,4.000000,0.000000,,,,,,,,,,,,,,,,,,,,,,,,,,,,
1732157773.867703,1732157773.869836,3.000000,0.000000,4293.333496,4286.538574,4317.179688,4298.205078,4289.487305,4295.128418,4335.897461,4399.871582,4309.743652,4312.948730,4477.436035,4506.025879,4356.282227,4427.436035,1419.000000,1.000000,23.000000,,,,0.000000,2.000000,2.000000,0.000000,4.000000,2.000000,2.000000,0.000000,0.000000,4.000000,4.000000,4.000000,4.000000,4.000000,4.000000,0.000000,,,,,,,,,,,,,,,,,,,,,,,,,,,,
1732157773.875512,1732157773.877544,4.000000,0.000000,4294.615234,4290.512695,4318.846191,4298.461426,4291.666504,4295.000000,4334.743652,4399.871582,4311.794922,4312.179688,4475.769043,4507.051270,4350.897461,4428.717773,1421.000000,1.000000,23.000000,,,,0.000000,2.000000,2.000000,0.000000,4.000000,2.000000,2.000000,0.000000,0.000000,4.000000,4.000000,4.000000,4.000000,4.000000,4.000000,0.000000,,,,,,,,,,,,,,,,,1.000000,0.000000,0.506021,0.484741,-0.538025,0.468506,0.983030,-0.027347,-0.053717,-35.483303,45.104698,31.092676
1732157773.883320,1732157773.885353,5.000000,0.000000,4295.641113,4288.205078,4319.871582,4296.025879,4307.820313,4293.461426,4335.256348,4400.897461,4310.512695,4310.641113,4476.025879,4506.282227,4348.846191,4429.358887,1217.000000,1.000000,23.000000,,,,0.000000,2.000000,2.000000,0.000000,4.000000,2.000000,2.000000,0.000000,0.000000,4.000000,4.000000,4.000000,4.000000,4.000000,4.000000,0.000000,,,,,,,,,,,,,,,,,,,,,,,,,,,,
1732157773.891128,1732157773.892961,6.000000,0.000000,4292.179688,4281.153809,4316.666504,4296.410156,4291.538574,4291.282227,4335.641113,4400.897461,4308.717773,4310.128418,4476.153809,4507.563965,4352.948730,4428.846191,0.000000,1.000000,23.000000,,,,0.000000,2.000000,2.000000,0.000000,4.000000,2.000000,2.000000,0.000000,0.000000,4.000000,4.000000,4.000000,4.000000,4.000000,4.000000,0.000000,,,,,,,,,,,,,,,,,,,,,,,,,,,,
1732157773.898936,1732157773.900769,7.000000,0.000000,4291.410156,4280.000000,4316.282227,4295.769043,4271.025879,4292.692383,4336.538574,4400.256348,4311.025879,4310.641113,4474.358887,4506.538574,4348.589844,4426.794922,0.000000,1.000000,23.000000,,,,0.000000,2.000000,2.000000,0.000000,4.000000,2.000000,2.000000,0.000000,0.000000,4.000000,4.000000,4.000000,4.000000,4.000000,4.000000,0.000000,,,,,,,,,,,,,,,,,,,,,,,,,,,,
1732157773.906745,1732157773.908478,8.000000,0.000000,4294.871582,4284.102539,4317.692383,4297.179688,4282.307617,4295.128418,4337.436035,4400.512695,4310.641113,4311.538574,4473.589844,4506.282227,4342.179688,4425.256348,1531.000000,1.000000,23.000000,,,,0.000000,2.000000,2.000000,0.000000,4.000000,2.000000,2.000000,0.000000,0.000000,4.000000,4.000000,4.000000,4.000000,4.000000,4.000000,0.000000,,,,,,,,,,,,,,,,,2.000000,0.000000,0.505956,0.484741,-0.538086,0.468506,0.983030,-0.027347,-0.053717,-35.486473,45.051472,31.113401
1732157773.914553,1732157773.916286,9.000000,0.000000,4294.230957,4284.102539,4318.461426,4299.871582,4291.025879,4292.563965,4335.641113,4400.641113,4309.487305,4312.307617,4472.820313,4506.410156,4339.871582,4425.000000,1683.000000,1.000000,23.000000,,,,0.000000,2.000000,2.000000,0.000000,4.000000,2.000000,2.000000,0.000000,0.000000,4.000000,4.000000,4.000000,4.000000,4.000000,4.000000,0.000000,,,,,,,,,,,,,,,,,,,,,,,,,,,,
1732157773.922361,1732157773.923894,10.000000,0.000000,4292.051270,4283.077148,4318.461426,4298.333496,4278.589844,4291.922852,4334.871582,4400.128418,4313.974121,4314.102539,4471.666504,4501.282227,4335.512695,4426.282227,1541.000000,1.000000,23.000000,,,,0.000000,2.000000,2.000000,0.000000,4.000000,2.000000,2.000000,0.000000,0.000000,4.000000,4.000000,4.000000,4.000000,4.000000,4.000000,0.000000,,,,,,,,,,,,,,,,,,,,,,,,,,,,
1732157773.930169,1732157773.931702,11.000000,0.000000,4293.846191,4287.179688,4316.666504,4296.153809,4284.871582,4289.743652,4336.025879,4400.897461,4312.563965,4312.948730,4471.153809,4496.153809,4334.102539,4428.333496,1566.000000,1.000000,23.000000,,,,0.000000,2.000000,2.000000,0.000000,4.000000,2.000000,2.000000,0.000000,0.000000,4.000000,4.000000,4.000000,4.000000,4.000000,4.000000,0.000000,,,,,,,,,,,,,,,,,,,,,,,,,,,,
1732157773.937977,1732157773.939411,12.000000,0.000000,4295.641113,4284.230957,4314.358887,4295.769043,4300.769043,4281.666504,4336.282227,4401.410156,4301.794922,4308.333496,4470.384766,4499.871582,4336.666504,4428.333496,1705.000000,1.000000,23.000000,,,,0.000000,2.000000,2.000000,0.000000,4.000000,2.000000,2.000000,0.000000,0.000000,4.000000,4.000000,4.000000,4.000000,4.000000,4.000000,0.000000,,,,,,,,,,,,,,,,,3.000000,0.000000,0.505893,0.484680,-0.538147,0.468567,0.966915,-0.010743,-0.049811,-35.615711,45.168358,30.901854
1732157773.945786,1732157773.947219,13.000000,0.000000,4294.487305,4281.282227,4315.128418,4296.666504,4288.846191,4282.307617,4334.743652,4399.743652,4303.333496,4307.436035,4470.897461,4506.922852,4335.000000,4427.051270,1621.000000,1.000000,23.000000,,,,0.000000,2.000000,2.000000,0.000000,4.000000,2.000000,2.000000,0.000000,0.000000,4.000000,4.000000,4.000000,4.000000,4.000000,4.000000,0.000000,,,,,,,,,,,,,,,,,,,,,,,,,,,,
1732157773.953594,1732157773.954827,14.000000,0.000000,4294.615234,4288.077148,4317.820313,4303.333496,4271.922852,4290.128418,4334.743652,4399.743652,4317.051270,4311.666504,4471.282227,4508.717773,4333.846191,4426.922852,1541.000000,1.000000,23.000000,,,,0.000000,2.000000,2.000000,0.000000,4.000000,2.000000,2.000000,0.000000,0.000000,4.000000,4.000000,4.000000,4.000000,4.000000,4.000000,0.000000,1.000000,0.000000,2.000000,2.000000,0.000000,4.000000,2.000000,2.000000,0.000000,0.000000,4.000000,4.000000,4.000000,4.000000,4.000000,4.000000,,,,,,,,,,,,
1732157773.961402,1732157773.962636,15.000000,0.000000,4296.794922,4290.897461,4317.820313,4308.589844,4277.820313,4287.436035,4335.256348,4400.769043,4310.512695,4309.743652,4471.025879,4507.051270,4338.589844,4427.051270,1566.000000,1.000000,23.000000,,,,0.000000,2.000000,2.000000,0.000000,4.000000,2.000000,2.000000,0.000000,0.000000,4.000000,4.000000,4.000000,4.000000,4.000000,4.000000,0.000000,,,,,,,,,,,,,,,,,,,,,,,,,,,,
1732157773.969211,1732157773.970344,16.000000,0.000000,4298.077148,4285.128418,4317.692383,4305.512695,4284.487305,4281.153809,4334.871582,4400.128418,4297.051270,4303.205078,4471.153809,4505.512695,4341.025879,4427.948730,0.000000,1.000000,23.000000,,,,0.000000,2.000000,2.000000,0.000000,4.000000,2.000000,2.000000,0.000000,0.000000,4.000000,4.000000,4.000000,4.000000,4.000000,4.000000,0.000000,,,,,,,,,,,,,,,,,4.000000,0.000000,0.505917,0.484375,-0.538452,0.468506,0.976682,-0.017092,-0.037602,-35.653725,45.246372,31.013836
1732157773.977019,1732157773.978152,17.000000,0.000000,4297.051270,4284.230957,4316.922852,4304.230957,4279.358887,4283.846191,4335.000000,4400.641113,4305.769043,4305.641113,4473.205078,4506.666504,4340.256348,4430.897461,0.000000,1.000000,23.000000,,,,0.000000,2.000000,2.000000,0.000000,4.000000,2.000000,2.000000,0.000000,0.000000,4.000000,4.000000,4.000000,4.000000,4.000000,4.000000,0.000000,,,,,,,,,,,,,,,,,,,,,,,,,,,,
1732157773.984827,1732157773.985760,18.000000,0.000000,4295.641113,4286.282227,4317.307617,4306.410156,4282.692383,4284.102539,4335.000000,4401.922852,4312.307617,4309.743652,4473.974121,4504.230957,4341.666504,4429.102539,0.000000,1.000000,23.000000,,,,0.000000,2.000000,2.000000,0.000000,4.000000,2.000000,2.000000,0.000000,0.000000,4.000000,4.000000,4.000000,4.000000,4.000000,4.000000,0.000000,,,,,,,,,,,,,,,,,,,,,,,,,,,,
1732157773.992635,1732157773.993569,19.000000,0.000000,4294.358887,4281.282227,4317.563965,4302.692383,4285.128418,4281.538574,4335.000000,4401.025879,4304.615234,4307.563965,4472.179688,4496.666504,4343.717773,4422.307617,0.000000,1.000000,23.000000,,,,0.000000,2.000000,2.000000,0.000000,4.000000,2.000000,2.000000,0.000000,0.000000,4.000000,4.000000,4.000000,4.000000,4.000000,4.000000,0.000000,,,,,,,,,,,,,,,,,,,,,,,,,,,,
1732157774.000443,1732157774.001277,20.000000,0.000000,4294.743652,4280.512695,4315.000000,4301.538574,4277.820313,4282.820313,4335.000000,4400.897461,4302.563965,4303.846191,4470.897461,4496.666504,4343.205078,4422.179688,0.000000,1.000000,23.000000,,,,0.000000,2.000000,2.000000,0.000000,4.000000,2.000000,2.000000,0.000000,0.000000,4.000000,4.000000,4.000000,4.000000,4.000000,4.000000,0.000000,,,,,,,,,,,,,,,,,5.000000,0.000000,0.505904,0.484253,-0.538574,0.468506,0.974728,-0.019534,-0.048834,-35.624519,45.211227,31.207874
1732157774.008252,1732157774.009085,21.000000,0.000000,4295.769043,4287.436035,4314.230957,4305.000000,4288.846191,4281.538574,4334.743652,4401.282227,4300.769043,4298.333496,4471.153809,4498.589844,4341.538574,4427.436035,0.000000,1.000000,23.000000,,,,0.000000,2.000000,2.000000,0.000000,4.000000,2.000000,2.000000,0.000000,0.000000,4.000000,4.000000,4.000000,4.000000,4.000000,4.000000,0.000000,,,,,,,,,,,,,,,,,,,,,,,,,,,,
1732157774.016060,1732157774.016694,22.000000,0.000000,4297.051270,4288.077148,4317.179688,4302.436035,4300.128418,4281.153809,4334.871582,4400.897461,4296.025879,4296.410156,4472.563965,4497.563965,4341.794922,4428.461426,0.000000,1.000000,23.000000,,,,0.000000,2.000000,2.000000,0.000000,4.000000,2.000000,2.000000,0.000000,0.000000,4.000000,4.000000,4.000000,4.000000,4.000000,4.000000,0.000000,,,,,,,,,,,,,,,,,,,,,,,,,,,,
1732157774.023868,1732157774.024502,23.000000,0.000000,4299.871582,4280.769043,4318.717773,4300.384766,4278.717773,4281.538574,4335.512695,4401.922852,4299.487305,4304.615234,4472.436035,4503.205078,4341.922852,4426.282227,0.000000,1.000000,23.000000,,,,0.000000,2.000000,2.000000,0.000000,4.000000,2.000000,2.000000,0.000000,0.000000,4.000000,4.000000,4.000000,4.000000,4.000000,4.000000,0.000000,,,,,,,,,,,,,,,,,,,,,,,,,,,,
1732157774.031676,1732157774.032410,24.000000,0.000000,4300.641113,4281.025879,4316.794922,4303.974121,4261.282227,4280.769043,4336.025879,4402.820313,4302.948730,4309.230957,4471.922852,4508.077148,4341.794922,4426.794922,0.000000,1.000000,23.000000,,,,0.000000,2.000000,2.000000,0.000000,4.000000,2.000000,2.000000,0.000000,0.000000,4.000000,4.000000,4.000000,4.000000,4.000000,4.000000,0.000000,,,,,,,,,,,,,,,,,6.000000,0.000000,0.506004,0.484131,-0.538696,0.468384,0.978147,-0.030277,-0.042974,-35.410858,45.297760,31.358377
1732157774.039485,1732157774.040218,25.000000,0.000000,4297.563965,4283.077148,4315.897461,4302.051270,4270.769043,4286.922852,4336.282227,4401.025879,4307.307617,4306.666504,4472.307617,4506.153809,4342.179688,4426.794922,0.000000,1.000000,23.000000,,,,0.000000,2.000000,2.000000,0.000000,4.000000,2.000000,2.000000,0.000000,0.000000,4.000000,4.000000,4.000000,4.000000,4.000000,4.000000,0.000000,,,,,,,,,,,,,,,,,,,,,,,,,,,,
