title:four, start timestamp:1732081561.301977, stop timestamp:1732081591.441823, headset type:EPOCX, headset serial:E5020C3A, headset firmware:730, channels:67, sampling rate:eeg_128;mot_32, samples:3861      , version:2.2, 
Timestamp,OriginalTimestamp,EEG.Counter,EEG.Interpolated,EEG.AF3,EEG.F7,EEG.F3,EEG.FC5,EEG.T7,EEG.P7,EEG.O1,EEG.O2,EEG.P8,EEG.T8,EEG.FC6,EEG.F4,EEG.F8,EEG.AF4,EEG.RawCq,EEG.Battery,EEG.BatteryPercent,MarkerIndex,MarkerType,MarkerValueInt,EEG.MarkerHardware,CQ.AF3,CQ.F7,CQ.F3,CQ.FC5,CQ.T7,CQ.P7,CQ.O1,CQ.O2,CQ.P8,CQ.T8,CQ.FC6,CQ.F4,CQ.F8,CQ.AF4,CQ.Overall,EQ.SampleRateQuality,EQ.OVERALL,EQ.AF3,EQ.F7,EQ.F3,EQ.FC5,EQ.T7,EQ.P7,EQ.O1,EQ.O2,EQ.P8,EQ.T8,EQ.FC6,EQ.F4,EQ.F8,EQ.AF4,MOT.CounterMems,MOT.InterpolatedMems,MOT.Q0,MOT.Q1,MOT.Q2,MOT.Q3,MOT.AccX,MOT.AccY,MOT.AccZ,MOT.MagX,MOT.MagY,MOT.MagZ
1732081561.301977,1732081561.302153,105.000000,0.000000,4318.461426,4292.051270,4315.384766,4312.307617,4275.000000,4343.589844,4320.256348,4319.358887,4302.820313,4273.333496,4426.025879,4461.538574,4339.487305,4395.128418,1671.000000,0.000000,13.000000,,,,0.000000,2.000000,2.000000,0.000000,2.000000,2.000000,2.000000,1.000000,2.000000,4.000000,4.000000,4.000000,4.000000,2.000000,4.000000,25.000000,,,,,,,,,,,,,,,,,,,,,,,,,,,,
1732081561.309785,1732081561.310161,106.000000,0.000000,4323.077148,4293.589844,4312.948730,4309.358887,4278.846191,4345.128418,4322.051270,4318.589844,4305.897461,4272.948730,4428.077148,4455.641113,4342.307617,4393.589844,1356.000000,0.000000,13.000000,,,,0.000000,2.000000,2.000000,0.000000,2.000000,2.000000,2.000000,1.000000,2.000000,4.000000,4.000000,4.000000,4.000000,2.000000,4.000000,25.000000,,,,,,,,,,,,,,,,,,,,,,,,,,,,
1732081561.317593,1732081561.317969,107.000000,0.000000,4321.794922,4291.666504,4311.538574,4308.589844,4272.051270,4343.205078,4325.384766,4315.128418,4302.436035,4274.358887,4427.820313,4456.153809,4341.153809,4395.512695,1499.000000,0.000000,13.000000,,,,0.000000,2.000000,2.000000,0.000000,2.000000,2.000000,2.000000,1.000000,2.000000,4.000000,4.000000,4.000000,4.000000,2.000000,4.000000,25.000000,,,,,,,,,,,,,,,,,,,,,,,,,,,,
1732081561.325402,1732081561.325678,108.000000,0.000000,4321.922852,4292.948730,4312.179688,4312.307617,4273.205078,4341.538574,4320.256348,4315.256348,4294.871582,4272.307617,4430.000000,4461.153809,4340.897461,4395.512695,1725.000000,0.000000,13.000000,,,,0.000000,2.000000,2.000000,0.000000,2.000000,2.000000,2.000000,1.000000,2.000000,4.000000,4.000000,4.000000,4.000000,2.000000,4.000000,25.000000,,,,,,,,,,,,,,,,,27.000000,0.000000,0.628733,0.407288,-0.594482,0.292236,0.972287,0.178733,-0.048346,-74.223076,66.212601,27.837263
1732081561.333210,1732081561.333486,109.000000,0.000000,4329.358887,4297.948730,4315.256348,4315.256348,4276.666504,4339.871582,4317.948730,4320.769043,4297.820313,4273.077148,4435.384766,4463.974121,4342.179688,4394.871582,1671.000000,0.000000,13.000000,,,,0.000000,2.000000,2.000000,0.000000,2.000000,2.000000,2.000000,1.000000,2.000000,4.000000,4.000000,4.000000,4.000000,2.000000,4.000000,25.000000,,,,,,,,,,,,,,,,,,,,,,,,,,,,
1732081561.341018,1732081561.341494,110.000000,0.000000,4337.436035,4299.230957,4314.615234,4318.589844,4270.384766,4335.897461,4323.077148,4320.128418,4306.922852,4277.179688,4440.897461,4463.205078,4346.538574,4403.846191,1356.000000,0.000000,13.000000,,,,0.000000,2.000000,2.000000,0.000000,2.000000,2.000000,2.000000,1.000000,2.000000,4.000000,4.000000,4.000000,4.000000,2.000000,4.000000,25.000000,,,,,,,,,,,,,,,,,,,,,,,,,,,,
1732081561.348826,1732081561.349302,111.000000,0.000000,4342.436035,4296.153809,4314.230957,4319.615234,4270.641113,4331.794922,4324.743652,4316.794922,4305.512695,4279.487305,4445.256348,4464.230957,4352.692383,4413.717773,1499.000000,0.000000,13.000000,,,,0.000000,2.000000,2.000000,0.000000,2.000000,2.000000,2.000000,1.000000,2.000000,4.000000,4.000000,4.000000,4.000000,2.000000,4.000000,25.000000,,,,,,,,,,,,,,,,,,,,,,,,,,,,
1732081561.356635,1732081561.357010,112.000000,0.000000,4347.051270,4302.563965,4317.436035,4320.769043,4280.769043,4330.256348,4321.794922,4316.025879,4300.256348,4278.461426,4442.948730,4464.102539,4354.230957,4414.358887,1725.000000,0.000000,13.000000,,,,0.000000,2.000000,2.000000,0.000000,2.000000,2.000000,2.000000,1.000000,2.000000,4.000000,4.000000,4.000000,4.000000,2.000000,4.000000,25.000000,,,,,,,,,,,,,,,,,28.000000,0.000000,0.628454,0.406921,-0.594788,0.292725,0.980100,0.154804,-0.028812,-74.332359,66.312202,27.804850
1732081561.364443,1732081561.364819,113.000000,0.000000,4354.615234,4307.820313,4317.692383,4324.230957,4277.179688,4330.897461,4321.922852,4316.410156,4303.205078,4277.948730,4441.666504,4463.461426,4356.153809,4418.461426,1671.000000,0.000000,13.000000,,,,0.000000,2.000000,2.000000,0.000000,2.000000,2.000000,2.000000,1.000000,2.000000,4.000000,4.000000,4.000000,4.000000,2.000000,4.000000,25.000000,,,,,,,,,,,,,,,,,,,,,,,,,,,,
1732081561.372251,1732081561.372427,114.000000,0.000000,4364.230957,4305.000000,4315.384766,4323.846191,4261.538574,4331.666504,4324.743652,4316.922852,4301.538574,4280.128418,4446.282227,4467.307617,4361.922852,4427.563965,1356.000000,0.000000,13.000000,,,,0.000000,2.000000,2.000000,0.000000,2.000000,2.000000,2.000000,1.000000,2.000000,4.000000,4.000000,4.000000,4.000000,2.000000,4.000000,25.000000,,,,,,,,,,,,,,,,,,,,,,,,,,,,
1732081561.380059,1732081561.380235,115.000000,0.000000,4369.743652,4309.230957,4316.410156,4319.230957,4260.384766,4331.025879,4322.179688,4317.307617,4296.922852,4277.307617,4446.025879,4471.922852,4363.717773,4426.922852,1499.000000,0.000000,13.000000,,,,0.000000,2.000000,2.000000,0.000000,2.000000,2.000000,2.000000,1.000000,2.000000,4.000000,4.000000,4.000000,4.000000,2.000000,4.000000,25.000000,,,,,,,,,,,,,,,,,,,,,,,,,,,,
1732081561.387868,1732081561.388143,116.000000,0.000000,4375.000000,4315.128418,4318.846191,4318.717773,4266.410156,4328.077148,4321.922852,4315.256348,4297.307617,4268.846191,4442.820313,4471.666504,4360.000000,4429.615234,1725.000000,0.000000,13.000000,,,,0.000000,2.000000,2.000000,0.000000,2.000000,2.000000,2.000000,1.000000,2.000000,4.000000,4.000000,4.000000,4.000000,2.000000,4.000000,25.000000,,,,,,,,,,,,,,,,,29.000000,0.000000,0.628351,0.406860,-0.594849,0.292908,0.980100,0.154804,-0.028812,-74.269211,66.474556,27.968596
1732081561.395676,1732081561.395951,117.000000,0.000000,4386.410156,4314.230957,4316.025879,4323.589844,4265.000000,4324.102539,4321.153809,4310.512695,4296.153809,4268.077148,4442.307617,4467.436035,4359.230957,4437.051270,1671.000000,0.000000,13.000000,,,,0.000000,2.000000,2.000000,0.000000,2.000000,2.000000,2.000000,1.000000,2.000000,4.000000,4.000000,4.000000,4.000000,2.000000,4.000000,25.000000,,,,,,,,,,,,,,,,,,,,,,,,,,,,
1732081561.403484,1732081561.403959,118.000000,0.000000,4393.846191,4313.461426,4316.538574,4323.717773,4257.948730,4317.179688,4319.230957,4311.025879,4294.871582,4271.025879,4439.615234,4464.487305,4361.410156,4435.897461,1356.000000,0.000000,13.000000,,,,0.000000,2.000000,2.000000,0.000000,2.000000,2.000000,2.000000,1.000000,2.000000,4.000000,4.000000,4.000000,4.000000,2.000000,4.000000,25.000000,,,,,,,,,,,,,,,,,,,,,,,,,,,,
1732081561.411292,1732081561.411767,119.000000,0.000000,4397.051270,4312.307617,4317.692383,4320.256348,4253.077148,4310.897461,4317.692383,4315.641113,4298.333496,4270.512695,4440.769043,4468.717773,4364.358887,4438.205078,1499.000000,0.000000,13.000000,,,,0.000000,2.000000,2.000000,0.000000,2.000000,2.000000,2.000000,1.000000,2.000000,4.000000,4.000000,4.000000,4.000000,2.000000,4.000000,25.000000,,,,,,,,,,,,,,,,,,,,,,,,,,,,
1732081561.419101,1732081561.419675,120.000000,0.000000,4400.384766,4308.846191,4318.461426,4318.077148,4262.692383,4310.384766,4319.615234,4314.487305,4297.692383,4270.000000,4444.230957,4477.820313,4363.846191,4444.358887,1725.000000,0.000000,13.000000,,,,0.000000,2.000000,2.000000,0.000000,2.000000,2.000000,2.000000,1.000000,2.000000,4.000000,4.000000,4.000000,4.000000,2.000000,4.000000,25.000000,,,,,,,,,,,,,,,,,30.000000,0.000000,0.628193,0.406616,-0.595032,0.293213,0.980100,0.159687,-0.044927,-74.261391,66.429390,27.791229
1732081561.426909,1732081561.427484,121.000000,0.000000,4403.717773,4315.512695,4317.179688,4319.358887,4272.436035,4311.666504,4318.974121,4310.256348,4292.436035,4268.077148,4440.897461,4480.641113,4359.358887,4445.641113,1671.000000,0.000000,13.000000,,,,0.000000,2.000000,2.000000,0.000000,2.000000,2.000000,2.000000,1.000000,2.000000,4.000000,4.000000,4.000000,4.000000,2.000000,4.000000,25.000000,,,,,,,,,,,,,,,,,,,,,,,,,,,,
1732081561.434717,1732081561.435492,122.000000,0.000000,4410.256348,4322.436035,4317.948730,4322.820313,4258.077148,4311.666504,4320.769043,4311.282227,4290.256348,4265.000000,4440.256348,4481.538574,4363.846191,4452.692383,1356.000000,0.000000,13.000000,,,,0.000000,2.000000,2.000000,0.000000,2.000000,2.000000,2.000000,1.000000,2.000000,4.000000,4.000000,4.000000,4.000000,2.000000,4.000000,25.000000,,,,,,,,,,,,,,,,,,,,,,,,,,,,
1732081561.442526,1732081561.443300,123.000000,0.000000,4421.410156,4320.128418,4318.333496,4326.153809,4244.358887,4311.025879,4320.256348,4313.717773,4293.205078,4270.256348,4449.230957,4489.230957,4372.307617,4462.692383,1499.000000,0.000000,13.000000,,,,0.000000,2.000000,2.000000,0.000000,2.000000,2.000000,2.000000,1.000000,2.000000,4.000000,4.000000,4.000000,4.000000,2.000000,4.000000,25.000000,,,,,,,,,,,,,,,,,,,,,,,,,,,,
1732081561.450334,1732081561.451208,124.000000,0.000000,4423.589844,4319.487305,4322.692383,4323.589844,4252.179688,4307.820313,4317.307617,4311.025879,4298.974121,4272.179688,4451.922852,4500.128418,4370.128418,4461.153809,1725.000000,0.000000,13.000000,,,,0.000000,2.000000,2.000000,0.000000,2.000000,2.000000,2.000000,1.000000,2.000000,4.000000,4.000000,4.000000,4.000000,2.000000,4.000000,25.000000,,,,,,,,,,,,,,,,,31.000000,0.000000,0.628027,0.406921,-0.594788,0.293640,0.966427,0.159687,-0.038091,-74.465065,65.922806,27.924229
1732081561.458142,1732081561.459016,125.000000,0.000000,4420.256348,4321.153809,4324.102539,4320.256348,4254.615234,4305.128418,4317.948730,4311.666504,4299.230957,4265.128418,4451.025879,4504.743652,4368.589844,4461.410156,1671.000000,0.000000,13.000000,,,,0.000000,2.000000,2.000000,0.000000,2.000000,2.000000,2.000000,1.000000,2.000000,4.000000,4.000000,4.000000,4.000000,2.000000,4.000000,25.000000,,,,,,,,,,,,,,,,,,,,,,,,,,,,
1732081561.465950,1732081561.467024,126.000000,0.000000,4425.384766,4323.077148,4321.538574,4325.256348,4253.333496,4306.410156,4321.025879,4314.743652,4293.589844,4264.615234,4458.333496,4498.077148,4377.307617,4471.410156,1356.000000,0.000000,13.000000,,,,0.000000,2.000000,2.000000,0.000000,2.000000,2.000000,2.000000,1.000000,2.000000,4.000000,4.000000,4.000000,4.000000,2.000000,4.000000,25.000000,,,,,,,,,,,,,,,,,,,,,,,,,,,,
1732081561.473758,1732081561.474832,127.000000,0.000000,4429.230957,4327.179688,4320.256348,4328.589844,4268.846191,4307.563965,4320.641113,4312.179688,4293.205078,4266.794922,4462.051270,4490.769043,4381.666504,4474.102539,13.000000,0.000000,13.000000,,,,0.000000,2.000000,2.000000,0.000000,2.000000,2.000000,2.000000,1.000000,2.000000,4.000000,4.000000,4.000000,4.000000,2.000000,4.000000,25.000000,,,,,,,,,,,,,,,,,,,,,,,,,,,,
1732081561.481567,1732081561.482740,0.000000,0.000000,4427.563965,4327.307617,4322.179688,4325.512695,4269.358887,4307.948730,4318.589844,4311.666504,4297.692383,4264.230957,4459.871582,4494.358887,4377.820313,4473.461426,15.000000,0.000000,13.000000,,,,0.000000,2.000000,2.000000,0.000000,2.000000,2.000000,2.000000,1.000000,2.000000,4.000000,4.000000,4.000000,4.000000,2.000000,4.000000,25.000000,,,,,,,,,,,,,,,,,0.000000,0.000000,0.628076,0.406799,-0.594910,0.293457,0.967892,0.160664,-0.044927,-74.703369,66.009140,27.793625
1732081561.489375,1732081561.490549,1.000000,0.000000,4425.384766,4326.282227,4321.538574,4324.615234,4252.436035,4310.897461,4319.230957,4316.666504,4296.922852,4267.179688,4460.256348,4500.256348,4377.563965,4474.615234,1299.000000,0.000000,13.000000,,,,0.000000,2.000000,2.000000,0.000000,2.000000,2.000000,2.000000,1.000000,2.000000,4.000000,4.000000,4.000000,4.000000,2.000000,4.000000,25.000000,,,,,,,,,,,,,,,,,,,,,,,,,,,,
1732081561.497183,1732081561.498557,2.000000,0.000000,4425.897461,4330.128418,4319.487305,4327.948730,4258.974121,4308.077148,4320.512695,4316.666504,4296.922852,4273.974121,4461.666504,4499.102539,4377.307617,4473.589844,1214.000000,0.000000,13.000000,,,,0.000000,2.000000,2.000000,0.000000,2.000000,2.000000,2.000000,1.000000,2.000000,4.000000,4.000000,4.000000,4.000000,2.000000,4.000000,25.000000,,,,,,,,,,,,,,,,,,,,,,,,,,,,
1732081561.504991,1732081561.506365,3.000000,0.000000,4427.436035,4331.666504,4321.538574,4330.897461,4269.743652,4306.410156,4321.282227,4313.717773,4297.563965,4270.512695,4461.794922,4500.256348,4376.153809,4472.051270,1167.000000,0.000000,13.000000,,,,0.000000,2.000000,2.000000,0.000000,2.000000,2.000000,2.000000,1.000000,2.000000,4.000000,4.000000,4.000000,4.000000,2.000000,4.000000,25.000000,,,,,,,,,,,,,,,,,,,,,,,,,,,,
1732081561.512800,1732081561.514273,4.000000,0.000000,4426.794922,4328.589844,4322.307617,4331.922852,4264.615234,4308.974121,4316.922852,4315.512695,4295.000000,4264.102539,4459.102539,4497.948730,4376.666504,4472.563965,1187.000000,0.000000,13.000000,,,,0.000000,2.000000,2.000000,0.000000,2.000000,2.000000,2.000000,1.000000,2.000000,4.000000,4.000000,4.000000,4.000000,2.000000,4.000000,25.000000,,,,,,,,,,,,,,,,,1.000000,0.000000,0.628048,0.406799,-0.594910,0.293518,0.968868,0.159199,-0.034672,-74.823059,65.912399,27.737837
1732081561.520608,1732081561.522081,5.000000,0.000000,4427.692383,4329.871582,4322.692383,4332.820313,4267.948730,4305.641113,4315.000000,4317.820313,4294.615234,4267.948730,4458.717773,4497.563965,4377.307617,4473.461426,1060.000000,0.000000,13.000000,,,,0.000000,2.000000,2.000000,0.000000,2.000000,2.000000,2.000000,1.000000,2.000000,4.000000,4.000000,4.000000,4.000000,2.000000,4.000000,25.000000,,,,,,,,,,,,,,,,,,,,,,,,,,,,
1732081561.528416,1732081561.530089,6.000000,0.000000,4435.512695,4340.128418,4323.333496,4340.000000,4268.589844,4303.461426,4316.666504,4317.307617,4297.692383,4273.205078,4465.641113,4509.487305,4378.846191,4474.871582,210.000000,0.000000,13.000000,,,,0.000000,2.000000,2.000000,0.000000,2.000000,2.000000,2.000000,1.000000,2.000000,4.000000,4.000000,4.000000,4.000000,2.000000,4.000000,25.000000,,,,,,,,,,,,,,,,,,,,,,,,,,,,
1732081561.536224,1732081561.537897,7.000000,0.000000,4440.384766,4347.948730,4328.205078,4346.794922,4259.230957,4304.487305,4320.128418,4319.615234,4300.000000,4270.000000,4471.922852,4521.153809,4375.641113,4475.384766,1190.000000,0.000000,13.000000,,,,0.000000,2.000000,2.000000,0.000000,2.000000,2.000000,2.000000,1.000000,2.000000,4.000000,4.000000,4.000000,4.000000,2.000000,4.000000,25.000000,,,,,,,,,,,,,,,,,,,,,,,,,,,,
1732081561.544033,1732081561.545606,8.000000,0.000000,4435.641113,4346.666504,4328.333496,4345.000000,4273.333496,4300.512695,4319.102539,4320.128418,4298.077148,4266.666504,4471.153809,4524.615234,4374.102539,4475.641113,1339.000000,0.000000,13.000000,,,,0.000000,2.000000,2.000000,0.000000,2.000000,2.000000,2.000000,1.000000,2.000000,4.000000,4.000000,4.000000,4.000000,2.000000,4.000000,25.000000,,,,,,,,,,,,,,,,,2.000000,0.000000,0.627883,0.406433,-0.595093,0.294006,0.966915,0.158222,-0.024905,-74.903343,65.734047,27.659315
1732081561.551841,1732081561.553414,9.000000,0.000000,4435.256348,4342.563965,4328.589844,4338.974121,4277.436035,4299.230957,4320.000000,4315.897461,4294.871582,4269.487305,4468.974121,4524.358887,4380.256348,4477.563965,1477.000000,0.000000,13.000000,,,,0.000000,2.000000,2.000000,0.000000,2.000000,2.000000,2.000000,1.000000,2.000000,4.000000,4.000000,4.000000,4.000000,2.000000,4.000000,25.000000,,,,,,,,,,,,,,,,,,,,,,,,,,,,
1732081561.559649,1732081561.561022,10.000000,0.000000,4437.307617,4340.769043,4328.205078,4337.179688,4254.615234,4307.051270,4319.871582,4315.641113,4298.205078,4275.641113,4472.179688,4517.307617,4383.205078,4477.948730,1352.000000,0.000000,13.000000,,,,0.000000,2.000000,2.000000,0.000000,2.000000,2.000000,2.000000,1.000000,2.000000,4.000000,4.000000,4.000000,4.000000,2.000000,4.000000,25.000000,,,,,,,,,,,,,,,,,,,,,,,,,,,,
1732081561.567457,1732081561.568831,11.000000,0.000000,4431.538574,4334.743652,4326.794922,4337.820313,4255.897461,4307.307617,4320.256348,4319.487305,4301.666504,4276.922852,4471.282227,4510.384766,4372.307617,4477.563965,1482.000000,0.000000,13.000000,,,,0.000000,2.000000,2.000000,0.000000,2.000000,2.000000,2.000000,1.000000,2.000000,4.000000,4.000000,4.000000,4.000000,2.000000,4.000000,25.000000,,,,,,,,,,,,,,,,,,,,,,,,,,,,
1732081561.575266,1732081561.576539,12.000000,0.000000,4424.358887,4327.692383,4323.333496,4333.974121,4279.102539,4306.666504,4320.000000,4319.743652,4299.358887,4272.179688,4463.717773,4512.436035,4362.436035,4478.077148,1723.000000,0.000000,13.000000,,,,0.000000,2.000000,2.000000,0.000000,2.000000,2.000000,2.000000,1.000000,2.000000,4.000000,4.000000,4.000000,4.000000,2.000000,4.000000,25.000000,,,,,,,,,,,,,,,,,3.000000,0.000000,0.627883,0.406433,-0.595093,0.294006,0.968380,0.153827,-0.033207,-74.938377,65.634575,27.700710
1732081561.583074,1732081561.584347,13.000000,0.000000,4420.128418,4333.717773,4325.000000,4329.102539,4283.589844,4313.461426,4318.846191,4315.769043,4295.897461,4270.512695,4458.974121,4511.153809,4364.743652,4477.948730,1671.000000,0.000000,13.000000,,,,0.000000,2.000000,2.000000,0.000000,2.000000,2.000000,2.000000,1.000000,2.000000,4.000000,4.000000,4.000000,4.000000,2.000000,4.000000,25.000000,,,,,,,,,,,,,,,,,,,,,,,,,,,,
1732081561.590882,1732081561.591955,14.000000,0.000000,4414.615234,4338.717773,4325.512695,4328.717773,4274.230957,4313.461426,4317.307617,4315.641113,4298.333496,4271.282227,4457.692383,4500.641113,4361.922852,4475.256348,1352.000000,0.000000,13.000000,,,,0.000000,2.000000,2.000000,0.000000,2.000000,2.000000,2.000000,1.000000,2.000000,4.000000,4.000000,4.000000,4.000000,2.000000,4.000000,25.000000,1.000000,16.666666,2.000000,2.000000,0.000000,2.000000,2.000000,2.000000,1.000000,1.000000,1.000000,3.000000,4.000000,4.000000,2.000000,4.000000,,,,,,,,,,,,
1732081561.598690,1732081561.599764,15.000000,0.000000,4408.333496,4330.000000,4323.461426,4325.641113,4277.436035,4310.128418,4316.153809,4319.871582,4303.333496,4269.358887,4454.871582,4495.512695,4353.461426,4471.282227,1482.000000,0.000000,13.000000,,,,0.000000,2.000000,2.000000,0.000000,2.000000,2.000000,2.000000,1.000000,2.000000,4.000000,4.000000,4.000000,4.000000,2.000000,4.000000,25.000000,,,,,,,,,,,,,,,,,,,,,,,,,,,,
1732081561.606499,1732081561.607472,16.000000,0.000000,4409.487305,4329.487305,4323.205078,4325.384766,4291.282227,4309.487305,4316.153809,4321.153809,4307.179688,4268.846191,4457.820313,4496.666504,4356.282227,4476.153809,0.000000,0.000000,13.000000,,,,0.000000,2.000000,2.000000,0.000000,2.000000,2.000000,2.000000,1.000000,2.000000,4.000000,4.000000,4.000000,4.000000,2.000000,4.000000,25.000000,,,,,,,,,,,,,,,,,4.000000,0.000000,0.627636,0.406372,-0.595154,0.294495,0.978147,0.145037,-0.036626,-74.981750,65.799004,27.694242
1732081561.614307,1732081561.615280,17.000000,0.000000,4410.769043,4338.589844,4324.102539,4334.743652,4287.436035,4312.051270,4319.615234,4322.948730,4310.641113,4276.922852,4467.307617,4498.077148,4365.000000,4482.948730,0.000000,0.000000,13.000000,,,,0.000000,2.000000,2.000000,0.000000,2.000000,2.000000,2.000000,1.000000,2.000000,4.000000,4.000000,4.000000,4.000000,2.000000,4.000000,25.000000,,,,,,,,,,,,,,,,,,,,,,,,,,,,
1732081561.622115,1732081561.622889,18.000000,0.000000,4404.871582,4336.666504,4324.487305,4337.179688,4271.922852,4319.871582,4327.436035,4326.666504,4312.179688,4281.282227,4464.615234,4497.692383,4361.922852,4478.461426,0.000000,0.000000,13.000000,,,,0.000000,2.000000,2.000000,0.000000,2.000000,2.000000,2.000000,1.000000,2.000000,4.000000,4.000000,4.000000,4.000000,2.000000,4.000000,25.000000,,,,,,,,,,,,,,,,,,,,,,,,,,,,
1732081561.629923,1732081561.630697,19.000000,0.000000,4402.179688,4333.461426,4326.153809,4330.000000,4288.077148,4323.077148,4326.410156,4325.384766,4310.256348,4276.922852,4456.538574,4492.692383,4356.922852,4472.051270,0.000000,0.000000,13.000000,,,,0.000000,2.000000,2.000000,0.000000,2.000000,2.000000,2.000000,1.000000,2.000000,4.000000,4.000000,4.000000,4.000000,2.000000,4.000000,25.000000,,,,,,,,,,,,,,,,,,,,,,,,,,,,
1732081561.637732,1732081561.638405,20.000000,0.000000,4404.102539,4338.589844,4326.282227,4327.692383,4308.461426,4318.077148,4321.538574,4322.820313,4308.333496,4277.820313,4460.897461,4487.948730,4360.256348,4475.897461,0.000000,0.000000,13.000000,,,,0.000000,2.000000,2.000000,0.000000,2.000000,2.000000,2.000000,1.000000,2.000000,4.000000,4.000000,4.000000,4.000000,2.000000,4.000000,25.000000,,,,,,,,,,,,,,,,,5.000000,0.000000,0.627121,0.406189,-0.595337,0.295471,0.959590,0.147967,-0.043951,-74.831886,65.795532,27.865669
1732081561.645540,1732081561.646213,21.000000,0.000000,4401.922852,4338.205078,4321.922852,4328.333496,4292.051270,4318.717773,4321.794922,4326.538574,4311.666504,4285.641113,4470.000000,4491.025879,4362.436035,4478.461426,0.000000,0.000000,13.000000,,,,0.000000,2.000000,2.000000,0.000000,2.000000,2.000000,2.000000,1.000000,2.000000,4.000000,4.000000,4.000000,4.000000,2.000000,4.000000,25.000000,,,,,,,,,,,,,,,,,,,,,,,,,,,,
1732081561.653348,1732081561.653822,22.000000,0.000000,4395.256348,4334.358887,4322.948730,4323.589844,4278.717773,4323.846191,4326.282227,4330.128418,4315.641113,4286.282227,4467.820313,4496.922852,4361.922852,4470.512695,0.000000,0.000000,13.000000,,,,0.000000,2.000000,2.000000,0.000000,2.000000,2.000000,2.000000,1.000000,2.000000,4.000000,4.000000,4.000000,4.000000,2.000000,4.000000,25.000000,,,,,,,,,,,,,,,,,,,,,,,,,,,,
1732081561.661156,1732081561.661630,23.000000,0.000000,4390.769043,4331.282227,4323.077148,4317.051270,4290.128418,4324.871582,4324.615234,4329.487305,4315.897461,4280.769043,4459.615234,4490.641113,4355.512695,4459.487305,0.000000,0.000000,13.000000,,,,0.000000,2.000000,2.000000,0.000000,2.000000,2.000000,2.000000,1.000000,2.000000,4.000000,4.000000,4.000000,4.000000,2.000000,4.000000,25.000000,,,,,,,,,,,,,,,,,,,,,,,,,,,,
1732081561.668965,1732081561.669538,24.000000,0.000000,4388.077148,4328.846191,4322.820313,4315.641113,4295.512695,4323.589844,4324.615234,4326.410156,4315.769043,4280.128418,4457.563965,4480.256348,4350.512695,4453.205078,0.000000,0.000000,13.000000,,,,0.000000,2.000000,2.000000,0.000000,2.000000,2.000000,2.000000,1.000000,2.000000,4.000000,4.000000,4.000000,4.000000,2.000000,4.000000,25.000000,,,,,,,,,,,,,,,,,6.000000,0.000000,0.626941,0.406067,-0.595337,0.296021,0.970822,0.146991,-0.034184,-74.767159,65.579376,27.966192
1732081561.676773,1732081561.677346,25.000000,0.000000,4386.922852,4333.461426,4322.563965,4319.102539,4292.051270,4323.077148,4325.641113,4325.256348,4317.051270,4284.358887,4459.487305,4477.948730,4356.282227,4455.128418,0.000000,0.000000,13.000000,,,,0.000000,2.000000,2.000000,0.000000,2.000000,2.000000,2.000000,1.000000,2.000000,4.000000,4.000000,4.000000,4.000000,2.000000,4.000000,25.000000,,,,,,,,,,,,,,,,,,,,,,,,,,,,
1732081561.684581,1732081561.685354,26.000000,0.000000,4382.051270,4335.512695,4324.230957,4319.615234,4291.282227,4326.666504,4329.102539,4330.512695,4321.922852,4287.820313,4461.025879,4480.384766,4360.128418,4454.230957,0.000000,0.000000,13.000000,,,,0.000000,2.000000,2.000000,0.000000,2.000000,2.000000,2.000000,1.000000,2.000000,4.000000,4.000000,4.000000,4.000000,2.000000,4.000000,25.000000,,,,,,,,,,,,,,,,,,,,,,,,,,,,
1732081561.692389,1732081561.693162,27.000000,0.000000,4376.538574,4333.846191,4322.948730,4316.538574,4301.410156,4328.589844,4330.769043,4333.974121,4325.512695,4290.000000,4461.410156,4482.820313,4355.512695,4446.282227,0.000000,0.000000,13.000000,,,,0.000000,2.000000,2.000000,0.000000,2.000000,2.000000,2.000000,1.000000,2.000000,4.000000,4.000000,4.000000,4.000000,2.000000,4.000000,25.000000,,,,,,,,,,,,,,,,,,,,,,,,,,,,
1732081561.700198,1732081561.701071,28.000000,0.000000,4376.794922,4333.846191,4322.307617,4317.307617,4310.769043,4325.384766,4329.871582,4331.410156,4321.282227,4286.153809,4457.563965,4482.692383,4351.922852,4441.666504,0.000000,0.000000,13.000000,,,,0.000000,2.000000,2.000000,0.000000,2.000000,2.000000,2.000000,1.000000,2.000000,4.000000,4.000000,4.000000,4.000000,2.000000,4.000000,25.000000,,,,,,,,,,,,,,,,,7.000000,0.000000,0.626915,0.405884,-0.595459,0.296082,0.970822,0.146991,-0.034184,-74.811401,65.342628,27.877617
1732081561.708006,1732081561.708879,29.000000,0.000000,4373.846191,4329.487305,4321.025879,4317.692383,4302.051270,4327.820313,4328.333496,4332.692383,4319.871582,4284.615234,4453.717773,4479.230957,4349.615234,4440.384766,0.000000,0.000000,13.000000,,,,0.000000,2.000000,2.000000,0.000000,2.000000,2.000000,2.000000,1.000000,2.000000,4.000000,4.000000,4.000000,4.000000,2.000000,4.000000,25.000000,,,,,,,,,,,,,,,,,,,,,,,,,,,,
1732081561.715814,1732081561.716887,30.000000,0.000000,4372.307617,4329.102539,4322.820313,4317.307617,4287.436035,4331.538574,4329.743652,4332.563965,4323.461426,4289.487305,4456.410156,4482.179688,4346.922852,4441.666504,0.000000,0.000000,13.000000,,,,0.000000,2.000000,2.000000,0.000000,2.000000,2.000000,2.000000,1.000000,2.000000,4.000000,4.000000,4.000000,4.000000,2.000000,4.000000,25.000000,,,,,,,,,,,,,,,,,,,,,,,,,,,,
1732081561.723622,1732081561.724695,31.000000,0.000000,4378.205078,4337.820313,4324.487305,4317.563965,4298.461426,4328.333496,4331.794922,4325.128418,4320.512695,4289.230957,4456.538574,4490.000000,4348.205078,4443.846191,0.000000,0.000000,13.000000,,,,0.000000,2.000000,2.000000,0.000000,2.000000,2.000000,2.000000,1.000000,2.000000,4.000000,4.000000,4.000000,4.000000,2.000000,4.000000,25.000000,,,,,,,,,,,,,,,,,,,,,,,,,,,,
1732081561.731431,1732081561.732403,32.000000,0.000000,4373.589844,4335.384766,4322.436035,4311.282227,4316.282227,4327.179688,4328.205078,4323.589844,4316.282227,4287.051270,4455.512695,4492.820313,4347.692383,4443.589844,0.000000,0.000000,13.000000,,,,0.000000,2.000000,2.000000,0.000000,2.000000,2.000000,2.000000,1.000000,2.000000,4.000000,4.000000,4.000000,4.000000,2.000000,4.000000,25.000000,,,,,,,,,,,,,,,,,8.000000,0.000000,0.626907,0.405762,-0.595520,0.296143,0.966915,0.158222,-0.047857,-74.752235,65.467529,27.869202
1732081561.739239,1732081561.740212,33.000000,0.000000,4364.871582,4334.230957,4320.512695,4314.358887,4305.128418,4331.025879,4327.436035,4330.641113,4321.410156,4289.358887,4462.948730,4497.563965,4346.666504,4445.641113,0.000000,0.000000,13.000000,,,,0.000000,2.000000,2.000000,0.000000,2.000000,2.000000,2.000000,1.000000,2.000000,4.000000,4.000000,4.000000,4.000000,2.000000,4.000000,25.000000,,,,,,,,,,,,,,,,,,,,,,,,,,,,
1732081561.747047,1732081561.748220,34.000000,0.000000,4367.563965,4342.436035,4323.333496,4325.512695,4290.256348,4334.230957,4332.563965,4335.384766,4327.692383,4292.051270,4459.743652,4497.820313,4346.794922,4443.717773,0.000000,0.000000,13.000000,,,,0.000000,2.000000,2.000000,0.000000,2.000000,2.000000,2.000000,1.000000,2.000000,4.000000,4.000000,4.000000,4.000000,2.000000,4.000000,25.000000,,,,,,,,,,,,,,,,,,,,,,,,,,,,
1732081561.754856,1732081561.756028,35.000000,0.000000,4365.256348,4337.692383,4327.436035,4320.641113,4300.641113,4339.487305,4337.307617,4336.153809,4326.282227,4292.948730,4446.538574,4488.333496,4342.948730,4431.025879,0.000000,0.000000,13.000000,,,,0.000000,2.000000,2.000000,0.000000,2.000000,2.000000,2.000000,1.000000,2.000000,4.000000,4.000000,4.000000,4.000000,2.000000,4.000000,25.000000,,,,,,,,,,,,,,,,,,,,,,,,,,,,
1732081561.762664,1732081561.763936,36.000000,0.000000,4356.922852,4332.820313,4326.538574,4316.025879,4310.256348,4343.333496,4335.000000,4333.974121,4321.410156,4295.256348,4449.230957,4490.256348,4344.102539,4427.820313,0.000000,0.000000,13.000000,,,,0.000000,2.000000,2.000000,0.000000,2.000000,2.000000,2.000000,1.000000,2.000000,4.000000,4.000000,4.000000,4.000000,2.000000,4.000000,25.000000,,,,,,,,,,,,,,,,,9.000000,0.000000,0.626834,0.405518,-0.595581,0.296509,0.966427,0.157246,-0.036626,-74.577644,65.525368,27.830721
1732081561.770472,1732081561.771744,37.000000,0.000000,4359.615234,4338.589844,4325.769043,4323.333496,4301.666504,4341.538574,4335.512695,4336.282227,4321.666504,4295.256348,4461.410156,4504.487305,4347.179688,4436.538574,0.000000,0.000000,13.000000,,,,0.000000,2.000000,2.000000,0.000000,2.000000,2.000000,2.000000,1.000000,2.000000,4.000000,4.000000,4.000000,4.000000,2.000000,4.000000,25.000000,,,,,,,,,,,,,,,,,,,,,,,,,,,,
1732081561.778280,1732081561.779752,38.000000,0.000000,4363.077148,4341.666504,4324.743652,4324.102539,4308.461426,4341.410156,4337.436035,4339.743652,4323.974121,4292.307617,4459.615234,4501.538574,4343.846191,4432.179688,0.000000,0.000000,13.000000,,,,0.000000,2.000000,2.000000,0.000000,2.000000,2.000000,2.000000,1.000000,2.000000,4.000000,4.000000,4.000000,4.000000,2.000000,4.000000,25.000000,,,,,,,,,,,,,,,,,,,,,,,,,,,,
1732081561.786088,1732081561.787561,39.000000,0.000000,4356.922852,4344.487305,4326.410156,4319.871582,4324.102539,4343.205078,4339.487305,4337.051270,4323.974121,4291.025879,4450.256348,4492.307617,4339.487305,4422.179688,0.000000,0.000000,13.000000,,,,0.000000,2.000000,2.000000,0.000000,2.000000,2.000000,2.000000,1.000000,2.000000,4.000000,4.000000,4.000000,4.000000,2.000000,4.000000,25.000000,,,,,,,,,,,,,,,,,,,,,,,,,,,,
1732081561.793897,1732081561.795469,40.000000,0.000000,4356.922852,4348.846191,4324.743652,4322.051270,4311.025879,4340.512695,4336.538574,4336.538574,4326.282227,4292.563965,4452.948730,4497.436035,4340.769043,4422.436035,0.000000,0.000000,13.000000,,,,0.000000,2.000000,2.000000,0.000000,2.000000,2.000000,2.000000,1.000000,2.000000,4.000000,4.000000,4.000000,4.000000,2.000000,4.000000,25.000000,,,,,,,,,,,,,,,,,10.000000,0.000000,0.626834,0.405518,-0.595581,0.296509,0.966427,0.157246,-0.036626,-74.686226,65.797211,27.949551
1732081561.801705,1732081561.803278,41.000000,0.000000,4358.589844,4345.512695,4323.974121,4321.410156,4293.333496,4336.794922,4332.820313,4332.820313,4324.615234,4291.922852,4459.102539,4501.282227,4342.179688,4423.589844,0.000000,0.000000,13.000000,,,,0.000000,2.000000,2.000000,0.000000,2.000000,2.000000,2.000000,1.000000,2.000000,4.000000,4.000000,4.000000,4.000000,2.000000,4.000000,25.000000,,,,,,,,,,,,,,,,,,,,,,,,,,,,
1732081561.809513,1732081561.811286,42.000000,0.000000,4355.769043,4342.692383,4325.512695,4319.230957,4298.333496,4339.743652,4332.436035,4325.897461,4319.615234,4288.974121,4460.512695,4496.538574,4344.487305,4423.717773,0.000000,0.000000,13.000000,,,,0.000000,2.000000,2.000000,0.000000,2.000000,2.000000,2.000000,1.000000,2.000000,4.000000,4.000000,4.000000,4.000000,2.000000,4.000000,25.000000,,,,,,,,,,,,,,,,,,,,,,,,,,,,
1732081561.817321,1732081561.819094,43.000000,0.000000,4355.384766,4346.794922,4328.333496,4321.410156,4312.820313,4341.025879,4333.589844,4331.282227,4322.820313,4288.846191,4460.512695,4496.025879,4345.769043,4424.102539,0.000000,0.000000,13.000000,,,,0.000000,2.000000,2.000000,0.000000,2.000000,2.000000,2.000000,1.000000,2.000000,4.000000,4.000000,4.000000,4.000000,2.000000,4.000000,25.000000,,,,,,,,,,,,,,,,,,,,,,,,,,,,
1732081561.825130,1732081561.827002,44.000000,0.000000,4355.128418,4349.358887,4324.102539,4321.794922,4312.436035,4340.128418,4332.692383,4340.256348,4327.307617,4291.922852,4461.666504,4496.666504,4341.666504,4424.615234,0.000000,0.000000,13.000000,,,,0.000000,2.000000,2.000000,0.000000,2.000000,2.000000,2.000000,1.000000,2.000000,4.000000,4.000000,4.000000,4.000000,2.000000,4.000000,25.000000,,,,,,,,,,,,,,,,,11.000000,0.000000,0.626745,0.405701,-0.595459,0.296692,0.974240,0.147967,-0.041021,-74.429176,65.550743,27.895802
1732081561.832938,1732081561.834811,45.000000,0.000000,4350.769043,4349.871582,4321.666504,4319.487305,4299.743652,4343.077148,4336.025879,4336.794922,4323.205078,4291.922852,4462.948730,4493.077148,4339.615234,4422.692383,0.000000,0.000000,13.000000,,,,0.000000,2.000000,2.000000,0.000000,2.000000,2.000000,2.000000,1.000000,2.000000,4.000000,4.000000,4.000000,4.000000,2.000000,4.000000,25.000000,,,,,,,,,,,,,,,,,,,,,,,,,,,,
1732081561.840746,1732081561.842819,46.000000,0.000000,4346.025879,4346.794922,4324.871582,4319.230957,4295.256348,4346.922852,4338.717773,4333.974121,4320.384766,4288.333496,4457.820313,4489.358887,4336.794922,4415.512695,0.000000,0.000000,13.000000,,,,0.000000,2.000000,2.000000,0.000000,2.000000,2.000000,2.000000,1.000000,2.000000,4.000000,4.000000,4.000000,4.000000,2.000000,4.000000,25.000000,,,,,,,,,,,,,,,,,,,,,,,,,,,,
1732081561.848554,1732081561.850627,47.000000,0.000000,4343.589844,4345.641113,4325.384766,4319.615234,4306.538574,4349.487305,4337.563965,4339.487305,4325.128418,4288.461426,4453.846191,4486.282227,4333.333496,4412.307617,0.000000,0.000000,13.000000,,,,0.000000,2.000000,2.000000,0.000000,2.000000,2.000000,2.000000,1.000000,2.000000,4.000000,4.000000,4.000000,4.000000,2.000000,4.000000,25.000000,,,,,,,,,,,,,,,,,,,,,,,,,,,,
1732081561.856363,1732081561.858535,48.000000,0.000000,4346.794922,4351.922852,4324.487305,4319.871582,4310.384766,4352.051270,4339.871582,4340.256348,4327.051270,4295.897461,4460.256348,4488.205078,4338.846191,4422.051270,0.000000,0.000000,13.000000,,,,0.000000,2.000000,2.000000,0.000000,2.000000,2.000000,2.000000,1.000000,2.000000,4.000000,4.000000,4.000000,4.000000,2.000000,4.000000,25.000000,,,,,,,,,,,,,,,,,12.000000,0.000000,0.626574,0.405518,-0.595581,0.297058,0.966915,0.136247,-0.043462,-74.500961,65.632767,27.975599
1732081561.864171,1732081561.866343,49.000000,0.000000,4355.641113,4358.974121,4327.563965,4323.846191,4305.128418,4350.512695,4341.538574,4335.384766,4323.974121,4302.692383,4467.179688,4493.717773,4347.692383,4430.897461,0.000000,0.000000,13.000000,,,,0.000000,2.000000,2.000000,0.000000,2.000000,2.000000,2.000000,1.000000,2.000000,4.000000,4.000000,4.000000,4.000000,2.000000,4.000000,25.000000,,,,,,,,,,,,,,,,,,,,,,,,,,,,
1732081561.871979,1732081561.874351,50.000000,0.000000,4358.333496,4361.922852,4330.384766,4327.051270,4318.333496,4345.641113,4340.128418,4334.871582,4321.153809,4298.461426,4465.000000,4495.897461,4348.846191,4425.897461,0.000000,0.000000,13.000000,,,,0.000000,2.000000,2.000000,0.000000,2.000000,2.000000,2.000000,1.000000,2.000000,4.000000,4.000000,4.000000,4.000000,2.000000,4.000000,25.000000,,,,,,,,,,,,,,,,,,,,,,,,,,,,
1732081561.879787,1732081561.882159,51.000000,0.000000,4352.436035,4359.230957,4328.717773,4326.794922,4318.461426,4345.384766,4339.615234,4339.615234,4321.922852,4293.717773,4461.666504,4497.307617,4345.256348,4420.128418,0.000000,0.000000,13.000000,,,,0.000000,2.000000,2.000000,0.000000,2.000000,2.000000,2.000000,1.000000,2.000000,4.000000,4.000000,4.000000,4.000000,2.000000,4.000000,25.000000,,,,,,,,,,,,,,,,,,,,,,,,,,,,
1732081561.887596,1732081561.890067,52.000000,0.000000,4348.205078,4353.846191,4328.717773,4323.846191,4300.384766,4346.410156,4342.563965,4337.563965,4326.666504,4300.897461,4467.692383,4504.102539,4348.974121,4422.436035,0.000000,0.000000,13.000000,,,,0.000000,2.000000,2.000000,0.000000,2.000000,2.000000,2.000000,1.000000,2.000000,4.000000,4.000000,4.000000,4.000000,2.000000,4.000000,25.000000,,,,,,,,,,,,,,,,,13.000000,0.000000,0.626384,0.405273,-0.595764,0.297424,0.978147,0.146991,-0.034184,-74.469116,65.722542,27.946903
1732081561.895404,1732081561.897876,53.000000,0.000000,4346.794922,4351.410156,4325.641113,4322.307617,4306.666504,4344.487305,4341.794922,4333.333496,4328.077148,4308.717773,4470.128418,4502.563965,4348.974121,4423.205078,0.000000,0.000000,13.000000,,,,0.000000,2.000000,2.000000,0.000000,2.000000,2.000000,2.000000,1.000000,2.000000,4.000000,4.000000,4.000000,4.000000,2.000000,4.000000,25.000000,,,,,,,,,,,,,,,,,,,,,,,,,,,,
1732081561.903212,1732081561.905884,54.000000,0.000000,4345.897461,4354.743652,4325.641113,4325.897461,4316.153809,4343.333496,4342.307617,4335.128418,4323.846191,4303.077148,4463.846191,4488.846191,4345.384766,4417.436035,0.000000,0.000000,13.000000,,,,0.000000,2.000000,2.000000,0.000000,2.000000,2.000000,2.000000,1.000000,2.000000,4.000000,4.000000,4.000000,4.000000,2.000000,4.000000,25.000000,,,,,,,,,,,,,,,,,,,,,,,,,,,,
1732081561.911020,1732081561.913692,55.000000,0.000000,4349.230957,4361.025879,4328.589844,4333.333496,4305.128418,4346.794922,4343.461426,4336.666504,4323.846191,4297.436035,4466.025879,4487.051270,4349.615234,4417.563965,0.000000,0.000000,13.000000,,,,0.000000,2.000000,2.000000,0.000000,2.000000,2.000000,2.000000,1.000000,2.000000,4.000000,4.000000,4.000000,4.000000,2.000000,4.000000,25.000000,,,,,,,,,,,,,,,,,,,,,,,,,,,,
1732081561.918829,1732081561.921400,56.000000,0.000000,4351.153809,4360.769043,4331.153809,4331.794922,4303.205078,4351.538574,4343.974121,4337.051270,4328.205078,4304.743652,4475.128418,4501.025879,4352.563965,4422.948730,0.000000,0.000000,13.000000,,,,0.000000,2.000000,2.000000,0.000000,2.000000,2.000000,2.000000,1.000000,2.000000,4.000000,4.000000,4.000000,4.000000,2.000000,4.000000,25.000000,,,,,,,,,,,,,,,,,14.000000,0.000000,0.626152,0.405273,-0.595825,0.297791,0.962031,0.151874,-0.039067,-74.569984,65.996925,27.766991
1732081561.926637,1732081561.929208,57.000000,0.000000,4345.641113,4357.563965,4327.436035,4324.615234,4308.974121,4343.589844,4339.358887,4342.948730,4333.974121,4317.436035,4477.563965,4505.384766,4354.487305,4427.179688,0.000000,0.000000,13.000000,,,,0.000000,2.000000,2.000000,0.000000,2.000000,2.000000,2.000000,1.000000,2.000000,4.000000,4.000000,4.000000,4.000000,2.000000,4.000000,25.000000,,,,,,,,,,,,,,,,,,,,,,,,,,,,
1732081561.934445,1732081561.936817,58.000000,0.000000,4339.487305,4358.846191,4326.794922,4323.461426,4302.051270,4335.769043,4340.256348,4346.794922,4336.794922,4319.487305,4476.025879,4495.897461,4355.641113,4425.384766,0.000000,0.000000,13.000000,,,,0.000000,2.000000,2.000000,0.000000,2.000000,2.000000,2.000000,1.000000,2.000000,4.000000,4.000000,4.000000,4.000000,2.000000,4.000000,25.000000,,,,,,,,,,,,,,,,,,,,,,,,,,,,
1732081561.942253,1732081561.944625,59.000000,0.000000,4341.922852,4362.820313,4327.820313,4328.717773,4305.769043,4343.333496,4341.666504,4342.436035,4329.871582,4307.307617,4474.358887,4491.282227,4348.846191,4419.615234,0.000000,0.000000,13.000000,,,,0.000000,2.000000,2.000000,0.000000,2.000000,2.000000,2.000000,1.000000,2.000000,4.000000,4.000000,4.000000,4.000000,2.000000,4.000000,25.000000,,,,,,,,,,,,,,,,,,,,,,,,,,,,
1732081561.950062,1732081561.952333,60.000000,0.000000,4346.153809,4363.077148,4328.077148,4331.538574,4309.230957,4347.948730,4339.358887,4338.589844,4319.102539,4302.307617,4473.461426,4498.974121,4346.922852,4419.743652,0.000000,0.000000,13.000000,,,,0.000000,2.000000,2.000000,0.000000,2.000000,2.000000,2.000000,1.000000,2.000000,4.000000,4.000000,4.000000,4.000000,2.000000,4.000000,25.000000,,,,,,,,,,,,,,,,,15.000000,0.000000,0.625639,0.405212,-0.596008,0.298584,0.973263,0.146014,-0.034672,-74.681686,65.744179,27.482929
1732081561.957870,1732081561.960141,61.000000,0.000000,4342.051270,4360.128418,4327.307617,4327.051270,4305.641113,4343.846191,4340.384766,4342.563965,4322.692383,4312.179688,4476.153809,4501.666504,4357.692383,4422.692383,0.000000,0.000000,13.000000,,,,0.000000,2.000000,2.000000,0.000000,2.000000,2.000000,2.000000,1.000000,2.000000,4.000000,4.000000,4.000000,4.000000,2.000000,4.000000,25.000000,,,,,,,,,,,,,,,,,,,,,,,,,,,,
1732081561.965678,1732081561.967750,62.000000,0.000000,4339.871582,4358.846191,4327.179688,4322.692383,4318.205078,4343.461426,4343.589844,4347.307617,4332.692383,4313.589844,4472.051270,4494.358887,4356.794922,4416.794922,0.000000,0.000000,13.000000,,,,0.000000,2.000000,2.000000,0.000000,2.000000,2.000000,2.000000,1.000000,2.000000,4.000000,4.000000,4.000000,4.000000,2.000000,4.000000,25.000000,,,,,,,,,,,,,,,,,,,,,,,,,,,,
1732081561.973486,1732081561.975558,63.000000,0.000000,4345.512695,4364.871582,4326.153809,4326.410156,4320.000000,4345.641113,4344.487305,4343.461426,4328.589844,4307.436035,4464.358887,4496.666504,4348.589844,4410.641113,0.000000,0.000000,13.000000,,,,0.000000,2.000000,2.000000,0.000000,2.000000,2.000000,2.000000,1.000000,2.000000,4.000000,4.000000,4.000000,4.000000,2.000000,4.000000,25.000000,,,,,,,,,,,,,,,,,,,,,,,,,,,,
1732081561.981295,1732081561.983266,64.000000,0.000000,4347.692383,4372.307617,4327.563965,4333.461426,4301.153809,4348.717773,4345.897461,4339.230957,4323.717773,4308.846191,4468.717773,4507.307617,4356.666504,4417.436035,5.000000,0.000000,13.000000,,,,0.000000,2.000000,2.000000,0.000000,2.000000,2.000000,2.000000,1.000000,2.000000,4.000000,4.000000,4.000000,4.000000,2.000000,4.000000,25.000000,,,,,,,,,,,,,,,,,16.000000,0.000000,0.624987,0.404236,-0.596497,0.300293,0.986449,0.149432,-0.039067,-74.688835,65.801117,27.502840
1732081561.989103,1732081561.991075,65.000000,0.000000,4347.948730,4373.461426,4331.282227,4339.102539,4306.666504,4346.666504,4343.461426,4339.230957,4323.333496,4307.179688,4470.769043,4501.922852,4357.820313,4421.410156,1287.000000,0.000000,13.000000,,,,0.000000,2.000000,2.000000,0.000000,2.000000,2.000000,2.000000,1.000000,2.000000,4.000000,4.000000,4.000000,4.000000,2.000000,4.000000,25.000000,,,,,,,,,,,,,,,,,,,,,,,,,,,,
1732081561.996911,1732081561.999083,66.000000,0.000000,4353.717773,4375.641113,4332.307617,4343.846191,4327.820313,4336.794922,4335.897461,4337.820313,4322.820313,4299.615234,4468.077148,4493.717773,4347.179688,4421.538574,1215.000000,0.000000,13.000000,,,,0.000000,2.000000,2.000000,0.000000,2.000000,2.000000,2.000000,1.000000,2.000000,4.000000,4.000000,4.000000,4.000000,2.000000,4.000000,25.000000,,,,,,,,,,,,,,,,,,,,,,,,,,,,
1732081562.004719,1732081562.006891,67.000000,0.000000,4358.077148,4379.871582,4331.282227,4344.871582,4317.820313,4339.487305,4339.358887,4338.846191,4324.487305,4303.461426,4474.615234,4502.051270,4354.102539,4427.948730,1158.000000,0.000000,13.000000,,,,0.000000,2.000000,2.000000,0.000000,2.000000,2.000000,2.000000,1.000000,2.000000,4.000000,4.000000,4.000000,4.000000,2.000000,4.000000,25.000000,,,,,,,,,,,,,,,,,,,,,,,,,,,,
1732081562.012528,1732081562.014799,68.000000,0.000000,4359.871582,4379.102539,4328.205078,4341.922852,4296.282227,4345.897461,4343.974121,4340.384766,4325.128418,4310.641113,4479.871582,4502.820313,4366.282227,4432.179688,1185.000000,0.000000,13.000000,,,,0.000000,2.000000,2.000000,0.000000,2.000000,2.000000,2.000000,1.000000,2.000000,4.000000,4.000000,4.000000,4.000000,2.000000,4.000000,25.000000,,,,,,,,,,,,,,,,,17.000000,0.000000,0.624747,0.403931,-0.596802,0.300598,0.971310,0.137224,-0.045416,-74.871284,65.442238,27.547300
1732081562.020336,1732081562.022607,69.000000,0.000000,4354.743652,4368.974121,4329.102539,4335.769043,4301.025879,4337.692383,4340.384766,4342.051270,4328.717773,4311.666504,4475.384766,4490.769043,4359.102539,4425.128418,1060.000000,0.000000,13.000000,,,,0.000000,2.000000,2.000000,0.000000,2.000000,2.000000,2.000000,1.000000,2.000000,4.000000,4.000000,4.000000,4.000000,2.000000,4.000000,25.000000,,,,,,,,,,,,,,,,,,,,,,,,,,,,
1732081562.028144,1732081562.030216,70.000000,0.000000,4352.692383,4366.538574,4330.769043,4333.333496,4320.769043,4331.282227,4334.615234,4342.948730,4332.179688,4310.897461,4472.692383,4485.000000,4354.743652,4420.641113,208.000000,0.000000,13.000000,,,,0.000000,2.000000,2.000000,0.000000,2.000000,2.000000,2.000000,1.000000,2.000000,4.000000,4.000000,4.000000,4.000000,2.000000,4.000000,25.000000,,,,,,,,,,,,,,,,,,,,,,,,,,,,
1732081562.035952,1732081562.038024,71.000000,0.000000,4365.000000,4379.743652,4332.179688,4340.384766,4319.230957,4334.743652,4335.641113,4337.179688,4322.051270,4305.128418,4474.871582,4486.025879,4363.974121,4431.025879,1190.000000,0.000000,13.000000,,,,0.000000,2.000000,2.000000,0.000000,2.000000,2.000000,2.000000,1.000000,2.000000,4.000000,4.000000,4.000000,4.000000,2.000000,4.000000,25.000000,,,,,,,,,,,,,,,,,,,,,,,,,,,,
1732081562.043761,1732081562.045732,72.000000,0.000000,4370.256348,4383.846191,4328.589844,4344.102539,4305.128418,4336.666504,4335.128418,4333.461426,4315.641113,4302.307617,4472.563965,4485.384766,4361.794922,4432.307617,1341.000000,0.000000,13.000000,,,,0.000000,2.000000,2.000000,0.000000,2.000000,2.000000,2.000000,1.000000,2.000000,4.000000,4.000000,4.000000,4.000000,2.000000,4.000000,25.000000,,,,,,,,,,,,,,,,,18.000000,0.000000,0.624412,0.403137,-0.597473,0.301025,0.960566,0.133317,-0.030765,-74.705742,65.136543,27.759979
1732081562.051569,1732081562.053540,73.000000,0.000000,4359.743652,4370.000000,4326.538574,4333.717773,4304.487305,4339.230957,4336.538574,4338.461426,4325.641113,4310.000000,4466.794922,4487.563965,4356.153809,4419.871582,1477.000000,0.000000,13.000000,,,,0.000000,2.000000,2.000000,0.000000,2.000000,2.000000,2.000000,1.000000,2.000000,4.000000,4.000000,4.000000,4.000000,2.000000,4.000000,25.000000,,,,,,,,,,,,,,,,,,,,,,,,,,,,
1732081562.059377,1732081562.061149,74.000000,0.000000,4358.205078,4364.102539,4326.410156,4328.205078,4309.615234,4343.717773,4338.974121,4341.666504,4330.000000,4313.974121,4466.025879,4487.307617,4364.102539,4419.102539,1369.000000,0.000000,13.000000,,,,0.000000,2.000000,2.000000,0.000000,2.000000,2.000000,2.000000,1.000000,2.000000,4.000000,4.000000,4.000000,4.000000,2.000000,4.000000,25.000000,,,,,,,,,,,,,,,,,,,,,,,,,,,,
1732081562.067186,1732081562.068957,75.000000,0.000000,4364.615234,4372.436035,4329.487305,4335.512695,4320.641113,4340.512695,4339.358887,4335.256348,4319.871582,4302.307617,4465.000000,4485.769043,4363.077148,4422.179688,1496.000000,0.000000,13.000000,,,,0.000000,2.000000,2.000000,0.000000,2.000000,2.000000,2.000000,1.000000,2.000000,4.000000,4.000000,4.000000,4.000000,2.000000,4.000000,25.000000,,,,,,,,,,,,,,,,,,,,,,,,,,,,
1732081562.074994,1732081562.076665,76.000000,0.000000,4362.692383,4373.077148,4327.307617,4338.461426,4328.333496,4336.666504,4336.794922,4331.153809,4320.128418,4301.922852,4463.461426,4492.820313,4357.563965,4417.436035,1733.000000,0.000000,13.000000,,,,0.000000,2.000000,2.000000,0.000000,2.000000,2.000000,2.000000,1.000000,2.000000,4.000000,4.000000,4.000000,4.000000,2.000000,4.000000,25.000000,,,,,,,,,,,,,,,,,19.000000,0.000000,0.623612,0.402283,-0.598206,0.302368,0.974240,0.144549,-0.041997,-75.069984,65.188934,27.690584
1732081562.082802,1732081562.084473,77.000000,0.000000,4363.205078,4368.974121,4325.769043,4336.282227,4318.846191,4337.307617,4336.538574,4333.205078,4326.794922,4310.384766,4463.717773,4495.000000,4363.333496,4416.025879,1676.000000,0.000000,13.000000,,,,0.000000,2.000000,2.000000,0.000000,2.000000,2.000000,2.000000,1.000000,2.000000,4.000000,4.000000,4.000000,4.000000,2.000000,4.000000,25.000000,,,,,,,,,,,,,,,,,,,,,,,,,,,,
1732081562.090610,1732081562.092481,78.000000,0.000000,4364.487305,4371.666504,4330.384766,4337.692383,4312.563965,4342.051270,4339.230957,4338.461426,4328.333496,4303.717773,4465.256348,4489.871582,4364.743652,4416.282227,1369.000000,0.000000,13.000000,,,,0.000000,2.000000,2.000000,0.000000,2.000000,2.000000,2.000000,1.000000,2.000000,4.000000,4.000000,4.000000,4.000000,2.000000,4.000000,25.000000,1.000000,25.000000,2.000000,2.000000,0.000000,2.000000,2.000000,2.000000,1.000000,2.000000,3.000000,3.000000,4.000000,4.000000,2.000000,4.000000,,,,,,,,,,,,
1732081562.098418,1732081562.100290,79.000000,0.000000,4360.384766,4373.333496,4331.794922,4339.871582,4320.128418,4346.538574,4338.333496,4344.358887,4330.512695,4301.922852,4468.717773,4491.025879,4361.410156,4412.436035,1496.000000,0.000000,13.000000,,,,0.000000,2.000000,2.000000,0.000000,2.000000,2.000000,2.000000,1.000000,2.000000,4.000000,4.000000,4.000000,4.000000,2.000000,4.000000,25.000000,,,,,,,,,,,,,,,,,,,,,,,,,,,,
1732081562.106227,1732081562.108198,80.000000,0.000000,4360.000000,4369.358887,4327.948730,4338.205078,4324.871582,4342.436035,4335.384766,4343.333496,4331.794922,4310.897461,4469.230957,4490.641113,4364.487305,4409.615234,1733.000000,0.000000,13.000000,,,,0.000000,2.000000,2.000000,0.000000,2.000000,2.000000,2.000000,1.000000,2.000000,4.000000,4.000000,4.000000,4.000000,2.000000,4.000000,25.000000,,,,,,,,,,,,,,,,,20.000000,0.000000,0.623181,0.401855,-0.598633,0.302979,0.972775,0.135270,-0.043462,-75.416687,65.083038,27.677706
1732081562.114035,1732081562.116006,81.000000,0.000000,4355.000000,4365.128418,4326.282227,4334.230957,4329.743652,4339.102539,4337.563965,4337.820313,4331.538574,4309.615234,4461.538574,4478.461426,4360.641113,4400.384766,1676.000000,0.000000,13.000000,,,,0.000000,2.000000,2.000000,0.000000,2.000000,2.000000,2.000000,1.000000,2.000000,4.000000,4.000000,4.000000,4.000000,2.000000,4.000000,25.000000,,,,,,,,,,,,,,,,,,,,,,,,,,,,
1732081562.121843,1732081562.124014,82.000000,0.000000,4348.846191,4371.538574,4328.461426,4335.512695,4327.692383,4341.538574,4341.922852,4338.974121,4330.384766,4308.333496,4462.436035,4474.871582,4359.487305,4395.897461,1369.000000,0.000000,13.000000,,,,0.000000,2.000000,2.000000,0.000000,2.000000,2.000000,2.000000,1.000000,2.000000,4.000000,4.000000,4.000000,4.000000,2.000000,4.000000,25.000000,,,,,,,,,,,,,,,,,,,,,,,,,,,,
1732081562.129651,1732081562.131822,83.000000,0.000000,4355.000000,4379.102539,4328.846191,4341.153809,4312.436035,4340.769043,4336.922852,4342.179688,4330.256348,4315.897461,4477.179688,4484.358887,4374.743652,4408.717773,1496.000000,0.000000,13.000000,,,,0.000000,2.000000,2.000000,0.000000,2.000000,2.000000,2.000000,1.000000,2.000000,4.000000,4.000000,4.000000,4.000000,2.000000,4.000000,25.000000,,,,,,,,,,,,,,,,,,,,,,,,,,,,
1732081562.137460,1732081562.139730,84.000000,0.000000,4355.897461,4374.230957,4330.384766,4341.153809,4309.615234,4336.538574,4334.615234,4338.077148,4329.102539,4311.922852,4473.461426,4483.205078,4376.794922,4410.384766,1733.000000,0.000000,13.000000,,,,0.000000,2.000000,2.000000,0.000000,2.000000,2.000000,2.000000,1.000000,2.000000,4.000000,4.000000,4.000000,4.000000,2.000000,4.000000,25.000000,,,,,,,,,,,,,,,,,21.000000,0.000000,0.623141,0.401917,-0.598572,0.303101,0.963497,0.148456,-0.038579,-75.464188,64.877258,27.358942
1732081562.145268,1732081562.147538,85.000000,0.000000,4343.205078,4367.307617,4330.000000,4335.641113,4324.871582,4338.846191,4338.333496,4336.794922,4326.922852,4304.487305,4458.846191,4476.794922,4361.025879,4397.436035,1676.000000,0.000000,13.000000,,,,0.000000,2.000000,2.000000,0.000000,2.000000,2.000000,2.000000,1.000000,2.000000,4.000000,4.000000,4.000000,4.000000,2.000000,4.000000,25.000000,,,,,,,,,,,,,,,,,,,,,,,,,,,,
1732081562.153076,1732081562.155147,86.000000,0.000000,4339.743652,4370.512695,4328.205078,4338.461426,4337.051270,4341.025879,4339.871582,4341.666504,4326.538574,4306.794922,4459.358887,4488.589844,4360.000000,4397.179688,1369.000000,0.000000,13.000000,,,,0.000000,2.000000,2.000000,0.000000,2.000000,2.000000,2.000000,1.000000,2.000000,4.000000,4.000000,4.000000,4.000000,2.000000,4.000000,25.000000,,,,,,,,,,,,,,,,,,,,,,,,,,,,
1732081562.160885,1732081562.162955,87.000000,0.000000,4344.615234,4373.589844,4324.102539,4341.025879,4334.102539,4337.820313,4338.205078,4342.179688,4327.948730,4308.333496,4462.051270,4508.974121,4370.512695,4405.641113,1496.000000,0.000000,13.000000,,,,0.000000,2.000000,2.000000,0.000000,2.000000,2.000000,2.000000,1.000000,2.000000,4.000000,4.000000,4.000000,4.000000,2.000000,4.000000,25.000000,,,,,,,,,,,,,,,,,,,,,,,,,,,,
1732081562.168693,1732081562.170863,88.000000,0.000000,4337.948730,4363.589844,4325.897461,4329.230957,4316.666504,4341.025879,4343.717773,4342.051270,4330.512695,4308.333496,4456.153809,4509.871582,4370.000000,4400.256348,1733.000000,0.000000,13.000000,,,,0.000000,2.000000,2.000000,0.000000,2.000000,2.000000,2.000000,1.000000,2.000000,4.000000,4.000000,4.000000,4.000000,2.000000,4.000000,25.000000,,,,,,,,,,,,,,,,,22.000000,0.000000,0.623042,0.402161,-0.598450,0.303223,0.965450,0.128434,-0.036626,-75.364319,64.683914,27.460743
1732081562.176501,1732081562.178671,89.000000,0.000000,4332.307617,4358.333496,4328.333496,4324.615234,4316.794922,4347.436035,4343.717773,4342.820313,4332.051270,4310.512695,4454.743652,4500.128418,4365.512695,4391.794922,1676.000000,0.000000,13.000000,,,,0.000000,2.000000,2.000000,0.000000,2.000000,2.000000,2.000000,1.000000,2.000000,4.000000,4.000000,4.000000,4.000000,2.000000,4.000000,25.000000,,,,,,,,,,,,,,,,,,,,,,,,,,,,
1732081562.184309,1732081562.186679,90.000000,0.000000,4335.000000,4360.256348,4327.436035,4327.307617,4336.922852,4342.436035,4337.307617,4342.307617,4333.333496,4315.641113,4460.384766,4503.333496,4370.769043,4395.769043,1369.000000,0.000000,13.000000,,,,0.000000,2.000000,2.000000,0.000000,2.000000,2.000000,2.000000,1.000000,2.000000,4.000000,4.000000,4.000000,4.000000,2.000000,4.000000,25.000000,,,,,,,,,,,,,,,,,,,,,,,,,,,,
1732081562.192117,1732081562.194487,91.000000,0.000000,4338.205078,4356.666504,4324.487305,4327.179688,4332.307617,4337.051270,4337.436035,4343.974121,4335.000000,4320.769043,4464.102539,4507.820313,4377.179688,4401.153809,1496.000000,0.000000,13.000000,,,,0.000000,2.000000,2.000000,0.000000,2.000000,2.000000,2.000000,1.000000,2.000000,4.000000,4.000000,4.000000,4.000000,2.000000,4.000000,25.000000,,,,,,,,,,,,,,,,,,,,,,,,,,,,
1732081562.199926,1732081562.202395,92.000000,0.000000,4336.538574,4355.897461,4329.230957,4328.461426,4313.717773,4342.051270,4343.461426,4343.717773,4333.846191,4318.077148,4464.230957,4502.179688,4373.846191,4397.820313,1733.000000,0.000000,13.000000,,,,0.000000,2.000000,2.000000,0.000000,2.000000,2.000000,2.000000,1.000000,2.000000,4.000000,4.000000,4.000000,4.000000,2.000000,4.000000,25.000000,,,,,,,,,,,,,,,,,23.000000,0.000000,0.623636,0.403015,-0.597656,0.302429,0.976193,0.137712,-0.053717,-75.383438,64.610634,27.626535
1732081562.207734,1732081562.210203,93.000000,0.000000,4335.641113,4360.384766,4331.282227,4329.615234,4326.282227,4343.333496,4343.205078,4344.358887,4330.512695,4312.692383,4462.307617,4500.384766,4370.641113,4396.538574,1676.000000,0.000000,13.000000,,,,0.000000,2.000000,2.000000,0.000000,2.000000,2.000000,2.000000,1.000000,2.000000,4.000000,4.000000,4.000000,4.000000,2.000000,4.000000,25.000000,,,,,,,,,,,,,,,,,,,,,,,,,,,,
1732081562.215542,1732081562.218211,94.000000,0.000000,4336.538574,4358.461426,4328.589844,4327.436035,4343.589844,4340.641113,4340.256348,4346.666504,4330.000000,4313.205078,4460.897461,4505.897461,4375.897461,4401.153809,1369.000000,0.000000,13.000000,,,,0.000000,2.000000,2.000000,0.000000,2.000000,2.000000,2.000000,1.000000,2.000000,4.000000,4.000000,4.000000,4.000000,2.000000,4.000000,25.000000,,,,,,,,,,,,,,,,,,,,,,,,,,,,
1732081562.223350,1732081562.226020,95.000000,0.000000,4334.615234,4355.256348,4330.000000,4327.179688,4332.948730,4342.179688,4340.897461,4344.358887,4335.128418,4318.589844,4463.974121,4503.077148,4381.025879,4400.384766,1496.000000,0.000000,13.000000,,,,0.000000,2.000000,2.000000,0.000000,2.000000,2.000000,2.000000,1.000000,2.000000,4.000000,4.000000,4.000000,4.000000,2.000000,4.000000,25.000000,,,,,,,,,,,,,,,,,,,,,,,,,,,,
1732081562.231159,1732081562.233928,96.000000,0.000000,4333.077148,4356.794922,4332.563965,4329.230957,4318.589844,4345.256348,4344.102539,4345.897461,4339.871582,4324.230957,4467.692383,4497.692383,4379.358887,4400.128418,1733.000000,0.000000,13.000000,,,,0.000000,2.000000,2.000000,0.000000,2.000000,2.000000,2.000000,1.000000,2.000000,4.000000,4.000000,4.000000,4.000000,2.000000,4.000000,25.000000,,,,,,,,,,,,,,,,,24.000000,0.000000,0.623752,0.403381,-0.597412,0.302185,0.976193,0.137712,-0.053717,-75.460579,64.557953,27.627493
1732081562.238967,1732081562.241736,97.000000,0.000000,4331.282227,4355.769043,4328.077148,4326.922852,4325.769043,4347.307617,4345.897461,4351.666504,4338.333496,4324.230957,4467.307617,4498.589844,4377.820313,4401.282227,1676.000000,0.000000,13.000000,,,,0.000000,2.000000,2.000000,0.000000,2.000000,2.000000,2.000000,1.000000,2.000000,4.000000,4.000000,4.000000,4.000000,2.000000,4.000000,25.000000,,,,,,,,,,,,,,,,,,,,,,,,,,,,
1732081562.246775,1732081562.249744,98.000000,0.000000,4329.487305,4355.000000,4323.461426,4325.769043,4342.820313,4346.153809,4342.563965,4350.897461,4336.153809,4322.948730,4464.230957,4500.000000,4377.820313,4398.333496,1369.000000,0.000000,13.000000,,,,0.000000,2.000000,2.000000,0.000000,2.000000,2.000000,2.000000,1.000000,2.000000,4.000000,4.000000,4.000000,4.000000,2.000000,4.000000,25.000000,,,,,,,,,,,,,,,,,,,,,,,,,,,,
1732081562.254583,1732081562.257552,99.000000,0.000000,4329.358887,4356.666504,4325.641113,4327.820313,4341.922852,4344.102539,4342.820313,4349.743652,4338.461426,4326.282227,4464.871582,4502.948730,4377.179688,4398.333496,1496.000000,0.000000,13.000000,,,,0.000000,2.000000,2.000000,0.000000,2.000000,2.000000,2.000000,1.000000,2.000000,4.000000,4.000000,4.000000,4.000000,2.000000,4.000000,25.000000,,,,,,,,,,,,,,,,,,,,,,,,,,,,
1732081562.262392,1732081562.265261,100.000000,0.000000,4329.871582,4354.743652,4325.641113,4327.051270,4326.410156,4345.769043,4345.128418,4353.717773,4340.897461,4329.487305,4469.230957,4501.282227,4377.692383,4400.256348,1733.000000,0.000000,13.000000,,,,0.000000,2.000000,2.000000,0.000000,2.000000,2.000000,2.000000,1.000000,2.000000,4.000000,4.000000,4.000000,4.000000,2.000000,4.000000,25.000000,,,,,,,,,,,,,,,,,25.000000,0.000000,0.623925,0.403748,-0.597107,0.301941,0.974240,0.135759,-0.033696,-75.514740,64.511940,27.491604
1732081562.270200,1732081562.273069,101.000000,0.000000,4326.538574,4352.563965,4322.436035,4327.307617,4324.615234,4349.230957,4345.384766,4352.692383,4338.077148,4325.128418,4467.563965,4491.153809,4374.615234,4395.000000,1676.000000,0.000000,13.000000,,,,0.000000,2.000000,2.000000,0.000000,2.000000,2.000000,2.000000,1.000000,2.000000,4.000000,4.000000,4.000000,4.000000,2.000000,4.000000,25.000000,,,,,,,,,,,,,,,,,,,,,,,,,,,,
1732081562.278008,1732081562.280677,102.000000,0.000000,4326.410156,4354.487305,4320.384766,4330.897461,4339.358887,4348.205078,4342.307617,4349.743652,4336.153809,4322.563965,4462.179688,4486.025879,4371.794922,4390.897461,1369.000000,0.000000,13.000000,,,,0.000000,2.000000,2.000000,0.000000,2.000000,2.000000,2.000000,1.000000,2.000000,4.000000,4.000000,4.000000,4.000000,2.000000,4.000000,25.000000,,,,,,,,,,,,,,,,,,,,,,,,,,,,
1732081562.285817,1732081562.288485,103.000000,0.000000,4328.077148,4355.256348,4323.717773,4331.410156,4342.948730,4346.794922,4346.666504,4350.512695,4338.333496,4324.487305,4460.897461,4490.256348,4373.974121,4393.077148,1496.000000,0.000000,13.000000,,,,0.000000,2.000000,2.000000,0.000000,2.000000,2.000000,2.000000,1.000000,2.000000,4.000000,4.000000,4.000000,4.000000,2.000000,4.000000,25.000000,,,,,,,,,,,,,,,,,,,,,,,,,,,,
1732081562.293625,1732081562.296194,104.000000,0.000000,4323.717773,4354.743652,4323.077148,4329.743652,4336.282227,4350.128418,4347.179688,4352.307617,4338.461426,4323.589844,4460.512695,4486.153809,4375.000000,4391.922852,1733.000000,0.000000,13.000000,,,,0.000000,2.000000,2.000000,0.000000,2.000000,2.000000,2.000000,1.000000,2.000000,4.000000,4.000000,4.000000,4.000000,2.000000,4.000000,25.000000,,,,,,,,,,,,,,,,,26.000000,0.000000,0.624136,0.405090,-0.596069,0.301758,0.975217,0.130387,-0.033207,-75.598602,64.556335,27.463198
1732081562.301433,1732081562.304002,105.000000,0.000000,4322.820313,4354.615234,4321.794922,4329.871582,4344.230957,4349.102539,4342.436035,4352.948730,4337.307617,4321.153809,4455.641113,4480.512695,4370.769043,4386.153809,1676.000000,0.000000,13.000000,,,,0.000000,2.000000,2.000000,0.000000,2.000000,2.000000,2.000000,1.000000,2.000000,4.000000,4.000000,4.000000,4.000000,2.000000,4.000000,25.000000,,,,,,,,,,,,,,,,,,,,,,,,,,,,
1732081562.309241,1732081562.311610,106.000000,0.000000,4326.282227,4354.743652,4321.282227,4327.692383,4348.589844,4347.051270,4341.410156,4351.025879,4339.743652,4322.692383,4453.205078,4485.641113,4367.051270,4381.282227,1369.000000,0.000000,13.000000,,,,0.000000,2.000000,2.000000,0.000000,2.000000,2.000000,2.000000,1.000000,2.000000,4.000000,4.000000,4.000000,4.000000,2.000000,4.000000,25.000000,,,,,,,,,,,,,,,,,,,,,,,,,,,,
1732081562.317049,1732081562.319418,107.000000,0.000000,4324.102539,4351.410156,4323.205078,4324.230957,4331.025879,4351.025879,4346.153809,4350.769043,4341.794922,4322.692383,4451.410156,4490.128418,4363.333496,4378.589844,1496.000000,0.000000,13.000000,,,,0.000000,2.000000,2.000000,0.000000,2.000000,2.000000,2.000000,1.000000,2.000000,4.000000,4.000000,4.000000,4.000000,2.000000,4.000000,25.000000,,,,,,,,,,,,,,,,,,,,,,,,,,,,
1732081562.324858,1732081562.327127,108.000000,0.000000,4319.615234,4346.794922,4322.051270,4325.384766,4323.077148,4353.589844,4344.615234,4354.230957,4340.384766,4320.256348,4450.000000,4490.000000,4359.358887,4379.615234,1733.000000,0.000000,13.000000,,,,0.000000,2.000000,2.000000,0.000000,2.000000,2.000000,2.000000,1.000000,2.000000,4.000000,4.000000,4.000000,4.000000,2.000000,4.000000,25.000000,,,,,,,,,,,,,,,,,27.000000,0.000000,0.624241,0.405334,-0.595947,0.301453,0.962031,0.152851,-0.043951,-75.701538,64.643967,27.686857
1732081562.332666,1732081562.334935,109.000000,0.000000,4316.794922,4344.487305,4321.666504,4321.282227,4338.846191,4345.512695,4340.256348,4356.410156,4339.230957,4320.641113,4455.384766,4488.205078,4359.358887,4379.871582,1676.000000,0.000000,13.000000,,,,0.000000,2.000000,2.000000,0.000000,2.000000,2.000000,2.000000,1.000000,2.000000,4.000000,4.000000,4.000000,4.000000,2.000000,4.000000,25.000000,,,,,,,,,,,,,,,,,,,,,,,,,,,,
1732081562.340474,1732081562.342543,110.000000,0.000000,4314.358887,4343.205078,4321.922852,4318.077148,4338.974121,4341.153809,4342.948730,4357.307617,4341.922852,4325.256348,4460.000000,4485.128418,4359.487305,4376.025879,1369.000000,0.000000,13.000000,,,,0.000000,2.000000,2.000000,0.000000,2.000000,2.000000,2.000000,1.000000,2.000000,4.000000,4.000000,4.000000,4.000000,2.000000,4.000000,25.000000,,,,,,,,,,,,,,,,,,,,,,,,,,,,
1732081562.348282,1732081562.350352,111.000000,0.000000,4313.333496,4345.641113,4321.922852,4327.820313,4324.487305,4352.051270,4347.307617,4357.948730,4343.974121,4326.282227,4460.641113,4483.333496,4357.948730,4375.512695,1496.000000,0.000000,13.000000,,,,0.000000,2.000000,2.000000,0.000000,2.000000,2.000000,2.000000,1.000000,2.000000,4.000000,4.000000,4.000000,4.000000,2.000000,4.000000,25.000000,,,,,,,,,,,,,,,,,,,,,,,,,,,,
1732081562.356091,1732081562.358060,112.000000,0.000000,4317.179688,4349.358887,4321.666504,4333.717773,4339.230957,4354.358887,4346.025879,4357.179688,4342.948730,4322.563965,4459.358887,4477.692383,4358.589844,4376.666504,1733.000000,0.000000,13.000000,,,,0.000000,2.000000,2.000000,0.000000,2.000000,2.000000,2.000000,1.000000,2.000000,4.000000,4.000000,4.000000,4.000000,2.000000,4.000000,25.000000,,,,,,,,,,,,,,,,,28.000000,0.000000,0.624359,0.405334,-0.595947,0.301208,0.962031,0.152851,-0.043951,-75.726578,64.806610,27.651354
1732081562.363899,1732081562.365868,113.000000,0.000000,4318.846191,4348.589844,4322.948730,4325.897461,4353.846191,4348.974121,4343.205078,4357.948730,4342.820313,4321.410156,4459.358887,4475.641113,4362.563965,4376.794922,1676.000000,0.000000,13.000000,,,,0.000000,2.000000,2.000000,0.000000,2.000000,2.000000,2.000000,1.000000,2.000000,4.000000,4.000000,4.000000,4.000000,2.000000,4.000000,25.000000,,,,,,,,,,,,,,,,,,,,,,,,,,,,
1732081562.371707,1732081562.373477,114.000000,0.000000,4316.538574,4349.102539,4324.358887,4322.051270,4336.282227,4350.000000,4345.641113,4359.230957,4343.717773,4324.871582,4460.128418,4485.769043,4366.666504,4380.769043,1369.000000,0.000000,13.000000,,,,0.000000,2.000000,2.000000,0.000000,2.000000,2.000000,2.000000,1.000000,2.000000,4.000000,4.000000,4.000000,4.000000,2.000000,4.000000,25.000000,,,,,,,,,,,,,,,,,,,,,,,,,,,,
1732081562.379516,1732081562.381285,115.000000,0.000000,4316.153809,4352.563965,4322.051270,4322.051270,4323.589844,4352.051270,4346.666504,4354.871582,4344.358887,4329.487305,4462.307617,4488.717773,4370.512695,4385.769043,1496.000000,0.000000,13.000000,,,,0.000000,2.000000,2.000000,0.000000,2.000000,2.000000,2.000000,1.000000,2.000000,4.000000,4.000000,4.000000,4.000000,2.000000,4.000000,25.000000,,,,,,,,,,,,,,,,,,,,,,,,,,,,
1732081562.387324,1732081562.388993,116.000000,0.000000,4317.948730,4350.769043,4322.948730,4321.025879,4333.205078,4351.153809,4347.051270,4354.358887,4345.384766,4329.230957,4462.948730,4484.102539,4369.358887,4385.769043,1733.000000,0.000000,13.000000,,,,0.000000,2.000000,2.000000,0.000000,2.000000,2.000000,2.000000,1.000000,2.000000,4.000000,4.000000,4.000000,4.000000,2.000000,4.000000,25.000000,,,,,,,,,,,,,,,,,29.000000,0.000000,0.624271,0.405334,-0.596008,0.301270,0.965938,0.139177,-0.024905,-75.745193,64.970024,27.770931
1732081562.395132,1732081562.396801,117.000000,0.000000,4316.666504,4348.717773,4324.615234,4322.563965,4348.846191,4351.025879,4346.153809,4361.282227,4346.282227,4327.820313,4461.153809,4489.871582,4364.358887,4382.436035,1676.000000,0.000000,13.000000,,,,0.000000,2.000000,2.000000,0.000000,2.000000,2.000000,2.000000,1.000000,2.000000,4.000000,4.000000,4.000000,4.000000,2.000000,4.000000,25.000000,,,,,,,,,,,,,,,,,,,,,,,,,,,,
1732081562.402940,1732081562.404410,118.000000,0.000000,4315.384766,4353.077148,4324.358887,4323.333496,4346.282227,4348.205078,4347.051270,4362.436035,4345.769043,4329.743652,4464.230957,4492.179688,4364.743652,4385.256348,1369.000000,0.000000,13.000000,,,,0.000000,2.000000,2.000000,0.000000,2.000000,2.000000,2.000000,1.000000,2.000000,4.000000,4.000000,4.000000,4.000000,2.000000,4.000000,25.000000,,,,,,,,,,,,,,,,,,,,,,,,,,,,
1732081562.410748,1732081562.412218,119.000000,0.000000,4318.205078,4357.307617,4322.179688,4323.717773,4330.769043,4345.512695,4344.487305,4356.153809,4344.615234,4330.512695,4467.436035,4479.615234,4370.256348,4389.615234,1496.000000,0.000000,13.000000,,,,0.000000,2.000000,2.000000,0.000000,2.000000,2.000000,2.000000,1.000000,2.000000,4.000000,4.000000,4.000000,4.000000,2.000000,4.000000,25.000000,,,,,,,,,,,,,,,,,,,,,,,,,,,,
1732081562.418557,1732081562.420126,120.000000,0.000000,4314.615234,4353.077148,4323.846191,4323.461426,4331.666504,4350.256348,4343.589844,4352.051270,4342.179688,4325.641113,4464.358887,4477.563965,4369.871582,4387.307617,1733.000000,0.000000,13.000000,,,,0.000000,2.000000,2.000000,0.000000,2.000000,2.000000,2.000000,1.000000,2.000000,4.000000,4.000000,4.000000,4.000000,2.000000,4.000000,25.000000,,,,,,,,,,,,,,,,,30.000000,0.000000,0.624082,0.404724,-0.596375,0.301758,0.978147,0.141131,-0.038091,-75.830276,65.002388,27.839453
1732081562.426365,1732081562.427934,121.000000,0.000000,4307.692383,4345.384766,4321.538574,4318.333496,4337.820313,4354.743652,4343.205078,4354.871582,4343.333496,4325.000000,4464.358887,4482.948730,4366.666504,4386.666504,1676.000000,0.000000,13.000000,,,,0.000000,2.000000,2.000000,0.000000,2.000000,2.000000,2.000000,1.000000,2.000000,4.000000,4.000000,4.000000,4.000000,2.000000,4.000000,25.000000,,,,,,,,,,,,,,,,,,,,,,,,,,,,
1732081562.434173,1732081562.435942,122.000000,0.000000,4308.589844,4345.897461,4323.461426,4316.666504,4327.307617,4352.692383,4345.256348,4356.538574,4344.358887,4326.794922,4465.512695,4477.436035,4364.871582,4386.025879,1369.000000,0.000000,13.000000,,,,0.000000,2.000000,2.000000,0.000000,2.000000,2.000000,2.000000,1.000000,2.000000,4.000000,4.000000,4.000000,4.000000,2.000000,4.000000,25.000000,,,,,,,,,,,,,,,,,,,,,,,,,,,,
1732081562.441981,1732081562.443750,123.000000,0.000000,4311.153809,4352.436035,4326.153809,4323.717773,4320.384766,4354.358887,4346.025879,4353.717773,4342.179688,4322.179688,4458.205078,4471.538574,4359.871582,4379.871582,1496.000000,0.000000,13.000000,,,,0.000000,2.000000,2.000000,0.000000,2.000000,2.000000,2.000000,1.000000,2.000000,4.000000,4.000000,4.000000,4.000000,2.000000,4.000000,25.000000,,,,,,,,,,,,,,,,,,,,,,,,,,,,
1732081562.449790,1732081562.451459,124.000000,0.000000,4310.256348,4351.153809,4325.000000,4324.743652,4335.384766,4357.563965,4345.512695,4352.307617,4343.974121,4320.897461,4455.512695,4478.589844,4357.820313,4379.358887,1733.000000,0.000000,13.000000,,,,0.000000,2.000000,2.000000,0.000000,2.000000,2.000000,2.000000,1.000000,2.000000,4.000000,4.000000,4.000000,4.000000,2.000000,4.000000,25.000000,,,,,,,,,,,,,,,,,31.000000,0.000000,0.623810,0.404419,-0.596619,0.302246,0.980100,0.126969,-0.037114,-75.749191,65.021935,27.804958
1732081562.457598,1732081562.459267,125.000000,0.000000,4310.256348,4346.153809,4321.282227,4322.307617,4346.410156,4353.333496,4344.871582,4352.436035,4344.487305,4324.102539,4460.897461,4484.230957,4360.256348,4383.717773,1676.000000,0.000000,13.000000,,,,0.000000,2.000000,2.000000,0.000000,2.000000,2.000000,2.000000,1.000000,2.000000,4.000000,4.000000,4.000000,4.000000,2.000000,4.000000,25.000000,,,,,,,,,,,,,,,,,,,,,,,,,,,,
1732081562.465406,1732081562.466875,126.000000,0.000000,4306.794922,4347.307617,4321.282227,4325.384766,4339.743652,4347.307617,4344.358887,4350.897461,4338.205078,4320.128418,4455.000000,4478.717773,4355.897461,4378.717773,1369.000000,0.000000,13.000000,,,,0.000000,2.000000,2.000000,0.000000,2.000000,2.000000,2.000000,1.000000,2.000000,4.000000,4.000000,4.000000,4.000000,2.000000,4.000000,25.000000,,,,,,,,,,,,,,,,,,,,,,,,,,,,
1732081562.473215,1732081562.474684,127.000000,0.000000,4301.794922,4348.077148,4321.538574,4327.179688,4325.641113,4348.974121,4344.230957,4349.743652,4335.128418,4317.436035,4446.282227,4477.820313,4351.025879,4374.358887,13.000000,0.000000,13.000000,,,,0.000000,2.000000,2.000000,0.000000,2.000000,2.000000,2.000000,1.000000,2.000000,4.000000,4.000000,4.000000,4.000000,2.000000,4.000000,25.000000,,,,,,,,,,,,,,,,,,,,,,,,,,,,
1732081562.481023,1732081562.482392,0.000000,0.000000,4305.897461,4347.948730,4322.948730,4326.153809,4326.282227,4350.769043,4343.461426,4351.794922,4339.230957,4321.922852,4454.615234,4480.256348,4357.436035,4380.128418,0.000000,0.000000,13.000000,,,,0.000000,2.000000,2.000000,0.000000,2.000000,2.000000,2.000000,1.000000,2.000000,4.000000,4.000000,4.000000,4.000000,2.000000,4.000000,25.000000,,,,,,,,,,,,,,,,,0.000000,0.000000,0.623810,0.404419,-0.596619,0.302246,0.980100,0.126969,-0.037114,-75.788513,65.097763,27.762016
1732081562.488831,1732081562.490200,1.000000,0.000000,4310.769043,4353.077148,4326.153809,4325.128418,4342.948730,4346.794922,4342.948730,4351.153809,4341.666504,4325.256348,4462.307617,4476.153809,4365.641113,4385.641113,1284.000000,0.000000,13.000000,,,,0.000000,2.000000,2.000000,0.000000,2.000000,2.000000,2.000000,1.000000,2.000000,4.000000,4.000000,4.000000,4.000000,2.000000,4.000000,25.000000,,,,,,,,,,,,,,,,,,,,,,,,,,,,
1732081562.496639,1732081562.497809,2.000000,0.000000,4307.820313,4355.897461,4324.871582,4328.077148,4339.358887,4346.666504,4340.897461,4350.128418,4339.615234,4325.769043,4460.256348,4473.846191,4365.897461,4386.410156,1215.000000,0.000000,13.000000,,,,0.000000,2.000000,2.000000,0.000000,2.000000,2.000000,2.000000,1.000000,2.000000,4.000000,4.000000,4.000000,4.000000,2.000000,4.000000,25.000000,,,,,,,,,,,,,,,,,,,,,,,,,,,,
1732081562.504447,1732081562.505617,3.000000,0.000000,4306.922852,4356.666504,4326.025879,4330.769043,4323.077148,4352.179688,4342.051270,4351.922852,4338.205078,4323.974121,4458.846191,4485.384766,4363.589844,4388.589844,1160.000000,0.000000,13.000000,,,,0.000000,2.000000,2.000000,0.000000,2.000000,2.000000,2.000000,1.000000,2.000000,4.000000,4.000000,4.000000,4.000000,2.000000,4.000000,25.000000,,,,,,,,,,,,,,,,,,,,,,,,,,,,
1732081562.512256,1732081562.513525,4.000000,0.000000,4309.871582,4358.846191,4328.077148,4329.358887,4326.282227,4353.846191,4343.589844,4353.077148,4340.000000,4324.487305,4460.256348,4497.179688,4363.333496,4393.461426,1177.000000,0.000000,13.000000,,,,0.000000,2.000000,2.000000,0.000000,2.000000,2.000000,2.000000,1.000000,2.000000,4.000000,4.000000,4.000000,4.000000,2.000000,4.000000,25.000000,,,,,,,,,,,,,,,,,1.000000,0.000000,0.623184,0.404114,-0.597046,0.303101,0.963497,0.143572,-0.044927,-75.802025,65.090858,27.737232
1732081562.520064,1732081562.521333,5.000000,0.000000,4309.358887,4358.205078,4328.717773,4327.948730,4348.205078,4348.717773,4344.487305,4351.410156,4337.307617,4324.871582,4460.641113,4489.102539,4367.436035,4391.410156,1058.000000,0.000000,13.000000,,,,0.000000,2.000000,2.000000,0.000000,2.000000,2.000000,2.000000,1.000000,2.000000,4.000000,4.000000,4.000000,4.000000,2.000000,4.000000,25.000000,,,,,,,,,,,,,,,,,,,,,,,,,,,,
1732081562.527872,1732081562.529341,6.000000,0.000000,4308.846191,4359.230957,4327.051270,4332.948730,4350.256348,4346.794922,4340.897461,4349.487305,4333.589844,4323.717773,4460.000000,4476.794922,4370.512695,4389.230957,213.000000,0.000000,13.000000,,,,0.000000,2.000000,2.000000,0.000000,2.000000,2.000000,2.000000,1.000000,2.000000,4.000000,4.000000,4.000000,4.000000,2.000000,4.000000,25.000000,,,,,,,,,,,,,,,,,,,,,,,,,,,,
1732081562.535680,1732081562.537149,7.000000,0.000000,4312.948730,4364.230957,4329.871582,4336.666504,4333.717773,4350.384766,4339.487305,4351.282227,4341.282227,4324.358887,4460.641113,4480.000000,4370.641113,4396.282227,1190.000000,0.000000,13.000000,,,,0.000000,2.000000,2.000000,0.000000,2.000000,2.000000,2.000000,1.000000,2.000000,4.000000,4.000000,4.000000,4.000000,2.000000,4.000000,25.000000,,,,,,,,,,,,,,,,,,,,,,,,,,,,
1732081562.543489,1732081562.545057,8.000000,0.000000,4317.307617,4367.820313,4328.974121,4334.871582,4336.922852,4350.641113,4338.846191,4352.307617,4347.436035,4327.563965,4464.871582,4488.589844,4373.333496,4400.256348,1332.000000,0.000000,13.000000,,,,0.000000,2.000000,2.000000,0.000000,2.000000,2.000000,2.000000,1.000000,2.000000,4.000000,4.000000,4.000000,4.000000,2.000000,4.000000,25.000000,,,,,,,,,,,,,,,,,2.000000,0.000000,0.623045,0.404236,-0.597046,0.303223,0.965450,0.133317,-0.044439,-75.739639,64.816925,27.778826
1732081562.551297,1732081562.552866,9.000000,0.000000,4316.025879,4369.615234,4326.794922,4336.794922,4345.000000,4345.000000,4341.410156,4350.641113,4340.512695,4330.000000,4466.538574,4487.692383,4377.179688,4397.307617,1469.000000,0.000000,13.000000,,,,0.000000,2.000000,2.000000,0.000000,2.000000,2.000000,2.000000,1.000000,2.000000,4.000000,4.000000,4.000000,4.000000,2.000000,4.000000,25.000000,,,,,,,,,,,,,,,,,,,,,,,,,,,,
1732081562.559105,1732081562.560874,10.000000,0.000000,4315.000000,4371.538574,4325.897461,4340.641113,4336.666504,4342.307617,4342.051270,4352.436035,4338.846191,4330.256348,4464.871582,4482.179688,4375.384766,4397.563965,1369.000000,0.000000,13.000000,,,,0.000000,2.000000,2.000000,0.000000,2.000000,2.000000,2.000000,1.000000,2.000000,4.000000,4.000000,4.000000,4.000000,2.000000,4.000000,25.000000,,,,,,,,,,,,,,,,,,,,,,,,,,,,
1732081562.566913,1732081562.568682,11.000000,0.000000,4315.000000,4368.205078,4327.307617,4336.410156,4328.589844,4347.307617,4341.282227,4354.358887,4345.128418,4326.538574,4464.358887,4483.846191,4368.589844,4393.205078,1496.000000,0.000000,13.000000,,,,0.000000,2.000000,2.000000,0.000000,2.000000,2.000000,2.000000,1.000000,2.000000,4.000000,4.000000,4.000000,4.000000,2.000000,4.000000,25.000000,,,,,,,,,,,,,,,,,,,,,,,,,,,,
1732081562.574722,1732081562.576590,12.000000,0.000000,4311.153809,4365.000000,4326.410156,4331.410156,4333.077148,4353.077148,4340.512695,4352.179688,4341.153809,4320.769043,4462.820313,4485.128418,4363.974121,4385.000000,1725.000000,0.000000,13.000000,,,,0.000000,2.000000,2.000000,0.000000,2.000000,2.000000,2.000000,1.000000,2.000000,4.000000,4.000000,4.000000,4.000000,2.000000,4.000000,25.000000,,,,,,,,,,,,,,,,,3.000000,0.000000,0.623045,0.404236,-0.597046,0.303223,0.968380,0.134782,-0.028324,-75.599106,64.535042,27.947515
1732081562.582530,1732081562.584398,13.000000,0.000000,4304.615234,4365.384766,4326.410156,4332.692383,4342.563965,4349.358887,4338.589844,4349.102539,4329.743652,4316.538574,4456.794922,4478.846191,4360.512695,4386.025879,1673.000000,0.000000,13.000000,,,,0.000000,2.000000,2.000000,0.000000,2.000000,2.000000,2.000000,1.000000,2.000000,4.000000,4.000000,4.000000,4.000000,2.000000,4.000000,25.000000,,,,,,,,,,,,,,,,,,,,,,,,,,,,
1732081562.590338,1732081562.592406,14.000000,0.000000,4300.384766,4362.179688,4326.538574,4330.897461,4344.615234,4343.077148,4338.333496,4350.000000,4332.436035,4314.102539,4454.230957,4472.436035,4359.615234,4387.051270,1369.000000,0.000000,13.000000,,,,0.000000,2.000000,2.000000,0.000000,2.000000,2.000000,2.000000,1.000000,2.000000,4.000000,4.000000,4.000000,4.000000,2.000000,4.000000,25.000000,1.000000,16.666666,2.000000,2.000000,0.000000,2.000000,2.000000,1.000000,1.000000,2.000000,4.000000,3.000000,4.000000,4.000000,2.000000,4.000000,,,,,,,,,,,,
1732081562.598147,1732081562.600214,15.000000,0.000000,4302.179688,4362.051270,4327.051270,4325.641113,4332.436035,4349.102539,4341.153809,4354.102539,4343.205078,4315.769043,4458.717773,4475.384766,4360.897461,4384.871582,1496.000000,0.000000,13.000000,,,,0.000000,2.000000,2.000000,0.000000,2.000000,2.000000,2.000000,1.000000,2.000000,4.000000,4.000000,4.000000,4.000000,2.000000,4.000000,25.000000,,,,,,,,,,,,,,,,,,,,,,,,,,,,
1732081562.605955,1732081562.608122,16.000000,0.000000,4308.333496,4366.922852,4327.179688,4327.563965,4326.025879,4355.128418,4342.820313,4355.000000,4342.436035,4323.461426,4461.153809,4481.538574,4361.025879,4389.743652,0.000000,0.000000,13.000000,,,,0.000000,2.000000,2.000000,0.000000,2.000000,2.000000,2.000000,1.000000,2.000000,4.000000,4.000000,4.000000,4.000000,2.000000,4.000000,25.000000,,,,,,,,,,,,,,,,,4.000000,0.000000,0.622713,0.404968,-0.596741,0.303528,0.984495,0.136735,-0.042486,-75.665276,64.776718,27.709154
1732081562.613763,1732081562.615931,17.000000,0.000000,4313.333496,4370.128418,4326.410156,4331.282227,4334.102539,4348.077148,4339.615234,4350.512695,4336.282227,4325.641113,4460.128418,4483.333496,4364.615234,4395.384766,0.000000,0.000000,13.000000,,,,0.000000,2.000000,2.000000,0.000000,2.000000,2.000000,2.000000,1.000000,2.000000,4.000000,4.000000,4.000000,4.000000,2.000000,4.000000,25.000000,,,,,,,,,,,,,,,,,,,,,,,,,,,,
1732081562.621571,1732081562.623939,18.000000,0.000000,4312.051270,4374.102539,4327.436035,4332.563965,4340.256348,4342.563965,4337.307617,4350.000000,4336.538574,4321.410156,4459.358887,4484.102539,4366.538574,4392.307617,0.000000,0.000000,13.000000,,,,0.000000,2.000000,2.000000,0.000000,2.000000,2.000000,2.000000,1.000000,2.000000,4.000000,4.000000,4.000000,4.000000,2.000000,4.000000,25.000000,,,,,,,,,,,,,,,,,,,,,,,,,,,,
1732081562.629379,1732081562.631747,19.000000,0.000000,4309.487305,4376.153809,4327.563965,4333.461426,4345.384766,4346.922852,4337.436035,4354.102539,4340.000000,4322.563965,4460.128418,4485.384766,4365.512695,4385.256348,0.000000,0.000000,13.000000,,,,0.000000,2.000000,2.000000,0.000000,2.000000,2.000000,2.000000,1.000000,2.000000,4.000000,4.000000,4.000000,4.000000,2.000000,4.000000,25.000000,,,,,,,,,,,,,,,,,,,,,,,,,,,,
1732081562.637188,1732081562.639655,20.000000,0.000000,4311.410156,4374.487305,4328.461426,4334.358887,4336.538574,4352.948730,4342.820313,4356.153809,4341.282227,4330.769043,4462.051270,4487.307617,4366.538574,4385.384766,0.000000,0.000000,13.000000,,,,0.000000,2.000000,2.000000,0.000000,2.000000,2.000000,2.000000,1.000000,2.000000,4.000000,4.000000,4.000000,4.000000,2.000000,4.000000,25.000000,,,,,,,,,,,,,,,,,5.000000,0.000000,0.622458,0.405579,-0.596313,0.304077,0.967892,0.125504,-0.036137,-75.807205,64.815811,27.589415
1732081562.644996,1732081562.647463,21.000000,0.000000,4312.051270,4376.025879,4329.102539,4336.153809,4326.538574,4353.461426,4343.077148,4357.436035,4343.717773,4334.743652,4460.641113,4482.436035,4367.436035,4391.153809,0.000000,0.000000,13.000000,,,,0.000000,2.000000,2.000000,0.000000,2.000000,2.000000,2.000000,1.000000,2.000000,4.000000,4.000000,4.000000,4.000000,2.000000,4.000000,25.000000,,,,,,,,,,,,,,,,,,,,,,,,,,,,
1732081562.652804,1732081562.655471,22.000000,0.000000,4306.794922,4375.256348,4328.974121,4332.820313,4340.256348,4352.436035,4338.461426,4358.846191,4345.256348,4329.358887,4459.743652,4468.846191,4364.615234,4388.589844,0.000000,0.000000,13.000000,,,,0.000000,2.000000,2.000000,0.000000,2.000000,2.000000,2.000000,1.000000,2.000000,4.000000,4.000000,4.000000,4.000000,2.000000,4.000000,25.000000,,,,,,,,,,,,,,,,,,,,,,,,,,,,
1732081562.660612,1732081562.663279,23.000000,0.000000,4303.974121,4372.307617,4326.666504,4329.102539,4346.153809,4352.307617,4337.563965,4357.436035,4344.615234,4326.922852,4465.769043,4463.077148,4363.205078,4386.794922,0.000000,0.000000,13.000000,,,,0.000000,2.000000,2.000000,0.000000,2.000000,2.000000,2.000000,1.000000,2.000000,4.000000,4.000000,4.000000,4.000000,2.000000,4.000000,25.000000,,,,,,,,,,,,,,,,,,,,,,,,,,,,
1732081562.668421,1732081562.671187,24.000000,0.000000,4307.948730,4376.025879,4329.230957,4334.487305,4328.461426,4353.077148,4344.487305,4356.794922,4342.179688,4329.102539,4467.948730,4468.461426,4364.743652,4394.743652,0.000000,0.000000,13.000000,,,,0.000000,2.000000,2.000000,0.000000,2.000000,2.000000,2.000000,1.000000,2.000000,4.000000,4.000000,4.000000,4.000000,2.000000,4.000000,25.000000,,,,,,,,,,,,,,,,,6.000000,0.000000,0.622387,0.405640,-0.596252,0.304260,0.974240,0.132829,-0.050787,-75.657173,64.887474,27.377426
1732081562.676229,1732081562.678996,25.000000,0.000000,4312.051270,4381.025879,4330.384766,4338.717773,4327.051270,4354.230957,4343.717773,4358.077148,4343.974121,4332.436035,4464.615234,4467.948730,4364.871582,4398.333496,0.000000,0.000000,13.000000,,,,0.000000,2.000000,2.000000,0.000000,2.000000,2.000000,2.000000,1.000000,2.000000,4.000000,4.000000,4.000000,4.000000,2.000000,4.000000,25.000000,,,,,,,,,,,,,,,,,,,,,,,,,,,,
1732081562.684037,1732081562.686604,26.000000,0.000000,4311.025879,4375.897461,4328.846191,4334.487305,4344.615234,4352.436035,4338.717773,4358.333496,4348.333496,4333.333496,4462.948730,4466.922852,4362.179688,4390.769043,0.000000,0.000000,13.000000,,,,0.000000,2.000000,2.000000,0.000000,2.000000,2.000000,2.000000,1.000000,2.000000,4.000000,4.000000,4.000000,4.000000,2.000000,4.000000,25.000000,,,,,,,,,,,,,,,,,,,,,,,,,,,,
1732081562.691846,1732081562.694412,27.000000,0.000000,4309.358887,4373.077148,4326.538574,4334.358887,4345.769043,4349.102539,4337.948730,4357.948730,4346.666504,4329.102539,4462.051270,4475.641113,4360.897461,4389.487305,0.000000,0.000000,13.000000,,,,0.000000,2.000000,2.000000,0.000000,2.000000,2.000000,2.000000,1.000000,2.000000,4.000000,4.000000,4.000000,4.000000,2.000000,4.000000,25.000000,,,,,,,,,,,,,,,,,,,,,,,,,,,,
1732081562.699654,1732081562.702121,28.000000,0.000000,4307.820313,4375.769043,4327.820313,4337.948730,4331.666504,4348.974121,4341.794922,4358.205078,4344.102539,4326.410156,4459.743652,4477.436035,4361.666504,4393.205078,0.000000,0.000000,13.000000,,,,0.000000,2.000000,2.000000,0.000000,2.000000,2.000000,2.000000,1.000000,2.000000,4.000000,4.000000,4.000000,4.000000,2.000000,4.000000,25.000000,,,,,,,,,,,,,,,,,7.000000,0.000000,0.622387,0.405640,-0.596252,0.304260,0.974240,0.132829,-0.050787,-75.430641,64.885521,27.295715
1732081562.707462,1732081562.709929,29.000000,0.000000,4307.307617,4375.000000,4325.384766,4336.282227,4326.025879,4350.256348,4343.077148,4360.769043,4345.641113,4328.717773,4460.000000,4472.436035,4361.922852,4391.282227,0.000000,0.000000,13.000000,,,,0.000000,2.000000,2.000000,0.000000,2.000000,2.000000,2.000000,1.000000,2.000000,4.000000,4.000000,4.000000,4.000000,2.000000,4.000000,25.000000,,,,,,,,,,,,,,,,,,,,,,,,,,,,
1732081562.715270,1732081562.717537,30.000000,0.000000,4306.538574,4371.794922,4323.974121,4332.563965,4331.666504,4350.000000,4340.128418,4362.051270,4346.410156,4328.846191,4460.000000,4474.487305,4358.974121,4388.205078,0.000000,0.000000,13.000000,,,,0.000000,2.000000,2.000000,0.000000,2.000000,2.000000,2.000000,1.000000,2.000000,4.000000,4.000000,4.000000,4.000000,2.000000,4.000000,25.000000,,,,,,,,,,,,,,,,,,,,,,,,,,,,
1732081562.723078,1732081562.725345,31.000000,0.000000,4305.897461,4373.461426,4323.461426,4331.410156,4331.794922,4350.769043,4337.692383,4358.589844,4345.384766,4327.820313,4459.487305,4480.128418,4360.000000,4386.025879,0.000000,0.000000,13.000000,,,,0.000000,2.000000,2.000000,0.000000,2.000000,2.000000,2.000000,1.000000,2.000000,4.000000,4.000000,4.000000,4.000000,2.000000,4.000000,25.000000,,,,,,,,,,,,,,,,,,,,,,,,,,,,
1732081562.730887,1732081562.733054,32.000000,0.000000,4303.974121,4376.538574,4323.589844,4332.307617,4336.538574,4352.436035,4338.589844,4357.051270,4345.641113,4329.230957,4460.769043,4477.051270,4363.205078,4385.384766,0.000000,0.000000,13.000000,,,,0.000000,2.000000,2.000000,0.000000,2.000000,2.000000,2.000000,1.000000,2.000000,4.000000,4.000000,4.000000,4.000000,2.000000,4.000000,25.000000,,,,,,,,,,,,,,,,,8.000000,0.000000,0.622410,0.405334,-0.596436,0.304260,0.975705,0.138200,-0.041509,-75.575485,64.833939,27.357862
1732081562.738695,1732081562.740862,33.000000,0.000000,4301.410156,4371.922852,4324.358887,4332.307617,4348.589844,4350.000000,4342.820313,4357.948730,4345.769043,4328.333496,4458.589844,4476.666504,4359.743652,4385.128418,0.000000,0.000000,13.000000,,,,0.000000,2.000000,2.000000,0.000000,2.000000,2.000000,2.000000,1.000000,2.000000,4.000000,4.000000,4.000000,4.000000,2.000000,4.000000,25.000000,,,,,,,,,,,,,,,,,,,,,,,,,,,,
1732081562.746503,1732081562.748470,34.000000,0.000000,4301.153809,4367.692383,4323.077148,4332.563965,4338.333496,4348.461426,4340.897461,4356.666504,4345.128418,4328.077148,4456.410156,4480.256348,4355.128418,4386.025879,0.000000,0.000000,13.000000,,,,0.000000,2.000000,2.000000,0.000000,2.000000,2.000000,2.000000,1.000000,2.000000,4.000000,4.000000,4.000000,4.000000,2.000000,4.000000,25.000000,,,,,,,,,,,,,,,,,,,,,,,,,,,,
1732081562.754311,1732081562.756279,35.000000,0.000000,4301.410156,4371.922852,4326.282227,4335.128418,4325.641113,4351.025879,4339.871582,4359.102539,4344.487305,4326.410156,4455.512695,4473.974121,4354.487305,4384.487305,0.000000,0.000000,13.000000,,,,0.000000,2.000000,2.000000,0.000000,2.000000,2.000000,2.000000,1.000000,2.000000,4.000000,4.000000,4.000000,4.000000,2.000000,4.000000,25.000000,,,,,,,,,,,,,,,,,,,,,,,,,,,,
1732081562.762120,1732081562.763987,36.000000,0.000000,4302.051270,4374.487305,4327.692383,4336.794922,4332.563965,4353.589844,4341.922852,4364.102539,4343.717773,4323.974121,4449.743652,4464.743652,4354.615234,4381.410156,0.000000,0.000000,13.000000,,,,0.000000,2.000000,2.000000,0.000000,2.000000,2.000000,2.000000,1.000000,2.000000,4.000000,4.000000,4.000000,4.000000,2.000000,4.000000,25.000000,,,,,,,,,,,,,,,,,9.000000,0.000000,0.622355,0.404968,-0.596680,0.304382,0.978147,0.125504,-0.033207,-75.682808,64.747154,27.359869
1732081562.769928,1732081562.771795,37.000000,0.000000,4304.743652,4373.717773,4328.333496,4335.769043,4341.538574,4354.230957,4343.077148,4361.666504,4344.102539,4326.025879,4448.589844,4467.051270,4355.384766,4383.717773,0.000000,0.000000,13.000000,,,,0.000000,2.000000,2.000000,0.000000,2.000000,2.000000,2.000000,1.000000,2.000000,4.000000,4.000000,4.000000,4.000000,2.000000,4.000000,25.000000,,,,,,,,,,,,,,,,,,,,,,,,,,,,
1732081562.777736,1732081562.779403,38.000000,0.000000,4308.846191,4374.487305,4326.025879,4336.922852,4343.077148,4348.589844,4336.922852,4358.077148,4345.256348,4329.102539,4453.333496,4475.897461,4354.615234,4386.025879,0.000000,0.000000,13.000000,,,,0.000000,2.000000,2.000000,0.000000,2.000000,2.000000,2.000000,1.000000,2.000000,4.000000,4.000000,4.000000,4.000000,2.000000,4.000000,25.000000,,,,,,,,,,,,,,,,,,,,,,,,,,,,
1732081562.785545,1732081562.787212,39.000000,0.000000,4311.538574,4375.256348,4326.922852,4338.333496,4333.077148,4342.948730,4334.358887,4359.358887,4343.717773,4326.794922,4451.922852,4481.282227,4352.436035,4385.897461,0.000000,0.000000,13.000000,,,,0.000000,2.000000,2.000000,0.000000,2.000000,2.000000,2.000000,1.000000,2.000000,4.000000,4.000000,4.000000,4.000000,2.000000,4.000000,25.000000,,,,,,,,,,,,,,,,,,,,,,,,,,,,
1732081562.793353,1732081562.794920,40.000000,0.000000,4315.256348,4375.641113,4328.717773,4338.461426,4324.743652,4347.307617,4337.051270,4357.179688,4343.077148,4326.794922,4449.743652,4483.077148,4354.230957,4389.358887,0.000000,0.000000,13.000000,,,,0.000000,2.000000,2.000000,0.000000,2.000000,2.000000,2.000000,1.000000,2.000000,4.000000,4.000000,4.000000,4.000000,2.000000,4.000000,25.000000,,,,,,,,,,,,,,,,,10.000000,0.000000,0.622267,0.404785,-0.596802,0.304565,0.978147,0.125504,-0.033207,-75.754745,64.571861,27.256493
1732081562.801161,1732081562.802728,41.000000,0.000000,4320.384766,4372.307617,4331.153809,4338.205078,4326.025879,4351.282227,4341.666504,4357.692383,4344.871582,4331.410156,4454.102539,4485.000000,4356.282227,4393.333496,0.000000,0.000000,13.000000,,,,0.000000,2.000000,2.000000,0.000000,2.000000,2.000000,2.000000,1.000000,2.000000,4.000000,4.000000,4.000000,4.000000,2.000000,4.000000,25.000000,,,,,,,,,,,,,,,,,,,,,,,,,,,,
1732081562.808969,1732081562.810337,42.000000,0.000000,4323.333496,4370.512695,4329.102539,4338.461426,4334.230957,4345.256348,4339.743652,4362.179688,4345.897461,4331.794922,4457.692383,4481.794922,4356.282227,4393.717773,0.000000,0.000000,13.000000,,,,0.000000,2.000000,2.000000,0.000000,2.000000,2.000000,2.000000,1.000000,2.000000,4.000000,4.000000,4.000000,4.000000,2.000000,4.000000,25.000000,,,,,,,,,,,,,,,,,,,,,,,,,,,,
1732081562.816777,1732081562.818145,43.000000,0.000000,4324.358887,4372.820313,4326.282227,4335.769043,4341.282227,4340.512695,4334.358887,4359.743652,4345.256348,4329.358887,4458.461426,4478.717773,4359.487305,4395.641113,0.000000,0.000000,13.000000,,,,0.000000,2.000000,2.000000,0.000000,2.000000,2.000000,2.000000,1.000000,2.000000,4.000000,4.000000,4.000000,4.000000,2.000000,4.000000,25.000000,,,,,,,,,,,,,,,,,,,,,,,,,,,,
1732081562.824586,1732081562.825853,44.000000,0.000000,4322.179688,4370.000000,4326.025879,4329.358887,4335.769043,4345.897461,4337.436035,4357.948730,4345.256348,4328.846191,4459.230957,4480.512695,4360.897461,4392.948730,0.000000,0.000000,13.000000,,,,0.000000,2.000000,2.000000,0.000000,2.000000,2.000000,2.000000,1.000000,2.000000,4.000000,4.000000,4.000000,4.000000,2.000000,4.000000,25.000000,,,,,,,,,,,,,,,,,11.000000,0.000000,0.621817,0.404297,-0.597290,0.305176,0.986937,0.136247,-0.047369,-75.516342,64.626541,27.182760
1732081562.832394,1732081562.833661,45.000000,0.000000,4317.692383,4364.487305,4326.922852,4328.205078,4321.538574,4350.384766,4344.102539,4366.538574,4346.922852,4328.846191,4460.256348,4483.077148,4355.256348,4384.487305,0.000000,0.000000,13.000000,,,,0.000000,2.000000,2.000000,0.000000,2.000000,2.000000,2.000000,1.000000,2.000000,4.000000,4.000000,4.000000,4.000000,2.000000,4.000000,25.000000,,,,,,,,,,,,,,,,,,,,,,,,,,,,
1732081562.840202,1732081562.841669,46.000000,0.000000,4319.230957,4368.846191,4326.666504,4333.974121,4329.871582,4347.948730,4339.743652,4368.846191,4347.820313,4327.563965,4458.846191,4478.333496,4352.307617,4386.025879,0.000000,0.000000,13.000000,,,,0.000000,2.000000,2.000000,0.000000,2.000000,2.000000,2.000000,1.000000,2.000000,4.000000,4.000000,4.000000,4.000000,2.000000,4.000000,25.000000,,,,,,,,,,,,,,,,,,,,,,,,,,,,
1732081562.848010,1732081562.849478,47.000000,0.000000,4326.282227,4374.743652,4327.051270,4335.128418,4345.128418,4344.487305,4332.563965,4360.384766,4347.820313,4325.769043,4457.436035,4478.974121,4353.461426,4388.589844,0.000000,0.000000,13.000000,,,,0.000000,2.000000,2.000000,0.000000,2.000000,2.000000,2.000000,1.000000,2.000000,4.000000,4.000000,4.000000,4.000000,2.000000,4.000000,25.000000,,,,,,,,,,,,,,,,,,,,,,,,,,,,
1732081562.855819,1732081562.857186,48.000000,0.000000,4329.358887,4373.846191,4327.307617,4335.128418,4327.820313,4345.897461,4336.410156,4357.307617,4345.897461,4325.128418,4457.563965,4494.615234,4354.743652,4385.769043,0.000000,0.000000,13.000000,,,,0.000000,2.000000,2.000000,0.000000,2.000000,2.000000,2.000000,1.000000,2.000000,4.000000,4.000000,4.000000,4.000000,2.000000,4.000000,25.000000,,,,,,,,,,,,,,,,,12.000000,0.000000,0.621830,0.404053,-0.597473,0.305115,0.966915,0.131364,-0.033207,-75.456573,64.620834,27.206369
1732081562.863627,1732081562.864994,49.000000,0.000000,4329.102539,4375.769043,4328.589844,4339.358887,4318.974121,4347.820313,4341.025879,4359.230957,4343.077148,4324.743652,4456.794922,4497.692383,4353.717773,4386.153809,0.000000,0.000000,13.000000,,,,0.000000,2.000000,2.000000,0.000000,2.000000,2.000000,2.000000,1.000000,2.000000,4.000000,4.000000,4.000000,4.000000,2.000000,4.000000,25.000000,,,,,,,,,,,,,,,,,,,,,,,,,,,,
1732081562.871435,1732081562.872603,50.000000,0.000000,4329.358887,4377.820313,4329.230957,4338.846191,4341.025879,4345.128418,4338.077148,4358.974121,4342.436035,4324.871582,4453.205078,4484.487305,4350.897461,4387.820313,0.000000,0.000000,13.000000,,,,0.000000,2.000000,2.000000,0.000000,2.000000,2.000000,2.000000,1.000000,2.000000,4.000000,4.000000,4.000000,4.000000,2.000000,4.000000,25.000000,,,,,,,,,,,,,,,,,,,,,,,,,,,,
1732081562.879243,1732081562.880411,51.000000,0.000000,4330.128418,4377.307617,4324.615234,4337.820313,4343.461426,4342.563965,4333.589844,4362.436035,4346.153809,4327.179688,4454.871582,4486.794922,4356.794922,4389.487305,0.000000,0.000000,13.000000,,,,0.000000,2.000000,2.000000,0.000000,2.000000,2.000000,2.000000,1.000000,2.000000,4.000000,4.000000,4.000000,4.000000,2.000000,4.000000,25.000000,,,,,,,,,,,,,,,,,,,,,,,,,,,,
1732081562.887052,1732081562.888119,52.000000,0.000000,4330.384766,4377.307617,4325.384766,4342.436035,4322.692383,4344.871582,4337.307617,4367.436035,4351.153809,4330.000000,4460.384766,4502.307617,4362.436035,4389.871582,0.000000,0.000000,13.000000,,,,0.000000,2.000000,2.000000,0.000000,2.000000,2.000000,2.000000,1.000000,2.000000,4.000000,4.000000,4.000000,4.000000,2.000000,4.000000,25.000000,,,,,,,,,,,,,,,,,13.000000,0.000000,0.621782,0.403992,-0.597595,0.305054,0.976682,0.137712,-0.039067,-75.306488,64.439545,27.198826
1732081562.894860,1732081562.895927,53.000000,0.000000,4330.256348,4376.025879,4329.102539,4344.230957,4322.436035,4345.384766,4338.717773,4363.333496,4349.743652,4330.641113,4458.333496,4499.102539,4359.102539,4388.461426,0.000000,0.000000,13.000000,,,,0.000000,2.000000,2.000000,0.000000,2.000000,2.000000,2.000000,1.000000,2.000000,4.000000,4.000000,4.000000,4.000000,2.000000,4.000000,25.000000,,,,,,,,,,,,,,,,,,,,,,,,,,,,
1732081562.902668,1732081562.903535,54.000000,0.000000,4325.897461,4371.666504,4327.820313,4337.948730,4341.153809,4341.410156,4336.666504,4357.948730,4343.717773,4326.666504,4456.025879,4485.512695,4357.692383,4389.102539,0.000000,0.000000,13.000000,,,,0.000000,2.000000,2.000000,0.000000,2.000000,2.000000,2.000000,1.000000,2.000000,4.000000,4.000000,4.000000,4.000000,2.000000,4.000000,25.000000,,,,,,,,,,,,,,,,,,,,,,,,,,,,
1732081562.910477,1732081562.911343,55.000000,0.000000,4324.358887,4374.230957,4324.230957,4335.000000,4338.717773,4341.666504,4333.846191,4360.512695,4344.230957,4323.205078,4457.179688,4485.128418,4358.589844,4391.922852,0.000000,0.000000,13.000000,,,,0.000000,2.000000,2.000000,0.000000,2.000000,2.000000,2.000000,1.000000,2.000000,4.000000,4.000000,4.000000,4.000000,2.000000,4.000000,25.000000,,,,,,,,,,,,,,,,,,,,,,,,,,,,
1732081562.918285,1732081562.919251,56.000000,0.000000,4325.897461,4376.153809,4329.358887,4336.538574,4323.717773,4344.230957,4335.897461,4362.051270,4346.025879,4322.563965,4453.717773,4489.358887,4355.512695,4389.743652,0.000000,0.000000,13.000000,,,,0.000000,2.000000,2.000000,0.000000,2.000000,2.000000,2.000000,1.000000,2.000000,4.000000,4.000000,4.000000,4.000000,2.000000,4.000000,25.000000,,,,,,,,,,,,,,,,,14.000000,0.000000,0.621536,0.404053,-0.597778,0.305115,0.979612,0.125504,-0.041509,-75.533257,64.356026,27.066048
1732081562.926093,1732081562.927059,57.000000,0.000000,4326.282227,4374.358887,4329.358887,4339.871582,4324.743652,4342.307617,4337.820313,4358.461426,4341.794922,4321.794922,4451.282227,4488.077148,4354.615234,4388.461426,0.000000,0.000000,13.000000,,,,0.000000,2.000000,2.000000,0.000000,2.000000,2.000000,2.000000,1.000000,2.000000,4.000000,4.000000,4.000000,4.000000,2.000000,4.000000,25.000000,,,,,,,,,,,,,,,,,,,,,,,,,,,,
1732081562.933901,1732081562.935067,58.000000,0.000000,4326.410156,4379.615234,4325.256348,4342.307617,4335.769043,4339.743652,4338.205078,4355.000000,4337.948730,4318.333496,4451.153809,4484.358887,4357.051270,4388.974121,0.000000,0.000000,13.000000,,,,0.000000,2.000000,2.000000,0.000000,2.000000,2.000000,2.000000,1.000000,2.000000,4.000000,4.000000,4.000000,4.000000,2.000000,4.000000,25.000000,,,,,,,,,,,,,,,,,,,,,,,,,,,,
1732081562.941709,1732081562.942875,59.000000,0.000000,4328.846191,4384.358887,4324.358887,4342.948730,4342.563965,4343.205078,4335.000000,4357.307617,4341.153809,4316.025879,4452.307617,4480.256348,4355.256348,4388.333496,0.000000,0.000000,13.000000,,,,0.000000,2.000000,2.000000,0.000000,2.000000,2.000000,2.000000,1.000000,2.000000,4.000000,4.000000,4.000000,4.000000,2.000000,4.000000,25.000000,,,,,,,,,,,,,,,,,,,,,,,,,,,,
1732081562.949518,1732081562.950784,60.000000,0.000000,4331.153809,4381.666504,4328.333496,4343.717773,4336.666504,4347.692383,4333.974121,4363.205078,4345.128418,4320.000000,4455.128418,4480.512695,4356.025879,4391.794922,0.000000,0.000000,13.000000,,,,0.000000,2.000000,2.000000,0.000000,2.000000,2.000000,2.000000,1.000000,2.000000,4.000000,4.000000,4.000000,4.000000,2.000000,4.000000,25.000000,,,,,,,,,,,,,,,,,15.000000,0.000000,0.621313,0.404480,-0.597534,0.305481,0.969845,0.124527,-0.049811,-75.666939,64.383385,27.085165
1732081562.957326,1732081562.958592,61.000000,0.000000,4330.000000,4379.102539,4327.820313,4343.974121,4326.538574,4347.820313,4335.384766,4366.282227,4347.051270,4327.051270,4458.461426,4481.410156,4358.589844,4394.743652,0.000000,0.000000,13.000000,,,,0.000000,2.000000,2.000000,0.000000,2.000000,2.000000,2.000000,1.000000,2.000000,4.000000,4.000000,4.000000,4.000000,2.000000,4.000000,25.000000,,,,,,,,,,,,,,,,,,,,,,,,,,,,
1732081562.965134,1732081562.966600,62.000000,0.000000,4327.436035,4379.230957,4324.358887,4343.974121,4328.077148,4345.256348,4335.256348,4362.051270,4346.922852,4326.666504,4457.051270,4478.974121,4355.641113,4392.051270,0.000000,0.000000,13.000000,,,,0.000000,2.000000,2.000000,0.000000,2.000000,2.000000,2.000000,1.000000,2.000000,4.000000,4.000000,4.000000,4.000000,2.000000,4.000000,25.000000,,,,,,,,,,,,,,,,,,,,,,,,,,,,
1732081562.972942,1732081562.974408,63.000000,0.000000,4327.179688,4377.179688,4324.871582,4345.384766,4331.794922,4346.025879,4335.384766,4358.589844,4345.641113,4324.487305,4454.102539,4483.077148,4351.538574,4386.153809,0.000000,0.000000,13.000000,,,,0.000000,2.000000,2.000000,0.000000,2.000000,2.000000,2.000000,1.000000,2.000000,4.000000,4.000000,4.000000,4.000000,2.000000,4.000000,25.000000,,,,,,,,,,,,,,,,,,,,,,,,,,,,
1732081562.980751,1732081562.982316,64.000000,0.000000,4326.025879,4377.563965,4327.820313,4343.461426,4330.769043,4346.666504,4334.743652,4358.717773,4344.743652,4325.384766,4450.641113,4490.769043,4352.179688,4383.461426,3.000000,0.000000,13.000000,,,,0.000000,2.000000,2.000000,0.000000,2.000000,2.000000,2.000000,1.000000,2.000000,4.000000,4.000000,4.000000,4.000000,2.000000,4.000000,25.000000,,,,,,,,,,,,,,,,,16.000000,0.000000,0.621234,0.404602,-0.597534,0.305481,0.968380,0.136735,-0.043462,-75.846886,64.422203,27.050652
1732081562.988559,1732081562.990124,65.000000,0.000000,4323.205078,4378.461426,4328.333496,4339.102539,4339.871582,4342.179688,4334.230957,4355.000000,4342.051270,4319.871582,4446.922852,4492.692383,4354.102539,4385.769043,1277.000000,0.000000,13.000000,,,,0.000000,2.000000,2.000000,0.000000,2.000000,2.000000,2.000000,1.000000,2.000000,4.000000,4.000000,4.000000,4.000000,2.000000,4.000000,25.000000,,,,,,,,,,,,,,,,,,,,,,,,,,,,
1732081562.996367,1732081562.998132,66.000000,0.000000,4320.897461,4373.717773,4326.410156,4336.538574,4341.538574,4343.205078,4335.000000,4357.307617,4341.666504,4316.794922,4449.743652,4491.410156,4353.717773,4386.153809,1214.000000,0.000000,13.000000,,,,0.000000,2.000000,2.000000,0.000000,2.000000,2.000000,2.000000,1.000000,2.000000,4.000000,4.000000,4.000000,4.000000,2.000000,4.000000,25.000000,,,,,,,,,,,,,,,,,,,,,,,,,,,,
1732081563.004176,1732081563.005940,67.000000,0.000000,4320.256348,4372.692383,4326.794922,4333.589844,4324.615234,4350.769043,4338.077148,4365.897461,4345.897461,4323.205078,4453.974121,4490.769043,4352.948730,4386.538574,1157.000000,0.000000,13.000000,,,,0.000000,2.000000,2.000000,0.000000,2.000000,2.000000,2.000000,1.000000,2.000000,4.000000,4.000000,4.000000,4.000000,2.000000,4.000000,25.000000,,,,,,,,,,,,,,,,,,,,,,,,,,,,
1732081563.011984,1732081563.013849,68.000000,0.000000,4320.384766,4375.384766,4325.256348,4330.256348,4321.666504,4350.128418,4336.025879,4364.615234,4345.128418,4322.948730,4450.769043,4483.333496,4350.769043,4390.128418,1167.000000,0.000000,13.000000,,,,0.000000,2.000000,2.000000,0.000000,2.000000,2.000000,2.000000,1.000000,2.000000,4.000000,4.000000,4.000000,4.000000,2.000000,4.000000,25.000000,,,,,,,,,,,,,,,,,17.000000,0.000000,0.621244,0.404541,-0.597534,0.305542,0.972775,0.127457,-0.030277,-75.745979,64.538651,27.182693
1732081563.019792,1732081563.021657,69.000000,0.000000,4320.641113,4376.282227,4327.307617,4332.436035,4338.333496,4344.487305,4335.897461,4358.589844,4338.974121,4316.410156,4445.897461,4474.487305,4347.563965,4390.384766,1063.000000,0.000000,13.000000,,,,0.000000,2.000000,2.000000,0.000000,2.000000,2.000000,2.000000,1.000000,2.000000,4.000000,4.000000,4.000000,4.000000,2.000000,4.000000,25.000000,,,,,,,,,,,,,,,,,,,,,,,,,,,,
1732081563.027600,1732081563.029665,70.000000,0.000000,4322.820313,4376.922852,4328.846191,4342.179688,4343.461426,4346.666504,4335.897461,4362.179688,4341.025879,4321.794922,4448.974121,4472.948730,4348.589844,4387.436035,203.000000,0.000000,13.000000,,,,0.000000,2.000000,2.000000,0.000000,2.000000,2.000000,2.000000,1.000000,2.000000,4.000000,4.000000,4.000000,4.000000,2.000000,4.000000,25.000000,,,,,,,,,,,,,,,,,,,,,,,,,,,,
1732081563.035408,1732081563.037473,71.000000,0.000000,4324.743652,4378.333496,4328.717773,4346.538574,4328.589844,4348.846191,4336.282227,4365.897461,4346.666504,4326.282227,4451.025879,4477.051270,4348.717773,4387.436035,1190.000000,0.000000,13.000000,,,,0.000000,2.000000,2.000000,0.000000,2.000000,2.000000,2.000000,1.000000,2.000000,4.000000,4.000000,4.000000,4.000000,2.000000,4.000000,25.000000,,,,,,,,,,,,,,,,,,,,,,,,,,,,
1732081563.043217,1732081563.045181,72.000000,0.000000,4327.820313,4378.077148,4327.436035,4343.333496,4315.512695,4346.538574,4335.512695,4360.512695,4345.641113,4321.794922,4448.333496,4484.102539,4347.820313,4391.282227,1332.000000,0.000000,13.000000,,,,0.000000,2.000000,2.000000,0.000000,2.000000,2.000000,2.000000,1.000000,2.000000,4.000000,4.000000,4.000000,4.000000,2.000000,4.000000,25.000000,,,,,,,,,,,,,,,,,18.000000,0.000000,0.621104,0.404663,-0.597534,0.305664,0.976193,0.132829,-0.044439,-75.644241,64.811310,27.162983
1732081563.051025,1732081563.052990,73.000000,0.000000,4328.974121,4375.256348,4328.461426,4339.615234,4326.794922,4344.615234,4335.128418,4358.589844,4343.974121,4320.000000,4447.948730,4486.666504,4348.333496,4390.641113,1469.000000,0.000000,13.000000,,,,0.000000,2.000000,2.000000,0.000000,2.000000,2.000000,2.000000,1.000000,2.000000,4.000000,4.000000,4.000000,4.000000,2.000000,4.000000,25.000000,,,,,,,,,,,,,,,,,,,,,,,,,,,,
1732081563.058833,1732081563.060598,74.000000,0.000000,4328.333496,4375.897461,4327.692383,4341.025879,4344.615234,4343.589844,4332.436035,4362.563965,4343.077148,4319.487305,4449.358887,4481.153809,4347.948730,4389.487305,1356.000000,0.000000,13.000000,,,,0.000000,2.000000,2.000000,0.000000,2.000000,2.000000,2.000000,1.000000,2.000000,4.000000,4.000000,4.000000,4.000000,2.000000,4.000000,25.000000,,,,,,,,,,,,,,,,,,,,,,,,,,,,
1732081563.066641,1732081563.068406,75.000000,0.000000,4330.512695,4376.538574,4328.846191,4343.974121,4331.410156,4347.051270,4334.230957,4367.820313,4339.743652,4321.282227,4450.897461,4479.615234,4349.615234,4393.077148,1489.000000,0.000000,13.000000,,,,0.000000,2.000000,2.000000,0.000000,2.000000,2.000000,2.000000,1.000000,2.000000,4.000000,4.000000,4.000000,4.000000,2.000000,4.000000,25.000000,,,,,,,,,,,,,,,,,,,,,,,,,,,,
1732081563.074450,1732081563.076114,76.000000,0.000000,4331.922852,4374.358887,4328.846191,4341.025879,4318.333496,4351.538574,4336.025879,4366.666504,4339.871582,4327.436035,4455.128418,4483.846191,4354.230957,4396.922852,1716.000000,0.000000,13.000000,,,,0.000000,2.000000,2.000000,0.000000,2.000000,2.000000,2.000000,1.000000,2.000000,4.000000,4.000000,4.000000,4.000000,2.000000,4.000000,25.000000,,,,,,,,,,,,,,,,,19.000000,0.000000,0.621104,0.404663,-0.597534,0.305664,0.981565,0.128922,-0.035649,-75.895172,64.908829,27.227016
1732081563.082258,1732081563.083923,77.000000,0.000000,4330.641113,4374.358887,4331.282227,4336.538574,4332.692383,4346.538574,4332.692383,4357.179688,4342.948730,4327.563965,4454.743652,4485.897461,4355.256348,4398.589844,1666.000000,0.000000,13.000000,,,,0.000000,2.000000,2.000000,0.000000,2.000000,2.000000,2.000000,1.000000,2.000000,4.000000,4.000000,4.000000,4.000000,2.000000,4.000000,25.000000,,,,,,,,,,,,,,,,,,,,,,,,,,,,
1732081563.090066,1732081563.091531,78.000000,0.000000,4330.512695,4376.794922,4334.102539,4339.743652,4333.717773,4341.410156,4332.563965,4356.153809,4341.410156,4323.589844,4450.256348,4481.282227,4354.230957,4397.563965,1356.000000,0.000000,13.000000,,,,0.000000,2.000000,2.000000,0.000000,2.000000,2.000000,2.000000,1.000000,2.000000,4.000000,4.000000,4.000000,4.000000,2.000000,4.000000,25.000000,1.000000,25.000000,2.000000,2.000000,0.000000,2.000000,2.000000,2.000000,1.000000,2.000000,4.000000,4.000000,4.000000,4.000000,2.000000,4.000000,,,,,,,,,,,,
1732081563.097875,1732081563.099339,79.000000,0.000000,4332.692383,4379.102539,4331.025879,4347.179688,4318.461426,4346.153809,4335.769043,4363.974121,4342.563965,4327.051270,4455.384766,4479.871582,4356.666504,4398.846191,1489.000000,0.000000,13.000000,,,,0.000000,2.000000,2.000000,0.000000,2.000000,2.000000,2.000000,1.000000,2.000000,4.000000,4.000000,4.000000,4.000000,2.000000,4.000000,25.000000,,,,,,,,,,,,,,,,,,,,,,,,,,,,
1732081563.105683,1732081563.107048,80.000000,0.000000,4330.769043,4379.615234,4328.461426,4345.769043,4329.358887,4349.743652,4334.871582,4363.205078,4346.282227,4328.717773,4459.615234,4481.282227,4361.153809,4398.333496,1716.000000,0.000000,13.000000,,,,0.000000,2.000000,2.000000,0.000000,2.000000,2.000000,2.000000,1.000000,2.000000,4.000000,4.000000,4.000000,4.000000,2.000000,4.000000,25.000000,,,,,,,,,,,,,,,,,20.000000,0.000000,0.621053,0.404785,-0.597473,0.305725,0.953241,0.142107,-0.051276,-76.010086,65.052818,26.993883
1732081563.113491,1732081563.114856,81.000000,0.000000,4328.974121,4379.230957,4331.025879,4339.871582,4341.794922,4346.666504,4331.025879,4355.897461,4342.436035,4322.820313,4456.410156,4481.282227,4361.794922,4399.743652,1666.000000,0.000000,13.000000,,,,0.000000,2.000000,2.000000,0.000000,2.000000,2.000000,2.000000,1.000000,2.000000,4.000000,4.000000,4.000000,4.000000,2.000000,4.000000,25.000000,,,,,,,,,,,,,,,,,,,,,,,,,,,,
1732081563.121299,1732081563.122464,82.000000,0.000000,4330.769043,4378.333496,4331.025879,4340.384766,4327.820313,4346.410156,4333.589844,4357.692383,4339.871582,4323.077148,4455.769043,4482.692383,4359.358887,4401.794922,1356.000000,0.000000,13.000000,,,,0.000000,2.000000,2.000000,0.000000,2.000000,2.000000,2.000000,1.000000,2.000000,4.000000,4.000000,4.000000,4.000000,2.000000,4.000000,25.000000,,,,,,,,,,,,,,,,,,,,,,,,,,,,
1732081563.129107,1732081563.130272,83.000000,0.000000,4332.436035,4379.615234,4327.436035,4341.922852,4320.897461,4349.358887,4334.743652,4362.563965,4343.077148,4328.461426,4458.717773,4484.871582,4360.000000,4401.538574,1489.000000,0.000000,13.000000,,,,0.000000,2.000000,2.000000,0.000000,2.000000,2.000000,2.000000,1.000000,2.000000,4.000000,4.000000,4.000000,4.000000,2.000000,4.000000,25.000000,,,,,,,,,,,,,,,,,,,,,,,,,,,,
1732081563.136916,1732081563.137981,84.000000,0.000000,4331.794922,4379.871582,4328.077148,4338.717773,4328.846191,4350.000000,4335.128418,4361.153809,4342.307617,4323.974121,4458.717773,4491.025879,4359.230957,4401.538574,1716.000000,0.000000,13.000000,,,,0.000000,2.000000,2.000000,0.000000,2.000000,2.000000,2.000000,1.000000,2.000000,4.000000,4.000000,4.000000,4.000000,2.000000,4.000000,25.000000,,,,,,,,,,,,,,,,,21.000000,0.000000,0.621145,0.404602,-0.597595,0.305542,0.974240,0.141131,-0.041021,-75.934837,64.882782,27.170046
1732081563.144724,1732081563.145789,85.000000,0.000000,4327.692383,4374.487305,4326.410156,4334.487305,4340.128418,4346.282227,4331.282227,4357.692383,4339.230957,4318.461426,4456.922852,4491.153809,4353.461426,4400.000000,1666.000000,0.000000,13.000000,,,,0.000000,2.000000,2.000000,0.000000,2.000000,2.000000,2.000000,1.000000,2.000000,4.000000,4.000000,4.000000,4.000000,2.000000,4.000000,25.000000,,,,,,,,,,,,,,,,,,,,,,,,,,,,
1732081563.152532,1732081563.153397,86.000000,0.000000,4327.948730,4370.128418,4325.384766,4333.974121,4339.487305,4345.128418,4327.051270,4354.487305,4338.461426,4321.282227,4454.230957,4481.282227,4353.333496,4399.230957,1356.000000,0.000000,13.000000,,,,0.000000,2.000000,2.000000,0.000000,2.000000,2.000000,2.000000,1.000000,2.000000,4.000000,4.000000,4.000000,4.000000,2.000000,4.000000,25.000000,,,,,,,,,,,,,,,,,,,,,,,,,,,,
1732081563.160340,1732081563.161206,87.000000,0.000000,4332.948730,4375.384766,4325.256348,4336.282227,4327.948730,4348.589844,4326.794922,4355.641113,4340.000000,4323.717773,4453.717773,4474.487305,4358.974121,4399.487305,1489.000000,0.000000,13.000000,,,,0.000000,2.000000,2.000000,0.000000,2.000000,2.000000,2.000000,1.000000,2.000000,4.000000,4.000000,4.000000,4.000000,2.000000,4.000000,25.000000,,,,,,,,,,,,,,,,,,,,,,,,,,,,
1732081563.168149,1732081563.168914,88.000000,0.000000,4332.820313,4380.512695,4327.436035,4337.179688,4331.153809,4349.743652,4330.000000,4357.307617,4341.282227,4322.307617,4454.871582,4476.922852,4358.974121,4399.487305,1716.000000,0.000000,13.000000,,,,0.000000,2.000000,2.000000,0.000000,2.000000,2.000000,2.000000,1.000000,2.000000,4.000000,4.000000,4.000000,4.000000,2.000000,4.000000,25.000000,,,,,,,,,,,,,,,,,22.000000,0.000000,0.621319,0.404297,-0.597839,0.305115,0.962520,0.133805,-0.037602,-76.173882,64.811722,27.179403
1732081563.175957,1732081563.176722,89.000000,0.000000,4332.179688,4378.205078,4326.282227,4334.871582,4339.358887,4347.307617,4327.436035,4356.282227,4342.179688,4324.230957,4453.717773,4479.230957,4356.410156,4398.974121,1666.000000,0.000000,13.000000,,,,0.000000,2.000000,2.000000,0.000000,2.000000,2.000000,2.000000,1.000000,2.000000,4.000000,4.000000,4.000000,4.000000,2.000000,4.000000,25.000000,,,,,,,,,,,,,,,,,,,,,,,,,,,,
1732081563.183765,1732081563.184331,90.000000,0.000000,4335.256348,4374.487305,4326.922852,4332.436035,4326.025879,4347.563965,4327.948730,4358.333496,4343.333496,4327.051270,4450.512695,4479.230957,4356.153809,4396.282227,1356.000000,0.000000,13.000000,,,,0.000000,2.000000,2.000000,0.000000,2.000000,2.000000,2.000000,1.000000,2.000000,4.000000,4.000000,4.000000,4.000000,2.000000,4.000000,25.000000,,,,,,,,,,,,,,,,,,,,,,,,,,,,
1732081563.191574,1732081563.192139,91.000000,0.000000,4335.000000,4373.589844,4326.410156,4334.358887,4315.384766,4349.615234,4331.410156,4359.615234,4342.563965,4326.666504,4447.051270,4480.128418,4356.538574,4394.871582,1489.000000,0.000000,13.000000,,,,0.000000,2.000000,2.000000,0.000000,2.000000,2.000000,2.000000,1.000000,2.000000,4.000000,4.000000,4.000000,4.000000,2.000000,4.000000,25.000000,,,,,,,,,,,,,,,,,,,,,,,,,,,,
1732081563.199382,1732081563.199847,92.000000,0.000000,4330.000000,4373.589844,4327.051270,4336.922852,4335.897461,4347.948730,4329.743652,4355.769043,4339.487305,4322.820313,4444.743652,4476.025879,4355.000000,4391.922852,1716.000000,0.000000,13.000000,,,,0.000000,2.000000,2.000000,0.000000,2.000000,2.000000,2.000000,1.000000,2.000000,4.000000,4.000000,4.000000,4.000000,2.000000,4.000000,25.000000,,,,,,,,,,,,,,,,,23.000000,0.000000,0.621509,0.404053,-0.597900,0.304932,0.973752,0.147479,-0.025394,-76.290848,64.850830,27.098650
1732081563.207190,1732081563.207655,93.000000,0.000000,4327.436035,4374.615234,4326.922852,4338.974121,4346.410156,4348.461426,4328.717773,4358.333496,4339.230957,4319.871582,4444.743652,4472.563965,4350.128418,4388.846191,1666.000000,0.000000,13.000000,,,,0.000000,2.000000,2.000000,0.000000,2.000000,2.000000,2.000000,1.000000,2.000000,4.000000,4.000000,4.000000,4.000000,2.000000,4.000000,25.000000,,,,,,,,,,,,,,,,,,,,,,,,,,,,
1732081563.214998,1732081563.215264,94.000000,0.000000,4328.846191,4377.692383,4327.307617,4342.948730,4333.205078,4353.846191,4331.922852,4364.230957,4342.820313,4322.179688,4445.769043,4472.820313,4348.974121,4388.974121,1356.000000,0.000000,13.000000,,,,0.000000,2.000000,2.000000,0.000000,2.000000,2.000000,2.000000,1.000000,2.000000,4.000000,4.000000,4.000000,4.000000,2.000000,4.000000,25.000000,,,,,,,,,,,,,,,,,,,,,,,,,,,,
1732081563.222807,1732081563.223072,95.000000,0.000000,4330.897461,4380.512695,4330.000000,4347.563965,4328.717773,4353.205078,4331.922852,4363.717773,4341.794922,4327.051270,4446.922852,4470.641113,4356.025879,4394.102539,1489.000000,0.000000,13.000000,,,,0.000000,2.000000,2.000000,0.000000,2.000000,2.000000,2.000000,1.000000,2.000000,4.000000,4.000000,4.000000,4.000000,2.000000,4.000000,25.000000,,,,,,,,,,,,,,,,,,,,,,,,,,,,
1732081563.230615,1732081563.230780,96.000000,0.000000,4329.358887,4379.871582,4330.256348,4346.025879,4331.282227,4350.512695,4328.077148,4361.538574,4338.077148,4325.384766,4449.871582,4469.230957,4359.871582,4394.615234,1716.000000,0.000000,13.000000,,,,0.000000,2.000000,2.000000,0.000000,2.000000,2.000000,2.000000,1.000000,2.000000,4.000000,4.000000,4.000000,4.000000,2.000000,4.000000,25.000000,,,,,,,,,,,,,,,,,24.000000,0.000000,0.621548,0.403992,-0.597900,0.304932,0.973752,0.147479,-0.025394,-76.045586,64.657501,27.079906
1732081563.238423,1732081563.238588,97.000000,0.000000,4324.743652,4376.538574,4326.410156,4339.102539,4337.563965,4351.282227,4328.846191,4359.358887,4338.077148,4320.641113,4448.333496,4474.358887,4356.025879,4387.436035,1666.000000,0.000000,13.000000,,,,0.000000,2.000000,2.000000,0.000000,2.000000,2.000000,2.000000,1.000000,2.000000,4.000000,4.000000,4.000000,4.000000,2.000000,4.000000,25.000000,,,,,,,,,,,,,,,,,,,,,,,,,,,,
1732081563.246231,1732081563.246596,98.000000,0.000000,4327.179688,4377.051270,4325.128418,4336.025879,4338.846191,4348.846191,4328.846191,4355.769043,4340.128418,4321.025879,4446.666504,4478.974121,4354.487305,4388.205078,1356.000000,0.000000,13.000000,,,,0.000000,2.000000,2.000000,0.000000,2.000000,2.000000,2.000000,1.000000,2.000000,4.000000,4.000000,4.000000,4.000000,2.000000,4.000000,25.000000,,,,,,,,,,,,,,,,,,,,,,,,,,,,
1732081563.254039,1732081563.254405,99.000000,0.000000,4331.666504,4378.717773,4328.461426,4335.897461,4327.820313,4345.641113,4327.948730,4357.692383,4339.743652,4322.051270,4446.153809,4475.769043,4356.922852,4392.051270,1489.000000,0.000000,13.000000,,,,0.000000,2.000000,2.000000,0.000000,2.000000,2.000000,2.000000,1.000000,2.000000,4.000000,4.000000,4.000000,4.000000,2.000000,4.000000,25.000000,,,,,,,,,,,,,,,,,,,,,,,,,,,,
1732081563.261848,1732081563.262313,100.000000,0.000000,4329.615234,4379.230957,4326.410156,4338.461426,4320.000000,4348.589844,4326.153809,4359.230957,4338.333496,4320.000000,4444.615234,4471.794922,4356.538574,4392.692383,1716.000000,0.000000,13.000000,,,,0.000000,2.000000,2.000000,0.000000,2.000000,2.000000,2.000000,1.000000,2.000000,4.000000,4.000000,4.000000,4.000000,2.000000,4.000000,25.000000,,,,,,,,,,,,,,,,,25.000000,0.000000,0.621596,0.403503,-0.597900,0.305481,0.969357,0.119155,-0.041997,-76.263588,64.912575,27.189724
1732081563.269656,1732081563.270121,101.000000,0.000000,4329.230957,4380.512695,4322.820313,4339.743652,4327.563965,4348.333496,4326.538574,4355.384766,4336.153809,4318.333496,4444.102539,4472.692383,4353.333496,4396.922852,1666.000000,0.000000,13.000000,,,,0.000000,2.000000,2.000000,0.000000,2.000000,2.000000,2.000000,1.000000,2.000000,4.000000,4.000000,4.000000,4.000000,2.000000,4.000000,25.000000,,,,,,,,,,,,,,,,,,,,,,,,,,,,
1732081563.277464,1732081563.277729,102.000000,0.000000,4332.692383,4380.897461,4324.743652,4334.871582,4335.384766,4345.384766,4326.666504,4353.077148,4333.589844,4318.974121,4444.743652,4471.794922,4352.692383,4400.128418,1356.000000,0.000000,13.000000,,,,0.000000,2.000000,2.000000,0.000000,2.000000,2.000000,2.000000,1.000000,2.000000,4.000000,4.000000,4.000000,4.000000,2.000000,4.000000,25.000000,,,,,,,,,,,,,,,,,,,,,,,,,,,,
1732081563.285272,1732081563.285537,103.000000,0.000000,4333.461426,4381.410156,4329.358887,4331.922852,4330.641113,4347.179688,4328.077148,4352.179688,4332.051270,4316.025879,4443.974121,4466.538574,4350.256348,4393.589844,1489.000000,0.000000,13.000000,,,,0.000000,2.000000,2.000000,0.000000,2.000000,2.000000,2.000000,1.000000,2.000000,4.000000,4.000000,4.000000,4.000000,2.000000,4.000000,25.000000,,,,,,,,,,,,,,,,,,,,,,,,,,,,
1732081563.293081,1732081563.293245,104.000000,0.000000,4336.282227,4385.641113,4323.974121,4338.589844,4326.282227,4349.230957,4325.769043,4351.538574,4335.897461,4314.871582,4443.974121,4463.717773,4348.846191,4389.487305,1716.000000,0.000000,13.000000,,,,0.000000,2.000000,2.000000,0.000000,2.000000,2.000000,2.000000,1.000000,2.000000,4.000000,4.000000,4.000000,4.000000,2.000000,4.000000,25.000000,,,,,,,,,,,,,,,,,26.000000,0.000000,0.621858,0.402954,-0.597717,0.306030,0.974728,0.121597,-0.038091,-76.005173,64.984184,27.260344
1732081563.300889,1732081563.301053,105.000000,0.000000,4336.666504,4384.102539,4322.563965,4343.205078,4330.897461,4350.384766,4323.846191,4353.846191,4336.025879,4317.307617,4445.512695,4468.205078,4350.641113,4394.487305,1666.000000,0.000000,13.000000,,,,0.000000,2.000000,2.000000,0.000000,2.000000,2.000000,2.000000,1.000000,2.000000,4.000000,4.000000,4.000000,4.000000,2.000000,4.000000,25.000000,,,,,,,,,,,,,,,,,,,,,,,,,,,,
1732081563.308697,1732081563.309061,106.000000,0.000000,4330.256348,4378.333496,4328.077148,4339.102539,4343.974121,4350.512695,4321.794922,4355.256348,4331.410156,4313.333496,4443.846191,4467.948730,4347.436035,4392.179688,1356.000000,0.000000,13.000000,,,,0.000000,2.000000,2.000000,0.000000,2.000000,2.000000,2.000000,1.000000,2.000000,4.000000,4.000000,4.000000,4.000000,2.000000,4.000000,25.000000,,,,,,,,,,,,,,,,,,,,,,,,,,,,
1732081563.316506,1732081563.316869,107.000000,0.000000,4326.538574,4378.846191,4331.410156,4335.256348,4340.384766,4351.794922,4323.333496,4352.563965,4331.538574,4305.128418,4433.846191,4462.692383,4339.743652,4382.179688,1489.000000,0.000000,13.000000,,,,0.000000,2.000000,2.000000,0.000000,2.000000,2.000000,2.000000,1.000000,2.000000,4.000000,4.000000,4.000000,4.000000,2.000000,4.000000,25.000000,,,,,,,,,,,,,,,,,,,,,,,,,,,,
1732081563.324314,1732081563.324777,108.000000,0.000000,4326.538574,4378.717773,4327.820313,4337.948730,4323.717773,4360.512695,4325.384766,4353.589844,4334.230957,4303.205078,4426.282227,4461.410156,4337.563965,4375.128418,1716.000000,0.000000,13.000000,,,,0.000000,2.000000,2.000000,0.000000,2.000000,2.000000,2.000000,1.000000,2.000000,4.000000,4.000000,4.000000,4.000000,2.000000,4.000000,25.000000,,,,,,,,,,,,,,,,,27.000000,0.000000,0.621934,0.402832,-0.597595,0.306274,0.971310,0.138689,-0.038091,-75.889191,64.915527,27.222546
1732081563.332122,1732081563.332586,109.000000,0.000000,4326.666504,4377.179688,4326.922852,4341.922852,4327.436035,4366.153809,4325.384766,4355.256348,4333.077148,4308.846191,4434.743652,4464.871582,4345.000000,4379.615234,1666.000000,0.000000,13.000000,,,,0.000000,2.000000,2.000000,0.000000,2.000000,2.000000,2.000000,1.000000,2.000000,4.000000,4.000000,4.000000,4.000000,2.000000,4.000000,25.000000,,,,,,,,,,,,,,,,,,,,,,,,,,,,
