title:four2, start timestamp:1732081601.280318, stop timestamp:1732081633.450317, headset type:EPOCX, headset serial:E5020C3A, headset firmware:730, channels:67, sampling rate:eeg_128;mot_32, samples:4121      , version:2.2, 
Timestamp,OriginalTimestamp,EEG.Counter,EEG.Interpolated,EEG.AF3,EEG.F7,EEG.F3,EEG.FC5,EEG.T7,EEG.P7,EEG.O1,EEG.O2,EEG.P8,EEG.T8,EEG.FC6,EEG.F4,EEG.F8,EEG.AF4,EEG.RawCq,EEG.Battery,EEG.BatteryPercent,MarkerIndex,MarkerType,MarkerValueInt,EEG.MarkerHardware,CQ.AF3,CQ.F7,CQ.F3,CQ.FC5,CQ.T7,CQ.P7,CQ.O1,CQ.O2,CQ.P8,CQ.T8,CQ.FC6,CQ.F4,CQ.F8,CQ.AF4,CQ.Overall,EQ.SampleRateQuality,EQ.OVERALL,EQ.AF3,EQ.F7,EQ.F3,EQ.FC5,EQ.T7,EQ.P7,EQ.O1,EQ.O2,EQ.P8,EQ.T8,EQ.FC6,EQ.F4,EQ.F8,EQ.AF4,MOT.CounterMems,MOT.InterpolatedMems,MOT.Q0,MOT.Q1,MOT.Q2,MOT.Q3,MOT.AccX,MOT.AccY,MOT.AccZ,MOT.MagX,MOT.MagY,MOT.MagZ
1732081601.280318,1732081601.280449,105.000000,0.000000,4267.948730,4256.794922,4275.128418,4273.461426,4253.077148,4265.256348,4271.666504,4278.589844,4267.307617,4261.794922,4359.487305,4397.051270,4277.692383,4311.025879,1683.000000,0.000000,13.000000,,,,0.000000,2.000000,2.000000,0.000000,2.000000,2.000000,2.000000,1.000000,2.000000,4.000000,4.000000,4.000000,4.000000,2.000000,4.000000,25.000000,,,,,,,,,,,,,,,,,,,,,,,,,,,,
1732081601.288126,1732081601.288457,106.000000,0.000000,4279.615234,4261.282227,4275.000000,4281.282227,4252.307617,4264.615234,4269.615234,4278.589844,4266.282227,4262.692383,4360.256348,4398.717773,4279.871582,4311.282227,1362.000000,0.000000,13.000000,,,,0.000000,2.000000,2.000000,0.000000,2.000000,2.000000,2.000000,1.000000,2.000000,4.000000,4.000000,4.000000,4.000000,2.000000,4.000000,25.000000,,,,,,,,,,,,,,,,,,,,,,,,,,,,
1732081601.295934,1732081601.296265,107.000000,0.000000,4277.307617,4265.384766,4272.563965,4288.461426,4250.256348,4263.205078,4270.000000,4277.051270,4263.461426,4259.102539,4360.641113,4396.282227,4278.717773,4315.641113,1494.000000,0.000000,13.000000,,,,0.000000,2.000000,2.000000,0.000000,2.000000,2.000000,2.000000,1.000000,2.000000,4.000000,4.000000,4.000000,4.000000,2.000000,4.000000,25.000000,,,,,,,,,,,,,,,,,,,,,,,,,,,,
1732081601.303743,1732081601.304174,108.000000,0.000000,4269.230957,4262.948730,4275.512695,4281.794922,4245.641113,4264.230957,4274.871582,4278.717773,4261.794922,4256.922852,4364.615234,4396.538574,4277.307617,4318.461426,1725.000000,0.000000,13.000000,,,,0.000000,2.000000,2.000000,0.000000,2.000000,2.000000,2.000000,1.000000,2.000000,4.000000,4.000000,4.000000,4.000000,2.000000,4.000000,25.000000,,,,,,,,,,,,,,,,,27.000000,0.000000,0.625557,0.400757,-0.594543,0.307556,0.970822,0.126969,-0.023440,-75.909737,63.885857,27.778044
1732081601.311551,1732081601.311982,109.000000,0.000000,4270.512695,4260.512695,4276.538574,4274.102539,4259.102539,4263.461426,4271.282227,4279.102539,4263.974121,4257.051270,4365.128418,4394.487305,4275.000000,4310.769043,1683.000000,0.000000,13.000000,,,,0.000000,2.000000,2.000000,0.000000,2.000000,2.000000,2.000000,1.000000,2.000000,4.000000,4.000000,4.000000,4.000000,2.000000,4.000000,25.000000,,,,,,,,,,,,,,,,,,,,,,,,,,,,
1732081601.319359,1732081601.319990,110.000000,0.000000,4273.333496,4263.077148,4274.230957,4280.769043,4265.897461,4261.666504,4268.461426,4276.666504,4264.871582,4256.794922,4358.461426,4389.102539,4270.641113,4308.589844,1362.000000,0.000000,13.000000,,,,0.000000,2.000000,2.000000,0.000000,2.000000,2.000000,2.000000,1.000000,2.000000,4.000000,4.000000,4.000000,4.000000,2.000000,4.000000,25.000000,,,,,,,,,,,,,,,,,,,,,,,,,,,,
1732081601.327167,1732081601.327798,111.000000,0.000000,4273.205078,4263.846191,4272.948730,4285.128418,4249.230957,4263.846191,4268.205078,4278.205078,4265.000000,4260.256348,4359.615234,4390.641113,4270.897461,4318.589844,1494.000000,0.000000,13.000000,,,,0.000000,2.000000,2.000000,0.000000,2.000000,2.000000,2.000000,1.000000,2.000000,4.000000,4.000000,4.000000,4.000000,2.000000,4.000000,25.000000,,,,,,,,,,,,,,,,,,,,,,,,,,,,
1732081601.334975,1732081601.335706,112.000000,0.000000,4273.205078,4256.922852,4275.000000,4275.897461,4244.615234,4267.563965,4268.333496,4283.077148,4267.179688,4264.230957,4364.871582,4397.436035,4273.974121,4320.512695,1725.000000,0.000000,13.000000,,,,0.000000,2.000000,2.000000,0.000000,2.000000,2.000000,2.000000,1.000000,2.000000,4.000000,4.000000,4.000000,4.000000,2.000000,4.000000,25.000000,,,,,,,,,,,,,,,,,28.000000,0.000000,0.625364,0.401001,-0.594360,0.307983,0.971310,0.127945,-0.024417,-75.960220,63.985878,27.765215
1732081601.342784,1732081601.343514,113.000000,0.000000,4272.692383,4257.563965,4272.692383,4277.307617,4257.051270,4268.077148,4266.410156,4280.769043,4268.461426,4259.487305,4364.487305,4397.692383,4275.897461,4315.897461,1683.000000,0.000000,13.000000,,,,0.000000,2.000000,2.000000,0.000000,2.000000,2.000000,2.000000,1.000000,2.000000,4.000000,4.000000,4.000000,4.000000,2.000000,4.000000,25.000000,,,,,,,,,,,,,,,,,,,,,,,,,,,,
1732081601.350592,1732081601.351522,114.000000,0.000000,4270.128418,4264.743652,4270.897461,4287.563965,4258.589844,4267.179688,4268.717773,4278.205078,4265.641113,4254.102539,4363.846191,4395.000000,4277.563965,4316.922852,1362.000000,0.000000,13.000000,,,,0.000000,2.000000,2.000000,0.000000,2.000000,2.000000,2.000000,1.000000,2.000000,4.000000,4.000000,4.000000,4.000000,2.000000,4.000000,25.000000,,,,,,,,,,,,,,,,,,,,,,,,,,,,
1732081601.358400,1732081601.359330,115.000000,0.000000,4268.205078,4264.358887,4270.769043,4285.641113,4252.820313,4266.794922,4269.871582,4277.051270,4262.948730,4257.179688,4363.589844,4395.384766,4279.358887,4316.538574,1494.000000,0.000000,13.000000,,,,0.000000,2.000000,2.000000,0.000000,2.000000,2.000000,2.000000,1.000000,2.000000,4.000000,4.000000,4.000000,4.000000,2.000000,4.000000,25.000000,,,,,,,,,,,,,,,,,,,,,,,,,,,,
1732081601.366208,1732081601.367239,116.000000,0.000000,4268.589844,4262.948730,4274.358887,4279.615234,4262.179688,4265.256348,4269.358887,4272.692383,4263.974121,4256.666504,4358.717773,4396.922852,4276.922852,4312.692383,1725.000000,0.000000,13.000000,,,,0.000000,2.000000,2.000000,0.000000,2.000000,2.000000,2.000000,1.000000,2.000000,4.000000,4.000000,4.000000,4.000000,2.000000,4.000000,25.000000,,,,,,,,,,,,,,,,,29.000000,0.000000,0.625323,0.401062,-0.594299,0.308105,0.971798,0.124527,-0.027835,-76.114441,64.168564,27.536491
1732081601.374017,1732081601.375047,117.000000,0.000000,4268.205078,4264.871582,4274.230957,4281.025879,4269.358887,4264.230957,4267.563965,4269.871582,4263.846191,4251.282227,4357.307617,4393.589844,4275.641113,4312.179688,1683.000000,0.000000,13.000000,,,,0.000000,2.000000,2.000000,0.000000,2.000000,2.000000,2.000000,1.000000,2.000000,4.000000,4.000000,4.000000,4.000000,2.000000,4.000000,25.000000,,,,,,,,,,,,,,,,,,,,,,,,,,,,
1732081601.381825,1732081601.383055,118.000000,0.000000,4267.692383,4264.102539,4272.436035,4282.563965,4258.974121,4264.102539,4267.692383,4275.128418,4262.692383,4254.743652,4360.769043,4391.282227,4278.461426,4312.179688,1362.000000,0.000000,13.000000,,,,0.000000,2.000000,2.000000,0.000000,2.000000,2.000000,2.000000,1.000000,2.000000,4.000000,4.000000,4.000000,4.000000,2.000000,4.000000,25.000000,,,,,,,,,,,,,,,,,,,,,,,,,,,,
1732081601.389633,1732081601.390863,119.000000,0.000000,4272.820313,4263.846191,4273.461426,4285.512695,4246.153809,4264.615234,4270.897461,4276.922852,4266.025879,4261.538574,4363.974121,4395.384766,4279.615234,4316.153809,1494.000000,0.000000,13.000000,,,,0.000000,2.000000,2.000000,0.000000,2.000000,2.000000,2.000000,1.000000,2.000000,4.000000,4.000000,4.000000,4.000000,2.000000,4.000000,25.000000,,,,,,,,,,,,,,,,,,,,,,,,,,,,
1732081601.397442,1732081601.398771,120.000000,0.000000,4278.974121,4267.307617,4277.307617,4290.512695,4247.563965,4265.000000,4268.717773,4270.769043,4268.717773,4263.461426,4367.948730,4396.538574,4282.820313,4324.230957,1725.000000,0.000000,13.000000,,,,0.000000,2.000000,2.000000,0.000000,2.000000,2.000000,2.000000,1.000000,2.000000,4.000000,4.000000,4.000000,4.000000,2.000000,4.000000,25.000000,,,,,,,,,,,,,,,,,30.000000,0.000000,0.625323,0.401062,-0.594299,0.308105,0.960078,0.127457,-0.021975,-76.359367,64.316536,27.576223
1732081601.405250,1732081601.406579,121.000000,0.000000,4276.410156,4265.256348,4277.307617,4283.717773,4262.692383,4262.820313,4262.563965,4270.128418,4265.384766,4262.179688,4368.205078,4394.487305,4282.051270,4325.641113,1683.000000,0.000000,13.000000,,,,0.000000,2.000000,2.000000,0.000000,2.000000,2.000000,2.000000,1.000000,2.000000,4.000000,4.000000,4.000000,4.000000,2.000000,4.000000,25.000000,,,,,,,,,,,,,,,,,,,,,,,,,,,,
1732081601.413058,1732081601.414587,122.000000,0.000000,4273.461426,4263.077148,4275.000000,4273.974121,4263.461426,4262.692383,4261.025879,4271.922852,4263.205078,4260.384766,4367.820313,4395.641113,4278.974121,4323.717773,1362.000000,0.000000,13.000000,,,,0.000000,2.000000,2.000000,0.000000,2.000000,2.000000,2.000000,1.000000,2.000000,4.000000,4.000000,4.000000,4.000000,2.000000,4.000000,25.000000,,,,,,,,,,,,,,,,,,,,,,,,,,,,
1732081601.420866,1732081601.422396,123.000000,0.000000,4276.282227,4265.641113,4276.153809,4281.153809,4250.769043,4264.102539,4262.820313,4271.025879,4264.487305,4258.077148,4372.820313,4397.948730,4280.384766,4326.410156,1494.000000,0.000000,13.000000,,,,0.000000,2.000000,2.000000,0.000000,2.000000,2.000000,2.000000,1.000000,2.000000,4.000000,4.000000,4.000000,4.000000,2.000000,4.000000,25.000000,,,,,,,,,,,,,,,,,,,,,,,,,,,,
1732081601.428675,1732081601.430304,124.000000,0.000000,4275.769043,4265.000000,4274.615234,4293.077148,4247.436035,4264.743652,4258.717773,4269.743652,4262.563965,4257.692383,4375.128418,4396.538574,4281.410156,4329.615234,1725.000000,0.000000,13.000000,,,,0.000000,2.000000,2.000000,0.000000,2.000000,2.000000,2.000000,1.000000,2.000000,4.000000,4.000000,4.000000,4.000000,2.000000,4.000000,25.000000,,,,,,,,,,,,,,,,,31.000000,0.000000,0.625302,0.401001,-0.594299,0.308228,0.975705,0.122574,-0.030277,-76.204422,63.956394,27.660074
1732081601.436483,1732081601.438112,125.000000,0.000000,4271.153809,4264.102539,4273.589844,4288.589844,4256.153809,4265.641113,4255.897461,4267.692383,4260.641113,4256.538574,4369.615234,4396.410156,4280.256348,4325.641113,1683.000000,0.000000,13.000000,,,,0.000000,2.000000,2.000000,0.000000,2.000000,2.000000,2.000000,1.000000,2.000000,4.000000,4.000000,4.000000,4.000000,2.000000,4.000000,25.000000,,,,,,,,,,,,,,,,,,,,,,,,,,,,
1732081601.444291,1732081601.445720,126.000000,0.000000,4270.641113,4265.000000,4275.769043,4278.846191,4267.563965,4265.256348,4251.153809,4264.743652,4260.641113,4256.025879,4368.205078,4400.897461,4280.641113,4322.563965,1362.000000,0.000000,13.000000,,,,0.000000,2.000000,2.000000,0.000000,2.000000,2.000000,2.000000,1.000000,2.000000,4.000000,4.000000,4.000000,4.000000,2.000000,4.000000,25.000000,,,,,,,,,,,,,,,,,,,,,,,,,,,,
1732081601.452099,1732081601.453528,127.000000,0.000000,4273.717773,4266.153809,4278.077148,4282.563965,4262.563965,4261.282227,4245.641113,4264.743652,4263.717773,4258.461426,4372.436035,4403.333496,4283.205078,4326.794922,13.000000,0.000000,13.000000,,,,0.000000,2.000000,2.000000,0.000000,2.000000,2.000000,2.000000,1.000000,2.000000,4.000000,4.000000,4.000000,4.000000,2.000000,4.000000,25.000000,,,,,,,,,,,,,,,,,,,,,,,,,,,,
1732081601.459907,1732081601.461237,0.000000,0.000000,4274.743652,4265.897461,4271.922852,4291.410156,4246.282227,4261.922852,4243.333496,4273.461426,4266.538574,4262.307617,4370.769043,4404.230957,4282.692383,4329.102539,8.000000,0.000000,13.000000,,,,0.000000,2.000000,2.000000,0.000000,2.000000,2.000000,2.000000,1.000000,2.000000,4.000000,4.000000,4.000000,4.000000,2.000000,4.000000,25.000000,,,,,,,,,,,,,,,,,0.000000,0.000000,0.625174,0.400879,-0.594421,0.308411,0.988890,0.125504,-0.031742,-76.265579,63.934677,27.669661
1732081601.467716,1732081601.469045,1.000000,0.000000,4271.922852,4267.820313,4269.358887,4287.563965,4247.948730,4267.436035,4244.615234,4279.358887,4268.333496,4265.128418,4366.794922,4406.025879,4283.333496,4326.153809,1285.000000,0.000000,13.000000,,,,0.000000,2.000000,2.000000,0.000000,2.000000,2.000000,2.000000,1.000000,2.000000,4.000000,4.000000,4.000000,4.000000,2.000000,4.000000,25.000000,,,,,,,,,,,,,,,,,,,,,,,,,,,,
1732081601.475524,1732081601.476653,2.000000,0.000000,4270.897461,4269.743652,4271.794922,4279.743652,4260.897461,4268.333496,4239.230957,4278.205078,4274.487305,4267.692383,4369.487305,4407.179688,4289.102539,4324.487305,1219.000000,0.000000,13.000000,,,,0.000000,2.000000,2.000000,0.000000,2.000000,2.000000,2.000000,1.000000,2.000000,4.000000,4.000000,4.000000,4.000000,2.000000,4.000000,25.000000,,,,,,,,,,,,,,,,,,,,,,,,,,,,
1732081601.483332,1732081601.484462,3.000000,0.000000,4272.948730,4268.846191,4274.358887,4283.717773,4257.820313,4267.563965,4233.205078,4277.563965,4276.538574,4268.333496,4368.974121,4407.179688,4288.077148,4326.794922,1160.000000,0.000000,13.000000,,,,0.000000,2.000000,2.000000,0.000000,2.000000,2.000000,2.000000,1.000000,2.000000,4.000000,4.000000,4.000000,4.000000,2.000000,4.000000,25.000000,,,,,,,,,,,,,,,,,,,,,,,,,,,,
1732081601.491140,1732081601.492170,4.000000,0.000000,4271.538574,4268.846191,4272.948730,4289.102539,4262.179688,4265.256348,4232.051270,4281.025879,4268.846191,4264.743652,4361.922852,4403.205078,4281.153809,4324.615234,1207.000000,0.000000,13.000000,,,,0.000000,2.000000,2.000000,0.000000,2.000000,2.000000,2.000000,1.000000,2.000000,4.000000,4.000000,4.000000,4.000000,2.000000,4.000000,25.000000,,,,,,,,,,,,,,,,,1.000000,0.000000,0.625106,0.400757,-0.594543,0.308472,0.981565,0.121109,-0.029789,-76.018456,63.823757,27.867426
1732081601.498949,1732081601.499978,5.000000,0.000000,4266.538574,4269.230957,4272.179688,4284.871582,4276.794922,4266.025879,4232.436035,4280.256348,4262.563965,4259.230957,4360.641113,4401.794922,4278.589844,4315.512695,1075.000000,0.000000,13.000000,,,,0.000000,2.000000,2.000000,0.000000,2.000000,2.000000,2.000000,1.000000,2.000000,4.000000,4.000000,4.000000,4.000000,2.000000,4.000000,25.000000,,,,,,,,,,,,,,,,,,,,,,,,,,,,
1732081601.506757,1732081601.507587,6.000000,0.000000,4268.846191,4271.282227,4275.641113,4286.538574,4266.410156,4273.077148,4228.461426,4277.436035,4267.692383,4257.436035,4367.692383,4405.000000,4280.769043,4317.307617,227.000000,0.000000,13.000000,,,,0.000000,2.000000,2.000000,0.000000,2.000000,2.000000,2.000000,1.000000,2.000000,4.000000,4.000000,4.000000,4.000000,2.000000,4.000000,25.000000,,,,,,,,,,,,,,,,,,,,,,,,,,,,
1732081601.514565,1732081601.515395,7.000000,0.000000,4276.153809,4272.820313,4280.641113,4293.974121,4255.000000,4273.846191,4221.922852,4279.615234,4269.487305,4261.410156,4368.974121,4407.436035,4280.897461,4329.358887,1197.000000,0.000000,13.000000,,,,0.000000,2.000000,2.000000,0.000000,2.000000,2.000000,2.000000,1.000000,2.000000,4.000000,4.000000,4.000000,4.000000,2.000000,4.000000,25.000000,,,,,,,,,,,,,,,,,,,,,,,,,,,,
1732081601.522374,1732081601.523103,8.000000,0.000000,4277.051270,4275.512695,4278.205078,4294.871582,4264.871582,4269.871582,4219.487305,4280.769043,4265.128418,4262.948730,4366.410156,4411.538574,4284.358887,4333.717773,1342.000000,0.000000,13.000000,,,,0.000000,2.000000,2.000000,0.000000,2.000000,2.000000,2.000000,1.000000,2.000000,4.000000,4.000000,4.000000,4.000000,2.000000,4.000000,25.000000,,,,,,,,,,,,,,,,,2.000000,0.000000,0.625106,0.400757,-0.594543,0.308472,0.984495,0.124527,-0.025394,-75.983284,63.508907,28.177614
1732081601.530182,1732081601.530911,9.000000,0.000000,4275.769043,4278.846191,4273.717773,4290.000000,4262.563965,4268.205078,4220.128418,4280.128418,4269.743652,4262.820313,4375.512695,4415.641113,4287.436035,4331.282227,1467.000000,0.000000,13.000000,,,,0.000000,2.000000,2.000000,0.000000,2.000000,2.000000,2.000000,1.000000,2.000000,4.000000,4.000000,4.000000,4.000000,2.000000,4.000000,25.000000,,,,,,,,,,,,,,,,,,,,,,,,,,,,
1732081601.537990,1732081601.538919,10.000000,0.000000,4276.666504,4277.436035,4276.538574,4284.230957,4255.000000,4268.333496,4216.538574,4283.205078,4278.077148,4266.410156,4385.384766,4413.717773,4284.615234,4332.436035,1359.000000,0.000000,13.000000,,,,0.000000,2.000000,2.000000,0.000000,2.000000,2.000000,2.000000,1.000000,2.000000,4.000000,4.000000,4.000000,4.000000,2.000000,4.000000,25.000000,,,,,,,,,,,,,,,,,,,,,,,,,,,,
1732081601.545798,1732081601.546727,11.000000,0.000000,4279.487305,4276.666504,4280.000000,4285.897461,4270.384766,4271.538574,4209.487305,4286.025879,4278.205078,4268.717773,4381.538574,4407.563965,4286.794922,4333.205078,1492.000000,0.000000,13.000000,,,,0.000000,2.000000,2.000000,0.000000,2.000000,2.000000,2.000000,1.000000,2.000000,4.000000,4.000000,4.000000,4.000000,2.000000,4.000000,25.000000,,,,,,,,,,,,,,,,,,,,,,,,,,,,
1732081601.553607,1732081601.554436,12.000000,0.000000,4280.128418,4280.641113,4279.102539,4295.512695,4276.410156,4280.128418,4209.871582,4283.461426,4276.794922,4267.179688,4376.538574,4408.974121,4293.589844,4331.282227,1725.000000,0.000000,13.000000,,,,0.000000,2.000000,2.000000,0.000000,2.000000,2.000000,2.000000,1.000000,2.000000,4.000000,4.000000,4.000000,4.000000,2.000000,4.000000,25.000000,,,,,,,,,,,,,,,,,3.000000,0.000000,0.624962,0.400391,-0.594910,0.308533,0.979123,0.126480,-0.024905,-76.013123,63.478882,27.978868
1732081601.561415,1732081601.562244,13.000000,0.000000,4277.179688,4279.615234,4276.153809,4295.384766,4262.948730,4283.846191,4209.230957,4281.922852,4278.077148,4268.205078,4376.153809,4411.410156,4292.436035,4330.384766,1680.000000,0.000000,13.000000,,,,0.000000,2.000000,2.000000,0.000000,2.000000,2.000000,2.000000,1.000000,2.000000,4.000000,4.000000,4.000000,4.000000,2.000000,4.000000,25.000000,,,,,,,,,,,,,,,,,,,,,,,,,,,,
1732081601.569223,1732081601.569852,14.000000,0.000000,4273.974121,4270.769043,4278.589844,4286.922852,4258.589844,4280.000000,4202.563965,4282.436035,4275.256348,4268.974121,4373.333496,4409.487305,4287.051270,4330.000000,1359.000000,0.000000,13.000000,,,,0.000000,2.000000,2.000000,0.000000,2.000000,2.000000,2.000000,1.000000,2.000000,4.000000,4.000000,4.000000,4.000000,2.000000,4.000000,25.000000,1.000000,16.666666,2.000000,2.000000,0.000000,2.000000,2.000000,1.000000,1.000000,1.000000,4.000000,4.000000,4.000000,4.000000,2.000000,4.000000,,,,,,,,,,,,
1732081601.577031,1732081601.577661,15.000000,0.000000,4278.205078,4272.051270,4279.358887,4289.358887,4266.922852,4277.692383,4196.410156,4279.102539,4270.000000,4266.794922,4371.282227,4408.077148,4290.641113,4331.153809,1492.000000,0.000000,13.000000,,,,0.000000,2.000000,2.000000,0.000000,2.000000,2.000000,2.000000,1.000000,2.000000,4.000000,4.000000,4.000000,4.000000,2.000000,4.000000,25.000000,,,,,,,,,,,,,,,,,,,,,,,,,,,,
1732081601.584839,1732081601.585369,16.000000,0.000000,4283.846191,4277.436035,4278.205078,4292.692383,4265.897461,4277.563965,4198.333496,4277.820313,4270.769043,4267.179688,4372.051270,4408.717773,4297.179688,4334.487305,0.000000,0.000000,13.000000,,,,0.000000,2.000000,2.000000,0.000000,2.000000,2.000000,2.000000,1.000000,2.000000,4.000000,4.000000,4.000000,4.000000,2.000000,4.000000,25.000000,,,,,,,,,,,,,,,,,4.000000,0.000000,0.624287,0.400879,-0.594910,0.309265,0.982053,0.120132,-0.018069,-75.947296,63.381229,27.731216
1732081601.592648,1732081601.593177,17.000000,0.000000,4286.922852,4277.051270,4277.307617,4293.589844,4257.436035,4279.871582,4197.051270,4280.897461,4274.743652,4270.256348,4370.512695,4412.948730,4295.769043,4336.153809,0.000000,0.000000,13.000000,,,,0.000000,2.000000,2.000000,0.000000,2.000000,2.000000,2.000000,1.000000,2.000000,4.000000,4.000000,4.000000,4.000000,2.000000,4.000000,25.000000,,,,,,,,,,,,,,,,,,,,,,,,,,,,
1732081601.600456,1732081601.600786,18.000000,0.000000,4284.871582,4280.256348,4281.282227,4295.769043,4266.282227,4278.589844,4193.461426,4281.025879,4272.948730,4267.692383,4369.230957,4417.307617,4292.692383,4335.384766,0.000000,0.000000,13.000000,,,,0.000000,2.000000,2.000000,0.000000,2.000000,2.000000,2.000000,1.000000,2.000000,4.000000,4.000000,4.000000,4.000000,2.000000,4.000000,25.000000,,,,,,,,,,,,,,,,,,,,,,,,,,,,
1732081601.608264,1732081601.608594,19.000000,0.000000,4280.256348,4281.153809,4280.000000,4292.820313,4274.743652,4276.025879,4192.563965,4279.743652,4272.692383,4266.025879,4373.589844,4420.256348,4294.102539,4335.769043,0.000000,0.000000,13.000000,,,,0.000000,2.000000,2.000000,0.000000,2.000000,2.000000,2.000000,1.000000,2.000000,4.000000,4.000000,4.000000,4.000000,2.000000,4.000000,25.000000,,,,,,,,,,,,,,,,,,,,,,,,,,,,
1732081601.616073,1732081601.616502,20.000000,0.000000,4279.102539,4273.333496,4278.717773,4287.051270,4261.025879,4278.077148,4195.769043,4285.000000,4278.589844,4270.128418,4378.333496,4425.769043,4300.897461,4338.974121,0.000000,0.000000,13.000000,,,,0.000000,2.000000,2.000000,0.000000,2.000000,2.000000,2.000000,1.000000,2.000000,4.000000,4.000000,4.000000,4.000000,2.000000,4.000000,25.000000,,,,,,,,,,,,,,,,,5.000000,0.000000,0.623905,0.401001,-0.594910,0.309875,0.980588,0.104993,-0.024417,-75.793976,63.398796,27.560617
1732081601.623881,1732081601.624310,21.000000,0.000000,4278.974121,4272.436035,4279.615234,4286.794922,4251.538574,4280.641113,4194.487305,4293.461426,4281.153809,4274.871582,4378.461426,4425.000000,4306.794922,4339.487305,0.000000,0.000000,13.000000,,,,0.000000,2.000000,2.000000,0.000000,2.000000,2.000000,2.000000,1.000000,2.000000,4.000000,4.000000,4.000000,4.000000,2.000000,4.000000,25.000000,,,,,,,,,,,,,,,,,,,,,,,,,,,,
1732081601.631689,1732081601.632318,22.000000,0.000000,4274.358887,4274.743652,4280.769043,4287.179688,4262.948730,4280.641113,4189.102539,4292.051270,4280.384766,4273.846191,4372.820313,4415.256348,4306.410156,4335.000000,0.000000,0.000000,13.000000,,,,0.000000,2.000000,2.000000,0.000000,2.000000,2.000000,2.000000,1.000000,2.000000,4.000000,4.000000,4.000000,4.000000,2.000000,4.000000,25.000000,,,,,,,,,,,,,,,,,,,,,,,,,,,,
1732081601.639497,1732081601.640126,23.000000,0.000000,4271.794922,4268.589844,4280.769043,4284.102539,4267.820313,4278.717773,4185.897461,4284.102539,4281.025879,4270.256348,4369.615234,4411.025879,4305.256348,4333.589844,0.000000,0.000000,13.000000,,,,0.000000,2.000000,2.000000,0.000000,2.000000,2.000000,2.000000,1.000000,2.000000,4.000000,4.000000,4.000000,4.000000,2.000000,4.000000,25.000000,,,,,,,,,,,,,,,,,,,,,,,,,,,,
1732081601.647306,1732081601.648034,24.000000,0.000000,4273.974121,4265.641113,4279.230957,4283.077148,4261.922852,4279.358887,4186.410156,4285.128418,4280.000000,4268.461426,4374.230957,4415.256348,4310.128418,4335.384766,0.000000,0.000000,13.000000,,,,0.000000,2.000000,2.000000,0.000000,2.000000,2.000000,2.000000,1.000000,2.000000,4.000000,4.000000,4.000000,4.000000,2.000000,4.000000,25.000000,,,,,,,,,,,,,,,,,6.000000,0.000000,0.623905,0.401001,-0.594910,0.309875,0.980588,0.104993,-0.024417,-75.624786,63.563023,27.347435
1732081601.655114,1732081601.655843,25.000000,0.000000,4272.820313,4268.717773,4277.563965,4282.436035,4267.692383,4282.436035,4187.436035,4293.717773,4280.000000,4268.461426,4376.666504,4415.000000,4312.307617,4336.025879,0.000000,0.000000,13.000000,,,,0.000000,2.000000,2.000000,0.000000,2.000000,2.000000,2.000000,1.000000,2.000000,4.000000,4.000000,4.000000,4.000000,2.000000,4.000000,25.000000,,,,,,,,,,,,,,,,,,,,,,,,,,,,
1732081601.662922,1732081601.663851,26.000000,0.000000,4271.153809,4269.615234,4279.358887,4284.871582,4267.948730,4282.051270,4185.769043,4295.769043,4286.794922,4274.743652,4377.948730,4414.871582,4313.589844,4340.000000,0.000000,0.000000,13.000000,,,,0.000000,2.000000,2.000000,0.000000,2.000000,2.000000,2.000000,1.000000,2.000000,4.000000,4.000000,4.000000,4.000000,2.000000,4.000000,25.000000,,,,,,,,,,,,,,,,,,,,,,,,,,,,
1732081601.670730,1732081601.671659,27.000000,0.000000,4276.410156,4272.948730,4281.282227,4287.307617,4263.974121,4280.384766,4184.230957,4290.769043,4289.743652,4280.256348,4381.025879,4423.077148,4322.436035,4346.538574,0.000000,0.000000,13.000000,,,,0.000000,2.000000,2.000000,0.000000,2.000000,2.000000,2.000000,1.000000,2.000000,4.000000,4.000000,4.000000,4.000000,2.000000,4.000000,25.000000,,,,,,,,,,,,,,,,,,,,,,,,,,,,
1732081601.678539,1732081601.679567,28.000000,0.000000,4283.333496,4276.538574,4277.948730,4286.282227,4274.871582,4274.230957,4180.769043,4287.692383,4285.512695,4279.487305,4383.589844,4427.692383,4328.589844,4351.922852,0.000000,0.000000,13.000000,,,,0.000000,2.000000,2.000000,0.000000,2.000000,2.000000,2.000000,1.000000,2.000000,4.000000,4.000000,4.000000,4.000000,2.000000,4.000000,25.000000,,,,,,,,,,,,,,,,,7.000000,0.000000,0.623195,0.400940,-0.595154,0.310913,0.985472,0.090343,-0.029789,-75.756081,63.669384,27.539755
1732081601.686347,1732081601.687375,29.000000,0.000000,4285.384766,4276.282227,4278.077148,4289.871582,4276.025879,4269.615234,4181.922852,4290.384766,4284.102539,4278.846191,4382.820313,4422.948730,4328.205078,4350.256348,0.000000,0.000000,13.000000,,,,0.000000,2.000000,2.000000,0.000000,2.000000,2.000000,2.000000,1.000000,2.000000,4.000000,4.000000,4.000000,4.000000,2.000000,4.000000,25.000000,,,,,,,,,,,,,,,,,,,,,,,,,,,,
1732081601.694155,1732081601.694983,30.000000,0.000000,4285.000000,4280.256348,4279.871582,4299.102539,4261.153809,4270.641113,4180.384766,4293.589844,4286.025879,4282.436035,4381.282227,4420.000000,4331.153809,4347.051270,0.000000,0.000000,13.000000,,,,0.000000,2.000000,2.000000,0.000000,2.000000,2.000000,2.000000,1.000000,2.000000,4.000000,4.000000,4.000000,4.000000,2.000000,4.000000,25.000000,,,,,,,,,,,,,,,,,,,,,,,,,,,,
1732081601.701963,1732081601.702791,31.000000,0.000000,4286.282227,4283.461426,4279.743652,4300.897461,4258.077148,4272.820313,4176.794922,4292.820313,4288.717773,4285.000000,4384.743652,4424.743652,4332.820313,4350.256348,0.000000,0.000000,13.000000,,,,0.000000,2.000000,2.000000,0.000000,2.000000,2.000000,2.000000,1.000000,2.000000,4.000000,4.000000,4.000000,4.000000,2.000000,4.000000,25.000000,,,,,,,,,,,,,,,,,,,,,,,,,,,,
1732081601.709772,1732081601.710699,32.000000,0.000000,4286.922852,4280.897461,4278.589844,4296.410156,4268.205078,4273.717773,4174.230957,4291.538574,4289.487305,4282.563965,4386.153809,4423.333496,4331.538574,4349.743652,0.000000,0.000000,13.000000,,,,0.000000,2.000000,2.000000,0.000000,2.000000,2.000000,2.000000,1.000000,2.000000,4.000000,4.000000,4.000000,4.000000,2.000000,4.000000,25.000000,,,,,,,,,,,,,,,,,8.000000,0.000000,0.623088,0.400696,-0.595398,0.310974,0.949823,0.141619,-0.041509,-75.869087,63.923866,27.602201
1732081601.717580,1732081601.718508,33.000000,0.000000,4285.641113,4280.512695,4280.384766,4294.358887,4268.205078,4276.666504,4174.487305,4288.974121,4285.512695,4277.307617,4381.153809,4419.102539,4334.743652,4344.230957,0.000000,0.000000,13.000000,,,,0.000000,2.000000,2.000000,0.000000,2.000000,2.000000,2.000000,1.000000,2.000000,4.000000,4.000000,4.000000,4.000000,2.000000,4.000000,25.000000,,,,,,,,,,,,,,,,,,,,,,,,,,,,
1732081601.725388,1732081601.726516,34.000000,0.000000,4285.384766,4282.948730,4277.692383,4293.077148,4263.333496,4277.179688,4171.025879,4282.436035,4282.436035,4274.230957,4375.769043,4424.743652,4336.794922,4343.205078,0.000000,0.000000,13.000000,,,,0.000000,2.000000,2.000000,0.000000,2.000000,2.000000,2.000000,1.000000,2.000000,4.000000,4.000000,4.000000,4.000000,2.000000,4.000000,25.000000,,,,,,,,,,,,,,,,,,,,,,,,,,,,
1732081601.733196,1732081601.734324,35.000000,0.000000,4285.000000,4281.794922,4276.153809,4292.692383,4266.794922,4270.128418,4168.333496,4280.000000,4280.641113,4272.948730,4375.897461,4435.512695,4335.256348,4343.461426,0.000000,0.000000,13.000000,,,,0.000000,2.000000,2.000000,0.000000,2.000000,2.000000,2.000000,1.000000,2.000000,4.000000,4.000000,4.000000,4.000000,2.000000,4.000000,25.000000,,,,,,,,,,,,,,,,,,,,,,,,,,,,
1732081601.741005,1732081601.742232,36.000000,0.000000,4282.179688,4282.179688,4277.692383,4294.743652,4271.794922,4271.794922,4168.717773,4286.410156,4280.384766,4273.077148,4378.205078,4436.794922,4337.692383,4340.512695,0.000000,0.000000,13.000000,,,,0.000000,2.000000,2.000000,0.000000,2.000000,2.000000,2.000000,1.000000,2.000000,4.000000,4.000000,4.000000,4.000000,2.000000,4.000000,25.000000,,,,,,,,,,,,,,,,,9.000000,0.000000,0.623006,0.401001,-0.595215,0.311096,0.949823,0.141619,-0.041509,-75.930634,63.904999,27.577784
1732081601.748813,1732081601.750040,37.000000,0.000000,4280.897461,4284.615234,4282.051270,4296.282227,4273.205078,4277.563965,4170.128418,4293.846191,4282.051270,4274.871582,4377.820313,4433.205078,4339.487305,4341.538574,0.000000,0.000000,13.000000,,,,0.000000,2.000000,2.000000,0.000000,2.000000,2.000000,2.000000,1.000000,2.000000,4.000000,4.000000,4.000000,4.000000,2.000000,4.000000,25.000000,,,,,,,,,,,,,,,,,,,,,,,,,,,,
1732081601.756621,1732081601.758048,38.000000,0.000000,4284.358887,4281.025879,4279.487305,4295.641113,4266.538574,4271.153809,4168.077148,4295.641113,4281.538574,4276.025879,4378.333496,4439.615234,4340.769043,4346.025879,0.000000,0.000000,13.000000,,,,0.000000,2.000000,2.000000,0.000000,2.000000,2.000000,2.000000,1.000000,2.000000,4.000000,4.000000,4.000000,4.000000,2.000000,4.000000,25.000000,,,,,,,,,,,,,,,,,,,,,,,,,,,,
1732081601.764429,1732081601.765856,39.000000,0.000000,4294.615234,4278.333496,4276.922852,4295.641113,4259.615234,4264.487305,4165.384766,4290.128418,4282.179688,4274.487305,4382.307617,4445.128418,4348.846191,4350.000000,0.000000,0.000000,13.000000,,,,0.000000,2.000000,2.000000,0.000000,2.000000,2.000000,2.000000,1.000000,2.000000,4.000000,4.000000,4.000000,4.000000,2.000000,4.000000,25.000000,,,,,,,,,,,,,,,,,,,,,,,,,,,,
1732081601.772238,1732081601.773764,40.000000,0.000000,4304.871582,4283.077148,4280.128418,4301.922852,4260.000000,4265.897461,4167.436035,4285.000000,4281.922852,4277.179688,4389.743652,4445.641113,4355.641113,4357.820313,0.000000,0.000000,13.000000,,,,0.000000,2.000000,2.000000,0.000000,2.000000,2.000000,2.000000,1.000000,2.000000,4.000000,4.000000,4.000000,4.000000,2.000000,4.000000,25.000000,,,,,,,,,,,,,,,,,10.000000,0.000000,0.622946,0.403503,-0.593872,0.310547,0.961543,0.161152,-0.046881,-76.093811,63.671383,27.613005
1732081601.780046,1732081601.781573,41.000000,0.000000,4309.102539,4287.820313,4283.333496,4306.410156,4258.461426,4264.230957,4168.333496,4286.922852,4280.897461,4276.025879,4387.307617,4445.641113,4352.948730,4360.000000,0.000000,0.000000,13.000000,,,,0.000000,2.000000,2.000000,0.000000,2.000000,2.000000,2.000000,1.000000,2.000000,4.000000,4.000000,4.000000,4.000000,2.000000,4.000000,25.000000,,,,,,,,,,,,,,,,,,,,,,,,,,,,
1732081601.787854,1732081601.789581,42.000000,0.000000,4316.538574,4291.153809,4281.410156,4301.538574,4250.769043,4259.102539,4165.512695,4289.487305,4279.230957,4268.461426,4379.487305,4442.948730,4352.051270,4356.153809,0.000000,0.000000,13.000000,,,,0.000000,2.000000,2.000000,0.000000,2.000000,2.000000,2.000000,1.000000,2.000000,4.000000,4.000000,4.000000,4.000000,2.000000,4.000000,25.000000,,,,,,,,,,,,,,,,,,,,,,,,,,,,
1732081601.795662,1732081601.797389,43.000000,0.000000,4326.794922,4290.128418,4280.384766,4297.948730,4247.179688,4261.922852,4163.461426,4286.666504,4277.820313,4267.563965,4386.025879,4441.538574,4358.077148,4360.384766,0.000000,0.000000,13.000000,,,,0.000000,2.000000,2.000000,0.000000,2.000000,2.000000,2.000000,1.000000,2.000000,4.000000,4.000000,4.000000,4.000000,2.000000,4.000000,25.000000,,,,,,,,,,,,,,,,,,,,,,,,,,,,
1732081601.803470,1732081601.805297,44.000000,0.000000,4330.769043,4286.538574,4284.871582,4298.717773,4249.358887,4262.692383,4162.051270,4282.179688,4278.205078,4271.922852,4396.922852,4446.025879,4366.410156,4369.230957,0.000000,0.000000,13.000000,,,,0.000000,2.000000,2.000000,0.000000,2.000000,2.000000,2.000000,1.000000,2.000000,4.000000,4.000000,4.000000,4.000000,2.000000,4.000000,25.000000,,,,,,,,,,,,,,,,,11.000000,0.000000,0.623236,0.405579,-0.592407,0.310059,0.944940,0.186546,-0.043462,-76.142654,63.648819,27.641533
1732081601.811279,1732081601.813105,45.000000,0.000000,4335.384766,4286.410156,4285.256348,4294.487305,4248.589844,4256.538574,4158.846191,4281.410156,4276.538574,4270.256348,4393.717773,4444.487305,4365.384766,4370.769043,0.000000,0.000000,13.000000,,,,0.000000,2.000000,2.000000,0.000000,2.000000,2.000000,2.000000,1.000000,2.000000,4.000000,4.000000,4.000000,4.000000,2.000000,4.000000,25.000000,,,,,,,,,,,,,,,,,,,,,,,,,,,,
1732081601.819087,1732081601.821113,46.000000,0.000000,4344.871582,4289.230957,4282.436035,4296.153809,4243.333496,4256.153809,4161.538574,4283.077148,4272.948730,4261.410156,4386.282227,4434.358887,4358.461426,4368.077148,0.000000,0.000000,13.000000,,,,0.000000,2.000000,2.000000,0.000000,2.000000,2.000000,2.000000,1.000000,2.000000,4.000000,4.000000,4.000000,4.000000,2.000000,4.000000,25.000000,,,,,,,,,,,,,,,,,,,,,,,,,,,,
1732081601.826895,1732081601.828921,47.000000,0.000000,4352.051270,4289.102539,4280.000000,4302.436035,4238.974121,4256.410156,4160.256348,4282.051270,4271.025879,4259.102539,4389.615234,4436.410156,4364.615234,4372.692383,0.000000,0.000000,13.000000,,,,0.000000,2.000000,2.000000,0.000000,2.000000,2.000000,2.000000,1.000000,2.000000,4.000000,4.000000,4.000000,4.000000,2.000000,4.000000,25.000000,,,,,,,,,,,,,,,,,,,,,,,,,,,,
1732081601.834704,1732081601.836829,48.000000,0.000000,4357.051270,4288.205078,4282.563965,4300.384766,4238.333496,4254.743652,4158.846191,4280.897461,4273.974121,4263.846191,4393.717773,4449.230957,4373.589844,4383.846191,0.000000,0.000000,13.000000,,,,0.000000,2.000000,2.000000,0.000000,2.000000,2.000000,2.000000,1.000000,2.000000,4.000000,4.000000,4.000000,4.000000,2.000000,4.000000,25.000000,,,,,,,,,,,,,,,,,12.000000,0.000000,0.623397,0.406860,-0.591614,0.309570,0.962520,0.179221,-0.047369,-76.337219,63.778877,27.931309
1732081601.842512,1732081601.844638,49.000000,0.000000,4368.974121,4291.025879,4284.615234,4305.000000,4235.128418,4256.794922,4160.384766,4285.128418,4275.384766,4265.000000,4394.615234,4452.436035,4370.128418,4393.589844,0.000000,0.000000,13.000000,,,,0.000000,2.000000,2.000000,0.000000,2.000000,2.000000,2.000000,1.000000,2.000000,4.000000,4.000000,4.000000,4.000000,2.000000,4.000000,25.000000,,,,,,,,,,,,,,,,,,,,,,,,,,,,
1732081601.850320,1732081601.852246,50.000000,0.000000,4377.563965,4293.589844,4287.692383,4314.487305,4237.948730,4255.384766,4161.153809,4287.563965,4271.794922,4259.743652,4394.358887,4450.384766,4367.179688,4397.692383,0.000000,0.000000,13.000000,,,,0.000000,2.000000,2.000000,0.000000,2.000000,2.000000,2.000000,1.000000,2.000000,4.000000,4.000000,4.000000,4.000000,2.000000,4.000000,25.000000,,,,,,,,,,,,,,,,,,,,,,,,,,,,
1732081601.858128,1732081601.860054,51.000000,0.000000,4377.948730,4292.692383,4286.794922,4311.410156,4247.692383,4248.974121,4156.922852,4283.717773,4270.641113,4258.717773,4394.102539,4452.307617,4375.897461,4399.487305,0.000000,0.000000,13.000000,,,,0.000000,2.000000,2.000000,0.000000,2.000000,2.000000,2.000000,1.000000,2.000000,4.000000,4.000000,4.000000,4.000000,2.000000,4.000000,25.000000,,,,,,,,,,,,,,,,,,,,,,,,,,,,
1732081601.865937,1732081601.867763,52.000000,0.000000,4382.563965,4290.641113,4286.282227,4306.153809,4239.102539,4248.333496,4159.230957,4284.743652,4272.179688,4260.384766,4395.384766,4457.820313,4376.410156,4402.820313,0.000000,0.000000,13.000000,,,,0.000000,2.000000,2.000000,0.000000,2.000000,2.000000,2.000000,1.000000,2.000000,4.000000,4.000000,4.000000,4.000000,2.000000,4.000000,25.000000,,,,,,,,,,,,,,,,,13.000000,0.000000,0.623166,0.411377,-0.589111,0.308838,0.978147,0.133317,-0.042974,-76.146477,64.042557,27.596027
1732081601.873745,1732081601.875571,53.000000,0.000000,4391.794922,4290.512695,4287.436035,4310.384766,4224.743652,4252.051270,4162.563965,4292.563965,4275.128418,4259.358887,4395.128418,4459.615234,4368.974121,4405.641113,0.000000,0.000000,13.000000,,,,0.000000,2.000000,2.000000,0.000000,2.000000,2.000000,2.000000,1.000000,2.000000,4.000000,4.000000,4.000000,4.000000,2.000000,4.000000,25.000000,,,,,,,,,,,,,,,,,,,,,,,,,,,,
1732081601.881553,1732081601.883579,54.000000,0.000000,4392.820313,4289.615234,4287.436035,4311.153809,4232.563965,4251.282227,4161.153809,4289.743652,4272.563965,4259.230957,4394.615234,4458.205078,4373.974121,4407.307617,0.000000,0.000000,13.000000,,,,0.000000,2.000000,2.000000,0.000000,2.000000,2.000000,2.000000,1.000000,2.000000,4.000000,4.000000,4.000000,4.000000,2.000000,4.000000,25.000000,,,,,,,,,,,,,,,,,,,,,,,,,,,,
1732081601.889361,1732081601.891387,55.000000,0.000000,4388.846191,4290.000000,4285.512695,4310.641113,4234.871582,4248.205078,4161.025879,4284.615234,4270.769043,4258.589844,4398.589844,4459.615234,4382.051270,4409.358887,0.000000,0.000000,13.000000,,,,0.000000,2.000000,2.000000,0.000000,2.000000,2.000000,2.000000,1.000000,2.000000,4.000000,4.000000,4.000000,4.000000,2.000000,4.000000,25.000000,,,,,,,,,,,,,,,,,,,,,,,,,,,,
1732081601.897170,1732081601.899095,56.000000,0.000000,4390.769043,4293.461426,4288.205078,4315.128418,4227.820313,4248.333496,4157.436035,4286.666504,4276.025879,4261.922852,4400.512695,4457.307617,4381.538574,4408.077148,0.000000,0.000000,13.000000,,,,0.000000,2.000000,2.000000,0.000000,2.000000,2.000000,2.000000,1.000000,2.000000,4.000000,4.000000,4.000000,4.000000,2.000000,4.000000,25.000000,,,,,,,,,,,,,,,,,14.000000,0.000000,0.621219,0.413818,-0.589233,0.309265,0.988890,0.102063,-0.042486,-76.063644,64.062805,27.284449
1732081601.904978,1732081601.906904,57.000000,0.000000,4392.436035,4288.205078,4292.179688,4313.205078,4238.974121,4246.282227,4155.641113,4283.974121,4276.282227,4263.974121,4399.871582,4456.666504,4380.000000,4407.179688,0.000000,0.000000,13.000000,,,,0.000000,2.000000,2.000000,0.000000,2.000000,2.000000,2.000000,1.000000,2.000000,4.000000,4.000000,4.000000,4.000000,2.000000,4.000000,25.000000,,,,,,,,,,,,,,,,,,,,,,,,,,,,
1732081601.912786,1732081601.914512,58.000000,0.000000,4390.000000,4280.769043,4289.102539,4307.051270,4242.179688,4248.717773,4161.025879,4281.153809,4277.179688,4261.538574,4405.000000,4461.282227,4383.846191,4412.563965,0.000000,0.000000,13.000000,,,,0.000000,2.000000,2.000000,0.000000,2.000000,2.000000,2.000000,1.000000,2.000000,4.000000,4.000000,4.000000,4.000000,2.000000,4.000000,25.000000,,,,,,,,,,,,,,,,,,,,,,,,,,,,
1732081601.920594,1732081601.922320,59.000000,0.000000,4387.563965,4285.769043,4291.538574,4307.051270,4229.743652,4253.077148,4166.410156,4290.000000,4280.769043,4261.922852,4406.538574,4465.128418,4382.563965,4416.153809,0.000000,0.000000,13.000000,,,,0.000000,2.000000,2.000000,0.000000,2.000000,2.000000,2.000000,1.000000,2.000000,4.000000,4.000000,4.000000,4.000000,2.000000,4.000000,25.000000,,,,,,,,,,,,,,,,,,,,,,,,,,,,
1732081601.928403,1732081601.930028,60.000000,0.000000,4391.025879,4293.974121,4293.974121,4312.436035,4233.205078,4250.769043,4160.512695,4295.897461,4281.282227,4267.307617,4405.128418,4460.000000,4380.384766,4413.589844,0.000000,0.000000,13.000000,,,,0.000000,2.000000,2.000000,0.000000,2.000000,2.000000,2.000000,1.000000,2.000000,4.000000,4.000000,4.000000,4.000000,2.000000,4.000000,25.000000,,,,,,,,,,,,,,,,,15.000000,0.000000,0.620348,0.412354,-0.590759,0.310059,0.954706,0.100110,-0.046881,-75.928223,63.952538,27.150404
1732081601.936211,1732081601.937837,61.000000,0.000000,4397.307617,4293.717773,4293.717773,4312.692383,4242.307617,4250.128418,4158.717773,4288.589844,4279.743652,4268.205078,4409.615234,4456.794922,4382.692383,4416.153809,0.000000,0.000000,13.000000,,,,0.000000,2.000000,2.000000,0.000000,2.000000,2.000000,2.000000,1.000000,2.000000,4.000000,4.000000,4.000000,4.000000,2.000000,4.000000,25.000000,,,,,,,,,,,,,,,,,,,,,,,,,,,,
1732081601.944019,1732081601.945445,62.000000,0.000000,4396.922852,4291.666504,4292.948730,4309.615234,4239.102539,4253.717773,4160.128418,4286.666504,4281.538574,4265.512695,4411.282227,4462.820313,4385.641113,4421.922852,0.000000,0.000000,13.000000,,,,0.000000,2.000000,2.000000,0.000000,2.000000,2.000000,2.000000,1.000000,2.000000,4.000000,4.000000,4.000000,4.000000,2.000000,4.000000,25.000000,,,,,,,,,,,,,,,,,,,,,,,,,,,,
1732081601.951827,1732081601.953253,63.000000,0.000000,4392.179688,4289.743652,4297.307617,4306.922852,4239.615234,4255.384766,4162.051270,4293.077148,4283.846191,4266.025879,4411.025879,4468.846191,4385.256348,4420.769043,0.000000,0.000000,13.000000,,,,0.000000,2.000000,2.000000,0.000000,2.000000,2.000000,2.000000,1.000000,2.000000,4.000000,4.000000,4.000000,4.000000,2.000000,4.000000,25.000000,,,,,,,,,,,,,,,,,,,,,,,,,,,,
1732081601.959636,1732081601.961161,64.000000,0.000000,4391.794922,4290.897461,4297.436035,4305.384766,4245.000000,4254.743652,4162.307617,4295.256348,4286.282227,4269.102539,4416.025879,4472.692383,4381.282227,4420.641113,15.000000,0.000000,13.000000,,,,0.000000,2.000000,2.000000,0.000000,2.000000,2.000000,2.000000,1.000000,2.000000,4.000000,4.000000,4.000000,4.000000,2.000000,4.000000,25.000000,,,,,,,,,,,,,,,,,16.000000,0.000000,0.620049,0.411255,-0.591614,0.310486,0.958613,0.117202,-0.057136,-75.783524,63.961555,27.198494
1732081601.967444,1732081601.968970,65.000000,0.000000,4392.563965,4293.846191,4294.871582,4308.846191,4239.871582,4255.256348,4162.051270,4294.230957,4289.743652,4270.000000,4420.000000,4476.666504,4381.666504,4427.436035,1279.000000,0.000000,13.000000,,,,0.000000,2.000000,2.000000,0.000000,2.000000,2.000000,2.000000,1.000000,2.000000,4.000000,4.000000,4.000000,4.000000,2.000000,4.000000,25.000000,,,,,,,,,,,,,,,,,,,,,,,,,,,,
1732081601.975252,1732081601.976978,66.000000,0.000000,4392.563965,4296.794922,4295.769043,4316.282227,4242.563965,4252.820313,4159.230957,4294.743652,4288.205078,4267.563965,4418.461426,4473.974121,4384.871582,4429.743652,1202.000000,0.000000,13.000000,,,,0.000000,2.000000,2.000000,0.000000,2.000000,2.000000,2.000000,1.000000,2.000000,4.000000,4.000000,4.000000,4.000000,2.000000,4.000000,25.000000,,,,,,,,,,,,,,,,,,,,,,,,,,,,
1732081601.983060,1732081601.984786,67.000000,0.000000,4391.025879,4297.051270,4297.948730,4316.666504,4255.769043,4249.871582,4158.461426,4292.436035,4287.179688,4265.641113,4414.743652,4460.897461,4381.794922,4420.897461,1163.000000,0.000000,13.000000,,,,0.000000,2.000000,2.000000,0.000000,2.000000,2.000000,2.000000,1.000000,2.000000,4.000000,4.000000,4.000000,4.000000,2.000000,4.000000,25.000000,,,,,,,,,,,,,,,,,,,,,,,,,,,,
1732081601.990869,1732081601.992694,68.000000,0.000000,4389.102539,4295.000000,4297.179688,4311.794922,4255.897461,4255.000000,4161.794922,4289.358887,4288.205078,4265.384766,4411.410156,4452.436035,4377.820313,4417.563965,1202.000000,0.000000,13.000000,,,,0.000000,2.000000,2.000000,0.000000,2.000000,2.000000,2.000000,1.000000,2.000000,4.000000,4.000000,4.000000,4.000000,2.000000,4.000000,25.000000,,,,,,,,,,,,,,,,,17.000000,0.000000,0.619564,0.407471,-0.593933,0.312012,0.957636,0.136247,-0.055671,-75.631325,63.870525,26.910780
1732081601.998677,1732081602.000502,69.000000,0.000000,4388.205078,4293.846191,4294.358887,4313.717773,4243.205078,4260.897461,4166.538574,4293.077148,4285.384766,4265.769043,4413.974121,4461.410156,4381.538574,4423.333496,1075.000000,0.000000,13.000000,,,,0.000000,2.000000,2.000000,0.000000,2.000000,2.000000,2.000000,1.000000,2.000000,4.000000,4.000000,4.000000,4.000000,2.000000,4.000000,25.000000,,,,,,,,,,,,,,,,,,,,,,,,,,,,
1732081602.006485,1732081602.008111,70.000000,0.000000,4385.000000,4295.897461,4295.256348,4317.692383,4241.025879,4261.410156,4166.666504,4296.538574,4287.051270,4265.384766,4417.307617,4467.051270,4383.205078,4421.410156,235.000000,0.000000,13.000000,,,,0.000000,2.000000,2.000000,0.000000,2.000000,2.000000,2.000000,1.000000,2.000000,4.000000,4.000000,4.000000,4.000000,2.000000,4.000000,25.000000,,,,,,,,,,,,,,,,,,,,,,,,,,,,
1732081602.014293,1732081602.015919,71.000000,0.000000,4381.666504,4299.230957,4295.128418,4314.102539,4248.717773,4260.641113,4160.000000,4293.846191,4291.025879,4265.256348,4413.205078,4461.153809,4378.974121,4414.871582,1197.000000,0.000000,13.000000,,,,0.000000,2.000000,2.000000,0.000000,2.000000,2.000000,2.000000,1.000000,2.000000,4.000000,4.000000,4.000000,4.000000,2.000000,4.000000,25.000000,,,,,,,,,,,,,,,,,,,,,,,,,,,,
1732081602.022102,1732081602.023627,72.000000,0.000000,4380.641113,4296.282227,4292.692383,4308.205078,4249.615234,4262.563965,4160.128418,4292.948730,4289.487305,4267.307617,4412.692383,4466.025879,4379.615234,4415.512695,1346.000000,0.000000,13.000000,,,,0.000000,2.000000,2.000000,0.000000,2.000000,2.000000,2.000000,1.000000,2.000000,4.000000,4.000000,4.000000,4.000000,2.000000,4.000000,25.000000,,,,,,,,,,,,,,,,,18.000000,0.000000,0.619223,0.405945,-0.594788,0.313049,0.968868,0.116225,-0.055671,-75.736374,63.880127,27.122732
1732081602.029910,1732081602.031435,73.000000,0.000000,4379.358887,4293.717773,4292.948730,4309.487305,4248.333496,4265.897461,4166.410156,4296.794922,4287.563965,4270.000000,4418.589844,4477.563965,4380.897461,4421.538574,1471.000000,0.000000,13.000000,,,,0.000000,2.000000,2.000000,0.000000,2.000000,2.000000,2.000000,1.000000,2.000000,4.000000,4.000000,4.000000,4.000000,2.000000,4.000000,25.000000,,,,,,,,,,,,,,,,,,,,,,,,,,,,
1732081602.037718,1732081602.039443,74.000000,0.000000,4379.615234,4297.179688,4299.743652,4313.589844,4244.358887,4265.128418,4166.282227,4297.051270,4292.179688,4273.461426,4421.282227,4472.179688,4378.205078,4426.025879,1351.000000,0.000000,13.000000,,,,0.000000,2.000000,2.000000,0.000000,2.000000,2.000000,2.000000,1.000000,2.000000,4.000000,4.000000,4.000000,4.000000,2.000000,4.000000,25.000000,,,,,,,,,,,,,,,,,,,,,,,,,,,,
1732081602.045526,1732081602.047252,75.000000,0.000000,4383.461426,4300.384766,4298.846191,4313.846191,4253.974121,4262.307617,4160.128418,4295.128418,4295.384766,4276.282227,4420.000000,4461.922852,4378.461426,4424.871582,1487.000000,0.000000,13.000000,,,,0.000000,2.000000,2.000000,0.000000,2.000000,2.000000,2.000000,1.000000,2.000000,4.000000,4.000000,4.000000,4.000000,2.000000,4.000000,25.000000,,,,,,,,,,,,,,,,,,,,,,,,,,,,
1732081602.053335,1732081602.055160,76.000000,0.000000,4382.563965,4299.615234,4295.641113,4312.179688,4269.358887,4259.743652,4161.794922,4294.615234,4290.128418,4274.615234,4418.461426,4466.153809,4382.692383,4420.641113,1721.000000,0.000000,13.000000,,,,0.000000,2.000000,2.000000,0.000000,2.000000,2.000000,2.000000,1.000000,2.000000,4.000000,4.000000,4.000000,4.000000,2.000000,4.000000,25.000000,,,,,,,,,,,,,,,,,19.000000,0.000000,0.619223,0.405945,-0.594788,0.313049,0.967403,0.114272,-0.042974,-75.866463,63.887901,27.099413
1732081602.061143,1732081602.062968,77.000000,0.000000,4378.333496,4297.179688,4297.692383,4311.025879,4261.922852,4262.051270,4167.179688,4296.666504,4290.769043,4273.717773,4419.615234,4476.153809,4381.282227,4424.102539,1676.000000,0.000000,13.000000,,,,0.000000,2.000000,2.000000,0.000000,2.000000,2.000000,2.000000,1.000000,2.000000,4.000000,4.000000,4.000000,4.000000,2.000000,4.000000,25.000000,,,,,,,,,,,,,,,,,,,,,,,,,,,,
1732081602.068951,1732081602.070976,78.000000,0.000000,4376.922852,4297.436035,4301.538574,4313.974121,4251.410156,4264.871582,4171.025879,4297.820313,4296.153809,4276.794922,4422.948730,4475.256348,4375.128418,4425.256348,1351.000000,0.000000,13.000000,,,,0.000000,2.000000,2.000000,0.000000,2.000000,2.000000,2.000000,1.000000,2.000000,4.000000,4.000000,4.000000,4.000000,2.000000,4.000000,25.000000,1.000000,25.000000,2.000000,2.000000,0.000000,2.000000,2.000000,2.000000,1.000000,2.000000,3.000000,4.000000,4.000000,4.000000,2.000000,3.000000,,,,,,,,,,,,
1732081602.076759,1732081602.078784,79.000000,0.000000,4377.179688,4301.153809,4298.717773,4318.333496,4258.717773,4266.153809,4169.871582,4296.153809,4296.538574,4276.922852,4423.974121,4464.102539,4373.333496,4417.948730,1487.000000,0.000000,13.000000,,,,0.000000,2.000000,2.000000,0.000000,2.000000,2.000000,2.000000,1.000000,2.000000,4.000000,4.000000,4.000000,4.000000,2.000000,4.000000,25.000000,,,,,,,,,,,,,,,,,,,,,,,,,,,,
1732081602.084568,1732081602.086692,80.000000,0.000000,4371.794922,4302.051270,4297.820313,4313.974121,4270.384766,4266.794922,4167.307617,4296.025879,4292.051270,4273.461426,4420.384766,4462.948730,4376.666504,4415.000000,1721.000000,0.000000,13.000000,,,,0.000000,2.000000,2.000000,0.000000,2.000000,2.000000,2.000000,1.000000,2.000000,4.000000,4.000000,4.000000,4.000000,2.000000,4.000000,25.000000,,,,,,,,,,,,,,,,,20.000000,0.000000,0.618835,0.403809,-0.595581,0.315063,0.982053,0.096203,-0.048834,-75.970169,63.995869,26.832191
1732081602.092376,1732081602.094500,81.000000,0.000000,4363.333496,4296.282227,4298.974121,4306.538574,4273.333496,4264.615234,4166.410156,4294.487305,4292.051270,4275.000000,4418.077148,4474.487305,4376.922852,4416.922852,1676.000000,0.000000,13.000000,,,,0.000000,2.000000,2.000000,0.000000,2.000000,2.000000,2.000000,1.000000,2.000000,4.000000,4.000000,4.000000,4.000000,2.000000,4.000000,25.000000,,,,,,,,,,,,,,,,,,,,,,,,,,,,
1732081602.100184,1732081602.102109,82.000000,0.000000,4360.897461,4292.179688,4301.025879,4307.436035,4269.102539,4266.410156,4170.897461,4293.846191,4294.230957,4277.820313,4420.641113,4478.589844,4370.641113,4415.000000,1351.000000,0.000000,13.000000,,,,0.000000,2.000000,2.000000,0.000000,2.000000,2.000000,2.000000,1.000000,2.000000,4.000000,4.000000,4.000000,4.000000,2.000000,4.000000,25.000000,,,,,,,,,,,,,,,,,,,,,,,,,,,,
1732081602.107993,1732081602.109916,83.000000,0.000000,4361.794922,4296.153809,4301.538574,4312.820313,4258.846191,4271.282227,4172.692383,4298.333496,4295.641113,4277.948730,4420.769043,4474.102539,4366.666504,4412.692383,1487.000000,0.000000,13.000000,,,,0.000000,2.000000,2.000000,0.000000,2.000000,2.000000,2.000000,1.000000,2.000000,4.000000,4.000000,4.000000,4.000000,2.000000,4.000000,25.000000,,,,,,,,,,,,,,,,,,,,,,,,,,,,
1732081602.115801,1732081602.117825,84.000000,0.000000,4359.743652,4300.128418,4299.230957,4313.974121,4261.538574,4269.230957,4171.666504,4300.000000,4298.846191,4278.974121,4417.179688,4474.230957,4367.436035,4413.589844,1721.000000,0.000000,13.000000,,,,0.000000,2.000000,2.000000,0.000000,2.000000,2.000000,2.000000,1.000000,2.000000,4.000000,4.000000,4.000000,4.000000,2.000000,4.000000,25.000000,,,,,,,,,,,,,,,,,21.000000,0.000000,0.618737,0.400513,-0.596741,0.317261,0.990355,0.026370,-0.014650,-76.070831,63.766655,26.849075
1732081602.123609,1732081602.125633,85.000000,0.000000,4359.102539,4300.512695,4300.000000,4317.692383,4275.512695,4267.436035,4171.666504,4296.794922,4300.512695,4283.846191,4418.717773,4476.922852,4370.000000,4412.179688,1676.000000,0.000000,13.000000,,,,0.000000,2.000000,2.000000,0.000000,2.000000,2.000000,2.000000,1.000000,2.000000,4.000000,4.000000,4.000000,4.000000,2.000000,4.000000,25.000000,,,,,,,,,,,,,,,,,,,,,,,,,,,,
1732081602.131417,1732081602.133641,86.000000,0.000000,4363.974121,4300.769043,4299.743652,4320.641113,4272.436035,4270.256348,4170.641113,4296.410156,4299.871582,4288.717773,4429.230957,4480.769043,4373.205078,4414.743652,1351.000000,0.000000,13.000000,,,,0.000000,2.000000,2.000000,0.000000,2.000000,2.000000,2.000000,1.000000,2.000000,4.000000,4.000000,4.000000,4.000000,2.000000,4.000000,25.000000,,,,,,,,,,,,,,,,,,,,,,,,,,,,
1732081602.139225,1732081602.141449,87.000000,0.000000,4365.769043,4301.538574,4296.410156,4313.333496,4264.743652,4266.794922,4166.922852,4295.512695,4297.948730,4285.000000,4432.179688,4484.102539,4374.358887,4416.666504,1487.000000,0.000000,13.000000,,,,0.000000,2.000000,2.000000,0.000000,2.000000,2.000000,2.000000,1.000000,2.000000,4.000000,4.000000,4.000000,4.000000,2.000000,4.000000,25.000000,,,,,,,,,,,,,,,,,,,,,,,,,,,,
1732081602.147034,1732081602.149357,88.000000,0.000000,4360.512695,4299.615234,4294.615234,4309.358887,4267.563965,4267.179688,4166.025879,4293.717773,4297.051270,4281.410156,4429.230957,4478.461426,4371.538574,4412.692383,1721.000000,0.000000,13.000000,,,,0.000000,2.000000,2.000000,0.000000,2.000000,2.000000,2.000000,1.000000,2.000000,4.000000,4.000000,4.000000,4.000000,2.000000,4.000000,25.000000,,,,,,,,,,,,,,,,,22.000000,0.000000,0.619994,0.394714,-0.598938,0.317932,0.974240,0.050787,-0.012209,-76.219040,63.397655,27.179417
1732081602.154842,1732081602.157165,89.000000,0.000000,4358.205078,4295.897461,4296.282227,4312.436035,4278.461426,4278.333496,4172.051270,4298.974121,4298.717773,4285.512695,4429.358887,4473.589844,4368.461426,4411.666504,1676.000000,0.000000,13.000000,,,,0.000000,2.000000,2.000000,0.000000,2.000000,2.000000,2.000000,1.000000,2.000000,4.000000,4.000000,4.000000,4.000000,2.000000,4.000000,25.000000,,,,,,,,,,,,,,,,,,,,,,,,,,,,
1732081602.162650,1732081602.164974,90.000000,0.000000,4359.871582,4296.794922,4296.282227,4312.436035,4295.128418,4278.205078,4173.589844,4302.948730,4304.102539,4289.871582,4430.384766,4475.641113,4369.358887,4412.692383,1351.000000,0.000000,13.000000,,,,0.000000,2.000000,2.000000,0.000000,2.000000,2.000000,2.000000,1.000000,2.000000,4.000000,4.000000,4.000000,4.000000,2.000000,4.000000,25.000000,,,,,,,,,,,,,,,,,,,,,,,,,,,,
1732081602.170458,1732081602.172782,91.000000,0.000000,4357.179688,4299.871582,4296.282227,4310.897461,4296.666504,4271.538574,4171.666504,4302.179688,4311.410156,4292.051270,4429.871582,4477.820313,4369.871582,4408.717773,1487.000000,0.000000,13.000000,,,,0.000000,2.000000,2.000000,0.000000,2.000000,2.000000,2.000000,1.000000,2.000000,4.000000,4.000000,4.000000,4.000000,2.000000,4.000000,25.000000,,,,,,,,,,,,,,,,,,,,,,,,,,,,
1732081602.178267,1732081602.180690,92.000000,0.000000,4356.025879,4300.897461,4294.358887,4314.358887,4280.256348,4277.051270,4172.563965,4301.538574,4309.487305,4292.948730,4429.615234,4477.436035,4367.948730,4405.000000,1721.000000,0.000000,13.000000,,,,0.000000,2.000000,2.000000,0.000000,2.000000,2.000000,2.000000,1.000000,2.000000,4.000000,4.000000,4.000000,4.000000,2.000000,4.000000,25.000000,,,,,,,,,,,,,,,,,23.000000,0.000000,0.620641,0.392822,-0.599609,0.317749,0.974240,0.050787,-0.012209,-76.145760,63.227100,27.398661
1732081602.186075,1732081602.188498,93.000000,0.000000,4356.282227,4304.871582,4294.615234,4318.589844,4279.743652,4283.077148,4177.820313,4303.205078,4302.563965,4289.743652,4425.000000,4474.871582,4364.358887,4406.153809,1676.000000,0.000000,13.000000,,,,0.000000,2.000000,2.000000,0.000000,2.000000,2.000000,2.000000,1.000000,2.000000,4.000000,4.000000,4.000000,4.000000,2.000000,4.000000,25.000000,,,,,,,,,,,,,,,,,,,,,,,,,,,,
1732081602.193883,1732081602.196506,94.000000,0.000000,4354.102539,4306.410156,4296.794922,4319.230957,4292.692383,4281.666504,4178.333496,4301.538574,4302.051270,4287.948730,4424.102539,4476.025879,4363.589844,4405.897461,1351.000000,0.000000,13.000000,,,,0.000000,2.000000,2.000000,0.000000,2.000000,2.000000,2.000000,1.000000,2.000000,4.000000,4.000000,4.000000,4.000000,2.000000,4.000000,25.000000,,,,,,,,,,,,,,,,,,,,,,,,,,,,
1732081602.201692,1732081602.204314,95.000000,0.000000,4354.358887,4303.205078,4298.589844,4319.487305,4286.794922,4280.512695,4177.436035,4298.717773,4303.846191,4290.128418,4429.743652,4486.153809,4366.282227,4404.230957,1487.000000,0.000000,13.000000,,,,0.000000,2.000000,2.000000,0.000000,2.000000,2.000000,2.000000,1.000000,2.000000,4.000000,4.000000,4.000000,4.000000,2.000000,4.000000,25.000000,,,,,,,,,,,,,,,,,,,,,,,,,,,,
1732081602.209500,1732081602.212222,96.000000,0.000000,4355.128418,4303.205078,4298.333496,4320.769043,4289.358887,4280.641113,4173.717773,4303.974121,4304.487305,4292.051270,4430.384766,4488.333496,4367.563965,4404.743652,1721.000000,0.000000,13.000000,,,,0.000000,2.000000,2.000000,0.000000,2.000000,2.000000,2.000000,1.000000,2.000000,4.000000,4.000000,4.000000,4.000000,2.000000,4.000000,25.000000,,,,,,,,,,,,,,,,,24.000000,0.000000,0.622919,0.388245,-0.601257,0.315796,0.968380,0.132340,-0.022952,-76.258064,62.898952,27.646250
1732081602.217308,1732081602.220031,97.000000,0.000000,4345.128418,4305.384766,4297.563965,4318.846191,4305.641113,4279.487305,4171.794922,4311.794922,4307.948730,4293.333496,4427.436035,4475.384766,4363.974121,4400.384766,1676.000000,0.000000,13.000000,,,,0.000000,2.000000,2.000000,0.000000,2.000000,2.000000,2.000000,1.000000,2.000000,4.000000,4.000000,4.000000,4.000000,2.000000,4.000000,25.000000,,,,,,,,,,,,,,,,,,,,,,,,,,,,
1732081602.225116,1732081602.227639,98.000000,0.000000,4336.538574,4305.256348,4294.743652,4313.846191,4298.589844,4280.512695,4176.025879,4311.538574,4311.922852,4297.051270,4429.102539,4471.666504,4361.794922,4394.358887,1351.000000,0.000000,13.000000,,,,0.000000,2.000000,2.000000,0.000000,2.000000,2.000000,2.000000,1.000000,2.000000,4.000000,4.000000,4.000000,4.000000,2.000000,4.000000,25.000000,,,,,,,,,,,,,,,,,,,,,,,,,,,,
1732081602.232925,1732081602.235447,99.000000,0.000000,4340.769043,4303.846191,4295.128418,4313.333496,4289.102539,4284.615234,4182.179688,4308.077148,4312.307617,4299.230957,4431.666504,4483.461426,4364.615234,4394.487305,1487.000000,0.000000,13.000000,,,,0.000000,2.000000,2.000000,0.000000,2.000000,2.000000,2.000000,1.000000,2.000000,4.000000,4.000000,4.000000,4.000000,2.000000,4.000000,25.000000,,,,,,,,,,,,,,,,,,,,,,,,,,,,
1732081602.240733,1732081602.243156,100.000000,0.000000,4347.436035,4306.538574,4298.077148,4318.717773,4299.615234,4293.205078,4185.000000,4312.179688,4313.717773,4296.922852,4434.230957,4489.358887,4365.897461,4401.410156,1721.000000,0.000000,13.000000,,,,0.000000,2.000000,2.000000,0.000000,2.000000,2.000000,2.000000,1.000000,2.000000,4.000000,4.000000,4.000000,4.000000,2.000000,4.000000,25.000000,,,,,,,,,,,,,,,,,25.000000,0.000000,0.623597,0.387756,-0.601318,0.314941,0.984984,0.129410,-0.041021,-76.392365,62.759819,27.815128
1732081602.248541,1732081602.250964,101.000000,0.000000,4349.615234,4311.153809,4298.589844,4319.487305,4307.820313,4298.717773,4186.282227,4316.794922,4312.692383,4292.820313,4435.897461,4488.589844,4366.794922,4408.333496,1676.000000,0.000000,13.000000,,,,0.000000,2.000000,2.000000,0.000000,2.000000,2.000000,2.000000,1.000000,2.000000,4.000000,4.000000,4.000000,4.000000,2.000000,4.000000,25.000000,,,,,,,,,,,,,,,,,,,,,,,,,,,,
1732081602.256349,1732081602.258572,102.000000,0.000000,4347.436035,4313.333496,4297.563965,4320.769043,4303.077148,4295.769043,4186.025879,4318.077148,4311.025879,4292.436035,4435.769043,4491.538574,4365.512695,4408.205078,1351.000000,0.000000,13.000000,,,,0.000000,2.000000,2.000000,0.000000,2.000000,2.000000,2.000000,1.000000,2.000000,4.000000,4.000000,4.000000,4.000000,2.000000,4.000000,25.000000,,,,,,,,,,,,,,,,,,,,,,,,,,,,
1732081602.264157,1732081602.266380,103.000000,0.000000,4345.897461,4315.384766,4298.205078,4328.846191,4309.230957,4292.692383,4185.128418,4316.025879,4315.384766,4298.077148,4435.897461,4495.641113,4362.948730,4404.230957,1487.000000,0.000000,13.000000,,,,0.000000,2.000000,2.000000,0.000000,2.000000,2.000000,2.000000,1.000000,2.000000,4.000000,4.000000,4.000000,4.000000,2.000000,4.000000,25.000000,,,,,,,,,,,,,,,,,,,,,,,,,,,,
1732081602.271966,1732081602.274089,104.000000,0.000000,4352.948730,4322.820313,4298.589844,4332.948730,4320.128418,4294.871582,4184.615234,4311.025879,4314.487305,4300.128418,4436.922852,4499.743652,4369.743652,4405.000000,1721.000000,0.000000,13.000000,,,,0.000000,2.000000,2.000000,0.000000,2.000000,2.000000,2.000000,1.000000,2.000000,4.000000,4.000000,4.000000,4.000000,2.000000,4.000000,25.000000,,,,,,,,,,,,,,,,,26.000000,0.000000,0.623622,0.388000,-0.601135,0.314941,0.975705,0.145526,-0.028812,-76.327812,62.593784,27.846920
1732081602.279774,1732081602.281897,105.000000,0.000000,4359.743652,4330.384766,4299.102539,4330.641113,4309.871582,4296.666504,4182.820313,4311.410156,4313.461426,4298.077148,4441.538574,4505.128418,4377.436035,4414.615234,1676.000000,0.000000,13.000000,,,,0.000000,2.000000,2.000000,0.000000,2.000000,2.000000,2.000000,1.000000,2.000000,4.000000,4.000000,4.000000,4.000000,2.000000,4.000000,25.000000,,,,,,,,,,,,,,,,,,,,,,,,,,,,
1732081602.287582,1732081602.289905,106.000000,0.000000,4357.820313,4328.461426,4300.641113,4331.410156,4299.615234,4295.769043,4183.974121,4315.897461,4319.230957,4299.615234,4447.692383,4506.666504,4374.743652,4418.077148,1351.000000,0.000000,13.000000,,,,0.000000,2.000000,2.000000,0.000000,2.000000,2.000000,2.000000,1.000000,2.000000,4.000000,4.000000,4.000000,4.000000,2.000000,4.000000,25.000000,,,,,,,,,,,,,,,,,,,,,,,,,,,,
1732081602.295390,1732081602.297713,107.000000,0.000000,4355.000000,4325.897461,4301.794922,4334.487305,4309.615234,4299.230957,4186.794922,4320.512695,4323.846191,4305.000000,4445.641113,4504.615234,4373.717773,4412.948730,1487.000000,0.000000,13.000000,,,,0.000000,2.000000,2.000000,0.000000,2.000000,2.000000,2.000000,1.000000,2.000000,4.000000,4.000000,4.000000,4.000000,2.000000,4.000000,25.000000,,,,,,,,,,,,,,,,,,,,,,,,,,,,
1732081602.303199,1732081602.305421,108.000000,0.000000,4355.641113,4329.615234,4302.820313,4333.461426,4318.461426,4306.410156,4189.102539,4327.307617,4324.358887,4309.487305,4442.051270,4502.436035,4375.769043,4411.794922,1721.000000,0.000000,13.000000,,,,0.000000,2.000000,2.000000,0.000000,2.000000,2.000000,2.000000,1.000000,2.000000,4.000000,4.000000,4.000000,4.000000,2.000000,4.000000,25.000000,,,,,,,,,,,,,,,,,27.000000,0.000000,0.623335,0.388855,-0.600464,0.315735,0.981077,0.120132,-0.035649,-76.328865,62.417633,28.256006
1732081602.311007,1732081602.313230,109.000000,0.000000,4355.128418,4332.563965,4304.230957,4334.487305,4315.256348,4309.871582,4191.282227,4334.358887,4329.102539,4313.333496,4446.922852,4499.358887,4373.333496,4412.436035,1676.000000,0.000000,13.000000,,,,0.000000,2.000000,2.000000,0.000000,2.000000,2.000000,2.000000,1.000000,2.000000,4.000000,4.000000,4.000000,4.000000,2.000000,4.000000,25.000000,,,,,,,,,,,,,,,,,,,,,,,,,,,,
1732081602.318815,1732081602.320838,110.000000,0.000000,4352.179688,4329.487305,4303.846191,4337.820313,4315.512695,4309.358887,4195.256348,4333.974121,4335.384766,4317.051270,4451.282227,4499.871582,4377.436035,4412.692383,1351.000000,0.000000,13.000000,,,,0.000000,2.000000,2.000000,0.000000,2.000000,2.000000,2.000000,1.000000,2.000000,4.000000,4.000000,4.000000,4.000000,2.000000,4.000000,25.000000,,,,,,,,,,,,,,,,,,,,,,,,,,,,
1732081602.326624,1732081602.328646,111.000000,0.000000,4352.948730,4327.692383,4303.333496,4339.230957,4317.179688,4309.743652,4195.128418,4332.179688,4337.563965,4319.487305,4452.692383,4504.487305,4384.871582,4419.230957,1487.000000,0.000000,13.000000,,,,0.000000,2.000000,2.000000,0.000000,2.000000,2.000000,2.000000,1.000000,2.000000,4.000000,4.000000,4.000000,4.000000,2.000000,4.000000,25.000000,,,,,,,,,,,,,,,,,,,,,,,,,,,,
1732081602.334432,1732081602.336355,112.000000,0.000000,4356.153809,4329.358887,4306.922852,4340.384766,4318.717773,4313.461426,4197.307617,4335.512695,4338.717773,4322.179688,4456.538574,4506.922852,4382.948730,4425.384766,1721.000000,0.000000,13.000000,,,,0.000000,2.000000,2.000000,0.000000,2.000000,2.000000,2.000000,1.000000,2.000000,4.000000,4.000000,4.000000,4.000000,2.000000,4.000000,25.000000,,,,,,,,,,,,,,,,,28.000000,0.000000,0.622033,0.390137,-0.599304,0.318909,0.971310,0.077646,-0.009278,-76.489716,62.534950,28.302364
1732081602.342240,1732081602.344163,113.000000,0.000000,4356.410156,4330.000000,4307.563965,4344.358887,4322.820313,4316.153809,4199.487305,4336.666504,4341.025879,4326.410156,4459.615234,4507.307617,4382.948730,4426.666504,1676.000000,0.000000,13.000000,,,,0.000000,2.000000,2.000000,0.000000,2.000000,2.000000,2.000000,1.000000,2.000000,4.000000,4.000000,4.000000,4.000000,2.000000,4.000000,25.000000,,,,,,,,,,,,,,,,,,,,,,,,,,,,
1732081602.350048,1732081602.351771,114.000000,0.000000,4355.256348,4331.922852,4306.410156,4346.410156,4322.307617,4314.102539,4198.717773,4332.692383,4342.692383,4326.538574,4460.128418,4506.922852,4386.153809,4429.102539,1351.000000,0.000000,13.000000,,,,0.000000,2.000000,2.000000,0.000000,2.000000,2.000000,2.000000,1.000000,2.000000,4.000000,4.000000,4.000000,4.000000,2.000000,4.000000,25.000000,,,,,,,,,,,,,,,,,,,,,,,,,,,,
1732081602.357856,1732081602.359579,115.000000,0.000000,4354.102539,4333.974121,4305.256348,4343.205078,4337.948730,4313.974121,4198.846191,4337.436035,4343.333496,4325.128418,4460.512695,4506.922852,4382.563965,4429.358887,1487.000000,0.000000,13.000000,,,,0.000000,2.000000,2.000000,0.000000,2.000000,2.000000,2.000000,1.000000,2.000000,4.000000,4.000000,4.000000,4.000000,2.000000,4.000000,25.000000,,,,,,,,,,,,,,,,,,,,,,,,,,,,
1732081602.365665,1732081602.367288,116.000000,0.000000,4351.282227,4329.487305,4306.410156,4339.358887,4350.641113,4322.563965,4204.102539,4350.128418,4347.436035,4326.282227,4460.769043,4512.692383,4380.256348,4424.615234,1721.000000,0.000000,13.000000,,,,0.000000,2.000000,2.000000,0.000000,2.000000,2.000000,2.000000,1.000000,2.000000,4.000000,4.000000,4.000000,4.000000,2.000000,4.000000,25.000000,,,,,,,,,,,,,,,,,29.000000,0.000000,0.622033,0.390137,-0.599304,0.318909,0.980100,0.079600,-0.012697,-76.695000,62.674976,28.489916
1732081602.373473,1732081602.375096,117.000000,0.000000,4348.717773,4327.820313,4308.717773,4340.641113,4332.820313,4327.692383,4205.897461,4350.512695,4353.461426,4328.846191,4463.461426,4517.436035,4382.692383,4424.230957,1676.000000,0.000000,13.000000,,,,0.000000,2.000000,2.000000,0.000000,2.000000,2.000000,2.000000,1.000000,2.000000,4.000000,4.000000,4.000000,4.000000,2.000000,4.000000,25.000000,,,,,,,,,,,,,,,,,,,,,,,,,,,,
1732081602.381281,1732081602.383104,118.000000,0.000000,4352.563965,4331.666504,4310.769043,4347.436035,4323.846191,4325.000000,4204.615234,4344.102539,4352.820313,4330.641113,4466.922852,4515.384766,4382.948730,4430.384766,1351.000000,0.000000,13.000000,,,,0.000000,2.000000,2.000000,0.000000,2.000000,2.000000,2.000000,1.000000,2.000000,4.000000,4.000000,4.000000,4.000000,2.000000,4.000000,25.000000,,,,,,,,,,,,,,,,,,,,,,,,,,,,
1732081602.389089,1732081602.390912,119.000000,0.000000,4357.948730,4333.205078,4310.641113,4353.461426,4337.307617,4325.512695,4206.282227,4345.769043,4350.128418,4330.512695,4469.615234,4518.589844,4384.487305,4440.384766,1487.000000,0.000000,13.000000,,,,0.000000,2.000000,2.000000,0.000000,2.000000,2.000000,2.000000,1.000000,2.000000,4.000000,4.000000,4.000000,4.000000,2.000000,4.000000,25.000000,,,,,,,,,,,,,,,,,,,,,,,,,,,,
1732081602.396898,1732081602.398820,120.000000,0.000000,4358.589844,4333.205078,4310.769043,4354.358887,4341.410156,4327.692383,4209.358887,4350.897461,4353.846191,4334.230957,4475.512695,4526.025879,4388.077148,4445.128418,1721.000000,0.000000,13.000000,,,,0.000000,2.000000,2.000000,0.000000,2.000000,2.000000,2.000000,1.000000,2.000000,4.000000,4.000000,4.000000,4.000000,2.000000,4.000000,25.000000,,,,,,,,,,,,,,,,,30.000000,0.000000,0.620770,0.390686,-0.598755,0.321716,0.983518,0.067391,-0.016115,-76.911285,62.610065,28.238499
1732081602.404706,1732081602.406628,121.000000,0.000000,4358.974121,4332.436035,4312.692383,4352.179688,4340.000000,4329.358887,4212.692383,4353.974121,4360.512695,4340.769043,4477.820313,4521.922852,4386.282227,4440.641113,1676.000000,0.000000,13.000000,,,,0.000000,2.000000,2.000000,0.000000,2.000000,2.000000,2.000000,1.000000,2.000000,4.000000,4.000000,4.000000,4.000000,2.000000,4.000000,25.000000,,,,,,,,,,,,,,,,,,,,,,,,,,,,
1732081602.412514,1732081602.414237,122.000000,0.000000,4359.358887,4331.794922,4312.051270,4354.102539,4344.487305,4335.128418,4212.692383,4355.384766,4361.025879,4342.436035,4474.102539,4513.717773,4381.666504,4436.794922,1351.000000,0.000000,13.000000,,,,0.000000,2.000000,2.000000,0.000000,2.000000,2.000000,2.000000,1.000000,2.000000,4.000000,4.000000,4.000000,4.000000,2.000000,4.000000,25.000000,,,,,,,,,,,,,,,,,,,,,,,,,,,,
1732081602.420323,1732081602.422045,123.000000,0.000000,4357.051270,4336.282227,4311.153809,4361.410156,4354.871582,4337.179688,4211.153809,4355.769043,4359.230957,4340.256348,4475.128418,4517.179688,4382.051270,4434.615234,1487.000000,0.000000,13.000000,,,,0.000000,2.000000,2.000000,0.000000,2.000000,2.000000,2.000000,1.000000,2.000000,4.000000,4.000000,4.000000,4.000000,2.000000,4.000000,25.000000,,,,,,,,,,,,,,,,,,,,,,,,,,,,
1732081602.428131,1732081602.429753,124.000000,0.000000,4358.974121,4341.666504,4313.077148,4363.461426,4363.589844,4332.179688,4210.000000,4359.487305,4362.692383,4342.051270,4477.820313,4522.692383,4383.461426,4436.794922,1721.000000,0.000000,13.000000,,,,0.000000,2.000000,2.000000,0.000000,2.000000,2.000000,2.000000,1.000000,2.000000,4.000000,4.000000,4.000000,4.000000,2.000000,4.000000,25.000000,,,,,,,,,,,,,,,,,31.000000,0.000000,0.619811,0.389587,-0.599609,0.323303,0.965938,0.060554,-0.032719,-76.858139,62.652485,28.313183
1732081602.435939,1732081602.437561,125.000000,0.000000,4362.820313,4339.871582,4315.000000,4361.410156,4354.487305,4337.307617,4214.358887,4366.666504,4367.948730,4348.205078,4480.000000,4522.307617,4385.128418,4446.153809,1676.000000,0.000000,13.000000,,,,0.000000,2.000000,2.000000,0.000000,2.000000,2.000000,2.000000,1.000000,2.000000,4.000000,4.000000,4.000000,4.000000,2.000000,4.000000,25.000000,,,,,,,,,,,,,,,,,,,,,,,,,,,,
1732081602.443747,1732081602.445169,126.000000,0.000000,4364.230957,4340.128418,4313.589844,4364.358887,4343.461426,4346.538574,4217.051270,4366.282227,4372.820313,4352.948730,4486.794922,4527.179688,4390.128418,4449.102539,1351.000000,0.000000,13.000000,,,,0.000000,2.000000,2.000000,0.000000,2.000000,2.000000,2.000000,1.000000,2.000000,4.000000,4.000000,4.000000,4.000000,2.000000,4.000000,25.000000,,,,,,,,,,,,,,,,,,,,,,,,,,,,
1732081602.451556,1732081602.452977,127.000000,0.000000,4366.153809,4342.820313,4314.871582,4369.743652,4355.256348,4344.615234,4219.358887,4362.692383,4376.538574,4354.358887,4491.025879,4531.922852,4390.641113,4445.384766,13.000000,0.000000,13.000000,,,,0.000000,2.000000,2.000000,0.000000,2.000000,2.000000,2.000000,1.000000,2.000000,4.000000,4.000000,4.000000,4.000000,2.000000,4.000000,25.000000,,,,,,,,,,,,,,,,,,,,,,,,,,,,
1732081602.459364,1732081602.460885,0.000000,0.000000,4367.692383,4341.922852,4319.615234,4371.794922,4363.205078,4344.487305,4222.307617,4370.128418,4377.948730,4354.615234,4493.589844,4530.256348,4390.128418,4450.000000,15.000000,0.000000,13.000000,,,,0.000000,2.000000,2.000000,0.000000,2.000000,2.000000,2.000000,1.000000,2.000000,4.000000,4.000000,4.000000,4.000000,2.000000,4.000000,25.000000,,,,,,,,,,,,,,,,,0.000000,0.000000,0.619762,0.388245,-0.600464,0.323425,0.960566,0.063484,-0.024417,-76.895096,62.536846,28.370346
1732081602.467172,1732081602.468694,1.000000,0.000000,4364.487305,4341.922852,4321.666504,4368.205078,4362.820313,4351.282227,4224.358887,4380.512695,4381.794922,4358.974121,4498.717773,4534.487305,4398.077148,4457.563965,1289.000000,0.000000,13.000000,,,,0.000000,2.000000,2.000000,0.000000,2.000000,2.000000,2.000000,1.000000,2.000000,4.000000,4.000000,4.000000,4.000000,2.000000,4.000000,25.000000,,,,,,,,,,,,,,,,,,,,,,,,,,,,
1732081602.474980,1732081602.476702,2.000000,0.000000,4363.589844,4342.692383,4317.563965,4364.102539,4374.743652,4350.641113,4219.102539,4381.922852,4385.512695,4362.179688,4498.333496,4539.615234,4400.128418,4456.538574,1202.000000,0.000000,13.000000,,,,0.000000,2.000000,2.000000,0.000000,2.000000,2.000000,2.000000,1.000000,2.000000,4.000000,4.000000,4.000000,4.000000,2.000000,4.000000,25.000000,,,,,,,,,,,,,,,,,,,,,,,,,,,,
1732081602.482788,1732081602.484510,3.000000,0.000000,4363.974121,4341.282227,4316.794922,4363.333496,4373.717773,4348.205078,4218.846191,4378.846191,4382.820313,4358.205078,4492.436035,4534.871582,4390.641113,4451.410156,1167.000000,0.000000,13.000000,,,,0.000000,2.000000,2.000000,0.000000,2.000000,2.000000,2.000000,1.000000,2.000000,4.000000,4.000000,4.000000,4.000000,2.000000,4.000000,25.000000,,,,,,,,,,,,,,,,,,,,,,,,,,,,
1732081602.490597,1732081602.492418,4.000000,0.000000,4357.436035,4338.077148,4317.820313,4363.077148,4359.102539,4358.333496,4225.256348,4380.256348,4386.410156,4356.922852,4491.410156,4533.077148,4388.717773,4445.384766,1189.000000,0.000000,13.000000,,,,0.000000,2.000000,2.000000,0.000000,2.000000,2.000000,2.000000,1.000000,2.000000,4.000000,4.000000,4.000000,4.000000,2.000000,4.000000,25.000000,,,,,,,,,,,,,,,,,1.000000,0.000000,0.619944,0.387634,-0.600769,0.323242,0.960566,0.063484,-0.024417,-77.263359,62.213181,28.426647
1732081602.498405,1732081602.500226,5.000000,0.000000,4355.384766,4336.794922,4318.077148,4360.769043,4362.436035,4365.128418,4226.538574,4385.384766,4396.282227,4360.384766,4492.563965,4536.282227,4394.102539,4441.282227,1065.000000,0.000000,13.000000,,,,0.000000,2.000000,2.000000,0.000000,2.000000,2.000000,2.000000,1.000000,2.000000,4.000000,4.000000,4.000000,4.000000,2.000000,4.000000,25.000000,,,,,,,,,,,,,,,,,,,,,,,,,,,,
1732081602.506213,1732081602.508234,6.000000,0.000000,4360.128418,4341.666504,4316.794922,4364.487305,4373.717773,4359.743652,4224.358887,4386.025879,4397.307617,4365.000000,4495.384766,4540.769043,4397.692383,4446.282227,228.000000,0.000000,13.000000,,,,0.000000,2.000000,2.000000,0.000000,2.000000,2.000000,2.000000,1.000000,2.000000,4.000000,4.000000,4.000000,4.000000,2.000000,4.000000,25.000000,,,,,,,,,,,,,,,,,,,,,,,,,,,,
1732081602.514022,1732081602.516042,7.000000,0.000000,4362.948730,4350.641113,4317.948730,4376.282227,4373.589844,4356.922852,4225.128418,4384.743652,4393.077148,4369.743652,4503.077148,4548.205078,4407.436035,4456.282227,1194.000000,0.000000,13.000000,,,,0.000000,2.000000,2.000000,0.000000,2.000000,2.000000,2.000000,1.000000,2.000000,4.000000,4.000000,4.000000,4.000000,2.000000,4.000000,25.000000,,,,,,,,,,,,,,,,,,,,,,,,,,,,
1732081602.521830,1732081602.523950,8.000000,0.000000,4367.820313,4355.384766,4321.153809,4381.538574,4370.641113,4358.461426,4228.205078,4386.153809,4393.333496,4370.000000,4508.974121,4553.974121,4415.256348,4464.102539,1332.000000,0.000000,13.000000,,,,0.000000,2.000000,2.000000,0.000000,2.000000,2.000000,2.000000,1.000000,2.000000,4.000000,4.000000,4.000000,4.000000,2.000000,4.000000,25.000000,,,,,,,,,,,,,,,,,2.000000,0.000000,0.620135,0.387146,-0.600952,0.323120,0.984984,0.069344,-0.020999,-77.253319,62.212673,28.405584
1732081602.529638,1732081602.531759,9.000000,0.000000,4371.538574,4352.563965,4323.077148,4380.256348,4381.538574,4357.692383,4229.102539,4388.589844,4394.102539,4369.230957,4511.666504,4559.871582,4413.077148,4465.512695,1462.000000,0.000000,13.000000,,,,0.000000,2.000000,2.000000,0.000000,2.000000,2.000000,2.000000,1.000000,2.000000,4.000000,4.000000,4.000000,4.000000,2.000000,4.000000,25.000000,,,,,,,,,,,,,,,,,,,,,,,,,,,,
1732081602.537446,1732081602.539767,10.000000,0.000000,4371.538574,4351.410156,4323.461426,4381.922852,4386.794922,4359.358887,4230.000000,4391.666504,4397.820313,4374.358887,4513.205078,4566.153809,4413.974121,4465.384766,1351.000000,0.000000,13.000000,,,,0.000000,2.000000,2.000000,0.000000,2.000000,2.000000,2.000000,1.000000,2.000000,4.000000,4.000000,4.000000,4.000000,2.000000,4.000000,25.000000,,,,,,,,,,,,,,,,,,,,,,,,,,,,
1732081602.545255,1732081602.547575,11.000000,0.000000,4374.615234,4355.256348,4324.102539,4382.692383,4375.641113,4364.487305,4230.128418,4392.820313,4403.461426,4378.974121,4510.641113,4564.743652,4418.589844,4467.436035,1487.000000,0.000000,13.000000,,,,0.000000,2.000000,2.000000,0.000000,2.000000,2.000000,2.000000,1.000000,2.000000,4.000000,4.000000,4.000000,4.000000,2.000000,4.000000,25.000000,,,,,,,,,,,,,,,,,,,,,,,,,,,,
1732081602.553063,1732081602.555483,12.000000,0.000000,4373.461426,4355.000000,4325.256348,4379.102539,4370.128418,4368.717773,4232.820313,4393.205078,4402.436035,4374.871582,4505.769043,4558.077148,4417.948730,4463.846191,1715.000000,0.000000,13.000000,,,,0.000000,2.000000,2.000000,0.000000,2.000000,2.000000,2.000000,1.000000,2.000000,4.000000,4.000000,4.000000,4.000000,2.000000,4.000000,25.000000,,,,,,,,,,,,,,,,,3.000000,0.000000,0.621024,0.386047,-0.600708,0.323181,0.971310,0.086436,-0.024905,-77.335190,62.280602,28.356855
1732081602.560871,1732081602.563291,13.000000,0.000000,4367.692383,4357.179688,4323.974121,4378.717773,4383.077148,4368.846191,4233.974121,4394.102539,4398.846191,4372.436035,4510.384766,4556.025879,4422.179688,4465.384766,1666.000000,0.000000,13.000000,,,,0.000000,2.000000,2.000000,0.000000,2.000000,2.000000,2.000000,1.000000,2.000000,4.000000,4.000000,4.000000,4.000000,2.000000,4.000000,25.000000,,,,,,,,,,,,,,,,,,,,,,,,,,,,
1732081602.568679,1732081602.571299,14.000000,0.000000,4369.230957,4365.256348,4325.769043,4384.871582,4384.871582,4368.974121,4237.051270,4396.794922,4401.153809,4379.487305,4520.384766,4563.846191,4430.384766,4475.256348,1351.000000,0.000000,13.000000,,,,0.000000,2.000000,2.000000,0.000000,2.000000,2.000000,2.000000,1.000000,2.000000,4.000000,4.000000,4.000000,4.000000,2.000000,4.000000,25.000000,1.000000,25.000000,2.000000,2.000000,0.000000,2.000000,2.000000,2.000000,1.000000,2.000000,3.000000,3.000000,3.000000,4.000000,2.000000,4.000000,,,,,,,,,,,,
1732081602.576488,1732081602.579107,15.000000,0.000000,4371.153809,4367.051270,4327.051270,4386.282227,4379.743652,4372.948730,4238.333496,4397.948730,4409.230957,4387.051270,4522.307617,4572.051270,4432.563965,4478.461426,1487.000000,0.000000,13.000000,,,,0.000000,2.000000,2.000000,0.000000,2.000000,2.000000,2.000000,1.000000,2.000000,4.000000,4.000000,4.000000,4.000000,2.000000,4.000000,25.000000,,,,,,,,,,,,,,,,,,,,,,,,,,,,
1732081602.584296,1732081602.586816,16.000000,0.000000,4368.717773,4363.589844,4326.666504,4384.358887,4395.384766,4375.512695,4239.230957,4399.230957,4412.051270,4386.794922,4520.384766,4569.871582,4435.000000,4475.897461,0.000000,0.000000,13.000000,,,,0.000000,2.000000,2.000000,0.000000,2.000000,2.000000,2.000000,1.000000,2.000000,4.000000,4.000000,4.000000,4.000000,2.000000,4.000000,25.000000,,,,,,,,,,,,,,,,,4.000000,0.000000,0.621197,0.386047,-0.600464,0.323303,0.971310,0.086436,-0.024905,-77.461502,62.575619,28.257387
1732081602.592104,1732081602.594624,17.000000,0.000000,4372.051270,4366.666504,4328.461426,4386.025879,4403.589844,4378.205078,4239.358887,4401.538574,4413.205078,4387.820313,4522.820313,4565.512695,4441.282227,4477.051270,0.000000,0.000000,13.000000,,,,0.000000,2.000000,2.000000,0.000000,2.000000,2.000000,2.000000,1.000000,2.000000,4.000000,4.000000,4.000000,4.000000,2.000000,4.000000,25.000000,,,,,,,,,,,,,,,,,,,,,,,,,,,,
1732081602.599912,1732081602.602232,18.000000,0.000000,4375.256348,4369.487305,4331.282227,4386.794922,4383.077148,4381.153809,4240.641113,4400.641113,4418.077148,4391.922852,4525.256348,4569.871582,4444.743652,4478.846191,0.000000,0.000000,13.000000,,,,0.000000,2.000000,2.000000,0.000000,2.000000,2.000000,2.000000,1.000000,2.000000,4.000000,4.000000,4.000000,4.000000,2.000000,4.000000,25.000000,,,,,,,,,,,,,,,,,,,,,,,,,,,,
1732081602.607721,1732081602.610040,19.000000,0.000000,4373.974121,4365.641113,4330.384766,4384.871582,4380.384766,4375.769043,4241.153809,4401.282227,4417.307617,4391.025879,4524.102539,4570.512695,4443.974121,4477.436035,0.000000,0.000000,13.000000,,,,0.000000,2.000000,2.000000,0.000000,2.000000,2.000000,2.000000,1.000000,2.000000,4.000000,4.000000,4.000000,4.000000,2.000000,4.000000,25.000000,,,,,,,,,,,,,,,,,,,,,,,,,,,,
1732081602.615529,1732081602.617949,20.000000,0.000000,4373.846191,4365.384766,4329.615234,4381.538574,4401.922852,4370.384766,4243.717773,4403.589844,4411.794922,4386.922852,4524.743652,4566.666504,4444.743652,4476.794922,0.000000,0.000000,13.000000,,,,0.000000,2.000000,2.000000,0.000000,2.000000,2.000000,2.000000,1.000000,2.000000,4.000000,4.000000,4.000000,4.000000,2.000000,4.000000,25.000000,,,,,,,,,,,,,,,,,5.000000,0.000000,0.621439,0.386292,-0.599792,0.323792,0.974240,0.088878,-0.013185,-77.405487,62.244583,28.113483
1732081602.623337,1732081602.625757,21.000000,0.000000,4375.128418,4368.205078,4329.230957,4384.487305,4397.179688,4378.077148,4247.436035,4409.102539,4413.205078,4387.436035,4525.769043,4570.897461,4445.641113,4475.000000,0.000000,0.000000,13.000000,,,,0.000000,2.000000,2.000000,0.000000,2.000000,2.000000,2.000000,1.000000,2.000000,4.000000,4.000000,4.000000,4.000000,2.000000,4.000000,25.000000,,,,,,,,,,,,,,,,,,,,,,,,,,,,
1732081602.631145,1732081602.633365,22.000000,0.000000,4377.563965,4372.179688,4330.512695,4394.743652,4379.102539,4386.666504,4248.461426,4413.717773,4417.051270,4393.205078,4523.717773,4573.974121,4442.692383,4476.794922,0.000000,0.000000,13.000000,,,,0.000000,2.000000,2.000000,0.000000,2.000000,2.000000,2.000000,1.000000,2.000000,4.000000,4.000000,4.000000,4.000000,2.000000,4.000000,25.000000,,,,,,,,,,,,,,,,,,,,,,,,,,,,
1732081602.638954,1732081602.641173,23.000000,0.000000,4378.846191,4373.846191,4331.153809,4400.256348,4391.410156,4386.538574,4248.461426,4412.051270,4416.410156,4396.025879,4526.666504,4568.461426,4444.358887,4478.333496,0.000000,0.000000,13.000000,,,,0.000000,2.000000,2.000000,0.000000,2.000000,2.000000,2.000000,1.000000,2.000000,4.000000,4.000000,4.000000,4.000000,2.000000,4.000000,25.000000,,,,,,,,,,,,,,,,,,,,,,,,,,,,
1732081602.646762,1732081602.648882,24.000000,0.000000,4377.436035,4372.051270,4329.743652,4394.358887,4398.846191,4387.692383,4248.974121,4411.666504,4421.410156,4396.410156,4532.179688,4569.487305,4454.871582,4477.179688,0.000000,0.000000,13.000000,,,,0.000000,2.000000,2.000000,0.000000,2.000000,2.000000,2.000000,1.000000,2.000000,4.000000,4.000000,4.000000,4.000000,2.000000,4.000000,25.000000,,,,,,,,,,,,,,,,,6.000000,0.000000,0.621881,0.386169,-0.599182,0.324219,0.984495,0.088878,-0.011720,-77.406776,61.961449,28.275255
1732081602.654570,1732081602.656690,25.000000,0.000000,4378.717773,4371.666504,4332.179688,4392.179688,4389.743652,4386.794922,4249.871582,4414.743652,4429.871582,4397.820313,4531.538574,4578.589844,4461.922852,4483.974121,0.000000,0.000000,13.000000,,,,0.000000,2.000000,2.000000,0.000000,2.000000,2.000000,2.000000,1.000000,2.000000,4.000000,4.000000,4.000000,4.000000,2.000000,4.000000,25.000000,,,,,,,,,,,,,,,,,,,,,,,,,,,,
1732081602.662378,1732081602.664298,26.000000,0.000000,4381.025879,4369.871582,4335.128418,4395.000000,4400.000000,4385.128418,4250.256348,4414.358887,4428.461426,4400.384766,4530.897461,4575.256348,4458.589844,4484.487305,0.000000,0.000000,13.000000,,,,0.000000,2.000000,2.000000,0.000000,2.000000,2.000000,2.000000,1.000000,2.000000,4.000000,4.000000,4.000000,4.000000,2.000000,4.000000,25.000000,,,,,,,,,,,,,,,,,,,,,,,,,,,,
1732081602.670187,1732081602.672107,27.000000,0.000000,4381.282227,4371.410156,4332.179688,4391.794922,4407.179688,4390.769043,4253.846191,4413.333496,4422.820313,4400.512695,4537.179688,4564.871582,4455.512695,4479.871582,0.000000,0.000000,13.000000,,,,0.000000,2.000000,2.000000,0.000000,2.000000,2.000000,2.000000,1.000000,2.000000,4.000000,4.000000,4.000000,4.000000,2.000000,4.000000,25.000000,,,,,,,,,,,,,,,,,,,,,,,,,,,,
1732081602.677995,1732081602.679815,28.000000,0.000000,4385.384766,4376.025879,4333.461426,4394.871582,4391.538574,4399.743652,4259.358887,4417.307617,4423.077148,4398.846191,4539.230957,4572.179688,4458.717773,4485.641113,0.000000,0.000000,13.000000,,,,0.000000,2.000000,2.000000,0.000000,2.000000,2.000000,2.000000,1.000000,2.000000,4.000000,4.000000,4.000000,4.000000,2.000000,4.000000,25.000000,,,,,,,,,,,,,,,,,7.000000,0.000000,0.621882,0.386108,-0.599121,0.324402,0.973263,0.073251,-0.007813,-77.191154,61.663773,28.286289
1732081602.685803,1732081602.687623,29.000000,0.000000,4386.538574,4374.487305,4337.692383,4402.436035,4389.487305,4400.641113,4262.051270,4420.512695,4425.128418,4399.487305,4536.153809,4580.000000,4459.230957,4487.436035,0.000000,0.000000,13.000000,,,,0.000000,2.000000,2.000000,0.000000,2.000000,2.000000,2.000000,1.000000,2.000000,4.000000,4.000000,4.000000,4.000000,2.000000,4.000000,25.000000,,,,,,,,,,,,,,,,,,,,,,,,,,,,
1732081602.693611,1732081602.695231,30.000000,0.000000,4385.256348,4375.384766,4333.717773,4399.487305,4409.743652,4396.922852,4260.641113,4422.820313,4425.384766,4403.205078,4537.179688,4574.871582,4457.051270,4480.897461,0.000000,0.000000,13.000000,,,,0.000000,2.000000,2.000000,0.000000,2.000000,2.000000,2.000000,1.000000,2.000000,4.000000,4.000000,4.000000,4.000000,2.000000,4.000000,25.000000,,,,,,,,,,,,,,,,,,,,,,,,,,,,
1732081602.701420,1732081602.703040,31.000000,0.000000,4388.333496,4383.461426,4334.102539,4396.410156,4414.743652,4397.563965,4263.333496,4426.153809,4428.974121,4406.794922,4539.615234,4577.051270,4461.922852,4485.256348,0.000000,0.000000,13.000000,,,,0.000000,2.000000,2.000000,0.000000,2.000000,2.000000,2.000000,1.000000,2.000000,4.000000,4.000000,4.000000,4.000000,2.000000,4.000000,25.000000,,,,,,,,,,,,,,,,,,,,,,,,,,,,
1732081602.709228,1732081602.710748,32.000000,0.000000,4392.692383,4383.461426,4338.461426,4403.846191,4400.000000,4400.128418,4264.871582,4428.717773,4436.538574,4408.974121,4545.384766,4586.922852,4470.256348,4493.846191,0.000000,0.000000,13.000000,,,,0.000000,2.000000,2.000000,0.000000,2.000000,2.000000,2.000000,1.000000,2.000000,4.000000,4.000000,4.000000,4.000000,2.000000,4.000000,25.000000,,,,,,,,,,,,,,,,,8.000000,0.000000,0.621830,0.386047,-0.599182,0.324463,0.985472,0.073251,-0.002930,-77.186501,61.759323,28.611895
1732081602.717036,1732081602.718556,33.000000,0.000000,4396.282227,4379.615234,4339.615234,4407.820313,4398.717773,4400.128418,4265.641113,4428.846191,4442.563965,4412.307617,4553.205078,4593.205078,4473.717773,4490.897461,0.000000,0.000000,13.000000,,,,0.000000,2.000000,2.000000,0.000000,2.000000,2.000000,2.000000,1.000000,2.000000,4.000000,4.000000,4.000000,4.000000,2.000000,4.000000,25.000000,,,,,,,,,,,,,,,,,,,,,,,,,,,,
1732081602.724844,1732081602.726165,34.000000,0.000000,4402.820313,4386.025879,4338.717773,4400.897461,4403.717773,4398.333496,4264.871582,4427.692383,4443.589844,4414.487305,4555.000000,4598.205078,4474.358887,4495.897461,0.000000,0.000000,13.000000,,,,0.000000,2.000000,2.000000,0.000000,2.000000,2.000000,2.000000,1.000000,2.000000,4.000000,4.000000,4.000000,4.000000,2.000000,4.000000,25.000000,,,,,,,,,,,,,,,,,,,,,,,,,,,,
1732081602.732653,1732081602.733973,35.000000,0.000000,4407.179688,4391.282227,4339.743652,4397.563965,4406.025879,4398.461426,4266.666504,4427.692383,4440.641113,4413.205078,4554.358887,4602.692383,4469.871582,4503.205078,0.000000,0.000000,13.000000,,,,0.000000,2.000000,2.000000,0.000000,2.000000,2.000000,2.000000,1.000000,2.000000,4.000000,4.000000,4.000000,4.000000,2.000000,4.000000,25.000000,,,,,,,,,,,,,,,,,,,,,,,,,,,,
1732081602.740461,1732081602.741681,36.000000,0.000000,4408.461426,4391.666504,4337.948730,4405.128418,4417.179688,4400.256348,4270.128418,4428.461426,4437.179688,4410.512695,4552.563965,4598.846191,4464.487305,4495.512695,0.000000,0.000000,13.000000,,,,0.000000,2.000000,2.000000,0.000000,2.000000,2.000000,2.000000,1.000000,2.000000,4.000000,4.000000,4.000000,4.000000,2.000000,4.000000,25.000000,,,,,,,,,,,,,,,,,9.000000,0.000000,0.621653,0.386169,-0.599121,0.324768,0.971798,0.076670,-0.017092,-77.117737,61.738384,28.620634
1732081602.748269,1732081602.749489,37.000000,0.000000,4409.871582,4394.230957,4340.000000,4410.769043,4421.666504,4403.717773,4272.563965,4429.871582,4437.692383,4408.077148,4550.769043,4589.615234,4468.974121,4487.051270,0.000000,0.000000,13.000000,,,,0.000000,2.000000,2.000000,0.000000,2.000000,2.000000,2.000000,1.000000,2.000000,4.000000,4.000000,4.000000,4.000000,2.000000,4.000000,25.000000,,,,,,,,,,,,,,,,,,,,,,,,,,,,
1732081602.756077,1732081602.757098,38.000000,0.000000,4408.974121,4395.000000,4344.102539,4409.358887,4407.307617,4407.436035,4273.589844,4430.384766,4441.666504,4408.974121,4553.846191,4583.077148,4475.000000,4492.436035,0.000000,0.000000,13.000000,,,,0.000000,2.000000,2.000000,0.000000,2.000000,2.000000,2.000000,1.000000,2.000000,4.000000,4.000000,4.000000,4.000000,2.000000,4.000000,25.000000,,,,,,,,,,,,,,,,,,,,,,,,,,,,
1732081602.763886,1732081602.764906,39.000000,0.000000,4411.282227,4396.282227,4344.487305,4411.410156,4405.897461,4408.589844,4274.871582,4430.641113,4444.358887,4414.358887,4558.846191,4584.871582,4474.743652,4500.128418,0.000000,0.000000,13.000000,,,,0.000000,2.000000,2.000000,0.000000,2.000000,2.000000,2.000000,1.000000,2.000000,4.000000,4.000000,4.000000,4.000000,2.000000,4.000000,25.000000,,,,,,,,,,,,,,,,,,,,,,,,,,,,
1732081602.771694,1732081602.772814,40.000000,0.000000,4413.589844,4399.358887,4342.948730,4416.410156,4418.846191,4403.846191,4276.282227,4431.922852,4443.333496,4414.871582,4560.897461,4588.717773,4474.102539,4498.077148,0.000000,0.000000,13.000000,,,,0.000000,2.000000,2.000000,0.000000,2.000000,2.000000,2.000000,1.000000,2.000000,4.000000,4.000000,4.000000,4.000000,2.000000,4.000000,25.000000,,,,,,,,,,,,,,,,,10.000000,0.000000,0.620963,0.386963,-0.599060,0.325256,0.984495,0.076670,-0.014162,-77.398697,61.643093,28.539381
1732081602.779502,1732081602.780622,41.000000,0.000000,4412.692383,4398.461426,4342.563965,4416.153809,4411.538574,4401.410156,4275.384766,4434.102539,4442.436035,4410.897461,4563.974121,4589.230957,4474.487305,4500.000000,0.000000,0.000000,13.000000,,,,0.000000,2.000000,2.000000,0.000000,2.000000,2.000000,2.000000,1.000000,2.000000,4.000000,4.000000,4.000000,4.000000,2.000000,4.000000,25.000000,,,,,,,,,,,,,,,,,,,,,,,,,,,,
1732081602.787310,1732081602.788630,42.000000,0.000000,4413.333496,4398.205078,4343.846191,4411.922852,4410.000000,4408.589844,4276.922852,4435.384766,4444.487305,4414.102539,4570.897461,4593.205078,4479.871582,4505.512695,0.000000,0.000000,13.000000,,,,0.000000,2.000000,2.000000,0.000000,2.000000,2.000000,2.000000,1.000000,2.000000,4.000000,4.000000,4.000000,4.000000,2.000000,4.000000,25.000000,,,,,,,,,,,,,,,,,,,,,,,,,,,,
1732081602.795119,1732081602.796439,43.000000,0.000000,4416.410156,4400.128418,4345.897461,4410.769043,4427.948730,4410.384766,4277.179688,4436.282227,4443.974121,4420.000000,4572.307617,4594.102539,4483.077148,4505.769043,0.000000,0.000000,13.000000,,,,0.000000,2.000000,2.000000,0.000000,2.000000,2.000000,2.000000,1.000000,2.000000,4.000000,4.000000,4.000000,4.000000,2.000000,4.000000,25.000000,,,,,,,,,,,,,,,,,,,,,,,,,,,,
1732081602.802927,1732081602.804347,44.000000,0.000000,4416.282227,4402.563965,4347.307617,4417.948730,4425.512695,4406.922852,4278.846191,4440.641113,4445.128418,4421.025879,4572.307617,4594.743652,4478.461426,4505.641113,0.000000,0.000000,13.000000,,,,0.000000,2.000000,2.000000,0.000000,2.000000,2.000000,2.000000,1.000000,2.000000,4.000000,4.000000,4.000000,4.000000,2.000000,4.000000,25.000000,,,,,,,,,,,,,,,,,11.000000,0.000000,0.620736,0.387268,-0.598999,0.325439,0.964962,0.081553,-0.022464,-77.637947,61.689236,28.480232
1732081602.810735,1732081602.812155,45.000000,0.000000,4415.384766,4407.563965,4346.410156,4423.974121,4410.769043,4411.538574,4280.000000,4444.487305,4453.717773,4423.077148,4576.794922,4599.615234,4480.897461,4508.333496,0.000000,0.000000,13.000000,,,,0.000000,2.000000,2.000000,0.000000,2.000000,2.000000,2.000000,1.000000,2.000000,4.000000,4.000000,4.000000,4.000000,2.000000,4.000000,25.000000,,,,,,,,,,,,,,,,,,,,,,,,,,,,
1732081602.818543,1732081602.819763,46.000000,0.000000,4415.769043,4410.641113,4348.589844,4421.153809,4408.717773,4416.410156,4283.589844,4446.025879,4458.205078,4428.205078,4577.051270,4601.282227,4487.692383,4508.846191,0.000000,0.000000,13.000000,,,,0.000000,2.000000,2.000000,0.000000,2.000000,2.000000,2.000000,1.000000,2.000000,4.000000,4.000000,4.000000,4.000000,2.000000,4.000000,25.000000,,,,,,,,,,,,,,,,,,,,,,,,,,,,
1732081602.826352,1732081602.827571,47.000000,0.000000,4412.179688,4406.794922,4351.538574,4417.948730,4418.717773,4415.128418,4288.077148,4446.538574,4454.487305,4427.948730,4577.307617,4599.358887,4485.128418,4506.666504,0.000000,0.000000,13.000000,,,,0.000000,2.000000,2.000000,0.000000,2.000000,2.000000,2.000000,1.000000,2.000000,4.000000,4.000000,4.000000,4.000000,2.000000,4.000000,25.000000,,,,,,,,,,,,,,,,,,,,,,,,,,,,
1732081602.834160,1732081602.835279,48.000000,0.000000,4411.538574,4403.589844,4349.358887,4417.820313,4429.871582,4414.230957,4291.025879,4446.538574,4453.077148,4420.384766,4581.153809,4600.769043,4479.871582,4509.102539,0.000000,0.000000,13.000000,,,,0.000000,2.000000,2.000000,0.000000,2.000000,2.000000,2.000000,1.000000,2.000000,4.000000,4.000000,4.000000,4.000000,2.000000,4.000000,25.000000,,,,,,,,,,,,,,,,,12.000000,0.000000,0.620345,0.387817,-0.598816,0.325867,0.976193,0.074228,-0.033696,-77.706734,61.621616,28.198988
1732081602.841968,1732081602.843087,49.000000,0.000000,4419.358887,4409.230957,4346.153809,4422.820313,4427.948730,4414.358887,4289.871582,4445.641113,4454.487305,4418.461426,4580.256348,4601.410156,4482.179688,4512.563965,0.000000,0.000000,13.000000,,,,0.000000,2.000000,2.000000,0.000000,2.000000,2.000000,2.000000,1.000000,2.000000,4.000000,4.000000,4.000000,4.000000,2.000000,4.000000,25.000000,,,,,,,,,,,,,,,,,,,,,,,,,,,,
1732081602.849776,1732081602.851095,50.000000,0.000000,4423.333496,4417.051270,4351.666504,4431.153809,4415.256348,4414.615234,4290.256348,4443.205078,4451.282227,4424.358887,4575.641113,4598.333496,4487.948730,4512.948730,0.000000,0.000000,13.000000,,,,0.000000,2.000000,2.000000,0.000000,2.000000,2.000000,2.000000,1.000000,2.000000,4.000000,4.000000,4.000000,4.000000,2.000000,4.000000,25.000000,,,,,,,,,,,,,,,,,,,,,,,,,,,,
1732081602.857585,1732081602.858903,51.000000,0.000000,4415.769043,4415.384766,4353.717773,4431.794922,4412.563965,4417.051270,4290.769043,4442.436035,4450.000000,4428.461426,4580.641113,4599.743652,4493.461426,4515.641113,0.000000,0.000000,13.000000,,,,0.000000,2.000000,2.000000,0.000000,2.000000,2.000000,2.000000,1.000000,2.000000,4.000000,4.000000,4.000000,4.000000,2.000000,4.000000,25.000000,,,,,,,,,,,,,,,,,,,,,,,,,,,,
1732081602.865393,1732081602.866811,52.000000,0.000000,4409.358887,4410.128418,4350.512695,4424.615234,4419.230957,4416.025879,4291.666504,4444.102539,4452.436035,4425.897461,4585.128418,4602.692383,4492.820313,4516.282227,0.000000,0.000000,13.000000,,,,0.000000,2.000000,2.000000,0.000000,2.000000,2.000000,2.000000,1.000000,2.000000,4.000000,4.000000,4.000000,4.000000,2.000000,4.000000,25.000000,,,,,,,,,,,,,,,,,13.000000,0.000000,0.619579,0.389160,-0.598206,0.326843,0.971310,0.075693,-0.013674,-77.632454,61.530174,28.049513
1732081602.873201,1732081602.874620,53.000000,0.000000,4414.102539,4416.922852,4351.538574,4428.589844,4417.436035,4415.512695,4295.384766,4445.641113,4454.487305,4422.692383,4580.769043,4604.230957,4489.615234,4514.230957,0.000000,0.000000,13.000000,,,,0.000000,2.000000,2.000000,0.000000,2.000000,2.000000,2.000000,1.000000,2.000000,4.000000,4.000000,4.000000,4.000000,2.000000,4.000000,25.000000,,,,,,,,,,,,,,,,,,,,,,,,,,,,
1732081602.881009,1732081602.882628,54.000000,0.000000,4417.051270,4423.205078,4355.384766,4437.179688,4425.000000,4415.641113,4299.230957,4446.922852,4457.051270,4426.794922,4582.948730,4606.153809,4492.948730,4517.307617,0.000000,0.000000,13.000000,,,,0.000000,2.000000,2.000000,0.000000,2.000000,2.000000,2.000000,1.000000,2.000000,4.000000,4.000000,4.000000,4.000000,2.000000,4.000000,25.000000,,,,,,,,,,,,,,,,,,,,,,,,,,,,
1732081602.888818,1732081602.890436,55.000000,0.000000,4414.102539,4418.589844,4353.333496,4435.128418,4436.666504,4416.282227,4301.025879,4451.666504,4459.230957,4430.000000,4587.692383,4609.358887,4493.333496,4522.307617,0.000000,0.000000,13.000000,,,,0.000000,2.000000,2.000000,0.000000,2.000000,2.000000,2.000000,1.000000,2.000000,4.000000,4.000000,4.000000,4.000000,2.000000,4.000000,25.000000,,,,,,,,,,,,,,,,,,,,,,,,,,,,
1732081602.896626,1732081602.898344,56.000000,0.000000,4414.102539,4417.307617,4351.153809,4430.512695,4425.256348,4422.692383,4305.000000,4458.205078,4460.641113,4428.717773,4586.025879,4613.974121,4491.410156,4522.563965,0.000000,0.000000,13.000000,,,,0.000000,2.000000,2.000000,0.000000,2.000000,2.000000,2.000000,1.000000,2.000000,4.000000,4.000000,4.000000,4.000000,2.000000,4.000000,25.000000,,,,,,,,,,,,,,,,,14.000000,0.000000,0.619438,0.389221,-0.598145,0.327148,0.975217,0.074716,-0.027347,-77.478958,61.432774,28.181772
1732081602.904434,1732081602.906152,57.000000,0.000000,4418.461426,4419.871582,4354.743652,4432.179688,4415.128418,4429.743652,4310.256348,4460.641113,4463.846191,4431.410156,4586.922852,4616.410156,4489.871582,4521.666504,0.000000,0.000000,13.000000,,,,0.000000,2.000000,2.000000,0.000000,2.000000,2.000000,2.000000,1.000000,2.000000,4.000000,4.000000,4.000000,4.000000,2.000000,4.000000,25.000000,,,,,,,,,,,,,,,,,,,,,,,,,,,,
1732081602.912242,1732081602.914160,58.000000,0.000000,4419.871582,4418.077148,4357.436035,4436.666504,4425.384766,4428.589844,4308.974121,4459.102539,4467.692383,4436.282227,4592.179688,4618.205078,4488.846191,4523.717773,0.000000,0.000000,13.000000,,,,0.000000,2.000000,2.000000,0.000000,2.000000,2.000000,2.000000,1.000000,2.000000,4.000000,4.000000,4.000000,4.000000,2.000000,4.000000,25.000000,,,,,,,,,,,,,,,,,,,,,,,,,,,,
1732081602.920051,1732081602.921968,59.000000,0.000000,4418.846191,4415.512695,4355.128418,4436.666504,4431.538574,4425.000000,4308.205078,4458.846191,4467.307617,4435.641113,4593.333496,4616.666504,4490.000000,4522.563965,0.000000,0.000000,13.000000,,,,0.000000,2.000000,2.000000,0.000000,2.000000,2.000000,2.000000,1.000000,2.000000,4.000000,4.000000,4.000000,4.000000,2.000000,4.000000,25.000000,,,,,,,,,,,,,,,,,,,,,,,,,,,,
1732081602.927859,1732081602.929876,60.000000,0.000000,4419.487305,4415.769043,4354.358887,4433.974121,4422.820313,4427.692383,4311.025879,4459.358887,4465.128418,4435.256348,4592.307617,4612.307617,4490.512695,4522.948730,0.000000,0.000000,13.000000,,,,0.000000,2.000000,2.000000,0.000000,2.000000,2.000000,2.000000,1.000000,2.000000,4.000000,4.000000,4.000000,4.000000,2.000000,4.000000,25.000000,,,,,,,,,,,,,,,,,15.000000,0.000000,0.619347,0.389221,-0.598206,0.327209,0.975705,0.078623,-0.010743,-77.641289,61.445549,28.147236
1732081602.935667,1732081602.937685,61.000000,0.000000,4420.256348,4417.692383,4358.333496,4430.769043,4427.179688,4428.333496,4313.205078,4460.000000,4465.769043,4435.512695,4594.102539,4614.102539,4484.615234,4525.000000,0.000000,0.000000,13.000000,,,,0.000000,2.000000,2.000000,0.000000,2.000000,2.000000,2.000000,1.000000,2.000000,4.000000,4.000000,4.000000,4.000000,2.000000,4.000000,25.000000,,,,,,,,,,,,,,,,,,,,,,,,,,,,
1732081602.943475,1732081602.945693,62.000000,0.000000,4421.282227,4421.282227,4360.000000,4429.102539,4438.717773,4426.410156,4311.410156,4461.153809,4469.743652,4429.615234,4593.461426,4618.974121,4475.256348,4523.589844,0.000000,0.000000,13.000000,,,,0.000000,2.000000,2.000000,0.000000,2.000000,2.000000,2.000000,1.000000,2.000000,4.000000,4.000000,4.000000,4.000000,2.000000,4.000000,25.000000,,,,,,,,,,,,,,,,,,,,,,,,,,,,
1732081602.951284,1732081602.953501,63.000000,0.000000,4422.820313,4422.307617,4360.512695,4432.307617,4428.077148,4426.794922,4317.307617,4461.153809,4470.128418,4423.717773,4589.358887,4614.743652,4475.769043,4520.512695,0.000000,0.000000,13.000000,,,,0.000000,2.000000,2.000000,0.000000,2.000000,2.000000,2.000000,1.000000,2.000000,4.000000,4.000000,4.000000,4.000000,2.000000,4.000000,25.000000,,,,,,,,,,,,,,,,,,,,,,,,,,,,
1732081602.959092,1732081602.961409,64.000000,0.000000,4425.897461,4425.512695,4361.410156,4438.589844,4418.846191,4430.256348,4319.487305,4459.743652,4466.025879,4426.538574,4586.666504,4611.410156,4482.948730,4518.974121,1.000000,0.000000,13.000000,,,,0.000000,2.000000,2.000000,0.000000,2.000000,2.000000,2.000000,1.000000,2.000000,4.000000,4.000000,4.000000,4.000000,2.000000,4.000000,25.000000,,,,,,,,,,,,,,,,,16.000000,0.000000,0.619212,0.389282,-0.598206,0.327393,0.981565,0.076670,-0.023929,-77.559441,61.454227,28.287594
1732081602.966900,1732081602.969217,65.000000,0.000000,4427.179688,4429.871582,4362.948730,4445.256348,4429.230957,4431.282227,4316.410156,4458.974121,4462.051270,4430.512695,4588.461426,4618.846191,4483.077148,4522.051270,1277.000000,0.000000,13.000000,,,,0.000000,2.000000,2.000000,0.000000,2.000000,2.000000,2.000000,1.000000,2.000000,4.000000,4.000000,4.000000,4.000000,2.000000,4.000000,25.000000,,,,,,,,,,,,,,,,,,,,,,,,,,,,
1732081602.974708,1732081602.976925,66.000000,0.000000,4425.128418,4429.358887,4361.666504,4448.717773,4430.641113,4431.025879,4320.128418,4463.077148,4465.000000,4430.512695,4591.410156,4622.051270,4481.538574,4523.717773,1204.000000,0.000000,13.000000,,,,0.000000,2.000000,2.000000,0.000000,2.000000,2.000000,2.000000,1.000000,2.000000,4.000000,4.000000,4.000000,4.000000,2.000000,4.000000,25.000000,,,,,,,,,,,,,,,,,,,,,,,,,,,,
1732081602.982517,1732081602.984734,67.000000,0.000000,4423.589844,4428.974121,4360.769043,4448.333496,4426.282227,4433.974121,4325.256348,4466.410156,4473.333496,4430.000000,4592.179688,4618.205078,4481.538574,4521.922852,1160.000000,0.000000,13.000000,,,,0.000000,2.000000,2.000000,0.000000,2.000000,2.000000,2.000000,1.000000,2.000000,4.000000,4.000000,4.000000,4.000000,2.000000,4.000000,25.000000,,,,,,,,,,,,,,,,,,,,,,,,,,,,
1732081602.990325,1732081602.992442,68.000000,0.000000,4425.641113,4430.384766,4360.512695,4446.025879,4440.256348,4431.666504,4321.153809,4461.922852,4474.230957,4433.846191,4593.974121,4617.436035,4481.282227,4521.538574,1169.000000,0.000000,13.000000,,,,0.000000,2.000000,2.000000,0.000000,2.000000,2.000000,2.000000,1.000000,2.000000,4.000000,4.000000,4.000000,4.000000,2.000000,4.000000,25.000000,,,,,,,,,,,,,,,,,17.000000,0.000000,0.619227,0.388977,-0.598389,0.327393,0.969357,0.071786,-0.014162,-77.159813,61.527924,28.367950
1732081602.998133,1732081603.000250,69.000000,0.000000,4429.615234,4429.102539,4363.461426,4444.871582,4440.384766,4428.974121,4322.436035,4464.230957,4472.948730,4437.692383,4598.717773,4623.333496,4487.692383,4524.358887,1060.000000,0.000000,13.000000,,,,0.000000,2.000000,2.000000,0.000000,2.000000,2.000000,2.000000,1.000000,2.000000,4.000000,4.000000,4.000000,4.000000,2.000000,4.000000,25.000000,,,,,,,,,,,,,,,,,,,,,,,,,,,,
1732081603.005942,1732081603.007859,70.000000,0.000000,4428.846191,4427.820313,4365.128418,4447.051270,4422.692383,4437.563965,4330.769043,4472.563965,4474.487305,4435.384766,4600.256348,4630.384766,4491.794922,4525.512695,223.000000,0.000000,13.000000,,,,0.000000,2.000000,2.000000,0.000000,2.000000,2.000000,2.000000,1.000000,2.000000,4.000000,4.000000,4.000000,4.000000,2.000000,4.000000,25.000000,,,,,,,,,,,,,,,,,,,,,,,,,,,,
1732081603.013750,1732081603.015667,71.000000,0.000000,4427.179688,4428.717773,4364.102539,4449.230957,4426.666504,4441.794922,4332.179688,4467.179688,4471.153809,4431.153809,4594.871582,4632.051270,4482.307617,4522.948730,1175.000000,0.000000,13.000000,,,,0.000000,2.000000,2.000000,0.000000,2.000000,2.000000,2.000000,1.000000,2.000000,4.000000,4.000000,4.000000,4.000000,2.000000,4.000000,25.000000,,,,,,,,,,,,,,,,,,,,,,,,,,,,
1732081603.021558,1732081603.023375,72.000000,0.000000,4426.794922,4427.436035,4365.000000,4446.666504,4431.666504,4432.307617,4331.538574,4463.589844,4466.538574,4428.461426,4590.512695,4628.589844,4473.846191,4525.641113,1324.000000,0.000000,13.000000,,,,0.000000,2.000000,2.000000,0.000000,2.000000,2.000000,2.000000,1.000000,2.000000,4.000000,4.000000,4.000000,4.000000,2.000000,4.000000,25.000000,,,,,,,,,,,,,,,,,18.000000,0.000000,0.619227,0.388977,-0.598389,0.327393,0.968380,0.068856,-0.021487,-77.166115,61.479286,28.466373
1732081603.029366,1732081603.031183,73.000000,0.000000,4428.333496,4427.307617,4365.512695,4443.205078,4428.461426,4428.205078,4332.820313,4468.974121,4469.230957,4427.051270,4595.256348,4628.077148,4474.871582,4528.846191,1454.000000,0.000000,13.000000,,,,0.000000,2.000000,2.000000,0.000000,2.000000,2.000000,2.000000,1.000000,2.000000,4.000000,4.000000,4.000000,4.000000,2.000000,4.000000,25.000000,,,,,,,,,,,,,,,,,,,,,,,,,,,,
1732081603.037174,1732081603.038792,74.000000,0.000000,4429.871582,4429.615234,4364.743652,4444.358887,4439.230957,4433.077148,4334.871582,4465.256348,4469.743652,4429.230957,4598.974121,4631.282227,4475.000000,4528.461426,1342.000000,0.000000,13.000000,,,,0.000000,2.000000,2.000000,0.000000,2.000000,2.000000,2.000000,1.000000,2.000000,4.000000,4.000000,4.000000,4.000000,2.000000,4.000000,25.000000,,,,,,,,,,,,,,,,,,,,,,,,,,,,
1732081603.044983,1732081603.046600,75.000000,0.000000,4429.358887,4429.358887,4366.410156,4445.769043,4441.666504,4430.128418,4336.410156,4463.461426,4470.000000,4434.871582,4600.641113,4634.743652,4477.563965,4534.487305,1476.000000,0.000000,13.000000,,,,0.000000,2.000000,2.000000,0.000000,2.000000,2.000000,2.000000,1.000000,2.000000,4.000000,4.000000,4.000000,4.000000,2.000000,4.000000,25.000000,,,,,,,,,,,,,,,,,,,,,,,,,,,,
1732081603.052791,1732081603.054308,76.000000,0.000000,4424.487305,4427.692383,4367.820313,4445.384766,4426.538574,4429.615234,4339.358887,4473.205078,4473.846191,4435.256348,4602.820313,4639.358887,4480.128418,4541.538574,1693.000000,0.000000,13.000000,,,,0.000000,2.000000,2.000000,0.000000,2.000000,2.000000,2.000000,1.000000,2.000000,4.000000,4.000000,4.000000,4.000000,2.000000,4.000000,25.000000,,,,,,,,,,,,,,,,,19.000000,0.000000,0.619421,0.388855,-0.598267,0.327393,0.982053,0.079600,-0.019045,-77.302887,61.593220,28.671097
1732081603.060599,1732081603.062116,77.000000,0.000000,4423.205078,4427.820313,4365.897461,4446.666504,4428.974121,4436.794922,4339.358887,4475.256348,4473.717773,4429.358887,4601.025879,4636.410156,4472.820313,4536.922852,1648.000000,0.000000,13.000000,,,,0.000000,2.000000,2.000000,0.000000,2.000000,2.000000,2.000000,1.000000,2.000000,4.000000,4.000000,4.000000,4.000000,2.000000,4.000000,25.000000,,,,,,,,,,,,,,,,,,,,,,,,,,,,
1732081603.068407,1732081603.069725,78.000000,0.000000,4428.333496,4430.128418,4366.666504,4450.256348,4434.230957,4435.000000,4340.512695,4470.256348,4472.692383,4431.666504,4598.205078,4629.102539,4475.000000,4533.333496,1342.000000,0.000000,13.000000,,,,0.000000,2.000000,2.000000,0.000000,2.000000,2.000000,2.000000,1.000000,2.000000,4.000000,4.000000,4.000000,4.000000,2.000000,4.000000,25.000000,1.000000,16.666666,2.000000,2.000000,0.000000,2.000000,2.000000,1.000000,1.000000,1.000000,3.000000,1.000000,1.000000,3.000000,1.000000,3.000000,,,,,,,,,,,,
1732081603.076216,1732081603.077533,79.000000,0.000000,4431.538574,4432.051270,4367.820313,4448.589844,4433.846191,4428.461426,4340.000000,4472.820313,4476.922852,4440.769043,4601.153809,4632.820313,4486.666504,4538.589844,1476.000000,0.000000,13.000000,,,,0.000000,2.000000,2.000000,0.000000,2.000000,2.000000,2.000000,1.000000,2.000000,4.000000,4.000000,4.000000,4.000000,2.000000,4.000000,25.000000,,,,,,,,,,,,,,,,,,,,,,,,,,,,
1732081603.084024,1732081603.085241,80.000000,0.000000,4429.871582,4431.538574,4368.333496,4447.820313,4444.743652,4427.948730,4340.256348,4473.077148,4477.179688,4440.256348,4603.589844,4638.333496,4482.307617,4538.846191,1693.000000,0.000000,13.000000,,,,0.000000,2.000000,2.000000,0.000000,2.000000,2.000000,2.000000,1.000000,2.000000,4.000000,4.000000,4.000000,4.000000,2.000000,4.000000,25.000000,,,,,,,,,,,,,,,,,20.000000,0.000000,0.620065,0.388000,-0.598389,0.326965,0.988402,0.075693,-0.011232,-77.285339,61.485508,28.520254
1732081603.091832,1732081603.093050,81.000000,0.000000,4430.000000,4430.256348,4371.794922,4453.077148,4442.948730,4428.589844,4341.794922,4471.153809,4473.846191,4431.410156,4603.589844,4635.897461,4475.897461,4535.512695,1648.000000,0.000000,13.000000,,,,0.000000,2.000000,2.000000,0.000000,2.000000,2.000000,2.000000,1.000000,2.000000,4.000000,4.000000,4.000000,4.000000,2.000000,4.000000,25.000000,,,,,,,,,,,,,,,,,,,,,,,,,,,,
1732081603.099640,1732081603.100658,82.000000,0.000000,4429.871582,4431.025879,4373.846191,4452.692383,4425.897461,4428.077148,4343.461426,4472.820313,4474.615234,4428.974121,4605.000000,4638.205078,4481.794922,4536.153809,1342.000000,0.000000,13.000000,,,,0.000000,2.000000,2.000000,0.000000,2.000000,2.000000,2.000000,1.000000,2.000000,4.000000,4.000000,4.000000,4.000000,2.000000,4.000000,25.000000,,,,,,,,,,,,,,,,,,,,,,,,,,,,
1732081603.107449,1732081603.108466,83.000000,0.000000,4429.358887,4431.538574,4368.333496,4447.051270,4425.128418,4428.589844,4344.743652,4473.461426,4475.897461,4433.846191,4602.179688,4641.922852,4485.384766,4537.820313,1476.000000,0.000000,13.000000,,,,0.000000,2.000000,2.000000,0.000000,2.000000,2.000000,2.000000,1.000000,2.000000,4.000000,4.000000,4.000000,4.000000,2.000000,4.000000,25.000000,,,,,,,,,,,,,,,,,,,,,,,,,,,,
1732081603.115257,1732081603.116374,84.000000,0.000000,4432.051270,4431.794922,4367.051270,4450.256348,4431.153809,4427.948730,4349.615234,4472.179688,4475.000000,4434.615234,4597.692383,4634.615234,4485.128418,4538.205078,1693.000000,0.000000,13.000000,,,,0.000000,2.000000,2.000000,0.000000,2.000000,2.000000,2.000000,1.000000,2.000000,4.000000,4.000000,4.000000,4.000000,2.000000,4.000000,25.000000,,,,,,,,,,,,,,,,,21.000000,0.000000,0.620173,0.387878,-0.598389,0.326904,0.979612,0.072763,-0.014162,-77.387794,61.381596,28.548073
1732081603.123065,1732081603.124183,85.000000,0.000000,4433.461426,4435.769043,4370.128418,4458.077148,4431.410156,4426.794922,4352.307617,4471.410156,4473.974121,4432.051270,4602.307617,4629.871582,4489.102539,4540.769043,1648.000000,0.000000,13.000000,,,,0.000000,2.000000,2.000000,0.000000,2.000000,2.000000,2.000000,1.000000,2.000000,4.000000,4.000000,4.000000,4.000000,2.000000,4.000000,25.000000,,,,,,,,,,,,,,,,,,,,,,,,,,,,
1732081603.130874,1732081603.131791,86.000000,0.000000,4431.410156,4435.641113,4372.692383,4456.282227,4429.487305,4428.205078,4350.897461,4473.077148,4475.256348,4432.820313,4607.179688,4635.128418,4489.615234,4544.615234,1342.000000,0.000000,13.000000,,,,0.000000,2.000000,2.000000,0.000000,2.000000,2.000000,2.000000,1.000000,2.000000,4.000000,4.000000,4.000000,4.000000,2.000000,4.000000,25.000000,,,,,,,,,,,,,,,,,,,,,,,,,,,,
1732081603.138682,1732081603.139599,87.000000,0.000000,4430.512695,4435.512695,4373.333496,4454.230957,4432.692383,4430.000000,4351.153809,4473.077148,4476.153809,4437.436035,4603.077148,4636.410156,4490.000000,4542.948730,1476.000000,0.000000,13.000000,,,,0.000000,2.000000,2.000000,0.000000,2.000000,2.000000,2.000000,1.000000,2.000000,4.000000,4.000000,4.000000,4.000000,2.000000,4.000000,25.000000,,,,,,,,,,,,,,,,,,,,,,,,,,,,
1732081603.146490,1732081603.147307,88.000000,0.000000,4428.846191,4437.563965,4372.051270,4453.077148,4446.025879,4430.512695,4354.871582,4473.589844,4476.153809,4439.871582,4601.025879,4632.051270,4495.512695,4538.077148,1693.000000,0.000000,13.000000,,,,0.000000,2.000000,2.000000,0.000000,2.000000,2.000000,2.000000,1.000000,2.000000,4.000000,4.000000,4.000000,4.000000,2.000000,4.000000,25.000000,,,,,,,,,,,,,,,,,22.000000,0.000000,0.620179,0.387817,-0.598389,0.326965,0.979612,0.072763,-0.014162,-77.725777,61.245758,28.380606
1732081603.154298,1732081603.155116,89.000000,0.000000,4426.025879,4435.769043,4372.051270,4451.282227,4450.128418,4428.589844,4358.974121,4475.000000,4475.769043,4437.436035,4603.333496,4635.769043,4493.461426,4538.461426,1648.000000,0.000000,13.000000,,,,0.000000,2.000000,2.000000,0.000000,2.000000,2.000000,2.000000,1.000000,2.000000,4.000000,4.000000,4.000000,4.000000,2.000000,4.000000,25.000000,,,,,,,,,,,,,,,,,,,,,,,,,,,,
1732081603.162106,1732081603.162724,90.000000,0.000000,4428.077148,4435.256348,4373.846191,4454.102539,4430.897461,4428.077148,4360.128418,4476.025879,4474.743652,4433.333496,4602.692383,4642.820313,4490.769043,4541.666504,1342.000000,0.000000,13.000000,,,,0.000000,2.000000,2.000000,0.000000,2.000000,2.000000,2.000000,1.000000,2.000000,4.000000,4.000000,4.000000,4.000000,2.000000,4.000000,25.000000,,,,,,,,,,,,,,,,,,,,,,,,,,,,
1732081603.169915,1732081603.170532,91.000000,0.000000,4432.436035,4439.743652,4374.230957,4456.922852,4426.153809,4434.358887,4361.410156,4476.922852,4475.256348,4432.563965,4601.025879,4641.153809,4491.922852,4538.846191,1476.000000,0.000000,13.000000,,,,0.000000,2.000000,2.000000,0.000000,2.000000,2.000000,2.000000,1.000000,2.000000,4.000000,4.000000,4.000000,4.000000,2.000000,4.000000,25.000000,,,,,,,,,,,,,,,,,,,,,,,,,,,,
1732081603.177723,1732081603.178440,92.000000,0.000000,4432.563965,4438.077148,4372.436035,4455.384766,4446.922852,4436.410156,4358.333496,4474.743652,4477.051270,4434.615234,4601.538574,4634.230957,4489.615234,4536.666504,1693.000000,0.000000,13.000000,,,,0.000000,2.000000,2.000000,0.000000,2.000000,2.000000,2.000000,1.000000,2.000000,4.000000,4.000000,4.000000,4.000000,2.000000,4.000000,25.000000,,,,,,,,,,,,,,,,,23.000000,0.000000,0.619890,0.388245,-0.598145,0.327454,0.974728,0.079111,-0.014162,-77.486214,61.092400,28.088291
1732081603.185531,1732081603.186249,93.000000,0.000000,4430.256348,4434.487305,4375.641113,4452.563965,4448.077148,4433.077148,4356.666504,4472.948730,4477.179688,4435.128418,4602.179688,4632.179688,4487.820313,4538.333496,1648.000000,0.000000,13.000000,,,,0.000000,2.000000,2.000000,0.000000,2.000000,2.000000,2.000000,1.000000,2.000000,4.000000,4.000000,4.000000,4.000000,2.000000,4.000000,25.000000,,,,,,,,,,,,,,,,,,,,,,,,,,,,
1732081603.193339,1732081603.194257,94.000000,0.000000,4428.333496,4437.179688,4375.897461,4451.922852,4426.153809,4433.974121,4358.333496,4474.102539,4477.692383,4436.538574,4605.128418,4633.077148,4491.538574,4539.230957,1342.000000,0.000000,13.000000,,,,0.000000,2.000000,2.000000,0.000000,2.000000,2.000000,2.000000,1.000000,2.000000,4.000000,4.000000,4.000000,4.000000,2.000000,4.000000,25.000000,,,,,,,,,,,,,,,,,,,,,,,,,,,,
1732081603.201148,1732081603.202065,95.000000,0.000000,4430.256348,4435.769043,4373.974121,4448.461426,4422.692383,4434.743652,4362.692383,4475.512695,4477.563965,4436.922852,4607.563965,4632.436035,4493.461426,4541.282227,1476.000000,0.000000,13.000000,,,,0.000000,2.000000,2.000000,0.000000,2.000000,2.000000,2.000000,1.000000,2.000000,4.000000,4.000000,4.000000,4.000000,2.000000,4.000000,25.000000,,,,,,,,,,,,,,,,,,,,,,,,,,,,
1732081603.208956,1732081603.209973,96.000000,0.000000,4434.487305,4432.948730,4375.897461,4446.025879,4438.077148,4428.461426,4361.282227,4473.974121,4475.769043,4434.358887,4604.102539,4631.794922,4490.641113,4539.358887,1693.000000,0.000000,13.000000,,,,0.000000,2.000000,2.000000,0.000000,2.000000,2.000000,2.000000,1.000000,2.000000,4.000000,4.000000,4.000000,4.000000,2.000000,4.000000,25.000000,,,,,,,,,,,,,,,,,24.000000,0.000000,0.619732,0.388428,-0.598022,0.327759,0.987914,0.083995,-0.020022,-77.422165,61.159843,27.981516
1732081603.216764,1732081603.217781,97.000000,0.000000,4433.717773,4435.512695,4376.410156,4447.820313,4439.871582,4427.948730,4361.538574,4472.307617,4473.846191,4430.897461,4601.538574,4628.717773,4490.769043,4535.256348,1648.000000,0.000000,13.000000,,,,0.000000,2.000000,2.000000,0.000000,2.000000,2.000000,2.000000,1.000000,2.000000,4.000000,4.000000,4.000000,4.000000,2.000000,4.000000,25.000000,,,,,,,,,,,,,,,,,,,,,,,,,,,,
1732081603.224573,1732081603.225789,98.000000,0.000000,4430.128418,4435.000000,4373.461426,4447.820313,4432.179688,4439.358887,4365.256348,4472.563965,4474.615234,4429.230957,4602.179688,4623.846191,4493.717773,4537.436035,1342.000000,0.000000,13.000000,,,,0.000000,2.000000,2.000000,0.000000,2.000000,2.000000,2.000000,1.000000,2.000000,4.000000,4.000000,4.000000,4.000000,2.000000,4.000000,25.000000,,,,,,,,,,,,,,,,,,,,,,,,,,,,
1732081603.232381,1732081603.233597,99.000000,0.000000,4430.128418,4431.025879,4374.871582,4443.846191,4441.794922,4440.256348,4367.436035,4473.974121,4476.025879,4428.461426,4600.769043,4622.563965,4491.794922,4534.615234,1476.000000,0.000000,13.000000,,,,0.000000,2.000000,2.000000,0.000000,2.000000,2.000000,2.000000,1.000000,2.000000,4.000000,4.000000,4.000000,4.000000,2.000000,4.000000,25.000000,,,,,,,,,,,,,,,,,,,,,,,,,,,,
1732081603.240189,1732081603.241305,100.000000,0.000000,4431.153809,4431.025879,4375.641113,4445.128418,4448.077148,4428.333496,4368.077148,4474.871582,4476.538574,4429.743652,4597.820313,4623.717773,4489.743652,4527.051270,1693.000000,0.000000,13.000000,,,,0.000000,2.000000,2.000000,0.000000,2.000000,2.000000,2.000000,1.000000,2.000000,4.000000,4.000000,4.000000,4.000000,2.000000,4.000000,25.000000,,,,,,,,,,,,,,,,,25.000000,0.000000,0.619641,0.388367,-0.598022,0.328003,0.985472,0.083995,-0.012697,-77.401955,61.231140,28.165028
1732081603.247997,1732081603.249113,101.000000,0.000000,4431.153809,4436.025879,4372.948730,4451.666504,4434.487305,4426.922852,4368.846191,4475.256348,4477.307617,4433.589844,4598.589844,4628.461426,4492.051270,4532.051270,1648.000000,0.000000,13.000000,,,,0.000000,2.000000,2.000000,0.000000,2.000000,2.000000,2.000000,1.000000,2.000000,4.000000,4.000000,4.000000,4.000000,2.000000,4.000000,25.000000,,,,,,,,,,,,,,,,,,,,,,,,,,,,
1732081603.255806,1732081603.257121,102.000000,0.000000,4435.641113,4441.025879,4373.205078,4453.333496,4423.077148,4435.384766,4370.256348,4476.666504,4479.230957,4438.077148,4610.769043,4635.641113,4497.948730,4546.025879,1342.000000,0.000000,13.000000,,,,0.000000,2.000000,2.000000,0.000000,2.000000,2.000000,2.000000,1.000000,2.000000,4.000000,4.000000,4.000000,4.000000,2.000000,4.000000,25.000000,,,,,,,,,,,,,,,,,,,,,,,,,,,,
1732081603.263614,1732081603.264930,103.000000,0.000000,4439.230957,4438.205078,4378.717773,4450.256348,4426.794922,4434.871582,4370.384766,4476.922852,4477.563965,4438.333496,4616.410156,4635.256348,4498.846191,4546.282227,1476.000000,0.000000,13.000000,,,,0.000000,2.000000,2.000000,0.000000,2.000000,2.000000,2.000000,1.000000,2.000000,4.000000,4.000000,4.000000,4.000000,2.000000,4.000000,25.000000,,,,,,,,,,,,,,,,,,,,,,,,,,,,
1732081603.271422,1732081603.272838,104.000000,0.000000,4436.282227,4432.051270,4377.948730,4445.512695,4439.358887,4428.589844,4372.051270,4474.743652,4475.128418,4432.820313,4607.179688,4626.410156,4496.025879,4537.820313,1693.000000,0.000000,13.000000,,,,0.000000,2.000000,2.000000,0.000000,2.000000,2.000000,2.000000,1.000000,2.000000,4.000000,4.000000,4.000000,4.000000,2.000000,4.000000,25.000000,,,,,,,,,,,,,,,,,26.000000,0.000000,0.619641,0.388367,-0.598022,0.328003,0.985472,0.083995,-0.012697,-77.340584,61.288891,28.088673
1732081603.279230,1732081603.280646,105.000000,0.000000,4431.922852,4433.589844,4373.205078,4442.948730,4439.615234,4429.743652,4374.871582,4474.743652,4478.846191,4433.205078,4602.692383,4624.615234,4495.128418,4536.922852,1648.000000,0.000000,13.000000,,,,0.000000,2.000000,2.000000,0.000000,2.000000,2.000000,2.000000,1.000000,2.000000,4.000000,4.000000,4.000000,4.000000,2.000000,4.000000,25.000000,,,,,,,,,,,,,,,,,,,,,,,,,,,,
1732081603.287038,1732081603.288654,106.000000,0.000000,4431.666504,4433.589844,4373.974121,4446.153809,4426.282227,4431.794922,4377.051270,4476.025879,4481.025879,4439.487305,4608.077148,4631.794922,4499.743652,4541.282227,1342.000000,0.000000,13.000000,,,,0.000000,2.000000,2.000000,0.000000,2.000000,2.000000,2.000000,1.000000,2.000000,4.000000,4.000000,4.000000,4.000000,2.000000,4.000000,25.000000,,,,,,,,,,,,,,,,,,,,,,,,,,,,
1732081603.294847,1732081603.296462,107.000000,0.000000,4429.102539,4428.589844,4377.051270,4443.974121,4424.358887,4430.641113,4375.384766,4475.128418,4476.794922,4438.333496,4609.230957,4634.615234,4501.153809,4541.410156,1476.000000,0.000000,13.000000,,,,0.000000,2.000000,2.000000,0.000000,2.000000,2.000000,2.000000,1.000000,2.000000,4.000000,4.000000,4.000000,4.000000,2.000000,4.000000,25.000000,,,,,,,,,,,,,,,,,,,,,,,,,,,,
1732081603.302655,1732081603.304370,108.000000,0.000000,4421.666504,4427.820313,4374.230957,4436.794922,4431.153809,4434.871582,4377.307617,4476.410156,4473.974121,4429.358887,4606.153809,4630.641113,4494.871582,4535.769043,1693.000000,0.000000,13.000000,,,,0.000000,2.000000,2.000000,0.000000,2.000000,2.000000,2.000000,1.000000,2.000000,4.000000,4.000000,4.000000,4.000000,2.000000,4.000000,25.000000,,,,,,,,,,,,,,,,,27.000000,0.000000,0.619473,0.388367,-0.597961,0.328430,0.978147,0.086436,-0.012697,-77.529205,61.245667,28.121824
1732081603.310463,1732081603.312178,109.000000,0.000000,4417.820313,4426.794922,4370.769043,4435.769043,4434.358887,4438.846191,4378.974121,4478.846191,4474.487305,4423.589844,4600.000000,4622.948730,4487.820313,4529.487305,1648.000000,0.000000,13.000000,,,,0.000000,2.000000,2.000000,0.000000,2.000000,2.000000,2.000000,1.000000,2.000000,4.000000,4.000000,4.000000,4.000000,2.000000,4.000000,25.000000,,,,,,,,,,,,,,,,,,,,,,,,,,,,
