title:four3, start timestamp:1732083226.243488, stop timestamp:1732083272.343489, headset type:EPOCX, headset serial:E5020C3A, headset firmware:730, channels:67, sampling rate:eeg_128;mot_32, samples:5905      , version:2.2, 
Timestamp,OriginalTimestamp,EEG.Counter,EEG.Interpolated,EEG.AF3,EEG.F7,EEG.F3,EEG.FC5,EEG.T7,EEG.P7,EEG.O1,EEG.O2,EEG.P8,EEG.T8,EEG.FC6,EEG.F4,EEG.F8,EEG.AF4,EEG.RawCq,EEG.Battery,EEG.BatteryPercent,MarkerIndex,MarkerType,MarkerValueInt,EEG.MarkerHardware,CQ.AF3,CQ.F7,CQ.F3,CQ.FC5,CQ.T7,CQ.P7,CQ.O1,CQ.O2,CQ.P8,CQ.T8,CQ.FC6,CQ.F4,CQ.F8,CQ.AF4,CQ.Overall,EQ.SampleRateQuality,EQ.OVERALL,EQ.AF3,EQ.F7,EQ.F3,EQ.FC5,EQ.T7,EQ.P7,EQ.O1,EQ.O2,EQ.P8,EQ.T8,EQ.FC6,EQ.F4,EQ.F8,EQ.AF4,MOT.CounterMems,MOT.InterpolatedMems,MOT.Q0,MOT.Q1,MOT.Q2,MOT.Q3,MOT.AccX,MOT.AccY,MOT.AccZ,MOT.MagX,MOT.MagY,MOT.MagZ
1732083226.243488,1732083226.244877,85.000000,0.000000,4303.205078,4302.179688,4320.128418,4318.205078,4305.641113,4307.307617,4326.794922,4320.769043,4320.641113,4303.974121,4440.000000,4472.820313,4335.000000,4385.128418,1623.000000,0.000000,7.000000,,,,0.000000,2.000000,2.000000,0.000000,2.000000,2.000000,2.000000,0.000000,2.000000,4.000000,4.000000,4.000000,4.000000,2.000000,4.000000,16.666666,,,,,,,,,,,,,,,,,,,,,,,,,,,,
1732083226.251297,1732083226.252485,86.000000,0.000000,4301.025879,4298.974121,4318.974121,4317.948730,4302.179688,4307.692383,4326.025879,4323.846191,4320.128418,4299.487305,4442.563965,4470.256348,4336.794922,4381.538574,1379.000000,0.000000,7.000000,,,,0.000000,2.000000,2.000000,0.000000,2.000000,2.000000,2.000000,0.000000,2.000000,4.000000,4.000000,4.000000,4.000000,2.000000,4.000000,16.666666,,,,,,,,,,,,,,,,,,,,,,,,,,,,
1732083226.259105,1732083226.260293,87.000000,0.000000,4298.077148,4293.846191,4321.025879,4315.256348,4303.461426,4307.692383,4324.358887,4323.846191,4322.692383,4296.794922,4441.282227,4467.692383,4335.769043,4377.436035,1514.000000,0.000000,7.000000,,,,0.000000,2.000000,2.000000,0.000000,2.000000,2.000000,2.000000,0.000000,2.000000,4.000000,4.000000,4.000000,4.000000,2.000000,4.000000,16.666666,,,,,,,,,,,,,,,,,,,,,,,,,,,,
1732083226.266913,1732083226.268002,88.000000,0.000000,4295.641113,4290.897461,4318.205078,4315.512695,4299.615234,4309.358887,4327.820313,4322.051270,4323.974121,4301.410156,4438.077148,4465.897461,4330.769043,4377.563965,1741.000000,0.000000,7.000000,,,,0.000000,2.000000,2.000000,0.000000,2.000000,2.000000,2.000000,0.000000,2.000000,4.000000,4.000000,4.000000,4.000000,2.000000,4.000000,16.666666,,,,,,,,,,,,,,,,,22.000000,0.000000,0.645981,0.403442,-0.576843,0.295288,0.965938,0.167989,0.017092,-72.832321,65.845848,31.139179
1732083226.274722,1732083226.275810,89.000000,0.000000,4294.230957,4290.128418,4316.666504,4313.846191,4309.230957,4310.512695,4329.871582,4326.025879,4322.436035,4305.256348,4438.333496,4466.922852,4327.820313,4380.769043,1623.000000,0.000000,7.000000,,,,0.000000,2.000000,2.000000,0.000000,2.000000,2.000000,2.000000,0.000000,2.000000,4.000000,4.000000,4.000000,4.000000,2.000000,4.000000,16.666666,,,,,,,,,,,,,,,,,,,,,,,,,,,,
1732083226.282530,1732083226.283818,90.000000,0.000000,4294.743652,4290.769043,4316.538574,4307.307617,4316.282227,4309.487305,4327.692383,4332.563965,4323.974121,4304.358887,4442.563965,4470.256348,4330.769043,4382.179688,1379.000000,0.000000,7.000000,,,,0.000000,2.000000,2.000000,0.000000,2.000000,2.000000,2.000000,0.000000,2.000000,4.000000,4.000000,4.000000,4.000000,2.000000,4.000000,16.666666,,,,,,,,,,,,,,,,,,,,,,,,,,,,
1732083226.290338,1732083226.291626,91.000000,0.000000,4292.692383,4290.384766,4317.692383,4302.948730,4297.563965,4310.256348,4328.077148,4332.307617,4330.000000,4308.846191,4447.820313,4473.333496,4334.871582,4384.358887,1514.000000,0.000000,7.000000,,,,0.000000,2.000000,2.000000,0.000000,2.000000,2.000000,2.000000,0.000000,2.000000,4.000000,4.000000,4.000000,4.000000,2.000000,4.000000,16.666666,,,,,,,,,,,,,,,,,,,,,,,,,,,,
1732083226.298146,1732083226.299534,92.000000,0.000000,4289.615234,4290.256348,4318.589844,4304.743652,4287.563965,4311.922852,4327.948730,4325.256348,4329.358887,4311.410156,4445.384766,4472.051270,4335.512695,4384.230957,1741.000000,0.000000,7.000000,,,,0.000000,2.000000,2.000000,0.000000,2.000000,2.000000,2.000000,0.000000,2.000000,4.000000,4.000000,4.000000,4.000000,2.000000,4.000000,16.666666,,,,,,,,,,,,,,,,,23.000000,0.000000,0.645677,0.403748,-0.576782,0.295654,0.962031,0.173361,-0.000977,-72.737511,66.096802,30.827734
1732083226.305954,1732083226.307342,93.000000,0.000000,4291.025879,4291.922852,4319.358887,4305.512695,4299.102539,4309.871582,4325.128418,4323.333496,4327.692383,4309.358887,4442.820313,4468.589844,4336.025879,4381.282227,1623.000000,0.000000,7.000000,,,,0.000000,2.000000,2.000000,0.000000,2.000000,2.000000,2.000000,0.000000,2.000000,4.000000,4.000000,4.000000,4.000000,2.000000,4.000000,16.666666,,,,,,,,,,,,,,,,,,,,,,,,,,,,
1732083226.313763,1732083226.315350,94.000000,0.000000,4295.128418,4291.922852,4317.051270,4305.384766,4302.179688,4310.512695,4324.358887,4326.538574,4331.410156,4311.666504,4448.077148,4467.563965,4339.230957,4382.563965,1379.000000,0.000000,7.000000,,,,0.000000,2.000000,2.000000,0.000000,2.000000,2.000000,2.000000,0.000000,2.000000,4.000000,4.000000,4.000000,4.000000,2.000000,4.000000,16.666666,,,,,,,,,,,,,,,,,,,,,,,,,,,,
1732083226.321571,1732083226.323159,95.000000,0.000000,4297.179688,4291.922852,4312.563965,4307.179688,4298.205078,4314.871582,4324.615234,4325.000000,4331.153809,4311.666504,4448.461426,4466.153809,4338.589844,4384.230957,1514.000000,0.000000,7.000000,,,,0.000000,2.000000,2.000000,0.000000,2.000000,2.000000,2.000000,0.000000,2.000000,4.000000,4.000000,4.000000,4.000000,2.000000,4.000000,16.666666,,,,,,,,,,,,,,,,,,,,,,,,,,,,
1732083226.329379,1732083226.330867,96.000000,0.000000,4292.820313,4293.205078,4316.025879,4306.025879,4302.179688,4312.179688,4327.307617,4322.692383,4325.641113,4307.436035,4440.641113,4465.384766,4333.205078,4381.153809,1741.000000,0.000000,7.000000,,,,0.000000,2.000000,2.000000,0.000000,2.000000,2.000000,2.000000,0.000000,2.000000,4.000000,4.000000,4.000000,4.000000,2.000000,4.000000,16.666666,,,,,,,,,,,,,,,,,24.000000,0.000000,0.645275,0.403992,-0.576904,0.295959,0.955683,0.169943,0.014650,-72.565720,65.900078,30.862131
1732083226.337187,1732083226.338675,97.000000,0.000000,4287.563965,4291.666504,4318.717773,4305.384766,4300.256348,4308.333496,4328.846191,4325.000000,4325.641113,4308.846191,4438.589844,4469.615234,4335.000000,4378.974121,1623.000000,0.000000,7.000000,,,,0.000000,2.000000,2.000000,0.000000,2.000000,2.000000,2.000000,0.000000,2.000000,4.000000,4.000000,4.000000,4.000000,2.000000,4.000000,16.666666,,,,,,,,,,,,,,,,,,,,,,,,,,,,
1732083226.344996,1732083226.346683,98.000000,0.000000,4288.717773,4287.051270,4318.589844,4306.794922,4302.051270,4309.487305,4328.461426,4326.538574,4327.436035,4305.897461,4439.871582,4473.589844,4336.794922,4382.948730,1379.000000,0.000000,7.000000,,,,0.000000,2.000000,2.000000,0.000000,2.000000,2.000000,2.000000,0.000000,2.000000,4.000000,4.000000,4.000000,4.000000,2.000000,4.000000,16.666666,,,,,,,,,,,,,,,,,,,,,,,,,,,,
1732083226.352804,1732083226.354491,99.000000,0.000000,4293.461426,4287.179688,4316.794922,4307.563965,4311.410156,4305.641113,4325.000000,4321.153809,4322.179688,4298.589844,4437.820313,4473.461426,4331.410156,4386.922852,1514.000000,0.000000,7.000000,,,,0.000000,2.000000,2.000000,0.000000,2.000000,2.000000,2.000000,0.000000,2.000000,4.000000,4.000000,4.000000,4.000000,2.000000,4.000000,16.666666,,,,,,,,,,,,,,,,,,,,,,,,,,,,
1732083226.360612,1732083226.362399,100.000000,0.000000,4294.871582,4289.615234,4321.282227,4304.487305,4299.615234,4300.384766,4326.153809,4316.410156,4318.589844,4303.846191,4439.358887,4477.307617,4331.025879,4388.974121,1741.000000,0.000000,7.000000,,,,0.000000,2.000000,2.000000,0.000000,2.000000,2.000000,2.000000,0.000000,2.000000,4.000000,4.000000,4.000000,4.000000,2.000000,4.000000,16.666666,,,,,,,,,,,,,,,,,25.000000,0.000000,0.645195,0.403992,-0.577087,0.295776,0.978147,0.170431,0.009278,-72.609901,65.832397,30.836660
1732083226.368420,1732083226.370208,101.000000,0.000000,4294.487305,4291.666504,4319.615234,4306.794922,4288.589844,4305.897461,4325.256348,4318.717773,4324.743652,4313.717773,4443.846191,4480.769043,4336.153809,4389.102539,1623.000000,0.000000,7.000000,,,,0.000000,2.000000,2.000000,0.000000,2.000000,2.000000,2.000000,0.000000,2.000000,4.000000,4.000000,4.000000,4.000000,2.000000,4.000000,16.666666,,,,,,,,,,,,,,,,,,,,,,,,,,,,
1732083226.376229,1732083226.378216,102.000000,0.000000,4295.384766,4293.077148,4319.102539,4313.333496,4298.589844,4311.410156,4325.000000,4321.794922,4326.922852,4307.436035,4439.102539,4475.512695,4333.077148,4386.538574,1379.000000,0.000000,7.000000,,,,0.000000,2.000000,2.000000,0.000000,2.000000,2.000000,2.000000,0.000000,2.000000,4.000000,4.000000,4.000000,4.000000,2.000000,4.000000,16.666666,,,,,,,,,,,,,,,,,,,,,,,,,,,,
1732083226.384037,1732083226.386024,103.000000,0.000000,4299.743652,4292.563965,4318.333496,4311.410156,4301.410156,4308.846191,4324.871582,4319.102539,4321.922852,4298.846191,4433.461426,4468.205078,4327.563965,4385.256348,1514.000000,0.000000,7.000000,,,,0.000000,2.000000,2.000000,0.000000,2.000000,2.000000,2.000000,0.000000,2.000000,4.000000,4.000000,4.000000,4.000000,2.000000,4.000000,16.666666,,,,,,,,,,,,,,,,,,,,,,,,,,,,
1732083226.391845,1732083226.393932,104.000000,0.000000,4303.846191,4289.871582,4318.974121,4306.538574,4296.666504,4306.153809,4325.769043,4317.051270,4320.000000,4300.897461,4435.256348,4466.282227,4330.641113,4385.384766,1741.000000,0.000000,7.000000,,,,0.000000,2.000000,2.000000,0.000000,2.000000,2.000000,2.000000,0.000000,2.000000,4.000000,4.000000,4.000000,4.000000,2.000000,4.000000,16.666666,,,,,,,,,,,,,,,,,26.000000,0.000000,0.644944,0.404175,-0.577209,0.295837,0.970822,0.160176,0.000000,-72.462349,65.610909,30.677694
1732083226.399654,1732083226.401740,105.000000,0.000000,4299.102539,4289.102539,4318.589844,4307.436035,4309.615234,4305.256348,4323.846191,4318.717773,4320.897461,4305.128418,4438.589844,4469.230957,4332.436035,4386.666504,1623.000000,0.000000,7.000000,,,,0.000000,2.000000,2.000000,0.000000,2.000000,2.000000,2.000000,0.000000,2.000000,4.000000,4.000000,4.000000,4.000000,2.000000,4.000000,16.666666,,,,,,,,,,,,,,,,,,,,,,,,,,,,
1732083226.407462,1732083226.409748,106.000000,0.000000,4295.128418,4292.436035,4318.974121,4311.282227,4309.102539,4304.743652,4322.436035,4319.230957,4321.410156,4306.794922,4441.282227,4477.563965,4333.205078,4388.461426,1379.000000,0.000000,7.000000,,,,0.000000,2.000000,2.000000,0.000000,2.000000,2.000000,2.000000,0.000000,2.000000,4.000000,4.000000,4.000000,4.000000,2.000000,4.000000,16.666666,,,,,,,,,,,,,,,,,,,,,,,,,,,,
1732083226.415270,1732083226.417556,107.000000,0.000000,4301.922852,4296.025879,4318.461426,4315.769043,4286.538574,4307.563965,4324.230957,4322.436035,4324.487305,4307.179688,4447.179688,4484.358887,4336.538574,4392.051270,1514.000000,0.000000,7.000000,,,,0.000000,2.000000,2.000000,0.000000,2.000000,2.000000,2.000000,0.000000,2.000000,4.000000,4.000000,4.000000,4.000000,2.000000,4.000000,16.666666,,,,,,,,,,,,,,,,,,,,,,,,,,,,
1732083226.423078,1732083226.425464,108.000000,0.000000,4304.743652,4291.794922,4318.077148,4317.179688,4287.307617,4308.717773,4325.256348,4327.051270,4325.641113,4304.615234,4448.077148,4481.794922,4334.743652,4393.205078,1741.000000,0.000000,7.000000,,,,0.000000,2.000000,2.000000,0.000000,2.000000,2.000000,2.000000,0.000000,2.000000,4.000000,4.000000,4.000000,4.000000,2.000000,4.000000,16.666666,,,,,,,,,,,,,,,,,27.000000,0.000000,0.644360,0.404663,-0.577332,0.296204,0.953241,0.163106,0.007813,-72.586174,65.679832,30.543932
1732083226.430887,1732083226.433273,109.000000,0.000000,4299.487305,4286.666504,4320.128418,4310.769043,4301.922852,4309.102539,4326.025879,4327.307617,4325.769043,4307.820313,4441.666504,4479.487305,4329.871582,4389.230957,1623.000000,0.000000,7.000000,,,,0.000000,2.000000,2.000000,0.000000,2.000000,2.000000,2.000000,0.000000,2.000000,4.000000,4.000000,4.000000,4.000000,2.000000,4.000000,16.666666,,,,,,,,,,,,,,,,,,,,,,,,,,,,
1732083226.438695,1732083226.441281,110.000000,0.000000,4298.077148,4292.307617,4321.153809,4308.333496,4301.794922,4311.538574,4325.769043,4324.871582,4326.025879,4309.615234,4442.820313,4481.025879,4329.615234,4385.641113,1379.000000,0.000000,7.000000,,,,0.000000,2.000000,2.000000,0.000000,2.000000,2.000000,2.000000,0.000000,2.000000,4.000000,4.000000,4.000000,4.000000,2.000000,4.000000,16.666666,,,,,,,,,,,,,,,,,,,,,,,,,,,,
1732083226.446503,1732083226.449089,111.000000,0.000000,4300.512695,4298.974121,4320.384766,4314.230957,4294.358887,4308.589844,4325.384766,4319.615234,4321.922852,4302.563965,4447.307617,4475.256348,4331.282227,4385.897461,1514.000000,0.000000,7.000000,,,,0.000000,2.000000,2.000000,0.000000,2.000000,2.000000,2.000000,0.000000,2.000000,4.000000,4.000000,4.000000,4.000000,2.000000,4.000000,16.666666,,,,,,,,,,,,,,,,,,,,,,,,,,,,
1732083226.454311,1732083226.456797,112.000000,0.000000,4300.512695,4297.179688,4317.051270,4315.128418,4296.282227,4300.641113,4324.102539,4316.538574,4319.743652,4302.307617,4446.282227,4468.077148,4330.384766,4388.333496,1741.000000,0.000000,7.000000,,,,0.000000,2.000000,2.000000,0.000000,2.000000,2.000000,2.000000,0.000000,2.000000,4.000000,4.000000,4.000000,4.000000,2.000000,4.000000,16.666666,,,,,,,,,,,,,,,,,28.000000,0.000000,0.643739,0.404907,-0.577759,0.296387,0.962520,0.162618,0.012697,-72.791466,65.562332,30.512253
1732083226.462120,1732083226.464605,113.000000,0.000000,4299.615234,4293.974121,4319.871582,4312.307617,4299.102539,4301.794922,4326.153809,4318.461426,4322.436035,4310.384766,4443.077148,4473.846191,4332.436035,4389.487305,1623.000000,0.000000,7.000000,,,,0.000000,2.000000,2.000000,0.000000,2.000000,2.000000,2.000000,0.000000,2.000000,4.000000,4.000000,4.000000,4.000000,2.000000,4.000000,16.666666,,,,,,,,,,,,,,,,,,,,,,,,,,,,
1732083226.469928,1732083226.472214,114.000000,0.000000,4303.717773,4296.666504,4321.410156,4314.230957,4295.897461,4306.153809,4325.641113,4320.000000,4321.922852,4308.974121,4443.333496,4479.743652,4334.230957,4391.538574,1379.000000,0.000000,7.000000,,,,0.000000,2.000000,2.000000,0.000000,2.000000,2.000000,2.000000,0.000000,2.000000,4.000000,4.000000,4.000000,4.000000,2.000000,4.000000,16.666666,,,,,,,,,,,,,,,,,,,,,,,,,,,,
1732083226.477736,1732083226.480022,115.000000,0.000000,4306.410156,4298.077148,4320.512695,4315.512695,4294.487305,4304.743652,4325.897461,4318.717773,4319.487305,4301.025879,4444.871582,4477.563965,4334.230957,4393.974121,1514.000000,0.000000,7.000000,,,,0.000000,2.000000,2.000000,0.000000,2.000000,2.000000,2.000000,0.000000,2.000000,4.000000,4.000000,4.000000,4.000000,2.000000,4.000000,16.666666,,,,,,,,,,,,,,,,,,,,,,,,,,,,
1732083226.485545,1732083226.487730,116.000000,0.000000,4306.153809,4295.128418,4318.846191,4317.563965,4297.307617,4303.461426,4324.871582,4320.128418,4320.512695,4302.051270,4443.717773,4477.307617,4337.692383,4394.358887,1741.000000,0.000000,7.000000,,,,0.000000,2.000000,2.000000,0.000000,2.000000,2.000000,2.000000,0.000000,2.000000,4.000000,4.000000,4.000000,4.000000,2.000000,4.000000,16.666666,,,,,,,,,,,,,,,,,29.000000,0.000000,0.643480,0.404968,-0.577942,0.296509,0.962520,0.162618,0.012697,-72.831085,65.423820,30.446590
1732083226.493353,1732083226.495539,117.000000,0.000000,4305.512695,4294.871582,4323.846191,4320.641113,4297.436035,4304.102539,4325.512695,4318.077148,4319.230957,4305.128418,4442.307617,4480.256348,4338.333496,4392.563965,1623.000000,0.000000,7.000000,,,,0.000000,2.000000,2.000000,0.000000,2.000000,2.000000,2.000000,0.000000,2.000000,4.000000,4.000000,4.000000,4.000000,2.000000,4.000000,16.666666,,,,,,,,,,,,,,,,,,,,,,,,,,,,
1732083226.501161,1732083226.503147,118.000000,0.000000,4306.410156,4294.358887,4322.948730,4319.487305,4297.948730,4305.769043,4324.487305,4312.563965,4318.717773,4305.000000,4441.282227,4479.358887,4334.743652,4390.769043,1379.000000,0.000000,7.000000,,,,0.000000,2.000000,2.000000,0.000000,2.000000,2.000000,2.000000,0.000000,2.000000,4.000000,4.000000,4.000000,4.000000,2.000000,4.000000,16.666666,,,,,,,,,,,,,,,,,,,,,,,,,,,,
1732083226.508969,1732083226.510955,119.000000,0.000000,4306.282227,4288.717773,4320.128418,4313.846191,4300.000000,4305.512695,4324.487305,4312.307617,4318.974121,4302.307617,4440.000000,4478.846191,4330.256348,4388.974121,1514.000000,0.000000,7.000000,,,,0.000000,2.000000,2.000000,0.000000,2.000000,2.000000,2.000000,0.000000,2.000000,4.000000,4.000000,4.000000,4.000000,2.000000,4.000000,16.666666,,,,,,,,,,,,,,,,,,,,,,,,,,,,
1732083226.516778,1732083226.518663,120.000000,0.000000,4308.717773,4291.282227,4318.974121,4314.743652,4298.461426,4304.102539,4325.256348,4314.487305,4315.641113,4297.563965,4439.743652,4478.333496,4330.256348,4387.820313,1741.000000,0.000000,7.000000,,,,0.000000,2.000000,2.000000,0.000000,2.000000,2.000000,2.000000,0.000000,2.000000,4.000000,4.000000,4.000000,4.000000,2.000000,4.000000,16.666666,,,,,,,,,,,,,,,,,30.000000,0.000000,0.643221,0.405029,-0.578125,0.296631,0.973752,0.147479,-0.005860,-72.879845,65.219963,30.335072
1732083226.524586,1732083226.526472,121.000000,0.000000,4311.666504,4300.512695,4322.436035,4320.000000,4297.051270,4303.589844,4327.563965,4312.692383,4311.922852,4296.794922,4437.051270,4476.666504,4332.436035,4388.974121,1623.000000,0.000000,7.000000,,,,0.000000,2.000000,2.000000,0.000000,2.000000,2.000000,2.000000,0.000000,2.000000,4.000000,4.000000,4.000000,4.000000,2.000000,4.000000,16.666666,,,,,,,,,,,,,,,,,,,,,,,,,,,,
1732083226.532394,1732083226.534080,122.000000,0.000000,4310.384766,4300.256348,4321.410156,4320.641113,4301.282227,4302.820313,4325.897461,4312.051270,4310.384766,4296.922852,4435.256348,4475.256348,4331.538574,4389.871582,1379.000000,0.000000,7.000000,,,,0.000000,2.000000,2.000000,0.000000,2.000000,2.000000,2.000000,0.000000,2.000000,4.000000,4.000000,4.000000,4.000000,2.000000,4.000000,16.666666,,,,,,,,,,,,,,,,,,,,,,,,,,,,
1732083226.540203,1732083226.541888,123.000000,0.000000,4311.794922,4297.563965,4320.897461,4318.333496,4300.512695,4301.025879,4323.333496,4319.487305,4312.179688,4291.025879,4440.384766,4476.666504,4330.897461,4392.051270,1514.000000,0.000000,7.000000,,,,0.000000,2.000000,2.000000,0.000000,2.000000,2.000000,2.000000,0.000000,2.000000,4.000000,4.000000,4.000000,4.000000,2.000000,4.000000,16.666666,,,,,,,,,,,,,,,,,,,,,,,,,,,,
1732083226.548011,1732083226.549597,124.000000,0.000000,4313.205078,4299.230957,4323.333496,4318.717773,4299.230957,4299.102539,4324.487305,4321.410156,4313.205078,4286.153809,4446.666504,4480.512695,4336.025879,4393.974121,1741.000000,0.000000,7.000000,,,,0.000000,2.000000,2.000000,0.000000,2.000000,2.000000,2.000000,0.000000,2.000000,4.000000,4.000000,4.000000,4.000000,2.000000,4.000000,16.666666,,,,,,,,,,,,,,,,,31.000000,0.000000,0.642071,0.404480,-0.579285,0.297607,0.983518,0.159199,0.005860,-72.891006,65.363167,30.569742
1732083226.555819,1732083226.557405,125.000000,0.000000,4311.538574,4297.820313,4322.563965,4321.922852,4303.717773,4298.974121,4324.487305,4314.871582,4313.077148,4292.692383,4446.666504,4482.436035,4341.282227,4396.410156,1623.000000,0.000000,7.000000,,,,0.000000,2.000000,2.000000,0.000000,2.000000,2.000000,2.000000,0.000000,2.000000,4.000000,4.000000,4.000000,4.000000,2.000000,4.000000,16.666666,,,,,,,,,,,,,,,,,,,,,,,,,,,,
1732083226.563627,1732083226.565013,126.000000,0.000000,4313.461426,4297.307617,4320.641113,4323.077148,4302.307617,4300.641113,4323.589844,4315.769043,4314.230957,4302.692383,4446.282227,4483.974121,4339.487305,4399.871582,1379.000000,0.000000,7.000000,,,,0.000000,2.000000,2.000000,0.000000,2.000000,2.000000,2.000000,0.000000,2.000000,4.000000,4.000000,4.000000,4.000000,2.000000,4.000000,16.666666,,,,,,,,,,,,,,,,,,,,,,,,,,,,
1732083226.571436,1732083226.572821,127.000000,0.000000,4313.205078,4300.641113,4319.358887,4319.102539,4306.025879,4301.282227,4321.153809,4319.487305,4318.974121,4301.538574,4443.974121,4482.820313,4336.666504,4397.051270,7.000000,0.000000,7.000000,,,,0.000000,2.000000,2.000000,0.000000,2.000000,2.000000,2.000000,0.000000,2.000000,4.000000,4.000000,4.000000,4.000000,2.000000,4.000000,16.666666,,,,,,,,,,,,,,,,,,,,,,,,,,,,
1732083226.579244,1732083226.580530,0.000000,0.000000,4306.666504,4298.589844,4320.769043,4312.436035,4316.025879,4300.128418,4321.794922,4316.025879,4316.153809,4292.563965,4438.717773,4479.487305,4333.717773,4387.820313,0.000000,0.000000,7.000000,,,,0.000000,2.000000,2.000000,0.000000,2.000000,2.000000,2.000000,0.000000,2.000000,4.000000,4.000000,4.000000,4.000000,2.000000,4.000000,16.666666,,,,,,,,,,,,,,,,,0.000000,0.000000,0.641773,0.404114,-0.579651,0.298035,0.983518,0.159199,0.005860,-72.808388,65.340836,30.598158
1732083226.587052,1732083226.588338,1.000000,0.000000,4302.692383,4291.794922,4318.589844,4310.384766,4306.410156,4303.205078,4325.128418,4317.051270,4309.743652,4291.922852,4439.871582,4478.717773,4331.025879,4384.230957,1315.000000,0.000000,7.000000,,,,0.000000,2.000000,2.000000,0.000000,2.000000,2.000000,2.000000,0.000000,2.000000,4.000000,4.000000,4.000000,4.000000,2.000000,4.000000,16.666666,,,,,,,,,,,,,,,,,,,,,,,,,,,,
1732083226.594860,1732083226.595946,2.000000,0.000000,4303.974121,4290.897461,4320.512695,4311.794922,4290.897461,4307.051270,4327.563965,4320.384766,4312.692383,4295.769043,4438.717773,4480.384766,4333.077148,4386.794922,1235.000000,0.000000,7.000000,,,,0.000000,2.000000,2.000000,0.000000,2.000000,2.000000,2.000000,0.000000,2.000000,4.000000,4.000000,4.000000,4.000000,2.000000,4.000000,16.666666,,,,,,,,,,,,,,,,,,,,,,,,,,,,
1732083226.602669,1732083226.603755,3.000000,0.000000,4306.922852,4296.025879,4318.974121,4313.461426,4298.333496,4304.102539,4323.589844,4312.051270,4316.666504,4296.153809,4436.282227,4477.948730,4336.538574,4390.384766,1195.000000,0.000000,7.000000,,,,0.000000,2.000000,2.000000,0.000000,2.000000,2.000000,2.000000,0.000000,2.000000,4.000000,4.000000,4.000000,4.000000,2.000000,4.000000,16.666666,,,,,,,,,,,,,,,,,,,,,,,,,,,,
1732083226.610477,1732083226.611663,4.000000,0.000000,4308.589844,4299.487305,4319.487305,4316.922852,4307.692383,4302.051270,4323.846191,4309.102539,4315.128418,4296.794922,4442.179688,4478.461426,4336.410156,4391.666504,1204.000000,0.000000,7.000000,,,,0.000000,2.000000,2.000000,0.000000,2.000000,2.000000,2.000000,0.000000,2.000000,4.000000,4.000000,4.000000,4.000000,2.000000,4.000000,16.666666,,,,,,,,,,,,,,,,,1.000000,0.000000,0.640436,0.403137,-0.581116,0.299377,0.969357,0.163594,-0.009767,-73.161461,65.244408,30.579508
1732083226.618285,1732083226.619471,5.000000,0.000000,4304.487305,4297.051270,4318.589844,4318.205078,4302.948730,4306.666504,4326.538574,4318.717773,4313.974121,4299.743652,4444.230957,4478.205078,4335.256348,4391.922852,1078.000000,0.000000,7.000000,,,,0.000000,2.000000,2.000000,0.000000,2.000000,2.000000,2.000000,0.000000,2.000000,4.000000,4.000000,4.000000,4.000000,2.000000,4.000000,16.666666,,,,,,,,,,,,,,,,,,,,,,,,,,,,
1732083226.626093,1732083226.627079,6.000000,0.000000,4300.641113,4293.205078,4318.077148,4314.871582,4302.692383,4306.794922,4327.948730,4322.307617,4317.820313,4300.256348,4440.897461,4475.000000,4337.436035,4391.282227,16.000000,0.000000,7.000000,,,,0.000000,2.000000,2.000000,0.000000,2.000000,2.000000,2.000000,0.000000,2.000000,4.000000,4.000000,4.000000,4.000000,2.000000,4.000000,16.666666,,,,,,,,,,,,,,,,,,,,,,,,,,,,
1732083226.633902,1732083226.634888,7.000000,0.000000,4307.307617,4297.051270,4316.794922,4315.641113,4305.897461,4303.589844,4325.256348,4319.871582,4323.461426,4302.692383,4448.077148,4480.384766,4342.436035,4392.563965,1180.000000,0.000000,7.000000,,,,0.000000,2.000000,2.000000,0.000000,2.000000,2.000000,2.000000,0.000000,2.000000,4.000000,4.000000,4.000000,4.000000,2.000000,4.000000,16.666666,,,,,,,,,,,,,,,,,,,,,,,,,,,,
1732083226.641710,1732083226.642596,8.000000,0.000000,4312.307617,4300.128418,4320.512695,4317.051270,4302.436035,4305.769043,4325.000000,4322.051270,4324.230957,4305.128418,4450.769043,4484.615234,4342.692383,4396.025879,1366.000000,0.000000,7.000000,,,,0.000000,2.000000,2.000000,0.000000,2.000000,2.000000,2.000000,0.000000,2.000000,4.000000,4.000000,4.000000,4.000000,2.000000,4.000000,16.666666,,,,,,,,,,,,,,,,,2.000000,0.000000,0.637745,0.402832,-0.583557,0.300781,0.940056,0.216823,-0.054694,-73.347450,65.174637,30.609402
1732083226.649518,1732083226.650404,9.000000,0.000000,4310.256348,4297.051270,4321.794922,4314.358887,4298.589844,4307.820313,4325.641113,4322.820313,4318.846191,4300.769043,4440.256348,4479.871582,4337.948730,4398.205078,1514.000000,0.000000,7.000000,,,,0.000000,2.000000,2.000000,0.000000,2.000000,2.000000,2.000000,0.000000,2.000000,4.000000,4.000000,4.000000,4.000000,2.000000,4.000000,16.666666,,,,,,,,,,,,,,,,,,,,,,,,,,,,
1732083226.657326,1732083226.658012,10.000000,0.000000,4310.256348,4293.589844,4320.000000,4312.051270,4295.000000,4304.230957,4326.666504,4320.384766,4316.282227,4297.820313,4438.717773,4480.897461,4337.563965,4398.461426,1379.000000,0.000000,7.000000,,,,0.000000,2.000000,2.000000,0.000000,2.000000,2.000000,2.000000,0.000000,2.000000,4.000000,4.000000,4.000000,4.000000,2.000000,4.000000,16.666666,,,,,,,,,,,,,,,,,,,,,,,,,,,,
1732083226.665135,1732083226.665821,11.000000,0.000000,4317.948730,4295.897461,4319.230957,4313.846191,4294.615234,4298.846191,4328.333496,4322.820313,4321.666504,4302.051270,4450.128418,4486.025879,4341.794922,4402.563965,1516.000000,0.000000,7.000000,,,,0.000000,2.000000,2.000000,0.000000,2.000000,2.000000,2.000000,0.000000,2.000000,4.000000,4.000000,4.000000,4.000000,2.000000,4.000000,16.666666,,,,,,,,,,,,,,,,,,,,,,,,,,,,
1732083226.672943,1732083226.673529,12.000000,0.000000,4330.128418,4300.384766,4320.256348,4316.410156,4291.282227,4296.666504,4329.102539,4320.769043,4318.846191,4305.641113,4454.358887,4482.179688,4346.922852,4410.769043,1741.000000,0.000000,7.000000,,,,0.000000,2.000000,2.000000,0.000000,2.000000,2.000000,2.000000,0.000000,2.000000,4.000000,4.000000,4.000000,4.000000,2.000000,4.000000,16.666666,,,,,,,,,,,,,,,,,3.000000,0.000000,0.635780,0.404907,-0.584106,0.301086,0.950311,0.236357,-0.054694,-73.626434,65.384789,30.538614
1732083226.680751,1732083226.681337,13.000000,0.000000,4337.948730,4305.384766,4321.794922,4318.077148,4284.230957,4296.794922,4327.179688,4313.717773,4313.717773,4303.846191,4452.820313,4478.589844,4348.846191,4413.846191,1619.000000,0.000000,7.000000,,,,0.000000,2.000000,2.000000,0.000000,2.000000,2.000000,2.000000,0.000000,2.000000,4.000000,4.000000,4.000000,4.000000,2.000000,4.000000,16.666666,,,,,,,,,,,,,,,,,,,,,,,,,,,,
1732083226.688559,1732083226.689345,14.000000,0.000000,4342.948730,4307.692383,4320.256348,4319.487305,4284.615234,4299.358887,4325.128418,4316.538574,4317.307617,4300.897461,4453.461426,4481.282227,4345.769043,4419.615234,1379.000000,0.000000,7.000000,,,,0.000000,2.000000,2.000000,0.000000,2.000000,2.000000,2.000000,0.000000,2.000000,4.000000,4.000000,4.000000,4.000000,2.000000,4.000000,16.666666,1.000000,8.333333,2.000000,2.000000,0.000000,2.000000,2.000000,2.000000,0.000000,1.000000,3.000000,4.000000,4.000000,4.000000,2.000000,4.000000,,,,,,,,,,,,
1732083226.696368,1732083226.697153,15.000000,0.000000,4348.717773,4302.307617,4320.128418,4318.205078,4284.615234,4297.948730,4329.871582,4320.769043,4317.436035,4299.487305,4452.948730,4485.769043,4346.282227,4429.358887,1516.000000,0.000000,7.000000,,,,0.000000,2.000000,2.000000,0.000000,2.000000,2.000000,2.000000,0.000000,2.000000,4.000000,4.000000,4.000000,4.000000,2.000000,4.000000,16.666666,,,,,,,,,,,,,,,,,,,,,,,,,,,,
1732083226.704176,1732083226.705061,16.000000,0.000000,4351.025879,4299.230957,4319.615234,4317.307617,4275.256348,4293.717773,4331.538574,4318.205078,4315.256348,4299.230957,4455.769043,4485.000000,4352.179688,4429.743652,0.000000,0.000000,7.000000,,,,0.000000,2.000000,2.000000,0.000000,2.000000,2.000000,2.000000,0.000000,2.000000,4.000000,4.000000,4.000000,4.000000,2.000000,4.000000,16.666666,,,,,,,,,,,,,,,,,4.000000,0.000000,0.635780,0.404907,-0.584106,0.301086,0.947381,0.214870,-0.038579,-73.672409,65.435013,30.391277
1732083226.711984,1732083226.712870,17.000000,0.000000,4353.589844,4302.179688,4323.077148,4317.692383,4268.974121,4293.974121,4332.179688,4320.128418,4317.436035,4298.717773,4459.102539,4484.230957,4353.205078,4427.820313,0.000000,0.000000,7.000000,,,,0.000000,2.000000,2.000000,0.000000,2.000000,2.000000,2.000000,0.000000,2.000000,4.000000,4.000000,4.000000,4.000000,2.000000,4.000000,16.666666,,,,,,,,,,,,,,,,,,,,,,,,,,,,
1732083226.719792,1732083226.720878,18.000000,0.000000,4363.974121,4303.589844,4322.436035,4321.794922,4272.307617,4292.692383,4329.487305,4322.179688,4314.871582,4299.871582,4458.589844,4491.794922,4354.615234,4437.051270,0.000000,0.000000,7.000000,,,,0.000000,2.000000,2.000000,0.000000,2.000000,2.000000,2.000000,0.000000,2.000000,4.000000,4.000000,4.000000,4.000000,2.000000,4.000000,16.666666,,,,,,,,,,,,,,,,,,,,,,,,,,,,
1732083226.727601,1732083226.728686,19.000000,0.000000,4370.128418,4301.538574,4325.128418,4325.128418,4273.077148,4287.563965,4327.820313,4313.846191,4306.666504,4299.743652,4459.102539,4499.102539,4361.922852,4445.128418,0.000000,0.000000,7.000000,,,,0.000000,2.000000,2.000000,0.000000,2.000000,2.000000,2.000000,0.000000,2.000000,4.000000,4.000000,4.000000,4.000000,2.000000,4.000000,16.666666,,,,,,,,,,,,,,,,,,,,,,,,,,,,
1732083226.735409,1732083226.736394,20.000000,0.000000,4370.000000,4302.563965,4323.461426,4325.512695,4271.282227,4287.051270,4326.025879,4308.846191,4309.358887,4301.794922,4462.820313,4493.333496,4365.384766,4444.615234,0.000000,0.000000,7.000000,,,,0.000000,2.000000,2.000000,0.000000,2.000000,2.000000,2.000000,0.000000,2.000000,4.000000,4.000000,4.000000,4.000000,2.000000,4.000000,16.666666,,,,,,,,,,,,,,,,,5.000000,0.000000,0.634427,0.405640,-0.584534,0.302124,0.972775,0.162618,-0.024417,-73.924652,65.339027,30.180269
1732083226.743217,1732083226.744202,21.000000,0.000000,4373.077148,4308.333496,4323.717773,4325.256348,4272.948730,4287.051270,4326.153809,4309.871582,4312.692383,4306.922852,4462.563965,4486.282227,4363.974121,4446.025879,0.000000,0.000000,7.000000,,,,0.000000,2.000000,2.000000,0.000000,2.000000,2.000000,2.000000,0.000000,2.000000,4.000000,4.000000,4.000000,4.000000,2.000000,4.000000,16.666666,,,,,,,,,,,,,,,,,,,,,,,,,,,,
1732083226.751026,1732083226.752210,22.000000,0.000000,4372.820313,4307.820313,4323.589844,4323.461426,4275.128418,4285.256348,4325.384766,4311.410156,4311.794922,4300.897461,4457.820313,4488.205078,4361.153809,4446.282227,0.000000,0.000000,7.000000,,,,0.000000,2.000000,2.000000,0.000000,2.000000,2.000000,2.000000,0.000000,2.000000,4.000000,4.000000,4.000000,4.000000,2.000000,4.000000,16.666666,,,,,,,,,,,,,,,,,,,,,,,,,,,,
1732083226.758834,1732083226.760019,23.000000,0.000000,4365.512695,4296.282227,4323.589844,4316.538574,4274.102539,4290.256348,4328.333496,4319.743652,4317.820313,4291.025879,4454.615234,4493.205078,4353.846191,4442.307617,0.000000,0.000000,7.000000,,,,0.000000,2.000000,2.000000,0.000000,2.000000,2.000000,2.000000,0.000000,2.000000,4.000000,4.000000,4.000000,4.000000,2.000000,4.000000,16.666666,,,,,,,,,,,,,,,,,,,,,,,,,,,,
1732083226.766642,1732083226.767927,24.000000,0.000000,4363.846191,4290.000000,4321.538574,4310.256348,4272.948730,4295.512695,4328.846191,4327.307617,4323.461426,4299.487305,4456.666504,4497.307617,4354.358887,4446.153809,0.000000,0.000000,7.000000,,,,0.000000,2.000000,2.000000,0.000000,2.000000,2.000000,2.000000,0.000000,2.000000,4.000000,4.000000,4.000000,4.000000,2.000000,4.000000,16.666666,,,,,,,,,,,,,,,,,6.000000,0.000000,0.631243,0.400024,-0.589478,0.306641,0.980588,0.125015,-0.027347,-74.138969,64.947945,30.201017
1732083226.774450,1732083226.775735,25.000000,0.000000,4366.282227,4293.974121,4321.025879,4307.563965,4272.820313,4289.871582,4327.307617,4326.666504,4322.307617,4310.897461,4459.871582,4495.641113,4362.051270,4451.666504,0.000000,0.000000,7.000000,,,,0.000000,2.000000,2.000000,0.000000,2.000000,2.000000,2.000000,0.000000,2.000000,4.000000,4.000000,4.000000,4.000000,2.000000,4.000000,16.666666,,,,,,,,,,,,,,,,,,,,,,,,,,,,
1732083226.782259,1732083226.783743,26.000000,0.000000,4368.589844,4294.230957,4322.307617,4305.769043,4270.512695,4290.769043,4328.846191,4326.153809,4317.179688,4304.102539,4455.897461,4491.410156,4360.256348,4445.256348,0.000000,0.000000,7.000000,,,,0.000000,2.000000,2.000000,0.000000,2.000000,2.000000,2.000000,0.000000,2.000000,4.000000,4.000000,4.000000,4.000000,2.000000,4.000000,16.666666,,,,,,,,,,,,,,,,,,,,,,,,,,,,
1732083226.790067,1732083226.791551,27.000000,0.000000,4373.077148,4292.820313,4317.563965,4309.743652,4264.871582,4294.743652,4325.128418,4323.205078,4311.153809,4299.487305,4455.641113,4493.205078,4360.256348,4442.307617,0.000000,0.000000,7.000000,,,,0.000000,2.000000,2.000000,0.000000,2.000000,2.000000,2.000000,0.000000,2.000000,4.000000,4.000000,4.000000,4.000000,2.000000,4.000000,16.666666,,,,,,,,,,,,,,,,,,,,,,,,,,,,
1732083226.797875,1732083226.799459,28.000000,0.000000,4376.922852,4299.615234,4315.256348,4319.743652,4274.230957,4282.307617,4317.179688,4310.128418,4306.794922,4304.358887,4462.563965,4499.487305,4369.230957,4454.743652,0.000000,0.000000,7.000000,,,,0.000000,2.000000,2.000000,0.000000,2.000000,2.000000,2.000000,0.000000,2.000000,4.000000,4.000000,4.000000,4.000000,2.000000,4.000000,16.666666,,,,,,,,,,,,,,,,,7.000000,0.000000,0.630403,0.397278,-0.591309,0.308411,0.984984,0.093273,-0.005372,-74.249229,64.644501,30.096157
1732083226.805683,1732083226.807267,29.000000,0.000000,4378.974121,4306.538574,4310.384766,4322.948730,4288.974121,4274.102539,4312.307617,4298.974121,4310.000000,4301.282227,4462.436035,4497.179688,4370.641113,4462.179688,0.000000,0.000000,7.000000,,,,0.000000,2.000000,2.000000,0.000000,2.000000,2.000000,2.000000,0.000000,2.000000,4.000000,4.000000,4.000000,4.000000,2.000000,4.000000,16.666666,,,,,,,,,,,,,,,,,,,,,,,,,,,,
1732083226.813492,1732083226.815275,30.000000,0.000000,4378.717773,4305.000000,4309.230957,4317.948730,4278.333496,4280.000000,4312.820313,4302.948730,4311.922852,4294.615234,4460.897461,4490.769043,4362.948730,4456.153809,0.000000,0.000000,7.000000,,,,0.000000,2.000000,2.000000,0.000000,2.000000,2.000000,2.000000,0.000000,2.000000,4.000000,4.000000,4.000000,4.000000,2.000000,4.000000,16.666666,,,,,,,,,,,,,,,,,,,,,,,,,,,,
1732083226.821300,1732083226.823084,31.000000,0.000000,4377.948730,4303.717773,4305.000000,4317.820313,4266.410156,4281.153809,4312.307617,4309.487305,4308.717773,4301.282227,4464.871582,4491.025879,4364.102539,4454.487305,0.000000,0.000000,7.000000,,,,0.000000,2.000000,2.000000,0.000000,2.000000,2.000000,2.000000,0.000000,2.000000,4.000000,4.000000,4.000000,4.000000,2.000000,4.000000,16.666666,,,,,,,,,,,,,,,,,,,,,,,,,,,,
1732083226.829108,1732083226.830992,32.000000,0.000000,4374.102539,4305.641113,4307.692383,4319.615234,4279.487305,4278.461426,4313.974121,4309.102539,4310.512695,4304.230957,4466.922852,4496.153809,4370.128418,4460.512695,0.000000,0.000000,7.000000,,,,0.000000,2.000000,2.000000,0.000000,2.000000,2.000000,2.000000,0.000000,2.000000,4.000000,4.000000,4.000000,4.000000,2.000000,4.000000,16.666666,,,,,,,,,,,,,,,,,8.000000,0.000000,0.628788,0.391052,-0.594666,0.313171,0.980100,0.083018,0.011232,-74.328545,64.300377,29.856220
1732083226.836917,1732083226.838800,33.000000,0.000000,4368.846191,4308.589844,4304.358887,4319.358887,4291.538574,4285.641113,4313.077148,4310.769043,4316.922852,4293.461426,4465.000000,4497.820313,4369.743652,4459.871582,0.000000,0.000000,7.000000,,,,0.000000,2.000000,2.000000,0.000000,2.000000,2.000000,2.000000,0.000000,2.000000,4.000000,4.000000,4.000000,4.000000,2.000000,4.000000,16.666666,,,,,,,,,,,,,,,,,,,,,,,,,,,,
1732083226.844725,1732083226.846808,34.000000,0.000000,4367.692383,4305.641113,4303.717773,4318.717773,4287.179688,4287.820313,4313.846191,4314.487305,4319.615234,4291.153809,4464.871582,4497.436035,4366.538574,4451.794922,0.000000,0.000000,7.000000,,,,0.000000,2.000000,2.000000,0.000000,2.000000,2.000000,2.000000,0.000000,2.000000,4.000000,4.000000,4.000000,4.000000,2.000000,4.000000,16.666666,,,,,,,,,,,,,,,,,,,,,,,,,,,,
1732083226.852533,1732083226.854616,35.000000,0.000000,4372.692383,4303.717773,4306.538574,4318.333496,4287.563965,4283.333496,4313.333496,4314.230957,4318.974121,4303.205078,4468.589844,4492.563965,4367.179688,4451.666504,0.000000,0.000000,7.000000,,,,0.000000,2.000000,2.000000,0.000000,2.000000,2.000000,2.000000,0.000000,2.000000,4.000000,4.000000,4.000000,4.000000,2.000000,4.000000,16.666666,,,,,,,,,,,,,,,,,,,,,,,,,,,,
1732083226.860341,1732083226.862325,36.000000,0.000000,4373.205078,4307.563965,4311.922852,4318.461426,4289.743652,4282.692383,4312.436035,4312.436035,4320.000000,4308.205078,4470.512695,4494.102539,4371.282227,4458.461426,0.000000,0.000000,7.000000,,,,0.000000,2.000000,2.000000,0.000000,2.000000,2.000000,2.000000,0.000000,2.000000,4.000000,4.000000,4.000000,4.000000,2.000000,4.000000,16.666666,,,,,,,,,,,,,,,,,9.000000,0.000000,0.626219,0.379089,-0.599976,0.322754,0.944940,0.048834,0.022952,-74.806122,63.961643,29.771872
1732083226.868150,1732083226.870133,37.000000,0.000000,4371.538574,4310.512695,4311.666504,4320.128418,4290.000000,4281.666504,4312.948730,4312.051270,4320.769043,4305.128418,4470.512695,4506.922852,4376.025879,4463.205078,0.000000,0.000000,7.000000,,,,0.000000,2.000000,2.000000,0.000000,2.000000,2.000000,2.000000,0.000000,2.000000,4.000000,4.000000,4.000000,4.000000,2.000000,4.000000,16.666666,,,,,,,,,,,,,,,,,,,,,,,,,,,,
1732083226.875958,1732083226.877741,38.000000,0.000000,4376.922852,4311.410156,4312.436035,4320.769043,4292.948730,4279.487305,4316.025879,4312.179688,4319.102539,4301.922852,4472.692383,4509.871582,4378.461426,4464.487305,0.000000,0.000000,7.000000,,,,0.000000,2.000000,2.000000,0.000000,2.000000,2.000000,2.000000,0.000000,2.000000,4.000000,4.000000,4.000000,4.000000,2.000000,4.000000,16.666666,,,,,,,,,,,,,,,,,,,,,,,,,,,,
1732083226.883766,1732083226.885549,39.000000,0.000000,4380.256348,4314.230957,4316.410156,4317.307617,4293.846191,4279.487305,4314.102539,4315.641113,4319.358887,4303.589844,4476.282227,4502.179688,4378.461426,4464.102539,0.000000,0.000000,7.000000,,,,0.000000,2.000000,2.000000,0.000000,2.000000,2.000000,2.000000,0.000000,2.000000,4.000000,4.000000,4.000000,4.000000,2.000000,4.000000,16.666666,,,,,,,,,,,,,,,,,,,,,,,,,,,,
1732083226.891574,1732083226.893258,40.000000,0.000000,4374.743652,4315.000000,4312.563965,4315.000000,4293.846191,4280.128418,4313.077148,4318.846191,4317.563965,4308.077148,4476.538574,4502.692383,4378.589844,4463.333496,0.000000,0.000000,7.000000,,,,0.000000,2.000000,2.000000,0.000000,2.000000,2.000000,2.000000,0.000000,2.000000,4.000000,4.000000,4.000000,4.000000,2.000000,4.000000,16.666666,,,,,,,,,,,,,,,,,10.000000,0.000000,0.624453,0.373291,-0.602234,0.328674,0.963497,0.044439,0.033696,-75.322960,63.597263,29.705217
1732083226.899383,1732083226.901066,41.000000,0.000000,4369.102539,4312.948730,4314.102539,4316.025879,4295.128418,4281.025879,4313.589844,4317.820313,4314.743652,4303.717773,4474.230957,4507.692383,4380.512695,4462.307617,0.000000,0.000000,7.000000,,,,0.000000,2.000000,2.000000,0.000000,2.000000,2.000000,2.000000,0.000000,2.000000,4.000000,4.000000,4.000000,4.000000,2.000000,4.000000,16.666666,,,,,,,,,,,,,,,,,,,,,,,,,,,,
1732083226.907191,1732083226.908674,42.000000,0.000000,4368.589844,4316.025879,4316.538574,4320.769043,4299.358887,4285.000000,4310.897461,4319.230957,4315.512695,4295.512695,4475.384766,4505.128418,4378.461426,4460.000000,0.000000,0.000000,7.000000,,,,0.000000,2.000000,2.000000,0.000000,2.000000,2.000000,2.000000,0.000000,2.000000,4.000000,4.000000,4.000000,4.000000,2.000000,4.000000,16.666666,,,,,,,,,,,,,,,,,,,,,,,,,,,,
1732083226.914999,1732083226.916482,43.000000,0.000000,4372.692383,4317.948730,4317.436035,4324.358887,4301.922852,4284.102539,4308.717773,4320.512695,4317.179688,4298.974121,4475.000000,4501.794922,4376.794922,4458.333496,0.000000,0.000000,7.000000,,,,0.000000,2.000000,2.000000,0.000000,2.000000,2.000000,2.000000,0.000000,2.000000,4.000000,4.000000,4.000000,4.000000,2.000000,4.000000,16.666666,,,,,,,,,,,,,,,,,,,,,,,,,,,,
1732083226.922807,1732083226.924191,44.000000,0.000000,4374.358887,4316.922852,4313.846191,4326.410156,4303.589844,4280.000000,4307.436035,4317.820313,4317.307617,4309.358887,4477.051270,4498.974121,4380.897461,4456.538574,0.000000,0.000000,7.000000,,,,0.000000,2.000000,2.000000,0.000000,2.000000,2.000000,2.000000,0.000000,2.000000,4.000000,4.000000,4.000000,4.000000,2.000000,4.000000,16.666666,,,,,,,,,,,,,,,,,11.000000,0.000000,0.623898,0.372009,-0.602600,0.330505,0.958125,0.039556,0.039067,-75.768265,62.692116,29.824558
1732083226.930616,1732083226.931999,45.000000,0.000000,4368.077148,4315.512695,4318.974121,4325.897461,4305.256348,4281.282227,4305.384766,4316.538574,4320.000000,4312.563965,4478.717773,4497.307617,4378.717773,4450.512695,0.000000,0.000000,7.000000,,,,0.000000,2.000000,2.000000,0.000000,2.000000,2.000000,2.000000,0.000000,2.000000,4.000000,4.000000,4.000000,4.000000,2.000000,4.000000,16.666666,,,,,,,,,,,,,,,,,,,,,,,,,,,,
1732083226.938424,1732083226.939607,46.000000,0.000000,4361.666504,4313.461426,4318.717773,4321.538574,4309.358887,4284.743652,4302.051270,4318.333496,4321.282227,4307.307617,4472.948730,4498.461426,4368.589844,4446.794922,0.000000,0.000000,7.000000,,,,0.000000,2.000000,2.000000,0.000000,2.000000,2.000000,2.000000,0.000000,2.000000,4.000000,4.000000,4.000000,4.000000,2.000000,4.000000,16.666666,,,,,,,,,,,,,,,,,,,,,,,,,,,,
1732083226.946232,1732083226.947416,47.000000,0.000000,4360.641113,4313.333496,4319.358887,4317.563965,4313.589844,4284.487305,4302.563965,4318.974121,4316.538574,4299.358887,4466.153809,4503.333496,4362.307617,4446.922852,0.000000,0.000000,7.000000,,,,0.000000,2.000000,2.000000,0.000000,2.000000,2.000000,2.000000,0.000000,2.000000,4.000000,4.000000,4.000000,4.000000,2.000000,4.000000,16.666666,,,,,,,,,,,,,,,,,,,,,,,,,,,,
1732083226.954040,1732083226.955124,48.000000,0.000000,4359.615234,4316.794922,4318.333496,4319.743652,4310.256348,4280.897461,4301.410156,4316.666504,4315.769043,4301.025879,4466.922852,4507.436035,4367.436035,4444.358887,0.000000,0.000000,7.000000,,,,0.000000,2.000000,2.000000,0.000000,2.000000,2.000000,2.000000,0.000000,2.000000,4.000000,4.000000,4.000000,4.000000,2.000000,4.000000,16.666666,,,,,,,,,,,,,,,,,12.000000,0.000000,0.622921,0.371338,-0.602478,0.333313,0.964962,0.084483,0.019045,-76.032295,61.903946,29.802893
1732083226.961849,1732083226.962932,49.000000,0.000000,4357.307617,4320.128418,4318.333496,4321.538574,4299.743652,4283.333496,4303.974121,4316.410156,4320.384766,4304.871582,4471.922852,4507.692383,4371.410156,4444.230957,0.000000,0.000000,7.000000,,,,0.000000,2.000000,2.000000,0.000000,2.000000,2.000000,2.000000,0.000000,2.000000,4.000000,4.000000,4.000000,4.000000,2.000000,4.000000,16.666666,,,,,,,,,,,,,,,,,,,,,,,,,,,,
1732083226.969657,1732083226.970541,50.000000,0.000000,4357.051270,4321.538574,4319.487305,4321.410156,4310.256348,4288.974121,4303.333496,4316.410156,4319.871582,4296.282227,4467.820313,4500.512695,4365.384766,4445.000000,0.000000,0.000000,7.000000,,,,0.000000,2.000000,2.000000,0.000000,2.000000,2.000000,2.000000,0.000000,2.000000,4.000000,4.000000,4.000000,4.000000,2.000000,4.000000,16.666666,,,,,,,,,,,,,,,,,,,,,,,,,,,,
1732083226.977465,1732083226.978349,51.000000,0.000000,4353.589844,4318.461426,4322.563965,4320.256348,4324.358887,4287.820313,4302.948730,4315.256348,4316.282227,4293.205078,4461.794922,4492.179688,4361.922852,4439.487305,0.000000,0.000000,7.000000,,,,0.000000,2.000000,2.000000,0.000000,2.000000,2.000000,2.000000,0.000000,2.000000,4.000000,4.000000,4.000000,4.000000,2.000000,4.000000,16.666666,,,,,,,,,,,,,,,,,,,,,,,,,,,,
1732083226.985273,1732083226.986057,52.000000,0.000000,4350.384766,4314.487305,4321.538574,4317.820313,4305.512695,4288.717773,4307.692383,4317.179688,4317.307617,4303.461426,4466.025879,4488.333496,4365.769043,4436.794922,0.000000,0.000000,7.000000,,,,0.000000,2.000000,2.000000,0.000000,2.000000,2.000000,2.000000,0.000000,2.000000,4.000000,4.000000,4.000000,4.000000,2.000000,4.000000,16.666666,,,,,,,,,,,,,,,,,13.000000,0.000000,0.619847,0.374634,-0.600403,0.339050,0.995727,0.035649,0.023929,-76.279488,61.232197,29.618677
1732083226.993082,1732083226.993865,53.000000,0.000000,4349.743652,4313.461426,4321.538574,4315.897461,4291.666504,4295.897461,4312.436035,4319.871582,4320.128418,4308.717773,4471.282227,4488.333496,4369.871582,4440.641113,0.000000,0.000000,7.000000,,,,0.000000,2.000000,2.000000,0.000000,2.000000,2.000000,2.000000,0.000000,2.000000,4.000000,4.000000,4.000000,4.000000,2.000000,4.000000,16.666666,,,,,,,,,,,,,,,,,,,,,,,,,,,,
1732083227.000890,1732083227.001474,54.000000,0.000000,4350.000000,4315.256348,4325.641113,4317.051270,4306.794922,4297.307617,4308.974121,4319.615234,4321.922852,4306.282227,4471.794922,4491.666504,4369.230957,4443.205078,0.000000,0.000000,7.000000,,,,0.000000,2.000000,2.000000,0.000000,2.000000,2.000000,2.000000,0.000000,2.000000,4.000000,4.000000,4.000000,4.000000,2.000000,4.000000,16.666666,,,,,,,,,,,,,,,,,,,,,,,,,,,,
1732083227.008698,1732083227.009282,55.000000,0.000000,4350.897461,4314.871582,4325.641113,4319.230957,4311.666504,4292.436035,4307.436035,4319.230957,4320.641113,4306.025879,4469.743652,4494.102539,4365.256348,4441.282227,0.000000,0.000000,7.000000,,,,0.000000,2.000000,2.000000,0.000000,2.000000,2.000000,2.000000,0.000000,2.000000,4.000000,4.000000,4.000000,4.000000,2.000000,4.000000,16.666666,,,,,,,,,,,,,,,,,,,,,,,,,,,,
1732083227.016507,1732083227.017190,56.000000,0.000000,4351.282227,4312.436035,4324.230957,4321.025879,4302.563965,4291.922852,4307.307617,4317.563965,4313.333496,4305.641113,4468.333496,4498.461426,4361.922852,4440.000000,0.000000,0.000000,7.000000,,,,0.000000,2.000000,2.000000,0.000000,2.000000,2.000000,2.000000,0.000000,2.000000,4.000000,4.000000,4.000000,4.000000,2.000000,4.000000,16.666666,,,,,,,,,,,,,,,,,14.000000,0.000000,0.619018,0.375610,-0.599854,0.340454,0.998169,0.026370,0.022464,-76.404724,60.721413,29.797794
1732083227.024315,1732083227.024998,57.000000,0.000000,4347.948730,4312.179688,4322.179688,4319.230957,4304.743652,4293.077148,4304.743652,4312.436035,4315.384766,4304.230957,4473.846191,4504.615234,4365.769043,4443.717773,0.000000,0.000000,7.000000,,,,0.000000,2.000000,2.000000,0.000000,2.000000,2.000000,2.000000,0.000000,2.000000,4.000000,4.000000,4.000000,4.000000,2.000000,4.000000,16.666666,,,,,,,,,,,,,,,,,,,,,,,,,,,,
1732083227.032123,1732083227.033006,58.000000,0.000000,4343.205078,4311.538574,4322.051270,4316.025879,4308.205078,4293.077148,4307.051270,4314.487305,4324.871582,4308.589844,4478.717773,4504.743652,4369.743652,4446.282227,0.000000,0.000000,7.000000,,,,0.000000,2.000000,2.000000,0.000000,2.000000,2.000000,2.000000,0.000000,2.000000,4.000000,4.000000,4.000000,4.000000,2.000000,4.000000,16.666666,,,,,,,,,,,,,,,,,,,,,,,,,,,,
1732083227.039931,1732083227.040814,59.000000,0.000000,4344.358887,4311.538574,4322.179688,4318.974121,4308.333496,4296.410156,4312.307617,4320.897461,4319.743652,4311.025879,4470.512695,4498.589844,4366.153809,4440.000000,0.000000,0.000000,7.000000,,,,0.000000,2.000000,2.000000,0.000000,2.000000,2.000000,2.000000,0.000000,2.000000,4.000000,4.000000,4.000000,4.000000,2.000000,4.000000,16.666666,,,,,,,,,,,,,,,,,,,,,,,,,,,,
1732083227.047740,1732083227.048523,60.000000,0.000000,4344.487305,4309.358887,4321.282227,4317.563965,4307.820313,4295.769043,4308.846191,4318.205078,4312.563965,4300.128418,4459.743652,4492.692383,4363.205078,4429.743652,0.000000,0.000000,7.000000,,,,0.000000,2.000000,2.000000,0.000000,2.000000,2.000000,2.000000,0.000000,2.000000,4.000000,4.000000,4.000000,4.000000,2.000000,4.000000,16.666666,,,,,,,,,,,,,,,,,15.000000,0.000000,0.617181,0.377563,-0.599304,0.342590,0.993285,0.060554,0.015139,-76.727821,60.367680,29.649548
1732083227.055548,1732083227.056331,61.000000,0.000000,4340.000000,4309.487305,4317.436035,4312.563965,4301.922852,4295.769043,4302.948730,4317.563965,4322.179688,4293.461426,4461.922852,4493.333496,4362.563965,4426.282227,0.000000,0.000000,7.000000,,,,0.000000,2.000000,2.000000,0.000000,2.000000,2.000000,2.000000,0.000000,2.000000,4.000000,4.000000,4.000000,4.000000,2.000000,4.000000,16.666666,,,,,,,,,,,,,,,,,,,,,,,,,,,,
1732083227.063356,1732083227.064339,62.000000,0.000000,4340.128418,4312.051270,4319.358887,4317.948730,4311.153809,4297.179688,4306.538574,4325.641113,4324.743652,4306.153809,4466.282227,4495.897461,4363.205078,4427.692383,0.000000,0.000000,7.000000,,,,0.000000,2.000000,2.000000,0.000000,2.000000,2.000000,2.000000,0.000000,2.000000,4.000000,4.000000,4.000000,4.000000,2.000000,4.000000,16.666666,,,,,,,,,,,,,,,,,,,,,,,,,,,,
1732083227.071164,1732083227.072147,63.000000,0.000000,4346.153809,4312.307617,4322.307617,4327.563965,4320.384766,4296.538574,4309.230957,4326.922852,4317.436035,4314.487305,4470.256348,4498.077148,4364.743652,4429.358887,0.000000,0.000000,7.000000,,,,0.000000,2.000000,2.000000,0.000000,2.000000,2.000000,2.000000,0.000000,2.000000,4.000000,4.000000,4.000000,4.000000,2.000000,4.000000,16.666666,,,,,,,,,,,,,,,,,,,,,,,,,,,,
1732083227.078973,1732083227.080055,64.000000,0.000000,4344.487305,4310.897461,4322.563965,4327.436035,4305.256348,4300.641113,4308.461426,4317.948730,4317.948730,4306.410156,4474.743652,4500.256348,4364.743652,4431.153809,0.000000,0.000000,7.000000,,,,0.000000,2.000000,2.000000,0.000000,2.000000,2.000000,2.000000,0.000000,2.000000,4.000000,4.000000,4.000000,4.000000,2.000000,4.000000,16.666666,,,,,,,,,,,,,,,,,16.000000,0.000000,0.613612,0.381653,-0.599609,0.343933,1.002564,0.067391,-0.006348,-76.699539,60.114487,29.562799
1732083227.086781,1732083227.087863,65.000000,0.000000,4337.820313,4309.358887,4319.487305,4322.948730,4295.256348,4307.307617,4307.051270,4314.743652,4322.307617,4307.051270,4473.077148,4499.743652,4364.102539,4427.692383,1315.000000,0.000000,7.000000,,,,0.000000,2.000000,2.000000,0.000000,2.000000,2.000000,2.000000,0.000000,2.000000,4.000000,4.000000,4.000000,4.000000,2.000000,4.000000,16.666666,,,,,,,,,,,,,,,,,,,,,,,,,,,,
1732083227.094589,1732083227.095871,66.000000,0.000000,4334.487305,4308.205078,4317.948730,4319.615234,4303.589844,4308.205078,4309.102539,4324.743652,4326.922852,4319.358887,4469.358887,4496.922852,4363.077148,4420.769043,1234.000000,0.000000,7.000000,,,,0.000000,2.000000,2.000000,0.000000,2.000000,2.000000,2.000000,0.000000,2.000000,4.000000,4.000000,4.000000,4.000000,2.000000,4.000000,16.666666,,,,,,,,,,,,,,,,,,,,,,,,,,,,
1732083227.102398,1732083227.103680,67.000000,0.000000,4329.230957,4304.102539,4319.358887,4317.179688,4304.615234,4303.846191,4308.461426,4330.384766,4332.692383,4322.307617,4471.153809,4492.820313,4362.307617,4418.589844,1195.000000,0.000000,7.000000,,,,0.000000,2.000000,2.000000,0.000000,2.000000,2.000000,2.000000,0.000000,2.000000,4.000000,4.000000,4.000000,4.000000,2.000000,4.000000,16.666666,,,,,,,,,,,,,,,,,,,,,,,,,,,,
1732083227.110206,1732083227.111588,68.000000,0.000000,4327.820313,4302.179688,4321.538574,4316.538574,4297.948730,4303.461426,4308.717773,4321.538574,4329.743652,4315.769043,4470.897461,4490.128418,4361.025879,4419.487305,1207.000000,0.000000,7.000000,,,,0.000000,2.000000,2.000000,0.000000,2.000000,2.000000,2.000000,0.000000,2.000000,4.000000,4.000000,4.000000,4.000000,2.000000,4.000000,16.666666,,,,,,,,,,,,,,,,,17.000000,0.000000,0.611344,0.382751,-0.600769,0.344727,0.996215,0.041997,-0.026370,-76.743294,59.976067,29.392534
1732083227.118014,1732083227.119396,69.000000,0.000000,4336.282227,4306.538574,4320.256348,4317.563965,4295.769043,4305.641113,4309.102539,4313.846191,4319.743652,4311.282227,4468.846191,4490.512695,4359.358887,4420.512695,1083.000000,0.000000,7.000000,,,,0.000000,2.000000,2.000000,0.000000,2.000000,2.000000,2.000000,0.000000,2.000000,4.000000,4.000000,4.000000,4.000000,2.000000,4.000000,16.666666,,,,,,,,,,,,,,,,,,,,,,,,,,,,
1732083227.125822,1732083227.127404,70.000000,0.000000,4335.000000,4305.000000,4320.256348,4313.333496,4301.794922,4305.512695,4310.256348,4320.897461,4318.333496,4302.948730,4464.615234,4489.487305,4355.128418,4418.333496,15.000000,0.000000,7.000000,,,,0.000000,2.000000,2.000000,0.000000,2.000000,2.000000,2.000000,0.000000,2.000000,4.000000,4.000000,4.000000,4.000000,2.000000,4.000000,16.666666,,,,,,,,,,,,,,,,,,,,,,,,,,,,
1732083227.133631,1732083227.135212,71.000000,0.000000,4325.641113,4298.717773,4322.436035,4308.461426,4314.230957,4306.153809,4309.615234,4328.461426,4326.410156,4297.307617,4458.333496,4488.461426,4350.384766,4415.769043,1179.000000,0.000000,7.000000,,,,0.000000,2.000000,2.000000,0.000000,2.000000,2.000000,2.000000,0.000000,2.000000,4.000000,4.000000,4.000000,4.000000,2.000000,4.000000,16.666666,,,,,,,,,,,,,,,,,,,,,,,,,,,,
1732083227.141439,1732083227.142921,72.000000,0.000000,4328.077148,4298.333496,4325.512695,4310.641113,4311.410156,4309.871582,4311.794922,4323.333496,4328.846191,4305.000000,4459.230957,4486.794922,4351.410156,4415.256348,1357.000000,0.000000,7.000000,,,,0.000000,2.000000,2.000000,0.000000,2.000000,2.000000,2.000000,0.000000,2.000000,4.000000,4.000000,4.000000,4.000000,2.000000,4.000000,16.666666,,,,,,,,,,,,,,,,,18.000000,0.000000,0.610147,0.382935,-0.601624,0.345154,0.998657,0.057624,-0.053229,-76.665398,59.758949,29.254620
1732083227.149247,1732083227.150729,73.000000,0.000000,4331.666504,4299.230957,4326.538574,4311.922852,4293.205078,4312.436035,4316.025879,4324.743652,4324.743652,4310.641113,4460.512695,4487.307617,4351.538574,4413.461426,1513.000000,0.000000,7.000000,,,,0.000000,2.000000,2.000000,0.000000,2.000000,2.000000,2.000000,0.000000,2.000000,4.000000,4.000000,4.000000,4.000000,2.000000,4.000000,16.666666,,,,,,,,,,,,,,,,,,,,,,,,,,,,
1732083227.157056,1732083227.158737,74.000000,0.000000,4327.179688,4295.384766,4327.307617,4308.461426,4291.282227,4311.153809,4317.436035,4331.025879,4324.358887,4307.692383,4456.410156,4489.102539,4348.205078,4409.871582,1379.000000,0.000000,7.000000,,,,0.000000,2.000000,2.000000,0.000000,2.000000,2.000000,2.000000,0.000000,2.000000,4.000000,4.000000,4.000000,4.000000,2.000000,4.000000,16.666666,,,,,,,,,,,,,,,,,,,,,,,,,,,,
1732083227.164864,1732083227.166545,75.000000,0.000000,4330.384766,4296.666504,4332.179688,4308.974121,4299.615234,4306.410156,4315.641113,4320.897461,4323.461426,4307.820313,4455.512695,4491.538574,4352.051270,4411.410156,1508.000000,0.000000,7.000000,,,,0.000000,2.000000,2.000000,0.000000,2.000000,2.000000,2.000000,0.000000,2.000000,4.000000,4.000000,4.000000,4.000000,2.000000,4.000000,16.666666,,,,,,,,,,,,,,,,,,,,,,,,,,,,
1732083227.172672,1732083227.174453,76.000000,0.000000,4337.307617,4303.846191,4337.179688,4315.000000,4297.307617,4301.922852,4312.948730,4310.000000,4316.410156,4310.384766,4461.153809,4493.846191,4358.974121,4417.692383,1741.000000,0.000000,7.000000,,,,0.000000,2.000000,2.000000,0.000000,2.000000,2.000000,2.000000,0.000000,2.000000,4.000000,4.000000,4.000000,4.000000,2.000000,4.000000,16.666666,,,,,,,,,,,,,,,,,19.000000,0.000000,0.605856,0.383728,-0.604919,0.346069,0.985472,0.037602,-0.049811,-76.760643,59.646416,29.237909
1732083227.180480,1732083227.182261,77.000000,0.000000,4331.025879,4301.666504,4336.282227,4312.820313,4296.282227,4305.641113,4314.871582,4324.743652,4321.410156,4308.589844,4460.256348,4497.948730,4354.743652,4416.153809,1619.000000,0.000000,7.000000,,,,0.000000,2.000000,2.000000,0.000000,2.000000,2.000000,2.000000,0.000000,2.000000,4.000000,4.000000,4.000000,4.000000,2.000000,4.000000,16.666666,,,,,,,,,,,,,,,,,,,,,,,,,,,,
1732083227.188289,1732083227.190269,78.000000,0.000000,4322.692383,4297.948730,4332.051270,4312.179688,4303.205078,4313.589844,4317.051270,4339.230957,4334.615234,4311.922852,4455.641113,4498.333496,4351.025879,4411.282227,1379.000000,0.000000,7.000000,,,,0.000000,2.000000,2.000000,0.000000,2.000000,2.000000,2.000000,0.000000,2.000000,4.000000,4.000000,4.000000,4.000000,2.000000,4.000000,16.666666,1.000000,16.666666,2.000000,2.000000,0.000000,2.000000,2.000000,2.000000,0.000000,2.000000,3.000000,4.000000,4.000000,4.000000,2.000000,3.000000,,,,,,,,,,,,
1732083227.196097,1732083227.198077,79.000000,0.000000,4324.871582,4302.692383,4330.384766,4321.666504,4301.794922,4312.179688,4315.256348,4323.333496,4327.820313,4315.256348,4456.922852,4492.179688,4357.051270,4407.051270,1508.000000,0.000000,7.000000,,,,0.000000,2.000000,2.000000,0.000000,2.000000,2.000000,2.000000,0.000000,2.000000,4.000000,4.000000,4.000000,4.000000,2.000000,4.000000,16.666666,,,,,,,,,,,,,,,,,,,,,,,,,,,,
1732083227.203905,1732083227.205786,80.000000,0.000000,4321.794922,4302.307617,4325.897461,4323.717773,4303.077148,4314.102539,4313.461426,4316.025879,4320.384766,4309.230957,4452.307617,4488.461426,4351.666504,4399.487305,1741.000000,0.000000,7.000000,,,,0.000000,2.000000,2.000000,0.000000,2.000000,2.000000,2.000000,0.000000,2.000000,4.000000,4.000000,4.000000,4.000000,2.000000,4.000000,16.666666,,,,,,,,,,,,,,,,,20.000000,0.000000,0.600792,0.382385,-0.609192,0.348877,0.938591,0.006837,-0.037602,-77.049454,59.358597,28.857706
1732083227.211713,1732083227.213594,81.000000,0.000000,4312.051270,4298.077148,4323.846191,4317.948730,4319.102539,4320.641113,4316.153809,4333.461426,4329.487305,4305.000000,4445.897461,4491.410156,4340.128418,4395.128418,1619.000000,0.000000,7.000000,,,,0.000000,2.000000,2.000000,0.000000,2.000000,2.000000,2.000000,0.000000,2.000000,4.000000,4.000000,4.000000,4.000000,2.000000,4.000000,16.666666,,,,,,,,,,,,,,,,,,,,,,,,,,,,
1732083227.219522,1732083227.221202,82.000000,0.000000,4313.846191,4302.948730,4325.128418,4319.871582,4320.384766,4316.025879,4315.000000,4334.871582,4332.051270,4311.794922,4448.589844,4492.179688,4344.358887,4399.102539,1379.000000,0.000000,7.000000,,,,0.000000,2.000000,2.000000,0.000000,2.000000,2.000000,2.000000,0.000000,2.000000,4.000000,4.000000,4.000000,4.000000,2.000000,4.000000,16.666666,,,,,,,,,,,,,,,,,,,,,,,,,,,,
1732083227.227330,1732083227.229011,83.000000,0.000000,4320.769043,4309.487305,4329.230957,4324.615234,4300.256348,4311.025879,4317.051270,4324.358887,4323.461426,4315.256348,4451.666504,4496.282227,4350.769043,4403.589844,1508.000000,0.000000,7.000000,,,,0.000000,2.000000,2.000000,0.000000,2.000000,2.000000,2.000000,0.000000,2.000000,4.000000,4.000000,4.000000,4.000000,2.000000,4.000000,16.666666,,,,,,,,,,,,,,,,,,,,,,,,,,,,
1732083227.235138,1732083227.236719,84.000000,0.000000,4322.179688,4307.051270,4328.589844,4321.153809,4295.256348,4313.077148,4319.871582,4330.641113,4322.820313,4304.871582,4451.025879,4501.922852,4347.820313,4406.282227,1741.000000,0.000000,7.000000,,,,0.000000,2.000000,2.000000,0.000000,2.000000,2.000000,2.000000,0.000000,2.000000,4.000000,4.000000,4.000000,4.000000,2.000000,4.000000,16.666666,,,,,,,,,,,,,,,,,21.000000,0.000000,0.599102,0.381165,-0.610779,0.350342,0.959101,0.011232,-0.048834,-77.116722,59.075462,28.466408
1732083227.242946,1732083227.244527,85.000000,0.000000,4323.717773,4303.589844,4326.922852,4318.717773,4308.205078,4310.384766,4317.051270,4334.230957,4325.128418,4296.025879,4450.641113,4498.974121,4344.230957,4408.461426,1619.000000,0.000000,7.000000,,,,0.000000,2.000000,2.000000,0.000000,2.000000,2.000000,2.000000,0.000000,2.000000,4.000000,4.000000,4.000000,4.000000,2.000000,4.000000,16.666666,,,,,,,,,,,,,,,,,,,,,,,,,,,,
1732083227.250755,1732083227.252136,86.000000,0.000000,4325.897461,4307.948730,4329.358887,4322.820313,4312.051270,4307.563965,4313.589844,4322.436035,4322.692383,4299.615234,4449.230957,4491.922852,4344.871582,4407.436035,1379.000000,0.000000,7.000000,,,,0.000000,2.000000,2.000000,0.000000,2.000000,2.000000,2.000000,0.000000,2.000000,4.000000,4.000000,4.000000,4.000000,2.000000,4.000000,16.666666,,,,,,,,,,,,,,,,,,,,,,,,,,,,
1732083227.258563,1732083227.259944,87.000000,0.000000,4324.230957,4308.974121,4332.948730,4323.077148,4305.384766,4312.692383,4318.333496,4323.846191,4325.000000,4302.820313,4445.384766,4493.846191,4344.487305,4404.102539,1508.000000,0.000000,7.000000,,,,0.000000,2.000000,2.000000,0.000000,2.000000,2.000000,2.000000,0.000000,2.000000,4.000000,4.000000,4.000000,4.000000,2.000000,4.000000,16.666666,,,,,,,,,,,,,,,,,,,,,,,,,,,,
1732083227.266371,1732083227.267652,88.000000,0.000000,4324.230957,4301.666504,4331.794922,4317.692383,4307.820313,4311.794922,4319.358887,4332.436035,4327.563965,4297.692383,4447.563965,4499.871582,4345.000000,4407.436035,1741.000000,0.000000,7.000000,,,,0.000000,2.000000,2.000000,0.000000,2.000000,2.000000,2.000000,0.000000,2.000000,4.000000,4.000000,4.000000,4.000000,2.000000,4.000000,16.666666,,,,,,,,,,,,,,,,,22.000000,0.000000,0.598576,0.380676,-0.611389,0.350708,0.944940,0.037602,-0.045416,-77.252876,58.491123,28.156124
1732083227.274179,1732083227.275460,89.000000,0.000000,4322.307617,4295.128418,4331.538574,4311.794922,4317.051270,4303.077148,4318.589844,4329.358887,4326.410156,4296.025879,4450.641113,4499.743652,4345.512695,4409.487305,1619.000000,0.000000,7.000000,,,,0.000000,2.000000,2.000000,0.000000,2.000000,2.000000,2.000000,0.000000,2.000000,4.000000,4.000000,4.000000,4.000000,2.000000,4.000000,16.666666,,,,,,,,,,,,,,,,,,,,,,,,,,,,
1732083227.281988,1732083227.283069,90.000000,0.000000,4315.128418,4296.666504,4333.717773,4311.153809,4308.589844,4306.282227,4324.487305,4328.846191,4329.487305,4303.846191,4453.846191,4496.282227,4345.769043,4408.333496,1379.000000,0.000000,7.000000,,,,0.000000,2.000000,2.000000,0.000000,2.000000,2.000000,2.000000,0.000000,2.000000,4.000000,4.000000,4.000000,4.000000,2.000000,4.000000,16.666666,,,,,,,,,,,,,,,,,,,,,,,,,,,,
1732083227.289796,1732083227.290877,91.000000,0.000000,4310.769043,4298.077148,4332.307617,4312.948730,4292.692383,4315.641113,4328.589844,4334.871582,4334.358887,4310.512695,4456.025879,4497.307617,4347.692383,4410.897461,1508.000000,0.000000,7.000000,,,,0.000000,2.000000,2.000000,0.000000,2.000000,2.000000,2.000000,0.000000,2.000000,4.000000,4.000000,4.000000,4.000000,2.000000,4.000000,16.666666,,,,,,,,,,,,,,,,,,,,,,,,,,,,
1732083227.297604,1732083227.298585,92.000000,0.000000,4314.615234,4297.436035,4330.897461,4313.589844,4296.282227,4313.974121,4324.102539,4336.282227,4333.974121,4310.384766,4453.461426,4499.358887,4347.563965,4409.871582,1741.000000,0.000000,7.000000,,,,0.000000,2.000000,2.000000,0.000000,2.000000,2.000000,2.000000,0.000000,2.000000,4.000000,4.000000,4.000000,4.000000,2.000000,4.000000,16.666666,,,,,,,,,,,,,,,,,23.000000,0.000000,0.597044,0.381958,-0.611877,0.351074,0.976682,0.024905,-0.048346,-77.431496,58.219479,28.056461
1732083227.305412,1732083227.306393,93.000000,0.000000,4318.974121,4299.743652,4327.436035,4314.871582,4305.256348,4310.384766,4321.282227,4335.000000,4331.666504,4305.641113,4455.000000,4495.769043,4348.974121,4406.922852,1619.000000,0.000000,7.000000,,,,0.000000,2.000000,2.000000,0.000000,2.000000,2.000000,2.000000,0.000000,2.000000,4.000000,4.000000,4.000000,4.000000,2.000000,4.000000,16.666666,,,,,,,,,,,,,,,,,,,,,,,,,,,,
1732083227.313221,1732083227.314002,94.000000,0.000000,4317.307617,4302.563965,4325.641113,4317.692383,4305.384766,4315.384766,4325.128418,4335.769043,4332.692383,4305.256348,4457.051270,4492.563965,4351.153809,4408.205078,1379.000000,0.000000,7.000000,,,,0.000000,2.000000,2.000000,0.000000,2.000000,2.000000,2.000000,0.000000,2.000000,4.000000,4.000000,4.000000,4.000000,2.000000,4.000000,16.666666,,,,,,,,,,,,,,,,,,,,,,,,,,,,
1732083227.321029,1732083227.321810,95.000000,0.000000,4317.307617,4303.077148,4325.641113,4319.871582,4306.282227,4314.743652,4322.307617,4334.743652,4331.153809,4312.307617,4457.051270,4495.128418,4352.436035,4412.179688,1508.000000,0.000000,7.000000,,,,0.000000,2.000000,2.000000,0.000000,2.000000,2.000000,2.000000,0.000000,2.000000,4.000000,4.000000,4.000000,4.000000,2.000000,4.000000,16.666666,,,,,,,,,,,,,,,,,,,,,,,,,,,,
1732083227.328837,1732083227.329518,96.000000,0.000000,4319.871582,4302.692383,4322.051270,4317.820313,4303.846191,4308.333496,4317.692383,4332.820313,4329.358887,4312.179688,4458.846191,4495.128418,4352.820313,4414.743652,1741.000000,0.000000,7.000000,,,,0.000000,2.000000,2.000000,0.000000,2.000000,2.000000,2.000000,0.000000,2.000000,4.000000,4.000000,4.000000,4.000000,2.000000,4.000000,16.666666,,,,,,,,,,,,,,,,,24.000000,0.000000,0.595900,0.382690,-0.611938,0.352112,0.992309,0.022952,-0.054694,-77.552849,58.084442,27.760733
1732083227.336645,1732083227.337327,97.000000,0.000000,4316.282227,4301.666504,4315.384766,4313.205078,4300.897461,4306.922852,4315.000000,4333.974121,4330.897461,4306.666504,4461.282227,4491.922852,4349.743652,4412.307617,1619.000000,0.000000,7.000000,,,,0.000000,2.000000,2.000000,0.000000,2.000000,2.000000,2.000000,0.000000,2.000000,4.000000,4.000000,4.000000,4.000000,2.000000,4.000000,16.666666,,,,,,,,,,,,,,,,,,,,,,,,,,,,
1732083227.344454,1732083227.344935,98.000000,0.000000,4313.077148,4302.436035,4318.205078,4314.102539,4305.256348,4310.769043,4315.897461,4335.641113,4331.538574,4312.051270,4458.974121,4488.589844,4348.717773,4407.051270,1379.000000,0.000000,7.000000,,,,0.000000,2.000000,2.000000,0.000000,2.000000,2.000000,2.000000,0.000000,2.000000,4.000000,4.000000,4.000000,4.000000,2.000000,4.000000,16.666666,,,,,,,,,,,,,,,,,,,,,,,,,,,,
1732083227.352262,1732083227.352743,99.000000,0.000000,4319.615234,4304.102539,4322.563965,4319.615234,4308.974121,4318.589844,4316.922852,4340.256348,4333.846191,4322.051270,4456.922852,4487.051270,4353.461426,4408.333496,1508.000000,0.000000,7.000000,,,,0.000000,2.000000,2.000000,0.000000,2.000000,2.000000,2.000000,0.000000,2.000000,4.000000,4.000000,4.000000,4.000000,2.000000,4.000000,16.666666,,,,,,,,,,,,,,,,,,,,,,,,,,,,
1732083227.360070,1732083227.360651,100.000000,0.000000,4318.974121,4303.717773,4320.384766,4319.871582,4316.794922,4317.563965,4318.205078,4344.871582,4334.615234,4317.692383,4457.179688,4486.025879,4353.589844,4412.436035,1741.000000,0.000000,7.000000,,,,0.000000,2.000000,2.000000,0.000000,2.000000,2.000000,2.000000,0.000000,2.000000,4.000000,4.000000,4.000000,4.000000,2.000000,4.000000,16.666666,,,,,,,,,,,,,,,,,25.000000,0.000000,0.595900,0.382690,-0.611938,0.352112,1.004029,0.004883,-0.057136,-77.726143,57.930065,27.626194
1732083227.367879,1732083227.368460,101.000000,0.000000,4311.153809,4303.077148,4319.102539,4316.410156,4317.051270,4308.717773,4316.666504,4338.717773,4328.205078,4312.692383,4456.666504,4488.461426,4348.333496,4410.256348,1619.000000,0.000000,7.000000,,,,0.000000,2.000000,2.000000,0.000000,2.000000,2.000000,2.000000,0.000000,2.000000,4.000000,4.000000,4.000000,4.000000,2.000000,4.000000,16.666666,,,,,,,,,,,,,,,,,,,,,,,,,,,,
1732083227.375687,1732083227.376068,102.000000,0.000000,4311.282227,4302.948730,4324.358887,4319.743652,4299.358887,4308.077148,4317.051270,4327.563965,4322.436035,4316.282227,4456.794922,4488.717773,4350.000000,4409.743652,1379.000000,0.000000,7.000000,,,,0.000000,2.000000,2.000000,0.000000,2.000000,2.000000,2.000000,0.000000,2.000000,4.000000,4.000000,4.000000,4.000000,2.000000,4.000000,16.666666,,,,,,,,,,,,,,,,,,,,,,,,,,,,
1732083227.383495,1732083227.383876,103.000000,0.000000,4315.000000,4300.641113,4323.717773,4325.769043,4295.128418,4311.025879,4315.128418,4322.563965,4322.948730,4315.128418,4455.769043,4488.077148,4352.307617,4411.922852,1508.000000,0.000000,7.000000,,,,0.000000,2.000000,2.000000,0.000000,2.000000,2.000000,2.000000,0.000000,2.000000,4.000000,4.000000,4.000000,4.000000,2.000000,4.000000,16.666666,,,,,,,,,,,,,,,,,,,,,,,,,,,,
1732083227.391303,1732083227.391584,104.000000,0.000000,4314.230957,4296.666504,4320.256348,4322.563965,4308.205078,4308.974121,4315.256348,4326.282227,4323.589844,4311.922852,4457.820313,4490.769043,4350.512695,4413.205078,1741.000000,0.000000,7.000000,,,,0.000000,2.000000,2.000000,0.000000,2.000000,2.000000,2.000000,0.000000,2.000000,4.000000,4.000000,4.000000,4.000000,2.000000,4.000000,16.666666,,,,,,,,,,,,,,,,,26.000000,0.000000,0.592324,0.382446,-0.613159,0.356262,0.976193,-0.036137,-0.041509,-77.958176,57.758354,27.278883
1732083227.399112,1732083227.399393,105.000000,0.000000,4311.538574,4295.512695,4320.897461,4318.205078,4311.153809,4308.077148,4317.692383,4334.487305,4328.589844,4312.563965,4459.358887,4492.307617,4350.512695,4413.333496,1619.000000,0.000000,7.000000,,,,0.000000,2.000000,2.000000,0.000000,2.000000,2.000000,2.000000,0.000000,2.000000,4.000000,4.000000,4.000000,4.000000,2.000000,4.000000,16.666666,,,,,,,,,,,,,,,,,,,,,,,,,,,,
1732083227.406920,1732083227.407001,106.000000,0.000000,4314.102539,4300.128418,4322.948730,4320.384766,4306.410156,4310.897461,4316.538574,4333.077148,4333.077148,4315.641113,4457.307617,4489.230957,4349.743652,4412.307617,1379.000000,0.000000,7.000000,,,,0.000000,2.000000,2.000000,0.000000,2.000000,2.000000,2.000000,0.000000,2.000000,4.000000,4.000000,4.000000,4.000000,2.000000,4.000000,16.666666,,,,,,,,,,,,,,,,,,,,,,,,,,,,
1732083227.414728,1732083227.414809,107.000000,0.000000,4315.256348,4299.230957,4321.794922,4320.384766,4303.974121,4311.922852,4313.846191,4326.538574,4327.179688,4314.743652,4457.692383,4487.820313,4347.051270,4412.563965,1508.000000,0.000000,7.000000,,,,0.000000,2.000000,2.000000,0.000000,2.000000,2.000000,2.000000,0.000000,2.000000,4.000000,4.000000,4.000000,4.000000,2.000000,4.000000,16.666666,,,,,,,,,,,,,,,,,,,,,,,,,,,,
1732083227.422536,1732083227.422717,108.000000,0.000000,4310.384766,4295.256348,4318.589844,4316.282227,4311.666504,4308.846191,4314.230957,4330.128418,4322.436035,4306.282227,4456.922852,4488.205078,4345.512695,4412.436035,1741.000000,0.000000,7.000000,,,,0.000000,2.000000,2.000000,0.000000,2.000000,2.000000,2.000000,0.000000,2.000000,4.000000,4.000000,4.000000,4.000000,2.000000,4.000000,16.666666,,,,,,,,,,,,,,,,,27.000000,0.000000,0.590052,0.380493,-0.614746,0.359375,0.968380,-0.063484,-0.048834,-78.151123,57.407600,27.110895
1732083227.430345,1732083227.430526,109.000000,0.000000,4307.563965,4296.153809,4319.102539,4314.487305,4319.102539,4307.051270,4317.179688,4336.666504,4326.666504,4302.820313,4449.615234,4489.102539,4345.769043,4408.077148,1619.000000,0.000000,7.000000,,,,0.000000,2.000000,2.000000,0.000000,2.000000,2.000000,2.000000,0.000000,2.000000,4.000000,4.000000,4.000000,4.000000,2.000000,4.000000,16.666666,,,,,,,,,,,,,,,,,,,,,,,,,,,,
1732083227.438153,1732083227.438534,110.000000,0.000000,4311.538574,4299.615234,4320.641113,4316.666504,4305.769043,4310.384766,4318.077148,4335.000000,4327.307617,4308.461426,4445.000000,4486.282227,4345.769043,4406.922852,1379.000000,0.000000,7.000000,,,,0.000000,2.000000,2.000000,0.000000,2.000000,2.000000,2.000000,0.000000,2.000000,4.000000,4.000000,4.000000,4.000000,2.000000,4.000000,16.666666,,,,,,,,,,,,,,,,,,,,,,,,,,,,
1732083227.445961,1732083227.446342,111.000000,0.000000,4311.922852,4298.333496,4322.051270,4316.666504,4293.589844,4314.358887,4321.153809,4333.974121,4320.000000,4303.846191,4445.128418,4478.974121,4342.307617,4408.461426,1508.000000,0.000000,7.000000,,,,0.000000,2.000000,2.000000,0.000000,2.000000,2.000000,2.000000,0.000000,2.000000,4.000000,4.000000,4.000000,4.000000,2.000000,4.000000,16.666666,,,,,,,,,,,,,,,,,,,,,,,,,,,,
1732083227.453770,1732083227.454250,112.000000,0.000000,4307.692383,4295.897461,4321.922852,4315.256348,4303.333496,4314.487305,4321.538574,4334.615234,4317.820313,4291.922852,4441.794922,4474.871582,4335.769043,4405.256348,1741.000000,0.000000,7.000000,,,,0.000000,2.000000,2.000000,0.000000,2.000000,2.000000,2.000000,0.000000,2.000000,4.000000,4.000000,4.000000,4.000000,2.000000,4.000000,16.666666,,,,,,,,,,,,,,,,,28.000000,0.000000,0.588739,0.377563,-0.616699,0.361267,0.981565,-0.048346,-0.039556,-78.167404,57.108490,27.018158
1732083227.461578,1732083227.462058,113.000000,0.000000,4307.948730,4293.717773,4322.948730,4314.358887,4307.820313,4313.846191,4321.025879,4336.282227,4327.436035,4298.205078,4442.820313,4476.666504,4335.256348,4403.461426,1619.000000,0.000000,7.000000,,,,0.000000,2.000000,2.000000,0.000000,2.000000,2.000000,2.000000,0.000000,2.000000,4.000000,4.000000,4.000000,4.000000,2.000000,4.000000,16.666666,,,,,,,,,,,,,,,,,,,,,,,,,,,,
1732083227.469386,1732083227.470066,114.000000,0.000000,4307.436035,4293.461426,4321.025879,4314.615234,4304.358887,4314.871582,4319.615234,4344.102539,4337.692383,4312.563965,4451.282227,4476.922852,4344.358887,4405.641113,1379.000000,0.000000,7.000000,,,,0.000000,2.000000,2.000000,0.000000,2.000000,2.000000,2.000000,0.000000,2.000000,4.000000,4.000000,4.000000,4.000000,2.000000,4.000000,16.666666,,,,,,,,,,,,,,,,,,,,,,,,,,,,
1732083227.477194,1732083227.477874,115.000000,0.000000,4305.769043,4296.538574,4321.666504,4316.538574,4306.410156,4317.179688,4322.179688,4342.436035,4334.871582,4312.436035,4454.743652,4476.282227,4353.205078,4406.794922,1508.000000,0.000000,7.000000,,,,0.000000,2.000000,2.000000,0.000000,2.000000,2.000000,2.000000,0.000000,2.000000,4.000000,4.000000,4.000000,4.000000,2.000000,4.000000,16.666666,,,,,,,,,,,,,,,,,,,,,,,,,,,,
1732083227.485003,1732083227.485782,116.000000,0.000000,4307.436035,4296.410156,4325.512695,4314.743652,4312.436035,4312.436035,4319.487305,4329.230957,4326.282227,4309.743652,4453.589844,4476.025879,4350.769043,4409.102539,1741.000000,0.000000,7.000000,,,,0.000000,2.000000,2.000000,0.000000,2.000000,2.000000,2.000000,0.000000,2.000000,4.000000,4.000000,4.000000,4.000000,2.000000,4.000000,16.666666,,,,,,,,,,,,,,,,,29.000000,0.000000,0.588524,0.376709,-0.617249,0.361572,0.981565,-0.048346,-0.039556,-78.262268,56.897877,26.603043
1732083227.492811,1732083227.493591,117.000000,0.000000,4309.102539,4293.333496,4326.153809,4311.282227,4318.333496,4303.205078,4316.025879,4326.922852,4325.000000,4310.897461,4455.512695,4473.589844,4348.717773,4411.282227,1619.000000,0.000000,7.000000,,,,0.000000,2.000000,2.000000,0.000000,2.000000,2.000000,2.000000,0.000000,2.000000,4.000000,4.000000,4.000000,4.000000,2.000000,4.000000,16.666666,,,,,,,,,,,,,,,,,,,,,,,,,,,,
1732083227.500619,1732083227.501599,118.000000,0.000000,4308.333496,4294.230957,4324.102539,4314.615234,4309.871582,4306.153809,4318.205078,4333.974121,4330.641113,4310.641113,4459.358887,4477.051270,4356.666504,4413.974121,1379.000000,0.000000,7.000000,,,,0.000000,2.000000,2.000000,0.000000,2.000000,2.000000,2.000000,0.000000,2.000000,4.000000,4.000000,4.000000,4.000000,2.000000,4.000000,16.666666,,,,,,,,,,,,,,,,,,,,,,,,,,,,
1732083227.508427,1732083227.509407,119.000000,0.000000,4307.948730,4296.025879,4324.615234,4318.461426,4293.205078,4313.846191,4322.948730,4336.666504,4334.358887,4311.666504,4459.358887,4483.717773,4356.538574,4417.307617,1508.000000,0.000000,7.000000,,,,0.000000,2.000000,2.000000,0.000000,2.000000,2.000000,2.000000,0.000000,2.000000,4.000000,4.000000,4.000000,4.000000,2.000000,4.000000,16.666666,,,,,,,,,,,,,,,,,,,,,,,,,,,,
1732083227.516236,1732083227.517315,120.000000,0.000000,4308.461426,4294.871582,4325.512695,4314.743652,4298.461426,4310.769043,4322.820313,4332.307617,4332.948730,4316.025879,4456.538574,4480.256348,4346.538574,4415.512695,1741.000000,0.000000,7.000000,,,,0.000000,2.000000,2.000000,0.000000,2.000000,2.000000,2.000000,0.000000,2.000000,4.000000,4.000000,4.000000,4.000000,2.000000,4.000000,16.666666,,,,,,,,,,,,,,,,,30.000000,0.000000,0.588762,0.373535,-0.619446,0.360718,0.983030,-0.018069,-0.047369,-78.527435,56.753944,26.478464
1732083227.524044,1732083227.525123,121.000000,0.000000,4307.692383,4293.974121,4323.846191,4311.282227,4306.538574,4305.000000,4321.153809,4329.615234,4329.230957,4317.307617,4455.128418,4475.256348,4345.641113,4410.000000,1619.000000,0.000000,7.000000,,,,0.000000,2.000000,2.000000,0.000000,2.000000,2.000000,2.000000,0.000000,2.000000,4.000000,4.000000,4.000000,4.000000,2.000000,4.000000,16.666666,,,,,,,,,,,,,,,,,,,,,,,,,,,,
1732083227.531852,1732083227.533131,122.000000,0.000000,4308.717773,4294.358887,4325.897461,4314.487305,4295.641113,4306.025879,4321.410156,4332.307617,4328.974121,4315.000000,4458.461426,4483.205078,4354.230957,4410.256348,1379.000000,0.000000,7.000000,,,,0.000000,2.000000,2.000000,0.000000,2.000000,2.000000,2.000000,0.000000,2.000000,4.000000,4.000000,4.000000,4.000000,2.000000,4.000000,16.666666,,,,,,,,,,,,,,,,,,,,,,,,,,,,
1732083227.539660,1732083227.540939,123.000000,0.000000,4309.743652,4294.230957,4328.717773,4316.666504,4305.384766,4310.384766,4320.641113,4332.692383,4331.666504,4316.538574,4461.025879,4489.615234,4356.538574,4413.717773,1508.000000,0.000000,7.000000,,,,0.000000,2.000000,2.000000,0.000000,2.000000,2.000000,2.000000,0.000000,2.000000,4.000000,4.000000,4.000000,4.000000,2.000000,4.000000,16.666666,,,,,,,,,,,,,,,,,,,,,,,,,,,,
1732083227.547469,1732083227.548847,124.000000,0.000000,4309.358887,4295.000000,4324.615234,4313.333496,4322.820313,4309.743652,4320.897461,4330.256348,4330.256348,4315.769043,4457.179688,4483.717773,4351.153809,4412.436035,1741.000000,0.000000,7.000000,,,,0.000000,2.000000,2.000000,0.000000,2.000000,2.000000,2.000000,0.000000,2.000000,4.000000,4.000000,4.000000,4.000000,2.000000,4.000000,16.666666,,,,,,,,,,,,,,,,,31.000000,0.000000,0.588909,0.373108,-0.619812,0.360291,0.983030,0.001465,-0.057136,-78.468887,56.504028,26.460890
1732083227.555277,1732083227.556656,125.000000,0.000000,4307.563965,4294.230957,4318.846191,4310.641113,4306.025879,4308.589844,4322.307617,4333.205078,4330.769043,4312.307617,4450.128418,4476.410156,4346.025879,4407.820313,1619.000000,0.000000,7.000000,,,,0.000000,2.000000,2.000000,0.000000,2.000000,2.000000,2.000000,0.000000,2.000000,4.000000,4.000000,4.000000,4.000000,2.000000,4.000000,16.666666,,,,,,,,,,,,,,,,,,,,,,,,,,,,
1732083227.563085,1732083227.564664,126.000000,0.000000,4301.922852,4290.384766,4320.641113,4310.641113,4291.538574,4310.512695,4322.948730,4338.077148,4331.538574,4312.563965,4447.563965,4474.615234,4346.538574,4403.589844,1379.000000,0.000000,7.000000,,,,0.000000,2.000000,2.000000,0.000000,2.000000,2.000000,2.000000,0.000000,2.000000,4.000000,4.000000,4.000000,4.000000,2.000000,4.000000,16.666666,,,,,,,,,,,,,,,,,,,,,,,,,,,,
1732083227.570893,1732083227.572472,127.000000,0.000000,4298.205078,4290.000000,4323.717773,4311.666504,4302.179688,4312.436035,4319.871582,4333.333496,4326.666504,4314.230957,4451.794922,4475.000000,4347.948730,4404.487305,7.000000,0.000000,7.000000,,,,0.000000,2.000000,2.000000,0.000000,2.000000,2.000000,2.000000,0.000000,2.000000,4.000000,4.000000,4.000000,4.000000,2.000000,4.000000,16.666666,,,,,,,,,,,,,,,,,,,,,,,,,,,,
1732083227.578702,1732083227.580380,0.000000,0.000000,4298.846191,4295.000000,4324.102539,4312.436035,4303.974121,4312.051270,4320.641113,4327.820313,4324.871582,4312.692383,4455.512695,4477.179688,4346.922852,4408.589844,0.000000,0.000000,7.000000,,,,0.000000,2.000000,2.000000,0.000000,2.000000,2.000000,2.000000,0.000000,2.000000,4.000000,4.000000,4.000000,4.000000,2.000000,4.000000,16.666666,,,,,,,,,,,,,,,,,0.000000,0.000000,0.589005,0.372803,-0.620117,0.359924,0.983030,0.001465,-0.057136,-78.604797,56.443264,26.438320
1732083227.586510,1732083227.588188,1.000000,0.000000,4297.436035,4297.436035,4323.717773,4313.974121,4305.512695,4306.538574,4319.358887,4327.563965,4327.307617,4313.974121,4454.615234,4480.000000,4347.948730,4410.000000,1314.000000,0.000000,7.000000,,,,0.000000,2.000000,2.000000,0.000000,2.000000,2.000000,2.000000,0.000000,2.000000,4.000000,4.000000,4.000000,4.000000,2.000000,4.000000,16.666666,,,,,,,,,,,,,,,,,,,,,,,,,,,,
1732083227.594318,1732083227.595797,2.000000,0.000000,4290.384766,4293.717773,4324.230957,4311.922852,4315.897461,4299.102539,4318.333496,4326.922852,4323.717773,4312.948730,4451.666504,4478.333496,4344.871582,4404.102539,1235.000000,0.000000,7.000000,,,,0.000000,2.000000,2.000000,0.000000,2.000000,2.000000,2.000000,0.000000,2.000000,4.000000,4.000000,4.000000,4.000000,2.000000,4.000000,16.666666,,,,,,,,,,,,,,,,,,,,,,,,,,,,
1732083227.602126,1732083227.603605,3.000000,0.000000,4288.205078,4293.333496,4321.666504,4308.717773,4304.102539,4301.153809,4319.358887,4330.769043,4323.589844,4306.025879,4448.077148,4475.128418,4339.358887,4397.051270,1195.000000,0.000000,7.000000,,,,0.000000,2.000000,2.000000,0.000000,2.000000,2.000000,2.000000,0.000000,2.000000,4.000000,4.000000,4.000000,4.000000,2.000000,4.000000,16.666666,,,,,,,,,,,,,,,,,,,,,,,,,,,,
1732083227.609935,1732083227.611513,4.000000,0.000000,4291.538574,4296.794922,4321.666504,4310.769043,4290.769043,4309.871582,4322.436035,4334.615234,4330.641113,4305.641113,4445.000000,4474.743652,4340.641113,4395.256348,1209.000000,0.000000,7.000000,,,,0.000000,2.000000,2.000000,0.000000,2.000000,2.000000,2.000000,0.000000,2.000000,4.000000,4.000000,4.000000,4.000000,2.000000,4.000000,16.666666,,,,,,,,,,,,,,,,,1.000000,0.000000,0.589151,0.372375,-0.620483,0.359497,0.975217,-0.002442,-0.054206,-78.688225,56.224045,26.465040
1732083227.617743,1732083227.619321,5.000000,0.000000,4295.769043,4297.179688,4322.179688,4316.153809,4301.794922,4311.538574,4321.025879,4334.102539,4328.461426,4310.769043,4449.487305,4477.179688,4345.128418,4396.922852,1082.000000,0.000000,7.000000,,,,0.000000,2.000000,2.000000,0.000000,2.000000,2.000000,2.000000,0.000000,2.000000,4.000000,4.000000,4.000000,4.000000,2.000000,4.000000,16.666666,,,,,,,,,,,,,,,,,,,,,,,,,,,,
1732083227.625551,1732083227.627329,6.000000,0.000000,4297.051270,4295.512695,4322.563965,4318.205078,4308.077148,4310.000000,4320.384766,4334.358887,4323.205078,4309.102539,4451.538574,4479.358887,4345.512695,4398.974121,16.000000,0.000000,7.000000,,,,0.000000,2.000000,2.000000,0.000000,2.000000,2.000000,2.000000,0.000000,2.000000,4.000000,4.000000,4.000000,4.000000,2.000000,4.000000,16.666666,,,,,,,,,,,,,,,,,,,,,,,,,,,,
1732083227.633360,1732083227.635137,7.000000,0.000000,4292.436035,4295.384766,4323.461426,4313.205078,4304.102539,4312.051270,4319.487305,4333.077148,4325.641113,4307.563965,4444.871582,4475.897461,4342.563965,4395.128418,1185.000000,0.000000,7.000000,,,,0.000000,2.000000,2.000000,0.000000,2.000000,2.000000,2.000000,0.000000,2.000000,4.000000,4.000000,4.000000,4.000000,2.000000,4.000000,16.666666,,,,,,,,,,,,,,,,,,,,,,,,,,,,
1732083227.641168,1732083227.642846,8.000000,0.000000,4291.794922,4295.897461,4324.615234,4307.307617,4303.333496,4312.051270,4320.256348,4334.615234,4328.461426,4313.333496,4447.307617,4476.025879,4342.051270,4394.102539,1361.000000,0.000000,7.000000,,,,0.000000,2.000000,2.000000,0.000000,2.000000,2.000000,2.000000,0.000000,2.000000,4.000000,4.000000,4.000000,4.000000,2.000000,4.000000,16.666666,,,,,,,,,,,,,,,,,2.000000,0.000000,0.589269,0.372070,-0.620483,0.359619,0.971798,-0.016604,-0.041509,-78.839127,55.929810,26.453348
1732083227.648976,1732083227.650654,9.000000,0.000000,4298.205078,4295.641113,4322.563965,4310.641113,4300.128418,4310.512695,4322.820313,4342.948730,4330.641113,4313.717773,4457.179688,4482.563965,4343.846191,4401.153809,1503.000000,0.000000,7.000000,,,,0.000000,2.000000,2.000000,0.000000,2.000000,2.000000,2.000000,0.000000,2.000000,4.000000,4.000000,4.000000,4.000000,2.000000,4.000000,16.666666,,,,,,,,,,,,,,,,,,,,,,,,,,,,
1732083227.656784,1732083227.658262,10.000000,0.000000,4300.769043,4296.410156,4322.179688,4315.000000,4297.820313,4313.333496,4323.974121,4346.410156,4333.333496,4308.077148,4455.512695,4482.820313,4343.333496,4402.820313,1379.000000,0.000000,7.000000,,,,0.000000,2.000000,2.000000,0.000000,2.000000,2.000000,2.000000,0.000000,2.000000,4.000000,4.000000,4.000000,4.000000,2.000000,4.000000,16.666666,,,,,,,,,,,,,,,,,,,,,,,,,,,,
1732083227.664593,1732083227.666071,11.000000,0.000000,4294.871582,4295.769043,4326.538574,4312.820313,4311.922852,4312.948730,4321.410156,4336.410156,4331.153809,4309.102539,4444.743652,4475.769043,4340.256348,4395.384766,1509.000000,0.000000,7.000000,,,,0.000000,2.000000,2.000000,0.000000,2.000000,2.000000,2.000000,0.000000,2.000000,4.000000,4.000000,4.000000,4.000000,2.000000,4.000000,16.666666,,,,,,,,,,,,,,,,,,,,,,,,,,,,
1732083227.672401,1732083227.673779,12.000000,0.000000,4293.974121,4295.769043,4325.641113,4311.922852,4318.077148,4307.179688,4317.179688,4325.256348,4326.282227,4310.384766,4443.589844,4474.230957,4341.153809,4393.333496,1741.000000,0.000000,7.000000,,,,0.000000,2.000000,2.000000,0.000000,2.000000,2.000000,2.000000,0.000000,2.000000,4.000000,4.000000,4.000000,4.000000,2.000000,4.000000,16.666666,,,,,,,,,,,,,,,,,3.000000,0.000000,0.589269,0.372070,-0.620483,0.359619,0.985472,-0.017580,-0.049322,-78.856361,55.871479,26.533878
1732083227.680209,1732083227.681587,13.000000,0.000000,4298.077148,4297.563965,4322.436035,4313.461426,4302.179688,4310.000000,4317.820313,4328.717773,4327.051270,4309.487305,4446.794922,4477.563965,4343.205078,4397.692383,1629.000000,0.000000,7.000000,,,,0.000000,2.000000,2.000000,0.000000,2.000000,2.000000,2.000000,0.000000,2.000000,4.000000,4.000000,4.000000,4.000000,2.000000,4.000000,16.666666,,,,,,,,,,,,,,,,,,,,,,,,,,,,
1732083227.688017,1732083227.689195,14.000000,0.000000,4296.410156,4296.538574,4323.589844,4313.461426,4294.743652,4316.153809,4319.871582,4335.384766,4331.794922,4311.922852,4447.563965,4477.307617,4342.179688,4395.641113,1379.000000,0.000000,7.000000,,,,0.000000,2.000000,2.000000,0.000000,2.000000,2.000000,2.000000,0.000000,2.000000,4.000000,4.000000,4.000000,4.000000,2.000000,4.000000,16.666666,1.000000,16.666666,2.000000,2.000000,0.000000,2.000000,2.000000,2.000000,0.000000,2.000000,4.000000,4.000000,4.000000,4.000000,2.000000,3.000000,,,,,,,,,,,,
1732083227.695826,1732083227.697004,15.000000,0.000000,4291.794922,4295.256348,4325.256348,4311.666504,4305.000000,4313.333496,4319.871582,4332.563965,4327.948730,4307.307617,4445.769043,4476.153809,4338.974121,4394.102539,1509.000000,0.000000,7.000000,,,,0.000000,2.000000,2.000000,0.000000,2.000000,2.000000,2.000000,0.000000,2.000000,4.000000,4.000000,4.000000,4.000000,2.000000,4.000000,16.666666,,,,,,,,,,,,,,,,,,,,,,,,,,,,
1732083227.703634,1732083227.704712,16.000000,0.000000,4288.717773,4296.025879,4322.820313,4309.743652,4304.102539,4312.307617,4318.846191,4330.897461,4325.256348,4296.282227,4445.769043,4475.769043,4338.333496,4393.717773,0.000000,0.000000,7.000000,,,,0.000000,2.000000,2.000000,0.000000,2.000000,2.000000,2.000000,0.000000,2.000000,4.000000,4.000000,4.000000,4.000000,2.000000,4.000000,16.666666,,,,,,,,,,,,,,,,,4.000000,0.000000,0.589342,0.371643,-0.620422,0.360046,0.987425,-0.029300,-0.050787,-78.788651,55.610897,26.622442
1732083227.711442,1732083227.712520,17.000000,0.000000,4288.205078,4296.282227,4321.025879,4311.794922,4301.666504,4315.384766,4321.794922,4335.000000,4332.692383,4297.948730,4446.410156,4473.589844,4341.282227,4388.461426,0.000000,0.000000,7.000000,,,,0.000000,2.000000,2.000000,0.000000,2.000000,2.000000,2.000000,0.000000,2.000000,4.000000,4.000000,4.000000,4.000000,2.000000,4.000000,16.666666,,,,,,,,,,,,,,,,,,,,,,,,,,,,
1732083227.719251,1732083227.720129,18.000000,0.000000,4288.205078,4296.410156,4322.307617,4314.871582,4317.948730,4312.692383,4322.307617,4336.922852,4335.000000,4305.641113,4443.589844,4474.230957,4342.179688,4387.692383,0.000000,0.000000,7.000000,,,,0.000000,2.000000,2.000000,0.000000,2.000000,2.000000,2.000000,0.000000,2.000000,4.000000,4.000000,4.000000,4.000000,2.000000,4.000000,16.666666,,,,,,,,,,,,,,,,,,,,,,,,,,,,
1732083227.727059,1732083227.727937,19.000000,0.000000,4288.461426,4297.436035,4324.487305,4314.743652,4314.102539,4312.436035,4320.769043,4336.282227,4332.563965,4305.769043,4445.641113,4476.153809,4339.358887,4391.794922,0.000000,0.000000,7.000000,,,,0.000000,2.000000,2.000000,0.000000,2.000000,2.000000,2.000000,0.000000,2.000000,4.000000,4.000000,4.000000,4.000000,2.000000,4.000000,16.666666,,,,,,,,,,,,,,,,,,,,,,,,,,,,
1732083227.734867,1732083227.735645,20.000000,0.000000,4289.743652,4297.179688,4321.282227,4312.179688,4291.922852,4313.717773,4317.307617,4338.974121,4334.871582,4307.948730,4453.077148,4476.282227,4340.256348,4392.051270,0.000000,0.000000,7.000000,,,,0.000000,2.000000,2.000000,0.000000,2.000000,2.000000,2.000000,0.000000,2.000000,4.000000,4.000000,4.000000,4.000000,2.000000,4.000000,16.666666,,,,,,,,,,,,,,,,,5.000000,0.000000,0.589742,0.371094,-0.620300,0.360168,0.979612,-0.011720,-0.041021,-78.818810,55.331493,26.512512
1732083227.742675,1732083227.743453,21.000000,0.000000,4290.384766,4296.282227,4318.333496,4311.666504,4295.769043,4311.410156,4318.333496,4338.077148,4335.256348,4313.717773,4455.641113,4474.871582,4344.871582,4388.461426,0.000000,0.000000,7.000000,,,,0.000000,2.000000,2.000000,0.000000,2.000000,2.000000,2.000000,0.000000,2.000000,4.000000,4.000000,4.000000,4.000000,2.000000,4.000000,16.666666,,,,,,,,,,,,,,,,,,,,,,,,,,,,
1732083227.750484,1732083227.751062,22.000000,0.000000,4291.153809,4297.436035,4320.641113,4314.358887,4311.282227,4313.974121,4321.282227,4332.692383,4332.051270,4313.461426,4454.871582,4470.769043,4345.256348,4386.794922,0.000000,0.000000,7.000000,,,,0.000000,2.000000,2.000000,0.000000,2.000000,2.000000,2.000000,0.000000,2.000000,4.000000,4.000000,4.000000,4.000000,2.000000,4.000000,16.666666,,,,,,,,,,,,,,,,,,,,,,,,,,,,
1732083227.758292,1732083227.758870,23.000000,0.000000,4289.230957,4298.333496,4323.333496,4315.256348,4310.769043,4317.051270,4321.538574,4331.794922,4331.666504,4307.563965,4452.436035,4464.743652,4342.436035,4385.256348,0.000000,0.000000,7.000000,,,,0.000000,2.000000,2.000000,0.000000,2.000000,2.000000,2.000000,0.000000,2.000000,4.000000,4.000000,4.000000,4.000000,2.000000,4.000000,16.666666,,,,,,,,,,,,,,,,,,,,,,,,,,,,
1732083227.766100,1732083227.766578,24.000000,0.000000,4288.974121,4300.641113,4322.179688,4316.025879,4302.948730,4315.769043,4319.615234,4332.179688,4330.897461,4306.282227,4450.512695,4466.153809,4341.922852,4384.871582,0.000000,0.000000,7.000000,,,,0.000000,2.000000,2.000000,0.000000,2.000000,2.000000,2.000000,0.000000,2.000000,4.000000,4.000000,4.000000,4.000000,2.000000,4.000000,16.666666,,,,,,,,,,,,,,,,,6.000000,0.000000,0.590082,0.370850,-0.620300,0.359863,0.991820,-0.023440,-0.047857,-78.914902,55.083511,26.490133
1732083227.773909,1732083227.774386,25.000000,0.000000,4292.436035,4302.563965,4323.077148,4317.820313,4306.538574,4315.384766,4319.230957,4334.358887,4327.948730,4309.230957,4450.897461,4473.717773,4343.589844,4388.846191,0.000000,0.000000,7.000000,,,,0.000000,2.000000,2.000000,0.000000,2.000000,2.000000,2.000000,0.000000,2.000000,4.000000,4.000000,4.000000,4.000000,2.000000,4.000000,16.666666,,,,,,,,,,,,,,,,,,,,,,,,,,,,
1732083227.781717,1732083227.782394,26.000000,0.000000,4293.205078,4301.666504,4320.512695,4318.205078,4316.025879,4312.820313,4318.717773,4333.974121,4329.615234,4303.461426,4451.794922,4475.769043,4341.282227,4385.256348,0.000000,0.000000,7.000000,,,,0.000000,2.000000,2.000000,0.000000,2.000000,2.000000,2.000000,0.000000,2.000000,4.000000,4.000000,4.000000,4.000000,2.000000,4.000000,16.666666,,,,,,,,,,,,,,,,,,,,,,,,,,,,
1732083227.789525,1732083227.790203,27.000000,0.000000,4290.897461,4297.948730,4317.820313,4315.641113,4308.717773,4307.820313,4316.153809,4335.256348,4330.256348,4295.641113,4453.205078,4473.974121,4339.102539,4380.256348,0.000000,0.000000,7.000000,,,,0.000000,2.000000,2.000000,0.000000,2.000000,2.000000,2.000000,0.000000,2.000000,4.000000,4.000000,4.000000,4.000000,2.000000,4.000000,16.666666,,,,,,,,,,,,,,,,,,,,,,,,,,,,
1732083227.797333,1732083227.798111,28.000000,0.000000,4290.641113,4299.102539,4322.436035,4316.153809,4290.512695,4311.538574,4317.051270,4339.230957,4331.282227,4305.256348,4460.256348,4477.307617,4342.820313,4386.153809,0.000000,0.000000,7.000000,,,,0.000000,2.000000,2.000000,0.000000,2.000000,2.000000,2.000000,0.000000,2.000000,4.000000,4.000000,4.000000,4.000000,2.000000,4.000000,16.666666,,,,,,,,,,,,,,,,,7.000000,0.000000,0.590195,0.370789,-0.620300,0.359741,0.990355,-0.019534,-0.047857,-78.992737,55.194309,26.480343
1732083227.805142,1732083227.805919,29.000000,0.000000,4294.358887,4304.743652,4325.769043,4320.256348,4293.077148,4318.205078,4321.153809,4335.769043,4332.051270,4315.641113,4460.897461,4481.025879,4343.974121,4392.051270,0.000000,0.000000,7.000000,,,,0.000000,2.000000,2.000000,0.000000,2.000000,2.000000,2.000000,0.000000,2.000000,4.000000,4.000000,4.000000,4.000000,2.000000,4.000000,16.666666,,,,,,,,,,,,,,,,,,,,,,,,,,,,
1732083227.812950,1732083227.813527,30.000000,0.000000,4295.256348,4304.743652,4322.307617,4319.358887,4310.641113,4315.384766,4322.051270,4330.128418,4328.205078,4308.589844,4450.000000,4476.538574,4337.948730,4386.282227,0.000000,0.000000,7.000000,,,,0.000000,2.000000,2.000000,0.000000,2.000000,2.000000,2.000000,0.000000,2.000000,4.000000,4.000000,4.000000,4.000000,2.000000,4.000000,16.666666,,,,,,,,,,,,,,,,,,,,,,,,,,,,
1732083227.820758,1732083227.821336,31.000000,0.000000,4293.461426,4301.794922,4319.743652,4316.410156,4311.025879,4313.077148,4318.846191,4331.666504,4329.487305,4302.948730,4450.641113,4472.692383,4337.563965,4384.230957,0.000000,0.000000,7.000000,,,,0.000000,2.000000,2.000000,0.000000,2.000000,2.000000,2.000000,0.000000,2.000000,4.000000,4.000000,4.000000,4.000000,2.000000,4.000000,16.666666,,,,,,,,,,,,,,,,,,,,,,,,,,,,
1732083227.828566,1732083227.829244,32.000000,0.000000,4291.666504,4300.128418,4323.974121,4313.461426,4306.666504,4315.000000,4321.666504,4340.000000,4335.256348,4308.077148,4458.589844,4475.256348,4343.077148,4387.051270,0.000000,0.000000,7.000000,,,,0.000000,2.000000,2.000000,0.000000,2.000000,2.000000,2.000000,0.000000,2.000000,4.000000,4.000000,4.000000,4.000000,2.000000,4.000000,16.666666,,,,,,,,,,,,,,,,,8.000000,0.000000,0.590449,0.370911,-0.620056,0.359619,0.979612,-0.005860,-0.048834,-79.187447,55.184059,26.405745
1732083227.836375,1732083227.837052,33.000000,0.000000,4290.128418,4297.692383,4324.358887,4311.153809,4313.461426,4312.692383,4321.410156,4337.307617,4332.436035,4307.948730,4452.179688,4471.153809,4342.436035,4384.230957,0.000000,0.000000,7.000000,,,,0.000000,2.000000,2.000000,0.000000,2.000000,2.000000,2.000000,0.000000,2.000000,4.000000,4.000000,4.000000,4.000000,2.000000,4.000000,16.666666,,,,,,,,,,,,,,,,,,,,,,,,,,,,
1732083227.844183,1732083227.845060,34.000000,0.000000,4290.000000,4296.794922,4323.077148,4311.282227,4310.128418,4309.358887,4318.846191,4331.538574,4327.692383,4303.717773,4443.077148,4464.230957,4340.128418,4382.820313,0.000000,0.000000,7.000000,,,,0.000000,2.000000,2.000000,0.000000,2.000000,2.000000,2.000000,0.000000,2.000000,4.000000,4.000000,4.000000,4.000000,2.000000,4.000000,16.666666,,,,,,,,,,,,,,,,,,,,,,,,,,,,
1732083227.851991,1732083227.852868,35.000000,0.000000,4288.717773,4297.307617,4324.230957,4310.256348,4293.461426,4312.436035,4318.717773,4339.743652,4334.487305,4305.128418,4448.589844,4469.487305,4341.922852,4383.461426,0.000000,0.000000,7.000000,,,,0.000000,2.000000,2.000000,0.000000,2.000000,2.000000,2.000000,0.000000,2.000000,4.000000,4.000000,4.000000,4.000000,2.000000,4.000000,16.666666,,,,,,,,,,,,,,,,,,,,,,,,,,,,
1732083227.859799,1732083227.860776,36.000000,0.000000,4287.563965,4294.871582,4324.871582,4307.307617,4289.102539,4312.307617,4321.666504,4341.025879,4336.282227,4304.358887,4453.461426,4475.128418,4342.436035,4382.563965,0.000000,0.000000,7.000000,,,,0.000000,2.000000,2.000000,0.000000,2.000000,2.000000,2.000000,0.000000,2.000000,4.000000,4.000000,4.000000,4.000000,2.000000,4.000000,16.666666,,,,,,,,,,,,,,,,,9.000000,0.000000,0.590834,0.371399,-0.619751,0.359009,0.978147,0.000000,-0.050787,-79.041832,55.209087,26.473652
1732083227.867608,1732083227.868584,37.000000,0.000000,4288.974121,4297.051270,4321.538574,4310.128418,4308.974121,4307.948730,4320.256348,4330.384766,4327.051270,4303.205078,4447.948730,4471.922852,4340.512695,4385.769043,0.000000,0.000000,7.000000,,,,0.000000,2.000000,2.000000,0.000000,2.000000,2.000000,2.000000,0.000000,2.000000,4.000000,4.000000,4.000000,4.000000,2.000000,4.000000,16.666666,,,,,,,,,,,,,,,,,,,,,,,,,,,,
1732083227.875416,1732083227.876592,38.000000,0.000000,4289.743652,4303.077148,4322.179688,4316.922852,4315.128418,4310.641113,4320.769043,4330.128418,4325.641113,4305.000000,4445.128418,4471.922852,4340.128418,4386.666504,0.000000,0.000000,7.000000,,,,0.000000,2.000000,2.000000,0.000000,2.000000,2.000000,2.000000,0.000000,2.000000,4.000000,4.000000,4.000000,4.000000,2.000000,4.000000,16.666666,,,,,,,,,,,,,,,,,,,,,,,,,,,,
1732083227.883224,1732083227.884401,39.000000,0.000000,4289.871582,4298.846191,4323.589844,4315.512695,4296.282227,4314.102539,4320.897461,4337.692383,4329.358887,4300.384766,4445.769043,4470.512695,4337.692383,4379.871582,0.000000,0.000000,7.000000,,,,0.000000,2.000000,2.000000,0.000000,2.000000,2.000000,2.000000,0.000000,2.000000,4.000000,4.000000,4.000000,4.000000,2.000000,4.000000,16.666666,,,,,,,,,,,,,,,,,,,,,,,,,,,,
1732083227.891032,1732083227.892309,40.000000,0.000000,4285.641113,4294.102539,4320.512695,4311.538574,4291.025879,4313.846191,4322.436035,4333.974121,4327.692383,4297.179688,4444.743652,4462.692383,4334.871582,4378.974121,0.000000,0.000000,7.000000,,,,0.000000,2.000000,2.000000,0.000000,2.000000,2.000000,2.000000,0.000000,2.000000,4.000000,4.000000,4.000000,4.000000,2.000000,4.000000,16.666666,,,,,,,,,,,,,,,,,10.000000,0.000000,0.591058,0.371277,-0.619751,0.358765,0.978147,0.000000,-0.050787,-78.938889,55.169361,26.573658
1732083227.898841,1732083227.900117,41.000000,0.000000,4285.384766,4296.922852,4319.102539,4314.230957,4302.692383,4314.230957,4323.974121,4334.743652,4328.846191,4307.563965,4447.948730,4465.512695,4338.717773,4384.743652,0.000000,0.000000,7.000000,,,,0.000000,2.000000,2.000000,0.000000,2.000000,2.000000,2.000000,0.000000,2.000000,4.000000,4.000000,4.000000,4.000000,2.000000,4.000000,16.666666,,,,,,,,,,,,,,,,,,,,,,,,,,,,
1732083227.906649,1732083227.908125,42.000000,0.000000,4290.769043,4298.974121,4322.051270,4315.000000,4304.487305,4312.307617,4321.025879,4343.974121,4331.666504,4315.128418,4449.743652,4468.589844,4340.000000,4384.102539,0.000000,0.000000,7.000000,,,,0.000000,2.000000,2.000000,0.000000,2.000000,2.000000,2.000000,0.000000,2.000000,4.000000,4.000000,4.000000,4.000000,2.000000,4.000000,16.666666,,,,,,,,,,,,,,,,,,,,,,,,,,,,
1732083227.914457,1732083227.915933,43.000000,0.000000,4290.897461,4300.128418,4321.025879,4310.897461,4301.025879,4309.871582,4319.615234,4341.153809,4331.153809,4310.256348,4444.743652,4461.666504,4336.922852,4382.820313,0.000000,0.000000,7.000000,,,,0.000000,2.000000,2.000000,0.000000,2.000000,2.000000,2.000000,0.000000,2.000000,4.000000,4.000000,4.000000,4.000000,2.000000,4.000000,16.666666,,,,,,,,,,,,,,,,,,,,,,,,,,,,
1732083227.922265,1732083227.923841,44.000000,0.000000,4286.025879,4299.871582,4319.615234,4310.641113,4301.282227,4312.436035,4321.410156,4333.077148,4330.641113,4310.000000,4445.769043,4465.512695,4339.102539,4386.153809,0.000000,0.000000,7.000000,,,,0.000000,2.000000,2.000000,0.000000,2.000000,2.000000,2.000000,0.000000,2.000000,4.000000,4.000000,4.000000,4.000000,2.000000,4.000000,16.666666,,,,,,,,,,,,,,,,,11.000000,0.000000,0.591407,0.371033,-0.619812,0.358337,0.984984,0.000488,-0.035649,-78.818832,55.220516,26.574663
1732083227.930074,1732083227.931649,45.000000,0.000000,4287.307617,4297.436035,4320.256348,4311.410156,4304.358887,4314.230957,4321.538574,4333.846191,4330.641113,4311.410156,4449.102539,4475.512695,4339.743652,4389.358887,0.000000,0.000000,7.000000,,,,0.000000,2.000000,2.000000,0.000000,2.000000,2.000000,2.000000,0.000000,2.000000,4.000000,4.000000,4.000000,4.000000,2.000000,4.000000,16.666666,,,,,,,,,,,,,,,,,,,,,,,,,,,,
1732083227.937882,1732083227.939657,46.000000,0.000000,4289.230957,4297.948730,4319.487305,4309.615234,4317.051270,4310.641113,4317.051270,4338.846191,4329.358887,4306.282227,4444.358887,4468.461426,4336.153809,4391.153809,0.000000,0.000000,7.000000,,,,0.000000,2.000000,2.000000,0.000000,2.000000,2.000000,2.000000,0.000000,2.000000,4.000000,4.000000,4.000000,4.000000,2.000000,4.000000,16.666666,,,,,,,,,,,,,,,,,,,,,,,,,,,,
1732083227.945690,1732083227.947466,47.000000,0.000000,4285.769043,4299.487305,4319.871582,4310.512695,4313.846191,4309.487305,4318.205078,4334.615234,4329.230957,4305.384766,4443.974121,4457.692383,4340.000000,4392.051270,0.000000,0.000000,7.000000,,,,0.000000,2.000000,2.000000,0.000000,2.000000,2.000000,2.000000,0.000000,2.000000,4.000000,4.000000,4.000000,4.000000,2.000000,4.000000,16.666666,,,,,,,,,,,,,,,,,,,,,,,,,,,,
1732083227.953498,1732083227.955374,48.000000,0.000000,4287.692383,4296.922852,4319.487305,4313.589844,4292.179688,4312.948730,4322.436035,4332.436035,4332.051270,4313.974121,4451.538574,4461.282227,4342.820313,4390.641113,0.000000,0.000000,7.000000,,,,0.000000,2.000000,2.000000,0.000000,2.000000,2.000000,2.000000,0.000000,2.000000,4.000000,4.000000,4.000000,4.000000,2.000000,4.000000,16.666666,,,,,,,,,,,,,,,,,12.000000,0.000000,0.591881,0.370850,-0.619751,0.357849,0.975705,-0.003418,-0.035161,-78.888252,55.345284,26.575478
1732083227.961307,1732083227.963182,49.000000,0.000000,4289.487305,4294.871582,4320.512695,4311.282227,4291.025879,4314.487305,4324.487305,4338.846191,4331.410156,4312.307617,4449.358887,4466.922852,4336.153809,4387.051270,0.000000,0.000000,7.000000,,,,0.000000,2.000000,2.000000,0.000000,2.000000,2.000000,2.000000,0.000000,2.000000,4.000000,4.000000,4.000000,4.000000,2.000000,4.000000,16.666666,,,,,,,,,,,,,,,,,,,,,,,,,,,,
1732083227.969115,1732083227.970790,50.000000,0.000000,4287.563965,4298.077148,4322.692383,4308.333496,4305.641113,4311.538574,4317.820313,4334.358887,4326.282227,4298.846191,4444.102539,4465.000000,4337.051270,4387.948730,0.000000,0.000000,7.000000,,,,0.000000,2.000000,2.000000,0.000000,2.000000,2.000000,2.000000,0.000000,2.000000,4.000000,4.000000,4.000000,4.000000,2.000000,4.000000,16.666666,,,,,,,,,,,,,,,,,,,,,,,,,,,,
1732083227.976923,1732083227.978599,51.000000,0.000000,4288.205078,4301.153809,4324.102539,4312.051270,4300.000000,4308.974121,4316.538574,4324.358887,4324.487305,4299.230957,4446.794922,4462.307617,4341.666504,4388.589844,0.000000,0.000000,7.000000,,,,0.000000,2.000000,2.000000,0.000000,2.000000,2.000000,2.000000,0.000000,2.000000,4.000000,4.000000,4.000000,4.000000,2.000000,4.000000,16.666666,,,,,,,,,,,,,,,,,,,,,,,,,,,,
1732083227.984732,1732083227.986307,52.000000,0.000000,4291.410156,4298.077148,4321.922852,4312.820313,4289.102539,4310.256348,4320.128418,4328.974121,4325.897461,4308.333496,4446.666504,4466.538574,4338.461426,4388.077148,0.000000,0.000000,7.000000,,,,0.000000,2.000000,2.000000,0.000000,2.000000,2.000000,2.000000,0.000000,2.000000,4.000000,4.000000,4.000000,4.000000,2.000000,4.000000,16.666666,,,,,,,,,,,,,,,,,13.000000,0.000000,0.592260,0.370728,-0.619568,0.357666,0.979123,-0.004395,-0.040044,-78.887817,55.528015,26.511137
1732083227.992540,1732083227.994115,53.000000,0.000000,4292.563965,4294.615234,4321.025879,4307.436035,4303.717773,4309.871582,4319.615234,4335.384766,4322.436035,4303.461426,4442.051270,4473.589844,4336.922852,4390.128418,0.000000,0.000000,7.000000,,,,0.000000,2.000000,2.000000,0.000000,2.000000,2.000000,2.000000,0.000000,2.000000,4.000000,4.000000,4.000000,4.000000,2.000000,4.000000,16.666666,,,,,,,,,,,,,,,,,,,,,,,,,,,,
1732083228.000348,1732083228.001724,54.000000,0.000000,4293.974121,4299.102539,4319.743652,4309.615234,4314.358887,4308.333496,4317.563965,4334.230957,4323.589844,4302.051270,4447.948730,4477.051270,4344.743652,4393.717773,0.000000,0.000000,7.000000,,,,0.000000,2.000000,2.000000,0.000000,2.000000,2.000000,2.000000,0.000000,2.000000,4.000000,4.000000,4.000000,4.000000,2.000000,4.000000,16.666666,,,,,,,,,,,,,,,,,,,,,,,,,,,,
1732083228.008156,1732083228.009532,55.000000,0.000000,4299.102539,4304.487305,4318.717773,4317.692383,4295.512695,4310.512695,4321.666504,4338.333496,4333.333496,4315.641113,4457.563965,4478.589844,4351.794922,4396.666504,0.000000,0.000000,7.000000,,,,0.000000,2.000000,2.000000,0.000000,2.000000,2.000000,2.000000,0.000000,2.000000,4.000000,4.000000,4.000000,4.000000,2.000000,4.000000,16.666666,,,,,,,,,,,,,,,,,,,,,,,,,,,,
1732083228.015965,1732083228.017240,56.000000,0.000000,4301.922852,4306.153809,4320.256348,4320.128418,4285.384766,4312.436035,4321.282227,4338.846191,4331.282227,4317.307617,4452.051270,4476.538574,4347.436035,4397.436035,0.000000,0.000000,7.000000,,,,0.000000,2.000000,2.000000,0.000000,2.000000,2.000000,2.000000,0.000000,2.000000,4.000000,4.000000,4.000000,4.000000,2.000000,4.000000,16.666666,,,,,,,,,,,,,,,,,14.000000,0.000000,0.592314,0.370728,-0.619446,0.357788,0.983518,0.000977,-0.030765,-78.782463,55.871025,26.509020
1732083228.023773,1732083228.025048,57.000000,0.000000,4298.333496,4303.077148,4322.563965,4315.128418,4307.692383,4309.358887,4317.563965,4332.563965,4321.538574,4307.436035,4442.179688,4471.282227,4339.871582,4393.077148,0.000000,0.000000,7.000000,,,,0.000000,2.000000,2.000000,0.000000,2.000000,2.000000,2.000000,0.000000,2.000000,4.000000,4.000000,4.000000,4.000000,2.000000,4.000000,16.666666,,,,,,,,,,,,,,,,,,,,,,,,,,,,
1732083228.031581,1732083228.032657,58.000000,0.000000,4292.820313,4298.333496,4322.307617,4314.102539,4313.974121,4308.589844,4319.871582,4338.333496,4325.512695,4308.077148,4446.922852,4473.717773,4343.461426,4390.128418,0.000000,0.000000,7.000000,,,,0.000000,2.000000,2.000000,0.000000,2.000000,2.000000,2.000000,0.000000,2.000000,4.000000,4.000000,4.000000,4.000000,2.000000,4.000000,16.666666,,,,,,,,,,,,,,,,,,,,,,,,,,,,
1732083228.039389,1732083228.040465,59.000000,0.000000,4295.641113,4299.358887,4322.692383,4315.897461,4293.589844,4312.051270,4322.179688,4342.692383,4333.333496,4312.179688,4452.820313,4477.692383,4348.974121,4393.333496,0.000000,0.000000,7.000000,,,,0.000000,2.000000,2.000000,0.000000,2.000000,2.000000,2.000000,0.000000,2.000000,4.000000,4.000000,4.000000,4.000000,2.000000,4.000000,16.666666,,,,,,,,,,,,,,,,,,,,,,,,,,,,
1732083228.047198,1732083228.048173,60.000000,0.000000,4298.461426,4300.897461,4322.436035,4315.000000,4292.051270,4313.205078,4321.922852,4333.461426,4330.384766,4314.358887,4447.563965,4473.461426,4347.179688,4394.230957,0.000000,0.000000,7.000000,,,,0.000000,2.000000,2.000000,0.000000,2.000000,2.000000,2.000000,0.000000,2.000000,4.000000,4.000000,4.000000,4.000000,2.000000,4.000000,16.666666,,,,,,,,,,,,,,,,,15.000000,0.000000,0.592875,0.370544,-0.619019,0.357788,0.986937,-0.016604,-0.040044,-79.063797,55.782196,26.633974
1732083228.055006,1732083228.055981,61.000000,0.000000,4295.512695,4297.563965,4319.358887,4312.692383,4302.436035,4310.000000,4318.846191,4330.256348,4326.538574,4313.846191,4445.000000,4471.025879,4347.436035,4392.692383,0.000000,0.000000,7.000000,,,,0.000000,2.000000,2.000000,0.000000,2.000000,2.000000,2.000000,0.000000,2.000000,4.000000,4.000000,4.000000,4.000000,2.000000,4.000000,16.666666,,,,,,,,,,,,,,,,,,,,,,,,,,,,
1732083228.062814,1732083228.063590,62.000000,0.000000,4291.922852,4294.871582,4318.846191,4313.589844,4303.205078,4307.948730,4318.077148,4335.128418,4324.743652,4302.179688,4446.538574,4472.436035,4345.512695,4389.102539,0.000000,0.000000,7.000000,,,,0.000000,2.000000,2.000000,0.000000,2.000000,2.000000,2.000000,0.000000,2.000000,4.000000,4.000000,4.000000,4.000000,2.000000,4.000000,16.666666,,,,,,,,,,,,,,,,,,,,,,,,,,,,
1732083228.070623,1732083228.071398,63.000000,0.000000,4290.769043,4295.512695,4320.897461,4315.256348,4296.794922,4310.512695,4322.307617,4338.077148,4327.948730,4299.487305,4446.410156,4473.461426,4343.205078,4386.153809,0.000000,0.000000,7.000000,,,,0.000000,2.000000,2.000000,0.000000,2.000000,2.000000,2.000000,0.000000,2.000000,4.000000,4.000000,4.000000,4.000000,2.000000,4.000000,16.666666,,,,,,,,,,,,,,,,,,,,,,,,,,,,
1732083228.078431,1732083228.079106,64.000000,0.000000,4292.179688,4295.128418,4322.307617,4315.769043,4297.948730,4310.256348,4324.487305,4340.897461,4331.794922,4310.256348,4448.461426,4474.487305,4348.333496,4389.230957,0.000000,0.000000,7.000000,,,,0.000000,2.000000,2.000000,0.000000,2.000000,2.000000,2.000000,0.000000,2.000000,4.000000,4.000000,4.000000,4.000000,2.000000,4.000000,16.666666,,,,,,,,,,,,,,,,,16.000000,0.000000,0.592977,0.370483,-0.618958,0.357788,0.986937,-0.007813,-0.038579,-79.086678,55.848579,26.685184
1732083228.086239,1732083228.086915,65.000000,0.000000,4295.641113,4296.025879,4320.512695,4315.384766,4307.948730,4304.102539,4318.846191,4338.846191,4327.051270,4310.256348,4450.384766,4473.205078,4351.538574,4391.794922,1314.000000,0.000000,7.000000,,,,0.000000,2.000000,2.000000,0.000000,2.000000,2.000000,2.000000,0.000000,2.000000,4.000000,4.000000,4.000000,4.000000,2.000000,4.000000,16.666666,,,,,,,,,,,,,,,,,,,,,,,,,,,,
1732083228.094047,1732083228.094523,66.000000,0.000000,4295.128418,4295.384766,4322.051270,4313.205078,4304.871582,4301.410156,4317.948730,4337.948730,4324.230957,4305.256348,4448.589844,4471.666504,4350.128418,4391.153809,1235.000000,0.000000,7.000000,,,,0.000000,2.000000,2.000000,0.000000,2.000000,2.000000,2.000000,0.000000,2.000000,4.000000,4.000000,4.000000,4.000000,2.000000,4.000000,16.666666,,,,,,,,,,,,,,,,,,,,,,,,,,,,
1732083228.101856,1732083228.102331,67.000000,0.000000,4292.179688,4292.436035,4322.436035,4313.333496,4293.205078,4307.820313,4320.256348,4341.282227,4326.666504,4308.589844,4446.794922,4475.000000,4350.512695,4392.948730,1192.000000,0.000000,7.000000,,,,0.000000,2.000000,2.000000,0.000000,2.000000,2.000000,2.000000,0.000000,2.000000,4.000000,4.000000,4.000000,4.000000,2.000000,4.000000,16.666666,,,,,,,,,,,,,,,,,,,,,,,,,,,,
1732083228.109664,1732083228.110239,68.000000,0.000000,4293.461426,4295.512695,4321.282227,4315.769043,4291.922852,4314.230957,4322.307617,4336.025879,4324.102539,4307.692383,4446.794922,4476.153809,4348.589844,4393.461426,1210.000000,0.000000,7.000000,,,,0.000000,2.000000,2.000000,0.000000,2.000000,2.000000,2.000000,0.000000,2.000000,4.000000,4.000000,4.000000,4.000000,2.000000,4.000000,16.666666,,,,,,,,,,,,,,,,,17.000000,0.000000,0.593101,0.370300,-0.619019,0.357666,0.984984,0.001465,-0.033696,-78.913544,55.800682,26.698334
1732083228.117472,1732083228.118048,69.000000,0.000000,4295.000000,4296.153809,4319.743652,4315.897461,4301.410156,4311.538574,4321.153809,4329.743652,4323.333496,4306.666504,4447.948730,4472.563965,4345.128418,4391.538574,1082.000000,0.000000,7.000000,,,,0.000000,2.000000,2.000000,0.000000,2.000000,2.000000,2.000000,0.000000,2.000000,4.000000,4.000000,4.000000,4.000000,2.000000,4.000000,16.666666,,,,,,,,,,,,,,,,,,,,,,,,,,,,
1732083228.125280,1732083228.126056,70.000000,0.000000,4295.641113,4290.000000,4321.538574,4311.794922,4308.717773,4305.128418,4320.256348,4333.717773,4328.077148,4311.025879,4447.948730,4473.461426,4346.666504,4394.230957,20.000000,0.000000,7.000000,,,,0.000000,2.000000,2.000000,0.000000,2.000000,2.000000,2.000000,0.000000,2.000000,4.000000,4.000000,4.000000,4.000000,2.000000,4.000000,16.666666,,,,,,,,,,,,,,,,,,,,,,,,,,,,
1732083228.133089,1732083228.133864,71.000000,0.000000,4296.666504,4288.974121,4322.051270,4308.589844,4302.692383,4305.128418,4319.358887,4337.436035,4330.641113,4309.358887,4444.871582,4476.410156,4346.538574,4392.820313,1180.000000,0.000000,7.000000,,,,0.000000,2.000000,2.000000,0.000000,2.000000,2.000000,2.000000,0.000000,2.000000,4.000000,4.000000,4.000000,4.000000,2.000000,4.000000,16.666666,,,,,,,,,,,,,,,,,,,,,,,,,,,,
1732083228.140897,1732083228.141772,72.000000,0.000000,4294.743652,4291.922852,4318.974121,4310.512695,4291.538574,4310.769043,4320.641113,4335.256348,4328.589844,4307.948730,4443.717773,4473.333496,4342.948730,4383.846191,1354.000000,0.000000,7.000000,,,,0.000000,2.000000,2.000000,0.000000,2.000000,2.000000,2.000000,0.000000,2.000000,4.000000,4.000000,4.000000,4.000000,2.000000,4.000000,16.666666,,,,,,,,,,,,,,,,,18.000000,0.000000,0.593201,0.370300,-0.618958,0.357605,0.987914,-0.002930,-0.039067,-78.898300,55.870220,26.692316
1732083228.148705,1732083228.149580,73.000000,0.000000,4292.051270,4293.974121,4318.333496,4311.666504,4293.717773,4312.307617,4321.538574,4332.692383,4324.743652,4306.794922,4445.512695,4471.666504,4342.820313,4383.717773,1504.000000,0.000000,7.000000,,,,0.000000,2.000000,2.000000,0.000000,2.000000,2.000000,2.000000,0.000000,2.000000,4.000000,4.000000,4.000000,4.000000,2.000000,4.000000,16.666666,,,,,,,,,,,,,,,,,,,,,,,,,,,,
1732083228.156513,1732083228.157588,74.000000,0.000000,4294.743652,4295.769043,4321.025879,4310.512695,4300.512695,4310.641113,4321.922852,4330.128418,4320.256348,4297.307617,4443.717773,4475.128418,4343.077148,4390.641113,1377.000000,0.000000,7.000000,,,,0.000000,2.000000,2.000000,0.000000,2.000000,2.000000,2.000000,0.000000,2.000000,4.000000,4.000000,4.000000,4.000000,2.000000,4.000000,16.666666,,,,,,,,,,,,,,,,,,,,,,,,,,,,
1732083228.164322,1732083228.165396,75.000000,0.000000,4296.794922,4297.179688,4323.077148,4311.153809,4303.589844,4308.974121,4323.333496,4327.307617,4320.512695,4294.743652,4439.358887,4471.025879,4344.230957,4389.487305,1509.000000,0.000000,7.000000,,,,0.000000,2.000000,2.000000,0.000000,2.000000,2.000000,2.000000,0.000000,2.000000,4.000000,4.000000,4.000000,4.000000,2.000000,4.000000,16.666666,,,,,,,,,,,,,,,,,,,,,,,,,,,,
1732083228.172130,1732083228.173105,76.000000,0.000000,4295.641113,4296.666504,4322.051270,4313.846191,4312.051270,4305.769043,4320.512695,4325.000000,4321.666504,4304.487305,4440.769043,4465.128418,4346.666504,4386.153809,1745.000000,0.000000,7.000000,,,,0.000000,2.000000,2.000000,0.000000,2.000000,2.000000,2.000000,0.000000,2.000000,4.000000,4.000000,4.000000,4.000000,2.000000,4.000000,16.666666,,,,,,,,,,,,,,,,,19.000000,0.000000,0.593486,0.369934,-0.619080,0.357300,0.982542,0.001465,-0.033207,-79.049294,55.836544,26.732443
1732083228.179938,1732083228.180913,77.000000,0.000000,4296.666504,4298.717773,4319.871582,4313.717773,4308.077148,4306.794922,4320.000000,4326.794922,4320.000000,4308.846191,4443.589844,4469.102539,4345.769043,4385.512695,1628.000000,0.000000,7.000000,,,,0.000000,2.000000,2.000000,0.000000,2.000000,2.000000,2.000000,0.000000,2.000000,4.000000,4.000000,4.000000,4.000000,2.000000,4.000000,16.666666,,,,,,,,,,,,,,,,,,,,,,,,,,,,
1732083228.187746,1732083228.188521,78.000000,0.000000,4294.615234,4299.615234,4319.102539,4313.205078,4291.025879,4312.692383,4322.307617,4329.230957,4325.128418,4307.820313,4443.461426,4474.102539,4346.538574,4384.230957,1377.000000,0.000000,7.000000,,,,0.000000,2.000000,2.000000,0.000000,2.000000,2.000000,2.000000,0.000000,2.000000,4.000000,4.000000,4.000000,4.000000,2.000000,4.000000,16.666666,1.000000,8.333333,2.000000,2.000000,0.000000,1.000000,2.000000,2.000000,0.000000,2.000000,4.000000,3.000000,4.000000,4.000000,2.000000,4.000000,,,,,,,,,,,,
1732083228.195555,1732083228.196329,79.000000,0.000000,4290.384766,4299.615234,4320.128418,4313.717773,4294.102539,4312.692383,4324.743652,4329.487305,4330.769043,4311.794922,4445.256348,4472.948730,4351.282227,4386.922852,1509.000000,0.000000,7.000000,,,,0.000000,2.000000,2.000000,0.000000,2.000000,2.000000,2.000000,0.000000,2.000000,4.000000,4.000000,4.000000,4.000000,2.000000,4.000000,16.666666,,,,,,,,,,,,,,,,,,,,,,,,,,,,
1732083228.203363,1732083228.204238,80.000000,0.000000,4291.922852,4304.358887,4318.846191,4311.666504,4305.897461,4307.820313,4323.461426,4331.922852,4326.410156,4314.102539,4447.179688,4473.974121,4351.538574,4392.563965,1745.000000,0.000000,7.000000,,,,0.000000,2.000000,2.000000,0.000000,2.000000,2.000000,2.000000,0.000000,2.000000,4.000000,4.000000,4.000000,4.000000,2.000000,4.000000,16.666666,,,,,,,,,,,,,,,,,20.000000,0.000000,0.593426,0.370117,-0.618958,0.357422,0.984495,-0.005372,-0.041997,-79.111595,55.965935,26.619946
1732083228.211171,1732083228.212046,81.000000,0.000000,4295.641113,4303.846191,4319.615234,4308.846191,4300.897461,4308.461426,4324.615234,4335.897461,4325.897461,4312.307617,4446.153809,4477.051270,4349.615234,4392.436035,1628.000000,0.000000,7.000000,,,,0.000000,2.000000,2.000000,0.000000,2.000000,2.000000,2.000000,0.000000,2.000000,4.000000,4.000000,4.000000,4.000000,2.000000,4.000000,16.666666,,,,,,,,,,,,,,,,,,,,,,,,,,,,
1732083228.218979,1732083228.220054,82.000000,0.000000,4293.205078,4298.717773,4321.282227,4309.358887,4305.512695,4312.820313,4323.333496,4336.666504,4332.692383,4312.179688,4447.179688,4476.153809,4351.410156,4391.025879,1377.000000,0.000000,7.000000,,,,0.000000,2.000000,2.000000,0.000000,2.000000,2.000000,2.000000,0.000000,2.000000,4.000000,4.000000,4.000000,4.000000,2.000000,4.000000,16.666666,,,,,,,,,,,,,,,,,,,,,,,,,,,,
1732083228.226788,1732083228.227862,83.000000,0.000000,4290.256348,4298.589844,4323.077148,4310.000000,4319.487305,4311.794922,4320.128418,4334.615234,4328.205078,4307.948730,4446.922852,4475.641113,4348.846191,4391.666504,1509.000000,0.000000,7.000000,,,,0.000000,2.000000,2.000000,0.000000,2.000000,2.000000,2.000000,0.000000,2.000000,4.000000,4.000000,4.000000,4.000000,2.000000,4.000000,16.666666,,,,,,,,,,,,,,,,,,,,,,,,,,,,
1732083228.234596,1732083228.235770,84.000000,0.000000,4292.692383,4302.307617,4323.077148,4311.794922,4310.897461,4308.717773,4320.769043,4326.282227,4319.358887,4307.051270,4442.563965,4475.128418,4345.512695,4390.000000,1745.000000,0.000000,7.000000,,,,0.000000,2.000000,2.000000,0.000000,2.000000,2.000000,2.000000,0.000000,2.000000,4.000000,4.000000,4.000000,4.000000,2.000000,4.000000,16.666666,,,,,,,,,,,,,,,,,21.000000,0.000000,0.593377,0.370239,-0.618896,0.357483,0.979612,-0.006348,-0.032230,-79.375389,55.909073,26.818823
1732083228.242404,1732083228.243578,85.000000,0.000000,4293.205078,4302.307617,4322.563965,4315.384766,4295.384766,4309.871582,4326.025879,4323.717773,4323.974121,4308.333496,4442.692383,4473.717773,4346.794922,4388.974121,1628.000000,0.000000,7.000000,,,,0.000000,2.000000,2.000000,0.000000,2.000000,2.000000,2.000000,0.000000,2.000000,4.000000,4.000000,4.000000,4.000000,2.000000,4.000000,16.666666,,,,,,,,,,,,,,,,,,,,,,,,,,,,
1732083228.250213,1732083228.251586,86.000000,0.000000,4294.871582,4298.461426,4321.410156,4317.179688,4295.641113,4310.897461,4325.897461,4334.615234,4328.846191,4303.589844,4446.922852,4476.153809,4346.282227,4392.820313,1377.000000,0.000000,7.000000,,,,0.000000,2.000000,2.000000,0.000000,2.000000,2.000000,2.000000,0.000000,2.000000,4.000000,4.000000,4.000000,4.000000,2.000000,4.000000,16.666666,,,,,,,,,,,,,,,,,,,,,,,,,,,,
1732083228.258021,1732083228.259394,87.000000,0.000000,4297.948730,4295.897461,4323.205078,4314.871582,4309.743652,4308.846191,4323.205078,4334.743652,4322.179688,4299.615234,4446.666504,4478.333496,4343.717773,4395.512695,1509.000000,0.000000,7.000000,,,,0.000000,2.000000,2.000000,0.000000,2.000000,2.000000,2.000000,0.000000,2.000000,4.000000,4.000000,4.000000,4.000000,2.000000,4.000000,16.666666,,,,,,,,,,,,,,,,,,,,,,,,,,,,
1732083228.265829,1732083228.267303,88.000000,0.000000,4295.128418,4295.512695,4322.948730,4312.820313,4315.384766,4308.846191,4321.282227,4325.128418,4318.589844,4302.692383,4444.230957,4475.384766,4341.794922,4391.410156,1745.000000,0.000000,7.000000,,,,0.000000,2.000000,2.000000,0.000000,2.000000,2.000000,2.000000,0.000000,2.000000,4.000000,4.000000,4.000000,4.000000,2.000000,4.000000,16.666666,,,,,,,,,,,,,,,,,22.000000,0.000000,0.593474,0.370056,-0.619019,0.357300,0.987914,-0.003418,-0.041997,-79.187401,55.784683,26.921579
1732083228.273637,1732083228.275111,89.000000,0.000000,4285.897461,4294.358887,4320.000000,4309.230957,4302.820313,4311.538574,4321.538574,4327.820313,4323.717773,4307.307617,4443.461426,4472.563965,4337.436035,4384.743652,1628.000000,0.000000,7.000000,,,,0.000000,2.000000,2.000000,0.000000,2.000000,2.000000,2.000000,0.000000,2.000000,4.000000,4.000000,4.000000,4.000000,2.000000,4.000000,16.666666,,,,,,,,,,,,,,,,,,,,,,,,,,,,
