title:1two, start timestamp:1732157043.030819, stop timestamp:1732157110.337866, headset type:EPOCX, headset serial:E5020C3A, headset firmware:730, channels:67, sampling rate:eeg_128;mot_32, samples:8621      , version:2.2, 
Timestamp,OriginalTimestamp,EEG.Counter,EEG.Interpolated,EEG.AF3,EEG.F7,EEG.F3,EEG.FC5,EEG.T7,EEG.P7,EEG.O1,EEG.O2,EEG.P8,EEG.T8,EEG.FC6,EEG.F4,EEG.F8,EEG.AF4,EEG.RawCq,EEG.Battery,EEG.BatteryPercent,MarkerIndex,MarkerType,MarkerValueInt,EEG.MarkerHardware,CQ.AF3,CQ.F7,CQ.F3,CQ.FC5,CQ.T7,CQ.P7,CQ.O1,CQ.O2,CQ.P8,CQ.T8,CQ.FC6,CQ.F4,CQ.F8,CQ.AF4,CQ.Overall,EQ.SampleRateQuality,EQ.OVERALL,EQ.AF3,EQ.F7,EQ.F3,EQ.FC5,EQ.T7,EQ.P7,EQ.O1,EQ.O2,EQ.P8,EQ.T8,EQ.FC6,EQ.F4,EQ.F8,EQ.AF4,MOT.CounterMems,MOT.InterpolatedMems,MOT.Q0,MOT.Q1,MOT.Q2,MOT.Q3,MOT.AccX,MOT.AccY,MOT.AccZ,MOT.MagX,MOT.MagY,MOT.MagZ
1732157043.030819,1732157043.032038,101.000000,0.000000,4279.743652,4277.948730,4313.846191,4282.307617,4281.282227,4282.051270,4335.128418,4401.025879,4301.538574,4280.769043,4475.769043,4488.589844,4351.282227,4385.000000,1675.000000,1.000000,26.000000,,,,0.000000,2.000000,2.000000,0.000000,4.000000,2.000000,2.000000,0.000000,0.000000,4.000000,4.000000,4.000000,4.000000,4.000000,4.000000,0.000000,,,,,,,,,,,,,,,,,,,,,,,,,,,,
1732157043.038628,1732157043.039646,102.000000,0.000000,4285.897461,4277.179688,4313.717773,4285.897461,4276.538574,4283.461426,4334.230957,4400.384766,4297.436035,4276.666504,4471.410156,4492.179688,4350.384766,4396.025879,1538.000000,1.000000,26.000000,,,,0.000000,2.000000,2.000000,0.000000,4.000000,2.000000,2.000000,0.000000,0.000000,4.000000,4.000000,4.000000,4.000000,4.000000,4.000000,0.000000,,,,,,,,,,,,,,,,,,,,,,,,,,,,
1732157043.046436,1732157043.047454,103.000000,0.000000,4289.615234,4281.282227,4313.717773,4299.102539,4278.077148,4280.897461,4333.589844,4397.820313,4295.000000,4276.538574,4471.922852,4495.512695,4353.717773,4397.692383,1569.000000,1.000000,26.000000,,,,0.000000,2.000000,2.000000,0.000000,4.000000,2.000000,2.000000,0.000000,0.000000,4.000000,4.000000,4.000000,4.000000,4.000000,4.000000,0.000000,,,,,,,,,,,,,,,,,,,,,,,,,,,,
1732157043.054244,1732157043.055363,104.000000,0.000000,4287.692383,4281.153809,4312.563965,4298.461426,4281.666504,4278.589844,4333.589844,4398.077148,4294.743652,4277.179688,4476.538574,4491.153809,4353.461426,4395.256348,1711.000000,1.000000,26.000000,,,,0.000000,2.000000,2.000000,0.000000,4.000000,2.000000,2.000000,0.000000,0.000000,4.000000,4.000000,4.000000,4.000000,4.000000,4.000000,0.000000,,,,,,,,,,,,,,,,,26.000000,0.000000,0.520702,0.488159,-0.541870,0.443787,0.981565,0.013674,-0.070321,-34.521748,45.868843,31.231665
1732157043.062052,1732157043.063171,105.000000,0.000000,4286.410156,4278.461426,4311.410156,4291.666504,4279.102539,4278.461426,4333.205078,4398.333496,4294.871582,4279.230957,4472.820313,4491.538574,4349.358887,4396.922852,1675.000000,1.000000,26.000000,,,,0.000000,2.000000,2.000000,0.000000,4.000000,2.000000,2.000000,0.000000,0.000000,4.000000,4.000000,4.000000,4.000000,4.000000,4.000000,0.000000,,,,,,,,,,,,,,,,,,,,,,,,,,,,
1732157043.069860,1732157043.071179,106.000000,0.000000,4287.563965,4280.512695,4312.563965,4294.358887,4277.948730,4280.512695,4332.948730,4397.436035,4294.743652,4280.641113,4461.153809,4498.717773,4344.487305,4393.846191,1538.000000,1.000000,26.000000,,,,0.000000,2.000000,2.000000,0.000000,4.000000,2.000000,2.000000,0.000000,0.000000,4.000000,4.000000,4.000000,4.000000,4.000000,4.000000,0.000000,,,,,,,,,,,,,,,,,,,,,,,,,,,,
1732157043.077669,1732157043.078987,107.000000,0.000000,4286.794922,4281.922852,4314.871582,4296.538574,4278.589844,4281.666504,4333.974121,4397.948730,4293.333496,4276.922852,4462.051270,4497.436035,4345.641113,4386.666504,1569.000000,1.000000,26.000000,,,,0.000000,2.000000,2.000000,0.000000,4.000000,2.000000,2.000000,0.000000,0.000000,4.000000,4.000000,4.000000,4.000000,4.000000,4.000000,0.000000,,,,,,,,,,,,,,,,,,,,,,,,,,,,
1732157043.085477,1732157043.086895,108.000000,0.000000,4284.487305,4278.589844,4315.128418,4292.436035,4280.641113,4280.128418,4335.256348,4398.717773,4293.717773,4277.563965,4475.000000,4489.871582,4351.025879,4386.153809,1711.000000,1.000000,26.000000,,,,0.000000,2.000000,2.000000,0.000000,4.000000,2.000000,2.000000,0.000000,0.000000,4.000000,4.000000,4.000000,4.000000,4.000000,4.000000,0.000000,,,,,,,,,,,,,,,,,27.000000,0.000000,0.520702,0.488159,-0.541870,0.443787,0.980100,0.012697,-0.053229,-34.674282,45.870430,31.262648
1732157043.093285,1732157043.094703,109.000000,0.000000,4290.128418,4278.974121,4313.974121,4293.461426,4280.641113,4280.256348,4336.153809,4398.717773,4297.179688,4287.051270,4477.820313,4492.692383,4353.717773,4390.769043,1675.000000,1.000000,26.000000,,,,0.000000,2.000000,2.000000,0.000000,4.000000,2.000000,2.000000,0.000000,0.000000,4.000000,4.000000,4.000000,4.000000,4.000000,4.000000,0.000000,,,,,,,,,,,,,,,,,,,,,,,,,,,,
1732157043.101093,1732157043.102711,110.000000,0.000000,4293.717773,4281.538574,4315.384766,4297.051270,4276.025879,4283.333496,4335.512695,4398.846191,4297.563965,4295.000000,4473.846191,4502.436035,4351.922852,4395.641113,1538.000000,1.000000,26.000000,,,,0.000000,2.000000,2.000000,0.000000,4.000000,2.000000,2.000000,0.000000,0.000000,4.000000,4.000000,4.000000,4.000000,4.000000,4.000000,0.000000,,,,,,,,,,,,,,,,,,,,,,,,,,,,
1732157043.108902,1732157043.110519,111.000000,0.000000,4287.051270,4278.717773,4316.282227,4294.615234,4286.794922,4282.307617,4333.974121,4398.461426,4297.948730,4294.102539,4476.153809,4503.974121,4351.025879,4398.589844,1569.000000,1.000000,26.000000,,,,0.000000,2.000000,2.000000,0.000000,4.000000,2.000000,2.000000,0.000000,0.000000,4.000000,4.000000,4.000000,4.000000,4.000000,4.000000,0.000000,,,,,,,,,,,,,,,,,,,,,,,,,,,,
1732157043.116710,1732157043.118428,112.000000,0.000000,4284.230957,4276.153809,4312.692383,4291.282227,4299.102539,4278.589844,4334.871582,4398.333496,4297.692383,4286.153809,4471.410156,4497.820313,4351.025879,4397.820313,1711.000000,1.000000,26.000000,,,,0.000000,2.000000,2.000000,0.000000,4.000000,2.000000,2.000000,0.000000,0.000000,4.000000,4.000000,4.000000,4.000000,4.000000,4.000000,0.000000,,,,,,,,,,,,,,,,,28.000000,0.000000,0.521311,0.488586,-0.541199,0.443420,0.967403,0.054694,-0.065926,-34.869503,45.948380,31.106079
1732157043.124518,1732157043.126236,113.000000,0.000000,4288.974121,4277.563965,4313.974121,4294.487305,4284.487305,4279.615234,4336.794922,4397.692383,4295.000000,4279.615234,4456.794922,4494.743652,4350.641113,4395.384766,1675.000000,1.000000,26.000000,,,,0.000000,2.000000,2.000000,0.000000,4.000000,2.000000,2.000000,0.000000,0.000000,4.000000,4.000000,4.000000,4.000000,4.000000,4.000000,0.000000,,,,,,,,,,,,,,,,,,,,,,,,,,,,
1732157043.132326,1732157043.134244,114.000000,0.000000,4290.897461,4278.974121,4318.846191,4298.205078,4270.256348,4287.436035,4336.282227,4397.436035,4298.717773,4283.205078,4461.025879,4497.051270,4350.384766,4396.922852,1538.000000,1.000000,26.000000,,,,0.000000,2.000000,2.000000,0.000000,4.000000,2.000000,2.000000,0.000000,0.000000,4.000000,4.000000,4.000000,4.000000,4.000000,4.000000,0.000000,,,,,,,,,,,,,,,,,,,,,,,,,,,,
1732157043.140135,1732157043.142052,115.000000,0.000000,4286.666504,4276.794922,4317.307617,4296.538574,4280.897461,4293.333496,4335.256348,4399.230957,4302.948730,4286.538574,4473.461426,4494.871582,4348.077148,4395.512695,1569.000000,1.000000,26.000000,,,,0.000000,2.000000,2.000000,0.000000,4.000000,2.000000,2.000000,0.000000,0.000000,4.000000,4.000000,4.000000,4.000000,4.000000,4.000000,0.000000,,,,,,,,,,,,,,,,,,,,,,,,,,,,
1732157043.147943,1732157043.149960,116.000000,0.000000,4285.641113,4275.897461,4311.922852,4295.897461,4288.846191,4288.077148,4334.871582,4400.256348,4298.461426,4281.282227,4464.743652,4487.820313,4348.333496,4389.487305,1711.000000,1.000000,26.000000,,,,0.000000,2.000000,2.000000,0.000000,4.000000,2.000000,2.000000,0.000000,0.000000,4.000000,4.000000,4.000000,4.000000,4.000000,4.000000,0.000000,,,,,,,,,,,,,,,,,29.000000,0.000000,0.521938,0.490051,-0.539368,0.443298,0.991820,0.069833,-0.049811,-34.745964,45.781521,31.137590
1732157043.155751,1732157043.157768,117.000000,0.000000,4292.948730,4278.461426,4312.179688,4297.436035,4278.717773,4280.641113,4334.487305,4398.077148,4295.512695,4280.512695,4458.846191,4485.769043,4350.769043,4385.897461,1675.000000,1.000000,26.000000,,,,0.000000,2.000000,2.000000,0.000000,4.000000,2.000000,2.000000,0.000000,0.000000,4.000000,4.000000,4.000000,4.000000,4.000000,4.000000,0.000000,,,,,,,,,,,,,,,,,,,,,,,,,,,,
1732157043.163559,1732157043.165776,118.000000,0.000000,4295.128418,4279.102539,4315.128418,4295.128418,4281.666504,4282.307617,4335.512695,4397.307617,4296.153809,4282.307617,4468.846191,4487.948730,4348.846191,4387.563965,1538.000000,1.000000,26.000000,,,,0.000000,2.000000,2.000000,0.000000,4.000000,2.000000,2.000000,0.000000,0.000000,4.000000,4.000000,4.000000,4.000000,4.000000,4.000000,0.000000,,,,,,,,,,,,,,,,,,,,,,,,,,,,
1732157043.171368,1732157043.173585,119.000000,0.000000,4293.205078,4279.102539,4312.051270,4294.743652,4298.333496,4282.948730,4335.000000,4399.358887,4296.282227,4278.717773,4467.179688,4490.769043,4345.256348,4394.230957,1569.000000,1.000000,26.000000,,,,0.000000,2.000000,2.000000,0.000000,4.000000,2.000000,2.000000,0.000000,0.000000,4.000000,4.000000,4.000000,4.000000,4.000000,4.000000,0.000000,,,,,,,,,,,,,,,,,,,,,,,,,,,,
1732157043.179176,1732157043.181493,120.000000,0.000000,4294.871582,4280.000000,4310.512695,4296.922852,4289.487305,4279.102539,4332.436035,4398.333496,4299.230957,4279.230957,4461.410156,4492.563965,4346.794922,4396.922852,1711.000000,1.000000,26.000000,,,,0.000000,2.000000,2.000000,0.000000,4.000000,2.000000,2.000000,0.000000,0.000000,4.000000,4.000000,4.000000,4.000000,4.000000,4.000000,0.000000,,,,,,,,,,,,,,,,,30.000000,0.000000,0.522256,0.492004,-0.537781,0.442688,0.979123,0.051276,-0.063973,-34.557564,45.701366,31.288115
1732157043.186984,1732157043.189301,121.000000,0.000000,4298.077148,4280.000000,4313.974121,4298.077148,4267.179688,4279.615234,4332.692383,4394.743652,4301.153809,4282.307617,4471.410156,4492.307617,4350.512695,4391.282227,1675.000000,1.000000,26.000000,,,,0.000000,2.000000,2.000000,0.000000,4.000000,2.000000,2.000000,0.000000,0.000000,4.000000,4.000000,4.000000,4.000000,4.000000,4.000000,0.000000,,,,,,,,,,,,,,,,,,,,,,,,,,,,
1732157043.194792,1732157043.196909,122.000000,0.000000,4298.589844,4280.769043,4314.358887,4300.000000,4270.000000,4282.179688,4336.025879,4394.615234,4296.922852,4282.948730,4477.692383,4490.769043,4348.205078,4387.692383,1538.000000,1.000000,26.000000,,,,0.000000,2.000000,2.000000,0.000000,4.000000,2.000000,2.000000,0.000000,0.000000,4.000000,4.000000,4.000000,4.000000,4.000000,4.000000,0.000000,,,,,,,,,,,,,,,,,,,,,,,,,,,,
1732157043.202601,1732157043.204717,123.000000,0.000000,4296.025879,4282.307617,4309.615234,4301.922852,4283.717773,4281.794922,4334.102539,4395.897461,4291.922852,4276.666504,4472.563965,4491.153809,4338.461426,4389.743652,1569.000000,1.000000,26.000000,,,,0.000000,2.000000,2.000000,0.000000,4.000000,2.000000,2.000000,0.000000,0.000000,4.000000,4.000000,4.000000,4.000000,4.000000,4.000000,0.000000,,,,,,,,,,,,,,,,,,,,,,,,,,,,
1732157043.210409,1732157043.212426,124.000000,0.000000,4296.666504,4282.179688,4309.487305,4301.794922,4280.769043,4281.025879,4328.333496,4396.410156,4284.487305,4266.153809,4467.563965,4491.666504,4330.641113,4391.410156,1711.000000,1.000000,26.000000,,,,0.000000,2.000000,2.000000,0.000000,4.000000,2.000000,2.000000,0.000000,0.000000,4.000000,4.000000,4.000000,4.000000,4.000000,4.000000,0.000000,,,,,,,,,,,,,,,,,31.000000,0.000000,0.522150,0.492493,-0.537537,0.442566,0.979123,0.051276,-0.063973,-34.736626,45.663105,31.296707
1732157043.218217,1732157043.220234,125.000000,0.000000,4302.692383,4281.666504,4310.128418,4304.230957,4277.948730,4281.282227,4327.179688,4395.384766,4282.948730,4270.000000,4469.615234,4495.000000,4336.538574,4394.102539,1675.000000,1.000000,26.000000,,,,0.000000,2.000000,2.000000,0.000000,4.000000,2.000000,2.000000,0.000000,0.000000,4.000000,4.000000,4.000000,4.000000,4.000000,4.000000,0.000000,,,,,,,,,,,,,,,,,,,,,,,,,,,,
1732157043.226025,1732157043.227842,126.000000,0.000000,4305.641113,4282.820313,4307.179688,4307.436035,4282.820313,4281.922852,4329.230957,4396.410156,4292.948730,4281.794922,4472.307617,4503.333496,4341.794922,4398.461426,1538.000000,1.000000,26.000000,,,,0.000000,2.000000,2.000000,0.000000,4.000000,2.000000,2.000000,0.000000,0.000000,4.000000,4.000000,4.000000,4.000000,4.000000,4.000000,0.000000,,,,,,,,,,,,,,,,,,,,,,,,,,,,
1732157043.233833,1732157043.235651,127.000000,0.000000,4299.102539,4281.153809,4304.358887,4304.230957,4286.538574,4281.794922,4328.974121,4393.333496,4298.077148,4273.717773,4466.282227,4502.179688,4332.563965,4398.461426,26.000000,1.000000,26.000000,,,,0.000000,2.000000,2.000000,0.000000,4.000000,2.000000,2.000000,0.000000,0.000000,4.000000,4.000000,4.000000,4.000000,4.000000,4.000000,0.000000,,,,,,,,,,,,,,,,,,,,,,,,,,,,
1732157043.241642,1732157043.243359,0.000000,0.000000,4295.384766,4280.000000,4305.128418,4299.358887,4282.948730,4281.025879,4326.794922,4391.025879,4294.487305,4261.922852,4463.461426,4495.641113,4328.077148,4396.794922,0.000000,1.000000,26.000000,,,,0.000000,2.000000,2.000000,0.000000,4.000000,2.000000,2.000000,0.000000,0.000000,4.000000,4.000000,4.000000,4.000000,4.000000,4.000000,0.000000,,,,,,,,,,,,,,,,,0.000000,0.000000,0.521008,0.492004,-0.539490,0.442078,0.982542,0.025882,-0.066903,-34.791668,45.747116,31.471998
1732157043.249450,1732157043.251167,1.000000,0.000000,4295.769043,4281.666504,4303.974121,4301.794922,4278.846191,4281.410156,4325.897461,4394.487305,4294.615234,4271.922852,4473.846191,4494.358887,4334.743652,4395.256348,1594.000000,1.000000,26.000000,,,,0.000000,2.000000,2.000000,0.000000,4.000000,2.000000,2.000000,0.000000,0.000000,4.000000,4.000000,4.000000,4.000000,4.000000,4.000000,0.000000,,,,,,,,,,,,,,,,,,,,,,,,,,,,
1732157043.257258,1732157043.258776,2.000000,0.000000,4291.922852,4280.897461,4301.538574,4300.512695,4293.077148,4281.666504,4326.666504,4394.487305,4297.948730,4282.692383,4477.307617,4493.846191,4336.153809,4393.974121,1391.000000,1.000000,26.000000,,,,0.000000,2.000000,2.000000,0.000000,4.000000,2.000000,2.000000,0.000000,0.000000,4.000000,4.000000,4.000000,4.000000,4.000000,4.000000,0.000000,,,,,,,,,,,,,,,,,,,,,,,,,,,,
1732157043.265067,1732157043.266584,3.000000,0.000000,4292.563965,4279.230957,4301.538574,4297.820313,4297.179688,4280.641113,4327.692383,4390.769043,4298.717773,4281.666504,4470.897461,4497.563965,4333.077148,4395.641113,1409.000000,1.000000,26.000000,,,,0.000000,2.000000,2.000000,0.000000,4.000000,2.000000,2.000000,0.000000,0.000000,4.000000,4.000000,4.000000,4.000000,4.000000,4.000000,0.000000,,,,,,,,,,,,,,,,,,,,,,,,,,,,
1732157043.272875,1732157043.274292,4.000000,0.000000,4296.538574,4278.846191,4302.307617,4302.563965,4270.000000,4280.897461,4328.589844,4391.025879,4296.538574,4281.282227,4472.692383,4505.256348,4334.743652,4397.179688,1402.000000,1.000000,26.000000,,,,0.000000,2.000000,2.000000,0.000000,4.000000,2.000000,2.000000,0.000000,0.000000,4.000000,4.000000,4.000000,4.000000,4.000000,4.000000,0.000000,,,,,,,,,,,,,,,,,1.000000,0.000000,0.520457,0.491394,-0.540527,0.442139,0.950311,0.001465,-0.088390,-34.884583,45.721832,31.353985
1732157043.280683,1732157043.282100,5.000000,0.000000,4295.769043,4278.846191,4302.948730,4303.461426,4256.666504,4280.384766,4327.179688,4394.615234,4297.051270,4283.333496,4476.922852,4505.384766,4335.897461,4397.820313,1237.000000,1.000000,26.000000,,,,0.000000,2.000000,2.000000,0.000000,4.000000,2.000000,2.000000,0.000000,0.000000,4.000000,4.000000,4.000000,4.000000,4.000000,4.000000,0.000000,,,,,,,,,,,,,,,,,,,,,,,,,,,,
1732157043.288491,1732157043.289709,6.000000,0.000000,4296.025879,4279.615234,4303.461426,4299.743652,4272.051270,4278.974121,4327.948730,4395.769043,4303.333496,4283.846191,4469.358887,4503.205078,4335.384766,4399.615234,0.000000,1.000000,26.000000,,,,0.000000,2.000000,2.000000,0.000000,4.000000,2.000000,2.000000,0.000000,0.000000,4.000000,4.000000,4.000000,4.000000,4.000000,4.000000,0.000000,,,,,,,,,,,,,,,,,,,,,,,,,,,,
1732157043.296299,1732157043.297517,7.000000,0.000000,4298.846191,4282.051270,4307.563965,4302.436035,4279.230957,4281.794922,4331.538574,4394.743652,4302.436035,4281.153809,4462.820313,4508.717773,4334.102539,4399.871582,0.000000,1.000000,26.000000,,,,0.000000,2.000000,2.000000,0.000000,4.000000,2.000000,2.000000,0.000000,0.000000,4.000000,4.000000,4.000000,4.000000,4.000000,4.000000,0.000000,,,,,,,,,,,,,,,,,,,,,,,,,,,,
1732157043.304108,1732157043.305225,8.000000,0.000000,4298.205078,4281.922852,4310.769043,4303.077148,4276.538574,4282.820313,4330.128418,4391.666504,4293.461426,4278.205078,4470.256348,4505.384766,4330.128418,4397.051270,1523.000000,1.000000,26.000000,,,,0.000000,2.000000,2.000000,0.000000,4.000000,2.000000,2.000000,0.000000,0.000000,4.000000,4.000000,4.000000,4.000000,4.000000,4.000000,0.000000,,,,,,,,,,,,,,,,,2.000000,0.000000,0.520132,0.490540,-0.541565,0.442200,0.950311,0.001465,-0.088390,-34.699844,45.823017,31.385061
1732157043.311916,1732157043.313033,9.000000,0.000000,4296.666504,4279.871582,4311.538574,4297.436035,4281.153809,4279.102539,4326.794922,4391.666504,4293.717773,4279.230957,4474.487305,4495.384766,4328.589844,4395.384766,1670.000000,1.000000,26.000000,,,,0.000000,2.000000,2.000000,0.000000,4.000000,2.000000,2.000000,0.000000,0.000000,4.000000,4.000000,4.000000,4.000000,4.000000,4.000000,0.000000,,,,,,,,,,,,,,,,,,,,,,,,,,,,
1732157043.319724,1732157043.320642,10.000000,0.000000,4298.077148,4280.897461,4312.051270,4296.282227,4277.307617,4279.871582,4331.410156,4394.871582,4300.000000,4281.410156,4464.871582,4496.153809,4328.461426,4396.153809,1539.000000,1.000000,26.000000,,,,0.000000,2.000000,2.000000,0.000000,4.000000,2.000000,2.000000,0.000000,0.000000,4.000000,4.000000,4.000000,4.000000,4.000000,4.000000,0.000000,,,,,,,,,,,,,,,,,,,,,,,,,,,,
1732157043.327532,1732157043.328450,11.000000,0.000000,4297.307617,4281.410156,4312.563965,4298.333496,4275.512695,4283.205078,4337.051270,4395.769043,4298.589844,4281.153809,4463.205078,4495.641113,4328.077148,4395.256348,1571.000000,1.000000,26.000000,,,,0.000000,2.000000,2.000000,0.000000,4.000000,2.000000,2.000000,0.000000,0.000000,4.000000,4.000000,4.000000,4.000000,4.000000,4.000000,0.000000,,,,,,,,,,,,,,,,,,,,,,,,,,,,
1732157043.335341,1732157043.336358,12.000000,0.000000,4295.000000,4279.615234,4311.922852,4297.051270,4291.282227,4280.256348,4332.436035,4394.871582,4296.025879,4280.384766,4465.512695,4489.871582,4327.948730,4391.922852,1711.000000,1.000000,26.000000,,,,0.000000,2.000000,2.000000,0.000000,4.000000,2.000000,2.000000,0.000000,0.000000,4.000000,4.000000,4.000000,4.000000,4.000000,4.000000,0.000000,,,,,,,,,,,,,,,,,3.000000,0.000000,0.519064,0.486389,-0.545471,0.443237,0.983030,0.008790,-0.067391,-34.878544,46.013309,31.193567
1732157043.343149,1732157043.344166,13.000000,0.000000,4295.641113,4279.358887,4313.077148,4295.512695,4288.077148,4278.589844,4329.615234,4393.974121,4298.974121,4280.000000,4460.128418,4493.333496,4330.769043,4391.282227,1681.000000,1.000000,26.000000,,,,0.000000,2.000000,2.000000,0.000000,4.000000,2.000000,2.000000,0.000000,0.000000,4.000000,4.000000,4.000000,4.000000,4.000000,4.000000,0.000000,,,,,,,,,,,,,,,,,,,,,,,,,,,,
1732157043.350957,1732157043.352174,14.000000,0.000000,4297.051270,4280.384766,4317.051270,4295.000000,4264.102539,4282.692383,4334.102539,4396.410156,4304.230957,4283.589844,4463.974121,4496.025879,4338.333496,4395.897461,1539.000000,1.000000,26.000000,,,,0.000000,2.000000,2.000000,0.000000,4.000000,2.000000,2.000000,0.000000,0.000000,4.000000,4.000000,4.000000,4.000000,4.000000,4.000000,0.000000,1.000000,0.000000,2.000000,2.000000,0.000000,4.000000,2.000000,2.000000,0.000000,0.000000,4.000000,4.000000,4.000000,4.000000,4.000000,4.000000,,,,,,,,,,,,
1732157043.358765,1732157043.359983,15.000000,0.000000,4296.666504,4281.410156,4318.846191,4299.102539,4263.333496,4284.743652,4336.153809,4397.820313,4308.589844,4287.820313,4474.358887,4494.487305,4342.436035,4398.846191,1571.000000,1.000000,26.000000,,,,0.000000,2.000000,2.000000,0.000000,4.000000,2.000000,2.000000,0.000000,0.000000,4.000000,4.000000,4.000000,4.000000,4.000000,4.000000,0.000000,,,,,,,,,,,,,,,,,,,,,,,,,,,,
1732157043.366574,1732157043.367691,16.000000,0.000000,4297.563965,4282.692383,4318.077148,4299.487305,4279.871582,4281.538574,4335.512695,4397.179688,4303.461426,4283.974121,4473.333496,4496.666504,4339.230957,4396.666504,0.000000,1.000000,26.000000,,,,0.000000,2.000000,2.000000,0.000000,4.000000,2.000000,2.000000,0.000000,0.000000,4.000000,4.000000,4.000000,4.000000,4.000000,4.000000,0.000000,,,,,,,,,,,,,,,,,4.000000,0.000000,0.519652,0.484924,-0.546265,0.443176,0.983518,0.016604,-0.062508,-35.023285,45.967449,31.338455
1732157043.374382,1732157043.375499,17.000000,0.000000,4295.769043,4281.025879,4317.948730,4294.871582,4280.128418,4278.717773,4334.743652,4396.282227,4295.128418,4279.230957,4470.000000,4497.692383,4338.589844,4395.769043,0.000000,1.000000,26.000000,,,,0.000000,2.000000,2.000000,0.000000,4.000000,2.000000,2.000000,0.000000,0.000000,4.000000,4.000000,4.000000,4.000000,4.000000,4.000000,0.000000,,,,,,,,,,,,,,,,,,,,,,,,,,,,
1732157043.382190,1732157043.383507,18.000000,0.000000,4295.897461,4280.641113,4318.717773,4295.000000,4273.461426,4279.615234,4334.487305,4397.436035,4297.563965,4283.589844,4472.179688,4500.512695,4344.102539,4402.692383,0.000000,1.000000,26.000000,,,,0.000000,2.000000,2.000000,0.000000,4.000000,2.000000,2.000000,0.000000,0.000000,4.000000,4.000000,4.000000,4.000000,4.000000,4.000000,0.000000,,,,,,,,,,,,,,,,,,,,,,,,,,,,
1732157043.389998,1732157043.391315,19.000000,0.000000,4300.641113,4285.769043,4319.358887,4297.948730,4280.128418,4280.512695,4334.487305,4396.538574,4299.743652,4282.948730,4470.256348,4509.102539,4343.589844,4408.974121,0.000000,1.000000,26.000000,,,,0.000000,2.000000,2.000000,0.000000,4.000000,2.000000,2.000000,0.000000,0.000000,4.000000,4.000000,4.000000,4.000000,4.000000,4.000000,0.000000,,,,,,,,,,,,,,,,,,,,,,,,,,,,
1732157043.397807,1732157043.399223,20.000000,0.000000,4300.128418,4285.641113,4318.205078,4296.538574,4290.000000,4276.666504,4334.615234,4397.179688,4295.641113,4279.230957,4469.487305,4511.025879,4341.025879,4405.512695,0.000000,1.000000,26.000000,,,,0.000000,2.000000,2.000000,0.000000,4.000000,2.000000,2.000000,0.000000,0.000000,4.000000,4.000000,4.000000,4.000000,4.000000,4.000000,0.000000,,,,,,,,,,,,,,,,,5.000000,0.000000,0.519962,0.484497,-0.546448,0.443054,0.995239,0.025882,-0.058601,-35.082195,46.163631,31.305817
1732157043.405615,1732157043.407032,21.000000,0.000000,4295.128418,4280.512695,4315.128418,4295.384766,4281.538574,4275.128418,4334.102539,4398.461426,4299.230957,4287.179688,4477.179688,4506.666504,4346.282227,4400.897461,0.000000,1.000000,26.000000,,,,0.000000,2.000000,2.000000,0.000000,4.000000,2.000000,2.000000,0.000000,0.000000,4.000000,4.000000,4.000000,4.000000,4.000000,4.000000,0.000000,,,,,,,,,,,,,,,,,,,,,,,,,,,,
1732157043.413423,1732157043.414640,22.000000,0.000000,4295.641113,4280.897461,4316.410156,4297.436035,4263.333496,4280.000000,4336.666504,4397.436035,4306.794922,4291.410156,4482.179688,4508.205078,4351.922852,4405.641113,0.000000,1.000000,26.000000,,,,0.000000,2.000000,2.000000,0.000000,4.000000,2.000000,2.000000,0.000000,0.000000,4.000000,4.000000,4.000000,4.000000,4.000000,4.000000,0.000000,,,,,,,,,,,,,,,,,,,,,,,,,,,,
1732157043.421231,1732157043.422448,23.000000,0.000000,4298.589844,4281.794922,4317.948730,4298.077148,4264.487305,4282.563965,4340.384766,4398.077148,4303.589844,4283.589844,4475.897461,4508.846191,4351.410156,4406.538574,0.000000,1.000000,26.000000,,,,0.000000,2.000000,2.000000,0.000000,4.000000,2.000000,2.000000,0.000000,0.000000,4.000000,4.000000,4.000000,4.000000,4.000000,4.000000,0.000000,,,,,,,,,,,,,,,,,,,,,,,,,,,,
1732157043.429040,1732157043.430356,24.000000,0.000000,4296.025879,4279.358887,4316.794922,4295.641113,4271.922852,4279.358887,4340.128418,4398.717773,4303.077148,4279.230957,4470.641113,4503.077148,4345.897461,4397.436035,0.000000,1.000000,26.000000,,,,0.000000,2.000000,2.000000,0.000000,4.000000,2.000000,2.000000,0.000000,0.000000,4.000000,4.000000,4.000000,4.000000,4.000000,4.000000,0.000000,,,,,,,,,,,,,,,,,6.000000,0.000000,0.520765,0.483887,-0.546570,0.442627,0.997680,0.039556,-0.061043,-34.844910,46.195877,31.406044
1732157043.436848,1732157043.438165,25.000000,0.000000,4296.410156,4280.256348,4315.256348,4295.769043,4272.051270,4281.794922,4340.128418,4398.077148,4310.769043,4282.179688,4474.358887,4507.051270,4344.230957,4400.256348,0.000000,1.000000,26.000000,,,,0.000000,2.000000,2.000000,0.000000,4.000000,2.000000,2.000000,0.000000,0.000000,4.000000,4.000000,4.000000,4.000000,4.000000,4.000000,0.000000,,,,,,,,,,,,,,,,,,,,,,,,,,,,
1732157043.444656,1732157043.446173,26.000000,0.000000,4306.666504,4282.948730,4317.051270,4300.769043,4280.256348,4285.769043,4339.358887,4396.666504,4307.179688,4281.666504,4475.897461,4516.410156,4349.230957,4412.692383,0.000000,1.000000,26.000000,,,,0.000000,2.000000,2.000000,0.000000,4.000000,2.000000,2.000000,0.000000,0.000000,4.000000,4.000000,4.000000,4.000000,4.000000,4.000000,0.000000,,,,,,,,,,,,,,,,,,,,,,,,,,,,
1732157043.452464,1732157043.453981,27.000000,0.000000,4312.820313,4281.794922,4318.077148,4303.846191,4279.358887,4282.820313,4335.512695,4395.897461,4294.615234,4278.461426,4474.102539,4515.256348,4352.820313,4411.794922,0.000000,1.000000,26.000000,,,,0.000000,2.000000,2.000000,0.000000,4.000000,2.000000,2.000000,0.000000,0.000000,4.000000,4.000000,4.000000,4.000000,4.000000,4.000000,0.000000,,,,,,,,,,,,,,,,,,,,,,,,,,,,
1732157043.460272,1732157043.461889,28.000000,0.000000,4303.077148,4280.769043,4315.000000,4298.589844,4276.282227,4278.974121,4333.205078,4397.051270,4295.641113,4277.307617,4474.743652,4506.922852,4351.282227,4404.358887,0.000000,1.000000,26.000000,,,,0.000000,2.000000,2.000000,0.000000,4.000000,2.000000,2.000000,0.000000,0.000000,4.000000,4.000000,4.000000,4.000000,4.000000,4.000000,0.000000,,,,,,,,,,,,,,,,,7.000000,0.000000,0.521544,0.483826,-0.546326,0.442078,0.968868,0.039067,-0.055671,-34.779377,46.348660,31.563896
1732157043.468081,1732157043.469697,29.000000,0.000000,4292.692383,4283.077148,4311.538574,4297.179688,4295.000000,4279.230957,4334.615234,4397.820313,4300.897461,4276.410156,4475.384766,4505.897461,4348.974121,4404.487305,0.000000,1.000000,26.000000,,,,0.000000,2.000000,2.000000,0.000000,4.000000,2.000000,2.000000,0.000000,0.000000,4.000000,4.000000,4.000000,4.000000,4.000000,4.000000,0.000000,,,,,,,,,,,,,,,,,,,,,,,,,,,,
1732157043.475889,1732157043.477705,30.000000,0.000000,4297.051270,4283.589844,4313.205078,4302.820313,4291.153809,4281.025879,4335.000000,4397.179688,4302.179688,4279.615234,4472.820313,4509.230957,4349.743652,4406.282227,0.000000,1.000000,26.000000,,,,0.000000,2.000000,2.000000,0.000000,4.000000,2.000000,2.000000,0.000000,0.000000,4.000000,4.000000,4.000000,4.000000,4.000000,4.000000,0.000000,,,,,,,,,,,,,,,,,,,,,,,,,,,,
1732157043.483697,1732157043.485513,31.000000,0.000000,4302.179688,4283.974121,4316.922852,4304.615234,4262.563965,4281.794922,4334.358887,4397.436035,4306.282227,4279.102539,4473.333496,4508.461426,4348.333496,4404.102539,0.000000,1.000000,26.000000,,,,0.000000,2.000000,2.000000,0.000000,4.000000,2.000000,2.000000,0.000000,0.000000,4.000000,4.000000,4.000000,4.000000,4.000000,4.000000,0.000000,,,,,,,,,,,,,,,,,,,,,,,,,,,,
1732157043.491506,1732157043.493421,32.000000,0.000000,4302.179688,4288.461426,4317.820313,4306.666504,4266.666504,4282.563965,4335.128418,4398.077148,4303.461426,4270.384766,4473.589844,4507.692383,4343.974121,4400.641113,0.000000,1.000000,26.000000,,,,0.000000,2.000000,2.000000,0.000000,4.000000,2.000000,2.000000,0.000000,0.000000,4.000000,4.000000,4.000000,4.000000,4.000000,4.000000,0.000000,,,,,,,,,,,,,,,,,8.000000,0.000000,0.521820,0.483765,-0.546265,0.441895,0.963985,0.041997,-0.066903,-34.826298,46.355747,31.580090
1732157043.499314,1732157043.501230,33.000000,0.000000,4304.102539,4292.692383,4318.205078,4311.153809,4286.025879,4281.922852,4334.743652,4397.948730,4293.333496,4262.820313,4466.282227,4510.256348,4339.871582,4397.692383,0.000000,1.000000,26.000000,,,,0.000000,2.000000,2.000000,0.000000,4.000000,2.000000,2.000000,0.000000,0.000000,4.000000,4.000000,4.000000,4.000000,4.000000,4.000000,0.000000,,,,,,,,,,,,,,,,,,,,,,,,,,,,
1732157043.507122,1732157043.509238,34.000000,0.000000,4301.794922,4287.179688,4318.461426,4309.487305,4282.307617,4279.487305,4334.743652,4397.820313,4294.871582,4264.230957,4465.000000,4508.461426,4339.487305,4396.282227,0.000000,1.000000,26.000000,,,,0.000000,2.000000,2.000000,0.000000,4.000000,2.000000,2.000000,0.000000,0.000000,4.000000,4.000000,4.000000,4.000000,4.000000,4.000000,0.000000,,,,,,,,,,,,,,,,,,,,,,,,,,,,
1732157043.514930,1732157043.517046,35.000000,0.000000,4296.153809,4285.897461,4318.846191,4309.230957,4277.436035,4278.589844,4336.153809,4397.692383,4300.512695,4268.846191,4472.563965,4505.384766,4341.410156,4394.871582,0.000000,1.000000,26.000000,,,,0.000000,2.000000,2.000000,0.000000,4.000000,2.000000,2.000000,0.000000,0.000000,4.000000,4.000000,4.000000,4.000000,4.000000,4.000000,0.000000,,,,,,,,,,,,,,,,,,,,,,,,,,,,
1732157043.522739,1732157043.524954,36.000000,0.000000,4296.153809,4294.102539,4318.461426,4311.794922,4283.974121,4280.897461,4336.153809,4396.410156,4297.051270,4267.307617,4473.846191,4505.897461,4341.922852,4395.128418,0.000000,1.000000,26.000000,,,,0.000000,2.000000,2.000000,0.000000,4.000000,2.000000,2.000000,0.000000,0.000000,4.000000,4.000000,4.000000,4.000000,4.000000,4.000000,0.000000,,,,,,,,,,,,,,,,,9.000000,0.000000,0.521935,0.483765,-0.546204,0.441833,0.979612,0.045904,-0.057624,-34.830967,46.253155,31.493206
1732157043.530547,1732157043.532762,37.000000,0.000000,4295.769043,4290.769043,4317.692383,4304.487305,4283.461426,4281.922852,4335.256348,4396.794922,4295.000000,4265.641113,4469.615234,4506.794922,4341.025879,4396.153809,0.000000,1.000000,26.000000,,,,0.000000,2.000000,2.000000,0.000000,4.000000,2.000000,2.000000,0.000000,0.000000,4.000000,4.000000,4.000000,4.000000,4.000000,4.000000,0.000000,,,,,,,,,,,,,,,,,,,,,,,,,,,,
1732157043.538355,1732157043.540770,38.000000,0.000000,4293.333496,4283.461426,4317.436035,4301.410156,4280.641113,4280.641113,4335.769043,4397.179688,4298.077148,4267.820313,4471.666504,4505.641113,4339.615234,4396.922852,0.000000,1.000000,26.000000,,,,0.000000,2.000000,2.000000,0.000000,4.000000,2.000000,2.000000,0.000000,0.000000,4.000000,4.000000,4.000000,4.000000,4.000000,4.000000,0.000000,,,,,,,,,,,,,,,,,,,,,,,,,,,,
1732157043.546163,1732157043.548578,39.000000,0.000000,4296.282227,4290.256348,4318.461426,4311.666504,4281.922852,4279.871582,4335.641113,4396.666504,4298.589844,4270.128418,4474.871582,4507.948730,4345.512695,4399.102539,0.000000,1.000000,26.000000,,,,0.000000,2.000000,2.000000,0.000000,4.000000,2.000000,2.000000,0.000000,0.000000,4.000000,4.000000,4.000000,4.000000,4.000000,4.000000,0.000000,,,,,,,,,,,,,,,,,,,,,,,,,,,,
1732157043.553971,1732157043.556387,40.000000,0.000000,4299.358887,4296.025879,4317.692383,4313.333496,4282.051270,4278.333496,4334.615234,4397.307617,4296.025879,4273.717773,4472.948730,4508.846191,4351.922852,4402.051270,0.000000,1.000000,26.000000,,,,0.000000,2.000000,2.000000,0.000000,4.000000,2.000000,2.000000,0.000000,0.000000,4.000000,4.000000,4.000000,4.000000,4.000000,4.000000,0.000000,,,,,,,,,,,,,,,,,10.000000,0.000000,0.521775,0.483826,-0.546204,0.441956,0.989379,0.032230,-0.060554,-34.943085,46.203388,31.614496
1732157043.561780,1732157043.564195,41.000000,0.000000,4295.641113,4288.717773,4316.410156,4309.102539,4281.282227,4279.615234,4335.384766,4398.333496,4297.179688,4276.282227,4472.692383,4513.461426,4346.025879,4404.487305,0.000000,1.000000,26.000000,,,,0.000000,2.000000,2.000000,0.000000,4.000000,2.000000,2.000000,0.000000,0.000000,4.000000,4.000000,4.000000,4.000000,4.000000,4.000000,0.000000,,,,,,,,,,,,,,,,,,,,,,,,,,,,
1732157043.569588,1732157043.571803,42.000000,0.000000,4294.487305,4281.282227,4316.025879,4310.769043,4281.666504,4283.589844,4336.794922,4398.077148,4302.563965,4277.436035,4473.205078,4522.307617,4342.692383,4411.025879,0.000000,1.000000,26.000000,,,,0.000000,2.000000,2.000000,0.000000,4.000000,2.000000,2.000000,0.000000,0.000000,4.000000,4.000000,4.000000,4.000000,4.000000,4.000000,0.000000,,,,,,,,,,,,,,,,,,,,,,,,,,,,
1732157043.577396,1732157043.579611,43.000000,0.000000,4297.179688,4281.282227,4318.846191,4306.153809,4281.538574,4281.666504,4336.666504,4400.512695,4301.153809,4275.128418,4472.820313,4518.974121,4349.743652,4412.948730,0.000000,1.000000,26.000000,,,,0.000000,2.000000,2.000000,0.000000,4.000000,2.000000,2.000000,0.000000,0.000000,4.000000,4.000000,4.000000,4.000000,4.000000,4.000000,0.000000,,,,,,,,,,,,,,,,,,,,,,,,,,,,
1732157043.585204,1732157043.587320,44.000000,0.000000,4295.256348,4281.410156,4324.358887,4297.948730,4276.794922,4275.897461,4336.410156,4402.563965,4296.025879,4276.538574,4472.563965,4507.820313,4351.922852,4402.948730,0.000000,1.000000,26.000000,,,,0.000000,2.000000,2.000000,0.000000,4.000000,2.000000,2.000000,0.000000,0.000000,4.000000,4.000000,4.000000,4.000000,4.000000,4.000000,0.000000,,,,,,,,,,,,,,,,,11.000000,0.000000,0.520336,0.483643,-0.546997,0.442871,0.973263,0.026370,-0.080576,-34.967232,46.029747,31.579409
1732157043.593013,1732157043.595128,45.000000,0.000000,4293.077148,4281.922852,4325.897461,4298.461426,4271.025879,4279.871582,4335.512695,4401.282227,4295.641113,4278.077148,4475.641113,4506.025879,4352.948730,4401.794922,0.000000,1.000000,26.000000,,,,0.000000,2.000000,2.000000,0.000000,4.000000,2.000000,2.000000,0.000000,0.000000,4.000000,4.000000,4.000000,4.000000,4.000000,4.000000,0.000000,,,,,,,,,,,,,,,,,,,,,,,,,,,,
1732157043.600821,1732157043.602736,46.000000,0.000000,4297.307617,4279.743652,4322.948730,4297.820313,4277.948730,4281.538574,4334.615234,4401.282227,4295.128418,4268.846191,4480.128418,4511.153809,4357.692383,4411.922852,0.000000,1.000000,26.000000,,,,0.000000,2.000000,2.000000,0.000000,4.000000,2.000000,2.000000,0.000000,0.000000,4.000000,4.000000,4.000000,4.000000,4.000000,4.000000,0.000000,,,,,,,,,,,,,,,,,,,,,,,,,,,,
1732157043.608629,1732157043.610544,47.000000,0.000000,4301.282227,4276.666504,4321.025879,4293.205078,4285.256348,4269.743652,4335.128418,4400.769043,4292.563965,4261.410156,4477.948730,4508.974121,4356.794922,4413.205078,0.000000,1.000000,26.000000,,,,0.000000,2.000000,2.000000,0.000000,4.000000,2.000000,2.000000,0.000000,0.000000,4.000000,4.000000,4.000000,4.000000,4.000000,4.000000,0.000000,,,,,,,,,,,,,,,,,,,,,,,,,,,,
1732157043.616437,1732157043.618453,48.000000,0.000000,4306.153809,4281.153809,4322.563965,4294.358887,4267.820313,4266.410156,4336.410156,4397.179688,4294.487305,4269.871582,4475.000000,4502.692383,4358.461426,4412.820313,0.000000,1.000000,26.000000,,,,0.000000,2.000000,2.000000,0.000000,4.000000,2.000000,2.000000,0.000000,0.000000,4.000000,4.000000,4.000000,4.000000,4.000000,4.000000,0.000000,,,,,,,,,,,,,,,,,12.000000,0.000000,0.519913,0.483459,-0.547363,0.443115,0.973263,0.026370,-0.080576,-35.108456,46.055759,31.729321
1732157043.624246,1732157043.626261,49.000000,0.000000,4315.512695,4289.358887,4322.820313,4299.230957,4246.153809,4274.358887,4335.769043,4398.205078,4297.692383,4279.487305,4482.436035,4508.077148,4366.922852,4424.487305,0.000000,1.000000,26.000000,,,,0.000000,2.000000,2.000000,0.000000,4.000000,2.000000,2.000000,0.000000,0.000000,4.000000,4.000000,4.000000,4.000000,4.000000,4.000000,0.000000,,,,,,,,,,,,,,,,,,,,,,,,,,,,
1732157043.632054,1732157043.633869,50.000000,0.000000,4321.922852,4287.820313,4321.153809,4298.974121,4247.692383,4272.436035,4334.871582,4403.205078,4298.205078,4277.179688,4489.487305,4517.820313,4367.820313,4432.948730,0.000000,1.000000,26.000000,,,,0.000000,2.000000,2.000000,0.000000,4.000000,2.000000,2.000000,0.000000,0.000000,4.000000,4.000000,4.000000,4.000000,4.000000,4.000000,0.000000,,,,,,,,,,,,,,,,,,,,,,,,,,,,
1732157043.639862,1732157043.641677,51.000000,0.000000,4322.179688,4279.358887,4319.487305,4296.794922,4253.846191,4264.358887,4334.871582,4400.384766,4297.948730,4277.051270,4488.333496,4513.205078,4367.436035,4430.384766,0.000000,1.000000,26.000000,,,,0.000000,2.000000,2.000000,0.000000,4.000000,2.000000,2.000000,0.000000,0.000000,4.000000,4.000000,4.000000,4.000000,4.000000,4.000000,0.000000,,,,,,,,,,,,,,,,,,,,,,,,,,,,
1732157043.647670,1732157043.649386,52.000000,0.000000,4327.436035,4280.384766,4319.871582,4294.615234,4250.512695,4264.358887,4335.256348,4396.025879,4294.871582,4278.205078,4486.794922,4500.769043,4374.230957,4436.282227,0.000000,1.000000,26.000000,,,,0.000000,2.000000,2.000000,0.000000,4.000000,2.000000,2.000000,0.000000,0.000000,4.000000,4.000000,4.000000,4.000000,4.000000,4.000000,0.000000,,,,,,,,,,,,,,,,,13.000000,0.000000,0.519052,0.483337,-0.547546,0.444031,0.961055,0.011232,-0.063484,-35.174515,45.913498,31.604084
1732157043.655479,1732157043.657194,53.000000,0.000000,4336.153809,4288.589844,4318.205078,4296.282227,4246.538574,4266.410156,4334.743652,4398.077148,4293.589844,4274.871582,4492.179688,4506.025879,4380.256348,4445.641113,0.000000,1.000000,26.000000,,,,0.000000,2.000000,2.000000,0.000000,4.000000,2.000000,2.000000,0.000000,0.000000,4.000000,4.000000,4.000000,4.000000,4.000000,4.000000,0.000000,,,,,,,,,,,,,,,,,,,,,,,,,,,,
1732157043.663287,1732157043.664802,54.000000,0.000000,4339.102539,4290.000000,4316.794922,4299.743652,4248.974121,4265.512695,4334.743652,4398.846191,4296.410156,4278.589844,4501.025879,4518.717773,4388.461426,4446.153809,0.000000,1.000000,26.000000,,,,0.000000,2.000000,2.000000,0.000000,4.000000,2.000000,2.000000,0.000000,0.000000,4.000000,4.000000,4.000000,4.000000,4.000000,4.000000,0.000000,,,,,,,,,,,,,,,,,,,,,,,,,,,,
1732157043.671095,1732157043.672611,55.000000,0.000000,4340.000000,4286.666504,4317.820313,4297.179688,4262.948730,4263.461426,4334.743652,4397.563965,4296.794922,4282.948730,4505.384766,4522.436035,4396.922852,4448.333496,0.000000,1.000000,26.000000,,,,0.000000,2.000000,2.000000,0.000000,4.000000,2.000000,2.000000,0.000000,0.000000,4.000000,4.000000,4.000000,4.000000,4.000000,4.000000,0.000000,,,,,,,,,,,,,,,,,,,,,,,,,,,,
1732157043.678903,1732157043.680519,56.000000,0.000000,4343.589844,4284.102539,4318.077148,4293.333496,4260.769043,4261.153809,4334.743652,4398.974121,4294.102539,4278.333496,4504.358887,4520.769043,4396.666504,4459.487305,0.000000,1.000000,26.000000,,,,0.000000,2.000000,2.000000,0.000000,4.000000,2.000000,2.000000,0.000000,0.000000,4.000000,4.000000,4.000000,4.000000,4.000000,4.000000,0.000000,,,,,,,,,,,,,,,,,14.000000,0.000000,0.517397,0.482056,-0.548157,0.446594,0.987914,-0.002442,-0.066414,-35.078026,45.898266,31.685974
1732157043.686711,1732157043.688327,57.000000,0.000000,4347.179688,4282.692383,4317.307617,4295.128418,4236.153809,4262.563965,4334.743652,4399.615234,4293.077148,4276.794922,4505.000000,4520.769043,4399.102539,4466.922852,0.000000,1.000000,26.000000,,,,0.000000,2.000000,2.000000,0.000000,4.000000,2.000000,2.000000,0.000000,0.000000,4.000000,4.000000,4.000000,4.000000,4.000000,4.000000,0.000000,,,,,,,,,,,,,,,,,,,,,,,,,,,,
1732157043.694520,1732157043.695935,58.000000,0.000000,4344.743652,4280.641113,4319.358887,4297.179688,4233.846191,4264.358887,4334.743652,4398.589844,4293.974121,4281.282227,4506.666504,4528.974121,4403.589844,4463.077148,0.000000,1.000000,26.000000,,,,0.000000,2.000000,2.000000,0.000000,4.000000,2.000000,2.000000,0.000000,0.000000,4.000000,4.000000,4.000000,4.000000,4.000000,4.000000,0.000000,,,,,,,,,,,,,,,,,,,,,,,,,,,,
1732157043.702328,1732157043.703744,59.000000,0.000000,4344.871582,4280.641113,4321.666504,4295.641113,4250.512695,4264.230957,4334.743652,4400.000000,4295.384766,4280.000000,4505.897461,4531.666504,4405.256348,4463.974121,0.000000,1.000000,26.000000,,,,0.000000,2.000000,2.000000,0.000000,4.000000,2.000000,2.000000,0.000000,0.000000,4.000000,4.000000,4.000000,4.000000,4.000000,4.000000,0.000000,,,,,,,,,,,,,,,,,,,,,,,,,,,,
1732157043.710136,1732157043.711452,60.000000,0.000000,4349.487305,4283.205078,4320.641113,4295.256348,4250.384766,4263.717773,4334.871582,4400.384766,4294.871582,4278.077148,4507.563965,4527.948730,4407.436035,4472.051270,0.000000,1.000000,26.000000,,,,0.000000,2.000000,2.000000,0.000000,4.000000,2.000000,2.000000,0.000000,0.000000,4.000000,4.000000,4.000000,4.000000,4.000000,4.000000,0.000000,,,,,,,,,,,,,,,,,15.000000,0.000000,0.516025,0.480530,-0.549194,0.448547,0.979123,0.005860,-0.058113,-34.999866,45.852596,31.788973
1732157043.717945,1732157043.719260,61.000000,0.000000,4348.974121,4283.077148,4319.230957,4296.666504,4240.641113,4260.384766,4335.000000,4397.179688,4295.000000,4282.179688,4511.025879,4529.615234,4407.692383,4477.051270,0.000000,1.000000,26.000000,,,,0.000000,2.000000,2.000000,0.000000,4.000000,2.000000,2.000000,0.000000,0.000000,4.000000,4.000000,4.000000,4.000000,4.000000,4.000000,0.000000,,,,,,,,,,,,,,,,,,,,,,,,,,,,
1732157043.725753,1732157043.726868,62.000000,0.000000,4347.179688,4282.307617,4317.307617,4296.153809,4246.794922,4258.974121,4334.743652,4397.563965,4298.333496,4281.410156,4508.333496,4531.794922,4404.615234,4477.820313,0.000000,1.000000,26.000000,,,,0.000000,2.000000,2.000000,0.000000,4.000000,2.000000,2.000000,0.000000,0.000000,4.000000,4.000000,4.000000,4.000000,4.000000,4.000000,0.000000,,,,,,,,,,,,,,,,,,,,,,,,,,,,
1732157043.733561,1732157043.734677,63.000000,0.000000,4350.128418,4282.307617,4316.410156,4295.000000,4263.717773,4263.846191,4335.128418,4400.897461,4304.487305,4278.717773,4505.384766,4526.153809,4404.871582,4477.820313,0.000000,1.000000,26.000000,,,,0.000000,2.000000,2.000000,0.000000,4.000000,2.000000,2.000000,0.000000,0.000000,4.000000,4.000000,4.000000,4.000000,4.000000,4.000000,0.000000,,,,,,,,,,,,,,,,,,,,,,,,,,,,
1732157043.741369,1732157043.742385,64.000000,0.000000,4348.077148,4281.538574,4318.333496,4293.846191,4258.717773,4266.153809,4336.538574,4399.487305,4306.922852,4284.871582,4506.153809,4526.282227,4404.358887,4476.538574,0.000000,1.000000,26.000000,,,,0.000000,2.000000,2.000000,0.000000,4.000000,2.000000,2.000000,0.000000,0.000000,4.000000,4.000000,4.000000,4.000000,4.000000,4.000000,0.000000,,,,,,,,,,,,,,,,,16.000000,0.000000,0.515689,0.480042,-0.549438,0.449158,0.978635,-0.025882,-0.047369,-34.809891,45.817268,31.670734
1732157043.749178,1732157043.750193,65.000000,0.000000,4342.820313,4281.153809,4319.358887,4294.487305,4234.230957,4263.333496,4335.512695,4396.410156,4302.436035,4286.410156,4504.871582,4534.358887,4399.230957,4476.538574,1588.000000,1.000000,26.000000,,,,0.000000,2.000000,2.000000,0.000000,4.000000,2.000000,2.000000,0.000000,0.000000,4.000000,4.000000,4.000000,4.000000,4.000000,4.000000,0.000000,,,,,,,,,,,,,,,,,,,,,,,,,,,,
1732157043.756986,1732157043.758201,66.000000,0.000000,4344.615234,4281.538574,4315.641113,4290.897461,4236.025879,4261.666504,4333.717773,4398.205078,4300.641113,4281.282227,4503.717773,4530.897461,4400.128418,4478.205078,1386.000000,1.000000,26.000000,,,,0.000000,2.000000,2.000000,0.000000,4.000000,2.000000,2.000000,0.000000,0.000000,4.000000,4.000000,4.000000,4.000000,4.000000,4.000000,0.000000,,,,,,,,,,,,,,,,,,,,,,,,,,,,
1732157043.764794,1732157043.766009,67.000000,0.000000,4338.589844,4277.436035,4314.871582,4284.615234,4248.717773,4261.922852,4335.128418,4400.769043,4302.820313,4281.282227,4505.897461,4522.307617,4401.538574,4474.358887,1409.000000,1.000000,26.000000,,,,0.000000,2.000000,2.000000,0.000000,4.000000,2.000000,2.000000,0.000000,0.000000,4.000000,4.000000,4.000000,4.000000,4.000000,4.000000,0.000000,,,,,,,,,,,,,,,,,,,,,,,,,,,,
1732157043.772602,1732157043.773917,68.000000,0.000000,4325.897461,4273.589844,4316.538574,4281.666504,4242.051270,4261.922852,4336.153809,4398.589844,4297.948730,4281.922852,4499.871582,4523.846191,4396.922852,4471.282227,1397.000000,1.000000,26.000000,,,,0.000000,2.000000,2.000000,0.000000,4.000000,2.000000,2.000000,0.000000,0.000000,4.000000,4.000000,4.000000,4.000000,4.000000,4.000000,0.000000,,,,,,,,,,,,,,,,,17.000000,0.000000,0.513374,0.478210,-0.550598,0.452332,0.989379,-0.031254,-0.059578,-34.944347,45.935322,31.476627
1732157043.780410,1732157043.781726,69.000000,0.000000,4328.333496,4278.461426,4315.641113,4282.307617,4253.717773,4261.025879,4334.102539,4396.538574,4293.333496,4281.922852,4495.641113,4529.487305,4396.666504,4473.461426,1235.000000,1.000000,26.000000,,,,0.000000,2.000000,2.000000,0.000000,4.000000,2.000000,2.000000,0.000000,0.000000,4.000000,4.000000,4.000000,4.000000,4.000000,4.000000,0.000000,,,,,,,,,,,,,,,,,,,,,,,,,,,,
1732157043.788219,1732157043.789734,70.000000,0.000000,4337.563965,4277.948730,4315.641113,4287.563965,4266.922852,4261.922852,4333.333496,4398.846191,4302.179688,4290.512695,4505.128418,4527.051270,4399.487305,4473.205078,0.000000,1.000000,26.000000,,,,0.000000,2.000000,2.000000,0.000000,4.000000,2.000000,2.000000,0.000000,0.000000,4.000000,4.000000,4.000000,4.000000,4.000000,4.000000,0.000000,,,,,,,,,,,,,,,,,,,,,,,,,,,,
1732157043.796027,1732157043.797542,71.000000,0.000000,4335.512695,4269.615234,4318.589844,4292.563965,4243.077148,4263.846191,4334.743652,4401.025879,4306.666504,4297.307617,4510.128418,4522.563965,4400.641113,4473.205078,0.000000,1.000000,26.000000,,,,0.000000,2.000000,2.000000,0.000000,4.000000,2.000000,2.000000,0.000000,0.000000,4.000000,4.000000,4.000000,4.000000,4.000000,4.000000,0.000000,,,,,,,,,,,,,,,,,,,,,,,,,,,,
1732157043.803835,1732157043.805450,72.000000,0.000000,4331.794922,4270.897461,4318.717773,4294.487305,4232.436035,4265.128418,4335.256348,4398.205078,4297.051270,4293.589844,4503.717773,4526.025879,4399.487305,4476.153809,1523.000000,1.000000,26.000000,,,,0.000000,2.000000,2.000000,0.000000,4.000000,2.000000,2.000000,0.000000,0.000000,4.000000,4.000000,4.000000,4.000000,4.000000,4.000000,0.000000,,,,,,,,,,,,,,,,,18.000000,0.000000,0.512045,0.477295,-0.551575,0.453613,0.991332,-0.022464,-0.060554,-35.129921,45.787609,31.526070
1732157043.811643,1732157043.813258,73.000000,0.000000,4336.153809,4279.743652,4317.948730,4291.282227,4251.538574,4265.128418,4334.487305,4396.410156,4294.871582,4293.333496,4503.717773,4526.410156,4399.743652,4475.769043,1654.000000,1.000000,26.000000,,,,0.000000,2.000000,2.000000,0.000000,4.000000,2.000000,2.000000,0.000000,0.000000,4.000000,4.000000,4.000000,4.000000,4.000000,4.000000,0.000000,,,,,,,,,,,,,,,,,,,,,,,,,,,,
1732157043.819452,1732157043.820867,74.000000,0.000000,4334.615234,4277.563965,4319.230957,4282.436035,4253.461426,4265.897461,4333.461426,4399.487305,4297.563965,4295.769043,4503.974121,4520.897461,4400.512695,4472.307617,1526.000000,1.000000,26.000000,,,,0.000000,2.000000,2.000000,0.000000,4.000000,2.000000,2.000000,0.000000,0.000000,4.000000,4.000000,4.000000,4.000000,4.000000,4.000000,0.000000,,,,,,,,,,,,,,,,,,,,,,,,,,,,
1732157043.827260,1732157043.828675,75.000000,0.000000,4328.333496,4267.948730,4319.102539,4278.333496,4242.563965,4269.487305,4333.589844,4399.358887,4294.743652,4294.487305,4496.666504,4518.333496,4399.871582,4470.641113,1563.000000,1.000000,26.000000,,,,0.000000,2.000000,2.000000,0.000000,4.000000,2.000000,2.000000,0.000000,0.000000,4.000000,4.000000,4.000000,4.000000,4.000000,4.000000,0.000000,,,,,,,,,,,,,,,,,,,,,,,,,,,,
1732157043.835068,1732157043.836383,76.000000,0.000000,4328.974121,4269.487305,4317.051270,4283.974121,4253.333496,4270.512695,4334.743652,4395.769043,4294.743652,4294.487305,4492.051270,4522.307617,4397.820313,4471.538574,1690.000000,1.000000,26.000000,,,,0.000000,2.000000,2.000000,0.000000,4.000000,2.000000,2.000000,0.000000,0.000000,4.000000,4.000000,4.000000,4.000000,4.000000,4.000000,0.000000,,,,,,,,,,,,,,,,,19.000000,0.000000,0.511237,0.477112,-0.551880,0.454346,0.975705,-0.039067,-0.078623,-35.400234,45.801300,31.474449
1732157043.842876,1732157043.844191,77.000000,0.000000,4332.051270,4274.871582,4317.179688,4292.051270,4268.461426,4264.487305,4334.487305,4396.538574,4298.717773,4297.179688,4491.794922,4523.974121,4396.538574,4472.563965,1673.000000,1.000000,26.000000,,,,0.000000,2.000000,2.000000,0.000000,4.000000,2.000000,2.000000,0.000000,0.000000,4.000000,4.000000,4.000000,4.000000,4.000000,4.000000,0.000000,,,,,,,,,,,,,,,,,,,,,,,,,,,,
1732157043.850685,1732157043.852199,78.000000,0.000000,4332.436035,4271.922852,4317.820313,4293.589844,4262.051270,4267.436035,4333.589844,4399.230957,4296.538574,4296.153809,4496.153809,4520.384766,4396.538574,4469.871582,1526.000000,1.000000,26.000000,,,,0.000000,2.000000,2.000000,0.000000,4.000000,2.000000,2.000000,0.000000,0.000000,4.000000,4.000000,4.000000,4.000000,4.000000,4.000000,0.000000,1.000000,0.000000,2.000000,2.000000,0.000000,4.000000,2.000000,2.000000,0.000000,0.000000,4.000000,4.000000,4.000000,4.000000,4.000000,4.000000,,,,,,,,,,,,
1732157043.858493,1732157043.860008,79.000000,0.000000,4333.205078,4266.538574,4317.692383,4290.897461,4246.794922,4276.410156,4333.846191,4396.794922,4292.436035,4293.974121,4503.205078,4518.077148,4395.384766,4468.974121,1563.000000,1.000000,26.000000,,,,0.000000,2.000000,2.000000,0.000000,4.000000,2.000000,2.000000,0.000000,0.000000,4.000000,4.000000,4.000000,4.000000,4.000000,4.000000,0.000000,,,,,,,,,,,,,,,,,,,,,,,,,,,,
1732157043.866301,1732157043.867916,80.000000,0.000000,4335.000000,4265.641113,4318.461426,4288.205078,4240.769043,4273.717773,4333.974121,4396.538574,4294.615234,4296.410156,4505.000000,4522.051270,4394.871582,4472.563965,1690.000000,1.000000,26.000000,,,,0.000000,2.000000,2.000000,0.000000,4.000000,2.000000,2.000000,0.000000,0.000000,4.000000,4.000000,4.000000,4.000000,4.000000,4.000000,0.000000,,,,,,,,,,,,,,,,,20.000000,0.000000,0.510370,0.476685,-0.552246,0.455322,0.970822,-0.036137,-0.077158,-35.355858,45.902386,31.447638
1732157043.874109,1732157043.875724,81.000000,0.000000,4335.384766,4272.179688,4317.692383,4291.410156,4254.871582,4271.410156,4333.846191,4399.615234,4297.948730,4298.717773,4503.589844,4523.589844,4396.538574,4474.230957,1673.000000,1.000000,26.000000,,,,0.000000,2.000000,2.000000,0.000000,4.000000,2.000000,2.000000,0.000000,0.000000,4.000000,4.000000,4.000000,4.000000,4.000000,4.000000,0.000000,,,,,,,,,,,,,,,,,,,,,,,,,,,,
1732157043.881918,1732157043.883732,82.000000,0.000000,4334.487305,4278.077148,4315.769043,4295.897461,4269.615234,4273.974121,4333.589844,4399.358887,4297.948730,4298.077148,4502.436035,4520.256348,4399.230957,4472.179688,1526.000000,1.000000,26.000000,,,,0.000000,2.000000,2.000000,0.000000,4.000000,2.000000,2.000000,0.000000,0.000000,4.000000,4.000000,4.000000,4.000000,4.000000,4.000000,0.000000,,,,,,,,,,,,,,,,,,,,,,,,,,,,
1732157043.889726,1732157043.891540,83.000000,0.000000,4332.563965,4279.871582,4314.487305,4294.487305,4258.333496,4267.179688,4333.846191,4397.436035,4296.538574,4298.333496,4504.230957,4520.128418,4396.025879,4470.256348,1563.000000,1.000000,26.000000,,,,0.000000,2.000000,2.000000,0.000000,4.000000,2.000000,2.000000,0.000000,0.000000,4.000000,4.000000,4.000000,4.000000,4.000000,4.000000,0.000000,,,,,,,,,,,,,,,,,,,,,,,,,,,,
1732157043.897534,1732157043.899448,84.000000,0.000000,4334.230957,4279.487305,4315.512695,4294.871582,4245.128418,4262.948730,4333.077148,4397.179688,4296.538574,4297.692383,4504.358887,4522.820313,4386.538574,4465.641113,1690.000000,1.000000,26.000000,,,,0.000000,2.000000,2.000000,0.000000,4.000000,2.000000,2.000000,0.000000,0.000000,4.000000,4.000000,4.000000,4.000000,4.000000,4.000000,0.000000,,,,,,,,,,,,,,,,,21.000000,0.000000,0.509459,0.475952,-0.552307,0.457031,0.987425,-0.039556,-0.059089,-35.523243,45.805931,31.234253
1732157043.905342,1732157043.907256,85.000000,0.000000,4336.282227,4280.897461,4316.794922,4300.769043,4253.461426,4273.333496,4332.307617,4395.256348,4295.641113,4294.743652,4498.461426,4522.179688,4382.563965,4461.922852,1673.000000,1.000000,26.000000,,,,0.000000,2.000000,2.000000,0.000000,4.000000,2.000000,2.000000,0.000000,0.000000,4.000000,4.000000,4.000000,4.000000,4.000000,4.000000,0.000000,,,,,,,,,,,,,,,,,,,,,,,,,,,,
1732157043.913151,1732157043.915264,86.000000,0.000000,4331.282227,4281.794922,4319.743652,4302.563965,4264.743652,4279.871582,4333.333496,4394.871582,4292.179688,4292.692383,4492.563965,4520.000000,4385.897461,4465.641113,1526.000000,1.000000,26.000000,,,,0.000000,2.000000,2.000000,0.000000,4.000000,2.000000,2.000000,0.000000,0.000000,4.000000,4.000000,4.000000,4.000000,4.000000,4.000000,0.000000,,,,,,,,,,,,,,,,,,,,,,,,,,,,
1732157043.920959,1732157043.923073,87.000000,0.000000,4327.436035,4278.974121,4320.128418,4299.615234,4271.922852,4276.410156,4334.615234,4397.820313,4290.256348,4291.538574,4487.948730,4519.487305,4384.230957,4466.153809,1563.000000,1.000000,26.000000,,,,0.000000,2.000000,2.000000,0.000000,4.000000,2.000000,2.000000,0.000000,0.000000,4.000000,4.000000,4.000000,4.000000,4.000000,4.000000,0.000000,,,,,,,,,,,,,,,,,,,,,,,,,,,,
1732157043.928767,1732157043.930981,88.000000,0.000000,4329.743652,4277.307617,4318.974121,4301.153809,4275.128418,4277.948730,4334.871582,4397.948730,4294.743652,4292.692383,4489.230957,4523.077148,4380.000000,4462.307617,1690.000000,1.000000,26.000000,,,,0.000000,2.000000,2.000000,0.000000,4.000000,2.000000,2.000000,0.000000,0.000000,4.000000,4.000000,4.000000,4.000000,4.000000,4.000000,0.000000,,,,,,,,,,,,,,,,,22.000000,0.000000,0.509466,0.474731,-0.552795,0.457703,0.994750,-0.032719,-0.051276,-35.663830,45.652805,31.148079
1732157043.936575,1732157043.938789,89.000000,0.000000,4332.692383,4279.487305,4318.205078,4305.512695,4263.974121,4282.051270,4335.000000,4396.410156,4302.179688,4297.692383,4497.436035,4527.692383,4383.205078,4462.179688,1673.000000,1.000000,26.000000,,,,0.000000,2.000000,2.000000,0.000000,4.000000,2.000000,2.000000,0.000000,0.000000,4.000000,4.000000,4.000000,4.000000,4.000000,4.000000,0.000000,,,,,,,,,,,,,,,,,,,,,,,,,,,,
1732157043.944384,1732157043.946797,90.000000,0.000000,4331.025879,4281.922852,4317.307617,4302.051270,4255.256348,4280.641113,4334.102539,4398.461426,4303.333496,4299.230957,4498.717773,4525.128418,4385.641113,4462.563965,1526.000000,1.000000,26.000000,,,,0.000000,2.000000,2.000000,0.000000,4.000000,2.000000,2.000000,0.000000,0.000000,4.000000,4.000000,4.000000,4.000000,4.000000,4.000000,0.000000,,,,,,,,,,,,,,,,,,,,,,,,,,,,
1732157043.952192,1732157043.954605,91.000000,0.000000,4326.153809,4278.589844,4317.051270,4294.358887,4261.538574,4276.794922,4331.282227,4399.230957,4303.974121,4296.922852,4491.538574,4520.256348,4382.820313,4459.230957,1563.000000,1.000000,26.000000,,,,0.000000,2.000000,2.000000,0.000000,4.000000,2.000000,2.000000,0.000000,0.000000,4.000000,4.000000,4.000000,4.000000,4.000000,4.000000,0.000000,,,,,,,,,,,,,,,,,,,,,,,,,,,,
1732157043.960000,1732157043.962313,92.000000,0.000000,4323.717773,4275.769043,4318.589844,4292.948730,4263.333496,4277.820313,4331.794922,4396.410156,4303.461426,4296.922852,4488.974121,4521.666504,4381.666504,4456.922852,1690.000000,1.000000,26.000000,,,,0.000000,2.000000,2.000000,0.000000,4.000000,2.000000,2.000000,0.000000,0.000000,4.000000,4.000000,4.000000,4.000000,4.000000,4.000000,0.000000,,,,,,,,,,,,,,,,,23.000000,0.000000,0.509601,0.474243,-0.553040,0.457764,0.973263,-0.020999,-0.069344,-35.601032,45.750439,31.404943
1732157043.967808,1732157043.970122,93.000000,0.000000,4324.615234,4279.102539,4319.615234,4297.563965,4263.333496,4280.128418,4334.871582,4396.025879,4300.384766,4297.948730,4488.846191,4525.384766,4379.230957,4456.410156,1673.000000,1.000000,26.000000,,,,0.000000,2.000000,2.000000,0.000000,4.000000,2.000000,2.000000,0.000000,0.000000,4.000000,4.000000,4.000000,4.000000,4.000000,4.000000,0.000000,,,,,,,,,,,,,,,,,,,,,,,,,,,,
1732157043.975617,1732157043.977730,94.000000,0.000000,4327.820313,4282.051270,4318.974121,4303.333496,4260.256348,4279.487305,4334.615234,4398.974121,4302.051270,4297.563965,4491.666504,4530.128418,4381.538574,4460.769043,1526.000000,1.000000,26.000000,,,,0.000000,2.000000,2.000000,0.000000,4.000000,2.000000,2.000000,0.000000,0.000000,4.000000,4.000000,4.000000,4.000000,4.000000,4.000000,0.000000,,,,,,,,,,,,,,,,,,,,,,,,,,,,
1732157043.983425,1732157043.985538,95.000000,0.000000,4328.846191,4279.487305,4318.461426,4302.051270,4262.820313,4279.102539,4333.974121,4400.769043,4303.974121,4297.563965,4499.102539,4535.384766,4389.615234,4467.692383,1563.000000,1.000000,26.000000,,,,0.000000,2.000000,2.000000,0.000000,4.000000,2.000000,2.000000,0.000000,0.000000,4.000000,4.000000,4.000000,4.000000,4.000000,4.000000,0.000000,,,,,,,,,,,,,,,,,,,,,,,,,,,,
1732157043.991233,1732157043.993247,96.000000,0.000000,4326.666504,4275.000000,4316.666504,4296.025879,4275.000000,4278.846191,4336.025879,4400.256348,4304.102539,4296.666504,4494.102539,4536.922852,4386.153809,4464.615234,1690.000000,1.000000,26.000000,,,,0.000000,2.000000,2.000000,0.000000,4.000000,2.000000,2.000000,0.000000,0.000000,4.000000,4.000000,4.000000,4.000000,4.000000,4.000000,0.000000,,,,,,,,,,,,,,,,,24.000000,0.000000,0.509864,0.472961,-0.553894,0.457764,0.990355,-0.029300,-0.064461,-35.585171,45.844521,31.583004
1732157043.999041,1732157044.001055,97.000000,0.000000,4326.538574,4277.563965,4317.563965,4295.128418,4263.974121,4278.205078,4333.717773,4396.410156,4305.256348,4297.563965,4488.974121,4536.538574,4380.641113,4459.743652,1673.000000,1.000000,26.000000,,,,0.000000,2.000000,2.000000,0.000000,4.000000,2.000000,2.000000,0.000000,0.000000,4.000000,4.000000,4.000000,4.000000,4.000000,4.000000,0.000000,,,,,,,,,,,,,,,,,,,,,,,,,,,,
1732157044.006849,1732157044.009063,98.000000,0.000000,4330.897461,4278.205078,4320.128418,4297.307617,4241.794922,4279.102539,4329.615234,4391.538574,4303.589844,4300.128418,4502.563965,4537.820313,4389.615234,4462.563965,1526.000000,1.000000,26.000000,,,,0.000000,2.000000,2.000000,0.000000,4.000000,2.000000,2.000000,0.000000,0.000000,4.000000,4.000000,4.000000,4.000000,4.000000,4.000000,0.000000,,,,,,,,,,,,,,,,,,,,,,,,,,,,
1732157044.014658,1732157044.016871,99.000000,0.000000,4329.102539,4269.871582,4318.846191,4295.769043,4245.000000,4278.589844,4332.051270,4392.563965,4297.948730,4299.230957,4508.974121,4536.153809,4392.563965,4461.410156,1563.000000,1.000000,26.000000,,,,0.000000,2.000000,2.000000,0.000000,4.000000,2.000000,2.000000,0.000000,0.000000,4.000000,4.000000,4.000000,4.000000,4.000000,4.000000,0.000000,,,,,,,,,,,,,,,,,,,,,,,,,,,,
1732157044.022466,1732157044.024579,100.000000,0.000000,4323.077148,4270.128418,4316.025879,4293.589844,4255.128418,4277.436035,4335.897461,4397.692383,4295.897461,4296.794922,4497.563965,4536.666504,4382.051270,4458.717773,1690.000000,1.000000,26.000000,,,,0.000000,2.000000,2.000000,0.000000,4.000000,2.000000,2.000000,0.000000,0.000000,4.000000,4.000000,4.000000,4.000000,4.000000,4.000000,0.000000,,,,,,,,,,,,,,,,,25.000000,0.000000,0.509972,0.472229,-0.554016,0.458252,0.992797,-0.017580,-0.059578,-35.598988,45.705730,31.690567
1732157044.030274,1732157044.032388,101.000000,0.000000,4325.256348,4280.512695,4316.153809,4294.871582,4253.461426,4278.717773,4335.384766,4397.820313,4296.794922,4295.769043,4491.410156,4538.077148,4379.615234,4463.077148,1673.000000,1.000000,26.000000,,,,0.000000,2.000000,2.000000,0.000000,4.000000,2.000000,2.000000,0.000000,0.000000,4.000000,4.000000,4.000000,4.000000,4.000000,4.000000,0.000000,,,,,,,,,,,,,,,,,,,,,,,,,,,,
1732157044.038082,1732157044.039996,102.000000,0.000000,4328.205078,4280.897461,4317.692383,4296.153809,4259.102539,4279.102539,4334.743652,4396.282227,4300.000000,4295.512695,4494.358887,4531.153809,4383.205078,4456.794922,1526.000000,1.000000,26.000000,,,,0.000000,2.000000,2.000000,0.000000,4.000000,2.000000,2.000000,0.000000,0.000000,4.000000,4.000000,4.000000,4.000000,4.000000,4.000000,0.000000,,,,,,,,,,,,,,,,,,,,,,,,,,,,
1732157044.045891,1732157044.047804,103.000000,0.000000,4324.102539,4275.641113,4320.128418,4295.000000,4266.410156,4281.538574,4334.615234,4398.461426,4302.307617,4295.384766,4491.922852,4529.358887,4380.512695,4446.153809,1563.000000,1.000000,26.000000,,,,0.000000,2.000000,2.000000,0.000000,4.000000,2.000000,2.000000,0.000000,0.000000,4.000000,4.000000,4.000000,4.000000,4.000000,4.000000,0.000000,,,,,,,,,,,,,,,,,,,,,,,,,,,,
1732157044.053699,1732157044.055512,104.000000,0.000000,4318.589844,4278.333496,4321.410156,4297.051270,4261.282227,4282.692383,4333.974121,4398.205078,4298.333496,4295.128418,4489.358887,4532.563965,4379.358887,4453.461426,1690.000000,1.000000,26.000000,,,,0.000000,2.000000,2.000000,0.000000,4.000000,2.000000,2.000000,0.000000,0.000000,4.000000,4.000000,4.000000,4.000000,4.000000,4.000000,0.000000,,,,,,,,,,,,,,,,,26.000000,0.000000,0.509977,0.472046,-0.554016,0.458435,0.992797,-0.017580,-0.059578,-35.558514,45.599976,31.606026
1732157044.061507,1732157044.063321,105.000000,0.000000,4318.077148,4281.153809,4321.282227,4302.179688,4267.307617,4273.333496,4334.615234,4396.922852,4300.256348,4295.128418,4491.922852,4531.025879,4379.102539,4459.358887,1673.000000,1.000000,26.000000,,,,0.000000,2.000000,2.000000,0.000000,4.000000,2.000000,2.000000,0.000000,0.000000,4.000000,4.000000,4.000000,4.000000,4.000000,4.000000,0.000000,,,,,,,,,,,,,,,,,,,,,,,,,,,,
1732157044.069315,1732157044.070929,106.000000,0.000000,4322.307617,4279.102539,4320.897461,4301.666504,4281.794922,4268.077148,4334.871582,4398.589844,4305.512695,4296.153809,4490.641113,4528.589844,4377.179688,4451.153809,1526.000000,1.000000,26.000000,,,,0.000000,2.000000,2.000000,0.000000,4.000000,2.000000,2.000000,0.000000,0.000000,4.000000,4.000000,4.000000,4.000000,4.000000,4.000000,0.000000,,,,,,,,,,,,,,,,,,,,,,,,,,,,
1732157044.077124,1732157044.078737,107.000000,0.000000,4325.000000,4279.358887,4319.743652,4300.000000,4276.025879,4281.794922,4333.077148,4398.077148,4300.512695,4295.000000,4487.563965,4532.948730,4380.384766,4447.692383,1563.000000,1.000000,26.000000,,,,0.000000,2.000000,2.000000,0.000000,4.000000,2.000000,2.000000,0.000000,0.000000,4.000000,4.000000,4.000000,4.000000,4.000000,4.000000,0.000000,,,,,,,,,,,,,,,,,,,,,,,,,,,,
1732157044.084932,1732157044.086446,108.000000,0.000000,4321.666504,4281.025879,4317.948730,4307.307617,4260.384766,4291.025879,4332.820313,4398.077148,4294.871582,4293.589844,4491.538574,4533.846191,4380.897461,4449.102539,1690.000000,1.000000,26.000000,,,,0.000000,2.000000,2.000000,0.000000,4.000000,2.000000,2.000000,0.000000,0.000000,4.000000,4.000000,4.000000,4.000000,4.000000,4.000000,0.000000,,,,,,,,,,,,,,,,,27.000000,0.000000,0.509970,0.471863,-0.554077,0.458557,0.991332,-0.030277,-0.067391,-35.670731,45.602646,31.740881
1732157044.092740,1732157044.094254,109.000000,0.000000,4314.743652,4280.897461,4318.589844,4312.179688,4261.282227,4283.974121,4333.333496,4399.615234,4294.743652,4294.358887,4494.358887,4527.436035,4372.436035,4445.000000,1673.000000,1.000000,26.000000,,,,0.000000,2.000000,2.000000,0.000000,4.000000,2.000000,2.000000,0.000000,0.000000,4.000000,4.000000,4.000000,4.000000,4.000000,4.000000,0.000000,,,,,,,,,,,,,,,,,,,,,,,,,,,,
1732157044.100548,1732157044.102262,110.000000,0.000000,4314.871582,4283.974121,4320.256348,4309.358887,4269.743652,4280.128418,4332.820313,4398.589844,4297.051270,4295.897461,4491.922852,4524.102539,4373.333496,4443.461426,1526.000000,1.000000,26.000000,,,,0.000000,2.000000,2.000000,0.000000,4.000000,2.000000,2.000000,0.000000,0.000000,4.000000,4.000000,4.000000,4.000000,4.000000,4.000000,0.000000,,,,,,,,,,,,,,,,,,,,,,,,,,,,
1732157044.108357,1732157044.110070,111.000000,0.000000,4318.846191,4285.769043,4319.102539,4308.589844,4274.358887,4283.333496,4332.820313,4396.538574,4303.589844,4299.615234,4492.051270,4527.820313,4384.102539,4449.102539,1563.000000,1.000000,26.000000,,,,0.000000,2.000000,2.000000,0.000000,4.000000,2.000000,2.000000,0.000000,0.000000,4.000000,4.000000,4.000000,4.000000,4.000000,4.000000,0.000000,,,,,,,,,,,,,,,,,,,,,,,,,,,,
1732157044.116165,1732157044.117978,112.000000,0.000000,4318.717773,4283.846191,4318.333496,4312.692383,4280.897461,4283.205078,4334.358887,4398.077148,4302.948730,4299.615234,4495.128418,4535.384766,4382.179688,4454.615234,1690.000000,1.000000,26.000000,,,,0.000000,2.000000,2.000000,0.000000,4.000000,2.000000,2.000000,0.000000,0.000000,4.000000,4.000000,4.000000,4.000000,4.000000,4.000000,0.000000,,,,,,,,,,,,,,,,,28.000000,0.000000,0.510032,0.471497,-0.554382,0.458496,0.980588,-0.030765,-0.067879,-35.494957,45.598145,31.743446
1732157044.123973,1732157044.125786,113.000000,0.000000,4321.538574,4287.436035,4318.333496,4316.025879,4278.589844,4282.051270,4334.615234,4399.487305,4296.794922,4295.128418,4495.641113,4540.641113,4370.000000,4453.461426,1673.000000,1.000000,26.000000,,,,0.000000,2.000000,2.000000,0.000000,4.000000,2.000000,2.000000,0.000000,0.000000,4.000000,4.000000,4.000000,4.000000,4.000000,4.000000,0.000000,,,,,,,,,,,,,,,,,,,,,,,,,,,,
1732157044.131781,1732157044.133395,114.000000,0.000000,4324.743652,4290.000000,4318.461426,4314.615234,4275.256348,4281.025879,4333.461426,4397.948730,4297.436035,4295.512695,4490.769043,4536.153809,4364.743652,4449.358887,1526.000000,1.000000,26.000000,,,,0.000000,2.000000,2.000000,0.000000,4.000000,2.000000,2.000000,0.000000,0.000000,4.000000,4.000000,4.000000,4.000000,4.000000,4.000000,0.000000,,,,,,,,,,,,,,,,,,,,,,,,,,,,
1732157044.139590,1732157044.141203,115.000000,0.000000,4319.230957,4283.461426,4317.820313,4310.769043,4293.846191,4280.641113,4334.871582,4397.179688,4298.589844,4295.256348,4486.794922,4526.538574,4366.153809,4447.820313,1563.000000,1.000000,26.000000,,,,0.000000,2.000000,2.000000,0.000000,4.000000,2.000000,2.000000,0.000000,0.000000,4.000000,4.000000,4.000000,4.000000,4.000000,4.000000,0.000000,,,,,,,,,,,,,,,,,,,,,,,,,,,,
1732157044.147398,1732157044.148911,116.000000,0.000000,4318.077148,4280.256348,4318.077148,4310.384766,4298.461426,4282.436035,4337.820313,4397.948730,4296.538574,4288.974121,4491.410156,4526.538574,4363.589844,4447.051270,1690.000000,1.000000,26.000000,,,,0.000000,2.000000,2.000000,0.000000,4.000000,2.000000,2.000000,0.000000,0.000000,4.000000,4.000000,4.000000,4.000000,4.000000,4.000000,0.000000,,,,,,,,,,,,,,,,,29.000000,0.000000,0.509966,0.471497,-0.554443,0.458496,0.980588,-0.030765,-0.067879,-35.337582,45.496162,31.677193
1732157044.155206,1732157044.156719,117.000000,0.000000,4323.589844,4283.717773,4318.205078,4311.282227,4271.410156,4282.820313,4334.102539,4397.051270,4295.769043,4288.717773,4493.461426,4531.538574,4358.589844,4444.358887,1673.000000,1.000000,26.000000,,,,0.000000,2.000000,2.000000,0.000000,4.000000,2.000000,2.000000,0.000000,0.000000,4.000000,4.000000,4.000000,4.000000,4.000000,4.000000,0.000000,,,,,,,,,,,,,,,,,,,,,,,,,,,,
1732157044.163014,1732157044.164328,118.000000,0.000000,4317.692383,4281.282227,4319.743652,4306.666504,4257.307617,4280.769043,4330.000000,4396.282227,4294.615234,4293.333496,4488.589844,4529.102539,4359.871582,4443.205078,1526.000000,1.000000,26.000000,,,,0.000000,2.000000,2.000000,0.000000,4.000000,2.000000,2.000000,0.000000,0.000000,4.000000,4.000000,4.000000,4.000000,4.000000,4.000000,0.000000,,,,,,,,,,,,,,,,,,,,,,,,,,,,
1732157044.170823,1732157044.172136,119.000000,0.000000,4310.128418,4278.846191,4318.589844,4305.769043,4273.205078,4280.384766,4332.948730,4395.512695,4293.717773,4293.974121,4491.410156,4526.025879,4367.307617,4443.974121,1563.000000,1.000000,26.000000,,,,0.000000,2.000000,2.000000,0.000000,4.000000,2.000000,2.000000,0.000000,0.000000,4.000000,4.000000,4.000000,4.000000,4.000000,4.000000,0.000000,,,,,,,,,,,,,,,,,,,,,,,,,,,,
1732157044.178631,1732157044.180044,120.000000,0.000000,4313.077148,4286.666504,4316.794922,4309.487305,4283.077148,4280.000000,4334.743652,4395.128418,4295.000000,4295.384766,4494.871582,4526.282227,4366.922852,4444.230957,1690.000000,1.000000,26.000000,,,,0.000000,2.000000,2.000000,0.000000,4.000000,2.000000,2.000000,0.000000,0.000000,4.000000,4.000000,4.000000,4.000000,4.000000,4.000000,0.000000,,,,,,,,,,,,,,,,,30.000000,0.000000,0.510178,0.471313,-0.554504,0.458374,0.985472,-0.022952,-0.050299,-35.685108,45.370224,31.675192
1732157044.186439,1732157044.187852,121.000000,0.000000,4313.333496,4292.692383,4317.948730,4309.743652,4278.974121,4281.538574,4332.692383,4393.589844,4295.384766,4296.282227,4488.205078,4525.256348,4358.974121,4444.615234,1673.000000,1.000000,26.000000,,,,0.000000,2.000000,2.000000,0.000000,4.000000,2.000000,2.000000,0.000000,0.000000,4.000000,4.000000,4.000000,4.000000,4.000000,4.000000,0.000000,,,,,,,,,,,,,,,,,,,,,,,,,,,,
1732157044.194247,1732157044.195860,122.000000,0.000000,4310.128418,4287.307617,4320.000000,4309.102539,4282.563965,4282.948730,4334.102539,4393.717773,4296.922852,4292.692383,4486.410156,4522.436035,4354.230957,4443.333496,1526.000000,1.000000,26.000000,,,,0.000000,2.000000,2.000000,0.000000,4.000000,2.000000,2.000000,0.000000,0.000000,4.000000,4.000000,4.000000,4.000000,4.000000,4.000000,0.000000,,,,,,,,,,,,,,,,,,,,,,,,,,,,
1732157044.202056,1732157044.203669,123.000000,0.000000,4311.922852,4283.077148,4318.974121,4310.128418,4289.871582,4285.000000,4336.794922,4397.820313,4296.922852,4291.282227,4491.538574,4520.000000,4355.256348,4444.102539,1563.000000,1.000000,26.000000,,,,0.000000,2.000000,2.000000,0.000000,4.000000,2.000000,2.000000,0.000000,0.000000,4.000000,4.000000,4.000000,4.000000,4.000000,4.000000,0.000000,,,,,,,,,,,,,,,,,,,,,,,,,,,,
1732157044.209864,1732157044.211577,124.000000,0.000000,4312.820313,4287.563965,4318.974121,4311.794922,4292.692383,4286.666504,4336.666504,4401.538574,4297.051270,4295.256348,4491.025879,4523.717773,4357.563965,4445.769043,1690.000000,1.000000,26.000000,,,,0.000000,2.000000,2.000000,0.000000,4.000000,2.000000,2.000000,0.000000,0.000000,4.000000,4.000000,4.000000,4.000000,4.000000,4.000000,0.000000,,,,,,,,,,,,,,,,,31.000000,0.000000,0.510203,0.471252,-0.554382,0.458557,0.976193,-0.032719,-0.052252,-35.513271,45.253216,31.568573
1732157044.217672,1732157044.219385,125.000000,0.000000,4311.794922,4285.384766,4320.769043,4312.051270,4291.282227,4285.897461,4336.025879,4400.256348,4309.743652,4296.922852,4488.589844,4532.436035,4354.487305,4439.358887,1673.000000,1.000000,26.000000,,,,0.000000,2.000000,2.000000,0.000000,4.000000,2.000000,2.000000,0.000000,0.000000,4.000000,4.000000,4.000000,4.000000,4.000000,4.000000,0.000000,,,,,,,,,,,,,,,,,,,,,,,,,,,,
1732157044.225480,1732157044.226993,126.000000,0.000000,4316.794922,4278.589844,4319.487305,4311.410156,4292.436035,4283.077148,4334.487305,4398.461426,4311.922852,4296.025879,4491.153809,4532.692383,4349.743652,4431.538574,1526.000000,1.000000,26.000000,,,,0.000000,2.000000,2.000000,0.000000,4.000000,2.000000,2.000000,0.000000,0.000000,4.000000,4.000000,4.000000,4.000000,4.000000,4.000000,0.000000,,,,,,,,,,,,,,,,,,,,,,,,,,,,
1732157044.233288,1732157044.234802,127.000000,0.000000,4320.128418,4282.179688,4319.102539,4313.846191,4297.179688,4287.563965,4334.743652,4400.384766,4300.641113,4295.897461,4492.051270,4531.282227,4349.615234,4434.615234,26.000000,1.000000,26.000000,,,,0.000000,2.000000,2.000000,0.000000,4.000000,2.000000,2.000000,0.000000,0.000000,4.000000,4.000000,4.000000,4.000000,4.000000,4.000000,0.000000,,,,,,,,,,,,,,,,,,,,,,,,,,,,
1732157044.241097,1732157044.242510,0.000000,0.000000,4314.743652,4286.282227,4320.384766,4317.051270,4293.333496,4293.974121,4337.179688,4400.769043,4302.563965,4295.256348,4487.307617,4532.051270,4348.461426,4442.436035,0.000000,1.000000,26.000000,,,,0.000000,2.000000,2.000000,0.000000,4.000000,2.000000,2.000000,0.000000,0.000000,4.000000,4.000000,4.000000,4.000000,4.000000,4.000000,0.000000,,,,,,,,,,,,,,,,,0.000000,0.000000,0.510368,0.470764,-0.554443,0.458801,0.983518,-0.037602,-0.052252,-35.595749,45.106770,31.520544
1732157044.248905,1732157044.250318,1.000000,0.000000,4308.717773,4283.205078,4317.948730,4313.589844,4299.871582,4287.692383,4334.358887,4397.692383,4305.512695,4293.589844,4487.051270,4526.922852,4346.666504,4439.871582,1589.000000,1.000000,26.000000,,,,0.000000,2.000000,2.000000,0.000000,4.000000,2.000000,2.000000,0.000000,0.000000,4.000000,4.000000,4.000000,4.000000,4.000000,4.000000,0.000000,,,,,,,,,,,,,,,,,,,,,,,,,,,,
1732157044.256713,1732157044.258326,2.000000,0.000000,4310.641113,4280.897461,4316.282227,4310.000000,4313.846191,4279.102539,4332.179688,4393.589844,4296.153809,4292.820313,4490.641113,4520.384766,4349.743652,4432.307617,1386.000000,1.000000,26.000000,,,,0.000000,2.000000,2.000000,0.000000,4.000000,2.000000,2.000000,0.000000,0.000000,4.000000,4.000000,4.000000,4.000000,4.000000,4.000000,0.000000,,,,,,,,,,,,,,,,,,,,,,,,,,,,
1732157044.264521,1732157044.266134,3.000000,0.000000,4312.307617,4281.410156,4320.512695,4310.256348,4298.717773,4281.025879,4333.205078,4393.974121,4292.051270,4293.717773,4489.743652,4520.128418,4349.230957,4429.743652,1412.000000,1.000000,26.000000,,,,0.000000,2.000000,2.000000,0.000000,4.000000,2.000000,2.000000,0.000000,0.000000,4.000000,4.000000,4.000000,4.000000,4.000000,4.000000,0.000000,,,,,,,,,,,,,,,,,,,,,,,,,,,,
1732157044.272330,1732157044.274042,4.000000,0.000000,4310.769043,4284.102539,4322.051270,4311.538574,4278.461426,4284.871582,4330.641113,4398.846191,4300.641113,4294.358887,4487.948730,4522.563965,4342.820313,4431.282227,1411.000000,1.000000,26.000000,,,,0.000000,2.000000,2.000000,0.000000,4.000000,2.000000,2.000000,0.000000,0.000000,4.000000,4.000000,4.000000,4.000000,4.000000,4.000000,0.000000,,,,,,,,,,,,,,,,,1.000000,0.000000,0.510368,0.470764,-0.554443,0.458801,0.974728,-0.029789,-0.060066,-35.737556,45.033150,31.556641
1732157044.280138,1732157044.281851,5.000000,0.000000,4312.051270,4285.512695,4318.717773,4317.820313,4291.666504,4287.692383,4330.384766,4399.871582,4304.102539,4294.487305,4489.871582,4523.974121,4341.794922,4433.846191,1217.000000,1.000000,26.000000,,,,0.000000,2.000000,2.000000,0.000000,4.000000,2.000000,2.000000,0.000000,0.000000,4.000000,4.000000,4.000000,4.000000,4.000000,4.000000,0.000000,,,,,,,,,,,,,,,,,,,,,,,,,,,,
1732157044.287946,1732157044.289859,6.000000,0.000000,4311.282227,4280.897461,4316.410156,4319.230957,4302.820313,4288.077148,4335.512695,4398.333496,4298.461426,4292.820313,4489.230957,4522.307617,4343.717773,4431.666504,0.000000,1.000000,26.000000,,,,0.000000,2.000000,2.000000,0.000000,4.000000,2.000000,2.000000,0.000000,0.000000,4.000000,4.000000,4.000000,4.000000,4.000000,4.000000,0.000000,,,,,,,,,,,,,,,,,,,,,,,,,,,,
1732157044.295754,1732157044.297667,7.000000,0.000000,4310.256348,4279.743652,4320.256348,4313.077148,4291.666504,4291.025879,4336.153809,4398.077148,4298.974121,4293.205078,4485.769043,4522.692383,4344.102539,4430.128418,0.000000,1.000000,26.000000,,,,0.000000,2.000000,2.000000,0.000000,4.000000,2.000000,2.000000,0.000000,0.000000,4.000000,4.000000,4.000000,4.000000,4.000000,4.000000,0.000000,,,,,,,,,,,,,,,,,,,,,,,,,,,,
1732157044.303563,1732157044.305575,8.000000,0.000000,4308.717773,4282.692383,4323.461426,4311.538574,4303.589844,4293.974121,4334.615234,4397.692383,4305.384766,4296.538574,4487.692383,4526.153809,4343.589844,4431.282227,1521.000000,1.000000,26.000000,,,,0.000000,2.000000,2.000000,0.000000,4.000000,2.000000,2.000000,0.000000,0.000000,4.000000,4.000000,4.000000,4.000000,4.000000,4.000000,0.000000,,,,,,,,,,,,,,,,,2.000000,0.000000,0.510469,0.470642,-0.554504,0.458740,0.980100,-0.020022,-0.054694,-35.694088,45.045185,31.727545
1732157044.311371,1732157044.313383,9.000000,0.000000,4302.179688,4280.384766,4321.282227,4310.641113,4323.077148,4290.384766,4337.563965,4397.179688,4306.025879,4296.922852,4491.538574,4523.077148,4342.179688,4429.871582,1654.000000,1.000000,26.000000,,,,0.000000,2.000000,2.000000,0.000000,4.000000,2.000000,2.000000,0.000000,0.000000,4.000000,4.000000,4.000000,4.000000,4.000000,4.000000,0.000000,,,,,,,,,,,,,,,,,,,,,,,,,,,,
1732157044.319179,1732157044.321391,10.000000,0.000000,4299.871582,4280.641113,4317.948730,4311.153809,4307.307617,4287.436035,4339.230957,4398.717773,4304.615234,4298.846191,4493.205078,4521.025879,4342.051270,4427.307617,1514.000000,1.000000,26.000000,,,,0.000000,2.000000,2.000000,0.000000,4.000000,2.000000,2.000000,0.000000,0.000000,4.000000,4.000000,4.000000,4.000000,4.000000,4.000000,0.000000,,,,,,,,,,,,,,,,,,,,,,,,,,,,
1732157044.326987,1732157044.329199,11.000000,0.000000,4304.487305,4285.384766,4318.974121,4317.436035,4289.743652,4290.128418,4337.692383,4399.230957,4310.641113,4301.153809,4492.563965,4525.128418,4340.769043,4429.743652,1563.000000,1.000000,26.000000,,,,0.000000,2.000000,2.000000,0.000000,4.000000,2.000000,2.000000,0.000000,0.000000,4.000000,4.000000,4.000000,4.000000,4.000000,4.000000,0.000000,,,,,,,,,,,,,,,,,,,,,,,,,,,,
1732157044.334796,1732157044.337107,12.000000,0.000000,4303.333496,4283.717773,4320.384766,4317.307617,4295.769043,4293.333496,4338.077148,4398.077148,4310.641113,4300.769043,4491.025879,4525.512695,4340.000000,4428.717773,1680.000000,1.000000,26.000000,,,,0.000000,2.000000,2.000000,0.000000,4.000000,2.000000,2.000000,0.000000,0.000000,4.000000,4.000000,4.000000,4.000000,4.000000,4.000000,0.000000,,,,,,,,,,,,,,,,,3.000000,0.000000,0.510337,0.469971,-0.554993,0.458984,0.976193,-0.029300,-0.047369,-35.907211,45.274933,31.804312
1732157044.342604,1732157044.344916,13.000000,0.000000,4299.358887,4280.128418,4319.358887,4314.615234,4303.333496,4292.436035,4338.333496,4396.666504,4307.563965,4301.410156,4489.871582,4519.230957,4339.230957,4419.615234,1678.000000,1.000000,26.000000,,,,0.000000,2.000000,2.000000,0.000000,4.000000,2.000000,2.000000,0.000000,0.000000,4.000000,4.000000,4.000000,4.000000,4.000000,4.000000,0.000000,,,,,,,,,,,,,,,,,,,,,,,,,,,,
1732157044.350412,1732157044.352524,14.000000,0.000000,4303.077148,4282.563965,4320.128418,4320.769043,4302.436035,4284.743652,4338.077148,4397.436035,4311.153809,4298.333496,4489.743652,4520.384766,4336.282227,4416.025879,1514.000000,1.000000,26.000000,,,,0.000000,2.000000,2.000000,0.000000,4.000000,2.000000,2.000000,0.000000,0.000000,4.000000,4.000000,4.000000,4.000000,4.000000,4.000000,0.000000,1.000000,0.000000,2.000000,1.000000,0.000000,4.000000,2.000000,2.000000,0.000000,0.000000,4.000000,4.000000,4.000000,4.000000,4.000000,4.000000,,,,,,,,,,,,
1732157044.358220,1732157044.360332,15.000000,0.000000,4303.974121,4283.077148,4319.230957,4321.922852,4298.333496,4280.256348,4338.077148,4399.102539,4303.333496,4285.512695,4484.871582,4527.051270,4327.820313,4416.922852,1563.000000,1.000000,26.000000,,,,0.000000,2.000000,2.000000,0.000000,4.000000,2.000000,2.000000,0.000000,0.000000,4.000000,4.000000,4.000000,4.000000,4.000000,4.000000,0.000000,,,,,,,,,,,,,,,,,,,,,,,,,,,,
1732157044.366029,1732157044.368141,16.000000,0.000000,4296.666504,4276.410156,4318.205078,4315.512695,4303.077148,4288.846191,4338.077148,4398.589844,4295.256348,4276.538574,4475.641113,4519.871582,4316.410156,4412.563965,0.000000,1.000000,26.000000,,,,0.000000,2.000000,2.000000,0.000000,4.000000,2.000000,2.000000,0.000000,0.000000,4.000000,4.000000,4.000000,4.000000,4.000000,4.000000,0.000000,,,,,,,,,,,,,,,,,4.000000,0.000000,0.510354,0.469604,-0.555237,0.459045,0.980100,-0.036137,-0.048834,-35.946507,45.364365,31.664825
1732157044.373837,1732157044.375949,17.000000,0.000000,4293.589844,4274.230957,4318.589844,4314.230957,4317.948730,4297.948730,4338.077148,4397.051270,4301.538574,4282.563965,4476.282227,4509.487305,4317.051270,4412.692383,0.000000,1.000000,26.000000,,,,0.000000,2.000000,2.000000,0.000000,4.000000,2.000000,2.000000,0.000000,0.000000,4.000000,4.000000,4.000000,4.000000,4.000000,4.000000,0.000000,,,,,,,,,,,,,,,,,,,,,,,,,,,,
1732157044.381645,1732157044.383557,18.000000,0.000000,4296.794922,4278.974121,4319.358887,4316.282227,4312.692383,4295.384766,4338.077148,4397.563965,4306.538574,4291.922852,4490.256348,4516.153809,4331.025879,4421.922852,0.000000,1.000000,26.000000,,,,0.000000,2.000000,2.000000,0.000000,4.000000,2.000000,2.000000,0.000000,0.000000,4.000000,4.000000,4.000000,4.000000,4.000000,4.000000,0.000000,,,,,,,,,,,,,,,,,,,,,,,,,,,,
1732157044.389453,1732157044.391365,19.000000,0.000000,4299.230957,4281.410156,4318.589844,4317.948730,4289.358887,4292.948730,4338.461426,4398.461426,4308.205078,4297.307617,4492.436035,4528.333496,4336.922852,4425.384766,0.000000,1.000000,26.000000,,,,0.000000,2.000000,2.000000,0.000000,4.000000,2.000000,2.000000,0.000000,0.000000,4.000000,4.000000,4.000000,4.000000,4.000000,4.000000,0.000000,,,,,,,,,,,,,,,,,,,,,,,,,,,,
1732157044.397262,1732157044.399074,20.000000,0.000000,4296.794922,4279.743652,4318.846191,4316.025879,4291.282227,4290.512695,4337.948730,4398.205078,4308.077148,4298.333496,4479.230957,4523.974121,4333.333496,4419.615234,0.000000,1.000000,26.000000,,,,0.000000,2.000000,2.000000,0.000000,4.000000,2.000000,2.000000,0.000000,0.000000,4.000000,4.000000,4.000000,4.000000,4.000000,4.000000,0.000000,,,,,,,,,,,,,,,,,5.000000,0.000000,0.510140,0.469177,-0.555542,0.459351,0.976193,-0.031254,-0.052741,-35.861671,45.390133,31.601843
1732157044.405070,1732157044.406882,21.000000,0.000000,4293.974121,4279.102539,4318.589844,4310.769043,4302.563965,4288.589844,4337.692383,4397.563965,4305.384766,4295.769043,4481.666504,4519.102539,4337.563965,4418.717773,0.000000,1.000000,26.000000,,,,0.000000,2.000000,2.000000,0.000000,4.000000,2.000000,2.000000,0.000000,0.000000,4.000000,4.000000,4.000000,4.000000,4.000000,4.000000,0.000000,,,,,,,,,,,,,,,,,,,,,,,,,,,,
1732157044.412878,1732157044.414490,22.000000,0.000000,4294.358887,4277.563965,4317.692383,4308.717773,4294.230957,4294.743652,4339.102539,4398.717773,4308.589844,4296.410156,4496.282227,4526.282227,4339.487305,4423.205078,0.000000,1.000000,26.000000,,,,0.000000,2.000000,2.000000,0.000000,4.000000,2.000000,2.000000,0.000000,0.000000,4.000000,4.000000,4.000000,4.000000,4.000000,4.000000,0.000000,,,,,,,,,,,,,,,,,,,,,,,,,,,,
1732157044.420686,1732157044.422298,23.000000,0.000000,4296.538574,4274.743652,4317.436035,4310.256348,4302.436035,4295.128418,4337.179688,4398.461426,4306.025879,4293.974121,4491.282227,4522.307617,4336.922852,4421.538574,0.000000,1.000000,26.000000,,,,0.000000,2.000000,2.000000,0.000000,4.000000,2.000000,2.000000,0.000000,0.000000,4.000000,4.000000,4.000000,4.000000,4.000000,4.000000,0.000000,,,,,,,,,,,,,,,,,,,,,,,,,,,,
1732157044.428495,1732157044.430007,24.000000,0.000000,4297.436035,4279.230957,4319.230957,4313.333496,4321.153809,4288.333496,4333.205078,4397.051270,4296.538574,4286.794922,4477.948730,4511.025879,4341.922852,4414.743652,0.000000,1.000000,26.000000,,,,0.000000,2.000000,2.000000,0.000000,4.000000,2.000000,2.000000,0.000000,0.000000,4.000000,4.000000,4.000000,4.000000,4.000000,4.000000,0.000000,,,,,,,,,,,,,,,,,6.000000,0.000000,0.510091,0.467896,-0.556213,0.459900,0.985472,-0.023440,-0.042486,-35.676289,45.502674,31.662493
1732157044.436303,1732157044.437815,25.000000,0.000000,4295.000000,4280.128418,4319.230957,4314.230957,4305.256348,4291.666504,4333.589844,4398.077148,4302.179688,4288.974121,4481.282227,4513.333496,4343.974121,4413.461426,0.000000,1.000000,26.000000,,,,0.000000,2.000000,2.000000,0.000000,4.000000,2.000000,2.000000,0.000000,0.000000,4.000000,4.000000,4.000000,4.000000,4.000000,4.000000,0.000000,,,,,,,,,,,,,,,,,,,,,,,,,,,,
1732157044.444111,1732157044.445423,26.000000,0.000000,4293.717773,4269.615234,4316.666504,4310.128418,4285.000000,4297.051270,4335.897461,4399.230957,4309.743652,4293.974121,4489.102539,4525.000000,4345.512695,4414.743652,0.000000,1.000000,26.000000,,,,0.000000,2.000000,2.000000,0.000000,4.000000,2.000000,2.000000,0.000000,0.000000,4.000000,4.000000,4.000000,4.000000,4.000000,4.000000,0.000000,,,,,,,,,,,,,,,,,,,,,,,,,,,,
1732157044.451919,1732157044.453232,27.000000,0.000000,4296.666504,4267.307617,4316.410156,4307.307617,4290.512695,4297.051270,4335.128418,4398.333496,4308.717773,4291.410156,4488.717773,4526.282227,4355.384766,4415.641113,0.000000,1.000000,26.000000,,,,0.000000,2.000000,2.000000,0.000000,4.000000,2.000000,2.000000,0.000000,0.000000,4.000000,4.000000,4.000000,4.000000,4.000000,4.000000,0.000000,,,,,,,,,,,,,,,,,,,,,,,,,,,,
1732157044.459727,1732157044.460940,28.000000,0.000000,4293.333496,4270.769043,4318.461426,4306.025879,4293.846191,4295.641113,4334.230957,4398.333496,4312.563965,4291.922852,4489.871582,4515.256348,4358.846191,4413.333496,0.000000,1.000000,26.000000,,,,0.000000,2.000000,2.000000,0.000000,4.000000,2.000000,2.000000,0.000000,0.000000,4.000000,4.000000,4.000000,4.000000,4.000000,4.000000,0.000000,,,,,,,,,,,,,,,,,7.000000,0.000000,0.509808,0.467651,-0.556274,0.460388,0.981077,-0.039067,-0.056648,-35.572792,45.583836,31.559952
1732157044.467536,1732157044.468748,29.000000,0.000000,4282.948730,4267.820313,4317.948730,4300.384766,4297.820313,4289.102539,4334.102539,4397.820313,4309.230957,4297.051270,4488.974121,4502.179688,4349.487305,4403.717773,0.000000,1.000000,26.000000,,,,0.000000,2.000000,2.000000,0.000000,4.000000,2.000000,2.000000,0.000000,0.000000,4.000000,4.000000,4.000000,4.000000,4.000000,4.000000,0.000000,,,,,,,,,,,,,,,,,,,,,,,,,,,,
1732157044.475344,1732157044.476357,30.000000,0.000000,4282.692383,4270.000000,4316.410156,4296.666504,4306.282227,4283.589844,4333.846191,4397.436035,4296.153809,4289.230957,4487.563965,4497.820313,4348.205078,4398.333496,0.000000,1.000000,26.000000,,,,0.000000,2.000000,2.000000,0.000000,4.000000,2.000000,2.000000,0.000000,0.000000,4.000000,4.000000,4.000000,4.000000,4.000000,4.000000,0.000000,,,,,,,,,,,,,,,,,,,,,,,,,,,,
1732157044.483152,1732157044.484165,31.000000,0.000000,4292.436035,4278.461426,4317.563965,4300.384766,4290.256348,4291.282227,4334.358887,4398.974121,4298.974121,4278.461426,4490.641113,4506.922852,4357.820313,4407.820313,0.000000,1.000000,26.000000,,,,0.000000,2.000000,2.000000,0.000000,4.000000,2.000000,2.000000,0.000000,0.000000,4.000000,4.000000,4.000000,4.000000,4.000000,4.000000,0.000000,,,,,,,,,,,,,,,,,,,,,,,,,,,,
1732157044.490960,1732157044.491873,32.000000,0.000000,4296.666504,4279.871582,4318.205078,4300.128418,4275.897461,4296.410156,4335.769043,4398.589844,4311.410156,4287.692383,4492.948730,4511.922852,4361.922852,4415.769043,0.000000,1.000000,26.000000,,,,0.000000,2.000000,2.000000,0.000000,4.000000,2.000000,2.000000,0.000000,0.000000,4.000000,4.000000,4.000000,4.000000,4.000000,4.000000,0.000000,,,,,,,,,,,,,,,,,8.000000,0.000000,0.509710,0.467529,-0.556213,0.460693,0.976682,-0.040044,-0.045904,-35.558964,45.314571,31.516895
1732157044.498769,1732157044.499681,33.000000,0.000000,4294.615234,4277.692383,4317.307617,4297.436035,4285.512695,4288.461426,4336.153809,4397.051270,4311.538574,4297.179688,4492.563965,4508.205078,4356.410156,4412.820313,0.000000,1.000000,26.000000,,,,0.000000,2.000000,2.000000,0.000000,4.000000,2.000000,2.000000,0.000000,0.000000,4.000000,4.000000,4.000000,4.000000,4.000000,4.000000,0.000000,,,,,,,,,,,,,,,,,,,,,,,,,,,,
1732157044.506577,1732157044.507689,34.000000,0.000000,4291.410156,4280.512695,4315.256348,4299.615234,4291.666504,4286.794922,4335.769043,4398.717773,4306.538574,4287.820313,4488.333496,4506.282227,4350.128418,4412.692383,0.000000,1.000000,26.000000,,,,0.000000,2.000000,2.000000,0.000000,4.000000,2.000000,2.000000,0.000000,0.000000,4.000000,4.000000,4.000000,4.000000,4.000000,4.000000,0.000000,,,,,,,,,,,,,,,,,,,,,,,,,,,,
1732157044.514385,1732157044.515497,35.000000,0.000000,4292.179688,4281.025879,4315.384766,4301.153809,4298.974121,4289.871582,4335.256348,4400.256348,4306.794922,4281.025879,4480.769043,4507.948730,4350.512695,4415.641113,0.000000,1.000000,26.000000,,,,0.000000,2.000000,2.000000,0.000000,4.000000,2.000000,2.000000,0.000000,0.000000,4.000000,4.000000,4.000000,4.000000,4.000000,4.000000,0.000000,,,,,,,,,,,,,,,,,,,,,,,,,,,,
1732157044.522194,1732157044.523406,36.000000,0.000000,4293.461426,4280.769043,4317.307617,4300.897461,4304.615234,4291.666504,4334.871582,4398.077148,4312.051270,4290.769043,4478.717773,4508.077148,4352.179688,4414.230957,0.000000,1.000000,26.000000,,,,0.000000,2.000000,2.000000,0.000000,4.000000,2.000000,2.000000,0.000000,0.000000,4.000000,4.000000,4.000000,4.000000,4.000000,4.000000,0.000000,,,,,,,,,,,,,,,,,9.000000,0.000000,0.509415,0.467224,-0.556335,0.461182,0.980100,-0.046881,-0.045904,-35.707760,45.239803,31.517017
1732157044.530002,1732157044.531214,37.000000,0.000000,4286.922852,4281.794922,4318.077148,4304.102539,4287.307617,4296.025879,4334.615234,4396.666504,4313.461426,4296.794922,4480.769043,4506.153809,4348.589844,4413.077148,0.000000,1.000000,26.000000,,,,0.000000,2.000000,2.000000,0.000000,4.000000,2.000000,2.000000,0.000000,0.000000,4.000000,4.000000,4.000000,4.000000,4.000000,4.000000,0.000000,,,,,,,,,,,,,,,,,,,,,,,,,,,,
1732157044.537810,1732157044.538822,38.000000,0.000000,4282.692383,4281.282227,4315.512695,4306.666504,4279.358887,4296.538574,4335.256348,4397.307617,4309.743652,4294.487305,4477.051270,4506.282227,4343.974121,4412.820313,0.000000,1.000000,26.000000,,,,0.000000,2.000000,2.000000,0.000000,4.000000,2.000000,2.000000,0.000000,0.000000,4.000000,4.000000,4.000000,4.000000,4.000000,4.000000,0.000000,,,,,,,,,,,,,,,,,,,,,,,,,,,,
1732157044.545618,1732157044.546630,39.000000,0.000000,4285.641113,4280.897461,4316.025879,4305.897461,4296.282227,4292.948730,4336.025879,4397.051270,4310.384766,4294.487305,4473.333496,4506.153809,4341.666504,4411.538574,0.000000,1.000000,26.000000,,,,0.000000,2.000000,2.000000,0.000000,4.000000,2.000000,2.000000,0.000000,0.000000,4.000000,4.000000,4.000000,4.000000,4.000000,4.000000,0.000000,,,,,,,,,,,,,,,,,,,,,,,,,,,,
1732157044.553426,1732157044.554339,40.000000,0.000000,4283.974121,4280.897461,4319.743652,4306.282227,4295.641113,4293.846191,4335.256348,4395.512695,4311.410156,4293.205078,4476.410156,4505.897461,4339.487305,4411.282227,0.000000,1.000000,26.000000,,,,0.000000,2.000000,2.000000,0.000000,4.000000,2.000000,2.000000,0.000000,0.000000,4.000000,4.000000,4.000000,4.000000,4.000000,4.000000,0.000000,,,,,,,,,,,,,,,,,10.000000,0.000000,0.508506,0.467285,-0.556458,0.461975,0.981565,-0.050299,-0.061531,-35.778286,45.012573,31.300451
1732157044.561235,1732157044.562147,41.000000,0.000000,4283.077148,4278.333496,4319.871582,4304.358887,4289.102539,4298.589844,4334.230957,4397.051270,4311.794922,4293.846191,4472.563965,4508.461426,4335.256348,4411.666504,0.000000,1.000000,26.000000,,,,0.000000,2.000000,2.000000,0.000000,4.000000,2.000000,2.000000,0.000000,0.000000,4.000000,4.000000,4.000000,4.000000,4.000000,4.000000,0.000000,,,,,,,,,,,,,,,,,,,,,,,,,,,,
1732157044.569043,1732157044.569755,42.000000,0.000000,4291.282227,4277.692383,4317.179688,4299.358887,4309.615234,4296.922852,4333.589844,4398.077148,4313.589844,4299.102539,4466.025879,4510.512695,4333.589844,4413.205078,0.000000,1.000000,26.000000,,,,0.000000,2.000000,2.000000,0.000000,4.000000,2.000000,2.000000,0.000000,0.000000,4.000000,4.000000,4.000000,4.000000,4.000000,4.000000,0.000000,,,,,,,,,,,,,,,,,,,,,,,,,,,,
1732157044.576851,1732157044.577564,43.000000,0.000000,4296.025879,4282.563965,4316.922852,4302.307617,4312.563965,4293.077148,4332.179688,4394.743652,4313.077148,4298.589844,4471.282227,4508.461426,4334.615234,4414.615234,0.000000,1.000000,26.000000,,,,0.000000,2.000000,2.000000,0.000000,4.000000,2.000000,2.000000,0.000000,0.000000,4.000000,4.000000,4.000000,4.000000,4.000000,4.000000,0.000000,,,,,,,,,,,,,,,,,,,,,,,,,,,,
1732157044.584659,1732157044.585472,44.000000,0.000000,4293.846191,4285.128418,4317.820313,4309.743652,4285.256348,4293.974121,4333.717773,4395.256348,4309.487305,4293.846191,4477.948730,4507.692383,4335.128418,4414.102539,0.000000,1.000000,26.000000,,,,0.000000,2.000000,2.000000,0.000000,4.000000,2.000000,2.000000,0.000000,0.000000,4.000000,4.000000,4.000000,4.000000,4.000000,4.000000,0.000000,,,,,,,,,,,,,,,,,11.000000,0.000000,0.508295,0.467346,-0.556396,0.462219,0.978147,-0.050787,-0.064461,-35.760410,45.070187,31.291698
1732157044.592468,1732157044.593280,45.000000,0.000000,4294.102539,4281.666504,4316.666504,4308.846191,4282.563965,4297.436035,4338.205078,4398.333496,4310.256348,4293.717773,4473.077148,4507.307617,4333.461426,4412.820313,0.000000,1.000000,26.000000,,,,0.000000,2.000000,2.000000,0.000000,4.000000,2.000000,2.000000,0.000000,0.000000,4.000000,4.000000,4.000000,4.000000,4.000000,4.000000,0.000000,,,,,,,,,,,,,,,,,,,,,,,,,,,,
1732157044.600276,1732157044.601288,46.000000,0.000000,4294.358887,4281.410156,4317.692383,4303.846191,4300.641113,4297.179688,4339.358887,4397.051270,4312.051270,4294.102539,4468.717773,4505.512695,4331.538574,4411.922852,0.000000,1.000000,26.000000,,,,0.000000,2.000000,2.000000,0.000000,4.000000,2.000000,2.000000,0.000000,0.000000,4.000000,4.000000,4.000000,4.000000,4.000000,4.000000,0.000000,,,,,,,,,,,,,,,,,,,,,,,,,,,,
1732157044.608084,1732157044.609096,47.000000,0.000000,4293.846191,4282.051270,4318.974121,4303.077148,4293.974121,4295.641113,4335.512695,4396.922852,4308.974121,4293.846191,4473.589844,4507.948730,4333.461426,4411.153809,0.000000,1.000000,26.000000,,,,0.000000,2.000000,2.000000,0.000000,4.000000,2.000000,2.000000,0.000000,0.000000,4.000000,4.000000,4.000000,4.000000,4.000000,4.000000,0.000000,,,,,,,,,,,,,,,,,,,,,,,,,,,,
1732157044.615892,1732157044.617004,48.000000,0.000000,4292.692383,4280.641113,4317.307617,4300.384766,4292.307617,4294.615234,4334.230957,4397.692383,4307.692383,4295.769043,4474.871582,4507.436035,4335.128418,4411.025879,0.000000,1.000000,26.000000,,,,0.000000,2.000000,2.000000,0.000000,4.000000,2.000000,2.000000,0.000000,0.000000,4.000000,4.000000,4.000000,4.000000,4.000000,4.000000,0.000000,,,,,,,,,,,,,,,,,12.000000,0.000000,0.508419,0.467102,-0.556641,0.462036,0.975705,-0.041021,-0.053717,-35.552601,45.215183,31.457943
1732157044.623701,1732157044.624812,49.000000,0.000000,4293.077148,4280.512695,4317.307617,4295.769043,4310.769043,4292.948730,4336.025879,4396.153809,4308.333496,4292.307617,4470.769043,4505.256348,4335.256348,4412.563965,0.000000,1.000000,26.000000,,,,0.000000,2.000000,2.000000,0.000000,4.000000,2.000000,2.000000,0.000000,0.000000,4.000000,4.000000,4.000000,4.000000,4.000000,4.000000,0.000000,,,,,,,,,,,,,,,,,,,,,,,,,,,,
1732157044.631509,1732157044.632820,50.000000,0.000000,4296.922852,4281.538574,4318.846191,4298.333496,4297.820313,4295.769043,4335.128418,4397.179688,4311.153809,4293.205078,4473.461426,4510.384766,4338.846191,4414.743652,0.000000,1.000000,26.000000,,,,0.000000,2.000000,2.000000,0.000000,4.000000,2.000000,2.000000,0.000000,0.000000,4.000000,4.000000,4.000000,4.000000,4.000000,4.000000,0.000000,,,,,,,,,,,,,,,,,,,,,,,,,,,,
1732157044.639317,1732157044.640629,51.000000,0.000000,4298.461426,4287.179688,4314.487305,4304.871582,4276.282227,4300.769043,4333.205078,4397.692383,4318.846191,4306.666504,4481.025879,4516.410156,4344.102539,4418.077148,0.000000,1.000000,26.000000,,,,0.000000,2.000000,2.000000,0.000000,4.000000,2.000000,2.000000,0.000000,0.000000,4.000000,4.000000,4.000000,4.000000,4.000000,4.000000,0.000000,,,,,,,,,,,,,,,,,,,,,,,,,,,,
1732157044.647125,1732157044.648537,52.000000,0.000000,4297.820313,4290.000000,4313.205078,4302.820313,4284.230957,4298.205078,4335.256348,4394.743652,4321.538574,4312.563965,4476.922852,4515.256348,4345.384766,4418.974121,0.000000,1.000000,26.000000,,,,0.000000,2.000000,2.000000,0.000000,4.000000,2.000000,2.000000,0.000000,0.000000,4.000000,4.000000,4.000000,4.000000,4.000000,4.000000,0.000000,,,,,,,,,,,,,,,,,13.000000,0.000000,0.507728,0.467224,-0.556763,0.462524,0.987425,-0.057136,-0.057136,-35.502605,45.067631,31.580933
1732157044.654934,1732157044.656345,53.000000,0.000000,4296.666504,4282.948730,4317.051270,4298.333496,4294.871582,4293.333496,4336.025879,4396.153809,4317.051270,4303.333496,4472.820313,4513.077148,4343.205078,4414.358887,0.000000,1.000000,26.000000,,,,0.000000,2.000000,2.000000,0.000000,4.000000,2.000000,2.000000,0.000000,0.000000,4.000000,4.000000,4.000000,4.000000,4.000000,4.000000,0.000000,,,,,,,,,,,,,,,,,,,,,,,,,,,,
1732157044.662742,1732157044.664353,54.000000,0.000000,4297.051270,4280.641113,4316.666504,4299.102539,4293.205078,4295.641113,4333.974121,4399.487305,4319.358887,4302.563965,4485.256348,4517.051270,4343.589844,4415.641113,0.000000,1.000000,26.000000,,,,0.000000,2.000000,2.000000,0.000000,4.000000,2.000000,2.000000,0.000000,0.000000,4.000000,4.000000,4.000000,4.000000,4.000000,4.000000,0.000000,,,,,,,,,,,,,,,,,,,,,,,,,,,,
1732157044.670550,1732157044.672162,55.000000,0.000000,4299.871582,4285.000000,4313.974121,4298.717773,4291.538574,4300.256348,4335.384766,4398.717773,4321.666504,4307.563965,4490.641113,4517.436035,4344.871582,4419.615234,0.000000,1.000000,26.000000,,,,0.000000,2.000000,2.000000,0.000000,4.000000,2.000000,2.000000,0.000000,0.000000,4.000000,4.000000,4.000000,4.000000,4.000000,4.000000,0.000000,,,,,,,,,,,,,,,,,,,,,,,,,,,,
1732157044.678358,1732157044.680070,56.000000,0.000000,4299.615234,4282.948730,4315.512695,4295.256348,4300.769043,4298.461426,4336.153809,4397.948730,4312.692383,4300.512695,4478.205078,4510.000000,4340.256348,4416.410156,0.000000,1.000000,26.000000,,,,0.000000,2.000000,2.000000,0.000000,4.000000,2.000000,2.000000,0.000000,0.000000,4.000000,4.000000,4.000000,4.000000,4.000000,4.000000,0.000000,,,,,,,,,,,,,,,,,14.000000,0.000000,0.507202,0.467590,-0.556580,0.462952,0.988890,-0.041021,-0.065926,-35.478779,44.931450,31.563890
1732157044.686167,1732157044.687878,57.000000,0.000000,4297.948730,4279.743652,4317.051270,4294.358887,4306.282227,4295.000000,4333.333496,4395.128418,4307.948730,4295.512695,4472.692383,4504.871582,4337.051270,4417.307617,0.000000,1.000000,26.000000,,,,0.000000,2.000000,2.000000,0.000000,4.000000,2.000000,2.000000,0.000000,0.000000,4.000000,4.000000,4.000000,4.000000,4.000000,4.000000,0.000000,,,,,,,,,,,,,,,,,,,,,,,,,,,,
1732157044.693975,1732157044.695886,58.000000,0.000000,4302.051270,4282.307617,4316.282227,4301.025879,4290.897461,4296.025879,4333.077148,4392.820313,4311.282227,4299.743652,4477.563965,4511.922852,4339.743652,4424.743652,0.000000,1.000000,26.000000,,,,0.000000,2.000000,2.000000,0.000000,4.000000,2.000000,2.000000,0.000000,0.000000,4.000000,4.000000,4.000000,4.000000,4.000000,4.000000,0.000000,,,,,,,,,,,,,,,,,,,,,,,,,,,,
1732157044.701783,1732157044.703694,59.000000,0.000000,4309.615234,4281.666504,4317.692383,4306.922852,4276.410156,4297.692383,4333.717773,4396.538574,4310.897461,4299.487305,4476.794922,4516.794922,4337.948730,4423.077148,0.000000,1.000000,26.000000,,,,0.000000,2.000000,2.000000,0.000000,4.000000,2.000000,2.000000,0.000000,0.000000,4.000000,4.000000,4.000000,4.000000,4.000000,4.000000,0.000000,,,,,,,,,,,,,,,,,,,,,,,,,,,,
1732157044.709591,1732157044.711402,60.000000,0.000000,4305.641113,4279.358887,4318.461426,4302.563965,4282.563965,4297.051270,4332.948730,4400.769043,4310.000000,4295.641113,4473.589844,4506.666504,4331.025879,4413.461426,0.000000,1.000000,26.000000,,,,0.000000,2.000000,2.000000,0.000000,4.000000,2.000000,2.000000,0.000000,0.000000,4.000000,4.000000,4.000000,4.000000,4.000000,4.000000,0.000000,,,,,,,,,,,,,,,,,15.000000,0.000000,0.507045,0.467712,-0.556519,0.463074,0.987425,-0.048346,-0.060066,-35.609478,44.912807,31.583418
1732157044.717399,1732157044.719211,61.000000,0.000000,4297.692383,4280.897461,4316.922852,4300.128418,4283.589844,4297.948730,4334.743652,4398.846191,4312.179688,4297.820313,4467.436035,4502.436035,4328.333496,4410.897461,0.000000,1.000000,26.000000,,,,0.000000,2.000000,2.000000,0.000000,4.000000,2.000000,2.000000,0.000000,0.000000,4.000000,4.000000,4.000000,4.000000,4.000000,4.000000,0.000000,,,,,,,,,,,,,,,,,,,,,,,,,,,,
1732157044.725208,1732157044.726819,62.000000,0.000000,4300.897461,4281.410156,4315.512695,4305.256348,4287.563965,4296.410156,4335.512695,4397.563965,4313.717773,4302.820313,4465.512695,4507.051270,4328.333496,4414.871582,0.000000,1.000000,26.000000,,,,0.000000,2.000000,2.000000,0.000000,4.000000,2.000000,2.000000,0.000000,0.000000,4.000000,4.000000,4.000000,4.000000,4.000000,4.000000,0.000000,,,,,,,,,,,,,,,,,,,,,,,,,,,,
1732157044.733016,1732157044.734627,63.000000,0.000000,4302.436035,4279.615234,4316.538574,4302.692383,4306.794922,4294.871582,4332.051270,4398.846191,4312.692383,4300.000000,4468.205078,4508.461426,4326.666504,4415.641113,0.000000,1.000000,26.000000,,,,0.000000,2.000000,2.000000,0.000000,4.000000,2.000000,2.000000,0.000000,0.000000,4.000000,4.000000,4.000000,4.000000,4.000000,4.000000,0.000000,,,,,,,,,,,,,,,,,,,,,,,,,,,,
1732157044.740824,1732157044.742336,64.000000,0.000000,4295.769043,4279.230957,4316.666504,4299.743652,4299.743652,4299.102539,4331.025879,4395.000000,4306.025879,4294.230957,4465.128418,4504.487305,4325.256348,4413.205078,0.000000,1.000000,26.000000,,,,0.000000,2.000000,2.000000,0.000000,4.000000,2.000000,2.000000,0.000000,0.000000,4.000000,4.000000,4.000000,4.000000,4.000000,4.000000,0.000000,,,,,,,,,,,,,,,,,16.000000,0.000000,0.506538,0.468323,-0.556213,0.463379,0.978635,-0.057136,-0.054694,-35.525341,45.024372,31.472569
1732157044.748633,1732157044.750144,65.000000,0.000000,4296.025879,4280.769043,4315.128418,4308.077148,4278.333496,4301.282227,4331.538574,4394.358887,4302.436035,4293.461426,4466.410156,4502.692383,4325.000000,4418.717773,1593.000000,1.000000,26.000000,,,,0.000000,2.000000,2.000000,0.000000,4.000000,2.000000,2.000000,0.000000,0.000000,4.000000,4.000000,4.000000,4.000000,4.000000,4.000000,0.000000,,,,,,,,,,,,,,,,,,,,,,,,,,,,
1732157044.756441,1732157044.757752,66.000000,0.000000,4304.871582,4280.512695,4316.794922,4309.615234,4284.871582,4298.077148,4331.410156,4399.102539,4308.974121,4295.256348,4470.128418,4507.563965,4325.128418,4424.230957,1386.000000,1.000000,26.000000,,,,0.000000,2.000000,2.000000,0.000000,4.000000,2.000000,2.000000,0.000000,0.000000,4.000000,4.000000,4.000000,4.000000,4.000000,4.000000,0.000000,,,,,,,,,,,,,,,,,,,,,,,,,,,,
1732157044.764249,1732157044.765560,67.000000,0.000000,4303.589844,4280.641113,4318.974121,4304.743652,4296.410156,4295.384766,4333.461426,4397.051270,4311.922852,4295.512695,4468.461426,4513.846191,4323.846191,4417.948730,1411.000000,1.000000,26.000000,,,,0.000000,2.000000,2.000000,0.000000,4.000000,2.000000,2.000000,0.000000,0.000000,4.000000,4.000000,4.000000,4.000000,4.000000,4.000000,0.000000,,,,,,,,,,,,,,,,,,,,,,,,,,,,
1732157044.772057,1732157044.773269,68.000000,0.000000,4294.615234,4280.641113,4313.717773,4305.512695,4293.333496,4294.102539,4335.384766,4395.897461,4307.948730,4296.922852,4469.615234,4510.000000,4323.589844,4412.179688,1406.000000,1.000000,26.000000,,,,0.000000,2.000000,2.000000,0.000000,4.000000,2.000000,2.000000,0.000000,0.000000,4.000000,4.000000,4.000000,4.000000,4.000000,4.000000,0.000000,,,,,,,,,,,,,,,,,17.000000,0.000000,0.506278,0.468567,-0.556091,0.463562,0.982542,-0.040044,-0.065438,-35.808861,45.108074,31.431114
1732157044.779865,1732157044.781077,69.000000,0.000000,4293.333496,4278.717773,4313.461426,4305.769043,4287.692383,4295.384766,4335.897461,4401.282227,4308.974121,4298.077148,4474.487305,4505.384766,4323.717773,4415.128418,1234.000000,1.000000,26.000000,,,,0.000000,2.000000,2.000000,0.000000,4.000000,2.000000,2.000000,0.000000,0.000000,4.000000,4.000000,4.000000,4.000000,4.000000,4.000000,0.000000,,,,,,,,,,,,,,,,,,,,,,,,,,,,
1732157044.787674,1732157044.788685,70.000000,0.000000,4298.205078,4277.948730,4318.717773,4302.948730,4298.461426,4295.897461,4335.256348,4399.102539,4311.025879,4295.512695,4475.384766,4517.307617,4324.487305,4421.794922,0.000000,1.000000,26.000000,,,,0.000000,2.000000,2.000000,0.000000,4.000000,2.000000,2.000000,0.000000,0.000000,4.000000,4.000000,4.000000,4.000000,4.000000,4.000000,0.000000,,,,,,,,,,,,,,,,,,,,,,,,,,,,
1732157044.795482,1732157044.796494,71.000000,0.000000,4303.461426,4279.743652,4317.051270,4302.563965,4310.000000,4290.897461,4333.846191,4393.205078,4309.871582,4297.563965,4478.205078,4524.615234,4332.948730,4427.436035,0.000000,1.000000,26.000000,,,,0.000000,2.000000,2.000000,0.000000,4.000000,2.000000,2.000000,0.000000,0.000000,4.000000,4.000000,4.000000,4.000000,4.000000,4.000000,0.000000,,,,,,,,,,,,,,,,,,,,,,,,,,,,
1732157044.803290,1732157044.804202,72.000000,0.000000,4306.922852,4283.461426,4312.820313,4310.000000,4297.563965,4291.025879,4334.102539,4396.666504,4312.948730,4306.153809,4480.000000,4521.538574,4340.897461,4429.871582,1521.000000,1.000000,26.000000,,,,0.000000,2.000000,2.000000,0.000000,4.000000,2.000000,2.000000,0.000000,0.000000,4.000000,4.000000,4.000000,4.000000,4.000000,4.000000,0.000000,,,,,,,,,,,,,,,,,18.000000,0.000000,0.506278,0.468628,-0.556091,0.463501,0.970333,-0.039556,-0.050787,-35.755177,45.109207,31.380869
1732157044.811098,1732157044.812010,73.000000,0.000000,4303.846191,4283.333496,4315.512695,4315.384766,4276.538574,4297.051270,4335.512695,4399.230957,4314.871582,4304.743652,4474.358887,4523.205078,4333.333496,4427.179688,1671.000000,1.000000,26.000000,,,,0.000000,2.000000,2.000000,0.000000,4.000000,2.000000,2.000000,0.000000,0.000000,4.000000,4.000000,4.000000,4.000000,4.000000,4.000000,0.000000,,,,,,,,,,,,,,,,,,,,,,,,,,,,
1732157044.818907,1732157044.819619,74.000000,0.000000,4297.563965,4280.128418,4318.717773,4305.384766,4273.589844,4294.743652,4333.974121,4396.666504,4312.436035,4295.897461,4474.743652,4516.922852,4327.563965,4427.179688,1534.000000,1.000000,26.000000,,,,0.000000,2.000000,2.000000,0.000000,4.000000,2.000000,2.000000,0.000000,0.000000,4.000000,4.000000,4.000000,4.000000,4.000000,4.000000,0.000000,,,,,,,,,,,,,,,,,,,,,,,,,,,,
1732157044.826715,1732157044.827427,75.000000,0.000000,4294.487305,4276.153809,4312.948730,4293.333496,4290.000000,4291.410156,4332.948730,4397.051270,4311.538574,4294.871582,4478.333496,4509.615234,4336.922852,4428.846191,1564.000000,1.000000,26.000000,,,,0.000000,2.000000,2.000000,0.000000,4.000000,2.000000,2.000000,0.000000,0.000000,4.000000,4.000000,4.000000,4.000000,4.000000,4.000000,0.000000,,,,,,,,,,,,,,,,,,,,,,,,,,,,
1732157044.834523,1732157044.835135,76.000000,0.000000,4294.871582,4276.410156,4310.128418,4293.461426,4296.538574,4294.743652,4335.384766,4398.717773,4309.871582,4295.641113,4478.461426,4514.487305,4342.948730,4427.948730,1691.000000,1.000000,26.000000,,,,0.000000,2.000000,2.000000,0.000000,4.000000,2.000000,2.000000,0.000000,0.000000,4.000000,4.000000,4.000000,4.000000,4.000000,4.000000,0.000000,,,,,,,,,,,,,,,,,19.000000,0.000000,0.506232,0.468689,-0.556030,0.463562,0.980100,-0.039067,-0.062508,-35.516693,45.215126,31.340170
1732157044.842331,1732157044.842943,77.000000,0.000000,4295.897461,4274.743652,4315.384766,4296.410156,4282.307617,4296.922852,4336.153809,4398.205078,4307.436035,4293.333496,4476.666504,4518.589844,4340.000000,4427.307617,1675.000000,1.000000,26.000000,,,,0.000000,2.000000,2.000000,0.000000,4.000000,2.000000,2.000000,0.000000,0.000000,4.000000,4.000000,4.000000,4.000000,4.000000,4.000000,0.000000,,,,,,,,,,,,,,,,,,,,,,,,,,,,
1732157044.850140,1732157044.850552,78.000000,0.000000,4297.179688,4269.743652,4318.333496,4296.666504,4275.128418,4295.641113,4333.846191,4398.205078,4305.897461,4293.846191,4473.589844,4514.102539,4340.256348,4425.256348,1534.000000,1.000000,26.000000,,,,0.000000,2.000000,2.000000,0.000000,4.000000,2.000000,2.000000,0.000000,0.000000,4.000000,4.000000,4.000000,4.000000,4.000000,4.000000,0.000000,1.000000,0.000000,2.000000,1.000000,0.000000,4.000000,2.000000,2.000000,0.000000,0.000000,4.000000,4.000000,4.000000,4.000000,4.000000,3.000000,,,,,,,,,,,,
1732157044.857948,1732157044.858360,79.000000,0.000000,4296.025879,4272.692383,4315.000000,4299.487305,4281.666504,4294.358887,4333.077148,4398.333496,4306.025879,4295.769043,4475.384766,4513.205078,4343.205078,4425.384766,1564.000000,1.000000,26.000000,,,,0.000000,2.000000,2.000000,0.000000,4.000000,2.000000,2.000000,0.000000,0.000000,4.000000,4.000000,4.000000,4.000000,4.000000,4.000000,0.000000,,,,,,,,,,,,,,,,,,,,,,,,,,,,
1732157044.865756,1732157044.866068,80.000000,0.000000,4297.051270,4279.743652,4313.461426,4302.692383,4285.000000,4296.282227,4335.512695,4397.692383,4308.974121,4296.025879,4477.692383,4518.461426,4344.487305,4429.871582,1691.000000,1.000000,26.000000,,,,0.000000,2.000000,2.000000,0.000000,4.000000,2.000000,2.000000,0.000000,0.000000,4.000000,4.000000,4.000000,4.000000,4.000000,4.000000,0.000000,,,,,,,,,,,,,,,,,20.000000,0.000000,0.505948,0.469116,-0.555725,0.463806,0.982053,-0.041509,-0.058113,-35.786854,45.344250,31.308870
1732157044.873564,1732157044.873876,81.000000,0.000000,4301.922852,4281.282227,4316.025879,4302.820313,4293.333496,4295.641113,4336.922852,4398.461426,4309.358887,4295.128418,4473.589844,4522.051270,4344.102539,4431.538574,1675.000000,1.000000,26.000000,,,,0.000000,2.000000,2.000000,0.000000,4.000000,2.000000,2.000000,0.000000,0.000000,4.000000,4.000000,4.000000,4.000000,4.000000,4.000000,0.000000,,,,,,,,,,,,,,,,,,,,,,,,,,,,
1732157044.881373,1732157044.881485,82.000000,0.000000,4300.641113,4280.000000,4314.743652,4302.307617,4296.282227,4290.897461,4335.897461,4400.256348,4305.897461,4294.871582,4472.051270,4522.051270,4344.615234,4427.179688,1534.000000,1.000000,26.000000,,,,0.000000,2.000000,2.000000,0.000000,4.000000,2.000000,2.000000,0.000000,0.000000,4.000000,4.000000,4.000000,4.000000,4.000000,4.000000,0.000000,,,,,,,,,,,,,,,,,,,,,,,,,,,,
1732157044.889181,1732157044.889293,83.000000,0.000000,4296.538574,4279.743652,4312.692383,4303.205078,4276.025879,4293.846191,4335.512695,4399.743652,4308.846191,4296.666504,4477.436035,4515.641113,4346.922852,4425.128418,1564.000000,1.000000,26.000000,,,,0.000000,2.000000,2.000000,0.000000,4.000000,2.000000,2.000000,0.000000,0.000000,4.000000,4.000000,4.000000,4.000000,4.000000,4.000000,0.000000,,,,,,,,,,,,,,,,,,,,,,,,,,,,
1732157044.896989,1732157044.897001,84.000000,0.000000,4296.794922,4277.563965,4316.153809,4301.282227,4277.948730,4292.051270,4335.769043,4399.871582,4311.794922,4297.563965,4478.717773,4509.871582,4347.307617,4422.820313,1691.000000,1.000000,26.000000,,,,0.000000,2.000000,2.000000,0.000000,4.000000,2.000000,2.000000,0.000000,0.000000,4.000000,4.000000,4.000000,4.000000,4.000000,4.000000,0.000000,,,,,,,,,,,,,,,,,21.000000,0.000000,0.505836,0.469116,-0.555725,0.463928,0.981077,-0.050299,-0.049811,-35.744019,45.415512,31.250185
1732157044.904797,1732157044.904810,85.000000,0.000000,4298.333496,4278.589844,4317.820313,4299.615234,4292.692383,4282.692383,4334.871582,4401.282227,4309.358887,4295.512695,4474.230957,4504.358887,4347.051270,4418.589844,1675.000000,1.000000,26.000000,,,,0.000000,2.000000,2.000000,0.000000,4.000000,2.000000,2.000000,0.000000,0.000000,4.000000,4.000000,4.000000,4.000000,4.000000,4.000000,0.000000,,,,,,,,,,,,,,,,,,,,,,,,,,,,
1732157044.912606,1732157044.912818,86.000000,0.000000,4297.820313,4281.153809,4315.897461,4301.410156,4273.205078,4287.179688,4334.358887,4399.230957,4314.487305,4297.563965,4473.974121,4503.589844,4345.384766,4420.769043,1534.000000,1.000000,26.000000,,,,0.000000,2.000000,2.000000,0.000000,4.000000,2.000000,2.000000,0.000000,0.000000,4.000000,4.000000,4.000000,4.000000,4.000000,4.000000,0.000000,,,,,,,,,,,,,,,,,,,,,,,,,,,,
1732157044.920414,1732157044.920626,87.000000,0.000000,4296.922852,4277.692383,4315.641113,4299.743652,4261.025879,4298.974121,4335.000000,4397.051270,4320.512695,4298.717773,4477.436035,4514.230957,4346.666504,4424.871582,1564.000000,1.000000,26.000000,,,,0.000000,2.000000,2.000000,0.000000,4.000000,2.000000,2.000000,0.000000,0.000000,4.000000,4.000000,4.000000,4.000000,4.000000,4.000000,0.000000,,,,,,,,,,,,,,,,,,,,,,,,,,,,
1732157044.928222,1732157044.928534,88.000000,0.000000,4298.205078,4276.666504,4319.615234,4294.615234,4280.769043,4297.692383,4335.256348,4398.589844,4316.153809,4295.384766,4477.563965,4523.205078,4348.846191,4425.897461,1691.000000,1.000000,26.000000,,,,0.000000,2.000000,2.000000,0.000000,4.000000,2.000000,2.000000,0.000000,0.000000,4.000000,4.000000,4.000000,4.000000,4.000000,4.000000,0.000000,,,,,,,,,,,,,,,,,22.000000,0.000000,0.505836,0.469116,-0.555725,0.463928,0.974728,-0.055183,-0.068856,-35.649323,45.563229,31.262650
1732157044.936030,1732157044.936342,89.000000,0.000000,4297.692383,4279.743652,4318.846191,4294.102539,4286.538574,4292.307617,4333.717773,4398.717773,4307.692383,4294.487305,4473.974121,4519.230957,4344.743652,4422.948730,1675.000000,1.000000,26.000000,,,,0.000000,2.000000,2.000000,0.000000,4.000000,2.000000,2.000000,0.000000,0.000000,4.000000,4.000000,4.000000,4.000000,4.000000,4.000000,0.000000,,,,,,,,,,,,,,,,,,,,,,,,,,,,
1732157044.943838,1732157044.943950,90.000000,0.000000,4293.589844,4280.128418,4316.025879,4295.769043,4276.794922,4295.512695,4332.692383,4397.051270,4303.589844,4296.025879,4472.563965,4509.230957,4342.692383,4416.666504,1534.000000,1.000000,26.000000,,,,0.000000,2.000000,2.000000,0.000000,4.000000,2.000000,2.000000,0.000000,0.000000,4.000000,4.000000,4.000000,4.000000,4.000000,4.000000,0.000000,,,,,,,,,,,,,,,,,,,,,,,,,,,,
1732157044.951647,1732157044.951759,91.000000,0.000000,4291.153809,4278.846191,4317.436035,4294.743652,4286.410156,4298.846191,4334.102539,4399.743652,4305.769043,4294.743652,4475.641113,4506.153809,4348.846191,4412.051270,1564.000000,1.000000,26.000000,,,,0.000000,2.000000,2.000000,0.000000,4.000000,2.000000,2.000000,0.000000,0.000000,4.000000,4.000000,4.000000,4.000000,4.000000,4.000000,0.000000,,,,,,,,,,,,,,,,,,,,,,,,,,,,
1732157044.959455,1732157044.959467,92.000000,0.000000,4292.179688,4280.128418,4317.692383,4296.538574,4305.384766,4294.743652,4334.743652,4401.794922,4312.051270,4295.897461,4476.153809,4510.256348,4353.333496,4415.000000,1691.000000,1.000000,26.000000,,,,0.000000,2.000000,2.000000,0.000000,4.000000,2.000000,2.000000,0.000000,0.000000,4.000000,4.000000,4.000000,4.000000,4.000000,4.000000,0.000000,,,,,,,,,,,,,,,,,23.000000,0.000000,0.505577,0.469238,-0.555603,0.464233,0.970333,-0.033696,-0.051276,-35.825951,45.491215,31.186081
1732157044.967263,1732157044.967275,93.000000,0.000000,4292.692383,4281.025879,4315.384766,4296.282227,4294.230957,4291.410156,4334.230957,4398.461426,4315.384766,4301.922852,4473.205078,4512.563965,4350.384766,4420.769043,1675.000000,1.000000,26.000000,,,,0.000000,2.000000,2.000000,0.000000,4.000000,2.000000,2.000000,0.000000,0.000000,4.000000,4.000000,4.000000,4.000000,4.000000,4.000000,0.000000,,,,,,,,,,,,,,,,,,,,,,,,,,,,
1732157044.975072,1732157044.974884,94.000000,0.000000,4294.871582,4280.256348,4314.871582,4296.282227,4271.153809,4297.820313,4335.256348,4397.692383,4312.563965,4302.436035,4472.436035,4510.512695,4351.025879,4421.025879,1534.000000,1.000000,26.000000,,,,0.000000,2.000000,2.000000,0.000000,4.000000,2.000000,2.000000,0.000000,0.000000,4.000000,4.000000,4.000000,4.000000,4.000000,4.000000,0.000000,,,,,,,,,,,,,,,,,,,,,,,,,,,,
1732157044.982880,1732157044.982692,95.000000,0.000000,4292.563965,4279.743652,4316.794922,4297.179688,4281.538574,4300.897461,4336.282227,4400.769043,4310.641113,4298.461426,4474.230957,4512.436035,4351.922852,4418.717773,1564.000000,1.000000,26.000000,,,,0.000000,2.000000,2.000000,0.000000,4.000000,2.000000,2.000000,0.000000,0.000000,4.000000,4.000000,4.000000,4.000000,4.000000,4.000000,0.000000,,,,,,,,,,,,,,,,,,,,,,,,,,,,
1732157044.990688,1732157044.990600,96.000000,0.000000,4282.307617,4279.358887,4315.256348,4299.871582,4294.743652,4294.102539,4335.769043,4400.128418,4312.692383,4300.000000,4473.077148,4521.410156,4350.256348,4416.025879,1691.000000,1.000000,26.000000,,,,0.000000,2.000000,2.000000,0.000000,4.000000,2.000000,2.000000,0.000000,0.000000,4.000000,4.000000,4.000000,4.000000,4.000000,4.000000,0.000000,,,,,,,,,,,,,,,,,24.000000,0.000000,0.505567,0.469177,-0.555664,0.464233,0.980100,-0.041997,-0.058113,-35.954021,45.442886,31.347391
1732157044.998496,1732157044.998408,97.000000,0.000000,4278.205078,4278.333496,4314.615234,4299.871582,4281.794922,4295.769043,4335.897461,4399.230957,4318.589844,4308.205078,4468.974121,4520.256348,4349.871582,4413.846191,1675.000000,1.000000,26.000000,,,,0.000000,2.000000,2.000000,0.000000,4.000000,2.000000,2.000000,0.000000,0.000000,4.000000,4.000000,4.000000,4.000000,4.000000,4.000000,0.000000,,,,,,,,,,,,,,,,,,,,,,,,,,,,
1732157045.006304,1732157045.006416,98.000000,0.000000,4287.307617,4277.820313,4314.615234,4296.538574,4271.025879,4300.641113,4336.666504,4401.153809,4322.307617,4311.794922,4465.000000,4508.205078,4348.846191,4412.179688,1534.000000,1.000000,26.000000,,,,0.000000,2.000000,2.000000,0.000000,4.000000,2.000000,2.000000,0.000000,0.000000,4.000000,4.000000,4.000000,4.000000,4.000000,4.000000,0.000000,,,,,,,,,,,,,,,,,,,,,,,,,,,,
1732157045.014113,1732157045.014224,99.000000,0.000000,4295.769043,4278.846191,4314.615234,4296.666504,4277.179688,4296.153809,4336.666504,4399.487305,4317.436035,4304.487305,4465.000000,4503.589844,4351.025879,4412.179688,1564.000000,1.000000,26.000000,,,,0.000000,2.000000,2.000000,0.000000,4.000000,2.000000,2.000000,0.000000,0.000000,4.000000,4.000000,4.000000,4.000000,4.000000,4.000000,0.000000,,,,,,,,,,,,,,,,,,,,,,,,,,,,
1732157045.021921,1732157045.022132,100.000000,0.000000,4294.871582,4278.205078,4315.769043,4297.692383,4290.512695,4291.794922,4336.282227,4396.538574,4310.897461,4297.436035,4469.102539,4508.077148,4354.743652,4415.897461,1691.000000,1.000000,26.000000,,,,0.000000,2.000000,2.000000,0.000000,4.000000,2.000000,2.000000,0.000000,0.000000,4.000000,4.000000,4.000000,4.000000,4.000000,4.000000,0.000000,,,,,,,,,,,,,,,,,25.000000,0.000000,0.505612,0.469177,-0.555725,0.464111,0.987914,-0.035161,-0.064461,-36.141090,45.408737,31.514721
1732157045.029729,1732157045.029941,101.000000,0.000000,4289.743652,4276.538574,4316.153809,4296.922852,4288.333496,4292.820313,4336.794922,4399.230957,4310.641113,4297.051270,4464.743652,4516.410156,4350.384766,4415.769043,1675.000000,1.000000,26.000000,,,,0.000000,2.000000,2.000000,0.000000,4.000000,2.000000,2.000000,0.000000,0.000000,4.000000,4.000000,4.000000,4.000000,4.000000,4.000000,0.000000,,,,,,,,,,,,,,,,,,,,,,,,,,,,
1732157045.037537,1732157045.037949,102.000000,0.000000,4283.846191,4277.948730,4314.743652,4296.153809,4271.538574,4293.589844,4335.897461,4399.871582,4310.897461,4297.948730,4456.282227,4517.820313,4339.102539,4406.666504,1534.000000,1.000000,26.000000,,,,0.000000,2.000000,2.000000,0.000000,4.000000,2.000000,2.000000,0.000000,0.000000,4.000000,4.000000,4.000000,4.000000,4.000000,4.000000,0.000000,,,,,,,,,,,,,,,,,,,,,,,,,,,,
1732157045.045346,1732157045.045757,103.000000,0.000000,4281.153809,4280.256348,4317.179688,4294.615234,4267.563965,4292.820313,4334.615234,4398.589844,4307.820313,4303.717773,4465.128418,4512.820313,4341.025879,4399.871582,1564.000000,1.000000,26.000000,,,,0.000000,2.000000,2.000000,0.000000,4.000000,2.000000,2.000000,0.000000,0.000000,4.000000,4.000000,4.000000,4.000000,4.000000,4.000000,0.000000,,,,,,,,,,,,,,,,,,,,,,,,,,,,
1732157045.053154,1732157045.053665,104.000000,0.000000,4285.512695,4280.897461,4320.000000,4297.051270,4284.615234,4296.538574,4335.897461,4399.102539,4310.512695,4312.820313,4482.820313,4514.871582,4356.410156,4402.820313,1691.000000,1.000000,26.000000,,,,0.000000,2.000000,2.000000,0.000000,4.000000,2.000000,2.000000,0.000000,0.000000,4.000000,4.000000,4.000000,4.000000,4.000000,4.000000,0.000000,,,,,,,,,,,,,,,,,26.000000,0.000000,0.505566,0.469238,-0.555664,0.464172,0.987914,-0.035161,-0.064461,-35.829281,45.552742,31.448589
1732157045.060962,1732157045.061473,105.000000,0.000000,4288.461426,4280.897461,4315.897461,4302.820313,4298.974121,4300.384766,4336.794922,4399.615234,4308.205078,4306.666504,4478.974121,4516.794922,4354.871582,4400.769043,1675.000000,1.000000,26.000000,,,,0.000000,2.000000,2.000000,0.000000,4.000000,2.000000,2.000000,0.000000,0.000000,4.000000,4.000000,4.000000,4.000000,4.000000,4.000000,0.000000,,,,,,,,,,,,,,,,,,,,,,,,,,,,
