title:2two, start timestamp:1732157116.053643, stop timestamp:1732157170.929977, headset type:EPOCX, headset serial:E5020C3A, headset firmware:730, channels:67, sampling rate:eeg_128;mot_32, samples:7029      , version:2.2, 
Timestamp,OriginalTimestamp,EEG.Counter,EEG.Interpolated,EEG.AF3,EEG.F7,EEG.F3,EEG.FC5,EEG.T7,EEG.P7,EEG.O1,EEG.O2,EEG.P8,EEG.T8,EEG.FC6,EEG.F4,EEG.F8,EEG.AF4,EEG.RawCq,EEG.Battery,EEG.BatteryPercent,MarkerIndex,MarkerType,MarkerValueInt,EEG.MarkerHardware,CQ.AF3,CQ.F7,CQ.F3,CQ.FC5,CQ.T7,CQ.P7,CQ.O1,CQ.O2,CQ.P8,CQ.T8,CQ.FC6,CQ.F4,CQ.F8,CQ.AF4,CQ.Overall,EQ.SampleRateQuality,EQ.OVERALL,EQ.AF3,EQ.F7,EQ.F3,EQ.FC5,EQ.T7,EQ.P7,EQ.O1,EQ.O2,EQ.P8,EQ.T8,EQ.FC6,EQ.F4,EQ.F8,EQ.AF4,MOT.CounterMems,MOT.InterpolatedMems,MOT.Q0,MOT.Q1,MOT.Q2,MOT.Q3,MOT.AccX,MOT.AccY,MOT.AccZ,MOT.MagX,MOT.MagY,MOT.MagZ
1732157116.053643,1732157116.055104,109.000000,0.000000,4294.743652,4267.563965,4315.000000,4298.205078,4279.487305,4287.820313,4331.666504,4396.410156,4311.922852,4295.256348,4477.436035,4508.461426,4352.563965,4411.922852,1681.000000,1.000000,25.000000,,,,0.000000,2.000000,2.000000,0.000000,4.000000,2.000000,2.000000,0.000000,0.000000,4.000000,4.000000,4.000000,4.000000,4.000000,4.000000,0.000000,,,,,,,,,,,,,,,,,,,,,,,,,,,,
1732157116.061451,1732157116.063112,110.000000,0.000000,4297.820313,4265.769043,4315.769043,4298.077148,4277.820313,4280.128418,4336.025879,4396.153809,4311.025879,4288.461426,4473.717773,4508.717773,4350.897461,4412.307617,1526.000000,1.000000,25.000000,,,,0.000000,2.000000,2.000000,0.000000,4.000000,2.000000,2.000000,0.000000,0.000000,4.000000,4.000000,4.000000,4.000000,4.000000,4.000000,0.000000,,,,,,,,,,,,,,,,,,,,,,,,,,,,
1732157116.069259,1732157116.070920,111.000000,0.000000,4297.820313,4265.256348,4317.179688,4300.897461,4279.487305,4280.512695,4336.025879,4396.666504,4309.487305,4284.487305,4469.743652,4511.025879,4343.077148,4412.692383,1573.000000,1.000000,25.000000,,,,0.000000,2.000000,2.000000,0.000000,4.000000,2.000000,2.000000,0.000000,0.000000,4.000000,4.000000,4.000000,4.000000,4.000000,4.000000,0.000000,,,,,,,,,,,,,,,,,,,,,,,,,,,,
1732157116.077068,1732157116.078828,112.000000,0.000000,4296.410156,4267.179688,4316.282227,4302.820313,4282.051270,4286.410156,4331.538574,4398.717773,4310.000000,4291.922852,4475.769043,4516.025879,4346.282227,4415.000000,1700.000000,1.000000,25.000000,,,,0.000000,2.000000,2.000000,0.000000,4.000000,2.000000,2.000000,0.000000,0.000000,4.000000,4.000000,4.000000,4.000000,4.000000,4.000000,0.000000,,,,,,,,,,,,,,,,,28.000000,0.000000,0.516904,0.500793,-0.526489,0.452576,0.985472,0.031254,-0.048346,-34.861126,45.900696,30.987604
1732157116.084876,1732157116.086636,113.000000,0.000000,4296.922852,4266.922852,4314.487305,4303.461426,4278.974121,4288.205078,4332.051270,4399.615234,4310.897461,4289.743652,4478.461426,4512.307617,4352.820313,4414.487305,1681.000000,1.000000,25.000000,,,,0.000000,2.000000,2.000000,0.000000,4.000000,2.000000,2.000000,0.000000,0.000000,4.000000,4.000000,4.000000,4.000000,4.000000,4.000000,0.000000,,,,,,,,,,,,,,,,,,,,,,,,,,,,
1732157116.092684,1732157116.094644,114.000000,0.000000,4297.563965,4264.487305,4313.205078,4301.794922,4278.717773,4288.205078,4333.974121,4398.974121,4308.717773,4278.717773,4474.358887,4505.897461,4351.025879,4415.641113,1526.000000,1.000000,25.000000,,,,0.000000,2.000000,2.000000,0.000000,4.000000,2.000000,2.000000,0.000000,0.000000,4.000000,4.000000,4.000000,4.000000,4.000000,4.000000,0.000000,,,,,,,,,,,,,,,,,,,,,,,,,,,,
1732157116.100492,1732157116.102452,115.000000,0.000000,4295.128418,4264.358887,4314.743652,4295.641113,4280.512695,4287.692383,4333.589844,4398.333496,4307.948730,4278.846191,4473.077148,4506.794922,4349.487305,4416.282227,1573.000000,1.000000,25.000000,,,,0.000000,2.000000,2.000000,0.000000,4.000000,2.000000,2.000000,0.000000,0.000000,4.000000,4.000000,4.000000,4.000000,4.000000,4.000000,0.000000,,,,,,,,,,,,,,,,,,,,,,,,,,,,
1732157116.108301,1732157116.110360,116.000000,0.000000,4290.769043,4265.641113,4316.538574,4292.948730,4277.051270,4289.358887,4333.333496,4398.077148,4311.922852,4283.846191,4473.461426,4508.077148,4351.282227,4413.077148,1700.000000,1.000000,25.000000,,,,0.000000,2.000000,2.000000,0.000000,4.000000,2.000000,2.000000,0.000000,0.000000,4.000000,4.000000,4.000000,4.000000,4.000000,4.000000,0.000000,,,,,,,,,,,,,,,,,29.000000,0.000000,0.516617,0.500916,-0.526550,0.452698,0.985472,0.031254,-0.048346,-34.824177,45.666229,30.989960
1732157116.116109,1732157116.118169,117.000000,0.000000,4289.487305,4265.769043,4313.589844,4293.974121,4285.897461,4290.512695,4332.563965,4398.077148,4313.077148,4282.051270,4473.077148,4503.589844,4351.410156,4412.179688,1681.000000,1.000000,25.000000,,,,0.000000,2.000000,2.000000,0.000000,4.000000,2.000000,2.000000,0.000000,0.000000,4.000000,4.000000,4.000000,4.000000,4.000000,4.000000,0.000000,,,,,,,,,,,,,,,,,,,,,,,,,,,,
1732157116.123917,1732157116.126177,118.000000,0.000000,4293.333496,4265.769043,4313.589844,4292.563965,4294.743652,4287.436035,4333.717773,4398.205078,4311.922852,4281.794922,4472.948730,4504.615234,4351.410156,4412.563965,1526.000000,1.000000,25.000000,,,,0.000000,2.000000,2.000000,0.000000,4.000000,2.000000,2.000000,0.000000,0.000000,4.000000,4.000000,4.000000,4.000000,4.000000,4.000000,0.000000,,,,,,,,,,,,,,,,,,,,,,,,,,,,
1732157116.131725,1732157116.133985,119.000000,0.000000,4294.230957,4265.641113,4314.230957,4294.871582,4276.922852,4282.051270,4334.230957,4396.922852,4313.205078,4281.794922,4471.794922,4509.743652,4349.743652,4410.256348,1573.000000,1.000000,25.000000,,,,0.000000,2.000000,2.000000,0.000000,4.000000,2.000000,2.000000,0.000000,0.000000,4.000000,4.000000,4.000000,4.000000,4.000000,4.000000,0.000000,,,,,,,,,,,,,,,,,,,,,,,,,,,,
1732157116.139534,1732157116.141693,120.000000,0.000000,4291.410156,4265.897461,4314.230957,4297.307617,4258.333496,4281.666504,4332.563965,4397.436035,4307.948730,4279.615234,4474.102539,4507.307617,4348.461426,4412.563965,1700.000000,1.000000,25.000000,,,,0.000000,2.000000,2.000000,0.000000,4.000000,2.000000,2.000000,0.000000,0.000000,4.000000,4.000000,4.000000,4.000000,4.000000,4.000000,0.000000,,,,,,,,,,,,,,,,,30.000000,0.000000,0.516018,0.501221,-0.526794,0.452759,0.963985,0.038091,-0.051276,-34.877586,45.709644,31.025202
1732157116.147342,1732157116.149501,121.000000,0.000000,4292.179688,4266.282227,4315.256348,4298.077148,4270.769043,4285.384766,4332.820313,4399.230957,4299.871582,4278.205078,4476.538574,4502.820313,4350.641113,4412.051270,1681.000000,1.000000,25.000000,,,,0.000000,2.000000,2.000000,0.000000,4.000000,2.000000,2.000000,0.000000,0.000000,4.000000,4.000000,4.000000,4.000000,4.000000,4.000000,0.000000,,,,,,,,,,,,,,,,,,,,,,,,,,,,
1732157116.155150,1732157116.157110,122.000000,0.000000,4294.230957,4266.922852,4314.871582,4300.000000,4293.077148,4285.769043,4332.051270,4397.692383,4301.153809,4277.436035,4473.333496,4502.563965,4351.153809,4405.256348,1526.000000,1.000000,25.000000,,,,0.000000,2.000000,2.000000,0.000000,4.000000,2.000000,2.000000,0.000000,0.000000,4.000000,4.000000,4.000000,4.000000,4.000000,4.000000,0.000000,,,,,,,,,,,,,,,,,,,,,,,,,,,,
1732157116.162958,1732157116.164918,123.000000,0.000000,4294.487305,4267.820313,4311.922852,4301.282227,4287.436035,4282.820313,4330.384766,4396.025879,4304.743652,4277.948730,4473.589844,4504.871582,4350.641113,4407.051270,1573.000000,1.000000,25.000000,,,,0.000000,2.000000,2.000000,0.000000,4.000000,2.000000,2.000000,0.000000,0.000000,4.000000,4.000000,4.000000,4.000000,4.000000,4.000000,0.000000,,,,,,,,,,,,,,,,,,,,,,,,,,,,
1732157116.170766,1732157116.172626,124.000000,0.000000,4295.128418,4268.205078,4312.820313,4301.153809,4267.692383,4280.897461,4330.641113,4396.794922,4303.333496,4279.358887,4477.436035,4504.230957,4351.153809,4414.615234,1700.000000,1.000000,25.000000,,,,0.000000,2.000000,2.000000,0.000000,4.000000,2.000000,2.000000,0.000000,0.000000,4.000000,4.000000,4.000000,4.000000,4.000000,4.000000,0.000000,,,,,,,,,,,,,,,,,31.000000,0.000000,0.515772,0.501465,-0.526855,0.452698,0.974728,0.042486,-0.055671,-34.607510,45.838146,31.227079
1732157116.178575,1732157116.180435,125.000000,0.000000,4298.974121,4266.538574,4315.897461,4301.410156,4261.153809,4281.922852,4331.538574,4397.307617,4306.410156,4281.153809,4477.692383,4505.128418,4351.538574,4414.743652,1681.000000,1.000000,25.000000,,,,0.000000,2.000000,2.000000,0.000000,4.000000,2.000000,2.000000,0.000000,0.000000,4.000000,4.000000,4.000000,4.000000,4.000000,4.000000,0.000000,,,,,,,,,,,,,,,,,,,,,,,,,,,,
1732157116.186383,1732157116.188043,126.000000,0.000000,4304.102539,4264.871582,4316.153809,4303.461426,4266.922852,4282.179688,4331.410156,4396.794922,4312.563965,4282.051270,4476.922852,4508.974121,4351.794922,4412.436035,1526.000000,1.000000,25.000000,,,,0.000000,2.000000,2.000000,0.000000,4.000000,2.000000,2.000000,0.000000,0.000000,4.000000,4.000000,4.000000,4.000000,4.000000,4.000000,0.000000,,,,,,,,,,,,,,,,,,,,,,,,,,,,
1732157116.194191,1732157116.195851,127.000000,0.000000,4303.333496,4266.153809,4315.384766,4304.230957,4272.307617,4281.025879,4331.922852,4398.333496,4312.436035,4285.641113,4477.692383,4508.589844,4351.538574,4413.589844,25.000000,1.000000,25.000000,,,,0.000000,2.000000,2.000000,0.000000,4.000000,2.000000,2.000000,0.000000,0.000000,4.000000,4.000000,4.000000,4.000000,4.000000,4.000000,0.000000,,,,,,,,,,,,,,,,,,,,,,,,,,,,
1732157116.202000,1732157116.203559,0.000000,0.000000,4299.487305,4267.563965,4315.000000,4302.436035,4275.897461,4281.922852,4332.179688,4398.333496,4313.205078,4292.820313,4476.666504,4507.563965,4348.205078,4413.461426,0.000000,1.000000,25.000000,,,,0.000000,2.000000,2.000000,0.000000,4.000000,2.000000,2.000000,0.000000,0.000000,4.000000,4.000000,4.000000,4.000000,4.000000,4.000000,0.000000,,,,,,,,,,,,,,,,,0.000000,0.000000,0.515577,0.501648,-0.526978,0.452576,0.974728,0.042486,-0.055671,-34.333752,45.488899,31.468935
1732157116.209808,1732157116.211368,1.000000,0.000000,4299.615234,4266.538574,4314.871582,4302.051270,4276.922852,4281.025879,4332.563965,4396.666504,4314.102539,4291.410156,4474.230957,4508.205078,4345.128418,4413.589844,1586.000000,1.000000,25.000000,,,,0.000000,2.000000,2.000000,0.000000,4.000000,2.000000,2.000000,0.000000,0.000000,4.000000,4.000000,4.000000,4.000000,4.000000,4.000000,0.000000,,,,,,,,,,,,,,,,,,,,,,,,,,,,
1732157116.217616,1732157116.218976,2.000000,0.000000,4299.358887,4265.384766,4313.461426,4304.230957,4273.717773,4280.000000,4333.205078,4398.461426,4307.563965,4282.948730,4474.358887,4504.615234,4342.820313,4413.077148,1391.000000,1.000000,25.000000,,,,0.000000,2.000000,2.000000,0.000000,4.000000,2.000000,2.000000,0.000000,0.000000,4.000000,4.000000,4.000000,4.000000,4.000000,4.000000,0.000000,,,,,,,,,,,,,,,,,,,,,,,,,,,,
1732157116.225424,1732157116.226784,3.000000,0.000000,4293.589844,4265.512695,4313.461426,4300.384766,4279.358887,4281.153809,4330.128418,4399.230957,4301.153809,4280.128418,4474.615234,4498.205078,4341.282227,4410.512695,1414.000000,1.000000,25.000000,,,,0.000000,2.000000,2.000000,0.000000,4.000000,2.000000,2.000000,0.000000,0.000000,4.000000,4.000000,4.000000,4.000000,4.000000,4.000000,0.000000,,,,,,,,,,,,,,,,,,,,,,,,,,,,
1732157116.233233,1732157116.234692,4.000000,0.000000,4291.025879,4266.282227,4316.153809,4294.358887,4280.769043,4282.692383,4328.333496,4396.794922,4301.922852,4282.692383,4474.358887,4498.589844,4346.410156,4412.436035,1411.000000,1.000000,25.000000,,,,0.000000,2.000000,2.000000,0.000000,4.000000,2.000000,2.000000,0.000000,0.000000,4.000000,4.000000,4.000000,4.000000,4.000000,4.000000,0.000000,,,,,,,,,,,,,,,,,1.000000,0.000000,0.514457,0.503052,-0.526733,0.452576,0.976193,0.040044,-0.070809,-34.495338,45.346008,31.363171
1732157116.241041,1732157116.242501,5.000000,0.000000,4293.461426,4265.512695,4314.743652,4295.512695,4272.307617,4283.461426,4328.717773,4397.307617,4304.230957,4282.436035,4475.128418,4503.846191,4349.615234,4414.230957,1234.000000,1.000000,25.000000,,,,0.000000,2.000000,2.000000,0.000000,4.000000,2.000000,2.000000,0.000000,0.000000,4.000000,4.000000,4.000000,4.000000,4.000000,4.000000,0.000000,,,,,,,,,,,,,,,,,,,,,,,,,,,,
1732157116.248849,1732157116.250509,6.000000,0.000000,4289.743652,4263.461426,4311.025879,4294.871582,4284.615234,4281.922852,4328.846191,4399.102539,4305.384766,4281.538574,4476.025879,4496.666504,4343.077148,4411.282227,0.000000,1.000000,25.000000,,,,0.000000,2.000000,2.000000,0.000000,4.000000,2.000000,2.000000,0.000000,0.000000,4.000000,4.000000,4.000000,4.000000,4.000000,4.000000,0.000000,,,,,,,,,,,,,,,,,,,,,,,,,,,,
1732157116.256657,1732157116.258317,7.000000,0.000000,4285.641113,4262.692383,4312.692383,4292.563965,4293.589844,4282.948730,4329.230957,4397.948730,4309.358887,4282.436035,4466.410156,4491.410156,4337.051270,4409.743652,0.000000,1.000000,25.000000,,,,0.000000,2.000000,2.000000,0.000000,4.000000,2.000000,2.000000,0.000000,0.000000,4.000000,4.000000,4.000000,4.000000,4.000000,4.000000,0.000000,,,,,,,,,,,,,,,,,,,,,,,,,,,,
1732157116.264465,1732157116.266025,8.000000,0.000000,4290.128418,4262.307617,4313.589844,4293.333496,4271.025879,4288.077148,4331.538574,4397.692383,4311.666504,4281.025879,4456.922852,4501.025879,4336.666504,4412.179688,1521.000000,1.000000,25.000000,,,,0.000000,2.000000,2.000000,0.000000,4.000000,2.000000,2.000000,0.000000,0.000000,4.000000,4.000000,4.000000,4.000000,4.000000,4.000000,0.000000,,,,,,,,,,,,,,,,,2.000000,0.000000,0.513459,0.503906,-0.526733,0.452759,0.980588,0.032719,-0.060554,-34.617889,45.351933,31.262501
1732157116.272274,1732157116.273833,9.000000,0.000000,4295.512695,4260.641113,4310.641113,4295.512695,4254.871582,4288.077148,4331.922852,4399.102539,4310.128418,4280.769043,4466.025879,4508.974121,4333.846191,4413.589844,1671.000000,1.000000,25.000000,,,,0.000000,2.000000,2.000000,0.000000,4.000000,2.000000,2.000000,0.000000,0.000000,4.000000,4.000000,4.000000,4.000000,4.000000,4.000000,0.000000,,,,,,,,,,,,,,,,,,,,,,,,,,,,
1732157116.280082,1732157116.281442,10.000000,0.000000,4297.820313,4261.410156,4311.025879,4296.922852,4265.384766,4281.282227,4331.410156,4399.230957,4308.077148,4287.051270,4478.717773,4507.692383,4336.410156,4414.102539,1526.000000,1.000000,25.000000,,,,0.000000,2.000000,2.000000,0.000000,4.000000,2.000000,2.000000,0.000000,0.000000,4.000000,4.000000,4.000000,4.000000,4.000000,4.000000,0.000000,,,,,,,,,,,,,,,,,,,,,,,,,,,,
1732157116.287890,1732157116.289250,11.000000,0.000000,4303.077148,4263.974121,4313.974121,4296.410156,4270.384766,4278.077148,4332.436035,4398.333496,4310.384766,4294.615234,4477.820313,4506.794922,4347.948730,4414.615234,1573.000000,1.000000,25.000000,,,,0.000000,2.000000,2.000000,0.000000,4.000000,2.000000,2.000000,0.000000,0.000000,4.000000,4.000000,4.000000,4.000000,4.000000,4.000000,0.000000,,,,,,,,,,,,,,,,,,,,,,,,,,,,
1732157116.295699,1732157116.296958,12.000000,0.000000,4306.025879,4265.256348,4315.512695,4298.717773,4261.794922,4280.128418,4335.256348,4398.077148,4310.512695,4296.153809,4475.128418,4508.461426,4349.358887,4414.871582,1686.000000,1.000000,25.000000,,,,0.000000,2.000000,2.000000,0.000000,4.000000,2.000000,2.000000,0.000000,0.000000,4.000000,4.000000,4.000000,4.000000,4.000000,4.000000,0.000000,,,,,,,,,,,,,,,,,3.000000,0.000000,0.513459,0.503906,-0.526733,0.452759,0.977170,0.033207,-0.070809,-34.732159,45.371731,31.120958
1732157116.303507,1732157116.304766,13.000000,0.000000,4298.846191,4264.871582,4314.358887,4299.487305,4266.153809,4281.025879,4334.487305,4400.256348,4302.692383,4291.538574,4478.077148,4504.615234,4342.563965,4414.102539,1671.000000,1.000000,25.000000,,,,0.000000,2.000000,2.000000,0.000000,4.000000,2.000000,2.000000,0.000000,0.000000,4.000000,4.000000,4.000000,4.000000,4.000000,4.000000,0.000000,,,,,,,,,,,,,,,,,,,,,,,,,,,,
1732157116.311315,1732157116.312774,14.000000,0.000000,4297.563965,4264.615234,4314.743652,4298.846191,4284.230957,4279.871582,4328.333496,4398.846191,4301.538574,4289.230957,4473.589844,4502.692383,4341.794922,4414.743652,1526.000000,1.000000,25.000000,,,,0.000000,2.000000,2.000000,0.000000,4.000000,2.000000,2.000000,0.000000,0.000000,4.000000,4.000000,4.000000,4.000000,4.000000,4.000000,0.000000,1.000000,0.000000,2.000000,2.000000,0.000000,4.000000,2.000000,2.000000,0.000000,0.000000,4.000000,4.000000,4.000000,4.000000,4.000000,4.000000,,,,,,,,,,,,
1732157116.319123,1732157116.320583,15.000000,0.000000,4303.974121,4265.128418,4315.641113,4301.922852,4286.410156,4278.717773,4328.717773,4397.948730,4311.410156,4294.487305,4469.871582,4507.820313,4341.538574,4416.922852,1573.000000,1.000000,25.000000,,,,0.000000,2.000000,2.000000,0.000000,4.000000,2.000000,2.000000,0.000000,0.000000,4.000000,4.000000,4.000000,4.000000,4.000000,4.000000,0.000000,,,,,,,,,,,,,,,,,,,,,,,,,,,,
1732157116.326931,1732157116.328491,16.000000,0.000000,4301.025879,4265.512695,4312.820313,4300.897461,4267.563965,4279.871582,4336.282227,4401.282227,4315.897461,4298.717773,4477.820313,4508.333496,4340.641113,4415.897461,0.000000,1.000000,25.000000,,,,0.000000,2.000000,2.000000,0.000000,4.000000,2.000000,2.000000,0.000000,0.000000,4.000000,4.000000,4.000000,4.000000,4.000000,4.000000,0.000000,,,,,,,,,,,,,,,,,4.000000,0.000000,0.512347,0.504517,-0.526917,0.453125,0.966915,0.014650,-0.068368,-34.624714,45.396103,30.844645
1732157116.334740,1732157116.336299,17.000000,0.000000,4294.871582,4266.025879,4311.538574,4297.563965,4260.769043,4282.563965,4335.897461,4401.025879,4310.512695,4295.256348,4483.333496,4500.512695,4347.051270,4414.487305,0.000000,1.000000,25.000000,,,,0.000000,2.000000,2.000000,0.000000,4.000000,2.000000,2.000000,0.000000,0.000000,4.000000,4.000000,4.000000,4.000000,4.000000,4.000000,0.000000,,,,,,,,,,,,,,,,,,,,,,,,,,,,
1732157116.342548,1732157116.344307,18.000000,0.000000,4297.307617,4266.538574,4314.102539,4299.358887,4272.563965,4281.410156,4328.077148,4396.666504,4308.461426,4292.820313,4480.384766,4497.563965,4352.179688,4417.179688,0.000000,1.000000,25.000000,,,,0.000000,2.000000,2.000000,0.000000,4.000000,2.000000,2.000000,0.000000,0.000000,4.000000,4.000000,4.000000,4.000000,4.000000,4.000000,0.000000,,,,,,,,,,,,,,,,,,,,,,,,,,,,
1732157116.350356,1732157116.352115,19.000000,0.000000,4300.128418,4266.025879,4315.256348,4300.897461,4278.589844,4279.487305,4330.256348,4397.692383,4312.436035,4295.128418,4477.051270,4506.025879,4348.974121,4418.205078,0.000000,1.000000,25.000000,,,,0.000000,2.000000,2.000000,0.000000,4.000000,2.000000,2.000000,0.000000,0.000000,4.000000,4.000000,4.000000,4.000000,4.000000,4.000000,0.000000,,,,,,,,,,,,,,,,,,,,,,,,,,,,
1732157116.358164,1732157116.360023,20.000000,0.000000,4296.282227,4265.769043,4314.743652,4295.769043,4276.025879,4279.358887,4335.128418,4400.256348,4307.948730,4294.743652,4477.436035,4506.922852,4347.948730,4415.641113,0.000000,1.000000,25.000000,,,,0.000000,2.000000,2.000000,0.000000,4.000000,2.000000,2.000000,0.000000,0.000000,4.000000,4.000000,4.000000,4.000000,4.000000,4.000000,0.000000,,,,,,,,,,,,,,,,,5.000000,0.000000,0.511739,0.504761,-0.527222,0.453186,0.977170,0.035161,-0.067879,-34.534351,45.325844,30.897495
1732157116.365973,1732157116.367832,21.000000,0.000000,4295.256348,4265.128418,4314.358887,4293.333496,4267.692383,4279.102539,4328.717773,4397.948730,4300.512695,4292.820313,4477.563965,4496.794922,4350.512695,4413.589844,0.000000,1.000000,25.000000,,,,0.000000,2.000000,2.000000,0.000000,4.000000,2.000000,2.000000,0.000000,0.000000,4.000000,4.000000,4.000000,4.000000,4.000000,4.000000,0.000000,,,,,,,,,,,,,,,,,,,,,,,,,,,,
1732157116.373781,1732157116.375440,22.000000,0.000000,4298.846191,4264.358887,4315.384766,4298.461426,4265.384766,4278.974121,4325.256348,4396.922852,4304.102539,4292.820313,4476.282227,4497.307617,4350.256348,4412.051270,0.000000,1.000000,25.000000,,,,0.000000,2.000000,2.000000,0.000000,4.000000,2.000000,2.000000,0.000000,0.000000,4.000000,4.000000,4.000000,4.000000,4.000000,4.000000,0.000000,,,,,,,,,,,,,,,,,,,,,,,,,,,,
1732157116.381589,1732157116.383248,23.000000,0.000000,4297.820313,4264.358887,4319.871582,4303.846191,4277.051270,4278.589844,4330.769043,4398.717773,4312.051270,4293.205078,4475.641113,4505.641113,4348.846191,4410.256348,0.000000,1.000000,25.000000,,,,0.000000,2.000000,2.000000,0.000000,4.000000,2.000000,2.000000,0.000000,0.000000,4.000000,4.000000,4.000000,4.000000,4.000000,4.000000,0.000000,,,,,,,,,,,,,,,,,,,,,,,,,,,,
1732157116.389397,1732157116.391156,24.000000,0.000000,4295.128418,4265.000000,4320.256348,4305.769043,4272.948730,4278.333496,4334.358887,4399.358887,4309.871582,4295.128418,4477.436035,4505.897461,4350.384766,4411.538574,0.000000,1.000000,25.000000,,,,0.000000,2.000000,2.000000,0.000000,4.000000,2.000000,2.000000,0.000000,0.000000,4.000000,4.000000,4.000000,4.000000,4.000000,4.000000,0.000000,,,,,,,,,,,,,,,,,6.000000,0.000000,0.511410,0.505066,-0.527039,0.453430,0.974728,0.034672,-0.066903,-34.434490,45.358932,30.825304
1732157116.397206,1732157116.398964,25.000000,0.000000,4293.846191,4265.512695,4317.436035,4301.794922,4266.410156,4280.000000,4336.153809,4398.717773,4304.102539,4295.512695,4478.717773,4502.948730,4351.794922,4412.820313,0.000000,1.000000,25.000000,,,,0.000000,2.000000,2.000000,0.000000,4.000000,2.000000,2.000000,0.000000,0.000000,4.000000,4.000000,4.000000,4.000000,4.000000,4.000000,0.000000,,,,,,,,,,,,,,,,,,,,,,,,,,,,
1732157116.405014,1732157116.406972,26.000000,0.000000,4295.641113,4266.282227,4319.615234,4302.051270,4289.615234,4279.871582,4333.205078,4396.538574,4297.692383,4292.436035,4476.025879,4505.256348,4349.615234,4416.153809,0.000000,1.000000,25.000000,,,,0.000000,2.000000,2.000000,0.000000,4.000000,2.000000,2.000000,0.000000,0.000000,4.000000,4.000000,4.000000,4.000000,4.000000,4.000000,0.000000,,,,,,,,,,,,,,,,,,,,,,,,,,,,
1732157116.412822,1732157116.414781,27.000000,0.000000,4300.897461,4267.179688,4318.461426,4308.461426,4296.282227,4278.461426,4326.922852,4396.153809,4293.333496,4291.922852,4476.666504,4507.563965,4349.102539,4421.666504,0.000000,1.000000,25.000000,,,,0.000000,2.000000,2.000000,0.000000,4.000000,2.000000,2.000000,0.000000,0.000000,4.000000,4.000000,4.000000,4.000000,4.000000,4.000000,0.000000,,,,,,,,,,,,,,,,,,,,,,,,,,,,
1732157116.420630,1732157116.422689,28.000000,0.000000,4304.615234,4267.051270,4313.974121,4310.128418,4267.948730,4280.769043,4329.230957,4397.307617,4300.128418,4294.871582,4480.897461,4507.051270,4350.384766,4423.461426,0.000000,1.000000,25.000000,,,,0.000000,2.000000,2.000000,0.000000,4.000000,2.000000,2.000000,0.000000,0.000000,4.000000,4.000000,4.000000,4.000000,4.000000,4.000000,0.000000,,,,,,,,,,,,,,,,,7.000000,0.000000,0.511410,0.505066,-0.527039,0.453430,0.974728,0.034672,-0.066903,-34.353603,45.385735,30.571829
1732157116.428439,1732157116.430497,29.000000,0.000000,4302.948730,4266.025879,4315.128418,4307.563965,4258.717773,4282.051270,4330.641113,4397.820313,4305.384766,4296.410156,4477.179688,4507.563965,4349.743652,4419.871582,0.000000,1.000000,25.000000,,,,0.000000,2.000000,2.000000,0.000000,4.000000,2.000000,2.000000,0.000000,0.000000,4.000000,4.000000,4.000000,4.000000,4.000000,4.000000,0.000000,,,,,,,,,,,,,,,,,,,,,,,,,,,,
1732157116.436247,1732157116.438505,30.000000,0.000000,4301.025879,4263.974121,4317.692383,4303.333496,4274.358887,4279.615234,4326.282227,4398.077148,4299.102539,4298.077148,4472.436035,4506.538574,4350.512695,4414.743652,0.000000,1.000000,25.000000,,,,0.000000,2.000000,2.000000,0.000000,4.000000,2.000000,2.000000,0.000000,0.000000,4.000000,4.000000,4.000000,4.000000,4.000000,4.000000,0.000000,,,,,,,,,,,,,,,,,,,,,,,,,,,,
1732157116.444055,1732157116.446313,31.000000,0.000000,4302.820313,4262.051270,4314.871582,4299.358887,4278.077148,4278.717773,4330.769043,4397.820313,4293.974121,4299.615234,4481.538574,4501.794922,4352.436035,4415.512695,0.000000,1.000000,25.000000,,,,0.000000,2.000000,2.000000,0.000000,4.000000,2.000000,2.000000,0.000000,0.000000,4.000000,4.000000,4.000000,4.000000,4.000000,4.000000,0.000000,,,,,,,,,,,,,,,,,,,,,,,,,,,,
1732157116.451863,1732157116.454221,32.000000,0.000000,4302.948730,4262.948730,4312.307617,4298.333496,4275.897461,4280.000000,4334.102539,4397.051270,4294.487305,4297.307617,4490.641113,4496.410156,4349.487305,4418.205078,0.000000,1.000000,25.000000,,,,0.000000,2.000000,2.000000,0.000000,4.000000,2.000000,2.000000,0.000000,0.000000,4.000000,4.000000,4.000000,4.000000,4.000000,4.000000,0.000000,,,,,,,,,,,,,,,,,8.000000,0.000000,0.511247,0.505066,-0.527039,0.453613,0.970822,0.018069,-0.057136,-34.608086,45.740780,30.516516
1732157116.459672,1732157116.462030,33.000000,0.000000,4302.563965,4265.256348,4316.025879,4302.563965,4280.128418,4279.743652,4329.487305,4397.051270,4297.820313,4295.897461,4483.333496,4495.000000,4348.974121,4416.282227,0.000000,1.000000,25.000000,,,,0.000000,2.000000,2.000000,0.000000,4.000000,2.000000,2.000000,0.000000,0.000000,4.000000,4.000000,4.000000,4.000000,4.000000,4.000000,0.000000,,,,,,,,,,,,,,,,,,,,,,,,,,,,
1732157116.467480,1732157116.470038,34.000000,0.000000,4303.846191,4266.025879,4317.179688,4306.282227,4281.153809,4280.256348,4330.384766,4396.410156,4298.077148,4297.820313,4475.641113,4492.948730,4351.025879,4413.717773,0.000000,1.000000,25.000000,,,,0.000000,2.000000,2.000000,0.000000,4.000000,2.000000,2.000000,0.000000,0.000000,4.000000,4.000000,4.000000,4.000000,4.000000,4.000000,0.000000,,,,,,,,,,,,,,,,,,,,,,,,,,,,
1732157116.475288,1732157116.477846,35.000000,0.000000,4304.615234,4264.743652,4312.307617,4304.871582,4282.051270,4281.025879,4332.307617,4396.282227,4293.717773,4294.871582,4475.512695,4490.128418,4345.256348,4413.333496,0.000000,1.000000,25.000000,,,,0.000000,2.000000,2.000000,0.000000,4.000000,2.000000,2.000000,0.000000,0.000000,4.000000,4.000000,4.000000,4.000000,4.000000,4.000000,0.000000,,,,,,,,,,,,,,,,,,,,,,,,,,,,
1732157116.483096,1732157116.485754,36.000000,0.000000,4305.128418,4263.589844,4311.282227,4306.538574,4285.769043,4280.769043,4329.871582,4398.717773,4300.128418,4293.717773,4473.974121,4499.871582,4342.179688,4412.692383,0.000000,1.000000,25.000000,,,,0.000000,2.000000,2.000000,0.000000,4.000000,2.000000,2.000000,0.000000,0.000000,4.000000,4.000000,4.000000,4.000000,4.000000,4.000000,0.000000,,,,,,,,,,,,,,,,,9.000000,0.000000,0.512020,0.504456,-0.526978,0.453491,0.987914,0.065926,-0.054694,-34.992550,45.878365,30.638378
1732157116.490904,1732157116.493562,37.000000,0.000000,4307.563965,4263.846191,4317.051270,4308.846191,4290.384766,4282.051270,4330.000000,4398.846191,4312.563965,4302.692383,4479.743652,4508.846191,4350.000000,4414.230957,0.000000,1.000000,25.000000,,,,0.000000,2.000000,2.000000,0.000000,4.000000,2.000000,2.000000,0.000000,0.000000,4.000000,4.000000,4.000000,4.000000,4.000000,4.000000,0.000000,,,,,,,,,,,,,,,,,,,,,,,,,,,,
1732157116.498713,1732157116.501570,38.000000,0.000000,4309.102539,4262.692383,4317.436035,4310.256348,4290.769043,4282.307617,4329.615234,4395.128418,4307.179688,4306.410156,4486.538574,4497.820313,4352.051270,4416.282227,0.000000,1.000000,25.000000,,,,0.000000,2.000000,2.000000,0.000000,4.000000,2.000000,2.000000,0.000000,0.000000,4.000000,4.000000,4.000000,4.000000,4.000000,4.000000,0.000000,,,,,,,,,,,,,,,,,,,,,,,,,,,,
1732157116.506521,1732157116.509378,39.000000,0.000000,4305.384766,4263.077148,4312.436035,4308.974121,4288.589844,4282.307617,4327.820313,4396.794922,4297.436035,4298.589844,4481.794922,4491.794922,4342.948730,4411.922852,0.000000,1.000000,25.000000,,,,0.000000,2.000000,2.000000,0.000000,4.000000,2.000000,2.000000,0.000000,0.000000,4.000000,4.000000,4.000000,4.000000,4.000000,4.000000,0.000000,,,,,,,,,,,,,,,,,,,,,,,,,,,,
1732157116.514329,1732157116.517087,40.000000,0.000000,4302.436035,4263.077148,4313.461426,4300.128418,4299.743652,4280.897461,4328.077148,4399.871582,4301.538574,4294.615234,4477.436035,4500.384766,4341.410156,4409.102539,0.000000,1.000000,25.000000,,,,0.000000,2.000000,2.000000,0.000000,4.000000,2.000000,2.000000,0.000000,0.000000,4.000000,4.000000,4.000000,4.000000,4.000000,4.000000,0.000000,,,,,,,,,,,,,,,,,10.000000,0.000000,0.512365,0.504517,-0.526794,0.453247,0.987914,0.065926,-0.054694,-35.100632,45.836475,30.657085
1732157116.522138,1732157116.524895,41.000000,0.000000,4301.025879,4256.794922,4313.846191,4295.256348,4304.871582,4281.153809,4327.307617,4396.025879,4306.538574,4298.333496,4478.333496,4497.436035,4347.820313,4412.179688,0.000000,1.000000,25.000000,,,,0.000000,2.000000,2.000000,0.000000,4.000000,2.000000,2.000000,0.000000,0.000000,4.000000,4.000000,4.000000,4.000000,4.000000,4.000000,0.000000,,,,,,,,,,,,,,,,,,,,,,,,,,,,
1732157116.529946,1732157116.532503,42.000000,0.000000,4297.563965,4257.692383,4310.000000,4302.051270,4284.743652,4286.538574,4329.102539,4393.205078,4302.948730,4297.948730,4478.589844,4488.461426,4350.897461,4413.333496,0.000000,1.000000,25.000000,,,,0.000000,2.000000,2.000000,0.000000,4.000000,2.000000,2.000000,0.000000,0.000000,4.000000,4.000000,4.000000,4.000000,4.000000,4.000000,0.000000,,,,,,,,,,,,,,,,,,,,,,,,,,,,
1732157116.537754,1732157116.540311,43.000000,0.000000,4296.538574,4261.153809,4311.025879,4306.538574,4271.410156,4286.410156,4332.436035,4397.179688,4301.153809,4295.512695,4481.282227,4494.743652,4351.025879,4411.666504,0.000000,1.000000,25.000000,,,,0.000000,2.000000,2.000000,0.000000,4.000000,2.000000,2.000000,0.000000,0.000000,4.000000,4.000000,4.000000,4.000000,4.000000,4.000000,0.000000,,,,,,,,,,,,,,,,,,,,,,,,,,,,
1732157116.545562,1732157116.548020,44.000000,0.000000,4298.846191,4254.487305,4309.743652,4301.410156,4281.025879,4281.025879,4329.358887,4399.615234,4308.974121,4300.256348,4482.179688,4501.794922,4347.179688,4411.410156,0.000000,1.000000,25.000000,,,,0.000000,2.000000,2.000000,0.000000,4.000000,2.000000,2.000000,0.000000,0.000000,4.000000,4.000000,4.000000,4.000000,4.000000,4.000000,0.000000,,,,,,,,,,,,,,,,,11.000000,0.000000,0.512892,0.505981,-0.525452,0.452576,0.955683,0.089366,-0.076181,-34.701511,45.772545,30.563906
1732157116.553370,1732157116.555828,45.000000,0.000000,4298.846191,4252.563965,4301.794922,4303.717773,4284.871582,4282.563965,4326.666504,4398.077148,4313.589844,4304.230957,4473.333496,4497.179688,4344.358887,4413.077148,0.000000,1.000000,25.000000,,,,0.000000,2.000000,2.000000,0.000000,4.000000,2.000000,2.000000,0.000000,0.000000,4.000000,4.000000,4.000000,4.000000,4.000000,4.000000,0.000000,,,,,,,,,,,,,,,,,,,,,,,,,,,,
1732157116.561179,1732157116.563836,46.000000,0.000000,4295.512695,4262.179688,4296.410156,4310.769043,4280.000000,4286.922852,4323.205078,4396.922852,4305.256348,4302.179688,4474.615234,4492.820313,4348.846191,4414.615234,0.000000,1.000000,25.000000,,,,0.000000,2.000000,2.000000,0.000000,4.000000,2.000000,2.000000,0.000000,0.000000,4.000000,4.000000,4.000000,4.000000,4.000000,4.000000,0.000000,,,,,,,,,,,,,,,,,,,,,,,,,,,,
1732157116.568987,1732157116.571644,47.000000,0.000000,4294.615234,4264.358887,4296.922852,4308.589844,4282.307617,4283.461426,4318.846191,4393.589844,4303.077148,4301.794922,4484.487305,4490.769043,4350.384766,4415.000000,0.000000,1.000000,25.000000,,,,0.000000,2.000000,2.000000,0.000000,4.000000,2.000000,2.000000,0.000000,0.000000,4.000000,4.000000,4.000000,4.000000,4.000000,4.000000,0.000000,,,,,,,,,,,,,,,,,,,,,,,,,,,,
1732157116.576795,1732157116.579352,48.000000,0.000000,4297.051270,4259.487305,4292.948730,4306.282227,4284.358887,4281.794922,4318.333496,4389.358887,4310.384766,4304.743652,4482.436035,4489.487305,4345.641113,4416.025879,0.000000,1.000000,25.000000,,,,0.000000,2.000000,2.000000,0.000000,4.000000,2.000000,2.000000,0.000000,0.000000,4.000000,4.000000,4.000000,4.000000,4.000000,4.000000,0.000000,,,,,,,,,,,,,,,,,12.000000,0.000000,0.513003,0.507263,-0.524475,0.452148,0.952753,0.044439,-0.057136,-34.739891,45.979095,30.668430
1732157116.584603,1732157116.587161,49.000000,0.000000,4299.615234,4262.051270,4289.871582,4308.205078,4284.230957,4288.974121,4318.974121,4387.948730,4304.230957,4301.025879,4475.641113,4489.358887,4343.846191,4415.897461,0.000000,1.000000,25.000000,,,,0.000000,2.000000,2.000000,0.000000,4.000000,2.000000,2.000000,0.000000,0.000000,4.000000,4.000000,4.000000,4.000000,4.000000,4.000000,0.000000,,,,,,,,,,,,,,,,,,,,,,,,,,,,
1732157116.592412,1732157116.594769,50.000000,0.000000,4299.230957,4264.102539,4292.563965,4310.256348,4288.717773,4295.512695,4317.436035,4387.436035,4297.563965,4295.256348,4477.563965,4491.025879,4344.358887,4412.692383,0.000000,1.000000,25.000000,,,,0.000000,2.000000,2.000000,0.000000,4.000000,2.000000,2.000000,0.000000,0.000000,4.000000,4.000000,4.000000,4.000000,4.000000,4.000000,0.000000,,,,,,,,,,,,,,,,,,,,,,,,,,,,
1732157116.600220,1732157116.602577,51.000000,0.000000,4297.948730,4262.563965,4292.307617,4311.025879,4291.666504,4293.077148,4317.436035,4390.769043,4306.794922,4296.153809,4479.487305,4491.153809,4341.410156,4411.282227,0.000000,1.000000,25.000000,,,,0.000000,2.000000,2.000000,0.000000,4.000000,2.000000,2.000000,0.000000,0.000000,4.000000,4.000000,4.000000,4.000000,4.000000,4.000000,0.000000,,,,,,,,,,,,,,,,,,,,,,,,,,,,
1732157116.608028,1732157116.610286,52.000000,0.000000,4297.436035,4260.384766,4292.051270,4308.974121,4285.641113,4287.820313,4320.128418,4396.922852,4312.307617,4297.051270,4474.615234,4490.000000,4338.333496,4412.179688,0.000000,1.000000,25.000000,,,,0.000000,2.000000,2.000000,0.000000,4.000000,2.000000,2.000000,0.000000,0.000000,4.000000,4.000000,4.000000,4.000000,4.000000,4.000000,0.000000,,,,,,,,,,,,,,,,,13.000000,0.000000,0.512773,0.506836,-0.524902,0.452393,0.963008,0.001953,-0.069344,-34.642647,45.918068,30.656429
1732157116.615837,1732157116.618094,53.000000,0.000000,4296.410156,4255.000000,4292.820313,4306.922852,4285.384766,4292.563965,4319.102539,4392.948730,4306.153809,4294.102539,4472.307617,4490.128418,4335.769043,4411.410156,0.000000,1.000000,25.000000,,,,0.000000,2.000000,2.000000,0.000000,4.000000,2.000000,2.000000,0.000000,0.000000,4.000000,4.000000,4.000000,4.000000,4.000000,4.000000,0.000000,,,,,,,,,,,,,,,,,,,,,,,,,,,,
1732157116.623645,1732157116.625702,54.000000,0.000000,4295.769043,4252.307617,4292.307617,4308.461426,4302.436035,4293.333496,4318.205078,4387.051270,4301.922852,4291.282227,4473.333496,4489.871582,4333.333496,4409.358887,0.000000,1.000000,25.000000,,,,0.000000,2.000000,2.000000,0.000000,4.000000,2.000000,2.000000,0.000000,0.000000,4.000000,4.000000,4.000000,4.000000,4.000000,4.000000,0.000000,,,,,,,,,,,,,,,,,,,,,,,,,,,,
1732157116.631453,1732157116.633510,55.000000,0.000000,4296.666504,4256.538574,4291.666504,4311.282227,4303.077148,4284.615234,4323.077148,4392.563965,4305.256348,4293.846191,4474.487305,4488.333496,4336.922852,4410.128418,0.000000,1.000000,25.000000,,,,0.000000,2.000000,2.000000,0.000000,4.000000,2.000000,2.000000,0.000000,0.000000,4.000000,4.000000,4.000000,4.000000,4.000000,4.000000,0.000000,,,,,,,,,,,,,,,,,,,,,,,,,,,,
1732157116.639261,1732157116.641219,56.000000,0.000000,4298.205078,4263.205078,4294.871582,4310.641113,4281.282227,4285.256348,4327.692383,4392.692383,4313.333496,4298.205078,4475.256348,4488.974121,4342.948730,4412.179688,0.000000,1.000000,25.000000,,,,0.000000,2.000000,2.000000,0.000000,4.000000,2.000000,2.000000,0.000000,0.000000,4.000000,4.000000,4.000000,4.000000,4.000000,4.000000,0.000000,,,,,,,,,,,,,,,,,14.000000,0.000000,0.512770,0.506287,-0.525330,0.452515,0.966427,0.015627,-0.053229,-35.027210,45.965302,30.531708
1732157116.647069,1732157116.649027,57.000000,0.000000,4298.717773,4264.230957,4297.692383,4310.128418,4277.436035,4295.256348,4327.436035,4385.128418,4316.410156,4298.846191,4472.820313,4492.563965,4341.410156,4413.333496,0.000000,1.000000,25.000000,,,,0.000000,2.000000,2.000000,0.000000,4.000000,2.000000,2.000000,0.000000,0.000000,4.000000,4.000000,4.000000,4.000000,4.000000,4.000000,0.000000,,,,,,,,,,,,,,,,,,,,,,,,,,,,
1732157116.654878,1732157116.657035,58.000000,0.000000,4296.538574,4259.487305,4298.974121,4311.666504,4290.256348,4292.948730,4327.436035,4389.871582,4312.051270,4295.384766,4472.051270,4491.410156,4335.641113,4414.102539,0.000000,1.000000,25.000000,,,,0.000000,2.000000,2.000000,0.000000,4.000000,2.000000,2.000000,0.000000,0.000000,4.000000,4.000000,4.000000,4.000000,4.000000,4.000000,0.000000,,,,,,,,,,,,,,,,,,,,,,,,,,,,
1732157116.662686,1732157116.664843,59.000000,0.000000,4294.487305,4257.307617,4300.769043,4310.384766,4289.871582,4283.077148,4328.205078,4398.077148,4309.358887,4292.692383,4474.871582,4486.538574,4334.358887,4412.948730,0.000000,1.000000,25.000000,,,,0.000000,2.000000,2.000000,0.000000,4.000000,2.000000,2.000000,0.000000,0.000000,4.000000,4.000000,4.000000,4.000000,4.000000,4.000000,0.000000,,,,,,,,,,,,,,,,,,,,,,,,,,,,
1732157116.670494,1732157116.672551,60.000000,0.000000,4296.025879,4262.179688,4303.846191,4310.000000,4285.641113,4282.692383,4326.282227,4395.897461,4310.512695,4294.102539,4476.410156,4487.307617,4337.948730,4412.179688,0.000000,1.000000,25.000000,,,,0.000000,2.000000,2.000000,0.000000,4.000000,2.000000,2.000000,0.000000,0.000000,4.000000,4.000000,4.000000,4.000000,4.000000,4.000000,0.000000,,,,,,,,,,,,,,,,,15.000000,0.000000,0.513771,0.502197,-0.528687,0.452026,0.977658,0.025394,-0.059578,-34.702038,45.975227,30.932350
1732157116.678302,1732157116.680360,61.000000,0.000000,4297.436035,4262.051270,4306.282227,4313.333496,4290.128418,4290.256348,4329.358887,4394.871582,4313.333496,4295.769043,4475.512695,4492.820313,4334.871582,4412.179688,0.000000,1.000000,25.000000,,,,0.000000,2.000000,2.000000,0.000000,4.000000,2.000000,2.000000,0.000000,0.000000,4.000000,4.000000,4.000000,4.000000,4.000000,4.000000,0.000000,,,,,,,,,,,,,,,,,,,,,,,,,,,,
1732157116.686111,1732157116.687968,62.000000,0.000000,4295.256348,4250.384766,4306.410156,4309.102539,4289.358887,4295.512695,4332.563965,4397.307617,4313.461426,4294.871582,4474.871582,4495.512695,4329.743652,4410.897461,0.000000,1.000000,25.000000,,,,0.000000,2.000000,2.000000,0.000000,4.000000,2.000000,2.000000,0.000000,0.000000,4.000000,4.000000,4.000000,4.000000,4.000000,4.000000,0.000000,,,,,,,,,,,,,,,,,,,,,,,,,,,,
1732157116.693919,1732157116.695776,63.000000,0.000000,4297.051270,4246.538574,4308.717773,4301.666504,4282.948730,4289.615234,4329.487305,4396.794922,4311.025879,4295.641113,4475.512695,4491.666504,4335.641113,4415.897461,0.000000,1.000000,25.000000,,,,0.000000,2.000000,2.000000,0.000000,4.000000,2.000000,2.000000,0.000000,0.000000,4.000000,4.000000,4.000000,4.000000,4.000000,4.000000,0.000000,,,,,,,,,,,,,,,,,,,,,,,,,,,,
1732157116.701727,1732157116.703485,64.000000,0.000000,4305.897461,4258.846191,4311.922852,4304.102539,4278.717773,4280.384766,4331.410156,4397.820313,4312.307617,4299.615234,4477.436035,4490.256348,4343.717773,4425.384766,0.000000,1.000000,25.000000,,,,0.000000,2.000000,2.000000,0.000000,4.000000,2.000000,2.000000,0.000000,0.000000,4.000000,4.000000,4.000000,4.000000,4.000000,4.000000,0.000000,,,,,,,,,,,,,,,,,16.000000,0.000000,0.514627,0.500305,-0.529907,0.451721,0.958613,0.055183,-0.062996,-34.561985,46.026600,31.116869
1732157116.709535,1732157116.711293,65.000000,0.000000,4312.948730,4265.769043,4311.922852,4307.307617,4277.436035,4281.538574,4335.641113,4399.487305,4312.820313,4298.589844,4476.282227,4496.410156,4342.436035,4429.743652,1586.000000,1.000000,25.000000,,,,0.000000,2.000000,2.000000,0.000000,4.000000,2.000000,2.000000,0.000000,0.000000,4.000000,4.000000,4.000000,4.000000,4.000000,4.000000,0.000000,,,,,,,,,,,,,,,,,,,,,,,,,,,,
1732157116.717344,1732157116.718901,66.000000,0.000000,4315.256348,4262.436035,4311.666504,4300.128418,4274.230957,4281.794922,4332.179688,4397.692383,4310.897461,4294.102539,4476.410156,4502.179688,4344.743652,4433.846191,1387.000000,1.000000,25.000000,,,,0.000000,2.000000,2.000000,0.000000,4.000000,2.000000,2.000000,0.000000,0.000000,4.000000,4.000000,4.000000,4.000000,4.000000,4.000000,0.000000,,,,,,,,,,,,,,,,,,,,,,,,,,,,
1732157116.725152,1732157116.726709,67.000000,0.000000,4320.641113,4260.897461,4313.461426,4297.820313,4267.179688,4272.948730,4328.974121,4397.051270,4308.077148,4296.538574,4485.384766,4502.820313,4360.000000,4441.538574,1414.000000,1.000000,25.000000,,,,0.000000,2.000000,2.000000,0.000000,4.000000,2.000000,2.000000,0.000000,0.000000,4.000000,4.000000,4.000000,4.000000,4.000000,4.000000,0.000000,,,,,,,,,,,,,,,,,,,,,,,,,,,,
1732157116.732960,1732157116.734618,68.000000,0.000000,4328.846191,4263.205078,4316.794922,4302.692383,4263.589844,4268.846191,4329.230957,4397.948730,4300.641113,4295.769043,4491.025879,4504.230957,4367.436035,4448.205078,1412.000000,1.000000,25.000000,,,,0.000000,2.000000,2.000000,0.000000,4.000000,2.000000,2.000000,0.000000,0.000000,4.000000,4.000000,4.000000,4.000000,4.000000,4.000000,0.000000,,,,,,,,,,,,,,,,,17.000000,0.000000,0.515083,0.499512,-0.530212,0.451721,0.980100,0.042486,-0.051276,-34.700207,45.891548,31.154665
1732157116.740768,1732157116.742426,69.000000,0.000000,4335.512695,4266.025879,4321.025879,4304.230957,4263.846191,4271.282227,4329.102539,4398.589844,4292.051270,4284.743652,4486.410156,4510.256348,4363.589844,4458.205078,1234.000000,1.000000,25.000000,,,,0.000000,2.000000,2.000000,0.000000,4.000000,2.000000,2.000000,0.000000,0.000000,4.000000,4.000000,4.000000,4.000000,4.000000,4.000000,0.000000,,,,,,,,,,,,,,,,,,,,,,,,,,,,
1732157116.748577,1732157116.750434,70.000000,0.000000,4343.717773,4267.563965,4321.282227,4307.051270,4265.128418,4267.692383,4331.282227,4399.358887,4292.692383,4280.641113,4490.128418,4513.717773,4370.769043,4472.051270,0.000000,1.000000,25.000000,,,,0.000000,2.000000,2.000000,0.000000,4.000000,2.000000,2.000000,0.000000,0.000000,4.000000,4.000000,4.000000,4.000000,4.000000,4.000000,0.000000,,,,,,,,,,,,,,,,,,,,,,,,,,,,
1732157116.756385,1732157116.758242,71.000000,0.000000,4352.436035,4266.794922,4321.538574,4309.358887,4261.025879,4262.436035,4334.615234,4398.461426,4297.948730,4291.794922,4504.230957,4515.897461,4383.717773,4477.820313,0.000000,1.000000,25.000000,,,,0.000000,2.000000,2.000000,0.000000,4.000000,2.000000,2.000000,0.000000,0.000000,4.000000,4.000000,4.000000,4.000000,4.000000,4.000000,0.000000,,,,,,,,,,,,,,,,,,,,,,,,,,,,
1732157116.764193,1732157116.766150,72.000000,0.000000,4354.230957,4266.666504,4322.948730,4305.000000,4253.077148,4263.717773,4334.358887,4397.820313,4298.461426,4296.282227,4505.769043,4521.410156,4385.256348,4476.153809,1523.000000,1.000000,25.000000,,,,0.000000,2.000000,2.000000,0.000000,4.000000,2.000000,2.000000,0.000000,0.000000,4.000000,4.000000,4.000000,4.000000,4.000000,4.000000,0.000000,,,,,,,,,,,,,,,,,18.000000,0.000000,0.516076,0.497986,-0.530579,0.451843,0.988890,0.035161,-0.043951,-34.693836,45.975487,31.125278
1732157116.772001,1732157116.773958,73.000000,0.000000,4351.410156,4265.384766,4322.820313,4300.897461,4250.512695,4265.384766,4333.333496,4402.051270,4294.487305,4284.102539,4502.436035,4526.922852,4382.307617,4480.256348,1671.000000,1.000000,25.000000,,,,0.000000,2.000000,2.000000,0.000000,4.000000,2.000000,2.000000,0.000000,0.000000,4.000000,4.000000,4.000000,4.000000,4.000000,4.000000,0.000000,,,,,,,,,,,,,,,,,,,,,,,,,,,,
1732157116.779810,1732157116.781567,74.000000,0.000000,4353.589844,4265.384766,4320.769043,4303.846191,4251.410156,4262.563965,4333.974121,4403.461426,4291.153809,4275.769043,4506.153809,4526.538574,4384.743652,4487.692383,1526.000000,1.000000,25.000000,,,,0.000000,2.000000,2.000000,0.000000,4.000000,2.000000,2.000000,0.000000,0.000000,4.000000,4.000000,4.000000,4.000000,4.000000,4.000000,0.000000,,,,,,,,,,,,,,,,,,,,,,,,,,,,
1732157116.787618,1732157116.789375,75.000000,0.000000,4359.230957,4269.102539,4323.846191,4309.743652,4249.102539,4261.666504,4333.846191,4401.794922,4292.820313,4279.358887,4504.358887,4520.512695,4386.153809,4492.307617,1561.000000,1.000000,25.000000,,,,0.000000,2.000000,2.000000,0.000000,4.000000,2.000000,2.000000,0.000000,0.000000,4.000000,4.000000,4.000000,4.000000,4.000000,4.000000,0.000000,,,,,,,,,,,,,,,,,,,,,,,,,,,,
1732157116.795426,1732157116.797083,76.000000,0.000000,4359.358887,4268.846191,4328.333496,4310.641113,4253.077148,4264.102539,4334.230957,4400.641113,4294.358887,4280.769043,4501.153809,4521.025879,4386.153809,4490.512695,1681.000000,1.000000,25.000000,,,,0.000000,2.000000,2.000000,0.000000,4.000000,2.000000,2.000000,0.000000,0.000000,4.000000,4.000000,4.000000,4.000000,4.000000,4.000000,0.000000,,,,,,,,,,,,,,,,,19.000000,0.000000,0.516389,0.495728,-0.531555,0.452820,1.000610,0.021487,-0.043462,-34.853672,45.861809,31.183142
1732157116.803234,1732157116.804891,77.000000,0.000000,4356.922852,4265.641113,4328.205078,4310.000000,4260.897461,4267.692383,4335.000000,4401.153809,4292.692383,4277.307617,4504.358887,4525.000000,4389.871582,4492.692383,1673.000000,1.000000,25.000000,,,,0.000000,2.000000,2.000000,0.000000,4.000000,2.000000,2.000000,0.000000,0.000000,4.000000,4.000000,4.000000,4.000000,4.000000,4.000000,0.000000,,,,,,,,,,,,,,,,,,,,,,,,,,,,
1732157116.811042,1732157116.812899,78.000000,0.000000,4360.000000,4266.666504,4328.589844,4311.922852,4254.871582,4266.410156,4335.128418,4402.436035,4293.205078,4278.461426,4505.641113,4525.256348,4396.666504,4501.922852,1526.000000,1.000000,25.000000,,,,0.000000,2.000000,2.000000,0.000000,4.000000,2.000000,2.000000,0.000000,0.000000,4.000000,4.000000,4.000000,4.000000,4.000000,4.000000,0.000000,1.000000,0.000000,2.000000,2.000000,0.000000,4.000000,2.000000,2.000000,0.000000,0.000000,4.000000,4.000000,4.000000,4.000000,4.000000,3.000000,,,,,,,,,,,,
1732157116.818851,1732157116.820708,79.000000,0.000000,4363.205078,4268.461426,4330.512695,4311.922852,4246.410156,4262.563965,4336.025879,4401.922852,4295.512695,4281.282227,4506.538574,4522.692383,4400.512695,4505.256348,1561.000000,1.000000,25.000000,,,,0.000000,2.000000,2.000000,0.000000,4.000000,2.000000,2.000000,0.000000,0.000000,4.000000,4.000000,4.000000,4.000000,4.000000,4.000000,0.000000,,,,,,,,,,,,,,,,,,,,,,,,,,,,
1732157116.826659,1732157116.828616,80.000000,0.000000,4359.230957,4264.871582,4332.692383,4304.743652,4249.615234,4262.436035,4336.282227,4402.948730,4295.512695,4279.615234,4504.358887,4523.205078,4394.102539,4500.641113,1681.000000,1.000000,25.000000,,,,0.000000,2.000000,2.000000,0.000000,4.000000,2.000000,2.000000,0.000000,0.000000,4.000000,4.000000,4.000000,4.000000,4.000000,4.000000,0.000000,,,,,,,,,,,,,,,,,20.000000,0.000000,0.515202,0.494751,-0.532471,0.454163,0.963497,0.028324,-0.062996,-34.936474,45.786400,31.141678
1732157116.834467,1732157116.836424,81.000000,0.000000,4355.384766,4264.615234,4333.717773,4303.205078,4250.641113,4265.256348,4337.307617,4406.025879,4297.436035,4279.230957,4490.641113,4524.743652,4385.000000,4496.153809,1673.000000,1.000000,25.000000,,,,0.000000,2.000000,2.000000,0.000000,4.000000,2.000000,2.000000,0.000000,0.000000,4.000000,4.000000,4.000000,4.000000,4.000000,4.000000,0.000000,,,,,,,,,,,,,,,,,,,,,,,,,,,,
1732157116.842276,1732157116.844432,82.000000,0.000000,4353.717773,4270.897461,4332.948730,4302.563965,4246.282227,4266.282227,4337.179688,4406.538574,4300.769043,4281.538574,4491.153809,4523.077148,4388.205078,4495.384766,1526.000000,1.000000,25.000000,,,,0.000000,2.000000,2.000000,0.000000,4.000000,2.000000,2.000000,0.000000,0.000000,4.000000,4.000000,4.000000,4.000000,4.000000,4.000000,0.000000,,,,,,,,,,,,,,,,,,,,,,,,,,,,
1732157116.850084,1732157116.852240,83.000000,0.000000,4350.000000,4273.205078,4330.128418,4294.615234,4258.461426,4265.512695,4336.025879,4403.205078,4296.794922,4280.769043,4504.615234,4521.153809,4390.641113,4492.948730,1561.000000,1.000000,25.000000,,,,0.000000,2.000000,2.000000,0.000000,4.000000,2.000000,2.000000,0.000000,0.000000,4.000000,4.000000,4.000000,4.000000,4.000000,4.000000,0.000000,,,,,,,,,,,,,,,,,,,,,,,,,,,,
1732157116.857892,1732157116.860148,84.000000,0.000000,4348.461426,4271.794922,4329.102539,4291.666504,4269.743652,4265.897461,4336.282227,4403.717773,4293.333496,4277.436035,4500.512695,4519.615234,4383.589844,4490.000000,1681.000000,1.000000,25.000000,,,,0.000000,2.000000,2.000000,0.000000,4.000000,2.000000,2.000000,0.000000,0.000000,4.000000,4.000000,4.000000,4.000000,4.000000,4.000000,0.000000,,,,,,,,,,,,,,,,,21.000000,0.000000,0.514879,0.494629,-0.532532,0.454590,0.961543,0.014650,-0.055671,-35.106880,45.921982,30.988092
1732157116.865700,1732157116.867956,85.000000,0.000000,4350.897461,4267.436035,4330.769043,4294.358887,4253.461426,4264.102539,4335.256348,4405.256348,4291.538574,4277.948730,4491.538574,4520.641113,4383.205078,4489.871582,1673.000000,1.000000,25.000000,,,,0.000000,2.000000,2.000000,0.000000,4.000000,2.000000,2.000000,0.000000,0.000000,4.000000,4.000000,4.000000,4.000000,4.000000,4.000000,0.000000,,,,,,,,,,,,,,,,,,,,,,,,,,,,
1732157116.873508,1732157116.875964,86.000000,0.000000,4350.512695,4262.820313,4330.000000,4293.461426,4239.871582,4261.538574,4332.820313,4399.871582,4285.256348,4278.974121,4492.820313,4521.538574,4384.615234,4488.846191,1526.000000,1.000000,25.000000,,,,0.000000,2.000000,2.000000,0.000000,4.000000,2.000000,2.000000,0.000000,0.000000,4.000000,4.000000,4.000000,4.000000,4.000000,4.000000,0.000000,,,,,,,,,,,,,,,,,,,,,,,,,,,,
1732157116.881317,1732157116.883773,87.000000,0.000000,4350.256348,4268.589844,4328.077148,4292.692383,4247.051270,4262.307617,4332.820313,4398.717773,4285.000000,4277.820313,4491.794922,4520.000000,4382.436035,4488.205078,1561.000000,1.000000,25.000000,,,,0.000000,2.000000,2.000000,0.000000,4.000000,2.000000,2.000000,0.000000,0.000000,4.000000,4.000000,4.000000,4.000000,4.000000,4.000000,0.000000,,,,,,,,,,,,,,,,,,,,,,,,,,,,
1732157116.889125,1732157116.891681,88.000000,0.000000,4351.538574,4279.743652,4327.307617,4295.256348,4251.153809,4262.051270,4334.871582,4403.077148,4295.384766,4279.102539,4489.871582,4519.743652,4385.384766,4487.307617,1681.000000,1.000000,25.000000,,,,0.000000,2.000000,2.000000,0.000000,4.000000,2.000000,2.000000,0.000000,0.000000,4.000000,4.000000,4.000000,4.000000,4.000000,4.000000,0.000000,,,,,,,,,,,,,,,,,22.000000,0.000000,0.514611,0.494141,-0.532410,0.455566,0.984007,0.031254,-0.053229,-35.058239,46.223473,30.813688
1732157116.896933,1732157116.899489,89.000000,0.000000,4349.743652,4281.538574,4328.717773,4295.769043,4251.922852,4260.512695,4335.000000,4402.179688,4300.000000,4282.948730,4497.948730,4523.077148,4386.794922,4488.589844,1673.000000,1.000000,25.000000,,,,0.000000,2.000000,2.000000,0.000000,4.000000,2.000000,2.000000,0.000000,0.000000,4.000000,4.000000,4.000000,4.000000,4.000000,4.000000,0.000000,,,,,,,,,,,,,,,,,,,,,,,,,,,,
1732157116.904741,1732157116.907097,90.000000,0.000000,4349.358887,4279.615234,4330.641113,4298.717773,4257.179688,4265.769043,4335.256348,4400.000000,4297.436035,4283.205078,4506.794922,4528.077148,4386.153809,4490.897461,1526.000000,1.000000,25.000000,,,,0.000000,2.000000,2.000000,0.000000,4.000000,2.000000,2.000000,0.000000,0.000000,4.000000,4.000000,4.000000,4.000000,4.000000,4.000000,0.000000,,,,,,,,,,,,,,,,,,,,,,,,,,,,
1732157116.912550,1732157116.914906,91.000000,0.000000,4351.410156,4281.794922,4329.487305,4301.922852,4266.025879,4270.000000,4334.102539,4401.410156,4297.051270,4281.794922,4503.461426,4527.563965,4388.589844,4488.205078,1561.000000,1.000000,25.000000,,,,0.000000,2.000000,2.000000,0.000000,4.000000,2.000000,2.000000,0.000000,0.000000,4.000000,4.000000,4.000000,4.000000,4.000000,4.000000,0.000000,,,,,,,,,,,,,,,,,,,,,,,,,,,,
1732157116.920358,1732157116.922614,92.000000,0.000000,4350.512695,4281.922852,4327.307617,4300.641113,4275.641113,4264.230957,4331.410156,4401.025879,4297.563965,4282.563965,4492.820313,4522.307617,4386.282227,4485.384766,1681.000000,1.000000,25.000000,,,,0.000000,2.000000,2.000000,0.000000,4.000000,2.000000,2.000000,0.000000,0.000000,4.000000,4.000000,4.000000,4.000000,4.000000,4.000000,0.000000,,,,,,,,,,,,,,,,,23.000000,0.000000,0.514099,0.492981,-0.533142,0.456543,0.962031,0.026370,-0.062996,-35.145508,46.214348,30.895754
1732157116.928166,1732157116.930422,93.000000,0.000000,4350.769043,4280.897461,4327.436035,4306.025879,4270.769043,4267.563965,4332.692383,4400.000000,4300.897461,4283.077148,4496.025879,4522.307617,4383.077148,4487.948730,1673.000000,1.000000,25.000000,,,,0.000000,2.000000,2.000000,0.000000,4.000000,2.000000,2.000000,0.000000,0.000000,4.000000,4.000000,4.000000,4.000000,4.000000,4.000000,0.000000,,,,,,,,,,,,,,,,,,,,,,,,,,,,
1732157116.935974,1732157116.938430,94.000000,0.000000,4352.948730,4282.051270,4326.538574,4311.153809,4257.051270,4278.461426,4335.000000,4402.563965,4305.512695,4283.846191,4505.641113,4527.179688,4390.512695,4485.769043,1526.000000,1.000000,25.000000,,,,0.000000,2.000000,2.000000,0.000000,4.000000,2.000000,2.000000,0.000000,0.000000,4.000000,4.000000,4.000000,4.000000,4.000000,4.000000,0.000000,,,,,,,,,,,,,,,,,,,,,,,,,,,,
1732157116.943783,1732157116.946238,95.000000,0.000000,4348.333496,4282.436035,4323.717773,4306.922852,4252.563965,4273.077148,4336.025879,4400.769043,4300.641113,4281.922852,4497.051270,4526.025879,4390.384766,4476.282227,1561.000000,1.000000,25.000000,,,,0.000000,2.000000,2.000000,0.000000,4.000000,2.000000,2.000000,0.000000,0.000000,4.000000,4.000000,4.000000,4.000000,4.000000,4.000000,0.000000,,,,,,,,,,,,,,,,,,,,,,,,,,,,
1732157116.951591,1732157116.953947,96.000000,0.000000,4340.769043,4281.666504,4324.871582,4300.512695,4252.820313,4262.436035,4334.230957,4398.846191,4294.487305,4278.333496,4487.436035,4521.794922,4379.230957,4471.922852,1681.000000,1.000000,25.000000,,,,0.000000,2.000000,2.000000,0.000000,4.000000,2.000000,2.000000,0.000000,0.000000,4.000000,4.000000,4.000000,4.000000,4.000000,4.000000,0.000000,,,,,,,,,,,,,,,,,24.000000,0.000000,0.513871,0.492615,-0.533386,0.456909,0.962031,0.026370,-0.062996,-35.142860,46.038620,30.997229
1732157116.959399,1732157116.961755,97.000000,0.000000,4339.102539,4280.384766,4325.769043,4299.102539,4263.333496,4264.871582,4331.922852,4402.307617,4299.871582,4278.461426,4492.692383,4521.666504,4378.333496,4474.871582,1673.000000,1.000000,25.000000,,,,0.000000,2.000000,2.000000,0.000000,4.000000,2.000000,2.000000,0.000000,0.000000,4.000000,4.000000,4.000000,4.000000,4.000000,4.000000,0.000000,,,,,,,,,,,,,,,,,,,,,,,,,,,,
1732157116.967207,1732157116.969363,98.000000,0.000000,4341.025879,4282.692383,4321.922852,4300.256348,4271.922852,4265.769043,4330.897461,4402.948730,4308.589844,4281.666504,4495.641113,4522.436035,4383.461426,4477.436035,1526.000000,1.000000,25.000000,,,,0.000000,2.000000,2.000000,0.000000,4.000000,2.000000,2.000000,0.000000,0.000000,4.000000,4.000000,4.000000,4.000000,4.000000,4.000000,0.000000,,,,,,,,,,,,,,,,,,,,,,,,,,,,
1732157116.975016,1732157116.977171,99.000000,0.000000,4338.717773,4285.897461,4322.436035,4304.743652,4254.871582,4263.461426,4330.384766,4400.897461,4303.589844,4280.641113,4490.769043,4522.436035,4378.461426,4477.436035,1561.000000,1.000000,25.000000,,,,0.000000,2.000000,2.000000,0.000000,4.000000,2.000000,2.000000,0.000000,0.000000,4.000000,4.000000,4.000000,4.000000,4.000000,4.000000,0.000000,,,,,,,,,,,,,,,,,,,,,,,,,,,,
1732157116.982824,1732157116.984880,100.000000,0.000000,4330.384766,4282.692383,4326.025879,4305.128418,4245.384766,4272.948730,4330.641113,4400.641113,4294.487305,4276.410156,4487.563965,4516.538574,4371.666504,4471.922852,1681.000000,1.000000,25.000000,,,,0.000000,2.000000,2.000000,0.000000,4.000000,2.000000,2.000000,0.000000,0.000000,4.000000,4.000000,4.000000,4.000000,4.000000,4.000000,0.000000,,,,,,,,,,,,,,,,,25.000000,0.000000,0.513476,0.492310,-0.533630,0.457397,0.962520,0.017092,-0.058601,-34.982384,45.961285,31.156088
1732157116.990632,1732157116.992688,101.000000,0.000000,4326.153809,4279.358887,4324.743652,4298.589844,4263.589844,4284.230957,4333.077148,4401.538574,4299.615234,4277.179688,4487.820313,4511.666504,4371.666504,4462.179688,1673.000000,1.000000,25.000000,,,,0.000000,2.000000,2.000000,0.000000,4.000000,2.000000,2.000000,0.000000,0.000000,4.000000,4.000000,4.000000,4.000000,4.000000,4.000000,0.000000,,,,,,,,,,,,,,,,,,,,,,,,,,,,
1732157116.998440,1732157117.000296,102.000000,0.000000,4330.256348,4283.077148,4319.743652,4300.384766,4269.615234,4277.820313,4334.871582,4400.000000,4305.256348,4280.769043,4487.692383,4517.436035,4372.820313,4458.333496,1526.000000,1.000000,25.000000,,,,0.000000,2.000000,2.000000,0.000000,4.000000,2.000000,2.000000,0.000000,0.000000,4.000000,4.000000,4.000000,4.000000,4.000000,4.000000,0.000000,,,,,,,,,,,,,,,,,,,,,,,,,,,,
1732157117.006249,1732157117.008105,103.000000,0.000000,4333.846191,4285.128418,4318.974121,4308.333496,4263.974121,4267.820313,4332.948730,4397.436035,4300.897461,4282.436035,4488.974121,4523.205078,4374.743652,4466.025879,1561.000000,1.000000,25.000000,,,,0.000000,2.000000,2.000000,0.000000,4.000000,2.000000,2.000000,0.000000,0.000000,4.000000,4.000000,4.000000,4.000000,4.000000,4.000000,0.000000,,,,,,,,,,,,,,,,,,,,,,,,,,,,
1732157117.014057,1732157117.015813,104.000000,0.000000,4334.615234,4282.692383,4321.410156,4308.589844,4262.307617,4274.871582,4332.692383,4399.615234,4304.615234,4283.077148,4494.615234,4521.282227,4379.487305,4472.692383,1681.000000,1.000000,25.000000,,,,0.000000,2.000000,2.000000,0.000000,4.000000,2.000000,2.000000,0.000000,0.000000,4.000000,4.000000,4.000000,4.000000,4.000000,4.000000,0.000000,,,,,,,,,,,,,,,,,26.000000,0.000000,0.511255,0.492310,-0.533875,0.459595,0.973752,0.006348,-0.054694,-34.782398,45.838638,31.091431
1732157117.021865,1732157117.023621,105.000000,0.000000,4333.461426,4280.000000,4322.948730,4307.563965,4271.410156,4285.128418,4335.769043,4399.487305,4306.794922,4279.615234,4488.846191,4519.615234,4374.102539,4464.102539,1673.000000,1.000000,25.000000,,,,0.000000,2.000000,2.000000,0.000000,4.000000,2.000000,2.000000,0.000000,0.000000,4.000000,4.000000,4.000000,4.000000,4.000000,4.000000,0.000000,,,,,,,,,,,,,,,,,,,,,,,,,,,,
1732157117.029673,1732157117.031629,106.000000,0.000000,4327.436035,4281.410156,4322.179688,4309.230957,4288.333496,4279.615234,4337.051270,4397.179688,4295.512695,4275.384766,4476.025879,4521.794922,4364.615234,4456.282227,1526.000000,1.000000,25.000000,,,,0.000000,2.000000,2.000000,0.000000,4.000000,2.000000,2.000000,0.000000,0.000000,4.000000,4.000000,4.000000,4.000000,4.000000,4.000000,0.000000,,,,,,,,,,,,,,,,,,,,,,,,,,,,
1732157117.037482,1732157117.039437,107.000000,0.000000,4325.128418,4290.128418,4321.282227,4310.641113,4283.846191,4276.025879,4333.846191,4398.974121,4292.948730,4276.794922,4481.153809,4521.282227,4367.563965,4461.794922,1561.000000,1.000000,25.000000,,,,0.000000,2.000000,2.000000,0.000000,4.000000,2.000000,2.000000,0.000000,0.000000,4.000000,4.000000,4.000000,4.000000,4.000000,4.000000,0.000000,,,,,,,,,,,,,,,,,,,,,,,,,,,,
1732157117.045290,1732157117.047146,108.000000,0.000000,4332.436035,4297.820313,4321.538574,4312.436035,4262.179688,4281.025879,4327.436035,4402.563965,4304.230957,4283.333496,4493.333496,4522.307617,4375.512695,4466.153809,1681.000000,1.000000,25.000000,,,,0.000000,2.000000,2.000000,0.000000,4.000000,2.000000,2.000000,0.000000,0.000000,4.000000,4.000000,4.000000,4.000000,4.000000,4.000000,0.000000,,,,,,,,,,,,,,,,,27.000000,0.000000,0.509815,0.492554,-0.533447,0.461426,0.972775,-0.015627,-0.061531,-34.898743,45.729298,30.945726
1732157117.053098,1732157117.054954,109.000000,0.000000,4335.000000,4297.948730,4320.641113,4313.589844,4259.358887,4273.846191,4325.000000,4399.743652,4308.589844,4283.461426,4491.282227,4523.589844,4379.358887,4464.230957,1673.000000,1.000000,25.000000,,,,0.000000,2.000000,2.000000,0.000000,4.000000,2.000000,2.000000,0.000000,0.000000,4.000000,4.000000,4.000000,4.000000,4.000000,4.000000,0.000000,,,,,,,,,,,,,,,,,,,,,,,,,,,,
1732157117.060906,1732157117.062962,110.000000,0.000000,4330.512695,4297.051270,4320.641113,4312.563965,4266.025879,4266.282227,4328.589844,4396.538574,4293.333496,4272.436035,4482.948730,4517.051270,4383.077148,4462.820313,1526.000000,1.000000,25.000000,,,,0.000000,2.000000,2.000000,0.000000,4.000000,2.000000,2.000000,0.000000,0.000000,4.000000,4.000000,4.000000,4.000000,4.000000,4.000000,0.000000,,,,,,,,,,,,,,,,,,,,,,,,,,,,
1732157117.068715,1732157117.070770,111.000000,0.000000,4326.025879,4295.256348,4324.871582,4308.846191,4265.000000,4274.487305,4334.743652,4402.051270,4283.205078,4264.230957,4480.384766,4513.205078,4382.820313,4460.641113,1561.000000,1.000000,25.000000,,,,0.000000,2.000000,2.000000,0.000000,4.000000,2.000000,2.000000,0.000000,0.000000,4.000000,4.000000,4.000000,4.000000,4.000000,4.000000,0.000000,,,,,,,,,,,,,,,,,,,,,,,,,,,,
1732157117.076523,1732157117.078678,112.000000,0.000000,4319.230957,4293.461426,4322.179688,4306.282227,4266.538574,4282.820313,4335.897461,4403.589844,4290.512695,4266.794922,4478.333496,4518.333496,4379.871582,4454.743652,1681.000000,1.000000,25.000000,,,,0.000000,2.000000,2.000000,0.000000,4.000000,2.000000,2.000000,0.000000,0.000000,4.000000,4.000000,4.000000,4.000000,4.000000,4.000000,0.000000,,,,,,,,,,,,,,,,,28.000000,0.000000,0.509564,0.492554,-0.533264,0.461914,0.972775,-0.015627,-0.061531,-34.822979,45.875732,30.924372
1732157117.084331,1732157117.086486,113.000000,0.000000,4314.871582,4296.922852,4315.769043,4308.846191,4263.717773,4281.666504,4331.922852,4397.051270,4290.512695,4267.948730,4475.769043,4519.358887,4380.128418,4452.820313,1673.000000,1.000000,25.000000,,,,0.000000,2.000000,2.000000,0.000000,4.000000,2.000000,2.000000,0.000000,0.000000,4.000000,4.000000,4.000000,4.000000,4.000000,4.000000,0.000000,,,,,,,,,,,,,,,,,,,,,,,,,,,,
1732157117.092139,1732157117.094095,114.000000,0.000000,4317.051270,4298.717773,4342.436035,4303.974121,4269.358887,4272.820313,4336.666504,4404.102539,4281.538574,4263.974121,4477.692383,4520.256348,4381.153809,4454.487305,1526.000000,1.000000,25.000000,,,,0.000000,2.000000,2.000000,0.000000,4.000000,2.000000,2.000000,0.000000,0.000000,4.000000,4.000000,4.000000,4.000000,4.000000,4.000000,0.000000,,,,,,,,,,,,,,,,,,,,,,,,,,,,
1732157117.099948,1732157117.101903,115.000000,0.000000,4322.436035,4301.794922,4369.102539,4301.666504,4281.025879,4258.077148,4341.794922,4415.641113,4287.692383,4270.769043,4485.384766,4532.179688,4389.487305,4461.410156,1561.000000,1.000000,25.000000,,,,0.000000,2.000000,2.000000,0.000000,4.000000,2.000000,2.000000,0.000000,0.000000,4.000000,4.000000,4.000000,4.000000,4.000000,4.000000,0.000000,,,,,,,,,,,,,,,,,,,,,,,,,,,,
1732157117.107756,1732157117.109611,116.000000,0.000000,4326.794922,4309.743652,4344.487305,4313.077148,4265.384766,4251.666504,4333.333496,4408.205078,4297.307617,4280.000000,4495.000000,4540.128418,4407.563965,4470.897461,1681.000000,1.000000,25.000000,,,,0.000000,2.000000,2.000000,0.000000,4.000000,2.000000,2.000000,0.000000,0.000000,4.000000,4.000000,4.000000,4.000000,4.000000,4.000000,0.000000,,,,,,,,,,,,,,,,,29.000000,0.000000,0.509625,0.490784,-0.533142,0.463867,0.983030,-0.011232,-0.047857,-34.936615,45.819344,30.957073
1732157117.115564,1732157117.117420,117.000000,0.000000,4330.128418,4315.128418,4314.358887,4321.666504,4247.563965,4256.538574,4324.615234,4399.487305,4297.179688,4280.641113,4501.666504,4536.794922,4413.717773,4476.922852,1673.000000,1.000000,25.000000,,,,0.000000,2.000000,2.000000,0.000000,4.000000,2.000000,2.000000,0.000000,0.000000,4.000000,4.000000,4.000000,4.000000,4.000000,4.000000,0.000000,,,,,,,,,,,,,,,,,,,,,,,,,,,,
1732157117.123372,1732157117.125428,118.000000,0.000000,4331.153809,4316.538574,4318.589844,4323.333496,4250.512695,4264.871582,4327.436035,4404.615234,4301.282227,4282.051270,4500.128418,4536.282227,4404.358887,4474.358887,1526.000000,1.000000,25.000000,,,,0.000000,2.000000,2.000000,0.000000,4.000000,2.000000,2.000000,0.000000,0.000000,4.000000,4.000000,4.000000,4.000000,4.000000,4.000000,0.000000,,,,,,,,,,,,,,,,,,,,,,,,,,,,
1732157117.131180,1732157117.133236,119.000000,0.000000,4331.410156,4315.384766,4324.871582,4321.025879,4255.641113,4274.102539,4333.077148,4403.077148,4302.820313,4285.000000,4492.820313,4533.589844,4401.282227,4465.641113,1561.000000,1.000000,25.000000,,,,0.000000,2.000000,2.000000,0.000000,4.000000,2.000000,2.000000,0.000000,0.000000,4.000000,4.000000,4.000000,4.000000,4.000000,4.000000,0.000000,,,,,,,,,,,,,,,,,,,,,,,,,,,,
1732157117.138989,1732157117.141144,120.000000,0.000000,4327.051270,4309.615234,4321.794922,4305.512695,4258.205078,4272.692383,4332.051270,4399.615234,4297.948730,4285.897461,4489.358887,4526.666504,4407.307617,4462.563965,1681.000000,1.000000,25.000000,,,,0.000000,2.000000,2.000000,0.000000,4.000000,2.000000,2.000000,0.000000,0.000000,4.000000,4.000000,4.000000,4.000000,4.000000,4.000000,0.000000,,,,,,,,,,,,,,,,,30.000000,0.000000,0.510619,0.488647,-0.533569,0.464539,0.988402,-0.009767,-0.052741,-35.076992,45.825333,31.178564
1732157117.146797,1732157117.148952,121.000000,0.000000,4314.871582,4311.025879,4322.051270,4294.487305,4257.692383,4267.436035,4328.717773,4402.820313,4297.051270,4274.615234,4482.307617,4522.563965,4402.179688,4458.205078,1673.000000,1.000000,25.000000,,,,0.000000,2.000000,2.000000,0.000000,4.000000,2.000000,2.000000,0.000000,0.000000,4.000000,4.000000,4.000000,4.000000,4.000000,4.000000,0.000000,,,,,,,,,,,,,,,,,,,,,,,,,,,,
1732157117.154605,1732157117.156960,122.000000,0.000000,4309.743652,4324.230957,4317.820313,4303.461426,4246.922852,4275.128418,4325.769043,4399.615234,4292.948730,4263.333496,4469.358887,4520.769043,4396.282227,4450.000000,1526.000000,1.000000,25.000000,,,,0.000000,2.000000,2.000000,0.000000,4.000000,2.000000,2.000000,0.000000,0.000000,4.000000,4.000000,4.000000,4.000000,4.000000,4.000000,0.000000,,,,,,,,,,,,,,,,,,,,,,,,,,,,
1732157117.162413,1732157117.164768,123.000000,0.000000,4312.948730,4327.948730,4317.051270,4303.974121,4251.922852,4282.692383,4329.743652,4396.666504,4295.384766,4274.358887,4474.871582,4521.794922,4406.025879,4447.436035,1561.000000,1.000000,25.000000,,,,0.000000,2.000000,2.000000,0.000000,4.000000,2.000000,2.000000,0.000000,0.000000,4.000000,4.000000,4.000000,4.000000,4.000000,4.000000,0.000000,,,,,,,,,,,,,,,,,,,,,,,,,,,,
1732157117.170222,1732157117.172676,124.000000,0.000000,4311.538574,4325.769043,4318.461426,4293.205078,4263.461426,4278.974121,4334.358887,4399.743652,4306.922852,4288.974121,4488.461426,4523.717773,4417.179688,4446.666504,1681.000000,1.000000,25.000000,,,,0.000000,2.000000,2.000000,0.000000,4.000000,2.000000,2.000000,0.000000,0.000000,4.000000,4.000000,4.000000,4.000000,4.000000,4.000000,0.000000,,,,,,,,,,,,,,,,,31.000000,0.000000,0.510619,0.488647,-0.533569,0.464539,1.000122,0.002442,-0.040532,-35.070698,45.785187,31.402969
1732157117.178030,1732157117.180485,125.000000,0.000000,4308.205078,4333.205078,4317.179688,4294.487305,4242.948730,4277.436035,4332.051270,4400.641113,4305.641113,4283.846191,4480.769043,4521.025879,4415.256348,4442.563965,1673.000000,1.000000,25.000000,,,,0.000000,2.000000,2.000000,0.000000,4.000000,2.000000,2.000000,0.000000,0.000000,4.000000,4.000000,4.000000,4.000000,4.000000,4.000000,0.000000,,,,,,,,,,,,,,,,,,,,,,,,,,,,
1732157117.185838,1732157117.188493,126.000000,0.000000,4310.769043,4345.256348,4319.743652,4302.436035,4224.743652,4279.230957,4331.025879,4397.820313,4297.692383,4280.384766,4473.205078,4519.230957,4412.307617,4442.179688,1526.000000,1.000000,25.000000,,,,0.000000,2.000000,2.000000,0.000000,4.000000,2.000000,2.000000,0.000000,0.000000,4.000000,4.000000,4.000000,4.000000,4.000000,4.000000,0.000000,,,,,,,,,,,,,,,,,,,,,,,,,,,,
1732157117.193646,1732157117.196301,127.000000,0.000000,4313.589844,4351.282227,4321.282227,4302.692383,4233.077148,4276.410156,4332.563965,4396.922852,4300.128418,4289.743652,4483.717773,4522.179688,4418.333496,4449.230957,25.000000,1.000000,25.000000,,,,0.000000,2.000000,2.000000,0.000000,4.000000,2.000000,2.000000,0.000000,0.000000,4.000000,4.000000,4.000000,4.000000,4.000000,4.000000,0.000000,,,,,,,,,,,,,,,,,,,,,,,,,,,,
1732157117.201455,1732157117.204009,0.000000,0.000000,4312.307617,4353.717773,4318.205078,4297.179688,4243.974121,4276.282227,4331.025879,4398.205078,4305.769043,4294.743652,4491.410156,4523.333496,4422.179688,4448.846191,0.000000,1.000000,25.000000,,,,0.000000,2.000000,2.000000,0.000000,4.000000,2.000000,2.000000,0.000000,0.000000,4.000000,4.000000,4.000000,4.000000,4.000000,4.000000,0.000000,,,,,,,,,,,,,,,,,0.000000,0.000000,0.511354,0.487854,-0.533325,0.464844,0.980100,-0.007325,-0.036137,-35.113930,45.664333,31.484739
1732157117.209263,1732157117.211817,1.000000,0.000000,4312.051270,4360.897461,4317.948730,4294.102539,4246.666504,4271.922852,4329.102539,4399.230957,4304.871582,4293.205078,4489.743652,4524.615234,4420.512695,4445.256348,1589.000000,1.000000,25.000000,,,,0.000000,2.000000,2.000000,0.000000,4.000000,2.000000,2.000000,0.000000,0.000000,4.000000,4.000000,4.000000,4.000000,4.000000,4.000000,0.000000,,,,,,,,,,,,,,,,,,,,,,,,,,,,
1732157117.217071,1732157117.219825,2.000000,0.000000,4312.948730,4371.025879,4319.358887,4296.153809,4243.589844,4268.461426,4329.615234,4398.461426,4298.974121,4287.179688,4486.025879,4526.410156,4414.358887,4445.769043,1387.000000,1.000000,25.000000,,,,0.000000,2.000000,2.000000,0.000000,4.000000,2.000000,2.000000,0.000000,0.000000,4.000000,4.000000,4.000000,4.000000,4.000000,4.000000,0.000000,,,,,,,,,,,,,,,,,,,,,,,,,,,,
1732157117.224879,1732157117.227634,3.000000,0.000000,4313.205078,4373.461426,4318.589844,4297.436035,4247.948730,4274.358887,4328.974121,4396.794922,4297.436035,4278.974121,4480.641113,4523.846191,4406.025879,4443.461426,1412.000000,1.000000,25.000000,,,,0.000000,2.000000,2.000000,0.000000,4.000000,2.000000,2.000000,0.000000,0.000000,4.000000,4.000000,4.000000,4.000000,4.000000,4.000000,0.000000,,,,,,,,,,,,,,,,,,,,,,,,,,,,
1732157117.232688,1732157117.235542,4.000000,0.000000,4308.461426,4367.307617,4318.717773,4293.717773,4264.487305,4281.794922,4330.897461,4396.922852,4303.077148,4279.230957,4476.538574,4520.384766,4402.051270,4437.563965,1416.000000,1.000000,25.000000,,,,0.000000,2.000000,2.000000,0.000000,4.000000,2.000000,2.000000,0.000000,0.000000,4.000000,4.000000,4.000000,4.000000,4.000000,4.000000,0.000000,,,,,,,,,,,,,,,,,1.000000,0.000000,0.512581,0.486816,-0.532776,0.465210,0.983518,-0.004395,-0.021975,-35.158951,45.764778,31.569305
1732157117.240496,1732157117.243350,5.000000,0.000000,4304.615234,4364.743652,4320.000000,4291.153809,4266.282227,4282.436035,4333.461426,4398.974121,4309.358887,4287.179688,4476.794922,4521.410156,4400.256348,4434.871582,1222.000000,1.000000,25.000000,,,,0.000000,2.000000,2.000000,0.000000,4.000000,2.000000,2.000000,0.000000,0.000000,4.000000,4.000000,4.000000,4.000000,4.000000,4.000000,0.000000,,,,,,,,,,,,,,,,,,,,,,,,,,,,
1732157117.248304,1732157117.251358,6.000000,0.000000,4306.282227,4366.794922,4321.538574,4294.358887,4247.563965,4281.666504,4330.897461,4401.410156,4312.179688,4293.717773,4477.436035,4523.717773,4396.538574,4434.230957,0.000000,1.000000,25.000000,,,,0.000000,2.000000,2.000000,0.000000,4.000000,2.000000,2.000000,0.000000,0.000000,4.000000,4.000000,4.000000,4.000000,4.000000,4.000000,0.000000,,,,,,,,,,,,,,,,,,,,,,,,,,,,
1732157117.256112,1732157117.259166,7.000000,0.000000,4305.641113,4368.333496,4319.743652,4297.563965,4241.666504,4280.512695,4328.205078,4400.641113,4314.615234,4296.666504,4477.051270,4522.563965,4397.820313,4433.205078,0.000000,1.000000,25.000000,,,,0.000000,2.000000,2.000000,0.000000,4.000000,2.000000,2.000000,0.000000,0.000000,4.000000,4.000000,4.000000,4.000000,4.000000,4.000000,0.000000,,,,,,,,,,,,,,,,,,,,,,,,,,,,
1732157117.263921,1732157117.266874,8.000000,0.000000,4301.410156,4371.538574,4317.820313,4295.384766,4255.512695,4279.358887,4328.589844,4398.077148,4314.358887,4295.384766,4475.128418,4518.333496,4398.077148,4432.820313,1524.000000,1.000000,25.000000,,,,0.000000,2.000000,2.000000,0.000000,4.000000,2.000000,2.000000,0.000000,0.000000,4.000000,4.000000,4.000000,4.000000,4.000000,4.000000,0.000000,,,,,,,,,,,,,,,,,2.000000,0.000000,0.512657,0.486328,-0.532776,0.465637,1.001099,-0.007325,-0.026370,-35.087082,45.919472,31.549471
1732157117.271729,1732157117.274683,9.000000,0.000000,4301.794922,4374.230957,4318.589844,4295.384766,4267.563965,4283.333496,4329.102539,4398.461426,4311.666504,4291.153809,4470.897461,4514.743652,4390.000000,4430.769043,1671.000000,1.000000,25.000000,,,,0.000000,2.000000,2.000000,0.000000,4.000000,2.000000,2.000000,0.000000,0.000000,4.000000,4.000000,4.000000,4.000000,4.000000,4.000000,0.000000,,,,,,,,,,,,,,,,,,,,,,,,,,,,
1732157117.279537,1732157117.282291,10.000000,0.000000,4307.948730,4374.615234,4317.307617,4301.666504,4266.410156,4284.358887,4330.769043,4401.922852,4311.794922,4291.410156,4473.333496,4518.205078,4387.563965,4436.025879,1521.000000,1.000000,25.000000,,,,0.000000,2.000000,2.000000,0.000000,4.000000,2.000000,2.000000,0.000000,0.000000,4.000000,4.000000,4.000000,4.000000,4.000000,4.000000,0.000000,,,,,,,,,,,,,,,,,,,,,,,,,,,,
1732157117.287345,1732157117.290099,11.000000,0.000000,4311.153809,4374.230957,4316.025879,4308.205078,4264.230957,4281.282227,4332.436035,4400.512695,4312.307617,4296.538574,4478.461426,4527.563965,4388.589844,4442.436035,1561.000000,1.000000,25.000000,,,,0.000000,2.000000,2.000000,0.000000,4.000000,2.000000,2.000000,0.000000,0.000000,4.000000,4.000000,4.000000,4.000000,4.000000,4.000000,0.000000,,,,,,,,,,,,,,,,,,,,,,,,,,,,
1732157117.295154,1732157117.297907,12.000000,0.000000,4304.871582,4369.743652,4316.538574,4303.461426,4281.666504,4283.717773,4328.077148,4394.743652,4311.538574,4292.436035,4467.692383,4522.563965,4375.128418,4433.974121,1696.000000,1.000000,25.000000,,,,0.000000,2.000000,2.000000,0.000000,4.000000,2.000000,2.000000,0.000000,0.000000,4.000000,4.000000,4.000000,4.000000,4.000000,4.000000,0.000000,,,,,,,,,,,,,,,,,3.000000,0.000000,0.512657,0.486328,-0.532776,0.465637,0.988402,-0.016604,-0.033207,-35.088871,45.924770,31.488405
1732157117.302962,1732157117.305716,13.000000,0.000000,4299.358887,4363.717773,4317.692383,4295.384766,4293.589844,4290.512695,4327.820313,4394.358887,4311.282227,4282.948730,4457.948730,4510.897461,4362.948730,4425.512695,1670.000000,1.000000,25.000000,,,,0.000000,2.000000,2.000000,0.000000,4.000000,2.000000,2.000000,0.000000,0.000000,4.000000,4.000000,4.000000,4.000000,4.000000,4.000000,0.000000,,,,,,,,,,,,,,,,,,,,,,,,,,,,
1732157117.310770,1732157117.313324,14.000000,0.000000,4306.666504,4365.512695,4316.794922,4302.820313,4272.179688,4296.666504,4334.615234,4398.589844,4317.436035,4290.512695,4462.820313,4516.153809,4366.025879,4430.897461,1521.000000,1.000000,25.000000,,,,0.000000,2.000000,2.000000,0.000000,4.000000,2.000000,2.000000,0.000000,0.000000,4.000000,4.000000,4.000000,4.000000,4.000000,4.000000,0.000000,1.000000,0.000000,2.000000,2.000000,0.000000,4.000000,2.000000,2.000000,0.000000,0.000000,4.000000,4.000000,4.000000,4.000000,4.000000,4.000000,,,,,,,,,,,,
1732157117.318578,1732157117.321132,15.000000,0.000000,4314.102539,4367.948730,4316.538574,4314.871582,4261.922852,4295.641113,4333.846191,4399.358887,4320.256348,4298.589844,4466.025879,4523.589844,4366.153809,4431.922852,1561.000000,1.000000,25.000000,,,,0.000000,2.000000,2.000000,0.000000,4.000000,2.000000,2.000000,0.000000,0.000000,4.000000,4.000000,4.000000,4.000000,4.000000,4.000000,0.000000,,,,,,,,,,,,,,,,,,,,,,,,,,,,
1732157117.326387,1732157117.328841,16.000000,0.000000,4311.922852,4363.589844,4318.846191,4313.846191,4278.461426,4285.641113,4327.692383,4397.948730,4316.666504,4295.128418,4463.205078,4521.666504,4363.974121,4428.461426,0.000000,1.000000,25.000000,,,,0.000000,2.000000,2.000000,0.000000,4.000000,2.000000,2.000000,0.000000,0.000000,4.000000,4.000000,4.000000,4.000000,4.000000,4.000000,0.000000,,,,,,,,,,,,,,,,,4.000000,0.000000,0.512345,0.485779,-0.533203,0.466064,0.972287,0.000000,-0.045904,-35.286983,45.844063,31.553942
1732157117.334195,1732157117.336649,17.000000,0.000000,4310.000000,4359.230957,4319.615234,4308.333496,4281.410156,4280.641113,4331.153809,4398.077148,4312.563965,4294.230957,4462.820313,4521.025879,4365.128418,4432.436035,0.000000,1.000000,25.000000,,,,0.000000,2.000000,2.000000,0.000000,4.000000,2.000000,2.000000,0.000000,0.000000,4.000000,4.000000,4.000000,4.000000,4.000000,4.000000,0.000000,,,,,,,,,,,,,,,,,,,,,,,,,,,,
1732157117.342003,1732157117.344257,18.000000,0.000000,4311.025879,4360.897461,4319.487305,4308.717773,4279.230957,4286.153809,4334.615234,4397.307617,4303.589844,4292.692383,4459.743652,4520.897461,4356.922852,4427.563965,0.000000,1.000000,25.000000,,,,0.000000,2.000000,2.000000,0.000000,4.000000,2.000000,2.000000,0.000000,0.000000,4.000000,4.000000,4.000000,4.000000,4.000000,4.000000,0.000000,,,,,,,,,,,,,,,,,,,,,,,,,,,,
1732157117.349811,1732157117.352065,19.000000,0.000000,4309.743652,4363.717773,4320.256348,4311.538574,4291.410156,4293.205078,4327.820313,4396.666504,4300.897461,4290.897461,4460.641113,4518.077148,4351.922852,4418.205078,0.000000,1.000000,25.000000,,,,0.000000,2.000000,2.000000,0.000000,4.000000,2.000000,2.000000,0.000000,0.000000,4.000000,4.000000,4.000000,4.000000,4.000000,4.000000,0.000000,,,,,,,,,,,,,,,,,,,,,,,,,,,,
1732157117.357620,1732157117.359774,20.000000,0.000000,4306.025879,4362.307617,4321.282227,4312.307617,4293.333496,4296.922852,4325.897461,4398.333496,4310.000000,4293.846191,4470.128418,4518.717773,4356.410156,4421.922852,0.000000,1.000000,25.000000,,,,0.000000,2.000000,2.000000,0.000000,4.000000,2.000000,2.000000,0.000000,0.000000,4.000000,4.000000,4.000000,4.000000,4.000000,4.000000,0.000000,,,,,,,,,,,,,,,,,5.000000,0.000000,0.512391,0.485596,-0.533325,0.466064,0.983518,-0.002930,-0.044927,-35.327457,45.812027,31.440359
1732157117.365428,1732157117.367582,21.000000,0.000000,4302.307617,4360.128418,4320.769043,4307.948730,4295.256348,4289.230957,4330.256348,4399.615234,4313.461426,4296.666504,4476.025879,4521.794922,4361.794922,4429.487305,0.000000,1.000000,25.000000,,,,0.000000,2.000000,2.000000,0.000000,4.000000,2.000000,2.000000,0.000000,0.000000,4.000000,4.000000,4.000000,4.000000,4.000000,4.000000,0.000000,,,,,,,,,,,,,,,,,,,,,,,,,,,,
1732157117.373236,1732157117.375190,22.000000,0.000000,4301.282227,4359.487305,4318.717773,4308.974121,4305.641113,4282.563965,4329.358887,4398.333496,4306.666504,4297.436035,4474.743652,4521.282227,4364.102539,4428.974121,0.000000,1.000000,25.000000,,,,0.000000,2.000000,2.000000,0.000000,4.000000,2.000000,2.000000,0.000000,0.000000,4.000000,4.000000,4.000000,4.000000,4.000000,4.000000,0.000000,,,,,,,,,,,,,,,,,,,,,,,,,,,,
1732157117.381044,1732157117.382999,23.000000,0.000000,4303.846191,4361.025879,4319.230957,4318.589844,4294.230957,4291.153809,4328.974121,4397.436035,4306.666504,4297.692383,4472.563965,4516.538574,4362.948730,4426.153809,0.000000,1.000000,25.000000,,,,0.000000,2.000000,2.000000,0.000000,4.000000,2.000000,2.000000,0.000000,0.000000,4.000000,4.000000,4.000000,4.000000,4.000000,4.000000,0.000000,,,,,,,,,,,,,,,,,,,,,,,,,,,,
1732157117.388852,1732157117.390707,24.000000,0.000000,4306.025879,4363.589844,4320.256348,4320.384766,4274.743652,4293.974121,4329.871582,4399.615234,4313.846191,4298.846191,4471.922852,4508.974121,4357.948730,4427.307617,0.000000,1.000000,25.000000,,,,0.000000,2.000000,2.000000,0.000000,4.000000,2.000000,2.000000,0.000000,0.000000,4.000000,4.000000,4.000000,4.000000,4.000000,4.000000,0.000000,,,,,,,,,,,,,,,,,6.000000,0.000000,0.512388,0.485474,-0.533386,0.466125,0.991820,0.004395,-0.038091,-35.423573,46.037739,31.705025
1732157117.396661,1732157117.398515,25.000000,0.000000,4307.820313,4365.641113,4317.307617,4320.384766,4280.897461,4281.153809,4327.307617,4400.512695,4309.358887,4297.307617,4473.205078,4507.307617,4355.641113,4425.769043,0.000000,1.000000,25.000000,,,,0.000000,2.000000,2.000000,0.000000,4.000000,2.000000,2.000000,0.000000,0.000000,4.000000,4.000000,4.000000,4.000000,4.000000,4.000000,0.000000,,,,,,,,,,,,,,,,,,,,,,,,,,,,
1732157117.404469,1732157117.406123,26.000000,0.000000,4311.282227,4365.000000,4316.282227,4329.230957,4290.897461,4276.794922,4326.153809,4398.589844,4298.974121,4296.666504,4473.717773,4514.487305,4360.512695,4427.436035,0.000000,1.000000,25.000000,,,,0.000000,2.000000,2.000000,0.000000,4.000000,2.000000,2.000000,0.000000,0.000000,4.000000,4.000000,4.000000,4.000000,4.000000,4.000000,0.000000,,,,,,,,,,,,,,,,,,,,,,,,,,,,
1732157117.412277,1732157117.413932,27.000000,0.000000,4312.307617,4362.051270,4318.974121,4330.769043,4294.102539,4281.794922,4329.230957,4397.948730,4302.179688,4302.820313,4476.666504,4521.025879,4368.077148,4434.871582,0.000000,1.000000,25.000000,,,,0.000000,2.000000,2.000000,0.000000,4.000000,2.000000,2.000000,0.000000,0.000000,4.000000,4.000000,4.000000,4.000000,4.000000,4.000000,0.000000,,,,,,,,,,,,,,,,,,,,,,,,,,,,
1732157117.420086,1732157117.421640,28.000000,0.000000,4310.384766,4358.717773,4317.436035,4319.358887,4301.282227,4281.282227,4330.897461,4398.333496,4318.717773,4313.205078,4479.102539,4523.717773,4367.948730,4434.615234,0.000000,1.000000,25.000000,,,,0.000000,2.000000,2.000000,0.000000,4.000000,2.000000,2.000000,0.000000,0.000000,4.000000,4.000000,4.000000,4.000000,4.000000,4.000000,0.000000,,,,,,,,,,,,,,,,,7.000000,0.000000,0.512193,0.485168,-0.533691,0.466309,0.992309,-0.001953,-0.047369,-35.416428,45.973904,31.862736
1732157117.427894,1732157117.429448,29.000000,0.000000,4308.846191,4356.922852,4315.897461,4317.948730,4294.487305,4279.358887,4330.256348,4397.948730,4321.282227,4314.615234,4477.692383,4524.358887,4360.512695,4427.820313,0.000000,1.000000,25.000000,,,,0.000000,2.000000,2.000000,0.000000,4.000000,2.000000,2.000000,0.000000,0.000000,4.000000,4.000000,4.000000,4.000000,4.000000,4.000000,0.000000,,,,,,,,,,,,,,,,,,,,,,,,,,,,
1732157117.435702,1732157117.437057,30.000000,0.000000,4311.153809,4358.974121,4320.384766,4326.153809,4278.589844,4279.358887,4330.128418,4398.974121,4309.487305,4311.025879,4483.974121,4526.282227,4362.051270,4431.025879,0.000000,1.000000,25.000000,,,,0.000000,2.000000,2.000000,0.000000,4.000000,2.000000,2.000000,0.000000,0.000000,4.000000,4.000000,4.000000,4.000000,4.000000,4.000000,0.000000,,,,,,,,,,,,,,,,,,,,,,,,,,,,
1732157117.443510,1732157117.444865,31.000000,0.000000,4311.794922,4359.102539,4320.000000,4326.538574,4282.692383,4280.769043,4331.410156,4399.102539,4310.512695,4312.179688,4489.102539,4526.794922,4362.948730,4436.153809,0.000000,1.000000,25.000000,,,,0.000000,2.000000,2.000000,0.000000,4.000000,2.000000,2.000000,0.000000,0.000000,4.000000,4.000000,4.000000,4.000000,4.000000,4.000000,0.000000,,,,,,,,,,,,,,,,,,,,,,,,,,,,
1732157117.451318,1732157117.452573,32.000000,0.000000,4309.871582,4358.461426,4317.820313,4327.563965,4299.743652,4280.641113,4331.922852,4397.307617,4311.666504,4309.743652,4479.871582,4521.410156,4353.974121,4430.512695,0.000000,1.000000,25.000000,,,,0.000000,2.000000,2.000000,0.000000,4.000000,2.000000,2.000000,0.000000,0.000000,4.000000,4.000000,4.000000,4.000000,4.000000,4.000000,0.000000,,,,,,,,,,,,,,,,,8.000000,0.000000,0.511801,0.484985,-0.534180,0.466370,0.984495,0.001953,-0.043462,-35.305641,45.598862,31.667149
1732157117.459127,1732157117.460381,33.000000,0.000000,4309.487305,4357.948730,4321.282227,4335.256348,4299.871582,4279.615234,4331.153809,4397.563965,4303.333496,4306.794922,4474.230957,4520.000000,4353.205078,4431.538574,0.000000,1.000000,25.000000,,,,0.000000,2.000000,2.000000,0.000000,4.000000,2.000000,2.000000,0.000000,0.000000,4.000000,4.000000,4.000000,4.000000,4.000000,4.000000,0.000000,,,,,,,,,,,,,,,,,,,,,,,,,,,,
1732157117.466935,1732157117.467990,34.000000,0.000000,4311.153809,4352.820313,4321.410156,4334.358887,4296.025879,4281.666504,4332.179688,4398.461426,4302.948730,4308.717773,4480.128418,4522.051270,4354.743652,4437.820313,0.000000,1.000000,25.000000,,,,0.000000,2.000000,2.000000,0.000000,4.000000,2.000000,2.000000,0.000000,0.000000,4.000000,4.000000,4.000000,4.000000,4.000000,4.000000,0.000000,,,,,,,,,,,,,,,,,,,,,,,,,,,,
1732157117.474743,1732157117.475798,35.000000,0.000000,4312.307617,4346.025879,4317.051270,4324.871582,4310.128418,4277.436035,4330.256348,4397.436035,4305.256348,4309.487305,4482.179688,4520.128418,4352.051270,4435.128418,0.000000,1.000000,25.000000,,,,0.000000,2.000000,2.000000,0.000000,4.000000,2.000000,2.000000,0.000000,0.000000,4.000000,4.000000,4.000000,4.000000,4.000000,4.000000,0.000000,,,,,,,,,,,,,,,,,,,,,,,,,,,,
1732157117.482551,1732157117.483706,36.000000,0.000000,4312.563965,4344.102539,4316.666504,4327.820313,4310.384766,4272.563965,4327.307617,4396.282227,4303.589844,4310.128418,4478.333496,4519.102539,4355.128418,4431.153809,0.000000,1.000000,25.000000,,,,0.000000,2.000000,2.000000,0.000000,4.000000,2.000000,2.000000,0.000000,0.000000,4.000000,4.000000,4.000000,4.000000,4.000000,4.000000,0.000000,,,,,,,,,,,,,,,,,9.000000,0.000000,0.511602,0.485229,-0.533936,0.466614,0.983030,-0.013185,-0.045416,-35.182568,45.511745,31.542057
1732157117.490360,1732157117.491514,37.000000,0.000000,4312.563965,4341.666504,4321.025879,4334.871582,4287.051270,4276.922852,4328.589844,4396.025879,4305.512695,4310.384766,4478.974121,4522.179688,4356.794922,4432.563965,0.000000,1.000000,25.000000,,,,0.000000,2.000000,2.000000,0.000000,4.000000,2.000000,2.000000,0.000000,0.000000,4.000000,4.000000,4.000000,4.000000,4.000000,4.000000,0.000000,,,,,,,,,,,,,,,,,,,,,,,,,,,,
1732157117.498168,1732157117.499123,38.000000,0.000000,4311.666504,4333.717773,4321.153809,4330.769043,4280.128418,4278.461426,4330.256348,4396.025879,4310.000000,4311.025879,4481.282227,4524.230957,4350.641113,4433.205078,0.000000,1.000000,25.000000,,,,0.000000,2.000000,2.000000,0.000000,4.000000,2.000000,2.000000,0.000000,0.000000,4.000000,4.000000,4.000000,4.000000,4.000000,4.000000,0.000000,,,,,,,,,,,,,,,,,,,,,,,,,,,,
1732157117.505976,1732157117.506931,39.000000,0.000000,4308.717773,4324.230957,4316.922852,4323.974121,4297.820313,4277.436035,4331.794922,4397.179688,4316.025879,4317.820313,4480.384766,4522.820313,4348.717773,4425.000000,0.000000,1.000000,25.000000,,,,0.000000,2.000000,2.000000,0.000000,4.000000,2.000000,2.000000,0.000000,0.000000,4.000000,4.000000,4.000000,4.000000,4.000000,4.000000,0.000000,,,,,,,,,,,,,,,,,,,,,,,,,,,,
1732157117.513784,1732157117.514639,40.000000,0.000000,4309.487305,4316.666504,4316.666504,4329.102539,4306.922852,4287.051270,4334.871582,4398.846191,4320.256348,4321.153809,4479.358887,4522.692383,4351.282227,4418.974121,0.000000,1.000000,25.000000,,,,0.000000,2.000000,2.000000,0.000000,4.000000,2.000000,2.000000,0.000000,0.000000,4.000000,4.000000,4.000000,4.000000,4.000000,4.000000,0.000000,,,,,,,,,,,,,,,,,10.000000,0.000000,0.511658,0.485229,-0.533936,0.466553,0.983030,-0.013185,-0.045416,-35.296215,45.481178,31.614067
1732157117.521593,1732157117.522447,41.000000,0.000000,4312.948730,4315.512695,4321.410156,4338.077148,4306.794922,4288.077148,4331.025879,4398.205078,4310.512695,4311.025879,4478.333496,4521.153809,4350.384766,4423.461426,0.000000,1.000000,25.000000,,,,0.000000,2.000000,2.000000,0.000000,4.000000,2.000000,2.000000,0.000000,0.000000,4.000000,4.000000,4.000000,4.000000,4.000000,4.000000,0.000000,,,,,,,,,,,,,,,,,,,,,,,,,,,,
1732157117.529401,1732157117.530455,42.000000,0.000000,4310.256348,4309.358887,4320.641113,4333.205078,4311.282227,4280.256348,4328.205078,4398.717773,4308.589844,4307.692383,4477.563965,4517.563965,4349.743652,4423.077148,0.000000,1.000000,25.000000,,,,0.000000,2.000000,2.000000,0.000000,4.000000,2.000000,2.000000,0.000000,0.000000,4.000000,4.000000,4.000000,4.000000,4.000000,4.000000,0.000000,,,,,,,,,,,,,,,,,,,,,,,,,,,,
1732157117.537209,1732157117.538264,43.000000,0.000000,4308.333496,4297.436035,4317.692383,4328.205078,4313.333496,4288.461426,4333.333496,4399.743652,4324.230957,4318.333496,4483.333496,4518.461426,4350.897461,4417.948730,0.000000,1.000000,25.000000,,,,0.000000,2.000000,2.000000,0.000000,4.000000,2.000000,2.000000,0.000000,0.000000,4.000000,4.000000,4.000000,4.000000,4.000000,4.000000,0.000000,,,,,,,,,,,,,,,,,,,,,,,,,,,,
1732157117.545017,1732157117.546172,44.000000,0.000000,4315.897461,4298.589844,4321.410156,4336.282227,4313.589844,4295.512695,4331.794922,4397.563965,4316.794922,4314.358887,4488.589844,4523.461426,4351.025879,4425.769043,0.000000,1.000000,25.000000,,,,0.000000,2.000000,2.000000,0.000000,4.000000,2.000000,2.000000,0.000000,0.000000,4.000000,4.000000,4.000000,4.000000,4.000000,4.000000,0.000000,,,,,,,,,,,,,,,,,11.000000,0.000000,0.512203,0.485291,-0.533997,0.465820,0.982542,0.007813,-0.047857,-35.243267,45.493088,31.619061
1732157117.552826,1732157117.553980,45.000000,0.000000,4319.102539,4299.743652,4321.794922,4339.743652,4326.922852,4290.000000,4329.487305,4396.794922,4302.179688,4300.769043,4480.128418,4524.102539,4345.897461,4427.948730,0.000000,1.000000,25.000000,,,,0.000000,2.000000,2.000000,0.000000,4.000000,2.000000,2.000000,0.000000,0.000000,4.000000,4.000000,4.000000,4.000000,4.000000,4.000000,0.000000,,,,,,,,,,,,,,,,,,,,,,,,,,,,
1732157117.560634,1732157117.561988,46.000000,0.000000,4310.769043,4277.051270,4317.692383,4331.922852,4334.615234,4291.922852,4333.717773,4398.717773,4314.358887,4305.384766,4472.692383,4520.128418,4341.153809,4414.102539,0.000000,1.000000,25.000000,,,,0.000000,2.000000,2.000000,0.000000,4.000000,2.000000,2.000000,0.000000,0.000000,4.000000,4.000000,4.000000,4.000000,4.000000,4.000000,0.000000,,,,,,,,,,,,,,,,,,,,,,,,,,,,
1732157117.568442,1732157117.569796,47.000000,0.000000,4310.512695,4261.794922,4319.102539,4332.436035,4317.563965,4296.794922,4334.871582,4399.230957,4320.512695,4312.307617,4480.384766,4521.282227,4342.436035,4417.436035,0.000000,1.000000,25.000000,,,,0.000000,2.000000,2.000000,0.000000,4.000000,2.000000,2.000000,0.000000,0.000000,4.000000,4.000000,4.000000,4.000000,4.000000,4.000000,0.000000,,,,,,,,,,,,,,,,,,,,,,,,,,,,
1732157117.576250,1732157117.577704,48.000000,0.000000,4318.589844,4262.820313,4323.974121,4336.538574,4303.846191,4293.974121,4333.846191,4398.846191,4317.436035,4315.256348,4489.487305,4526.153809,4345.769043,4428.846191,0.000000,1.000000,25.000000,,,,0.000000,2.000000,2.000000,0.000000,4.000000,2.000000,2.000000,0.000000,0.000000,4.000000,4.000000,4.000000,4.000000,4.000000,4.000000,0.000000,,,,,,,,,,,,,,,,,12.000000,0.000000,0.512057,0.485596,-0.533752,0.465942,0.980100,0.000977,-0.041997,-35.150379,45.552734,31.456440
1732157117.584059,1732157117.585512,49.000000,0.000000,4316.025879,4241.666504,4324.102539,4328.974121,4310.512695,4294.615234,4334.615234,4398.846191,4329.230957,4324.615234,4489.615234,4524.871582,4342.307617,4418.461426,0.000000,1.000000,25.000000,,,,0.000000,2.000000,2.000000,0.000000,4.000000,2.000000,2.000000,0.000000,0.000000,4.000000,4.000000,4.000000,4.000000,4.000000,4.000000,0.000000,,,,,,,,,,,,,,,,,,,,,,,,,,,,
1732157117.591867,1732157117.593520,50.000000,0.000000,4308.717773,4212.820313,4322.051270,4321.922852,4316.282227,4297.436035,4331.666504,4398.717773,4325.512695,4322.948730,4488.205078,4520.128418,4335.000000,4414.743652,0.000000,1.000000,25.000000,,,,0.000000,2.000000,2.000000,0.000000,4.000000,2.000000,2.000000,0.000000,0.000000,4.000000,4.000000,4.000000,4.000000,4.000000,4.000000,0.000000,,,,,,,,,,,,,,,,,,,,,,,,,,,,
1732157117.599675,1732157117.601329,51.000000,0.000000,4310.000000,4211.922852,4322.307617,4326.025879,4313.974121,4299.615234,4330.512695,4398.333496,4307.051270,4311.666504,4489.743652,4522.307617,4329.358887,4424.871582,0.000000,1.000000,25.000000,,,,0.000000,2.000000,2.000000,0.000000,4.000000,2.000000,2.000000,0.000000,0.000000,4.000000,4.000000,4.000000,4.000000,4.000000,4.000000,0.000000,,,,,,,,,,,,,,,,,,,,,,,,,,,,
1732157117.607483,1732157117.609237,52.000000,0.000000,4314.230957,4219.743652,4320.256348,4328.461426,4324.230957,4302.820313,4333.846191,4397.820313,4309.871582,4313.077148,4490.256348,4526.666504,4327.307617,4422.051270,0.000000,1.000000,25.000000,,,,0.000000,2.000000,2.000000,0.000000,4.000000,2.000000,2.000000,0.000000,0.000000,4.000000,4.000000,4.000000,4.000000,4.000000,4.000000,0.000000,,,,,,,,,,,,,,,,,13.000000,0.000000,0.512008,0.485657,-0.533691,0.466003,0.984495,0.002442,-0.057136,-35.153473,45.764381,31.433048
1732157117.615291,1732157117.617045,53.000000,0.000000,4305.000000,4208.717773,4315.641113,4317.820313,4340.512695,4303.974121,4333.461426,4396.922852,4315.769043,4312.563965,4486.410156,4515.128418,4325.384766,4411.025879,0.000000,1.000000,25.000000,,,,0.000000,2.000000,2.000000,0.000000,4.000000,2.000000,2.000000,0.000000,0.000000,4.000000,4.000000,4.000000,4.000000,4.000000,4.000000,0.000000,,,,,,,,,,,,,,,,,,,,,,,,,,,,
1732157117.623100,1732157117.625053,54.000000,0.000000,4296.666504,4195.384766,4314.871582,4312.307617,4336.538574,4307.307617,4332.948730,4397.307617,4310.641113,4301.794922,4486.922852,4505.000000,4326.025879,4411.153809,0.000000,1.000000,25.000000,,,,0.000000,2.000000,2.000000,0.000000,4.000000,2.000000,2.000000,0.000000,0.000000,4.000000,4.000000,4.000000,4.000000,4.000000,4.000000,0.000000,,,,,,,,,,,,,,,,,,,,,,,,,,,,
1732157117.630908,1732157117.632861,55.000000,0.000000,4303.846191,4196.666504,4316.922852,4319.358887,4318.205078,4312.179688,4334.230957,4397.948730,4313.717773,4306.282227,4489.487305,4512.820313,4328.333496,4417.563965,0.000000,1.000000,25.000000,,,,0.000000,2.000000,2.000000,0.000000,4.000000,2.000000,2.000000,0.000000,0.000000,4.000000,4.000000,4.000000,4.000000,4.000000,4.000000,0.000000,,,,,,,,,,,,,,,,,,,,,,,,,,,,
1732157117.638716,1732157117.640769,56.000000,0.000000,4304.615234,4197.563965,4316.794922,4318.333496,4314.102539,4310.897461,4334.871582,4397.948730,4314.743652,4310.128418,4481.410156,4515.897461,4319.615234,4414.358887,0.000000,1.000000,25.000000,,,,0.000000,2.000000,2.000000,0.000000,4.000000,2.000000,2.000000,0.000000,0.000000,4.000000,4.000000,4.000000,4.000000,4.000000,4.000000,0.000000,,,,,,,,,,,,,,,,,14.000000,0.000000,0.511854,0.485291,-0.534119,0.466064,0.980588,-0.004883,-0.046392,-35.282646,45.682484,31.540770
1732157117.646525,1732157117.648578,57.000000,0.000000,4294.102539,4186.794922,4316.410156,4307.948730,4321.025879,4309.871582,4335.000000,4398.589844,4312.436035,4303.974121,4472.692383,4503.846191,4308.461426,4406.153809,0.000000,1.000000,25.000000,,,,0.000000,2.000000,2.000000,0.000000,4.000000,2.000000,2.000000,0.000000,0.000000,4.000000,4.000000,4.000000,4.000000,4.000000,4.000000,0.000000,,,,,,,,,,,,,,,,,,,,,,,,,,,,
1732157117.654333,1732157117.656586,58.000000,0.000000,4291.666504,4179.615234,4318.077148,4304.102539,4320.769043,4313.589844,4335.512695,4399.743652,4324.615234,4309.871582,4477.307617,4505.769043,4308.333496,4407.436035,0.000000,1.000000,25.000000,,,,0.000000,2.000000,2.000000,0.000000,4.000000,2.000000,2.000000,0.000000,0.000000,4.000000,4.000000,4.000000,4.000000,4.000000,4.000000,0.000000,,,,,,,,,,,,,,,,,,,,,,,,,,,,
1732157117.662141,1732157117.664394,59.000000,0.000000,4296.922852,4183.974121,4317.692383,4306.538574,4322.307617,4313.333496,4335.256348,4399.871582,4328.846191,4315.769043,4480.769043,4517.948730,4310.897461,4414.871582,0.000000,1.000000,25.000000,,,,0.000000,2.000000,2.000000,0.000000,4.000000,2.000000,2.000000,0.000000,0.000000,4.000000,4.000000,4.000000,4.000000,4.000000,4.000000,0.000000,,,,,,,,,,,,,,,,,,,,,,,,,,,,
1732157117.669949,1732157117.672102,60.000000,0.000000,4295.641113,4184.358887,4317.051270,4309.102539,4322.563965,4310.641113,4335.769043,4398.333496,4323.846191,4309.102539,4475.769043,4512.307617,4308.589844,4409.358887,0.000000,1.000000,25.000000,,,,0.000000,2.000000,2.000000,0.000000,4.000000,2.000000,2.000000,0.000000,0.000000,4.000000,4.000000,4.000000,4.000000,4.000000,4.000000,0.000000,,,,,,,,,,,,,,,,,15.000000,0.000000,0.511214,0.485168,-0.534363,0.466614,0.972287,-0.014650,-0.054206,-35.425610,45.804478,31.469690
1732157117.677758,1732157117.679910,61.000000,0.000000,4293.846191,4187.051270,4318.589844,4311.282227,4325.897461,4306.153809,4335.000000,4398.077148,4324.102539,4307.820313,4473.846191,4504.102539,4307.948730,4396.538574,0.000000,1.000000,25.000000,,,,0.000000,2.000000,2.000000,0.000000,4.000000,2.000000,2.000000,0.000000,0.000000,4.000000,4.000000,4.000000,4.000000,4.000000,4.000000,0.000000,,,,,,,,,,,,,,,,,,,,,,,,,,,,
1732157117.685566,1732157117.687519,62.000000,0.000000,4295.000000,4196.794922,4318.974121,4311.922852,4337.051270,4299.615234,4334.102539,4399.615234,4318.974121,4312.436035,4477.307617,4507.948730,4309.487305,4396.794922,0.000000,1.000000,25.000000,,,,0.000000,2.000000,2.000000,0.000000,4.000000,2.000000,2.000000,0.000000,0.000000,4.000000,4.000000,4.000000,4.000000,4.000000,4.000000,0.000000,,,,,,,,,,,,,,,,,,,,,,,,,,,,
1732157117.693374,1732157117.695327,63.000000,0.000000,4296.025879,4201.410156,4319.487305,4316.538574,4328.974121,4301.538574,4335.256348,4399.102539,4316.794922,4313.846191,4480.256348,4509.102539,4310.769043,4404.230957,0.000000,1.000000,25.000000,,,,0.000000,2.000000,2.000000,0.000000,4.000000,2.000000,2.000000,0.000000,0.000000,4.000000,4.000000,4.000000,4.000000,4.000000,4.000000,0.000000,,,,,,,,,,,,,,,,,,,,,,,,,,,,
1732157117.701182,1732157117.703035,64.000000,0.000000,4298.461426,4200.512695,4320.897461,4320.769043,4306.410156,4309.743652,4334.871582,4397.436035,4318.846191,4312.436035,4479.871582,4508.846191,4311.794922,4405.641113,0.000000,1.000000,25.000000,,,,0.000000,2.000000,2.000000,0.000000,4.000000,2.000000,2.000000,0.000000,0.000000,4.000000,4.000000,4.000000,4.000000,4.000000,4.000000,0.000000,,,,,,,,,,,,,,,,,16.000000,0.000000,0.510871,0.485168,-0.534424,0.466919,0.982053,-0.007813,-0.048834,-35.444744,45.789959,31.412115
1732157117.708990,1732157117.710843,65.000000,0.000000,4296.794922,4200.256348,4318.846191,4316.025879,4307.820313,4307.436035,4335.000000,4397.820313,4305.897461,4300.512695,4475.641113,4510.000000,4304.102539,4400.000000,1581.000000,1.000000,25.000000,,,,0.000000,2.000000,2.000000,0.000000,4.000000,2.000000,2.000000,0.000000,0.000000,4.000000,4.000000,4.000000,4.000000,4.000000,4.000000,0.000000,,,,,,,,,,,,,,,,,,,,,,,,,,,,
1732157117.716799,1732157117.718452,66.000000,0.000000,4294.871582,4200.000000,4316.282227,4306.922852,4328.205078,4299.487305,4334.358887,4398.461426,4299.871582,4290.897461,4472.820313,4507.692383,4300.128418,4396.282227,1381.000000,1.000000,25.000000,,,,0.000000,2.000000,2.000000,0.000000,4.000000,2.000000,2.000000,0.000000,0.000000,4.000000,4.000000,4.000000,4.000000,4.000000,4.000000,0.000000,,,,,,,,,,,,,,,,,,,,,,,,,,,,
1732157117.724607,1732157117.726260,67.000000,0.000000,4297.179688,4197.051270,4317.051270,4303.077148,4325.384766,4296.922852,4330.769043,4397.820313,4313.846191,4300.128418,4476.410156,4510.897461,4307.692383,4401.538574,1414.000000,1.000000,25.000000,,,,0.000000,2.000000,2.000000,0.000000,4.000000,2.000000,2.000000,0.000000,0.000000,4.000000,4.000000,4.000000,4.000000,4.000000,4.000000,0.000000,,,,,,,,,,,,,,,,,,,,,,,,,,,,
1732157117.732415,1732157117.733968,68.000000,0.000000,4299.358887,4195.128418,4316.153809,4305.897461,4304.743652,4294.487305,4331.282227,4397.820313,4315.384766,4305.641113,4477.179688,4519.358887,4311.666504,4409.230957,1404.000000,1.000000,25.000000,,,,0.000000,2.000000,2.000000,0.000000,4.000000,2.000000,2.000000,0.000000,0.000000,4.000000,4.000000,4.000000,4.000000,4.000000,4.000000,0.000000,,,,,,,,,,,,,,,,,17.000000,0.000000,0.510634,0.485107,-0.534546,0.467102,0.974728,-0.014650,-0.048346,-35.555244,45.876534,31.367147
1732157117.740224,1732157117.741777,69.000000,0.000000,4302.307617,4197.179688,4315.128418,4307.948730,4299.871582,4294.743652,4335.641113,4397.948730,4310.384766,4301.794922,4476.922852,4518.717773,4308.846191,4412.563965,1222.000000,1.000000,25.000000,,,,0.000000,2.000000,2.000000,0.000000,4.000000,2.000000,2.000000,0.000000,0.000000,4.000000,4.000000,4.000000,4.000000,4.000000,4.000000,0.000000,,,,,,,,,,,,,,,,,,,,,,,,,,,,
1732157117.748032,1732157117.749385,70.000000,0.000000,4307.563965,4199.487305,4316.794922,4308.333496,4311.794922,4300.641113,4335.000000,4396.794922,4315.769043,4307.692383,4483.461426,4519.230957,4311.922852,4416.025879,0.000000,1.000000,25.000000,,,,0.000000,2.000000,2.000000,0.000000,4.000000,2.000000,2.000000,0.000000,0.000000,4.000000,4.000000,4.000000,4.000000,4.000000,4.000000,0.000000,,,,,,,,,,,,,,,,,,,,,,,,,,,,
1732157117.755840,1732157117.757193,71.000000,0.000000,4306.153809,4194.487305,4317.820313,4308.205078,4318.717773,4306.922852,4333.974121,4397.051270,4316.538574,4309.230957,4484.102539,4522.692383,4310.512695,4416.538574,0.000000,1.000000,25.000000,,,,0.000000,2.000000,2.000000,0.000000,4.000000,2.000000,2.000000,0.000000,0.000000,4.000000,4.000000,4.000000,4.000000,4.000000,4.000000,0.000000,,,,,,,,,,,,,,,,,,,,,,,,,,,,
1732157117.763648,1732157117.764901,72.000000,0.000000,4297.563965,4191.282227,4317.436035,4308.205078,4318.333496,4313.333496,4337.051270,4397.563965,4312.436035,4298.461426,4474.358887,4514.230957,4300.641113,4406.538574,1529.000000,1.000000,25.000000,,,,0.000000,2.000000,2.000000,0.000000,4.000000,2.000000,2.000000,0.000000,0.000000,4.000000,4.000000,4.000000,4.000000,4.000000,4.000000,0.000000,,,,,,,,,,,,,,,,,18.000000,0.000000,0.509717,0.485291,-0.534668,0.467773,0.973752,-0.014650,-0.049322,-35.583080,45.911659,31.162390
1732157117.771456,1732157117.772710,73.000000,0.000000,4291.794922,4197.307617,4317.307617,4305.641113,4322.179688,4309.358887,4336.282227,4396.922852,4311.282227,4297.436035,4468.846191,4502.179688,4297.563965,4397.563965,1673.000000,1.000000,25.000000,,,,0.000000,2.000000,2.000000,0.000000,4.000000,2.000000,2.000000,0.000000,0.000000,4.000000,4.000000,4.000000,4.000000,4.000000,4.000000,0.000000,,,,,,,,,,,,,,,,,,,,,,,,,,,,
1732157117.779265,1732157117.780318,74.000000,0.000000,4291.410156,4200.512695,4315.769043,4305.128418,4318.974121,4299.615234,4334.358887,4397.820313,4311.153809,4305.897461,4471.282227,4502.051270,4298.846191,4398.077148,1531.000000,1.000000,25.000000,,,,0.000000,2.000000,2.000000,0.000000,4.000000,2.000000,2.000000,0.000000,0.000000,4.000000,4.000000,4.000000,4.000000,4.000000,4.000000,0.000000,,,,,,,,,,,,,,,,,,,,,,,,,,,,
1732157117.787073,1732157117.788126,75.000000,0.000000,4293.846191,4200.000000,4316.666504,4307.307617,4317.179688,4301.922852,4334.871582,4398.846191,4310.897461,4303.846191,4473.717773,4505.384766,4301.794922,4399.230957,1564.000000,1.000000,25.000000,,,,0.000000,2.000000,2.000000,0.000000,4.000000,2.000000,2.000000,0.000000,0.000000,4.000000,4.000000,4.000000,4.000000,4.000000,4.000000,0.000000,,,,,,,,,,,,,,,,,,,,,,,,,,,,
1732157117.794881,1732157117.795835,76.000000,0.000000,4296.922852,4200.256348,4318.205078,4305.769043,4328.974121,4306.922852,4334.871582,4398.077148,4308.461426,4299.358887,4474.102539,4506.153809,4303.717773,4396.922852,1696.000000,1.000000,25.000000,,,,0.000000,2.000000,2.000000,0.000000,4.000000,2.000000,2.000000,0.000000,0.000000,4.000000,4.000000,4.000000,4.000000,4.000000,4.000000,0.000000,,,,,,,,,,,,,,,,,19.000000,0.000000,0.509415,0.484985,-0.534912,0.468140,0.981077,-0.023929,-0.040532,-35.600628,45.563446,31.236536
1732157117.802689,1732157117.803643,77.000000,0.000000,4298.461426,4200.256348,4315.641113,4305.512695,4327.948730,4302.948730,4335.256348,4398.846191,4310.384766,4306.538574,4472.692383,4507.436035,4303.333496,4398.717773,1673.000000,1.000000,25.000000,,,,0.000000,2.000000,2.000000,0.000000,4.000000,2.000000,2.000000,0.000000,0.000000,4.000000,4.000000,4.000000,4.000000,4.000000,4.000000,0.000000,,,,,,,,,,,,,,,,,,,,,,,,,,,,
1732157117.810498,1732157117.811251,78.000000,0.000000,4293.717773,4200.128418,4314.230957,4308.077148,4308.974121,4302.179688,4335.641113,4400.384766,4314.615234,4311.666504,4471.282227,4502.820313,4306.410156,4398.589844,1531.000000,1.000000,25.000000,,,,0.000000,2.000000,2.000000,0.000000,4.000000,2.000000,2.000000,0.000000,0.000000,4.000000,4.000000,4.000000,4.000000,4.000000,4.000000,0.000000,1.000000,0.000000,2.000000,2.000000,0.000000,4.000000,2.000000,2.000000,0.000000,0.000000,4.000000,4.000000,4.000000,4.000000,4.000000,4.000000,,,,,,,,,,,,
1732157117.818306,1732157117.819059,79.000000,0.000000,4287.051270,4199.743652,4316.666504,4307.051270,4304.743652,4307.051270,4335.000000,4398.333496,4315.000000,4312.051270,4472.948730,4491.794922,4311.922852,4394.743652,1564.000000,1.000000,25.000000,,,,0.000000,2.000000,2.000000,0.000000,4.000000,2.000000,2.000000,0.000000,0.000000,4.000000,4.000000,4.000000,4.000000,4.000000,4.000000,0.000000,,,,,,,,,,,,,,,,,,,,,,,,,,,,
1732157117.826114,1732157117.826768,80.000000,0.000000,4288.974121,4198.589844,4317.948730,4305.769043,4319.358887,4310.256348,4335.128418,4395.897461,4315.256348,4314.615234,4474.102539,4492.563965,4313.846191,4397.948730,1696.000000,1.000000,25.000000,,,,0.000000,2.000000,2.000000,0.000000,4.000000,2.000000,2.000000,0.000000,0.000000,4.000000,4.000000,4.000000,4.000000,4.000000,4.000000,0.000000,,,,,,,,,,,,,,,,,20.000000,0.000000,0.509415,0.484985,-0.534912,0.468140,0.978635,-0.012697,-0.038091,-35.674843,45.386391,31.356594
1732157117.833922,1732157117.834576,81.000000,0.000000,4296.282227,4200.256348,4314.358887,4308.333496,4324.871582,4307.820313,4334.743652,4396.666504,4313.974121,4315.128418,4474.871582,4504.102539,4313.333496,4403.974121,1673.000000,1.000000,25.000000,,,,0.000000,2.000000,2.000000,0.000000,4.000000,2.000000,2.000000,0.000000,0.000000,4.000000,4.000000,4.000000,4.000000,4.000000,4.000000,0.000000,,,,,,,,,,,,,,,,,,,,,,,,,,,,
1732157117.841731,1732157117.842184,82.000000,0.000000,4297.820313,4201.282227,4313.717773,4306.282227,4314.230957,4304.358887,4334.615234,4397.179688,4310.000000,4311.794922,4474.615234,4506.153809,4313.205078,4401.666504,1531.000000,1.000000,25.000000,,,,0.000000,2.000000,2.000000,0.000000,4.000000,2.000000,2.000000,0.000000,0.000000,4.000000,4.000000,4.000000,4.000000,4.000000,4.000000,0.000000,,,,,,,,,,,,,,,,,,,,,,,,,,,,
1732157117.849539,1732157117.849993,83.000000,0.000000,4295.641113,4197.563965,4315.641113,4298.717773,4309.743652,4307.051270,4336.410156,4398.333496,4309.487305,4310.000000,4472.179688,4502.820313,4308.846191,4395.641113,1564.000000,1.000000,25.000000,,,,0.000000,2.000000,2.000000,0.000000,4.000000,2.000000,2.000000,0.000000,0.000000,4.000000,4.000000,4.000000,4.000000,4.000000,4.000000,0.000000,,,,,,,,,,,,,,,,,,,,,,,,,,,,
1732157117.857347,1732157117.857701,84.000000,0.000000,4297.563965,4196.794922,4316.666504,4296.025879,4323.077148,4307.307617,4334.871582,4398.717773,4310.384766,4313.589844,4471.794922,4508.717773,4307.179688,4396.794922,1696.000000,1.000000,25.000000,,,,0.000000,2.000000,2.000000,0.000000,4.000000,2.000000,2.000000,0.000000,0.000000,4.000000,4.000000,4.000000,4.000000,4.000000,4.000000,0.000000,,,,,,,,,,,,,,,,,21.000000,0.000000,0.508951,0.484192,-0.535645,0.468628,0.978635,-0.027347,-0.036137,-35.693291,45.489643,31.362175
1732157117.865155,1732157117.865509,85.000000,0.000000,4297.820313,4198.974121,4316.025879,4297.948730,4324.871582,4297.179688,4334.102539,4394.871582,4310.256348,4320.128418,4473.717773,4505.128418,4309.743652,4395.897461,1673.000000,1.000000,25.000000,,,,0.000000,2.000000,2.000000,0.000000,4.000000,2.000000,2.000000,0.000000,0.000000,4.000000,4.000000,4.000000,4.000000,4.000000,4.000000,0.000000,,,,,,,,,,,,,,,,,,,,,,,,,,,,
1732157117.872964,1732157117.873517,86.000000,0.000000,4294.871582,4203.333496,4316.666504,4302.563965,4301.794922,4295.128418,4334.230957,4393.333496,4310.641113,4322.179688,4472.948730,4493.461426,4310.384766,4390.641113,1531.000000,1.000000,25.000000,,,,0.000000,2.000000,2.000000,0.000000,4.000000,2.000000,2.000000,0.000000,0.000000,4.000000,4.000000,4.000000,4.000000,4.000000,4.000000,0.000000,,,,,,,,,,,,,,,,,,,,,,,,,,,,
1732157117.880772,1732157117.881325,87.000000,0.000000,4296.153809,4205.128418,4316.922852,4305.641113,4291.922852,4300.000000,4331.794922,4397.051270,4309.487305,4315.641113,4472.179688,4497.563965,4309.358887,4392.820313,1564.000000,1.000000,25.000000,,,,0.000000,2.000000,2.000000,0.000000,4.000000,2.000000,2.000000,0.000000,0.000000,4.000000,4.000000,4.000000,4.000000,4.000000,4.000000,0.000000,,,,,,,,,,,,,,,,,,,,,,,,,,,,
1732157117.888580,1732157117.889233,88.000000,0.000000,4299.358887,4200.769043,4314.743652,4299.871582,4304.230957,4297.692383,4332.051270,4398.717773,4309.615234,4311.282227,4474.358887,4508.077148,4309.487305,4401.410156,1696.000000,1.000000,25.000000,,,,0.000000,2.000000,2.000000,0.000000,4.000000,2.000000,2.000000,0.000000,0.000000,4.000000,4.000000,4.000000,4.000000,4.000000,4.000000,0.000000,,,,,,,,,,,,,,,,,22.000000,0.000000,0.508720,0.484131,-0.535706,0.468872,0.973752,-0.019534,-0.041509,-35.716564,45.584946,31.361694
1732157117.896388,1732157117.897042,89.000000,0.000000,4298.205078,4199.230957,4314.743652,4296.538574,4308.974121,4296.025879,4336.025879,4397.179688,4309.358887,4313.205078,4475.128418,4508.077148,4309.743652,4404.102539,1673.000000,1.000000,25.000000,,,,0.000000,2.000000,2.000000,0.000000,4.000000,2.000000,2.000000,0.000000,0.000000,4.000000,4.000000,4.000000,4.000000,4.000000,4.000000,0.000000,,,,,,,,,,,,,,,,,,,,,,,,,,,,
1732157117.904197,1732157117.905050,90.000000,0.000000,4295.384766,4202.820313,4315.512695,4302.051270,4310.000000,4299.871582,4336.282227,4397.307617,4303.333496,4310.000000,4472.563965,4504.230957,4309.102539,4399.871582,1531.000000,1.000000,25.000000,,,,0.000000,2.000000,2.000000,0.000000,4.000000,2.000000,2.000000,0.000000,0.000000,4.000000,4.000000,4.000000,4.000000,4.000000,4.000000,0.000000,,,,,,,,,,,,,,,,,,,,,,,,,,,,
1732157117.912005,1732157117.912858,91.000000,0.000000,4296.922852,4206.794922,4314.102539,4302.563965,4313.974121,4306.410156,4334.871582,4397.436035,4303.205078,4303.461426,4470.641113,4500.128418,4310.256348,4397.179688,1564.000000,1.000000,25.000000,,,,0.000000,2.000000,2.000000,0.000000,4.000000,2.000000,2.000000,0.000000,0.000000,4.000000,4.000000,4.000000,4.000000,4.000000,4.000000,0.000000,,,,,,,,,,,,,,,,,,,,,,,,,,,,
1732157117.919813,1732157117.920766,92.000000,0.000000,4295.769043,4208.205078,4312.436035,4297.307617,4313.846191,4311.666504,4335.256348,4397.307617,4311.666504,4307.948730,4470.769043,4493.589844,4312.051270,4396.922852,1696.000000,1.000000,25.000000,,,,0.000000,2.000000,2.000000,0.000000,4.000000,2.000000,2.000000,0.000000,0.000000,4.000000,4.000000,4.000000,4.000000,4.000000,4.000000,0.000000,,,,,,,,,,,,,,,,,23.000000,0.000000,0.508620,0.484253,-0.535583,0.468994,0.986937,0.002442,-0.036626,-35.658749,45.615471,31.351305
1732157117.927621,1732157117.928574,93.000000,0.000000,4284.615234,4206.282227,4312.307617,4295.641113,4325.384766,4308.589844,4334.230957,4398.846191,4311.666504,4310.897461,4471.538574,4491.794922,4310.897461,4396.410156,1673.000000,1.000000,25.000000,,,,0.000000,2.000000,2.000000,0.000000,4.000000,2.000000,2.000000,0.000000,0.000000,4.000000,4.000000,4.000000,4.000000,4.000000,4.000000,0.000000,,,,,,,,,,,,,,,,,,,,,,,,,,,,
1732157117.935429,1732157117.936183,94.000000,0.000000,4278.974121,4204.102539,4312.948730,4295.641113,4329.743652,4303.974121,4335.000000,4399.615234,4303.589844,4300.128418,4471.538574,4491.666504,4308.717773,4394.743652,1531.000000,1.000000,25.000000,,,,0.000000,2.000000,2.000000,0.000000,4.000000,2.000000,2.000000,0.000000,0.000000,4.000000,4.000000,4.000000,4.000000,4.000000,4.000000,0.000000,,,,,,,,,,,,,,,,,,,,,,,,,,,,
1732157117.943238,1732157117.943991,95.000000,0.000000,4286.025879,4202.179688,4312.692383,4294.743652,4301.025879,4305.897461,4335.769043,4399.743652,4303.974121,4297.948730,4471.666504,4489.743652,4308.717773,4394.615234,1564.000000,1.000000,25.000000,,,,0.000000,2.000000,2.000000,0.000000,4.000000,2.000000,2.000000,0.000000,0.000000,4.000000,4.000000,4.000000,4.000000,4.000000,4.000000,0.000000,,,,,,,,,,,,,,,,,,,,,,,,,,,,
1732157117.951046,1732157117.951899,96.000000,0.000000,4290.384766,4201.153809,4314.358887,4293.589844,4288.205078,4304.358887,4334.487305,4398.846191,4311.153809,4310.000000,4470.769043,4492.948730,4309.487305,4396.666504,1696.000000,1.000000,25.000000,,,,0.000000,2.000000,2.000000,0.000000,4.000000,2.000000,2.000000,0.000000,0.000000,4.000000,4.000000,4.000000,4.000000,4.000000,4.000000,0.000000,,,,,,,,,,,,,,,,,24.000000,0.000000,0.508607,0.484131,-0.535706,0.468994,0.986937,0.002442,-0.036626,-35.501923,45.783531,31.474558
1732157117.958854,1732157117.959707,97.000000,0.000000,4289.487305,4207.563965,4316.025879,4293.717773,4311.666504,4298.077148,4335.512695,4398.589844,4312.051270,4312.051270,4470.256348,4495.128418,4308.846191,4397.692383,1673.000000,1.000000,25.000000,,,,0.000000,2.000000,2.000000,0.000000,4.000000,2.000000,2.000000,0.000000,0.000000,4.000000,4.000000,4.000000,4.000000,4.000000,4.000000,0.000000,,,,,,,,,,,,,,,,,,,,,,,,,,,,
1732157117.966663,1732157117.967715,98.000000,0.000000,4292.948730,4217.307617,4316.025879,4297.436035,4313.077148,4299.102539,4336.666504,4398.333496,4310.000000,4307.948730,4473.333496,4494.102539,4310.000000,4397.563965,1531.000000,1.000000,25.000000,,,,0.000000,2.000000,2.000000,0.000000,4.000000,2.000000,2.000000,0.000000,0.000000,4.000000,4.000000,4.000000,4.000000,4.000000,4.000000,0.000000,,,,,,,,,,,,,,,,,,,,,,,,,,,,
1732157117.974471,1732157117.975523,99.000000,0.000000,4296.025879,4218.333496,4316.282227,4301.025879,4291.538574,4304.102539,4335.641113,4396.922852,4311.025879,4312.307617,4477.051270,4499.230957,4312.820313,4398.205078,1564.000000,1.000000,25.000000,,,,0.000000,2.000000,2.000000,0.000000,4.000000,2.000000,2.000000,0.000000,0.000000,4.000000,4.000000,4.000000,4.000000,4.000000,4.000000,0.000000,,,,,,,,,,,,,,,,,,,,,,,,,,,,
1732157117.982279,1732157117.983431,100.000000,0.000000,4295.384766,4214.871582,4315.769043,4299.871582,4295.384766,4303.589844,4335.384766,4397.563965,4310.256348,4312.436035,4475.897461,4505.384766,4313.717773,4398.846191,1696.000000,1.000000,25.000000,,,,0.000000,2.000000,2.000000,0.000000,4.000000,2.000000,2.000000,0.000000,0.000000,4.000000,4.000000,4.000000,4.000000,4.000000,4.000000,0.000000,,,,,,,,,,,,,,,,,25.000000,0.000000,0.507946,0.484436,-0.535950,0.469116,0.985960,-0.016115,-0.040044,-35.328224,45.769661,31.402725
1732157117.990087,1732157117.991240,101.000000,0.000000,4296.666504,4217.948730,4314.358887,4299.102539,4310.384766,4302.692383,4336.025879,4398.461426,4312.563965,4309.487305,4473.974121,4503.717773,4316.282227,4398.077148,1673.000000,1.000000,25.000000,,,,0.000000,2.000000,2.000000,0.000000,4.000000,2.000000,2.000000,0.000000,0.000000,4.000000,4.000000,4.000000,4.000000,4.000000,4.000000,0.000000,,,,,,,,,,,,,,,,,,,,,,,,,,,,
1732157117.997896,1732157117.999248,102.000000,0.000000,4298.846191,4225.897461,4313.717773,4302.436035,4307.307617,4303.333496,4335.769043,4396.538574,4315.641113,4311.794922,4475.000000,4501.025879,4319.102539,4401.666504,1531.000000,1.000000,25.000000,,,,0.000000,2.000000,2.000000,0.000000,4.000000,2.000000,2.000000,0.000000,0.000000,4.000000,4.000000,4.000000,4.000000,4.000000,4.000000,0.000000,,,,,,,,,,,,,,,,,,,,,,,,,,,,
1732157118.005704,1732157118.007056,103.000000,0.000000,4298.589844,4228.717773,4314.743652,4303.461426,4304.743652,4302.307617,4334.871582,4396.922852,4304.230957,4303.589844,4473.717773,4503.717773,4314.487305,4404.615234,1564.000000,1.000000,25.000000,,,,0.000000,2.000000,2.000000,0.000000,4.000000,2.000000,2.000000,0.000000,0.000000,4.000000,4.000000,4.000000,4.000000,4.000000,4.000000,0.000000,,,,,,,,,,,,,,,,,,,,,,,,,,,,
1732157118.013512,1732157118.014964,104.000000,0.000000,4297.563965,4224.743652,4315.641113,4300.897461,4318.333496,4298.333496,4333.974121,4400.128418,4290.384766,4290.512695,4470.512695,4499.615234,4308.846191,4400.000000,1696.000000,1.000000,25.000000,,,,0.000000,2.000000,2.000000,0.000000,4.000000,2.000000,2.000000,0.000000,0.000000,4.000000,4.000000,4.000000,4.000000,4.000000,4.000000,0.000000,,,,,,,,,,,,,,,,,26.000000,0.000000,0.507715,0.484619,-0.535950,0.469177,0.979612,-0.016604,-0.043951,-35.227528,45.423424,31.481207
1732157118.021320,1732157118.022772,105.000000,0.000000,4296.922852,4225.384766,4315.897461,4302.179688,4319.358887,4295.128418,4334.487305,4398.974121,4292.948730,4292.820313,4471.153809,4492.692383,4313.077148,4397.051270,1673.000000,1.000000,25.000000,,,,0.000000,2.000000,2.000000,0.000000,4.000000,2.000000,2.000000,0.000000,0.000000,4.000000,4.000000,4.000000,4.000000,4.000000,4.000000,0.000000,,,,,,,,,,,,,,,,,,,,,,,,,,,,
1732157118.029128,1732157118.030780,106.000000,0.000000,4296.922852,4234.615234,4315.512695,4306.410156,4302.051270,4295.897461,4336.410156,4396.666504,4308.461426,4304.358887,4474.230957,4497.563965,4319.743652,4400.384766,1531.000000,1.000000,25.000000,,,,0.000000,2.000000,2.000000,0.000000,4.000000,2.000000,2.000000,0.000000,0.000000,4.000000,4.000000,4.000000,4.000000,4.000000,4.000000,0.000000,,,,,,,,,,,,,,,,,,,,,,,,,,,,
1732157118.036937,1732157118.038588,107.000000,0.000000,4296.794922,4231.794922,4314.871582,4303.846191,4289.102539,4297.179688,4332.948730,4397.051270,4318.717773,4312.563965,4476.410156,4507.692383,4319.743652,4401.025879,1564.000000,1.000000,25.000000,,,,0.000000,2.000000,2.000000,0.000000,4.000000,2.000000,2.000000,0.000000,0.000000,4.000000,4.000000,4.000000,4.000000,4.000000,4.000000,0.000000,,,,,,,,,,,,,,,,,,,,,,,,,,,,
1732157118.044745,1732157118.046496,108.000000,0.000000,4295.256348,4221.538574,4314.487305,4294.230957,4292.179688,4296.666504,4330.000000,4397.179688,4317.692383,4311.025879,4475.897461,4506.410156,4318.589844,4396.794922,1696.000000,1.000000,25.000000,,,,0.000000,2.000000,2.000000,0.000000,4.000000,2.000000,2.000000,0.000000,0.000000,4.000000,4.000000,4.000000,4.000000,4.000000,4.000000,0.000000,,,,,,,,,,,,,,,,,27.000000,0.000000,0.507751,0.484497,-0.536133,0.469055,0.968380,-0.009767,-0.046392,-35.332630,45.521309,31.298111
1732157118.052553,1732157118.054305,109.000000,0.000000,4293.461426,4226.025879,4313.846191,4292.563965,4307.051270,4297.307617,4331.794922,4396.666504,4309.358887,4298.974121,4473.717773,4495.128418,4320.512695,4396.282227,1673.000000,1.000000,25.000000,,,,0.000000,2.000000,2.000000,0.000000,4.000000,2.000000,2.000000,0.000000,0.000000,4.000000,4.000000,4.000000,4.000000,4.000000,4.000000,0.000000,,,,,,,,,,,,,,,,,,,,,,,,,,,,
1732157118.060362,1732157118.061913,110.000000,0.000000,4292.692383,4232.820313,4313.846191,4295.897461,4310.641113,4296.282227,4333.846191,4396.666504,4304.230957,4294.358887,4473.461426,4496.025879,4323.589844,4398.717773,1531.000000,1.000000,25.000000,,,,0.000000,2.000000,2.000000,0.000000,4.000000,2.000000,2.000000,0.000000,0.000000,4.000000,4.000000,4.000000,4.000000,4.000000,4.000000,0.000000,,,,,,,,,,,,,,,,,,,,,,,,,,,,
1732157118.068170,1732157118.069721,111.000000,0.000000,4292.051270,4229.358887,4313.846191,4294.871582,4289.615234,4295.769043,4336.025879,4396.410156,4305.512695,4301.666504,4475.897461,4502.563965,4326.282227,4398.205078,1564.000000,1.000000,25.000000,,,,0.000000,2.000000,2.000000,0.000000,4.000000,2.000000,2.000000,0.000000,0.000000,4.000000,4.000000,4.000000,4.000000,4.000000,4.000000,0.000000,,,,,,,,,,,,,,,,,,,,,,,,,,,,
1732157118.075978,1732157118.077629,112.000000,0.000000,4292.436035,4228.333496,4314.230957,4293.077148,4277.692383,4297.307617,4337.179688,4397.692383,4308.205078,4300.641113,4474.743652,4498.333496,4325.769043,4396.282227,1696.000000,1.000000,25.000000,,,,0.000000,2.000000,2.000000,0.000000,4.000000,2.000000,2.000000,0.000000,0.000000,4.000000,4.000000,4.000000,4.000000,4.000000,4.000000,0.000000,,,,,,,,,,,,,,,,,28.000000,0.000000,0.507601,0.484680,-0.535950,0.469238,0.976682,-0.010743,-0.047369,-35.427765,45.485592,31.209803
1732157118.083786,1732157118.085438,113.000000,0.000000,4291.666504,4234.487305,4315.000000,4295.769043,4294.743652,4297.820313,4335.000000,4398.717773,4314.102539,4296.922852,4471.025879,4491.794922,4321.666504,4395.769043,1673.000000,1.000000,25.000000,,,,0.000000,2.000000,2.000000,0.000000,4.000000,2.000000,2.000000,0.000000,0.000000,4.000000,4.000000,4.000000,4.000000,4.000000,4.000000,0.000000,,,,,,,,,,,,,,,,,,,,,,,,,,,,
