title:3two, start timestamp:1732157237.456351, stop timestamp:1732157276.684971, headset type:EPOCX, headset serial:E5020C3A, headset firmware:730, channels:67, sampling rate:eeg_128;mot_32, samples:5025      , version:2.2, 
Timestamp,OriginalTimestamp,EEG.Counter,EEG.Interpolated,EEG.AF3,EEG.F7,EEG.F3,EEG.FC5,EEG.T7,EEG.P7,EEG.O1,EEG.O2,EEG.P8,EEG.T8,EEG.FC6,EEG.F4,EEG.F8,EEG.AF4,EEG.RawCq,EEG.Battery,EEG.BatteryPercent,MarkerIndex,MarkerType,MarkerValueInt,EEG.MarkerHardware,CQ.AF3,CQ.F7,CQ.F3,CQ.FC5,CQ.T7,CQ.P7,CQ.O1,CQ.O2,CQ.P8,CQ.T8,CQ.FC6,CQ.F4,CQ.F8,CQ.AF4,CQ.Overall,EQ.SampleRateQuality,EQ.OVERALL,EQ.AF3,EQ.F7,EQ.F3,EQ.FC5,EQ.T7,EQ.P7,EQ.O1,EQ.O2,EQ.P8,EQ.T8,EQ.FC6,EQ.F4,EQ.F8,EQ.AF4,MOT.CounterMems,MOT.InterpolatedMems,MOT.Q0,MOT.Q1,MOT.Q2,MOT.Q3,MOT.AccX,MOT.AccY,MOT.AccZ,MOT.MagX,MOT.MagY,MOT.MagZ
1732157237.456351,1732157237.457730,41.000000,0.000000,4294.102539,4281.410156,4314.358887,4297.051270,4259.871582,4279.230957,4334.230957,4397.179688,4296.666504,4281.794922,4471.153809,4499.487305,4336.922852,4399.743652,0.000000,1.000000,25.000000,,,,0.000000,2.000000,2.000000,0.000000,4.000000,2.000000,2.000000,0.000000,0.000000,4.000000,4.000000,4.000000,4.000000,4.000000,4.000000,0.000000,,,,,,,,,,,,,,,,,,,,,,,,,,,,
1732157237.464159,1732157237.465338,42.000000,0.000000,4287.307617,4281.025879,4314.230957,4297.436035,4259.102539,4279.615234,4331.666504,4397.051270,4297.820313,4280.769043,4473.077148,4498.333496,4334.743652,4398.974121,0.000000,1.000000,25.000000,,,,0.000000,2.000000,2.000000,0.000000,4.000000,2.000000,2.000000,0.000000,0.000000,4.000000,4.000000,4.000000,4.000000,4.000000,4.000000,0.000000,,,,,,,,,,,,,,,,,,,,,,,,,,,,
1732157237.471968,1732157237.473146,43.000000,0.000000,4285.128418,4281.410156,4310.897461,4296.794922,4270.256348,4280.384766,4331.410156,4395.384766,4294.487305,4280.897461,4474.615234,4493.205078,4337.948730,4398.717773,0.000000,1.000000,25.000000,,,,0.000000,2.000000,2.000000,0.000000,4.000000,2.000000,2.000000,0.000000,0.000000,4.000000,4.000000,4.000000,4.000000,4.000000,4.000000,0.000000,,,,,,,,,,,,,,,,,,,,,,,,,,,,
1732157237.479776,1732157237.480855,44.000000,0.000000,4294.743652,4281.025879,4310.512695,4296.794922,4265.641113,4280.256348,4332.692383,4396.538574,4295.897461,4280.128418,4473.846191,4494.230957,4341.153809,4399.871582,0.000000,1.000000,25.000000,,,,0.000000,2.000000,2.000000,0.000000,4.000000,2.000000,2.000000,0.000000,0.000000,4.000000,4.000000,4.000000,4.000000,4.000000,4.000000,0.000000,,,,,,,,,,,,,,,,,11.000000,0.000000,0.523721,0.485046,-0.538025,0.448303,0.997680,0.015627,-0.040044,-35.479572,46.120586,31.510958
1732157237.487584,1732157237.488663,45.000000,0.000000,4293.974121,4280.897461,4313.333496,4294.615234,4263.589844,4278.589844,4330.512695,4398.205078,4299.358887,4280.897461,4474.230957,4495.128418,4337.307617,4398.077148,0.000000,1.000000,25.000000,,,,0.000000,2.000000,2.000000,0.000000,4.000000,2.000000,2.000000,0.000000,0.000000,4.000000,4.000000,4.000000,4.000000,4.000000,4.000000,0.000000,,,,,,,,,,,,,,,,,,,,,,,,,,,,
1732157237.495392,1732157237.496271,46.000000,0.000000,4287.692383,4280.512695,4314.743652,4292.436035,4267.692383,4277.436035,4331.282227,4398.205078,4301.538574,4285.769043,4474.743652,4493.974121,4337.563965,4395.512695,0.000000,1.000000,25.000000,,,,0.000000,2.000000,2.000000,0.000000,4.000000,2.000000,2.000000,0.000000,0.000000,4.000000,4.000000,4.000000,4.000000,4.000000,4.000000,0.000000,,,,,,,,,,,,,,,,,,,,,,,,,,,,
1732157237.503201,1732157237.504079,47.000000,0.000000,4292.307617,4281.666504,4314.358887,4293.205078,4266.153809,4278.077148,4334.871582,4398.974121,4299.358887,4285.384766,4473.846191,4496.410156,4343.205078,4396.538574,0.000000,1.000000,25.000000,,,,0.000000,2.000000,2.000000,0.000000,4.000000,2.000000,2.000000,0.000000,0.000000,4.000000,4.000000,4.000000,4.000000,4.000000,4.000000,0.000000,,,,,,,,,,,,,,,,,,,,,,,,,,,,
1732157237.511009,1732157237.511987,48.000000,0.000000,4296.538574,4284.743652,4313.461426,4295.641113,4268.205078,4279.358887,4335.256348,4399.358887,4293.077148,4278.974121,4474.102539,4497.820313,4343.461426,4393.846191,0.000000,1.000000,25.000000,,,,0.000000,2.000000,2.000000,0.000000,4.000000,2.000000,2.000000,0.000000,0.000000,4.000000,4.000000,4.000000,4.000000,4.000000,4.000000,0.000000,,,,,,,,,,,,,,,,,12.000000,0.000000,0.523721,0.485046,-0.538025,0.448303,0.988402,0.012697,-0.041021,-35.325119,45.916008,31.460543
1732157237.518817,1732157237.519796,49.000000,0.000000,4292.820313,4285.641113,4313.846191,4295.769043,4271.922852,4280.512695,4333.461426,4397.948730,4292.948730,4277.692383,4475.384766,4493.589844,4340.641113,4389.358887,0.000000,1.000000,25.000000,,,,0.000000,2.000000,2.000000,0.000000,4.000000,2.000000,2.000000,0.000000,0.000000,4.000000,4.000000,4.000000,4.000000,4.000000,4.000000,0.000000,,,,,,,,,,,,,,,,,,,,,,,,,,,,
1732157237.526625,1732157237.527804,50.000000,0.000000,4289.358887,4282.307617,4315.000000,4293.717773,4275.384766,4280.897461,4332.692383,4397.307617,4294.615234,4278.974121,4474.743652,4491.025879,4340.512695,4392.051270,0.000000,1.000000,25.000000,,,,0.000000,2.000000,2.000000,0.000000,4.000000,2.000000,2.000000,0.000000,0.000000,4.000000,4.000000,4.000000,4.000000,4.000000,4.000000,0.000000,,,,,,,,,,,,,,,,,,,,,,,,,,,,
1732157237.534433,1732157237.535612,51.000000,0.000000,4288.205078,4280.000000,4315.384766,4292.563965,4278.846191,4281.794922,4333.974121,4397.436035,4294.487305,4278.205078,4473.461426,4493.077148,4341.410156,4397.051270,0.000000,1.000000,25.000000,,,,0.000000,2.000000,2.000000,0.000000,4.000000,2.000000,2.000000,0.000000,0.000000,4.000000,4.000000,4.000000,4.000000,4.000000,4.000000,0.000000,,,,,,,,,,,,,,,,,,,,,,,,,,,,
1732157237.542242,1732157237.543320,52.000000,0.000000,4289.487305,4281.922852,4313.846191,4292.436035,4278.205078,4282.692383,4332.820313,4397.307617,4297.436035,4280.769043,4475.641113,4494.102539,4344.230957,4398.205078,0.000000,1.000000,25.000000,,,,0.000000,2.000000,2.000000,0.000000,4.000000,2.000000,2.000000,0.000000,0.000000,4.000000,4.000000,4.000000,4.000000,4.000000,4.000000,0.000000,,,,,,,,,,,,,,,,,13.000000,0.000000,0.523671,0.485596,-0.537781,0.448059,0.984007,0.031742,-0.043951,-35.361679,45.933632,31.298038
1732157237.550050,1732157237.551128,53.000000,0.000000,4289.358887,4283.589844,4311.025879,4292.563965,4275.128418,4281.410156,4330.384766,4400.000000,4297.692383,4283.205078,4476.410156,4492.692383,4346.282227,4399.102539,0.000000,1.000000,25.000000,,,,0.000000,2.000000,2.000000,0.000000,4.000000,2.000000,2.000000,0.000000,0.000000,4.000000,4.000000,4.000000,4.000000,4.000000,4.000000,0.000000,,,,,,,,,,,,,,,,,,,,,,,,,,,,
1732157237.557858,1732157237.558737,54.000000,0.000000,4289.487305,4283.205078,4310.128418,4293.333496,4277.051270,4280.128418,4330.641113,4401.922852,4298.333496,4280.512695,4475.000000,4493.589844,4344.743652,4399.487305,0.000000,1.000000,25.000000,,,,0.000000,2.000000,2.000000,0.000000,4.000000,2.000000,2.000000,0.000000,0.000000,4.000000,4.000000,4.000000,4.000000,4.000000,4.000000,0.000000,,,,,,,,,,,,,,,,,,,,,,,,,,,,
1732157237.565667,1732157237.566545,55.000000,0.000000,4291.153809,4283.846191,4310.256348,4295.256348,4276.282227,4280.897461,4332.307617,4398.974121,4301.410156,4280.897461,4475.897461,4494.743652,4344.615234,4396.410156,0.000000,1.000000,25.000000,,,,0.000000,2.000000,2.000000,0.000000,4.000000,2.000000,2.000000,0.000000,0.000000,4.000000,4.000000,4.000000,4.000000,4.000000,4.000000,0.000000,,,,,,,,,,,,,,,,,,,,,,,,,,,,
1732157237.573475,1732157237.574453,56.000000,0.000000,4291.410156,4290.641113,4309.230957,4296.025879,4273.589844,4280.897461,4332.692383,4395.897461,4301.922852,4283.589844,4474.230957,4494.743652,4346.794922,4394.230957,0.000000,1.000000,25.000000,,,,0.000000,2.000000,2.000000,0.000000,4.000000,2.000000,2.000000,0.000000,0.000000,4.000000,4.000000,4.000000,4.000000,4.000000,4.000000,0.000000,,,,,,,,,,,,,,,,,14.000000,0.000000,0.524216,0.486694,-0.537170,0.446960,0.970333,0.044927,-0.039556,-35.401295,46.061241,31.123077
1732157237.581283,1732157237.582261,57.000000,0.000000,4292.051270,4294.230957,4307.948730,4295.641113,4285.384766,4278.846191,4332.307617,4396.538574,4296.538574,4279.102539,4473.077148,4492.436035,4345.128418,4395.769043,0.000000,1.000000,25.000000,,,,0.000000,2.000000,2.000000,0.000000,4.000000,2.000000,2.000000,0.000000,0.000000,4.000000,4.000000,4.000000,4.000000,4.000000,4.000000,0.000000,,,,,,,,,,,,,,,,,,,,,,,,,,,,
1732157237.589091,1732157237.589870,58.000000,0.000000,4293.974121,4289.102539,4309.230957,4298.589844,4288.846191,4278.974121,4334.102539,4398.333496,4293.205078,4274.743652,4474.743652,4489.615234,4341.666504,4396.922852,0.000000,1.000000,25.000000,,,,0.000000,2.000000,2.000000,0.000000,4.000000,2.000000,2.000000,0.000000,0.000000,4.000000,4.000000,4.000000,4.000000,4.000000,4.000000,0.000000,,,,,,,,,,,,,,,,,,,,,,,,,,,,
1732157237.596899,1732157237.597678,59.000000,0.000000,4295.641113,4288.717773,4311.922852,4300.512695,4270.384766,4282.179688,4333.717773,4400.000000,4301.025879,4282.820313,4478.205078,4496.153809,4344.487305,4398.205078,0.000000,1.000000,25.000000,,,,0.000000,2.000000,2.000000,0.000000,4.000000,2.000000,2.000000,0.000000,0.000000,4.000000,4.000000,4.000000,4.000000,4.000000,4.000000,0.000000,,,,,,,,,,,,,,,,,,,,,,,,,,,,
1732157237.604708,1732157237.605586,60.000000,0.000000,4296.538574,4295.256348,4308.717773,4301.282227,4259.871582,4283.077148,4330.256348,4399.102539,4307.948730,4289.743652,4478.846191,4501.410156,4346.922852,4401.025879,0.000000,1.000000,25.000000,,,,0.000000,2.000000,2.000000,0.000000,4.000000,2.000000,2.000000,0.000000,0.000000,4.000000,4.000000,4.000000,4.000000,4.000000,4.000000,0.000000,,,,,,,,,,,,,,,,,15.000000,0.000000,0.524407,0.488403,-0.536194,0.446045,0.965938,0.041997,-0.048346,-35.438381,46.072941,31.098026
1732157237.612516,1732157237.613394,61.000000,0.000000,4296.666504,4295.897461,4305.769043,4302.436035,4266.794922,4280.384766,4326.922852,4398.333496,4302.179688,4282.563965,4475.128418,4498.077148,4338.461426,4401.922852,0.000000,1.000000,25.000000,,,,0.000000,2.000000,2.000000,0.000000,4.000000,2.000000,2.000000,0.000000,0.000000,4.000000,4.000000,4.000000,4.000000,4.000000,4.000000,0.000000,,,,,,,,,,,,,,,,,,,,,,,,,,,,
1732157237.620324,1732157237.621402,62.000000,0.000000,4296.282227,4292.436035,4305.769043,4302.820313,4271.538574,4279.487305,4321.922852,4395.512695,4295.128418,4275.641113,4472.436035,4496.666504,4332.179688,4397.692383,0.000000,1.000000,25.000000,,,,0.000000,2.000000,2.000000,0.000000,4.000000,2.000000,2.000000,0.000000,0.000000,4.000000,4.000000,4.000000,4.000000,4.000000,4.000000,0.000000,,,,,,,,,,,,,,,,,,,,,,,,,,,,
1732157237.628132,1732157237.629211,63.000000,0.000000,4294.230957,4292.820313,4301.410156,4300.000000,4273.974121,4281.538574,4317.563965,4392.307617,4294.487305,4277.307617,4471.922852,4494.102539,4334.102539,4393.846191,0.000000,1.000000,25.000000,,,,0.000000,2.000000,2.000000,0.000000,4.000000,2.000000,2.000000,0.000000,0.000000,4.000000,4.000000,4.000000,4.000000,4.000000,4.000000,0.000000,,,,,,,,,,,,,,,,,,,,,,,,,,,,
1732157237.635941,1732157237.637119,64.000000,0.000000,4292.563965,4292.563965,4292.692383,4303.333496,4278.717773,4284.230957,4317.948730,4394.230957,4292.051270,4278.846191,4471.538574,4493.077148,4336.153809,4395.384766,0.000000,1.000000,25.000000,,,,0.000000,2.000000,2.000000,0.000000,4.000000,2.000000,2.000000,0.000000,0.000000,4.000000,4.000000,4.000000,4.000000,4.000000,4.000000,0.000000,,,,,,,,,,,,,,,,,16.000000,0.000000,0.524403,0.488708,-0.536072,0.445862,0.965938,0.041997,-0.048346,-35.418423,46.090748,31.269402
1732157237.643749,1732157237.644927,65.000000,0.000000,4294.358887,4291.538574,4292.179688,4309.871582,4279.102539,4284.358887,4322.820313,4395.000000,4294.230957,4280.384766,4470.512695,4505.384766,4337.051270,4397.563965,1591.000000,1.000000,25.000000,,,,0.000000,2.000000,2.000000,0.000000,4.000000,2.000000,2.000000,0.000000,0.000000,4.000000,4.000000,4.000000,4.000000,4.000000,4.000000,0.000000,,,,,,,,,,,,,,,,,,,,,,,,,,,,
1732157237.651557,1732157237.652935,66.000000,0.000000,4296.538574,4295.128418,4293.974121,4305.641113,4277.307617,4281.025879,4320.512695,4387.948730,4302.307617,4283.333496,4472.307617,4508.589844,4336.025879,4397.948730,1386.000000,1.000000,25.000000,,,,0.000000,2.000000,2.000000,0.000000,4.000000,2.000000,2.000000,0.000000,0.000000,4.000000,4.000000,4.000000,4.000000,4.000000,4.000000,0.000000,,,,,,,,,,,,,,,,,,,,,,,,,,,,
1732157237.659366,1732157237.660743,67.000000,0.000000,4296.410156,4297.179688,4286.666504,4300.000000,4277.692383,4279.871582,4317.436035,4384.743652,4300.128418,4282.436035,4474.487305,4492.179688,4336.282227,4397.948730,1411.000000,1.000000,25.000000,,,,0.000000,2.000000,2.000000,0.000000,4.000000,2.000000,2.000000,0.000000,0.000000,4.000000,4.000000,4.000000,4.000000,4.000000,4.000000,0.000000,,,,,,,,,,,,,,,,,,,,,,,,,,,,
1732157237.667174,1732157237.668651,68.000000,0.000000,4296.153809,4297.179688,4282.948730,4303.717773,4281.410156,4282.179688,4320.128418,4391.282227,4295.512695,4280.897461,4474.230957,4489.743652,4338.589844,4397.307617,1409.000000,1.000000,25.000000,,,,0.000000,2.000000,2.000000,0.000000,4.000000,2.000000,2.000000,0.000000,0.000000,4.000000,4.000000,4.000000,4.000000,4.000000,4.000000,0.000000,,,,,,,,,,,,,,,,,17.000000,0.000000,0.523786,0.488342,-0.537109,0.445740,0.949335,0.001465,-0.045904,-35.292255,45.995174,31.231548
1732157237.674982,1732157237.676459,69.000000,0.000000,4296.794922,4295.256348,4285.256348,4308.589844,4277.563965,4282.820313,4319.871582,4391.922852,4297.948730,4282.307617,4474.487305,4498.717773,4337.179688,4397.692383,1229.000000,1.000000,25.000000,,,,0.000000,2.000000,2.000000,0.000000,4.000000,2.000000,2.000000,0.000000,0.000000,4.000000,4.000000,4.000000,4.000000,4.000000,4.000000,0.000000,,,,,,,,,,,,,,,,,,,,,,,,,,,,
1732157237.682790,1732157237.684467,70.000000,0.000000,4295.769043,4288.846191,4286.025879,4303.589844,4278.077148,4281.794922,4318.589844,4386.410156,4298.333496,4280.512695,4471.666504,4495.256348,4334.102539,4398.974121,0.000000,1.000000,25.000000,,,,0.000000,2.000000,2.000000,0.000000,4.000000,2.000000,2.000000,0.000000,0.000000,4.000000,4.000000,4.000000,4.000000,4.000000,4.000000,0.000000,,,,,,,,,,,,,,,,,,,,,,,,,,,,
1732157237.690598,1732157237.692276,71.000000,0.000000,4294.358887,4285.384766,4285.128418,4297.436035,4289.102539,4280.641113,4319.230957,4386.922852,4295.641113,4277.820313,4468.974121,4489.743652,4333.846191,4396.922852,0.000000,1.000000,25.000000,,,,0.000000,2.000000,2.000000,0.000000,4.000000,2.000000,2.000000,0.000000,0.000000,4.000000,4.000000,4.000000,4.000000,4.000000,4.000000,0.000000,,,,,,,,,,,,,,,,,,,,,,,,,,,,
1732157237.698407,1732157237.700184,72.000000,0.000000,4295.384766,4288.974121,4287.307617,4299.358887,4280.641113,4279.230957,4320.384766,4387.948730,4295.000000,4279.615234,4471.794922,4491.794922,4335.000000,4397.436035,1526.000000,1.000000,25.000000,,,,0.000000,2.000000,2.000000,0.000000,4.000000,2.000000,2.000000,0.000000,0.000000,4.000000,4.000000,4.000000,4.000000,4.000000,4.000000,0.000000,,,,,,,,,,,,,,,,,18.000000,0.000000,0.523325,0.487976,-0.537537,0.446167,0.967892,0.023440,-0.055671,-35.290062,45.967758,31.067554
1732157237.706215,1732157237.707992,73.000000,0.000000,4296.153809,4291.410156,4288.589844,4299.358887,4261.153809,4279.743652,4319.615234,4387.436035,4299.487305,4284.487305,4475.769043,4500.512695,4337.692383,4406.025879,1668.000000,1.000000,25.000000,,,,0.000000,2.000000,2.000000,0.000000,4.000000,2.000000,2.000000,0.000000,0.000000,4.000000,4.000000,4.000000,4.000000,4.000000,4.000000,0.000000,,,,,,,,,,,,,,,,,,,,,,,,,,,,
1732157237.714023,1732157237.716000,74.000000,0.000000,4296.538574,4290.897461,4290.128418,4296.025879,4262.307617,4280.000000,4319.230957,4392.436035,4307.307617,4291.794922,4476.538574,4508.589844,4342.948730,4408.974121,1526.000000,1.000000,25.000000,,,,0.000000,2.000000,2.000000,0.000000,4.000000,2.000000,2.000000,0.000000,0.000000,4.000000,4.000000,4.000000,4.000000,4.000000,4.000000,0.000000,,,,,,,,,,,,,,,,,,,,,,,,,,,,
1732157237.721831,1732157237.723808,75.000000,0.000000,4297.307617,4288.974121,4295.769043,4295.641113,4269.230957,4276.794922,4320.641113,4394.102539,4308.077148,4294.487305,4474.743652,4505.384766,4341.794922,4401.794922,1569.000000,1.000000,25.000000,,,,0.000000,2.000000,2.000000,0.000000,4.000000,2.000000,2.000000,0.000000,0.000000,4.000000,4.000000,4.000000,4.000000,4.000000,4.000000,0.000000,,,,,,,,,,,,,,,,,,,,,,,,,,,,
1732157237.729640,1732157237.731716,76.000000,0.000000,4297.307617,4282.436035,4298.205078,4297.436035,4264.102539,4275.897461,4321.153809,4391.538574,4305.384766,4285.769043,4468.717773,4497.820313,4336.282227,4397.692383,1690.000000,1.000000,25.000000,,,,0.000000,2.000000,2.000000,0.000000,4.000000,2.000000,2.000000,0.000000,0.000000,4.000000,4.000000,4.000000,4.000000,4.000000,4.000000,0.000000,,,,,,,,,,,,,,,,,19.000000,0.000000,0.523139,0.487244,-0.538330,0.446228,0.967892,0.023440,-0.055671,-35.196617,45.595551,31.254719
1732157237.737448,1732157237.739524,77.000000,0.000000,4296.153809,4281.666504,4300.128418,4296.153809,4265.641113,4280.000000,4322.692383,4393.205078,4307.692383,4279.743652,4464.358887,4502.307617,4332.563965,4397.948730,1675.000000,1.000000,25.000000,,,,0.000000,2.000000,2.000000,0.000000,4.000000,2.000000,2.000000,0.000000,0.000000,4.000000,4.000000,4.000000,4.000000,4.000000,4.000000,0.000000,,,,,,,,,,,,,,,,,,,,,,,,,,,,
1732157237.745256,1732157237.747133,78.000000,0.000000,4296.666504,4287.948730,4303.205078,4297.051270,4270.128418,4281.282227,4325.384766,4394.743652,4309.358887,4284.102539,4470.256348,4507.307617,4335.000000,4396.922852,1526.000000,1.000000,25.000000,,,,0.000000,2.000000,2.000000,0.000000,4.000000,2.000000,2.000000,0.000000,0.000000,4.000000,4.000000,4.000000,4.000000,4.000000,4.000000,0.000000,1.000000,0.000000,2.000000,2.000000,0.000000,4.000000,1.000000,0.000000,0.000000,0.000000,4.000000,4.000000,4.000000,4.000000,3.000000,4.000000,,,,,,,,,,,,
1732157237.753064,1732157237.754941,79.000000,0.000000,4297.307617,4284.615234,4307.307617,4297.307617,4268.205078,4279.615234,4326.025879,4392.820313,4308.461426,4288.461426,4475.256348,4502.051270,4342.820313,4397.820313,1569.000000,1.000000,25.000000,,,,0.000000,2.000000,2.000000,0.000000,4.000000,2.000000,2.000000,0.000000,0.000000,4.000000,4.000000,4.000000,4.000000,4.000000,4.000000,0.000000,,,,,,,,,,,,,,,,,,,,,,,,,,,,
1732157237.760873,1732157237.762649,80.000000,0.000000,4295.769043,4278.717773,4310.769043,4293.589844,4268.333496,4279.487305,4325.128418,4396.410156,4310.769043,4289.743652,4472.948730,4501.282227,4341.794922,4398.846191,1690.000000,1.000000,25.000000,,,,0.000000,2.000000,2.000000,0.000000,4.000000,2.000000,2.000000,0.000000,0.000000,4.000000,4.000000,4.000000,4.000000,4.000000,4.000000,0.000000,,,,,,,,,,,,,,,,,20.000000,0.000000,0.521932,0.484436,-0.541016,0.447449,0.987914,0.005860,-0.049322,-35.050926,45.410728,31.289656
1732157237.768681,1732157237.770458,81.000000,0.000000,4294.230957,4280.256348,4313.077148,4293.205078,4269.743652,4280.128418,4328.717773,4400.512695,4315.512695,4295.000000,4474.615234,4506.538574,4334.358887,4397.692383,1675.000000,1.000000,25.000000,,,,0.000000,2.000000,2.000000,0.000000,4.000000,2.000000,2.000000,0.000000,0.000000,4.000000,4.000000,4.000000,4.000000,4.000000,4.000000,0.000000,,,,,,,,,,,,,,,,,,,,,,,,,,,,
1732157237.776489,1732157237.778066,82.000000,0.000000,4294.102539,4282.307617,4312.436035,4295.000000,4272.051270,4278.589844,4332.051270,4397.436035,4314.102539,4298.205078,4477.563965,4500.512695,4335.000000,4400.641113,1526.000000,1.000000,25.000000,,,,0.000000,2.000000,2.000000,0.000000,4.000000,2.000000,2.000000,0.000000,0.000000,4.000000,4.000000,4.000000,4.000000,4.000000,4.000000,0.000000,,,,,,,,,,,,,,,,,,,,,,,,,,,,
1732157237.784297,1732157237.785874,83.000000,0.000000,4295.897461,4281.922852,4313.205078,4295.769043,4273.717773,4277.948730,4329.487305,4397.307617,4303.974121,4290.897461,4474.358887,4495.256348,4338.589844,4404.743652,1569.000000,1.000000,25.000000,,,,0.000000,2.000000,2.000000,0.000000,4.000000,2.000000,2.000000,0.000000,0.000000,4.000000,4.000000,4.000000,4.000000,4.000000,4.000000,0.000000,,,,,,,,,,,,,,,,,,,,,,,,,,,,
1732157237.792106,1732157237.793582,84.000000,0.000000,4297.051270,4281.538574,4315.769043,4296.794922,4276.153809,4278.717773,4329.871582,4399.230957,4293.077148,4280.256348,4469.871582,4502.563965,4335.641113,4405.641113,1690.000000,1.000000,25.000000,,,,0.000000,2.000000,2.000000,0.000000,4.000000,2.000000,2.000000,0.000000,0.000000,4.000000,4.000000,4.000000,4.000000,4.000000,4.000000,0.000000,,,,,,,,,,,,,,,,,21.000000,0.000000,0.521856,0.483643,-0.541748,0.447510,0.989379,0.010743,-0.026859,-34.999584,45.494358,31.334621
1732157237.799914,1732157237.801391,85.000000,0.000000,4298.205078,4282.563965,4317.820313,4297.051270,4274.615234,4278.333496,4334.102539,4399.487305,4293.846191,4279.102539,4471.153809,4506.282227,4333.077148,4407.179688,1675.000000,1.000000,25.000000,,,,0.000000,2.000000,2.000000,0.000000,4.000000,2.000000,2.000000,0.000000,0.000000,4.000000,4.000000,4.000000,4.000000,4.000000,4.000000,0.000000,,,,,,,,,,,,,,,,,,,,,,,,,,,,
1732157237.807722,1732157237.808999,86.000000,0.000000,4301.282227,4282.179688,4318.589844,4296.025879,4268.205078,4279.230957,4333.717773,4398.974121,4298.077148,4283.205078,4475.897461,4503.205078,4335.769043,4412.051270,1526.000000,1.000000,25.000000,,,,0.000000,2.000000,2.000000,0.000000,4.000000,2.000000,2.000000,0.000000,0.000000,4.000000,4.000000,4.000000,4.000000,4.000000,4.000000,0.000000,,,,,,,,,,,,,,,,,,,,,,,,,,,,
1732157237.815530,1732157237.816807,87.000000,0.000000,4303.846191,4283.205078,4317.179688,4296.282227,4265.769043,4275.128418,4331.794922,4397.179688,4301.538574,4284.871582,4478.333496,4506.025879,4342.179688,4415.897461,1569.000000,1.000000,25.000000,,,,0.000000,2.000000,2.000000,0.000000,4.000000,2.000000,2.000000,0.000000,0.000000,4.000000,4.000000,4.000000,4.000000,4.000000,4.000000,0.000000,,,,,,,,,,,,,,,,,,,,,,,,,,,,
1732157237.823339,1732157237.824516,88.000000,0.000000,4305.000000,4286.282227,4314.358887,4296.153809,4266.282227,4267.820313,4335.000000,4396.922852,4308.333496,4285.769043,4476.025879,4509.102539,4343.846191,4412.820313,1690.000000,1.000000,25.000000,,,,0.000000,2.000000,2.000000,0.000000,4.000000,2.000000,2.000000,0.000000,0.000000,4.000000,4.000000,4.000000,4.000000,4.000000,4.000000,0.000000,,,,,,,,,,,,,,,,,22.000000,0.000000,0.521838,0.483582,-0.541870,0.447449,0.999634,0.033696,-0.047857,-34.809662,45.685429,31.302710
1732157237.831147,1732157237.832324,89.000000,0.000000,4303.717773,4282.563965,4315.641113,4292.563965,4264.615234,4270.128418,4333.846191,4398.461426,4307.051270,4283.717773,4471.922852,4504.871582,4336.025879,4406.282227,1675.000000,1.000000,25.000000,,,,0.000000,2.000000,2.000000,0.000000,4.000000,2.000000,2.000000,0.000000,0.000000,4.000000,4.000000,4.000000,4.000000,4.000000,4.000000,0.000000,,,,,,,,,,,,,,,,,,,,,,,,,,,,
1732157237.838955,1732157237.839932,90.000000,0.000000,4302.307617,4281.410156,4317.436035,4291.922852,4262.692383,4276.666504,4328.333496,4400.641113,4297.820313,4278.589844,4470.769043,4501.538574,4333.717773,4403.333496,1526.000000,1.000000,25.000000,,,,0.000000,2.000000,2.000000,0.000000,4.000000,2.000000,2.000000,0.000000,0.000000,4.000000,4.000000,4.000000,4.000000,4.000000,4.000000,0.000000,,,,,,,,,,,,,,,,,,,,,,,,,,,,
1732157237.846763,1732157237.847740,91.000000,0.000000,4305.641113,4289.102539,4316.025879,4295.000000,4265.897461,4277.179688,4331.922852,4398.461426,4296.025879,4278.461426,4472.820313,4504.487305,4342.820313,4407.436035,1569.000000,1.000000,25.000000,,,,0.000000,2.000000,2.000000,0.000000,4.000000,2.000000,2.000000,0.000000,0.000000,4.000000,4.000000,4.000000,4.000000,4.000000,4.000000,0.000000,,,,,,,,,,,,,,,,,,,,,,,,,,,,
1732157237.854571,1732157237.855649,92.000000,0.000000,4310.769043,4291.153809,4315.000000,4296.025879,4268.077148,4281.282227,4337.307617,4395.000000,4299.102539,4282.307617,4475.256348,4508.333496,4345.897461,4412.051270,1690.000000,1.000000,25.000000,,,,0.000000,2.000000,2.000000,0.000000,4.000000,2.000000,2.000000,0.000000,0.000000,4.000000,4.000000,4.000000,4.000000,4.000000,4.000000,0.000000,,,,,,,,,,,,,,,,,23.000000,0.000000,0.521985,0.483887,-0.541809,0.447021,0.986449,0.045416,-0.067391,-34.877491,45.555199,31.245195
1732157237.862380,1732157237.863457,93.000000,0.000000,4310.384766,4285.256348,4317.307617,4294.871582,4265.128418,4283.717773,4333.974121,4396.794922,4295.897461,4280.641113,4472.563965,4506.025879,4338.717773,4413.461426,1675.000000,1.000000,25.000000,,,,0.000000,2.000000,2.000000,0.000000,4.000000,2.000000,2.000000,0.000000,0.000000,4.000000,4.000000,4.000000,4.000000,4.000000,4.000000,0.000000,,,,,,,,,,,,,,,,,,,,,,,,,,,,
1732157237.870188,1732157237.871465,94.000000,0.000000,4309.230957,4283.717773,4316.410156,4294.102539,4260.769043,4275.641113,4330.256348,4399.230957,4293.974121,4275.000000,4467.820313,4502.820313,4337.948730,4411.282227,1526.000000,1.000000,25.000000,,,,0.000000,2.000000,2.000000,0.000000,4.000000,2.000000,2.000000,0.000000,0.000000,4.000000,4.000000,4.000000,4.000000,4.000000,4.000000,0.000000,,,,,,,,,,,,,,,,,,,,,,,,,,,,
1732157237.877996,1732157237.879273,95.000000,0.000000,4313.717773,4286.666504,4315.384766,4293.846191,4262.692383,4273.461426,4333.846191,4398.461426,4297.692383,4276.025879,4472.948730,4505.897461,4347.307617,4410.000000,1569.000000,1.000000,25.000000,,,,0.000000,2.000000,2.000000,0.000000,4.000000,2.000000,2.000000,0.000000,0.000000,4.000000,4.000000,4.000000,4.000000,4.000000,4.000000,0.000000,,,,,,,,,,,,,,,,,,,,,,,,,,,,
1732157237.885805,1732157237.886981,96.000000,0.000000,4319.871582,4291.922852,4320.769043,4294.487305,4261.282227,4274.487305,4335.512695,4398.461426,4297.436035,4279.743652,4480.256348,4507.820313,4352.179688,4419.743652,1690.000000,1.000000,25.000000,,,,0.000000,2.000000,2.000000,0.000000,4.000000,2.000000,2.000000,0.000000,0.000000,4.000000,4.000000,4.000000,4.000000,4.000000,4.000000,0.000000,,,,,,,,,,,,,,,,,24.000000,0.000000,0.520610,0.484497,-0.541931,0.447815,0.967403,0.000977,-0.082041,-35.100769,45.479710,31.488607
1732157237.893613,1732157237.894790,97.000000,0.000000,4323.077148,4297.948730,4325.384766,4296.538574,4251.025879,4266.666504,4334.102539,4403.205078,4298.077148,4280.641113,4482.563965,4508.461426,4353.333496,4428.717773,1675.000000,1.000000,25.000000,,,,0.000000,2.000000,2.000000,0.000000,4.000000,2.000000,2.000000,0.000000,0.000000,4.000000,4.000000,4.000000,4.000000,4.000000,4.000000,0.000000,,,,,,,,,,,,,,,,,,,,,,,,,,,,
1732157237.901421,1732157237.902398,98.000000,0.000000,4326.153809,4296.922852,4324.230957,4298.461426,4247.051270,4263.333496,4334.871582,4403.205078,4302.820313,4280.128418,4485.897461,4516.282227,4359.230957,4429.487305,1526.000000,1.000000,25.000000,,,,0.000000,2.000000,2.000000,0.000000,4.000000,2.000000,2.000000,0.000000,0.000000,4.000000,4.000000,4.000000,4.000000,4.000000,4.000000,0.000000,,,,,,,,,,,,,,,,,,,,,,,,,,,,
1732157237.909229,1732157237.910206,99.000000,0.000000,4331.410156,4294.230957,4324.230957,4295.897461,4250.641113,4267.563965,4336.025879,4397.563965,4302.179688,4282.179688,4488.077148,4522.563965,4365.512695,4434.743652,1569.000000,1.000000,25.000000,,,,0.000000,2.000000,2.000000,0.000000,4.000000,2.000000,2.000000,0.000000,0.000000,4.000000,4.000000,4.000000,4.000000,4.000000,4.000000,0.000000,,,,,,,,,,,,,,,,,,,,,,,,,,,,
1732157237.917038,1732157237.917914,100.000000,0.000000,4339.230957,4298.717773,4327.051270,4296.922852,4248.974121,4264.487305,4335.512695,4402.051270,4292.051270,4277.820313,4488.205078,4520.256348,4365.769043,4445.641113,1690.000000,1.000000,25.000000,,,,0.000000,2.000000,2.000000,0.000000,4.000000,2.000000,2.000000,0.000000,0.000000,4.000000,4.000000,4.000000,4.000000,4.000000,4.000000,0.000000,,,,,,,,,,,,,,,,,25.000000,0.000000,0.519631,0.484802,-0.541992,0.448547,0.958125,-0.001465,-0.086436,-35.209957,45.538567,31.675772
1732157237.924846,1732157237.925723,101.000000,0.000000,4347.179688,4305.512695,4327.051270,4305.384766,4245.128418,4258.461426,4334.230957,4410.256348,4283.077148,4267.436035,4489.358887,4520.384766,4365.256348,4446.410156,1675.000000,1.000000,25.000000,,,,0.000000,2.000000,2.000000,0.000000,4.000000,2.000000,2.000000,0.000000,0.000000,4.000000,4.000000,4.000000,4.000000,4.000000,4.000000,0.000000,,,,,,,,,,,,,,,,,,,,,,,,,,,,
1732157237.932654,1732157237.933731,102.000000,0.000000,4351.794922,4310.000000,4326.153809,4307.307617,4245.128418,4261.025879,4335.512695,4407.563965,4278.333496,4264.358887,4485.769043,4523.333496,4365.256348,4443.205078,1526.000000,1.000000,25.000000,,,,0.000000,2.000000,2.000000,0.000000,4.000000,2.000000,2.000000,0.000000,0.000000,4.000000,4.000000,4.000000,4.000000,4.000000,4.000000,0.000000,,,,,,,,,,,,,,,,,,,,,,,,,,,,
1732157237.940462,1732157237.941539,103.000000,0.000000,4351.922852,4310.256348,4326.153809,4304.230957,4243.205078,4262.948730,4335.769043,4400.897461,4277.179688,4268.205078,4483.589844,4522.948730,4366.538574,4452.563965,1569.000000,1.000000,25.000000,,,,0.000000,2.000000,2.000000,0.000000,4.000000,2.000000,2.000000,0.000000,0.000000,4.000000,4.000000,4.000000,4.000000,4.000000,4.000000,0.000000,,,,,,,,,,,,,,,,,,,,,,,,,,,,
1732157237.948270,1732157237.949447,104.000000,0.000000,4351.538574,4310.384766,4328.589844,4305.897461,4239.230957,4261.153809,4331.922852,4401.538574,4278.717773,4268.717773,4490.384766,4524.230957,4367.948730,4458.846191,1690.000000,1.000000,25.000000,,,,0.000000,2.000000,2.000000,0.000000,4.000000,2.000000,2.000000,0.000000,0.000000,4.000000,4.000000,4.000000,4.000000,4.000000,4.000000,0.000000,,,,,,,,,,,,,,,,,26.000000,0.000000,0.519188,0.485291,-0.541626,0.448975,0.963008,0.000000,-0.075204,-35.191730,45.704571,31.365709
1732157237.956079,1732157237.957255,105.000000,0.000000,4351.922852,4311.025879,4328.589844,4308.717773,4242.179688,4261.153809,4331.153809,4405.000000,4278.461426,4265.000000,4486.538574,4521.538574,4363.589844,4448.205078,1675.000000,1.000000,25.000000,,,,0.000000,2.000000,2.000000,0.000000,4.000000,2.000000,2.000000,0.000000,0.000000,4.000000,4.000000,4.000000,4.000000,4.000000,4.000000,0.000000,,,,,,,,,,,,,,,,,,,,,,,,,,,,
1732157237.963887,1732157237.965263,106.000000,0.000000,4354.230957,4311.410156,4325.000000,4310.000000,4248.974121,4262.051270,4332.563965,4405.897461,4278.077148,4264.358887,4475.641113,4514.230957,4361.410156,4444.102539,1526.000000,1.000000,25.000000,,,,0.000000,2.000000,2.000000,0.000000,4.000000,2.000000,2.000000,0.000000,0.000000,4.000000,4.000000,4.000000,4.000000,4.000000,4.000000,0.000000,,,,,,,,,,,,,,,,,,,,,,,,,,,,
1732157237.971695,1732157237.973071,107.000000,0.000000,4356.666504,4311.922852,4326.410156,4310.641113,4251.025879,4264.358887,4332.051270,4403.077148,4279.102539,4265.769043,4478.461426,4516.794922,4367.179688,4453.846191,1569.000000,1.000000,25.000000,,,,0.000000,2.000000,2.000000,0.000000,4.000000,2.000000,2.000000,0.000000,0.000000,4.000000,4.000000,4.000000,4.000000,4.000000,4.000000,0.000000,,,,,,,,,,,,,,,,,,,,,,,,,,,,
1732157237.979504,1732157237.980979,108.000000,0.000000,4357.051270,4309.487305,4328.717773,4308.461426,4248.461426,4265.384766,4332.436035,4400.897461,4280.641113,4266.922852,4485.128418,4522.307617,4367.436035,4455.384766,1690.000000,1.000000,25.000000,,,,0.000000,2.000000,2.000000,0.000000,4.000000,2.000000,2.000000,0.000000,0.000000,4.000000,4.000000,4.000000,4.000000,4.000000,4.000000,0.000000,,,,,,,,,,,,,,,,,27.000000,0.000000,0.519076,0.485718,-0.541199,0.449158,0.974240,0.014650,-0.073251,-35.250301,45.612370,31.517891
1732157237.987312,1732157237.988788,109.000000,0.000000,4359.615234,4311.025879,4327.051270,4309.358887,4248.205078,4257.563965,4336.282227,4403.846191,4281.410156,4266.153809,4488.333496,4519.358887,4363.333496,4451.538574,1675.000000,1.000000,25.000000,,,,0.000000,2.000000,2.000000,0.000000,4.000000,2.000000,2.000000,0.000000,0.000000,4.000000,4.000000,4.000000,4.000000,4.000000,4.000000,0.000000,,,,,,,,,,,,,,,,,,,,,,,,,,,,
1732157237.995120,1732157237.996796,110.000000,0.000000,4366.153809,4321.025879,4327.179688,4313.461426,4247.948730,4248.846191,4333.077148,4402.948730,4278.589844,4265.128418,4489.358887,4518.717773,4371.153809,4458.717773,1526.000000,1.000000,25.000000,,,,0.000000,2.000000,2.000000,0.000000,4.000000,2.000000,2.000000,0.000000,0.000000,4.000000,4.000000,4.000000,4.000000,4.000000,4.000000,0.000000,,,,,,,,,,,,,,,,,,,,,,,,,,,,
1732157238.002928,1732157238.004604,111.000000,0.000000,4368.461426,4328.077148,4328.333496,4313.461426,4246.410156,4248.077148,4328.846191,4402.307617,4275.384766,4271.410156,4489.743652,4523.846191,4382.948730,4462.820313,1569.000000,1.000000,25.000000,,,,0.000000,2.000000,2.000000,0.000000,4.000000,2.000000,2.000000,0.000000,0.000000,4.000000,4.000000,4.000000,4.000000,4.000000,4.000000,0.000000,,,,,,,,,,,,,,,,,,,,,,,,,,,,
1732157238.010736,1732157238.012312,112.000000,0.000000,4367.563965,4324.871582,4326.410156,4315.897461,4247.307617,4249.871582,4332.436035,4406.282227,4276.153809,4279.615234,4498.589844,4524.102539,4384.230957,4458.974121,1690.000000,1.000000,25.000000,,,,0.000000,2.000000,2.000000,0.000000,4.000000,2.000000,2.000000,0.000000,0.000000,4.000000,4.000000,4.000000,4.000000,4.000000,4.000000,0.000000,,,,,,,,,,,,,,,,,28.000000,0.000000,0.519335,0.485779,-0.541199,0.448792,0.977170,0.014162,-0.069833,-35.201077,45.649353,31.511158
1732157238.018545,1732157238.020120,113.000000,0.000000,4368.461426,4322.179688,4326.153809,4320.641113,4249.102539,4255.256348,4334.743652,4403.333496,4283.589844,4281.025879,4505.128418,4522.820313,4380.256348,4459.487305,1675.000000,1.000000,25.000000,,,,0.000000,2.000000,2.000000,0.000000,4.000000,2.000000,2.000000,0.000000,0.000000,4.000000,4.000000,4.000000,4.000000,4.000000,4.000000,0.000000,,,,,,,,,,,,,,,,,,,,,,,,,,,,
1732157238.026353,1732157238.028128,114.000000,0.000000,4368.205078,4327.436035,4327.436035,4321.538574,4249.487305,4262.692383,4332.051270,4396.538574,4290.769043,4279.615234,4497.051270,4522.563965,4381.666504,4462.436035,1526.000000,1.000000,25.000000,,,,0.000000,2.000000,2.000000,0.000000,4.000000,2.000000,2.000000,0.000000,0.000000,4.000000,4.000000,4.000000,4.000000,4.000000,4.000000,0.000000,,,,,,,,,,,,,,,,,,,,,,,,,,,,
1732157238.034161,1732157238.035937,115.000000,0.000000,4368.461426,4325.769043,4326.794922,4318.717773,4247.436035,4260.128418,4329.871582,4399.230957,4288.974121,4280.384766,4491.538574,4523.974121,4383.974121,4463.205078,1569.000000,1.000000,25.000000,,,,0.000000,2.000000,2.000000,0.000000,4.000000,2.000000,2.000000,0.000000,0.000000,4.000000,4.000000,4.000000,4.000000,4.000000,4.000000,0.000000,,,,,,,,,,,,,,,,,,,,,,,,,,,,
1732157238.041969,1732157238.043845,116.000000,0.000000,4365.000000,4315.384766,4326.922852,4315.256348,4248.205078,4257.820313,4327.692383,4406.153809,4282.436035,4279.743652,4495.000000,4526.538574,4377.307617,4461.153809,1690.000000,1.000000,25.000000,,,,0.000000,2.000000,2.000000,0.000000,4.000000,2.000000,2.000000,0.000000,0.000000,4.000000,4.000000,4.000000,4.000000,4.000000,4.000000,0.000000,,,,,,,,,,,,,,,,,29.000000,0.000000,0.519118,0.485718,-0.541260,0.449036,0.977170,0.014162,-0.069833,-35.114540,45.722641,31.462372
1732157238.049778,1732157238.051653,117.000000,0.000000,4359.358887,4313.974121,4325.256348,4316.153809,4250.256348,4263.589844,4326.538574,4404.615234,4282.051270,4278.589844,4492.436035,4523.974121,4372.051270,4458.846191,1675.000000,1.000000,25.000000,,,,0.000000,2.000000,2.000000,0.000000,4.000000,2.000000,2.000000,0.000000,0.000000,4.000000,4.000000,4.000000,4.000000,4.000000,4.000000,0.000000,,,,,,,,,,,,,,,,,,,,,,,,,,,,
1732157238.057586,1732157238.059661,118.000000,0.000000,4360.000000,4321.410156,4320.128418,4320.897461,4246.794922,4264.102539,4329.102539,4398.846191,4282.948730,4279.230957,4488.589844,4520.256348,4373.846191,4459.487305,1526.000000,1.000000,25.000000,,,,0.000000,2.000000,2.000000,0.000000,4.000000,2.000000,2.000000,0.000000,0.000000,4.000000,4.000000,4.000000,4.000000,4.000000,4.000000,0.000000,,,,,,,,,,,,,,,,,,,,,,,,,,,,
1732157238.065394,1732157238.067469,119.000000,0.000000,4361.153809,4321.538574,4320.512695,4321.538574,4253.589844,4260.256348,4330.384766,4399.615234,4280.897461,4278.717773,4487.307617,4519.358887,4371.410156,4453.974121,1569.000000,1.000000,25.000000,,,,0.000000,2.000000,2.000000,0.000000,4.000000,2.000000,2.000000,0.000000,0.000000,4.000000,4.000000,4.000000,4.000000,4.000000,4.000000,0.000000,,,,,,,,,,,,,,,,,,,,,,,,,,,,
1732157238.073202,1732157238.075377,120.000000,0.000000,4356.922852,4316.794922,4326.153809,4318.205078,4269.871582,4260.641113,4328.717773,4403.589844,4283.846191,4278.717773,4484.871582,4520.256348,4369.871582,4447.436035,1690.000000,1.000000,25.000000,,,,0.000000,2.000000,2.000000,0.000000,4.000000,2.000000,2.000000,0.000000,0.000000,4.000000,4.000000,4.000000,4.000000,4.000000,4.000000,0.000000,,,,,,,,,,,,,,,,,30.000000,0.000000,0.518697,0.485535,-0.541321,0.449646,0.978635,0.015139,-0.069833,-35.254444,45.657005,31.467854
1732157238.081011,1732157238.083185,121.000000,0.000000,4356.153809,4320.897461,4319.487305,4318.333496,4263.589844,4261.666504,4326.153809,4401.153809,4286.794922,4279.871582,4489.230957,4523.461426,4377.820313,4452.179688,1675.000000,1.000000,25.000000,,,,0.000000,2.000000,2.000000,0.000000,4.000000,2.000000,2.000000,0.000000,0.000000,4.000000,4.000000,4.000000,4.000000,4.000000,4.000000,0.000000,,,,,,,,,,,,,,,,,,,,,,,,,,,,
1732157238.088819,1732157238.091193,122.000000,0.000000,4359.487305,4324.615234,4321.410156,4319.743652,4244.230957,4260.000000,4327.179688,4399.487305,4284.102539,4280.384766,4494.615234,4525.897461,4379.743652,4459.487305,1526.000000,1.000000,25.000000,,,,0.000000,2.000000,2.000000,0.000000,4.000000,2.000000,2.000000,0.000000,0.000000,4.000000,4.000000,4.000000,4.000000,4.000000,4.000000,0.000000,,,,,,,,,,,,,,,,,,,,,,,,,,,,
1732157238.096627,1732157238.099002,123.000000,0.000000,4357.563965,4318.846191,4353.205078,4317.563965,4244.871582,4259.743652,4334.871582,4409.487305,4280.769043,4278.333496,4491.922852,4524.487305,4370.769043,4458.974121,1569.000000,1.000000,25.000000,,,,0.000000,2.000000,2.000000,0.000000,4.000000,2.000000,2.000000,0.000000,0.000000,4.000000,4.000000,4.000000,4.000000,4.000000,4.000000,0.000000,,,,,,,,,,,,,,,,,,,,,,,,,,,,
1732157238.104435,1732157238.106910,124.000000,0.000000,4352.179688,4314.487305,4368.077148,4311.538574,4252.563965,4260.769043,4340.897461,4413.205078,4280.128418,4276.666504,4488.589844,4524.358887,4370.769043,4457.051270,1690.000000,1.000000,25.000000,,,,0.000000,2.000000,2.000000,0.000000,4.000000,2.000000,2.000000,0.000000,0.000000,4.000000,4.000000,4.000000,4.000000,4.000000,4.000000,0.000000,,,,,,,,,,,,,,,,,31.000000,0.000000,0.518244,0.484192,-0.541992,0.450806,0.989379,-0.021487,-0.052252,-35.484432,45.703842,31.538961
1732157238.112244,1732157238.114718,125.000000,0.000000,4351.666504,4318.205078,4336.666504,4309.871582,4248.205078,4261.794922,4335.897461,4402.948730,4281.794922,4279.358887,4490.128418,4525.512695,4376.282227,4458.333496,1675.000000,1.000000,25.000000,,,,0.000000,2.000000,2.000000,0.000000,4.000000,2.000000,2.000000,0.000000,0.000000,4.000000,4.000000,4.000000,4.000000,4.000000,4.000000,0.000000,,,,,,,,,,,,,,,,,,,,,,,,,,,,
1732157238.120052,1732157238.122326,126.000000,0.000000,4355.769043,4321.153809,4314.230957,4316.153809,4248.077148,4262.692383,4329.487305,4398.461426,4281.538574,4280.512695,4491.410156,4523.974121,4371.794922,4459.487305,1526.000000,1.000000,25.000000,,,,0.000000,2.000000,2.000000,0.000000,4.000000,2.000000,2.000000,0.000000,0.000000,4.000000,4.000000,4.000000,4.000000,4.000000,4.000000,0.000000,,,,,,,,,,,,,,,,,,,,,,,,,,,,
1732157238.127860,1732157238.130135,127.000000,0.000000,4358.077148,4319.230957,4321.666504,4319.871582,4257.563965,4263.461426,4327.307617,4401.410156,4278.846191,4277.179688,4484.871582,4522.436035,4363.461426,4459.230957,25.000000,1.000000,25.000000,,,,0.000000,2.000000,2.000000,0.000000,4.000000,2.000000,2.000000,0.000000,0.000000,4.000000,4.000000,4.000000,4.000000,4.000000,4.000000,0.000000,,,,,,,,,,,,,,,,,,,,,,,,,,,,
1732157238.135668,1732157238.137843,0.000000,0.000000,4357.692383,4320.512695,4322.820313,4319.358887,4262.563965,4263.461426,4323.077148,4399.743652,4277.307617,4275.000000,4475.769043,4520.769043,4365.384766,4456.410156,0.000000,1.000000,25.000000,,,,0.000000,2.000000,2.000000,0.000000,4.000000,2.000000,2.000000,0.000000,0.000000,4.000000,4.000000,4.000000,4.000000,4.000000,4.000000,0.000000,,,,,,,,,,,,,,,,,0.000000,0.000000,0.518365,0.483093,-0.542603,0.451111,0.978635,-0.002930,-0.046392,-35.484058,45.680111,31.559893
1732157238.143477,1732157238.145651,1.000000,0.000000,4355.769043,4320.512695,4315.256348,4319.487305,4262.307617,4262.179688,4322.436035,4396.538574,4282.179688,4279.615234,4480.512695,4520.384766,4374.743652,4457.179688,1591.000000,1.000000,25.000000,,,,0.000000,2.000000,2.000000,0.000000,4.000000,2.000000,2.000000,0.000000,0.000000,4.000000,4.000000,4.000000,4.000000,4.000000,4.000000,0.000000,,,,,,,,,,,,,,,,,,,,,,,,,,,,
1732157238.151285,1732157238.153260,2.000000,0.000000,4351.666504,4316.282227,4318.333496,4318.717773,4262.307617,4264.230957,4326.538574,4398.717773,4289.487305,4289.230957,4491.025879,4521.153809,4374.102539,4458.205078,1381.000000,1.000000,25.000000,,,,0.000000,2.000000,2.000000,0.000000,4.000000,2.000000,2.000000,0.000000,0.000000,4.000000,4.000000,4.000000,4.000000,4.000000,4.000000,0.000000,,,,,,,,,,,,,,,,,,,,,,,,,,,,
1732157238.159093,1732157238.161068,3.000000,0.000000,4349.358887,4315.384766,4321.538574,4315.256348,4263.974121,4265.641113,4326.922852,4400.256348,4286.794922,4292.436035,4486.025879,4518.077148,4366.282227,4453.461426,1411.000000,1.000000,25.000000,,,,0.000000,2.000000,2.000000,0.000000,4.000000,2.000000,2.000000,0.000000,0.000000,4.000000,4.000000,4.000000,4.000000,4.000000,4.000000,0.000000,,,,,,,,,,,,,,,,,,,,,,,,,,,,
1732157238.166901,1732157238.168776,4.000000,0.000000,4350.897461,4315.128418,4319.615234,4310.897461,4265.256348,4263.205078,4324.487305,4399.102539,4281.794922,4291.153809,4481.794922,4514.743652,4365.256348,4453.846191,1409.000000,1.000000,25.000000,,,,0.000000,2.000000,2.000000,0.000000,4.000000,2.000000,2.000000,0.000000,0.000000,4.000000,4.000000,4.000000,4.000000,4.000000,4.000000,0.000000,,,,,,,,,,,,,,,,,1.000000,0.000000,0.518387,0.482910,-0.542542,0.451355,0.967892,-0.000488,-0.058113,-35.233753,45.804226,31.200180
1732157238.174710,1732157238.176584,5.000000,0.000000,4352.179688,4311.794922,4318.589844,4310.128418,4261.794922,4263.846191,4325.641113,4397.948730,4289.743652,4296.025879,4487.820313,4513.717773,4368.846191,4456.025879,1229.000000,1.000000,25.000000,,,,0.000000,2.000000,2.000000,0.000000,4.000000,2.000000,2.000000,0.000000,0.000000,4.000000,4.000000,4.000000,4.000000,4.000000,4.000000,0.000000,,,,,,,,,,,,,,,,,,,,,,,,,,,,
1732157238.182518,1732157238.184592,6.000000,0.000000,4348.077148,4309.743652,4319.358887,4312.051270,4263.974121,4266.282227,4325.897461,4397.692383,4290.000000,4293.333496,4483.077148,4516.282227,4367.179688,4450.256348,0.000000,1.000000,25.000000,,,,0.000000,2.000000,2.000000,0.000000,4.000000,2.000000,2.000000,0.000000,0.000000,4.000000,4.000000,4.000000,4.000000,4.000000,4.000000,0.000000,,,,,,,,,,,,,,,,,,,,,,,,,,,,
1732157238.190326,1732157238.192401,7.000000,0.000000,4341.410156,4310.256348,4319.871582,4312.179688,4281.025879,4268.717773,4324.743652,4400.641113,4281.538574,4281.282227,4474.871582,4516.025879,4360.641113,4441.538574,0.000000,1.000000,25.000000,,,,0.000000,2.000000,2.000000,0.000000,4.000000,2.000000,2.000000,0.000000,0.000000,4.000000,4.000000,4.000000,4.000000,4.000000,4.000000,0.000000,,,,,,,,,,,,,,,,,,,,,,,,,,,,
1732157238.198134,1732157238.200109,8.000000,0.000000,4338.974121,4308.077148,4319.743652,4309.615234,4285.256348,4274.615234,4327.051270,4400.769043,4287.948730,4280.512695,4477.179688,4507.179688,4360.128418,4439.102539,1523.000000,1.000000,25.000000,,,,0.000000,2.000000,2.000000,0.000000,4.000000,2.000000,2.000000,0.000000,0.000000,4.000000,4.000000,4.000000,4.000000,4.000000,4.000000,0.000000,,,,,,,,,,,,,,,,,2.000000,0.000000,0.519489,0.481506,-0.542786,0.451294,0.973263,-0.000488,-0.050299,-35.251007,45.534756,31.228811
1732157238.205943,1732157238.207917,9.000000,0.000000,4342.563965,4307.692383,4318.589844,4313.077148,4266.153809,4279.871582,4328.077148,4397.563965,4290.512695,4284.743652,4476.025879,4501.666504,4365.769043,4441.666504,1668.000000,1.000000,25.000000,,,,0.000000,2.000000,2.000000,0.000000,4.000000,2.000000,2.000000,0.000000,0.000000,4.000000,4.000000,4.000000,4.000000,4.000000,4.000000,0.000000,,,,,,,,,,,,,,,,,,,,,,,,,,,,
1732157238.213751,1732157238.215525,10.000000,0.000000,4344.102539,4311.282227,4317.051270,4318.461426,4259.487305,4282.179688,4325.512695,4396.410156,4276.666504,4279.615234,4473.205078,4505.512695,4365.512695,4440.000000,1526.000000,1.000000,25.000000,,,,0.000000,2.000000,2.000000,0.000000,4.000000,2.000000,2.000000,0.000000,0.000000,4.000000,4.000000,4.000000,4.000000,4.000000,4.000000,0.000000,,,,,,,,,,,,,,,,,,,,,,,,,,,,
1732157238.221559,1732157238.223334,11.000000,0.000000,4342.692383,4310.256348,4318.717773,4314.358887,4269.743652,4279.871582,4325.256348,4398.077148,4276.282227,4275.897461,4476.666504,4506.666504,4358.461426,4435.641113,1569.000000,1.000000,25.000000,,,,0.000000,2.000000,2.000000,0.000000,4.000000,2.000000,2.000000,0.000000,0.000000,4.000000,4.000000,4.000000,4.000000,4.000000,4.000000,0.000000,,,,,,,,,,,,,,,,,,,,,,,,,,,,
1732157238.229367,1732157238.231042,12.000000,0.000000,4343.205078,4308.333496,4320.128418,4310.384766,4268.077148,4270.128418,4327.436035,4398.461426,4290.641113,4281.794922,4479.102539,4506.153809,4359.487305,4437.436035,1688.000000,1.000000,25.000000,,,,0.000000,2.000000,2.000000,0.000000,4.000000,2.000000,2.000000,0.000000,0.000000,4.000000,4.000000,4.000000,4.000000,4.000000,4.000000,0.000000,,,,,,,,,,,,,,,,,3.000000,0.000000,0.520118,0.481079,-0.542664,0.451172,0.971798,0.019045,-0.049322,-35.434982,45.361485,31.377005
1732157238.237176,1732157238.238850,13.000000,0.000000,4343.974121,4310.128418,4318.846191,4311.794922,4263.333496,4265.256348,4326.922852,4397.563965,4296.282227,4288.205078,4484.358887,4509.230957,4366.794922,4442.948730,1675.000000,1.000000,25.000000,,,,0.000000,2.000000,2.000000,0.000000,4.000000,2.000000,2.000000,0.000000,0.000000,4.000000,4.000000,4.000000,4.000000,4.000000,4.000000,0.000000,,,,,,,,,,,,,,,,,,,,,,,,,,,,
1732157238.244984,1732157238.246459,14.000000,0.000000,4343.846191,4310.128418,4320.641113,4312.692383,4272.820313,4274.871582,4325.512695,4397.948730,4296.025879,4288.333496,4488.717773,4510.769043,4368.205078,4442.436035,1526.000000,1.000000,25.000000,,,,0.000000,2.000000,2.000000,0.000000,4.000000,2.000000,2.000000,0.000000,0.000000,4.000000,4.000000,4.000000,4.000000,4.000000,4.000000,0.000000,1.000000,0.000000,2.000000,2.000000,0.000000,4.000000,2.000000,2.000000,0.000000,0.000000,4.000000,3.000000,4.000000,4.000000,3.000000,4.000000,,,,,,,,,,,,
1732157238.252792,1732157238.254267,15.000000,0.000000,4342.692383,4306.538574,4321.282227,4313.846191,4279.871582,4281.666504,4325.769043,4398.205078,4296.282227,4286.153809,4482.436035,4513.717773,4366.025879,4440.128418,1569.000000,1.000000,25.000000,,,,0.000000,2.000000,2.000000,0.000000,4.000000,2.000000,2.000000,0.000000,0.000000,4.000000,4.000000,4.000000,4.000000,4.000000,4.000000,0.000000,,,,,,,,,,,,,,,,,,,,,,,,,,,,
1732157238.260600,1732157238.261975,16.000000,0.000000,4342.307617,4304.358887,4318.333496,4314.615234,4279.230957,4279.358887,4325.512695,4398.589844,4297.563965,4288.846191,4481.794922,4515.128418,4366.282227,4436.282227,0.000000,1.000000,25.000000,,,,0.000000,2.000000,2.000000,0.000000,4.000000,2.000000,2.000000,0.000000,0.000000,4.000000,4.000000,4.000000,4.000000,4.000000,4.000000,0.000000,,,,,,,,,,,,,,,,,4.000000,0.000000,0.520563,0.480713,-0.542664,0.451050,0.987914,0.013674,-0.047369,-35.544003,45.464470,31.412041
1732157238.268408,1732157238.269783,17.000000,0.000000,4340.512695,4304.230957,4317.436035,4310.897461,4280.897461,4280.641113,4326.153809,4398.333496,4298.846191,4288.846191,4489.743652,4508.077148,4365.384766,4428.846191,0.000000,1.000000,25.000000,,,,0.000000,2.000000,2.000000,0.000000,4.000000,2.000000,2.000000,0.000000,0.000000,4.000000,4.000000,4.000000,4.000000,4.000000,4.000000,0.000000,,,,,,,,,,,,,,,,,,,,,,,,,,,,
1732157238.276217,1732157238.277791,18.000000,0.000000,4336.538574,4303.717773,4316.153809,4308.717773,4279.871582,4282.563965,4328.717773,4396.922852,4295.769043,4281.153809,4490.384766,4509.230957,4363.974121,4428.846191,0.000000,1.000000,25.000000,,,,0.000000,2.000000,2.000000,0.000000,4.000000,2.000000,2.000000,0.000000,0.000000,4.000000,4.000000,4.000000,4.000000,4.000000,4.000000,0.000000,,,,,,,,,,,,,,,,,,,,,,,,,,,,
1732157238.284025,1732157238.285600,19.000000,0.000000,4335.256348,4303.205078,4315.641113,4311.794922,4281.538574,4281.538574,4327.820313,4397.436035,4294.487305,4280.384766,4487.563965,4517.179688,4366.794922,4432.436035,0.000000,1.000000,25.000000,,,,0.000000,2.000000,2.000000,0.000000,4.000000,2.000000,2.000000,0.000000,0.000000,4.000000,4.000000,4.000000,4.000000,4.000000,4.000000,0.000000,,,,,,,,,,,,,,,,,,,,,,,,,,,,
1732157238.291833,1732157238.293508,20.000000,0.000000,4336.538574,4303.589844,4319.487305,4311.538574,4293.846191,4279.358887,4324.230957,4398.205078,4294.358887,4280.384766,4486.538574,4513.461426,4364.743652,4429.743652,0.000000,1.000000,25.000000,,,,0.000000,2.000000,2.000000,0.000000,4.000000,2.000000,2.000000,0.000000,0.000000,4.000000,4.000000,4.000000,4.000000,4.000000,4.000000,0.000000,,,,,,,,,,,,,,,,,5.000000,0.000000,0.521131,0.480408,-0.542236,0.451233,0.988890,0.019534,-0.036137,-35.408974,45.439552,31.523752
1732157238.299641,1732157238.301316,21.000000,0.000000,4335.897461,4306.538574,4320.384766,4310.512695,4294.487305,4279.102539,4324.487305,4397.563965,4294.743652,4278.717773,4484.358887,4511.666504,4359.230957,4427.436035,0.000000,1.000000,25.000000,,,,0.000000,2.000000,2.000000,0.000000,4.000000,2.000000,2.000000,0.000000,0.000000,4.000000,4.000000,4.000000,4.000000,4.000000,4.000000,0.000000,,,,,,,,,,,,,,,,,,,,,,,,,,,,
1732157238.307450,1732157238.308924,22.000000,0.000000,4336.153809,4310.128418,4318.333496,4317.307617,4278.717773,4285.769043,4326.282227,4398.205078,4299.487305,4283.333496,4480.000000,4514.358887,4362.820313,4428.974121,0.000000,1.000000,25.000000,,,,0.000000,2.000000,2.000000,0.000000,4.000000,2.000000,2.000000,0.000000,0.000000,4.000000,4.000000,4.000000,4.000000,4.000000,4.000000,0.000000,,,,,,,,,,,,,,,,,,,,,,,,,,,,
1732157238.315258,1732157238.316732,23.000000,0.000000,4336.922852,4310.897461,4319.615234,4320.512695,4276.794922,4289.487305,4326.410156,4399.743652,4302.307617,4285.384766,4478.333496,4512.948730,4368.077148,4431.025879,0.000000,1.000000,25.000000,,,,0.000000,2.000000,2.000000,0.000000,4.000000,2.000000,2.000000,0.000000,0.000000,4.000000,4.000000,4.000000,4.000000,4.000000,4.000000,0.000000,,,,,,,,,,,,,,,,,,,,,,,,,,,,
1732157238.323066,1732157238.324441,24.000000,0.000000,4332.563965,4307.948730,4321.538574,4312.692383,4284.871582,4284.743652,4327.563965,4399.102539,4300.256348,4280.641113,4481.410156,4511.025879,4362.948730,4430.512695,0.000000,1.000000,25.000000,,,,0.000000,2.000000,2.000000,0.000000,4.000000,2.000000,2.000000,0.000000,0.000000,4.000000,4.000000,4.000000,4.000000,4.000000,4.000000,0.000000,,,,,,,,,,,,,,,,,6.000000,0.000000,0.521978,0.479980,-0.541443,0.451660,0.975705,0.007325,-0.034672,-35.351269,45.597706,31.487574
1732157238.330875,1732157238.332249,25.000000,0.000000,4328.077148,4305.641113,4320.769043,4308.205078,4281.153809,4281.538574,4327.948730,4398.205078,4295.769043,4279.615234,4486.922852,4510.384766,4356.922852,4427.948730,0.000000,1.000000,25.000000,,,,0.000000,2.000000,2.000000,0.000000,4.000000,2.000000,2.000000,0.000000,0.000000,4.000000,4.000000,4.000000,4.000000,4.000000,4.000000,0.000000,,,,,,,,,,,,,,,,,,,,,,,,,,,,
1732157238.338683,1732157238.339857,26.000000,0.000000,4327.436035,4300.769043,4318.974121,4311.025879,4278.846191,4283.461426,4325.256348,4397.179688,4293.205078,4280.000000,4489.487305,4508.589844,4358.589844,4427.436035,0.000000,1.000000,25.000000,,,,0.000000,2.000000,2.000000,0.000000,4.000000,2.000000,2.000000,0.000000,0.000000,4.000000,4.000000,4.000000,4.000000,4.000000,4.000000,0.000000,,,,,,,,,,,,,,,,,,,,,,,,,,,,
1732157238.346491,1732157238.347666,27.000000,0.000000,4326.666504,4295.512695,4317.692383,4309.102539,4282.179688,4283.333496,4324.871582,4398.333496,4297.692383,4278.589844,4486.153809,4510.128418,4359.743652,4429.615234,0.000000,1.000000,25.000000,,,,0.000000,2.000000,2.000000,0.000000,4.000000,2.000000,2.000000,0.000000,0.000000,4.000000,4.000000,4.000000,4.000000,4.000000,4.000000,0.000000,,,,,,,,,,,,,,,,,,,,,,,,,,,,
1732157238.354299,1732157238.355574,28.000000,0.000000,4326.025879,4299.615234,4316.282227,4306.410156,4280.769043,4282.436035,4327.179688,4400.897461,4303.717773,4280.128418,4481.282227,4511.794922,4355.897461,4426.794922,0.000000,1.000000,25.000000,,,,0.000000,2.000000,2.000000,0.000000,4.000000,2.000000,2.000000,0.000000,0.000000,4.000000,4.000000,4.000000,4.000000,4.000000,4.000000,0.000000,,,,,,,,,,,,,,,,,7.000000,0.000000,0.522319,0.479919,-0.541016,0.451843,0.975217,0.034184,-0.033207,-35.379528,45.634140,31.424934
1732157238.362107,1732157238.363382,29.000000,0.000000,4327.436035,4305.000000,4315.769043,4310.128418,4281.666504,4283.846191,4327.179688,4399.487305,4300.769043,4281.282227,4476.410156,4511.282227,4349.102539,4423.077148,0.000000,1.000000,25.000000,,,,0.000000,2.000000,2.000000,0.000000,4.000000,2.000000,2.000000,0.000000,0.000000,4.000000,4.000000,4.000000,4.000000,4.000000,4.000000,0.000000,,,,,,,,,,,,,,,,,,,,,,,,,,,,
1732157238.369916,1732157238.371390,30.000000,0.000000,4326.666504,4300.641113,4316.666504,4312.820313,4288.205078,4286.794922,4326.538574,4396.282227,4292.307617,4275.512695,4472.820313,4513.846191,4348.205078,4423.461426,0.000000,1.000000,25.000000,,,,0.000000,2.000000,2.000000,0.000000,4.000000,2.000000,2.000000,0.000000,0.000000,4.000000,4.000000,4.000000,4.000000,4.000000,4.000000,0.000000,,,,,,,,,,,,,,,,,,,,,,,,,,,,
1732157238.377724,1732157238.379198,31.000000,0.000000,4326.922852,4295.384766,4317.436035,4312.948730,4295.000000,4291.153809,4328.205078,4397.051270,4292.948730,4274.615234,4476.538574,4513.205078,4357.307617,4422.436035,0.000000,1.000000,25.000000,,,,0.000000,2.000000,2.000000,0.000000,4.000000,2.000000,2.000000,0.000000,0.000000,4.000000,4.000000,4.000000,4.000000,4.000000,4.000000,0.000000,,,,,,,,,,,,,,,,,,,,,,,,,,,,
1732157238.385532,1732157238.387106,32.000000,0.000000,4327.436035,4298.846191,4318.333496,4312.436035,4291.794922,4289.743652,4330.641113,4398.333496,4306.666504,4284.615234,4488.846191,4513.333496,4363.077148,4421.794922,0.000000,1.000000,25.000000,,,,0.000000,2.000000,2.000000,0.000000,4.000000,2.000000,2.000000,0.000000,0.000000,4.000000,4.000000,4.000000,4.000000,4.000000,4.000000,0.000000,,,,,,,,,,,,,,,,,8.000000,0.000000,0.522322,0.479858,-0.541016,0.451904,0.982053,0.017580,-0.032719,-35.339085,45.513653,31.502529
1732157238.393340,1732157238.394914,33.000000,0.000000,4319.743652,4294.743652,4319.358887,4310.128418,4294.358887,4281.025879,4327.692383,4397.563965,4313.974121,4288.717773,4491.025879,4518.846191,4359.615234,4422.179688,0.000000,1.000000,25.000000,,,,0.000000,2.000000,2.000000,0.000000,4.000000,2.000000,2.000000,0.000000,0.000000,4.000000,4.000000,4.000000,4.000000,4.000000,4.000000,0.000000,,,,,,,,,,,,,,,,,,,,,,,,,,,,
1732157238.401149,1732157238.402922,34.000000,0.000000,4318.077148,4283.205078,4319.102539,4308.589844,4303.205078,4279.871582,4324.102539,4398.205078,4305.512695,4281.153809,4478.846191,4520.512695,4352.948730,4421.794922,0.000000,1.000000,25.000000,,,,0.000000,2.000000,2.000000,0.000000,4.000000,2.000000,2.000000,0.000000,0.000000,4.000000,4.000000,4.000000,4.000000,4.000000,4.000000,0.000000,,,,,,,,,,,,,,,,,,,,,,,,,,,,
1732157238.408957,1732157238.410731,35.000000,0.000000,4324.230957,4283.205078,4318.461426,4308.461426,4292.820313,4289.871582,4328.717773,4398.077148,4300.256348,4280.641113,4481.153809,4516.282227,4350.512695,4420.384766,0.000000,1.000000,25.000000,,,,0.000000,2.000000,2.000000,0.000000,4.000000,2.000000,2.000000,0.000000,0.000000,4.000000,4.000000,4.000000,4.000000,4.000000,4.000000,0.000000,,,,,,,,,,,,,,,,,,,,,,,,,,,,
1732157238.416765,1732157238.418439,36.000000,0.000000,4319.871582,4287.820313,4319.487305,4308.589844,4275.897461,4295.641113,4331.153809,4398.077148,4309.743652,4290.128418,4488.974121,4516.666504,4355.128418,4418.205078,0.000000,1.000000,25.000000,,,,0.000000,2.000000,2.000000,0.000000,4.000000,2.000000,2.000000,0.000000,0.000000,4.000000,4.000000,4.000000,4.000000,4.000000,4.000000,0.000000,,,,,,,,,,,,,,,,,9.000000,0.000000,0.521699,0.480042,-0.540894,0.452576,0.986937,0.006837,-0.037602,-35.144657,45.482727,31.398716
1732157238.424573,1732157238.426247,37.000000,0.000000,4311.794922,4286.153809,4317.051270,4306.025879,4277.948730,4294.871582,4327.948730,4397.563965,4318.589844,4297.307617,4486.538574,4519.871582,4359.615234,4419.743652,0.000000,1.000000,25.000000,,,,0.000000,2.000000,2.000000,0.000000,4.000000,2.000000,2.000000,0.000000,0.000000,4.000000,4.000000,4.000000,4.000000,4.000000,4.000000,0.000000,,,,,,,,,,,,,,,,,,,,,,,,,,,,
1732157238.432382,1732157238.434255,38.000000,0.000000,4312.948730,4285.128418,4314.871582,4300.384766,4283.717773,4290.384766,4328.205078,4397.051270,4310.000000,4296.153809,4488.077148,4514.230957,4357.820313,4420.769043,0.000000,1.000000,25.000000,,,,0.000000,2.000000,2.000000,0.000000,4.000000,2.000000,2.000000,0.000000,0.000000,4.000000,4.000000,4.000000,4.000000,4.000000,4.000000,0.000000,,,,,,,,,,,,,,,,,,,,,,,,,,,,
1732157238.440190,1732157238.442063,39.000000,0.000000,4313.461426,4290.128418,4315.256348,4300.897461,4281.410156,4286.666504,4328.717773,4397.692383,4297.563965,4285.512695,4488.077148,4505.641113,4354.487305,4415.641113,0.000000,1.000000,25.000000,,,,0.000000,2.000000,2.000000,0.000000,4.000000,2.000000,2.000000,0.000000,0.000000,4.000000,4.000000,4.000000,4.000000,4.000000,4.000000,0.000000,,,,,,,,,,,,,,,,,,,,,,,,,,,,
1732157238.447998,1732157238.449971,40.000000,0.000000,4310.769043,4294.358887,4315.256348,4308.846191,4286.922852,4286.794922,4326.794922,4397.563965,4300.000000,4277.307617,4477.692383,4506.025879,4355.769043,4410.641113,0.000000,1.000000,25.000000,,,,0.000000,2.000000,2.000000,0.000000,4.000000,2.000000,2.000000,0.000000,0.000000,4.000000,4.000000,4.000000,4.000000,4.000000,4.000000,0.000000,,,,,,,,,,,,,,,,,10.000000,0.000000,0.520993,0.479980,-0.541321,0.452942,0.978635,0.007813,-0.045416,-35.060509,45.601009,31.366293
1732157238.455806,1732157238.457780,41.000000,0.000000,4312.692383,4293.974121,4313.846191,4312.948730,4291.538574,4285.897461,4327.051270,4398.333496,4310.384766,4285.897461,4478.717773,4509.871582,4356.410156,4414.615234,0.000000,1.000000,25.000000,,,,0.000000,2.000000,2.000000,0.000000,4.000000,2.000000,2.000000,0.000000,0.000000,4.000000,4.000000,4.000000,4.000000,4.000000,4.000000,0.000000,,,,,,,,,,,,,,,,,,,,,,,,,,,,
1732157238.463615,1732157238.465788,42.000000,0.000000,4313.205078,4292.307617,4315.256348,4308.333496,4288.717773,4283.461426,4326.153809,4399.487305,4308.974121,4290.512695,4491.410156,4509.743652,4354.743652,4415.512695,0.000000,1.000000,25.000000,,,,0.000000,2.000000,2.000000,0.000000,4.000000,2.000000,2.000000,0.000000,0.000000,4.000000,4.000000,4.000000,4.000000,4.000000,4.000000,0.000000,,,,,,,,,,,,,,,,,,,,,,,,,,,,
1732157238.471423,1732157238.473596,43.000000,0.000000,4312.179688,4293.205078,4317.179688,4307.436035,4291.410156,4288.974121,4327.051270,4398.077148,4300.641113,4282.307617,4486.410156,4511.153809,4356.153809,4412.307617,0.000000,1.000000,25.000000,,,,0.000000,2.000000,2.000000,0.000000,4.000000,2.000000,2.000000,0.000000,0.000000,4.000000,4.000000,4.000000,4.000000,4.000000,4.000000,0.000000,,,,,,,,,,,,,,,,,,,,,,,,,,,,
1732157238.479231,1732157238.481504,44.000000,0.000000,4312.692383,4294.230957,4316.794922,4311.153809,4289.487305,4295.256348,4331.666504,4396.666504,4303.589844,4283.333496,4478.974121,4512.051270,4356.025879,4414.743652,0.000000,1.000000,25.000000,,,,0.000000,2.000000,2.000000,0.000000,4.000000,2.000000,2.000000,0.000000,0.000000,4.000000,4.000000,4.000000,4.000000,4.000000,4.000000,0.000000,,,,,,,,,,,,,,,,,11.000000,0.000000,0.520605,0.480103,-0.541382,0.453186,0.978635,0.007813,-0.045416,-35.239010,45.423485,31.360031
1732157238.487039,1732157238.489312,45.000000,0.000000,4311.666504,4286.153809,4313.333496,4306.922852,4282.307617,4292.436035,4330.897461,4398.717773,4313.717773,4298.077148,4487.436035,4515.769043,4351.410156,4417.179688,0.000000,1.000000,25.000000,,,,0.000000,2.000000,2.000000,0.000000,4.000000,2.000000,2.000000,0.000000,0.000000,4.000000,4.000000,4.000000,4.000000,4.000000,4.000000,0.000000,,,,,,,,,,,,,,,,,,,,,,,,,,,,
1732157238.494848,1732157238.497320,46.000000,0.000000,4311.794922,4281.025879,4312.563965,4297.820313,4281.794922,4291.410156,4327.820313,4398.974121,4316.410156,4300.641113,4489.871582,4522.436035,4350.384766,4417.179688,0.000000,1.000000,25.000000,,,,0.000000,2.000000,2.000000,0.000000,4.000000,2.000000,2.000000,0.000000,0.000000,4.000000,4.000000,4.000000,4.000000,4.000000,4.000000,0.000000,,,,,,,,,,,,,,,,,,,,,,,,,,,,
1732157238.502656,1732157238.505128,47.000000,0.000000,4311.922852,4281.922852,4317.948730,4294.487305,4287.051270,4294.358887,4331.153809,4396.282227,4302.948730,4285.384766,4478.717773,4520.641113,4352.563965,4417.563965,0.000000,1.000000,25.000000,,,,0.000000,2.000000,2.000000,0.000000,4.000000,2.000000,2.000000,0.000000,0.000000,4.000000,4.000000,4.000000,4.000000,4.000000,4.000000,0.000000,,,,,,,,,,,,,,,,,,,,,,,,,,,,
1732157238.510464,1732157238.513037,48.000000,0.000000,4311.794922,4281.282227,4318.077148,4299.358887,4280.897461,4292.436035,4332.948730,4397.948730,4295.512695,4276.922852,4481.410156,4517.820313,4350.512695,4419.487305,0.000000,1.000000,25.000000,,,,0.000000,2.000000,2.000000,0.000000,4.000000,2.000000,2.000000,0.000000,0.000000,4.000000,4.000000,4.000000,4.000000,4.000000,4.000000,0.000000,,,,,,,,,,,,,,,,,12.000000,0.000000,0.520392,0.480103,-0.541382,0.453430,0.983518,0.002930,-0.050299,-35.130264,45.476357,31.321625
1732157238.518272,1732157238.520845,49.000000,0.000000,4311.794922,4284.230957,4312.820313,4304.230957,4277.563965,4286.282227,4330.897461,4400.256348,4306.922852,4281.025879,4489.743652,4522.563965,4350.000000,4423.333496,0.000000,1.000000,25.000000,,,,0.000000,2.000000,2.000000,0.000000,4.000000,2.000000,2.000000,0.000000,0.000000,4.000000,4.000000,4.000000,4.000000,4.000000,4.000000,0.000000,,,,,,,,,,,,,,,,,,,,,,,,,,,,
1732157238.526080,1732157238.528653,50.000000,0.000000,4311.922852,4290.512695,4313.717773,4302.051270,4294.102539,4279.615234,4329.102539,4399.230957,4305.769043,4282.563965,4480.128418,4520.000000,4353.205078,4422.820313,0.000000,1.000000,25.000000,,,,0.000000,2.000000,2.000000,0.000000,4.000000,2.000000,2.000000,0.000000,0.000000,4.000000,4.000000,4.000000,4.000000,4.000000,4.000000,0.000000,,,,,,,,,,,,,,,,,,,,,,,,,,,,
1732157238.533889,1732157238.536461,51.000000,0.000000,4312.436035,4292.948730,4316.153809,4299.102539,4296.922852,4280.641113,4325.769043,4398.205078,4292.692383,4276.922852,4475.641113,4508.205078,4352.948730,4417.051270,0.000000,1.000000,25.000000,,,,0.000000,2.000000,2.000000,0.000000,4.000000,2.000000,2.000000,0.000000,0.000000,4.000000,4.000000,4.000000,4.000000,4.000000,4.000000,0.000000,,,,,,,,,,,,,,,,,,,,,,,,,,,,
1732157238.541697,1732157238.544169,52.000000,0.000000,4312.051270,4293.717773,4313.974121,4303.333496,4278.589844,4289.487305,4325.512695,4399.102539,4299.102539,4277.820313,4487.692383,4507.820313,4354.358887,4416.922852,0.000000,1.000000,25.000000,,,,0.000000,2.000000,2.000000,0.000000,4.000000,2.000000,2.000000,0.000000,0.000000,4.000000,4.000000,4.000000,4.000000,4.000000,4.000000,0.000000,,,,,,,,,,,,,,,,,13.000000,0.000000,0.519373,0.480286,-0.541687,0.454041,0.987425,-0.006348,-0.049811,-35.175514,45.469181,31.373850
1732157238.549505,1732157238.551978,53.000000,0.000000,4311.794922,4294.230957,4312.820313,4306.794922,4272.179688,4296.666504,4327.820313,4399.102539,4315.000000,4289.871582,4495.897461,4515.256348,4360.384766,4424.487305,0.000000,1.000000,25.000000,,,,0.000000,2.000000,2.000000,0.000000,4.000000,2.000000,2.000000,0.000000,0.000000,4.000000,4.000000,4.000000,4.000000,4.000000,4.000000,0.000000,,,,,,,,,,,,,,,,,,,,,,,,,,,,
1732157238.557314,1732157238.559586,54.000000,0.000000,4313.077148,4293.333496,4313.974121,4304.358887,4280.384766,4295.512695,4327.820313,4398.205078,4313.461426,4297.051270,4486.666504,4520.256348,4360.897461,4426.922852,0.000000,1.000000,25.000000,,,,0.000000,2.000000,2.000000,0.000000,4.000000,2.000000,2.000000,0.000000,0.000000,4.000000,4.000000,4.000000,4.000000,4.000000,4.000000,0.000000,,,,,,,,,,,,,,,,,,,,,,,,,,,,
1732157238.565122,1732157238.567394,55.000000,0.000000,4310.769043,4294.358887,4314.230957,4302.692383,4281.410156,4292.179688,4329.615234,4397.820313,4308.974121,4294.230957,4477.051270,4523.205078,4353.333496,4420.128418,0.000000,1.000000,25.000000,,,,0.000000,2.000000,2.000000,0.000000,4.000000,2.000000,2.000000,0.000000,0.000000,4.000000,4.000000,4.000000,4.000000,4.000000,4.000000,0.000000,,,,,,,,,,,,,,,,,,,,,,,,,,,,
1732157238.572930,1732157238.575103,56.000000,0.000000,4303.461426,4294.230957,4314.487305,4299.871582,4279.615234,4292.948730,4330.384766,4398.974121,4309.743652,4292.179688,4482.820313,4517.563965,4352.563965,4415.769043,0.000000,1.000000,25.000000,,,,0.000000,2.000000,2.000000,0.000000,4.000000,2.000000,2.000000,0.000000,0.000000,4.000000,4.000000,4.000000,4.000000,4.000000,4.000000,0.000000,,,,,,,,,,,,,,,,,14.000000,0.000000,0.519136,0.480347,-0.541809,0.454102,0.987425,-0.006348,-0.049811,-35.315502,45.655037,31.444485
1732157238.580738,1732157238.582911,57.000000,0.000000,4299.358887,4291.922852,4316.282227,4299.615234,4284.102539,4295.128418,4327.820313,4401.282227,4307.563965,4292.820313,4491.410156,4512.563965,4358.461426,4416.025879,0.000000,1.000000,25.000000,,,,0.000000,2.000000,2.000000,0.000000,4.000000,2.000000,2.000000,0.000000,0.000000,4.000000,4.000000,4.000000,4.000000,4.000000,4.000000,0.000000,,,,,,,,,,,,,,,,,,,,,,,,,,,,
1732157238.588547,1732157238.590519,58.000000,0.000000,4299.871582,4292.563965,4316.025879,4306.538574,4287.563965,4297.820313,4327.948730,4400.256348,4307.051270,4286.282227,4489.102539,4514.358887,4354.230957,4414.871582,0.000000,1.000000,25.000000,,,,0.000000,2.000000,2.000000,0.000000,4.000000,2.000000,2.000000,0.000000,0.000000,4.000000,4.000000,4.000000,4.000000,4.000000,4.000000,0.000000,,,,,,,,,,,,,,,,,,,,,,,,,,,,
1732157238.596355,1732157238.598327,59.000000,0.000000,4298.589844,4292.692383,4315.256348,4306.153809,4297.948730,4294.230957,4329.358887,4398.077148,4309.871582,4281.025879,4484.871582,4514.230957,4347.179688,4412.436035,0.000000,1.000000,25.000000,,,,0.000000,2.000000,2.000000,0.000000,4.000000,2.000000,2.000000,0.000000,0.000000,4.000000,4.000000,4.000000,4.000000,4.000000,4.000000,0.000000,,,,,,,,,,,,,,,,,,,,,,,,,,,,
1732157238.604163,1732157238.606236,60.000000,0.000000,4296.282227,4290.128418,4314.743652,4300.256348,4300.256348,4286.025879,4328.461426,4399.615234,4310.128418,4283.333496,4489.615234,4513.717773,4354.615234,4414.102539,0.000000,1.000000,25.000000,,,,0.000000,2.000000,2.000000,0.000000,4.000000,2.000000,2.000000,0.000000,0.000000,4.000000,4.000000,4.000000,4.000000,4.000000,4.000000,0.000000,,,,,,,,,,,,,,,,,15.000000,0.000000,0.518707,0.480408,-0.542114,0.454163,0.988402,0.014162,-0.055183,-35.318890,45.752247,31.645033
1732157238.611971,1732157238.614044,61.000000,0.000000,4296.666504,4289.615234,4314.871582,4303.077148,4283.974121,4287.051270,4329.487305,4399.743652,4308.846191,4285.128418,4491.153809,4518.974121,4359.743652,4415.128418,0.000000,1.000000,25.000000,,,,0.000000,2.000000,2.000000,0.000000,4.000000,2.000000,2.000000,0.000000,0.000000,4.000000,4.000000,4.000000,4.000000,4.000000,4.000000,0.000000,,,,,,,,,,,,,,,,,,,,,,,,,,,,
1732157238.619779,1732157238.621652,62.000000,0.000000,4297.948730,4291.922852,4315.128418,4308.974121,4274.358887,4296.794922,4333.461426,4398.333496,4310.384766,4287.820313,4485.512695,4522.051270,4349.871582,4412.436035,0.000000,1.000000,25.000000,,,,0.000000,2.000000,2.000000,0.000000,4.000000,2.000000,2.000000,0.000000,0.000000,4.000000,4.000000,4.000000,4.000000,4.000000,4.000000,0.000000,,,,,,,,,,,,,,,,,,,,,,,,,,,,
1732157238.627588,1732157238.629460,63.000000,0.000000,4298.205078,4292.820313,4315.641113,4310.512695,4280.769043,4295.128418,4333.205078,4400.897461,4313.077148,4293.461426,4480.128418,4519.487305,4347.179688,4410.897461,0.000000,1.000000,25.000000,,,,0.000000,2.000000,2.000000,0.000000,4.000000,2.000000,2.000000,0.000000,0.000000,4.000000,4.000000,4.000000,4.000000,4.000000,4.000000,0.000000,,,,,,,,,,,,,,,,,,,,,,,,,,,,
1732157238.635396,1732157238.637169,64.000000,0.000000,4296.282227,4294.871582,4316.794922,4307.436035,4283.205078,4284.743652,4330.384766,4401.666504,4312.051270,4295.641113,4475.769043,4521.025879,4353.974121,4412.051270,0.000000,1.000000,25.000000,,,,0.000000,2.000000,2.000000,0.000000,4.000000,2.000000,2.000000,0.000000,0.000000,4.000000,4.000000,4.000000,4.000000,4.000000,4.000000,0.000000,,,,,,,,,,,,,,,,,16.000000,0.000000,0.518224,0.480469,-0.542419,0.454285,0.979123,0.002930,-0.061043,-35.359966,45.660988,31.807476
1732157238.643204,1732157238.644977,65.000000,0.000000,4297.436035,4292.948730,4316.538574,4302.179688,4280.897461,4283.846191,4328.974121,4397.563965,4310.000000,4289.743652,4480.000000,4522.820313,4353.589844,4412.948730,1591.000000,1.000000,25.000000,,,,0.000000,2.000000,2.000000,0.000000,4.000000,2.000000,2.000000,0.000000,0.000000,4.000000,4.000000,4.000000,4.000000,4.000000,4.000000,0.000000,,,,,,,,,,,,,,,,,,,,,,,,,,,,
1732157238.651013,1732157238.652985,66.000000,0.000000,4300.256348,4288.077148,4317.051270,4300.897461,4283.974121,4288.205078,4328.717773,4397.692383,4308.717773,4283.205078,4489.358887,4522.948730,4350.897461,4412.692383,1381.000000,1.000000,25.000000,,,,0.000000,2.000000,2.000000,0.000000,4.000000,2.000000,2.000000,0.000000,0.000000,4.000000,4.000000,4.000000,4.000000,4.000000,4.000000,0.000000,,,,,,,,,,,,,,,,,,,,,,,,,,,,
1732157238.658821,1732157238.660793,67.000000,0.000000,4299.230957,4287.051270,4318.461426,4305.256348,4281.025879,4293.205078,4331.025879,4399.743652,4303.974121,4281.794922,4488.461426,4522.436035,4351.025879,4411.282227,1406.000000,1.000000,25.000000,,,,0.000000,2.000000,2.000000,0.000000,4.000000,2.000000,2.000000,0.000000,0.000000,4.000000,4.000000,4.000000,4.000000,4.000000,4.000000,0.000000,,,,,,,,,,,,,,,,,,,,,,,,,,,,
1732157238.666629,1732157238.668501,68.000000,0.000000,4299.358887,4288.205078,4317.563965,4303.589844,4286.025879,4292.051270,4328.461426,4398.717773,4295.769043,4280.256348,4477.563965,4518.589844,4350.769043,4411.794922,1409.000000,1.000000,25.000000,,,,0.000000,2.000000,2.000000,0.000000,4.000000,2.000000,2.000000,0.000000,0.000000,4.000000,4.000000,4.000000,4.000000,4.000000,4.000000,0.000000,,,,,,,,,,,,,,,,,17.000000,0.000000,0.517857,0.480347,-0.542725,0.454468,0.967403,-0.002930,-0.048346,-35.496574,45.678734,31.872389
1732157238.674437,1732157238.676310,69.000000,0.000000,4303.717773,4290.000000,4315.512695,4300.256348,4300.512695,4285.256348,4325.256348,4398.205078,4293.589844,4275.641113,4474.871582,4518.974121,4350.512695,4414.871582,1229.000000,1.000000,25.000000,,,,0.000000,2.000000,2.000000,0.000000,4.000000,2.000000,2.000000,0.000000,0.000000,4.000000,4.000000,4.000000,4.000000,4.000000,4.000000,0.000000,,,,,,,,,,,,,,,,,,,,,,,,,,,,
1732157238.682245,1732157238.684318,70.000000,0.000000,4304.871582,4292.307617,4317.179688,4301.666504,4290.256348,4283.974121,4332.563965,4398.333496,4303.205078,4282.051270,4481.538574,4518.589844,4352.051270,4416.153809,0.000000,1.000000,25.000000,,,,0.000000,2.000000,2.000000,0.000000,4.000000,2.000000,2.000000,0.000000,0.000000,4.000000,4.000000,4.000000,4.000000,4.000000,4.000000,0.000000,,,,,,,,,,,,,,,,,,,,,,,,,,,,
1732157238.690054,1732157238.692126,71.000000,0.000000,4302.179688,4292.692383,4317.307617,4300.641113,4269.615234,4289.102539,4336.025879,4397.948730,4314.871582,4296.922852,4483.333496,4517.307617,4352.051270,4414.743652,0.000000,1.000000,25.000000,,,,0.000000,2.000000,2.000000,0.000000,4.000000,2.000000,2.000000,0.000000,0.000000,4.000000,4.000000,4.000000,4.000000,4.000000,4.000000,0.000000,,,,,,,,,,,,,,,,,,,,,,,,,,,,
1732157238.697862,1732157238.700034,72.000000,0.000000,4301.922852,4288.205078,4315.512695,4297.948730,4272.307617,4290.769043,4328.205078,4398.846191,4311.025879,4293.333496,4479.102539,4519.743652,4351.025879,4413.974121,1524.000000,1.000000,25.000000,,,,0.000000,2.000000,2.000000,0.000000,4.000000,2.000000,2.000000,0.000000,0.000000,4.000000,4.000000,4.000000,4.000000,4.000000,4.000000,0.000000,,,,,,,,,,,,,,,,,18.000000,0.000000,0.517857,0.480347,-0.542725,0.454468,0.986937,0.004395,-0.058113,-35.517223,45.708107,31.939968
1732157238.705670,1732157238.707842,73.000000,0.000000,4304.358887,4288.077148,4316.538574,4297.820313,4283.461426,4283.461426,4327.692383,4400.256348,4301.282227,4278.846191,4475.769043,4519.487305,4350.769043,4414.102539,1670.000000,1.000000,25.000000,,,,0.000000,2.000000,2.000000,0.000000,4.000000,2.000000,2.000000,0.000000,0.000000,4.000000,4.000000,4.000000,4.000000,4.000000,4.000000,0.000000,,,,,,,,,,,,,,,,,,,,,,,,,,,,
1732157238.713478,1732157238.715451,74.000000,0.000000,4303.077148,4290.641113,4316.538574,4298.333496,4280.384766,4280.256348,4333.589844,4399.230957,4306.538574,4281.410156,4477.179688,4512.051270,4349.487305,4411.153809,1526.000000,1.000000,25.000000,,,,0.000000,2.000000,2.000000,0.000000,4.000000,2.000000,2.000000,0.000000,0.000000,4.000000,4.000000,4.000000,4.000000,4.000000,4.000000,0.000000,,,,,,,,,,,,,,,,,,,,,,,,,,,,
1732157238.721287,1732157238.723259,75.000000,0.000000,4299.102539,4288.846191,4316.153809,4296.538574,4276.922852,4287.948730,4332.692383,4397.563965,4307.948730,4285.769043,4477.948730,4507.179688,4344.743652,4403.974121,1569.000000,1.000000,25.000000,,,,0.000000,2.000000,2.000000,0.000000,4.000000,2.000000,2.000000,0.000000,0.000000,4.000000,4.000000,4.000000,4.000000,4.000000,4.000000,0.000000,,,,,,,,,,,,,,,,,,,,,,,,,,,,
1732157238.729095,1732157238.730967,76.000000,0.000000,4296.922852,4287.307617,4318.717773,4297.436035,4286.410156,4297.820313,4332.051270,4398.589844,4294.230957,4269.230957,4467.307617,4508.205078,4336.410156,4397.436035,1688.000000,1.000000,25.000000,,,,0.000000,2.000000,2.000000,0.000000,4.000000,2.000000,2.000000,0.000000,0.000000,4.000000,4.000000,4.000000,4.000000,4.000000,4.000000,0.000000,,,,,,,,,,,,,,,,,19.000000,0.000000,0.517835,0.480164,-0.542908,0.454468,0.987914,0.013185,-0.053717,-35.450619,45.668568,31.983042
1732157238.736903,1732157238.738775,77.000000,0.000000,4294.487305,4285.000000,4318.461426,4296.666504,4295.256348,4297.436035,4333.077148,4399.743652,4291.153809,4259.743652,4461.282227,4506.922852,4332.563965,4396.153809,1678.000000,1.000000,25.000000,,,,0.000000,2.000000,2.000000,0.000000,4.000000,2.000000,2.000000,0.000000,0.000000,4.000000,4.000000,4.000000,4.000000,4.000000,4.000000,0.000000,,,,,,,,,,,,,,,,,,,,,,,,,,,,
1732157238.744712,1732157238.746384,78.000000,0.000000,4290.000000,4283.717773,4314.743652,4294.871582,4286.538574,4296.153809,4331.666504,4398.333496,4298.589844,4274.871582,4469.871582,4505.897461,4336.794922,4399.102539,1526.000000,1.000000,25.000000,,,,0.000000,2.000000,2.000000,0.000000,4.000000,2.000000,2.000000,0.000000,0.000000,4.000000,4.000000,4.000000,4.000000,4.000000,4.000000,0.000000,1.000000,0.000000,2.000000,2.000000,0.000000,4.000000,2.000000,2.000000,0.000000,0.000000,4.000000,4.000000,4.000000,4.000000,4.000000,4.000000,,,,,,,,,,,,
1732157238.752520,1732157238.754192,79.000000,0.000000,4292.307617,4288.205078,4315.897461,4297.948730,4284.102539,4293.846191,4333.461426,4397.563965,4299.358887,4284.615234,4475.897461,4507.563965,4343.589844,4397.948730,1569.000000,1.000000,25.000000,,,,0.000000,2.000000,2.000000,0.000000,4.000000,2.000000,2.000000,0.000000,0.000000,4.000000,4.000000,4.000000,4.000000,4.000000,4.000000,0.000000,,,,,,,,,,,,,,,,,,,,,,,,,,,,
1732157238.760328,1732157238.762100,80.000000,0.000000,4299.230957,4294.871582,4318.077148,4302.820313,4303.205078,4280.641113,4333.461426,4398.974121,4296.410156,4278.846191,4474.102539,4505.512695,4349.102539,4398.077148,1688.000000,1.000000,25.000000,,,,0.000000,2.000000,2.000000,0.000000,4.000000,2.000000,2.000000,0.000000,0.000000,4.000000,4.000000,4.000000,4.000000,4.000000,4.000000,0.000000,,,,,,,,,,,,,,,,,20.000000,0.000000,0.517505,0.479736,-0.543396,0.454712,0.979612,-0.003907,-0.049811,-35.505001,45.644871,31.942930
1732157238.768136,1732157238.769908,81.000000,0.000000,4300.000000,4296.282227,4316.282227,4309.102539,4300.897461,4281.153809,4329.487305,4398.974121,4294.871582,4279.743652,4475.641113,4506.282227,4351.410156,4405.897461,1678.000000,1.000000,25.000000,,,,0.000000,2.000000,2.000000,0.000000,4.000000,2.000000,2.000000,0.000000,0.000000,4.000000,4.000000,4.000000,4.000000,4.000000,4.000000,0.000000,,,,,,,,,,,,,,,,,,,,,,,,,,,,
1732157238.775944,1732157238.777916,82.000000,0.000000,4296.282227,4294.487305,4316.153809,4311.282227,4276.153809,4294.615234,4328.461426,4398.589844,4299.230957,4288.077148,4479.871582,4510.641113,4349.615234,4407.179688,1526.000000,1.000000,25.000000,,,,0.000000,2.000000,2.000000,0.000000,4.000000,2.000000,2.000000,0.000000,0.000000,4.000000,4.000000,4.000000,4.000000,4.000000,4.000000,0.000000,,,,,,,,,,,,,,,,,,,,,,,,,,,,
1732157238.783753,1732157238.785724,83.000000,0.000000,4295.000000,4293.974121,4317.820313,4306.153809,4273.974121,4291.025879,4330.641113,4396.922852,4308.589844,4290.512695,4479.743652,4509.358887,4348.717773,4398.077148,1569.000000,1.000000,25.000000,,,,0.000000,2.000000,2.000000,0.000000,4.000000,2.000000,2.000000,0.000000,0.000000,4.000000,4.000000,4.000000,4.000000,4.000000,4.000000,0.000000,,,,,,,,,,,,,,,,,,,,,,,,,,,,
1732157238.791561,1732157238.793633,84.000000,0.000000,4296.666504,4293.205078,4316.922852,4307.051270,4285.000000,4284.230957,4332.948730,4396.666504,4303.974121,4287.436035,4478.077148,4505.128418,4353.205078,4397.820313,1688.000000,1.000000,25.000000,,,,0.000000,2.000000,2.000000,0.000000,4.000000,2.000000,2.000000,0.000000,0.000000,4.000000,4.000000,4.000000,4.000000,4.000000,4.000000,0.000000,,,,,,,,,,,,,,,,,21.000000,0.000000,0.517387,0.479736,-0.543457,0.454773,0.989867,-0.003418,-0.053717,-35.300716,45.375679,31.763773
1732157238.799369,1732157238.801441,85.000000,0.000000,4299.615234,4297.051270,4315.769043,4312.436035,4282.436035,4293.717773,4331.538574,4401.410156,4298.974121,4283.205078,4478.077148,4506.538574,4350.384766,4406.666504,1678.000000,1.000000,25.000000,,,,0.000000,2.000000,2.000000,0.000000,4.000000,2.000000,2.000000,0.000000,0.000000,4.000000,4.000000,4.000000,4.000000,4.000000,4.000000,0.000000,,,,,,,,,,,,,,,,,,,,,,,,,,,,
1732157238.807177,1732157238.809449,86.000000,0.000000,4297.692383,4295.128418,4316.282227,4306.538574,4280.256348,4297.307617,4330.384766,4401.922852,4309.487305,4281.538574,4477.436035,4508.077148,4342.051270,4405.769043,1526.000000,1.000000,25.000000,,,,0.000000,2.000000,2.000000,0.000000,4.000000,2.000000,2.000000,0.000000,0.000000,4.000000,4.000000,4.000000,4.000000,4.000000,4.000000,0.000000,,,,,,,,,,,,,,,,,,,,,,,,,,,,
1732157238.814986,1732157238.817257,87.000000,0.000000,4294.230957,4282.692383,4317.307617,4298.974121,4283.077148,4290.512695,4332.436035,4397.436035,4307.179688,4280.641113,4476.666504,4503.077148,4344.743652,4400.384766,1569.000000,1.000000,25.000000,,,,0.000000,2.000000,2.000000,0.000000,4.000000,2.000000,2.000000,0.000000,0.000000,4.000000,4.000000,4.000000,4.000000,4.000000,4.000000,0.000000,,,,,,,,,,,,,,,,,,,,,,,,,,,,
1732157238.822794,1732157238.825165,88.000000,0.000000,4298.846191,4282.307617,4317.307617,4303.461426,4284.102539,4294.230957,4332.051270,4398.461426,4291.666504,4278.589844,4474.230957,4501.922852,4351.025879,4403.589844,1688.000000,1.000000,25.000000,,,,0.000000,2.000000,2.000000,0.000000,4.000000,2.000000,2.000000,0.000000,0.000000,4.000000,4.000000,4.000000,4.000000,4.000000,4.000000,0.000000,,,,,,,,,,,,,,,,,22.000000,0.000000,0.517469,0.479614,-0.543640,0.454590,0.978635,-0.005372,-0.048346,-35.718582,45.367634,31.650324
1732157238.830602,1732157238.832973,89.000000,0.000000,4304.743652,4292.051270,4315.512695,4305.000000,4282.820313,4295.128418,4329.487305,4400.897461,4293.205078,4278.974121,4473.717773,4510.256348,4351.794922,4407.436035,1678.000000,1.000000,25.000000,,,,0.000000,2.000000,2.000000,0.000000,4.000000,2.000000,2.000000,0.000000,0.000000,4.000000,4.000000,4.000000,4.000000,4.000000,4.000000,0.000000,,,,,,,,,,,,,,,,,,,,,,,,,,,,
1732157238.838410,1732157238.840981,90.000000,0.000000,4300.128418,4286.794922,4315.384766,4299.102539,4277.051270,4286.666504,4329.102539,4398.717773,4302.179688,4284.230957,4477.436035,4508.461426,4349.358887,4404.102539,1526.000000,1.000000,25.000000,,,,0.000000,2.000000,2.000000,0.000000,4.000000,2.000000,2.000000,0.000000,0.000000,4.000000,4.000000,4.000000,4.000000,4.000000,4.000000,0.000000,,,,,,,,,,,,,,,,,,,,,,,,,,,,
1732157238.846219,1732157238.848790,91.000000,0.000000,4290.000000,4275.000000,4316.025879,4294.743652,4287.820313,4285.641113,4326.922852,4398.974121,4297.307617,4283.589844,4478.974121,4496.410156,4344.358887,4397.051270,1569.000000,1.000000,25.000000,,,,0.000000,2.000000,2.000000,0.000000,4.000000,2.000000,2.000000,0.000000,0.000000,4.000000,4.000000,4.000000,4.000000,4.000000,4.000000,0.000000,,,,,,,,,,,,,,,,,,,,,,,,,,,,
1732157238.854027,1732157238.856698,92.000000,0.000000,4291.410156,4280.256348,4313.846191,4294.743652,4303.974121,4290.128418,4325.769043,4400.256348,4292.692383,4280.000000,4476.282227,4497.436035,4344.102539,4396.410156,1688.000000,1.000000,25.000000,,,,0.000000,2.000000,2.000000,0.000000,4.000000,2.000000,2.000000,0.000000,0.000000,4.000000,4.000000,4.000000,4.000000,4.000000,4.000000,0.000000,,,,,,,,,,,,,,,,,23.000000,0.000000,0.517570,0.479309,-0.544067,0.454285,0.976682,-0.004883,-0.048346,-35.490383,45.376118,31.776762
1732157238.861835,1732157238.864506,93.000000,0.000000,4297.563965,4287.179688,4311.794922,4297.436035,4290.769043,4294.102539,4332.563965,4398.077148,4301.410156,4285.256348,4474.230957,4507.563965,4348.974121,4400.512695,1678.000000,1.000000,25.000000,,,,0.000000,2.000000,2.000000,0.000000,4.000000,2.000000,2.000000,0.000000,0.000000,4.000000,4.000000,4.000000,4.000000,4.000000,4.000000,0.000000,,,,,,,,,,,,,,,,,,,,,,,,,,,,
1732157238.869643,1732157238.872114,94.000000,0.000000,4290.384766,4281.282227,4314.487305,4298.461426,4272.307617,4295.641113,4333.205078,4397.820313,4307.692383,4288.205078,4476.153809,4501.282227,4345.897461,4395.769043,1526.000000,1.000000,25.000000,,,,0.000000,2.000000,2.000000,0.000000,4.000000,2.000000,2.000000,0.000000,0.000000,4.000000,4.000000,4.000000,4.000000,4.000000,4.000000,0.000000,,,,,,,,,,,,,,,,,,,,,,,,,,,,
1732157238.877452,1732157238.879922,95.000000,0.000000,4282.051270,4281.025879,4317.051270,4297.307617,4278.717773,4293.974121,4327.948730,4399.230957,4300.641113,4281.666504,4473.974121,4491.538574,4338.974121,4387.948730,1569.000000,1.000000,25.000000,,,,0.000000,2.000000,2.000000,0.000000,4.000000,2.000000,2.000000,0.000000,0.000000,4.000000,4.000000,4.000000,4.000000,4.000000,4.000000,0.000000,,,,,,,,,,,,,,,,,,,,,,,,,,,,
1732157238.885260,1732157238.887631,96.000000,0.000000,4287.051270,4289.487305,4314.743652,4298.077148,4285.897461,4292.307617,4329.358887,4399.358887,4292.563965,4277.179688,4464.102539,4495.769043,4341.153809,4390.897461,1688.000000,1.000000,25.000000,,,,0.000000,2.000000,2.000000,0.000000,4.000000,2.000000,2.000000,0.000000,0.000000,4.000000,4.000000,4.000000,4.000000,4.000000,4.000000,0.000000,,,,,,,,,,,,,,,,,24.000000,0.000000,0.517711,0.479065,-0.544250,0.454163,0.984984,-0.000488,-0.054694,-35.548878,45.451321,31.902510
1732157238.893068,1732157238.895439,97.000000,0.000000,4290.641113,4290.000000,4314.615234,4300.128418,4282.179688,4294.230957,4330.000000,4398.333496,4296.922852,4280.897461,4462.948730,4498.974121,4344.230957,4397.563965,1678.000000,1.000000,25.000000,,,,0.000000,2.000000,2.000000,0.000000,4.000000,2.000000,2.000000,0.000000,0.000000,4.000000,4.000000,4.000000,4.000000,4.000000,4.000000,0.000000,,,,,,,,,,,,,,,,,,,,,,,,,,,,
1732157238.900876,1732157238.903447,98.000000,0.000000,4281.282227,4281.153809,4317.179688,4297.436035,4287.307617,4295.641113,4328.974121,4397.051270,4298.974121,4283.974121,4472.307617,4497.436035,4342.820313,4393.717773,1526.000000,1.000000,25.000000,,,,0.000000,2.000000,2.000000,0.000000,4.000000,2.000000,2.000000,0.000000,0.000000,4.000000,4.000000,4.000000,4.000000,4.000000,4.000000,0.000000,,,,,,,,,,,,,,,,,,,,,,,,,,,,
1732157238.908685,1732157238.911255,99.000000,0.000000,4276.410156,4278.461426,4315.897461,4294.102539,4292.307617,4294.358887,4332.820313,4397.051270,4295.512695,4287.307617,4474.615234,4497.307617,4342.307617,4385.384766,1569.000000,1.000000,25.000000,,,,0.000000,2.000000,2.000000,0.000000,4.000000,2.000000,2.000000,0.000000,0.000000,4.000000,4.000000,4.000000,4.000000,4.000000,4.000000,0.000000,,,,,,,,,,,,,,,,,,,,,,,,,,,,
1732157238.916493,1732157238.918963,100.000000,0.000000,4282.948730,4281.025879,4314.230957,4297.051270,4288.717773,4294.871582,4331.410156,4398.205078,4305.128418,4295.384766,4470.256348,4501.282227,4346.666504,4387.948730,1688.000000,1.000000,25.000000,,,,0.000000,2.000000,2.000000,0.000000,4.000000,2.000000,2.000000,0.000000,0.000000,4.000000,4.000000,4.000000,4.000000,4.000000,4.000000,0.000000,,,,,,,,,,,,,,,,,25.000000,0.000000,0.517813,0.478943,-0.544312,0.454102,0.967403,-0.004395,-0.046881,-35.507923,45.650570,31.857700
1732157238.924301,1732157238.926772,101.000000,0.000000,4285.641113,4280.769043,4314.230957,4298.589844,4296.922852,4293.333496,4326.282227,4397.948730,4312.563965,4299.615234,4471.922852,4506.538574,4349.743652,4396.666504,1678.000000,1.000000,25.000000,,,,0.000000,2.000000,2.000000,0.000000,4.000000,2.000000,2.000000,0.000000,0.000000,4.000000,4.000000,4.000000,4.000000,4.000000,4.000000,0.000000,,,,,,,,,,,,,,,,,,,,,,,,,,,,
1732157238.932109,1732157238.934380,102.000000,0.000000,4283.846191,4280.384766,4316.282227,4295.512695,4302.820313,4292.179688,4331.666504,4397.820313,4305.128418,4295.384766,4472.948730,4507.051270,4345.769043,4399.102539,1526.000000,1.000000,25.000000,,,,0.000000,2.000000,2.000000,0.000000,4.000000,2.000000,2.000000,0.000000,0.000000,4.000000,4.000000,4.000000,4.000000,4.000000,4.000000,0.000000,,,,,,,,,,,,,,,,,,,,,,,,,,,,
1732157238.939917,1732157238.942188,103.000000,0.000000,4285.769043,4280.897461,4316.025879,4295.128418,4286.922852,4294.102539,4337.692383,4400.000000,4306.794922,4294.871582,4473.717773,4505.641113,4342.563965,4397.948730,1569.000000,1.000000,25.000000,,,,0.000000,2.000000,2.000000,0.000000,4.000000,2.000000,2.000000,0.000000,0.000000,4.000000,4.000000,4.000000,4.000000,4.000000,4.000000,0.000000,,,,,,,,,,,,,,,,,,,,,,,,,,,,
1732157238.947726,1732157238.949897,104.000000,0.000000,4291.538574,4282.307617,4314.743652,4297.948730,4274.487305,4294.871582,4331.282227,4399.358887,4313.717773,4298.205078,4472.436035,4506.282227,4342.692383,4399.615234,1688.000000,1.000000,25.000000,,,,0.000000,2.000000,2.000000,0.000000,4.000000,2.000000,2.000000,0.000000,0.000000,4.000000,4.000000,4.000000,4.000000,4.000000,4.000000,0.000000,,,,,,,,,,,,,,,,,26.000000,0.000000,0.517770,0.478943,-0.544250,0.454224,0.986937,-0.006837,-0.047369,-35.509750,45.668629,31.708071
1732157238.955534,1732157238.957705,105.000000,0.000000,4293.589844,4282.436035,4315.256348,4297.307617,4283.846191,4293.077148,4327.563965,4397.948730,4303.717773,4288.589844,4465.641113,4508.077148,4341.153809,4400.128418,1678.000000,1.000000,25.000000,,,,0.000000,2.000000,2.000000,0.000000,4.000000,2.000000,2.000000,0.000000,0.000000,4.000000,4.000000,4.000000,4.000000,4.000000,4.000000,0.000000,,,,,,,,,,,,,,,,,,,,,,,,,,,,
1732157238.963342,1732157238.965313,106.000000,0.000000,4291.666504,4279.871582,4315.897461,4296.282227,4284.871582,4292.692383,4333.461426,4398.205078,4293.205078,4279.230957,4467.307617,4506.282227,4339.871582,4398.205078,1526.000000,1.000000,25.000000,,,,0.000000,2.000000,2.000000,0.000000,4.000000,2.000000,2.000000,0.000000,0.000000,4.000000,4.000000,4.000000,4.000000,4.000000,4.000000,0.000000,,,,,,,,,,,,,,,,,,,,,,,,,,,,
1732157238.971151,1732157238.973121,107.000000,0.000000,4289.871582,4276.922852,4316.666504,4297.179688,4286.666504,4294.102539,4332.692383,4398.974121,4295.897461,4284.358887,4474.102539,4506.025879,4340.897461,4399.102539,1569.000000,1.000000,25.000000,,,,0.000000,2.000000,2.000000,0.000000,4.000000,2.000000,2.000000,0.000000,0.000000,4.000000,4.000000,4.000000,4.000000,4.000000,4.000000,0.000000,,,,,,,,,,,,,,,,,,,,,,,,,,,,
1732157238.978959,1732157238.980830,108.000000,0.000000,4288.333496,4279.358887,4315.769043,4297.179688,4307.051270,4293.974121,4326.410156,4398.589844,4300.512695,4289.230957,4476.538574,4504.615234,4341.666504,4399.230957,1688.000000,1.000000,25.000000,,,,0.000000,2.000000,2.000000,0.000000,4.000000,2.000000,2.000000,0.000000,0.000000,4.000000,4.000000,4.000000,4.000000,4.000000,4.000000,0.000000,,,,,,,,,,,,,,,,,27.000000,0.000000,0.517706,0.478943,-0.544312,0.454224,0.980100,0.017580,-0.047857,-35.661232,45.783257,31.603537
1732157238.986767,1732157238.988638,109.000000,0.000000,4291.794922,4281.666504,4314.487305,4296.538574,4302.179688,4293.461426,4328.589844,4398.974121,4304.487305,4289.743652,4470.384766,4505.256348,4342.563965,4397.820313,1678.000000,1.000000,25.000000,,,,0.000000,2.000000,2.000000,0.000000,4.000000,2.000000,2.000000,0.000000,0.000000,4.000000,4.000000,4.000000,4.000000,4.000000,4.000000,0.000000,,,,,,,,,,,,,,,,,,,,,,,,,,,,
1732157238.994575,1732157238.996246,110.000000,0.000000,4293.974121,4279.615234,4314.358887,4296.794922,4274.871582,4293.589844,4334.487305,4399.102539,4306.922852,4288.717773,4463.461426,4509.743652,4341.794922,4399.358887,1526.000000,1.000000,25.000000,,,,0.000000,2.000000,2.000000,0.000000,4.000000,2.000000,2.000000,0.000000,0.000000,4.000000,4.000000,4.000000,4.000000,4.000000,4.000000,0.000000,,,,,,,,,,,,,,,,,,,,,,,,,,,,
1732157239.002384,1732157239.004055,111.000000,0.000000,4286.922852,4279.487305,4315.000000,4299.487305,4275.384766,4294.743652,4332.563965,4398.717773,4307.051270,4284.358887,4465.641113,4508.461426,4340.128418,4400.128418,1569.000000,1.000000,25.000000,,,,0.000000,2.000000,2.000000,0.000000,4.000000,2.000000,2.000000,0.000000,0.000000,4.000000,4.000000,4.000000,4.000000,4.000000,4.000000,0.000000,,,,,,,,,,,,,,,,,,,,,,,,,,,,
1732157239.010192,1732157239.011763,112.000000,0.000000,4279.487305,4280.256348,4315.512695,4298.077148,4293.589844,4295.897461,4331.025879,4399.102539,4304.102539,4280.897461,4471.025879,4503.974121,4341.153809,4394.487305,1688.000000,1.000000,25.000000,,,,0.000000,2.000000,2.000000,0.000000,4.000000,2.000000,2.000000,0.000000,0.000000,4.000000,4.000000,4.000000,4.000000,4.000000,4.000000,0.000000,,,,,,,,,,,,,,,,,28.000000,0.000000,0.517752,0.478882,-0.544373,0.454163,0.984984,0.005372,-0.046881,-35.740597,45.639439,31.620531
1732157239.018000,1732157239.019571,113.000000,0.000000,4280.512695,4277.948730,4315.256348,4295.000000,4294.743652,4295.897461,4333.974121,4399.102539,4297.436035,4282.051270,4471.410156,4501.538574,4342.820313,4390.897461,1678.000000,1.000000,25.000000,,,,0.000000,2.000000,2.000000,0.000000,4.000000,2.000000,2.000000,0.000000,0.000000,4.000000,4.000000,4.000000,4.000000,4.000000,4.000000,0.000000,,,,,,,,,,,,,,,,,,,,,,,,,,,,
1732157239.025808,1732157239.027180,114.000000,0.000000,4283.077148,4278.205078,4315.384766,4300.769043,4287.436035,4295.897461,4332.692383,4398.077148,4294.743652,4282.563965,4472.179688,4497.692383,4342.820313,4395.256348,1526.000000,1.000000,25.000000,,,,0.000000,2.000000,2.000000,0.000000,4.000000,2.000000,2.000000,0.000000,0.000000,4.000000,4.000000,4.000000,4.000000,4.000000,4.000000,0.000000,,,,,,,,,,,,,,,,,,,,,,,,,,,,
1732157239.033616,1732157239.034988,115.000000,0.000000,4281.282227,4279.358887,4314.743652,4303.077148,4294.871582,4294.230957,4330.128418,4396.922852,4295.897461,4279.230957,4473.589844,4496.538574,4341.153809,4397.692383,1569.000000,1.000000,25.000000,,,,0.000000,2.000000,2.000000,0.000000,4.000000,2.000000,2.000000,0.000000,0.000000,4.000000,4.000000,4.000000,4.000000,4.000000,4.000000,0.000000,,,,,,,,,,,,,,,,,,,,,,,,,,,,
1732157239.041425,1732157239.042696,116.000000,0.000000,4280.384766,4277.563965,4314.102539,4296.025879,4304.487305,4292.948730,4330.384766,4397.563965,4294.358887,4277.563965,4471.282227,4500.000000,4341.153809,4395.384766,1688.000000,1.000000,25.000000,,,,0.000000,2.000000,2.000000,0.000000,4.000000,2.000000,2.000000,0.000000,0.000000,4.000000,4.000000,4.000000,4.000000,4.000000,4.000000,0.000000,,,,,,,,,,,,,,,,,29.000000,0.000000,0.518037,0.478516,-0.544678,0.453857,0.978635,0.000977,-0.054694,-35.631550,45.287945,31.807631
1732157239.049233,1732157239.050504,117.000000,0.000000,4281.538574,4279.230957,4315.769043,4300.128418,4296.025879,4296.153809,4333.589844,4399.871582,4302.179688,4284.615234,4471.666504,4502.051270,4342.820313,4394.615234,1678.000000,1.000000,25.000000,,,,0.000000,2.000000,2.000000,0.000000,4.000000,2.000000,2.000000,0.000000,0.000000,4.000000,4.000000,4.000000,4.000000,4.000000,4.000000,0.000000,,,,,,,,,,,,,,,,,,,,,,,,,,,,
1732157239.057041,1732157239.058512,118.000000,0.000000,4281.025879,4280.641113,4315.897461,4309.615234,4280.128418,4298.461426,4334.358887,4399.743652,4314.102539,4290.256348,4470.512695,4500.641113,4343.333496,4395.000000,1526.000000,1.000000,25.000000,,,,0.000000,2.000000,2.000000,0.000000,4.000000,2.000000,2.000000,0.000000,0.000000,4.000000,4.000000,4.000000,4.000000,4.000000,4.000000,0.000000,,,,,,,,,,,,,,,,,,,,,,,,,,,,
1732157239.064850,1732157239.066320,119.000000,0.000000,4279.743652,4277.307617,4314.102539,4302.948730,4278.589844,4295.641113,4330.256348,4398.205078,4305.897461,4283.461426,4462.563965,4501.922852,4342.563965,4395.256348,1569.000000,1.000000,25.000000,,,,0.000000,2.000000,2.000000,0.000000,4.000000,2.000000,2.000000,0.000000,0.000000,4.000000,4.000000,4.000000,4.000000,4.000000,4.000000,0.000000,,,,,,,,,,,,,,,,,,,,,,,,,,,,
1732157239.072658,1732157239.074229,120.000000,0.000000,4278.717773,4277.436035,4313.717773,4294.102539,4285.384766,4294.871582,4329.102539,4399.487305,4294.102539,4279.102539,4459.358887,4507.179688,4342.563965,4397.179688,1688.000000,1.000000,25.000000,,,,0.000000,2.000000,2.000000,0.000000,4.000000,2.000000,2.000000,0.000000,0.000000,4.000000,4.000000,4.000000,4.000000,4.000000,4.000000,0.000000,,,,,,,,,,,,,,,,,30.000000,0.000000,0.518121,0.478333,-0.544861,0.453735,0.983030,0.003907,-0.046881,-35.558224,45.421570,31.827515
1732157239.080466,1732157239.082037,121.000000,0.000000,4278.589844,4276.922852,4315.641113,4295.000000,4286.794922,4295.512695,4330.769043,4401.025879,4296.538574,4283.205078,4467.436035,4510.256348,4346.153809,4396.538574,1678.000000,1.000000,25.000000,,,,0.000000,2.000000,2.000000,0.000000,4.000000,2.000000,2.000000,0.000000,0.000000,4.000000,4.000000,4.000000,4.000000,4.000000,4.000000,0.000000,,,,,,,,,,,,,,,,,,,,,,,,,,,,
1732157239.088274,1732157239.089645,122.000000,0.000000,4279.102539,4273.461426,4314.871582,4295.512695,4284.487305,4294.487305,4330.000000,4398.333496,4300.128418,4283.589844,4471.153809,4509.102539,4350.769043,4395.769043,1526.000000,1.000000,25.000000,,,,0.000000,2.000000,2.000000,0.000000,4.000000,2.000000,2.000000,0.000000,0.000000,4.000000,4.000000,4.000000,4.000000,4.000000,4.000000,0.000000,,,,,,,,,,,,,,,,,,,,,,,,,,,,
1732157239.096082,1732157239.097453,123.000000,0.000000,4281.922852,4271.922852,4312.692383,4293.461426,4294.743652,4293.205078,4331.538574,4396.538574,4298.077148,4281.794922,4463.974121,4508.589844,4348.461426,4404.102539,1569.000000,1.000000,25.000000,,,,0.000000,2.000000,2.000000,0.000000,4.000000,2.000000,2.000000,0.000000,0.000000,4.000000,4.000000,4.000000,4.000000,4.000000,4.000000,0.000000,,,,,,,,,,,,,,,,,,,,,,,,,,,,
1732157239.103891,1732157239.105362,124.000000,0.000000,4283.461426,4272.563965,4314.358887,4291.666504,4306.282227,4292.948730,4336.282227,4398.077148,4297.307617,4281.666504,4465.641113,4510.000000,4342.948730,4407.307617,1688.000000,1.000000,25.000000,,,,0.000000,2.000000,2.000000,0.000000,4.000000,2.000000,2.000000,0.000000,0.000000,4.000000,4.000000,4.000000,4.000000,4.000000,4.000000,0.000000,,,,,,,,,,,,,,,,,31.000000,0.000000,0.518134,0.478271,-0.544800,0.453857,0.987914,-0.007813,-0.045416,-35.582161,45.529804,31.876953
1732157239.111699,1732157239.113170,125.000000,0.000000,4282.179688,4273.717773,4314.487305,4293.846191,4292.563965,4294.358887,4334.102539,4398.333496,4297.436035,4281.282227,4475.000000,4508.717773,4342.692383,4400.256348,1678.000000,1.000000,25.000000,,,,0.000000,2.000000,2.000000,0.000000,4.000000,2.000000,2.000000,0.000000,0.000000,4.000000,4.000000,4.000000,4.000000,4.000000,4.000000,0.000000,,,,,,,,,,,,,,,,,,,,,,,,,,,,
1732157239.119507,1732157239.121178,126.000000,0.000000,4282.051270,4271.794922,4313.974121,4297.692383,4274.102539,4296.666504,4330.128418,4397.948730,4303.077148,4284.230957,4472.820313,4508.717773,4343.589844,4398.974121,1526.000000,1.000000,25.000000,,,,0.000000,2.000000,2.000000,0.000000,4.000000,2.000000,2.000000,0.000000,0.000000,4.000000,4.000000,4.000000,4.000000,4.000000,4.000000,0.000000,,,,,,,,,,,,,,,,,,,,,,,,,,,,
1732157239.127315,1732157239.128986,127.000000,0.000000,4281.282227,4265.512695,4313.205078,4295.641113,4278.205078,4294.743652,4331.282227,4398.205078,4310.769043,4289.358887,4469.743652,4508.077148,4342.179688,4401.153809,25.000000,1.000000,25.000000,,,,0.000000,2.000000,2.000000,0.000000,4.000000,2.000000,2.000000,0.000000,0.000000,4.000000,4.000000,4.000000,4.000000,4.000000,4.000000,0.000000,,,,,,,,,,,,,,,,,,,,,,,,,,,,
1732157239.135124,1732157239.136694,0.000000,0.000000,4280.000000,4267.179688,4311.410156,4292.436035,4285.128418,4292.692383,4332.563965,4399.615234,4306.153809,4291.153809,4473.717773,4506.410156,4342.307617,4397.948730,0.000000,1.000000,25.000000,,,,0.000000,2.000000,2.000000,0.000000,4.000000,2.000000,2.000000,0.000000,0.000000,4.000000,4.000000,4.000000,4.000000,4.000000,4.000000,0.000000,,,,,,,,,,,,,,,,,0.000000,0.000000,0.518070,0.478271,-0.544861,0.453857,0.978147,0.008302,-0.047857,-35.408218,45.524139,31.551998
1732157239.142932,1732157239.144502,1.000000,0.000000,4281.153809,4276.025879,4311.922852,4296.410156,4283.333496,4295.128418,4333.077148,4400.897461,4299.358887,4286.410156,4465.641113,4509.230957,4342.563965,4398.589844,1591.000000,1.000000,25.000000,,,,0.000000,2.000000,2.000000,0.000000,4.000000,2.000000,2.000000,0.000000,0.000000,4.000000,4.000000,4.000000,4.000000,4.000000,4.000000,0.000000,,,,,,,,,,,,,,,,,,,,,,,,,,,,
1732157239.150740,1732157239.152111,2.000000,0.000000,4280.897461,4272.948730,4313.461426,4299.358887,4287.820313,4296.538574,4332.051270,4399.743652,4299.615234,4280.512695,4459.743652,4508.717773,4340.769043,4400.128418,1381.000000,1.000000,25.000000,,,,0.000000,2.000000,2.000000,0.000000,4.000000,2.000000,2.000000,0.000000,0.000000,4.000000,4.000000,4.000000,4.000000,4.000000,4.000000,0.000000,,,,,,,,,,,,,,,,,,,,,,,,,,,,
1732157239.158548,1732157239.159919,3.000000,0.000000,4279.358887,4266.922852,4313.717773,4296.794922,4299.102539,4293.205078,4332.436035,4397.820313,4297.051270,4278.077148,4468.717773,4503.205078,4340.128418,4396.153809,1406.000000,1.000000,25.000000,,,,0.000000,2.000000,2.000000,0.000000,4.000000,2.000000,2.000000,0.000000,0.000000,4.000000,4.000000,4.000000,4.000000,4.000000,4.000000,0.000000,,,,,,,,,,,,,,,,,,,,,,,,,,,,
1732157239.166357,1732157239.167827,4.000000,0.000000,4281.410156,4268.846191,4314.102539,4294.871582,4298.077148,4290.769043,4331.153809,4397.948730,4295.256348,4278.461426,4473.333496,4506.153809,4344.615234,4403.846191,1409.000000,1.000000,25.000000,,,,0.000000,2.000000,2.000000,0.000000,4.000000,2.000000,2.000000,0.000000,0.000000,4.000000,4.000000,4.000000,4.000000,4.000000,4.000000,0.000000,,,,,,,,,,,,,,,,,1.000000,0.000000,0.518070,0.478271,-0.544861,0.453857,0.978147,-0.004883,-0.047369,-35.425655,45.519554,31.510452
1732157239.174165,1732157239.175635,5.000000,0.000000,4281.282227,4268.077148,4315.512695,4294.358887,4282.692383,4292.563965,4331.538574,4397.820313,4303.717773,4285.897461,4473.205078,4511.153809,4349.358887,4413.589844,1229.000000,1.000000,25.000000,,,,0.000000,2.000000,2.000000,0.000000,4.000000,2.000000,2.000000,0.000000,0.000000,4.000000,4.000000,4.000000,4.000000,4.000000,4.000000,0.000000,,,,,,,,,,,,,,,,,,,,,,,,,,,,
1732157239.181973,1732157239.183643,6.000000,0.000000,4277.820313,4265.512695,4315.128418,4293.333496,4273.589844,4295.769043,4334.358887,4398.333496,4308.846191,4294.358887,4473.461426,4510.000000,4350.000000,4405.641113,0.000000,1.000000,25.000000,,,,0.000000,2.000000,2.000000,0.000000,4.000000,2.000000,2.000000,0.000000,0.000000,4.000000,4.000000,4.000000,4.000000,4.000000,4.000000,0.000000,,,,,,,,,,,,,,,,,,,,,,,,,,,,
1732157239.189781,1732157239.191452,7.000000,0.000000,4276.538574,4265.897461,4314.230957,4294.102539,4279.743652,4295.256348,4332.563965,4399.743652,4302.179688,4288.589844,4474.487305,4508.974121,4350.769043,4395.769043,0.000000,1.000000,25.000000,,,,0.000000,2.000000,2.000000,0.000000,4.000000,2.000000,2.000000,0.000000,0.000000,4.000000,4.000000,4.000000,4.000000,4.000000,4.000000,0.000000,,,,,,,,,,,,,,,,,,,,,,,,,,,,
1732157239.197590,1732157239.199360,8.000000,0.000000,4276.025879,4265.641113,4315.641113,4295.897461,4286.282227,4294.358887,4332.820313,4399.358887,4301.794922,4279.743652,4473.333496,4508.205078,4351.025879,4401.025879,1524.000000,1.000000,25.000000,,,,0.000000,2.000000,2.000000,0.000000,4.000000,2.000000,2.000000,0.000000,0.000000,4.000000,4.000000,4.000000,4.000000,4.000000,4.000000,0.000000,,,,,,,,,,,,,,,,,2.000000,0.000000,0.518065,0.477905,-0.545288,0.453735,0.974728,-0.008790,-0.059089,-35.384781,45.582504,31.585133
1732157239.205398,1732157239.207168,9.000000,0.000000,4275.897461,4267.563965,4315.641113,4295.641113,4288.717773,4296.922852,4335.000000,4397.948730,4310.384766,4287.820313,4468.205078,4507.436035,4347.692383,4408.461426,1670.000000,1.000000,25.000000,,,,0.000000,2.000000,2.000000,0.000000,4.000000,2.000000,2.000000,0.000000,0.000000,4.000000,4.000000,4.000000,4.000000,4.000000,4.000000,0.000000,,,,,,,,,,,,,,,,,,,,,,,,,,,,
1732157239.213206,1732157239.215176,10.000000,0.000000,4277.563965,4272.948730,4315.384766,4295.512695,4287.051270,4297.051270,4332.051270,4398.974121,4309.871582,4298.846191,4472.307617,4509.230957,4348.974121,4406.410156,1531.000000,1.000000,25.000000,,,,0.000000,2.000000,2.000000,0.000000,4.000000,2.000000,2.000000,0.000000,0.000000,4.000000,4.000000,4.000000,4.000000,4.000000,4.000000,0.000000,,,,,,,,,,,,,,,,,,,,,,,,,,,,
1732157239.221014,1732157239.222984,11.000000,0.000000,4277.948730,4270.512695,4314.487305,4295.769043,4285.769043,4292.692383,4328.846191,4400.000000,4298.205078,4291.666504,4477.051270,4509.871582,4352.563965,4404.615234,1569.000000,1.000000,25.000000,,,,0.000000,2.000000,2.000000,0.000000,4.000000,2.000000,2.000000,0.000000,0.000000,4.000000,4.000000,4.000000,4.000000,4.000000,4.000000,0.000000,,,,,,,,,,,,,,,,,,,,,,,,,,,,
1732157239.228823,1732157239.230892,12.000000,0.000000,4277.436035,4265.512695,4313.205078,4293.333496,4295.512695,4290.769043,4331.282227,4398.974121,4293.846191,4279.871582,4465.897461,4509.230957,4345.512695,4402.820313,1688.000000,1.000000,25.000000,,,,0.000000,2.000000,2.000000,0.000000,4.000000,2.000000,2.000000,0.000000,0.000000,4.000000,4.000000,4.000000,4.000000,4.000000,4.000000,0.000000,,,,,,,,,,,,,,,,,3.000000,0.000000,0.517932,0.477783,-0.545471,0.453796,0.974728,-0.006837,-0.056159,-35.536674,45.585163,31.733957
1732157239.236631,1732157239.238700,13.000000,0.000000,4278.589844,4267.948730,4314.487305,4291.538574,4294.871582,4293.461426,4330.128418,4398.077148,4300.256348,4285.641113,4461.922852,4511.666504,4341.538574,4397.820313,1673.000000,1.000000,25.000000,,,,0.000000,2.000000,2.000000,0.000000,4.000000,2.000000,2.000000,0.000000,0.000000,4.000000,4.000000,4.000000,4.000000,4.000000,4.000000,0.000000,,,,,,,,,,,,,,,,,,,,,,,,,,,,
1732157239.244439,1732157239.246708,14.000000,0.000000,4281.410156,4267.948730,4315.512695,4294.743652,4279.615234,4296.666504,4328.717773,4398.461426,4301.538574,4294.358887,4476.153809,4517.563965,4350.641113,4396.538574,1531.000000,1.000000,25.000000,,,,0.000000,2.000000,2.000000,0.000000,4.000000,2.000000,2.000000,0.000000,0.000000,4.000000,4.000000,4.000000,4.000000,4.000000,4.000000,0.000000,1.000000,0.000000,2.000000,2.000000,0.000000,4.000000,2.000000,2.000000,0.000000,0.000000,4.000000,4.000000,4.000000,4.000000,4.000000,4.000000,,,,,,,,,,,,
1732157239.252247,1732157239.254517,15.000000,0.000000,4284.102539,4270.000000,4315.128418,4297.692383,4277.051270,4295.384766,4333.461426,4398.589844,4296.538574,4286.410156,4479.358887,4522.051270,4351.922852,4402.436035,1569.000000,1.000000,25.000000,,,,0.000000,2.000000,2.000000,0.000000,4.000000,2.000000,2.000000,0.000000,0.000000,4.000000,4.000000,4.000000,4.000000,4.000000,4.000000,0.000000,,,,,,,,,,,,,,,,,,,,,,,,,,,,
1732157239.260056,1732157239.262225,16.000000,0.000000,4283.846191,4276.282227,4314.743652,4297.436035,4281.153809,4294.615234,4334.358887,4400.256348,4296.282227,4277.820313,4471.922852,4518.205078,4343.077148,4402.563965,0.000000,1.000000,25.000000,,,,0.000000,2.000000,2.000000,0.000000,4.000000,2.000000,2.000000,0.000000,0.000000,4.000000,4.000000,4.000000,4.000000,4.000000,4.000000,0.000000,,,,,,,,,,,,,,,,,4.000000,0.000000,0.517851,0.477661,-0.545654,0.453796,0.983518,-0.004395,-0.054206,-35.403038,45.853981,31.784506
1732157239.267864,1732157239.270033,17.000000,0.000000,4281.410156,4271.410156,4315.641113,4297.436035,4286.410156,4295.897461,4332.948730,4402.563965,4297.692383,4282.051270,4469.743652,4506.922852,4342.436035,4397.051270,0.000000,1.000000,25.000000,,,,0.000000,2.000000,2.000000,0.000000,4.000000,2.000000,2.000000,0.000000,0.000000,4.000000,4.000000,4.000000,4.000000,4.000000,4.000000,0.000000,,,,,,,,,,,,,,,,,,,,,,,,,,,,
1732157239.275672,1732157239.277642,18.000000,0.000000,4281.538574,4264.743652,4315.128418,4297.563965,4297.948730,4291.666504,4333.333496,4400.897461,4297.051270,4284.487305,4463.589844,4504.743652,4345.384766,4397.820313,0.000000,1.000000,25.000000,,,,0.000000,2.000000,2.000000,0.000000,4.000000,2.000000,2.000000,0.000000,0.000000,4.000000,4.000000,4.000000,4.000000,4.000000,4.000000,0.000000,,,,,,,,,,,,,,,,,,,,,,,,,,,,
1732157239.283480,1732157239.285450,19.000000,0.000000,4282.307617,4269.230957,4314.743652,4296.922852,4293.974121,4287.820313,4332.692383,4397.563965,4296.666504,4281.025879,4462.563965,4513.077148,4342.051270,4400.512695,0.000000,1.000000,25.000000,,,,0.000000,2.000000,2.000000,0.000000,4.000000,2.000000,2.000000,0.000000,0.000000,4.000000,4.000000,4.000000,4.000000,4.000000,4.000000,0.000000,,,,,,,,,,,,,,,,,,,,,,,,,,,,
1732157239.291289,1732157239.293158,20.000000,0.000000,4281.282227,4269.871582,4313.846191,4296.538574,4275.256348,4291.666504,4332.948730,4400.384766,4295.641113,4281.025879,4471.410156,4514.615234,4339.102539,4398.205078,0.000000,1.000000,25.000000,,,,0.000000,2.000000,2.000000,0.000000,4.000000,2.000000,2.000000,0.000000,0.000000,4.000000,4.000000,4.000000,4.000000,4.000000,4.000000,0.000000,,,,,,,,,,,,,,,,,5.000000,0.000000,0.517669,0.477173,-0.546204,0.453857,0.996215,-0.002930,-0.052252,-35.239796,45.871727,31.778784
1732157239.299097,1732157239.300966,21.000000,0.000000,4280.769043,4264.487305,4313.589844,4296.666504,4274.871582,4294.743652,4333.589844,4404.871582,4298.717773,4283.974121,4475.256348,4507.692383,4341.025879,4393.589844,0.000000,1.000000,25.000000,,,,0.000000,2.000000,2.000000,0.000000,4.000000,2.000000,2.000000,0.000000,0.000000,4.000000,4.000000,4.000000,4.000000,4.000000,4.000000,0.000000,,,,,,,,,,,,,,,,,,,,,,,,,,,,
1732157239.306905,1732157239.308575,22.000000,0.000000,4281.153809,4266.922852,4315.128418,4297.179688,4286.922852,4293.333496,4334.102539,4402.179688,4303.846191,4284.615234,4472.436035,4503.846191,4341.666504,4394.102539,0.000000,1.000000,25.000000,,,,0.000000,2.000000,2.000000,0.000000,4.000000,2.000000,2.000000,0.000000,0.000000,4.000000,4.000000,4.000000,4.000000,4.000000,4.000000,0.000000,,,,,,,,,,,,,,,,,,,,,,,,,,,,
1732157239.314713,1732157239.316383,23.000000,0.000000,4280.769043,4266.794922,4314.615234,4297.436035,4290.000000,4295.000000,4334.358887,4398.589844,4299.743652,4282.051270,4461.794922,4505.256348,4336.410156,4397.563965,0.000000,1.000000,25.000000,,,,0.000000,2.000000,2.000000,0.000000,4.000000,2.000000,2.000000,0.000000,0.000000,4.000000,4.000000,4.000000,4.000000,4.000000,4.000000,0.000000,,,,,,,,,,,,,,,,,,,,,,,,,,,,
1732157239.322522,1732157239.324091,24.000000,0.000000,4280.641113,4263.974121,4314.230957,4297.692383,4285.128418,4298.333496,4332.948730,4398.846191,4298.589844,4279.615234,4457.948730,4509.102539,4336.538574,4398.461426,0.000000,1.000000,25.000000,,,,0.000000,2.000000,2.000000,0.000000,4.000000,2.000000,2.000000,0.000000,0.000000,4.000000,4.000000,4.000000,4.000000,4.000000,4.000000,0.000000,,,,,,,,,,,,,,,,,6.000000,0.000000,0.517845,0.476807,-0.546509,0.453674,0.983518,-0.007813,-0.047369,-35.584232,45.976097,31.885815
1732157239.330330,1732157239.331899,25.000000,0.000000,4279.102539,4271.666504,4316.538574,4297.179688,4286.282227,4296.794922,4333.461426,4397.820313,4303.589844,4281.025879,4469.615234,4509.871582,4344.358887,4398.205078,0.000000,1.000000,25.000000,,,,0.000000,2.000000,2.000000,0.000000,4.000000,2.000000,2.000000,0.000000,0.000000,4.000000,4.000000,4.000000,4.000000,4.000000,4.000000,0.000000,,,,,,,,,,,,,,,,,,,,,,,,,,,,
1732157239.338138,1732157239.339508,26.000000,0.000000,4275.641113,4273.589844,4316.282227,4295.128418,4298.205078,4293.205078,4334.743652,4397.051270,4301.153809,4282.563965,4470.384766,4507.436035,4341.410156,4393.077148,0.000000,1.000000,25.000000,,,,0.000000,2.000000,2.000000,0.000000,4.000000,2.000000,2.000000,0.000000,0.000000,4.000000,4.000000,4.000000,4.000000,4.000000,4.000000,0.000000,,,,,,,,,,,,,,,,,,,,,,,,,,,,
1732157239.345946,1732157239.347316,27.000000,0.000000,4275.897461,4266.794922,4314.102539,4295.769043,4296.666504,4292.820313,4334.102539,4398.974121,4300.128418,4281.666504,4461.794922,4504.871582,4332.436035,4388.974121,0.000000,1.000000,25.000000,,,,0.000000,2.000000,2.000000,0.000000,4.000000,2.000000,2.000000,0.000000,0.000000,4.000000,4.000000,4.000000,4.000000,4.000000,4.000000,0.000000,,,,,,,,,,,,,,,,,,,,,,,,,,,,
1732157239.353754,1732157239.355024,28.000000,0.000000,4280.128418,4268.077148,4314.358887,4298.846191,4276.282227,4294.615234,4333.974121,4398.205078,4302.563965,4281.153809,4469.615234,4505.897461,4338.461426,4395.128418,0.000000,1.000000,25.000000,,,,0.000000,2.000000,2.000000,0.000000,4.000000,2.000000,2.000000,0.000000,0.000000,4.000000,4.000000,4.000000,4.000000,4.000000,4.000000,0.000000,,,,,,,,,,,,,,,,,7.000000,0.000000,0.517845,0.476807,-0.546509,0.453674,0.992797,-0.011232,-0.057624,-35.878227,46.120640,31.927509
1732157239.361563,1732157239.362833,29.000000,0.000000,4282.179688,4275.384766,4315.512695,4297.820313,4269.871582,4293.589844,4332.820313,4400.000000,4296.282227,4281.922852,4474.615234,4512.307617,4346.282227,4401.538574,0.000000,1.000000,25.000000,,,,0.000000,2.000000,2.000000,0.000000,4.000000,2.000000,2.000000,0.000000,0.000000,4.000000,4.000000,4.000000,4.000000,4.000000,4.000000,0.000000,,,,,,,,,,,,,,,,,,,,,,,,,,,,
1732157239.369371,1732157239.370441,30.000000,0.000000,4281.666504,4277.948730,4316.282227,4294.743652,4282.692383,4293.077148,4331.410156,4403.589844,4297.179688,4281.410156,4463.205078,4517.436035,4341.794922,4397.436035,0.000000,1.000000,25.000000,,,,0.000000,2.000000,2.000000,0.000000,4.000000,2.000000,2.000000,0.000000,0.000000,4.000000,4.000000,4.000000,4.000000,4.000000,4.000000,0.000000,,,,,,,,,,,,,,,,,,,,,,,,,,,,
1732157239.377179,1732157239.378249,31.000000,0.000000,4280.769043,4275.256348,4317.563965,4296.282227,4282.820313,4294.230957,4332.179688,4401.410156,4306.025879,4281.282227,4460.641113,4515.641113,4339.743652,4395.769043,0.000000,1.000000,25.000000,,,,0.000000,2.000000,2.000000,0.000000,4.000000,2.000000,2.000000,0.000000,0.000000,4.000000,4.000000,4.000000,4.000000,4.000000,4.000000,0.000000,,,,,,,,,,,,,,,,,,,,,,,,,,,,
1732157239.384987,1732157239.385958,32.000000,0.000000,4277.948730,4271.025879,4317.563965,4297.436035,4275.512695,4293.589844,4332.179688,4399.102539,4301.410156,4282.179688,4467.051270,4513.333496,4342.307617,4398.589844,0.000000,1.000000,25.000000,,,,0.000000,2.000000,2.000000,0.000000,4.000000,2.000000,2.000000,0.000000,0.000000,4.000000,4.000000,4.000000,4.000000,4.000000,4.000000,0.000000,,,,,,,,,,,,,,,,,8.000000,0.000000,0.517857,0.476501,-0.546814,0.453613,0.976193,-0.021487,-0.046881,-35.774700,45.971050,31.952950
1732157239.392796,1732157239.393766,33.000000,0.000000,4274.487305,4267.051270,4314.871582,4292.948730,4291.794922,4292.948730,4331.922852,4400.897461,4294.102539,4279.615234,4461.922852,4512.436035,4339.230957,4392.307617,0.000000,1.000000,25.000000,,,,0.000000,2.000000,2.000000,0.000000,4.000000,2.000000,2.000000,0.000000,0.000000,4.000000,4.000000,4.000000,4.000000,4.000000,4.000000,0.000000,,,,,,,,,,,,,,,,,,,,,,,,,,,,
1732157239.400604,1732157239.401374,34.000000,0.000000,4276.282227,4270.641113,4313.589844,4292.563965,4304.615234,4294.871582,4331.538574,4400.897461,4295.256348,4275.897461,4459.615234,4506.922852,4337.563965,4388.589844,0.000000,1.000000,25.000000,,,,0.000000,2.000000,2.000000,0.000000,4.000000,2.000000,2.000000,0.000000,0.000000,4.000000,4.000000,4.000000,4.000000,4.000000,4.000000,0.000000,,,,,,,,,,,,,,,,,,,,,,,,,,,,
1732157239.408412,1732157239.409182,35.000000,0.000000,4280.769043,4279.102539,4313.461426,4298.974121,4286.153809,4295.256348,4330.256348,4398.974121,4294.615234,4277.051270,4471.153809,4500.897461,4342.051270,4395.256348,0.000000,1.000000,25.000000,,,,0.000000,2.000000,2.000000,0.000000,4.000000,2.000000,2.000000,0.000000,0.000000,4.000000,4.000000,4.000000,4.000000,4.000000,4.000000,0.000000,,,,,,,,,,,,,,,,,,,,,,,,,,,,
1732157239.416221,1732157239.416891,36.000000,0.000000,4280.897461,4278.205078,4314.230957,4301.282227,4269.871582,4293.846191,4328.974121,4399.102539,4294.358887,4278.717773,4470.384766,4507.563965,4344.230957,4400.000000,0.000000,1.000000,25.000000,,,,0.000000,2.000000,2.000000,0.000000,4.000000,2.000000,2.000000,0.000000,0.000000,4.000000,4.000000,4.000000,4.000000,4.000000,4.000000,0.000000,,,,,,,,,,,,,,,,,9.000000,0.000000,0.517776,0.476379,-0.546997,0.453613,0.978635,-0.016115,-0.045416,-35.774174,45.883217,32.015221
1732157239.424029,1732157239.424699,37.000000,0.000000,4279.358887,4272.692383,4314.871582,4297.051270,4280.384766,4293.461426,4331.666504,4398.077148,4295.641113,4278.846191,4459.102539,4520.256348,4343.205078,4398.846191,0.000000,1.000000,25.000000,,,,0.000000,2.000000,2.000000,0.000000,4.000000,2.000000,2.000000,0.000000,0.000000,4.000000,4.000000,4.000000,4.000000,4.000000,4.000000,0.000000,,,,,,,,,,,,,,,,,,,,,,,,,,,,
1732157239.431837,1732157239.432307,38.000000,0.000000,4281.666504,4272.948730,4314.743652,4295.128418,4285.897461,4294.743652,4334.615234,4396.538574,4295.641113,4280.769043,4466.282227,4522.820313,4342.948730,4398.974121,0.000000,1.000000,25.000000,,,,0.000000,2.000000,2.000000,0.000000,4.000000,2.000000,2.000000,0.000000,0.000000,4.000000,4.000000,4.000000,4.000000,4.000000,4.000000,0.000000,,,,,,,,,,,,,,,,,,,,,,,,,,,,
1732157239.439645,1732157239.440116,39.000000,0.000000,4282.563965,4279.230957,4313.717773,4297.307617,4275.769043,4296.666504,4333.846191,4398.589844,4301.153809,4283.589844,4482.563965,4516.025879,4343.974121,4401.025879,0.000000,1.000000,25.000000,,,,0.000000,2.000000,2.000000,0.000000,4.000000,2.000000,2.000000,0.000000,0.000000,4.000000,4.000000,4.000000,4.000000,4.000000,4.000000,0.000000,,,,,,,,,,,,,,,,,,,,,,,,,,,,
1732157239.447453,1732157239.447824,40.000000,0.000000,4278.077148,4277.563965,4313.974121,4297.820313,4285.641113,4296.410156,4334.615234,4400.897461,4304.743652,4283.077148,4474.102539,4509.871582,4340.128418,4397.948730,0.000000,1.000000,25.000000,,,,0.000000,2.000000,2.000000,0.000000,4.000000,2.000000,2.000000,0.000000,0.000000,4.000000,4.000000,4.000000,4.000000,4.000000,4.000000,0.000000,,,,,,,,,,,,,,,,,10.000000,0.000000,0.518041,0.475891,-0.547424,0.453308,0.982053,-0.017092,-0.046392,-35.615414,45.775406,32.103996
1732157239.455262,1732157239.455632,41.000000,0.000000,4277.179688,4268.589844,4315.769043,4297.179688,4305.641113,4294.871582,4335.000000,4401.153809,4300.897461,4281.794922,4459.743652,4510.641113,4335.384766,4395.641113,0.000000,1.000000,25.000000,,,,0.000000,2.000000,2.000000,0.000000,4.000000,2.000000,2.000000,0.000000,0.000000,4.000000,4.000000,4.000000,4.000000,4.000000,4.000000,0.000000,,,,,,,,,,,,,,,,,,,,,,,,,,,,
1732157239.463070,1732157239.463240,42.000000,0.000000,4281.153809,4269.743652,4314.871582,4296.282227,4296.282227,4293.717773,4334.743652,4399.358887,4301.538574,4282.820313,4470.512695,4516.153809,4338.974121,4401.282227,0.000000,1.000000,25.000000,,,,0.000000,2.000000,2.000000,0.000000,4.000000,2.000000,2.000000,0.000000,0.000000,4.000000,4.000000,4.000000,4.000000,4.000000,4.000000,0.000000,,,,,,,,,,,,,,,,,,,,,,,,,,,,
1732157239.470878,1732157239.471049,43.000000,0.000000,4281.794922,4272.307617,4313.974121,4294.487305,4273.077148,4293.589844,4333.205078,4399.230957,4303.461426,4283.333496,4480.128418,4516.666504,4345.256348,4405.641113,0.000000,1.000000,25.000000,,,,0.000000,2.000000,2.000000,0.000000,4.000000,2.000000,2.000000,0.000000,0.000000,4.000000,4.000000,4.000000,4.000000,4.000000,4.000000,0.000000,,,,,,,,,,,,,,,,,,,,,,,,,,,,
1732157239.478686,1732157239.478957,44.000000,0.000000,4278.846191,4266.153809,4315.641113,4294.230957,4273.846191,4293.974121,4334.487305,4398.974121,4300.256348,4280.897461,4467.436035,4515.128418,4341.922852,4400.769043,0.000000,1.000000,25.000000,,,,0.000000,2.000000,2.000000,0.000000,4.000000,2.000000,2.000000,0.000000,0.000000,4.000000,4.000000,4.000000,4.000000,4.000000,4.000000,0.000000,,,,,,,,,,,,,,,,,11.000000,0.000000,0.517987,0.475891,-0.547424,0.453369,0.982053,-0.017092,-0.046392,-35.720150,45.754745,31.925903
1732157239.486495,1732157239.486765,45.000000,0.000000,4278.205078,4264.230957,4315.897461,4296.282227,4284.743652,4293.717773,4335.128418,4399.230957,4295.512695,4278.205078,4460.512695,4517.563965,4337.179688,4396.410156,0.000000,1.000000,25.000000,,,,0.000000,2.000000,2.000000,0.000000,4.000000,2.000000,2.000000,0.000000,0.000000,4.000000,4.000000,4.000000,4.000000,4.000000,4.000000,0.000000,,,,,,,,,,,,,,,,,,,,,,,,,,,,
