title:3two, start timestamp:1732157176.145976, stop timestamp:1732157229.679297, headset type:EPOCX, headset serial:E5020C3A, headset firmware:730, channels:67, sampling rate:eeg_128;mot_32, samples:6857      , version:2.2, 
Timestamp,OriginalTimestamp,EEG.Counter,EEG.Interpolated,EEG.AF3,EEG.F7,EEG.F3,EEG.FC5,EEG.T7,EEG.P7,EEG.O1,EEG.O2,EEG.P8,EEG.T8,EEG.FC6,EEG.F4,EEG.F8,EEG.AF4,EEG.RawCq,EEG.Battery,EEG.BatteryPercent,MarkerIndex,MarkerType,MarkerValueInt,EEG.MarkerHardware,CQ.AF3,CQ.F7,CQ.F3,CQ.FC5,CQ.T7,CQ.P7,CQ.O1,CQ.O2,CQ.P8,CQ.T8,CQ.FC6,CQ.F4,CQ.F8,CQ.AF4,CQ.Overall,EQ.SampleRateQuality,EQ.OVERALL,EQ.AF3,EQ.F7,EQ.F3,EQ.FC5,EQ.T7,EQ.P7,EQ.O1,EQ.O2,EQ.P8,EQ.T8,EQ.FC6,EQ.F4,EQ.F8,EQ.AF4,MOT.CounterMems,MOT.InterpolatedMems,MOT.Q0,MOT.Q1,MOT.Q2,MOT.Q3,MOT.AccX,MOT.AccY,MOT.AccZ,MOT.MagX,MOT.MagY,MOT.MagZ
1732157176.145976,1732157176.146878,125.000000,0.000000,4290.256348,4282.692383,4315.897461,4298.461426,4285.897461,4280.641113,4331.025879,4398.205078,4295.897461,4278.589844,4475.512695,4491.025879,4328.974121,4380.897461,1680.000000,1.000000,25.000000,,,,0.000000,2.000000,2.000000,0.000000,4.000000,2.000000,2.000000,0.000000,0.000000,4.000000,4.000000,4.000000,4.000000,4.000000,4.000000,0.000000,,,,,,,,,,,,,,,,,,,,,,,,,,,,
1732157176.153784,1732157176.154886,126.000000,0.000000,4297.563965,4282.820313,4315.000000,4302.179688,4279.487305,4280.256348,4328.846191,4397.948730,4293.461426,4276.666504,4468.333496,4493.333496,4328.846191,4384.871582,1528.000000,1.000000,25.000000,,,,0.000000,2.000000,2.000000,0.000000,4.000000,2.000000,2.000000,0.000000,0.000000,4.000000,4.000000,4.000000,4.000000,4.000000,4.000000,0.000000,,,,,,,,,,,,,,,,,,,,,,,,,,,,
1732157176.161593,1732157176.162694,127.000000,0.000000,4296.153809,4281.153809,4314.487305,4298.974121,4279.615234,4278.974121,4332.820313,4397.051270,4291.410156,4274.358887,4466.922852,4495.641113,4327.820313,4387.436035,25.000000,1.000000,25.000000,,,,0.000000,2.000000,2.000000,0.000000,4.000000,2.000000,2.000000,0.000000,0.000000,4.000000,4.000000,4.000000,4.000000,4.000000,4.000000,0.000000,,,,,,,,,,,,,,,,,,,,,,,,,,,,
1732157176.169401,1732157176.170602,0.000000,0.000000,4293.077148,4280.641113,4315.256348,4294.871582,4281.282227,4279.358887,4336.794922,4397.307617,4294.102539,4277.179688,4474.871582,4491.282227,4329.743652,4389.102539,0.000000,1.000000,25.000000,,,,0.000000,2.000000,2.000000,0.000000,4.000000,2.000000,2.000000,0.000000,0.000000,4.000000,4.000000,4.000000,4.000000,4.000000,4.000000,0.000000,,,,,,,,,,,,,,,,,0.000000,0.000000,0.515946,0.503845,-0.528015,0.448486,0.963985,0.057624,-0.058601,-34.658508,46.243240,31.310745
1732157176.177209,1732157176.178410,1.000000,0.000000,4291.153809,4280.128418,4316.666504,4295.641113,4281.025879,4279.743652,4332.820313,4399.230957,4293.974121,4279.615234,4476.410156,4491.538574,4335.256348,4390.384766,1588.000000,1.000000,25.000000,,,,0.000000,2.000000,2.000000,0.000000,4.000000,2.000000,2.000000,0.000000,0.000000,4.000000,4.000000,4.000000,4.000000,4.000000,4.000000,0.000000,,,,,,,,,,,,,,,,,,,,,,,,,,,,
1732157176.185017,1732157176.186418,2.000000,0.000000,4289.230957,4279.102539,4318.461426,4295.128418,4284.230957,4279.743652,4330.641113,4400.000000,4292.051270,4277.179688,4471.794922,4491.666504,4334.871582,4387.179688,1386.000000,1.000000,25.000000,,,,0.000000,2.000000,2.000000,0.000000,4.000000,2.000000,2.000000,0.000000,0.000000,4.000000,4.000000,4.000000,4.000000,4.000000,4.000000,0.000000,,,,,,,,,,,,,,,,,,,,,,,,,,,,
1732157176.192826,1732157176.194226,3.000000,0.000000,4288.846191,4279.358887,4320.256348,4293.589844,4278.974121,4280.897461,4336.153809,4397.948730,4291.666504,4277.692383,4476.153809,4490.769043,4332.563965,4386.025879,1409.000000,1.000000,25.000000,,,,0.000000,2.000000,2.000000,0.000000,4.000000,2.000000,2.000000,0.000000,0.000000,4.000000,4.000000,4.000000,4.000000,4.000000,4.000000,0.000000,,,,,,,,,,,,,,,,,,,,,,,,,,,,
1732157176.200634,1732157176.202134,4.000000,0.000000,4290.512695,4278.974121,4316.410156,4293.974121,4278.077148,4279.743652,4335.769043,4395.769043,4295.000000,4279.487305,4480.128418,4491.666504,4338.205078,4388.461426,1404.000000,1.000000,25.000000,,,,0.000000,2.000000,2.000000,0.000000,4.000000,2.000000,2.000000,0.000000,0.000000,4.000000,4.000000,4.000000,4.000000,4.000000,4.000000,0.000000,,,,,,,,,,,,,,,,,1.000000,0.000000,0.516142,0.503845,-0.527771,0.448547,0.963985,0.057624,-0.058601,-34.786724,46.450359,30.903370
1732157176.208442,1732157176.209943,5.000000,0.000000,4291.538574,4278.974121,4314.487305,4294.358887,4294.615234,4276.666504,4327.563965,4396.794922,4294.358887,4277.563965,4477.820313,4491.282227,4344.102539,4390.000000,1235.000000,1.000000,25.000000,,,,0.000000,2.000000,2.000000,0.000000,4.000000,2.000000,2.000000,0.000000,0.000000,4.000000,4.000000,4.000000,4.000000,4.000000,4.000000,0.000000,,,,,,,,,,,,,,,,,,,,,,,,,,,,
1732157176.216250,1732157176.217551,6.000000,0.000000,4292.307617,4281.025879,4317.563965,4293.846191,4292.051270,4277.692383,4327.436035,4399.487305,4297.307617,4282.179688,4484.230957,4498.077148,4343.589844,4391.538574,0.000000,1.000000,25.000000,,,,0.000000,2.000000,2.000000,0.000000,4.000000,2.000000,2.000000,0.000000,0.000000,4.000000,4.000000,4.000000,4.000000,4.000000,4.000000,0.000000,,,,,,,,,,,,,,,,,,,,,,,,,,,,
1732157176.224059,1732157176.225359,7.000000,0.000000,4293.077148,4282.563965,4314.615234,4294.743652,4264.615234,4280.641113,4334.358887,4399.230957,4310.384766,4289.743652,4488.205078,4507.692383,4343.461426,4395.641113,0.000000,1.000000,25.000000,,,,0.000000,2.000000,2.000000,0.000000,4.000000,2.000000,2.000000,0.000000,0.000000,4.000000,4.000000,4.000000,4.000000,4.000000,4.000000,0.000000,,,,,,,,,,,,,,,,,,,,,,,,,,,,
1732157176.231867,1732157176.233068,8.000000,0.000000,4292.307617,4281.410156,4312.051270,4295.897461,4261.282227,4281.025879,4332.436035,4398.205078,4309.102539,4284.871582,4476.922852,4502.820313,4342.820313,4396.282227,1526.000000,1.000000,25.000000,,,,0.000000,2.000000,2.000000,0.000000,4.000000,2.000000,2.000000,0.000000,0.000000,4.000000,4.000000,4.000000,4.000000,4.000000,4.000000,0.000000,,,,,,,,,,,,,,,,,2.000000,0.000000,0.517562,0.504211,-0.526184,0.448364,0.982053,0.081065,-0.053717,-34.613914,46.536457,30.868397
1732157176.239675,1732157176.240876,9.000000,0.000000,4290.000000,4281.282227,4314.230957,4296.025879,4280.512695,4280.897461,4325.769043,4398.205078,4293.717773,4277.051270,4469.230957,4492.179688,4341.666504,4386.538574,1668.000000,1.000000,25.000000,,,,0.000000,2.000000,2.000000,0.000000,4.000000,2.000000,2.000000,0.000000,0.000000,4.000000,4.000000,4.000000,4.000000,4.000000,4.000000,0.000000,,,,,,,,,,,,,,,,,,,,,,,,,,,,
1732157176.247483,1732157176.248484,10.000000,0.000000,4289.871582,4281.282227,4312.179688,4295.000000,4281.794922,4281.025879,4330.512695,4398.077148,4292.436035,4280.256348,4478.205078,4492.820313,4346.666504,4381.538574,1528.000000,1.000000,25.000000,,,,0.000000,2.000000,2.000000,0.000000,4.000000,2.000000,2.000000,0.000000,0.000000,4.000000,4.000000,4.000000,4.000000,4.000000,4.000000,0.000000,,,,,,,,,,,,,,,,,,,,,,,,,,,,
1732157176.255292,1732157176.256292,11.000000,0.000000,4291.282227,4281.538574,4310.769043,4295.769043,4274.743652,4279.871582,4334.230957,4399.230957,4295.000000,4280.512695,4482.692383,4493.461426,4351.025879,4391.025879,1571.000000,1.000000,25.000000,,,,0.000000,2.000000,2.000000,0.000000,4.000000,2.000000,2.000000,0.000000,0.000000,4.000000,4.000000,4.000000,4.000000,4.000000,4.000000,0.000000,,,,,,,,,,,,,,,,,,,,,,,,,,,,
1732157176.263100,1732157176.264001,12.000000,0.000000,4292.051270,4282.436035,4312.307617,4295.897461,4280.641113,4279.871582,4327.563965,4399.358887,4292.820313,4275.512695,4477.051270,4495.384766,4348.846191,4399.615234,1695.000000,1.000000,25.000000,,,,0.000000,2.000000,2.000000,0.000000,4.000000,2.000000,2.000000,0.000000,0.000000,4.000000,4.000000,4.000000,4.000000,4.000000,4.000000,0.000000,,,,,,,,,,,,,,,,,3.000000,0.000000,0.518193,0.504761,-0.525452,0.447876,0.979612,0.084971,-0.058601,-34.540604,46.672863,30.856733
1732157176.270908,1732157176.271809,13.000000,0.000000,4291.922852,4279.358887,4305.897461,4292.692383,4283.974121,4282.179688,4325.384766,4395.256348,4300.128418,4278.205078,4477.436035,4500.897461,4347.692383,4396.025879,1678.000000,1.000000,25.000000,,,,0.000000,2.000000,2.000000,0.000000,4.000000,2.000000,2.000000,0.000000,0.000000,4.000000,4.000000,4.000000,4.000000,4.000000,4.000000,0.000000,,,,,,,,,,,,,,,,,,,,,,,,,,,,
1732157176.278716,1732157176.279417,14.000000,0.000000,4292.307617,4283.333496,4297.820313,4295.512695,4278.974121,4282.692383,4325.769043,4393.077148,4303.589844,4280.256348,4478.974121,4497.436035,4345.128418,4394.230957,1528.000000,1.000000,25.000000,,,,0.000000,2.000000,2.000000,0.000000,4.000000,2.000000,2.000000,0.000000,0.000000,4.000000,4.000000,4.000000,4.000000,4.000000,4.000000,0.000000,1.000000,0.000000,2.000000,2.000000,0.000000,4.000000,2.000000,2.000000,0.000000,0.000000,4.000000,4.000000,4.000000,4.000000,4.000000,4.000000,,,,,,,,,,,,
1732157176.286525,1732157176.287226,15.000000,0.000000,4294.102539,4292.051270,4296.025879,4301.410156,4285.897461,4278.974121,4322.692383,4392.820313,4293.717773,4275.897461,4475.897461,4489.743652,4342.820313,4393.589844,1571.000000,1.000000,25.000000,,,,0.000000,2.000000,2.000000,0.000000,4.000000,2.000000,2.000000,0.000000,0.000000,4.000000,4.000000,4.000000,4.000000,4.000000,4.000000,0.000000,,,,,,,,,,,,,,,,,,,,,,,,,,,,
1732157176.294333,1732157176.294934,16.000000,0.000000,4296.153809,4288.974121,4295.512695,4299.871582,4301.794922,4277.307617,4320.512695,4390.128418,4291.922852,4274.743652,4473.461426,4490.512695,4343.589844,4386.025879,0.000000,1.000000,25.000000,,,,0.000000,2.000000,2.000000,0.000000,4.000000,2.000000,2.000000,0.000000,0.000000,4.000000,4.000000,4.000000,4.000000,4.000000,4.000000,0.000000,,,,,,,,,,,,,,,,,4.000000,0.000000,0.518407,0.505066,-0.525208,0.447571,0.984007,0.083995,-0.058113,-34.659557,46.925018,31.105621
1732157176.302141,1732157176.302742,17.000000,0.000000,4295.769043,4283.974121,4291.282227,4298.461426,4290.000000,4281.666504,4320.000000,4388.846191,4302.051270,4278.205078,4476.538574,4494.358887,4342.307617,4385.512695,0.000000,1.000000,25.000000,,,,0.000000,2.000000,2.000000,0.000000,4.000000,2.000000,2.000000,0.000000,0.000000,4.000000,4.000000,4.000000,4.000000,4.000000,4.000000,0.000000,,,,,,,,,,,,,,,,,,,,,,,,,,,,
1732157176.309949,1732157176.310350,18.000000,0.000000,4294.743652,4289.102539,4286.666504,4302.948730,4263.974121,4283.333496,4319.230957,4388.717773,4308.205078,4280.384766,4480.512695,4493.717773,4345.256348,4391.153809,0.000000,1.000000,25.000000,,,,0.000000,2.000000,2.000000,0.000000,4.000000,2.000000,2.000000,0.000000,0.000000,4.000000,4.000000,4.000000,4.000000,4.000000,4.000000,0.000000,,,,,,,,,,,,,,,,,,,,,,,,,,,,
1732157176.317757,1732157176.318159,19.000000,0.000000,4296.666504,4294.743652,4282.051270,4305.769043,4268.846191,4280.897461,4320.000000,4387.692383,4304.871582,4278.461426,4475.512695,4492.820313,4352.051270,4391.025879,0.000000,1.000000,25.000000,,,,0.000000,2.000000,2.000000,0.000000,4.000000,2.000000,2.000000,0.000000,0.000000,4.000000,4.000000,4.000000,4.000000,4.000000,4.000000,0.000000,,,,,,,,,,,,,,,,,,,,,,,,,,,,
1732157176.325566,1732157176.325867,20.000000,0.000000,4296.666504,4292.051270,4280.000000,4304.487305,4283.461426,4281.282227,4318.077148,4389.358887,4303.846191,4279.743652,4473.846191,4492.820313,4346.538574,4386.922852,0.000000,1.000000,25.000000,,,,0.000000,2.000000,2.000000,0.000000,4.000000,2.000000,2.000000,0.000000,0.000000,4.000000,4.000000,4.000000,4.000000,4.000000,4.000000,0.000000,,,,,,,,,,,,,,,,,5.000000,0.000000,0.517621,0.505554,-0.525513,0.447571,0.972287,0.060554,-0.065438,-34.629242,46.685932,31.053886
1732157176.333374,1732157176.333675,21.000000,0.000000,4293.974121,4290.000000,4277.692383,4305.512695,4281.410156,4282.436035,4312.307617,4387.948730,4310.897461,4286.153809,4485.641113,4493.333496,4341.666504,4387.179688,0.000000,1.000000,25.000000,,,,0.000000,2.000000,2.000000,0.000000,4.000000,2.000000,2.000000,0.000000,0.000000,4.000000,4.000000,4.000000,4.000000,4.000000,4.000000,0.000000,,,,,,,,,,,,,,,,,,,,,,,,,,,,
1732157176.341182,1732157176.341284,22.000000,0.000000,4295.897461,4291.666504,4275.256348,4306.794922,4279.230957,4280.128418,4313.205078,4383.461426,4307.563965,4285.897461,4489.230957,4492.563965,4349.871582,4392.179688,0.000000,1.000000,25.000000,,,,0.000000,2.000000,2.000000,0.000000,4.000000,2.000000,2.000000,0.000000,0.000000,4.000000,4.000000,4.000000,4.000000,4.000000,4.000000,0.000000,,,,,,,,,,,,,,,,,,,,,,,,,,,,
1732157176.348991,1732157176.349092,23.000000,0.000000,4299.230957,4296.410156,4276.666504,4309.743652,4279.487305,4279.358887,4313.846191,4383.461426,4294.487305,4277.820313,4476.282227,4490.641113,4348.717773,4396.282227,0.000000,1.000000,25.000000,,,,0.000000,2.000000,2.000000,0.000000,4.000000,2.000000,2.000000,0.000000,0.000000,4.000000,4.000000,4.000000,4.000000,4.000000,4.000000,0.000000,,,,,,,,,,,,,,,,,,,,,,,,,,,,
1732157176.356799,1732157176.356800,24.000000,0.000000,4297.820313,4295.897461,4278.461426,4308.846191,4287.948730,4281.794922,4311.538574,4385.128418,4292.179688,4276.153809,4471.538574,4491.922852,4340.128418,4395.769043,0.000000,1.000000,25.000000,,,,0.000000,2.000000,2.000000,0.000000,4.000000,2.000000,2.000000,0.000000,0.000000,4.000000,4.000000,4.000000,4.000000,4.000000,4.000000,0.000000,,,,,,,,,,,,,,,,,6.000000,0.000000,0.514820,0.503601,-0.528931,0.448975,0.948846,0.003907,-0.060066,-34.608017,46.635605,30.906982
1732157176.364607,1732157176.364608,25.000000,0.000000,4295.897461,4287.307617,4281.025879,4301.922852,4299.487305,4281.153809,4314.230957,4386.282227,4295.256348,4279.487305,4480.128418,4492.820313,4345.769043,4395.384766,0.000000,1.000000,25.000000,,,,0.000000,2.000000,2.000000,0.000000,4.000000,2.000000,2.000000,0.000000,0.000000,4.000000,4.000000,4.000000,4.000000,4.000000,4.000000,0.000000,,,,,,,,,,,,,,,,,,,,,,,,,,,,
1732157176.372415,1732157176.372616,26.000000,0.000000,4296.794922,4287.436035,4287.820313,4302.307617,4284.487305,4280.000000,4318.333496,4388.077148,4294.871582,4279.871582,4480.000000,4492.820313,4350.000000,4397.820313,0.000000,1.000000,25.000000,,,,0.000000,2.000000,2.000000,0.000000,4.000000,2.000000,2.000000,0.000000,0.000000,4.000000,4.000000,4.000000,4.000000,4.000000,4.000000,0.000000,,,,,,,,,,,,,,,,,,,,,,,,,,,,
1732157176.380223,1732157176.380425,27.000000,0.000000,4296.922852,4291.025879,4296.025879,4304.487305,4261.794922,4281.153809,4320.641113,4386.666504,4297.820313,4282.307617,4471.282227,4493.846191,4342.307617,4398.205078,0.000000,1.000000,25.000000,,,,0.000000,2.000000,2.000000,0.000000,4.000000,2.000000,2.000000,0.000000,0.000000,4.000000,4.000000,4.000000,4.000000,4.000000,4.000000,0.000000,,,,,,,,,,,,,,,,,,,,,,,,,,,,
1732157176.388032,1732157176.388333,28.000000,0.000000,4296.153809,4285.641113,4303.333496,4299.102539,4263.205078,4280.897461,4325.512695,4388.717773,4297.436035,4282.051270,4473.846191,4492.820313,4340.256348,4397.436035,0.000000,1.000000,25.000000,,,,0.000000,2.000000,2.000000,0.000000,4.000000,2.000000,2.000000,0.000000,0.000000,4.000000,4.000000,4.000000,4.000000,4.000000,4.000000,0.000000,,,,,,,,,,,,,,,,,7.000000,0.000000,0.514130,0.501465,-0.531006,0.449707,0.968380,0.006837,-0.067879,-34.784161,46.659840,31.126322
1732157176.395840,1732157176.396141,29.000000,0.000000,4296.794922,4280.512695,4304.487305,4294.102539,4270.256348,4278.846191,4329.487305,4395.512695,4297.563965,4281.666504,4486.282227,4491.794922,4343.974121,4397.051270,0.000000,1.000000,25.000000,,,,0.000000,2.000000,2.000000,0.000000,4.000000,2.000000,2.000000,0.000000,0.000000,4.000000,4.000000,4.000000,4.000000,4.000000,4.000000,0.000000,,,,,,,,,,,,,,,,,,,,,,,,,,,,
1732157176.403648,1732157176.404149,30.000000,0.000000,4297.563965,4280.769043,4302.563965,4294.358887,4269.230957,4278.077148,4328.205078,4394.871582,4306.282227,4289.102539,4488.589844,4493.461426,4343.205078,4396.538574,0.000000,1.000000,25.000000,,,,0.000000,2.000000,2.000000,0.000000,4.000000,2.000000,2.000000,0.000000,0.000000,4.000000,4.000000,4.000000,4.000000,4.000000,4.000000,0.000000,,,,,,,,,,,,,,,,,,,,,,,,,,,,
1732157176.411456,1732157176.411957,31.000000,0.000000,4297.307617,4281.025879,4305.000000,4293.589844,4272.820313,4277.820313,4325.897461,4392.563965,4308.205078,4291.025879,4479.358887,4493.717773,4342.563965,4397.436035,0.000000,1.000000,25.000000,,,,0.000000,2.000000,2.000000,0.000000,4.000000,2.000000,2.000000,0.000000,0.000000,4.000000,4.000000,4.000000,4.000000,4.000000,4.000000,0.000000,,,,,,,,,,,,,,,,,,,,,,,,,,,,
1732157176.419265,1732157176.419865,32.000000,0.000000,4296.410156,4285.384766,4309.102539,4293.974121,4277.820313,4277.307617,4326.922852,4396.666504,4298.589844,4284.102539,4475.384766,4492.179688,4343.974121,4398.333496,0.000000,1.000000,25.000000,,,,0.000000,2.000000,2.000000,0.000000,4.000000,2.000000,2.000000,0.000000,0.000000,4.000000,4.000000,4.000000,4.000000,4.000000,4.000000,0.000000,,,,,,,,,,,,,,,,,8.000000,0.000000,0.514245,0.500061,-0.532166,0.449768,0.969357,0.006348,-0.064461,-34.971836,46.649471,31.333988
1732157176.427073,1732157176.427673,33.000000,0.000000,4296.025879,4289.871582,4310.641113,4296.153809,4278.846191,4277.179688,4326.410156,4398.077148,4294.615234,4278.974121,4475.769043,4495.512695,4343.077148,4397.692383,0.000000,1.000000,25.000000,,,,0.000000,2.000000,2.000000,0.000000,4.000000,2.000000,2.000000,0.000000,0.000000,4.000000,4.000000,4.000000,4.000000,4.000000,4.000000,0.000000,,,,,,,,,,,,,,,,,,,,,,,,,,,,
1732157176.434881,1732157176.435282,34.000000,0.000000,4298.974121,4285.128418,4312.563965,4295.897461,4280.000000,4278.205078,4327.307617,4394.871582,4300.384766,4281.922852,4476.410156,4497.436035,4342.563965,4399.358887,0.000000,1.000000,25.000000,,,,0.000000,2.000000,2.000000,0.000000,4.000000,2.000000,2.000000,0.000000,0.000000,4.000000,4.000000,4.000000,4.000000,4.000000,4.000000,0.000000,,,,,,,,,,,,,,,,,,,,,,,,,,,,
1732157176.442690,1732157176.443090,35.000000,0.000000,4300.512695,4281.153809,4318.589844,4296.538574,4278.077148,4282.307617,4332.179688,4394.102539,4302.563965,4287.179688,4475.641113,4499.871582,4343.974121,4405.897461,0.000000,1.000000,25.000000,,,,0.000000,2.000000,2.000000,0.000000,4.000000,2.000000,2.000000,0.000000,0.000000,4.000000,4.000000,4.000000,4.000000,4.000000,4.000000,0.000000,,,,,,,,,,,,,,,,,,,,,,,,,,,,
1732157176.450498,1732157176.450998,36.000000,0.000000,4298.717773,4281.794922,4322.436035,4294.487305,4283.974121,4283.589844,4335.000000,4397.179688,4297.692383,4285.641113,4473.461426,4501.410156,4343.717773,4406.538574,0.000000,1.000000,25.000000,,,,0.000000,2.000000,2.000000,0.000000,4.000000,2.000000,2.000000,0.000000,0.000000,4.000000,4.000000,4.000000,4.000000,4.000000,4.000000,0.000000,,,,,,,,,,,,,,,,,9.000000,0.000000,0.515353,0.496765,-0.534485,0.449402,0.979123,0.034184,-0.064461,-35.112186,46.562737,31.088863
1732157176.458306,1732157176.458806,37.000000,0.000000,4296.153809,4280.641113,4321.538574,4292.436035,4289.615234,4277.948730,4334.102539,4398.974121,4293.333496,4278.974121,4481.025879,4496.922852,4343.077148,4401.410156,0.000000,1.000000,25.000000,,,,0.000000,2.000000,2.000000,0.000000,4.000000,2.000000,2.000000,0.000000,0.000000,4.000000,4.000000,4.000000,4.000000,4.000000,4.000000,0.000000,,,,,,,,,,,,,,,,,,,,,,,,,,,,
1732157176.466114,1732157176.466814,38.000000,0.000000,4295.769043,4279.615234,4320.000000,4293.077148,4276.538574,4277.820313,4334.487305,4398.717773,4294.743652,4278.846191,4492.179688,4497.692383,4342.948730,4401.282227,0.000000,1.000000,25.000000,,,,0.000000,2.000000,2.000000,0.000000,4.000000,2.000000,2.000000,0.000000,0.000000,4.000000,4.000000,4.000000,4.000000,4.000000,4.000000,0.000000,,,,,,,,,,,,,,,,,,,,,,,,,,,,
1732157176.473922,1732157176.474623,39.000000,0.000000,4295.512695,4282.179688,4322.820313,4293.461426,4260.256348,4281.666504,4337.307617,4398.717773,4298.205078,4282.051270,4486.153809,4508.461426,4342.307617,4401.410156,0.000000,1.000000,25.000000,,,,0.000000,2.000000,2.000000,0.000000,4.000000,2.000000,2.000000,0.000000,0.000000,4.000000,4.000000,4.000000,4.000000,4.000000,4.000000,0.000000,,,,,,,,,,,,,,,,,,,,,,,,,,,,
1732157176.481731,1732157176.482531,40.000000,0.000000,4296.025879,4283.077148,4326.153809,4295.512695,4264.743652,4279.743652,4336.410156,4398.461426,4298.461426,4279.615234,4474.102539,4505.384766,4342.307617,4398.077148,0.000000,1.000000,25.000000,,,,0.000000,2.000000,2.000000,0.000000,4.000000,2.000000,2.000000,0.000000,0.000000,4.000000,4.000000,4.000000,4.000000,4.000000,4.000000,0.000000,,,,,,,,,,,,,,,,,10.000000,0.000000,0.515959,0.496094,-0.534729,0.449158,1.003052,0.057624,-0.064949,-34.972538,46.482483,31.185312
1732157176.489539,1732157176.490339,41.000000,0.000000,4296.666504,4282.563965,4325.128418,4297.563965,4275.769043,4276.922852,4335.384766,4397.692383,4295.769043,4277.179688,4473.589844,4491.922852,4341.538574,4396.794922,0.000000,1.000000,25.000000,,,,0.000000,2.000000,2.000000,0.000000,4.000000,2.000000,2.000000,0.000000,0.000000,4.000000,4.000000,4.000000,4.000000,4.000000,4.000000,0.000000,,,,,,,,,,,,,,,,,,,,,,,,,,,,
1732157176.497347,1732157176.498347,42.000000,0.000000,4295.769043,4283.461426,4327.563965,4295.641113,4273.077148,4278.846191,4336.922852,4399.615234,4295.641113,4277.051270,4474.615234,4496.410156,4341.538574,4398.846191,0.000000,1.000000,25.000000,,,,0.000000,2.000000,2.000000,0.000000,4.000000,2.000000,2.000000,0.000000,0.000000,4.000000,4.000000,4.000000,4.000000,4.000000,4.000000,0.000000,,,,,,,,,,,,,,,,,,,,,,,,,,,,
1732157176.505155,1732157176.506155,43.000000,0.000000,4295.641113,4283.974121,4330.512695,4296.282227,4272.051270,4279.102539,4336.025879,4401.282227,4307.051270,4279.230957,4470.512695,4503.589844,4341.666504,4398.333496,0.000000,1.000000,25.000000,,,,0.000000,2.000000,2.000000,0.000000,4.000000,2.000000,2.000000,0.000000,0.000000,4.000000,4.000000,4.000000,4.000000,4.000000,4.000000,0.000000,,,,,,,,,,,,,,,,,,,,,,,,,,,,
1732157176.512964,1732157176.514063,44.000000,0.000000,4295.256348,4283.205078,4330.000000,4299.487305,4279.743652,4277.307617,4333.461426,4401.282227,4312.436035,4277.307617,4471.025879,4493.461426,4337.436035,4396.025879,0.000000,1.000000,25.000000,,,,0.000000,2.000000,2.000000,0.000000,4.000000,2.000000,2.000000,0.000000,0.000000,4.000000,4.000000,4.000000,4.000000,4.000000,4.000000,0.000000,,,,,,,,,,,,,,,,,11.000000,0.000000,0.516183,0.495850,-0.534790,0.449097,0.991332,0.051764,-0.048834,-35.009422,46.707478,31.466770
1732157176.520772,1732157176.521871,45.000000,0.000000,4295.000000,4284.487305,4329.358887,4298.077148,4282.820313,4278.077148,4333.589844,4402.820313,4300.512695,4267.692383,4476.666504,4488.974121,4336.666504,4396.282227,0.000000,1.000000,25.000000,,,,0.000000,2.000000,2.000000,0.000000,4.000000,2.000000,2.000000,0.000000,0.000000,4.000000,4.000000,4.000000,4.000000,4.000000,4.000000,0.000000,,,,,,,,,,,,,,,,,,,,,,,,,,,,
1732157176.528580,1732157176.529879,46.000000,0.000000,4298.077148,4289.230957,4329.487305,4297.307617,4276.922852,4281.538574,4335.641113,4404.230957,4291.538574,4262.820313,4474.743652,4503.974121,4341.410156,4398.333496,0.000000,1.000000,25.000000,,,,0.000000,2.000000,2.000000,0.000000,4.000000,2.000000,2.000000,0.000000,0.000000,4.000000,4.000000,4.000000,4.000000,4.000000,4.000000,0.000000,,,,,,,,,,,,,,,,,,,,,,,,,,,,
1732157176.536388,1732157176.537688,47.000000,0.000000,4297.179688,4287.436035,4328.589844,4298.461426,4279.102539,4282.692383,4335.128418,4404.102539,4293.974121,4258.846191,4466.922852,4507.179688,4337.692383,4397.948730,0.000000,1.000000,25.000000,,,,0.000000,2.000000,2.000000,0.000000,4.000000,2.000000,2.000000,0.000000,0.000000,4.000000,4.000000,4.000000,4.000000,4.000000,4.000000,0.000000,,,,,,,,,,,,,,,,,,,,,,,,,,,,
1732157176.544197,1732157176.545596,48.000000,0.000000,4295.384766,4282.179688,4327.948730,4295.641113,4290.128418,4277.436035,4334.615234,4404.230957,4291.282227,4248.589844,4468.077148,4491.922852,4331.922852,4395.897461,0.000000,1.000000,25.000000,,,,0.000000,2.000000,2.000000,0.000000,4.000000,2.000000,2.000000,0.000000,0.000000,4.000000,4.000000,4.000000,4.000000,4.000000,4.000000,0.000000,,,,,,,,,,,,,,,,,12.000000,0.000000,0.515938,0.495728,-0.534729,0.449585,0.974240,0.050299,-0.064461,-35.214298,46.536392,31.286417
1732157176.552005,1732157176.553404,49.000000,0.000000,4301.794922,4281.922852,4328.461426,4293.974121,4280.000000,4274.871582,4334.743652,4402.692383,4289.358887,4251.538574,4476.538574,4493.205078,4337.563965,4398.461426,0.000000,1.000000,25.000000,,,,0.000000,2.000000,2.000000,0.000000,4.000000,2.000000,2.000000,0.000000,0.000000,4.000000,4.000000,4.000000,4.000000,4.000000,4.000000,0.000000,,,,,,,,,,,,,,,,,,,,,,,,,,,,
1732157176.559813,1732157176.561412,50.000000,0.000000,4305.512695,4281.538574,4335.000000,4295.256348,4259.871582,4279.102539,4334.487305,4402.307617,4295.641113,4265.512695,4478.589844,4507.051270,4340.769043,4400.000000,0.000000,1.000000,25.000000,,,,0.000000,2.000000,2.000000,0.000000,4.000000,2.000000,2.000000,0.000000,0.000000,4.000000,4.000000,4.000000,4.000000,4.000000,4.000000,0.000000,,,,,,,,,,,,,,,,,,,,,,,,,,,,
1732157176.567621,1732157176.569220,51.000000,0.000000,4298.461426,4279.615234,4341.025879,4295.897461,4258.333496,4279.615234,4337.820313,4402.820313,4297.948730,4263.333496,4473.077148,4509.615234,4335.897461,4398.461426,0.000000,1.000000,25.000000,,,,0.000000,2.000000,2.000000,0.000000,4.000000,2.000000,2.000000,0.000000,0.000000,4.000000,4.000000,4.000000,4.000000,4.000000,4.000000,0.000000,,,,,,,,,,,,,,,,,,,,,,,,,,,,
1732157176.575430,1732157176.576928,52.000000,0.000000,4295.512695,4281.794922,4336.666504,4296.410156,4269.102539,4277.179688,4339.487305,4401.794922,4300.384766,4256.282227,4471.794922,4501.025879,4332.051270,4398.717773,0.000000,1.000000,25.000000,,,,0.000000,2.000000,2.000000,0.000000,4.000000,2.000000,2.000000,0.000000,0.000000,4.000000,4.000000,4.000000,4.000000,4.000000,4.000000,0.000000,,,,,,,,,,,,,,,,,13.000000,0.000000,0.514383,0.495117,-0.535095,0.451599,0.967403,0.001953,-0.056159,-35.230247,46.364475,31.190331
1732157176.583238,1732157176.584737,53.000000,0.000000,4295.128418,4283.333496,4331.794922,4296.410156,4273.974121,4279.871582,4335.384766,4400.128418,4304.230957,4260.000000,4471.666504,4495.128418,4329.743652,4393.589844,0.000000,1.000000,25.000000,,,,0.000000,2.000000,2.000000,0.000000,4.000000,2.000000,2.000000,0.000000,0.000000,4.000000,4.000000,4.000000,4.000000,4.000000,4.000000,0.000000,,,,,,,,,,,,,,,,,,,,,,,,,,,,
1732157176.591046,1732157176.592345,54.000000,0.000000,4285.128418,4278.589844,4332.307617,4293.846191,4276.025879,4282.820313,4333.717773,4401.794922,4299.871582,4258.846191,4465.897461,4491.025879,4329.358887,4382.820313,0.000000,1.000000,25.000000,,,,0.000000,2.000000,2.000000,0.000000,4.000000,2.000000,2.000000,0.000000,0.000000,4.000000,4.000000,4.000000,4.000000,4.000000,4.000000,0.000000,,,,,,,,,,,,,,,,,,,,,,,,,,,,
1732157176.598854,1732157176.600153,55.000000,0.000000,4279.358887,4275.769043,4330.769043,4292.820313,4278.974121,4281.282227,4335.000000,4402.948730,4290.769043,4249.230957,4460.000000,4488.846191,4322.436035,4376.922852,0.000000,1.000000,25.000000,,,,0.000000,2.000000,2.000000,0.000000,4.000000,2.000000,2.000000,0.000000,0.000000,4.000000,4.000000,4.000000,4.000000,4.000000,4.000000,0.000000,,,,,,,,,,,,,,,,,,,,,,,,,,,,
1732157176.606663,1732157176.607862,56.000000,0.000000,4285.128418,4278.461426,4328.205078,4294.871582,4280.641113,4281.794922,4334.102539,4401.922852,4294.102539,4248.974121,4457.051270,4491.153809,4313.974121,4378.974121,0.000000,1.000000,25.000000,,,,0.000000,2.000000,2.000000,0.000000,4.000000,2.000000,2.000000,0.000000,0.000000,4.000000,4.000000,4.000000,4.000000,4.000000,4.000000,0.000000,,,,,,,,,,,,,,,,,14.000000,0.000000,0.513833,0.494019,-0.536072,0.452271,0.976193,0.003907,-0.066903,-35.206501,46.238560,31.184168
1732157176.614471,1732157176.615670,57.000000,0.000000,4292.948730,4281.794922,4326.922852,4296.922852,4283.077148,4282.436035,4333.333496,4401.282227,4305.897461,4261.025879,4461.794922,4492.692383,4319.358887,4384.743652,0.000000,1.000000,25.000000,,,,0.000000,2.000000,2.000000,0.000000,4.000000,2.000000,2.000000,0.000000,0.000000,4.000000,4.000000,4.000000,4.000000,4.000000,4.000000,0.000000,,,,,,,,,,,,,,,,,,,,,,,,,,,,
1732157176.622279,1732157176.623278,58.000000,0.000000,4292.948730,4282.436035,4326.538574,4297.948730,4281.410156,4280.128418,4335.128418,4401.410156,4304.743652,4266.922852,4470.897461,4490.000000,4329.615234,4389.102539,0.000000,1.000000,25.000000,,,,0.000000,2.000000,2.000000,0.000000,4.000000,2.000000,2.000000,0.000000,0.000000,4.000000,4.000000,4.000000,4.000000,4.000000,4.000000,0.000000,,,,,,,,,,,,,,,,,,,,,,,,,,,,
1732157176.630087,1732157176.631086,59.000000,0.000000,4285.641113,4282.051270,4324.871582,4297.307617,4279.487305,4278.589844,4335.000000,4402.179688,4292.948730,4261.538574,4473.974121,4488.077148,4330.256348,4391.282227,0.000000,1.000000,25.000000,,,,0.000000,2.000000,2.000000,0.000000,4.000000,2.000000,2.000000,0.000000,0.000000,4.000000,4.000000,4.000000,4.000000,4.000000,4.000000,0.000000,,,,,,,,,,,,,,,,,,,,,,,,,,,,
1732157176.637895,1732157176.638895,60.000000,0.000000,4284.358887,4283.205078,4319.871582,4295.641113,4279.102539,4278.333496,4334.615234,4401.410156,4289.871582,4260.128418,4472.948730,4492.436035,4328.717773,4395.769043,0.000000,1.000000,25.000000,,,,0.000000,2.000000,2.000000,0.000000,4.000000,2.000000,2.000000,0.000000,0.000000,4.000000,4.000000,4.000000,4.000000,4.000000,4.000000,0.000000,,,,,,,,,,,,,,,,,15.000000,0.000000,0.513881,0.493591,-0.536316,0.452393,0.976193,0.003907,-0.066903,-35.135601,46.288235,31.022509
1732157176.645704,1732157176.646703,61.000000,0.000000,4288.589844,4282.436035,4321.282227,4295.384766,4277.692383,4278.077148,4335.000000,4401.282227,4295.897461,4266.153809,4473.077148,4493.717773,4328.589844,4397.307617,0.000000,1.000000,25.000000,,,,0.000000,2.000000,2.000000,0.000000,4.000000,2.000000,2.000000,0.000000,0.000000,4.000000,4.000000,4.000000,4.000000,4.000000,4.000000,0.000000,,,,,,,,,,,,,,,,,,,,,,,,,,,,
1732157176.653512,1732157176.654311,62.000000,0.000000,4287.692383,4280.000000,4326.282227,4294.487305,4275.641113,4277.948730,4334.871582,4402.436035,4295.641113,4267.820313,4470.641113,4490.000000,4326.025879,4391.410156,0.000000,1.000000,25.000000,,,,0.000000,2.000000,2.000000,0.000000,4.000000,2.000000,2.000000,0.000000,0.000000,4.000000,4.000000,4.000000,4.000000,4.000000,4.000000,0.000000,,,,,,,,,,,,,,,,,,,,,,,,,,,,
1732157176.661320,1732157176.662119,63.000000,0.000000,4287.051270,4278.589844,4325.256348,4292.563965,4274.871582,4279.615234,4334.871582,4403.333496,4294.230957,4265.641113,4467.820313,4495.384766,4324.487305,4391.153809,0.000000,1.000000,25.000000,,,,0.000000,2.000000,2.000000,0.000000,4.000000,2.000000,2.000000,0.000000,0.000000,4.000000,4.000000,4.000000,4.000000,4.000000,4.000000,0.000000,,,,,,,,,,,,,,,,,,,,,,,,,,,,
1732157176.669129,1732157176.669828,64.000000,0.000000,4294.487305,4278.846191,4323.846191,4293.205078,4277.307617,4280.897461,4334.871582,4403.974121,4297.563965,4269.743652,4469.102539,4505.897461,4325.128418,4398.077148,0.000000,1.000000,25.000000,,,,0.000000,2.000000,2.000000,0.000000,4.000000,2.000000,2.000000,0.000000,0.000000,4.000000,4.000000,4.000000,4.000000,4.000000,4.000000,0.000000,,,,,,,,,,,,,,,,,16.000000,0.000000,0.513763,0.491577,-0.537659,0.453125,0.990355,0.026370,-0.072763,-35.036503,46.236801,31.111567
1732157176.676937,1732157176.677636,65.000000,0.000000,4298.974121,4279.102539,4326.025879,4295.641113,4273.461426,4280.641113,4334.871582,4402.692383,4298.205078,4270.384766,4469.615234,4508.461426,4328.846191,4398.974121,1594.000000,1.000000,25.000000,,,,0.000000,2.000000,2.000000,0.000000,4.000000,2.000000,2.000000,0.000000,0.000000,4.000000,4.000000,4.000000,4.000000,4.000000,4.000000,0.000000,,,,,,,,,,,,,,,,,,,,,,,,,,,,
1732157176.684745,1732157176.685244,66.000000,0.000000,4296.538574,4279.743652,4324.358887,4295.000000,4265.256348,4279.487305,4334.358887,4401.025879,4298.589844,4270.512695,4473.333496,4506.025879,4335.384766,4403.333496,1386.000000,1.000000,25.000000,,,,0.000000,2.000000,2.000000,0.000000,4.000000,2.000000,2.000000,0.000000,0.000000,4.000000,4.000000,4.000000,4.000000,4.000000,4.000000,0.000000,,,,,,,,,,,,,,,,,,,,,,,,,,,,
1732157176.692553,1732157176.693053,67.000000,0.000000,4296.922852,4280.512695,4322.051270,4291.153809,4262.051270,4275.641113,4333.589844,4400.769043,4299.102539,4275.769043,4478.333496,4505.897461,4337.692383,4410.641113,1409.000000,1.000000,25.000000,,,,0.000000,2.000000,2.000000,0.000000,4.000000,2.000000,2.000000,0.000000,0.000000,4.000000,4.000000,4.000000,4.000000,4.000000,4.000000,0.000000,,,,,,,,,,,,,,,,,,,,,,,,,,,,
1732157176.700362,1732157176.700761,68.000000,0.000000,4299.230957,4278.974121,4333.846191,4290.897461,4262.692383,4275.641113,4336.666504,4401.666504,4295.256348,4272.820313,4473.589844,4505.128418,4333.846191,4406.794922,1399.000000,1.000000,25.000000,,,,0.000000,2.000000,2.000000,0.000000,4.000000,2.000000,2.000000,0.000000,0.000000,4.000000,4.000000,4.000000,4.000000,4.000000,4.000000,0.000000,,,,,,,,,,,,,,,,,17.000000,0.000000,0.513218,0.490845,-0.538025,0.454102,0.967403,0.007813,-0.073739,-35.009567,46.170143,31.092035
1732157176.708170,1732157176.708569,69.000000,0.000000,4301.538574,4279.487305,4330.256348,4291.025879,4265.641113,4277.563965,4335.000000,4399.358887,4294.358887,4271.538574,4471.666504,4505.384766,4333.461426,4405.128418,1235.000000,1.000000,25.000000,,,,0.000000,2.000000,2.000000,0.000000,4.000000,2.000000,2.000000,0.000000,0.000000,4.000000,4.000000,4.000000,4.000000,4.000000,4.000000,0.000000,,,,,,,,,,,,,,,,,,,,,,,,,,,,
1732157176.715978,1732157176.716577,70.000000,0.000000,4305.512695,4281.538574,4320.256348,4285.384766,4260.897461,4271.922852,4331.666504,4400.641113,4299.871582,4280.128418,4477.948730,4510.769043,4339.871582,4411.538574,0.000000,1.000000,25.000000,,,,0.000000,2.000000,2.000000,0.000000,4.000000,2.000000,2.000000,0.000000,0.000000,4.000000,4.000000,4.000000,4.000000,4.000000,4.000000,0.000000,,,,,,,,,,,,,,,,,,,,,,,,,,,,
1732157176.723786,1732157176.724385,71.000000,0.000000,4308.461426,4274.487305,4366.025879,4278.974121,4245.256348,4264.230957,4345.128418,4413.205078,4297.436035,4275.128418,4479.487305,4517.307617,4341.666504,4413.333496,0.000000,1.000000,25.000000,,,,0.000000,2.000000,2.000000,0.000000,4.000000,2.000000,2.000000,0.000000,0.000000,4.000000,4.000000,4.000000,4.000000,4.000000,4.000000,0.000000,,,,,,,,,,,,,,,,,,,,,,,,,,,,
1732157176.731594,1732157176.732094,72.000000,0.000000,4309.615234,4269.230957,4401.922852,4277.948730,4250.512695,4263.974121,4355.897461,4420.128418,4289.743652,4260.512695,4474.230957,4516.794922,4341.282227,4417.820313,1528.000000,1.000000,25.000000,,,,0.000000,2.000000,2.000000,0.000000,4.000000,2.000000,2.000000,0.000000,0.000000,4.000000,4.000000,4.000000,4.000000,4.000000,4.000000,0.000000,,,,,,,,,,,,,,,,,18.000000,0.000000,0.513009,0.490601,-0.538086,0.454529,0.980100,0.036626,-0.061531,-34.957748,46.226151,30.949549
1732157176.739403,1732157176.739902,73.000000,0.000000,4314.871582,4277.051270,4346.538574,4283.717773,4268.846191,4266.410156,4341.025879,4410.641113,4292.692383,4266.666504,4472.563965,4514.487305,4349.615234,4427.307617,1678.000000,1.000000,25.000000,,,,0.000000,2.000000,2.000000,0.000000,4.000000,2.000000,2.000000,0.000000,0.000000,4.000000,4.000000,4.000000,4.000000,4.000000,4.000000,0.000000,,,,,,,,,,,,,,,,,,,,,,,,,,,,
1732157176.747211,1732157176.747910,74.000000,0.000000,4321.666504,4284.102539,4296.410156,4291.410156,4257.051270,4266.410156,4326.153809,4400.000000,4298.205078,4279.358887,4480.384766,4512.179688,4357.307617,4428.974121,1524.000000,1.000000,25.000000,,,,0.000000,2.000000,2.000000,0.000000,4.000000,2.000000,2.000000,0.000000,0.000000,4.000000,4.000000,4.000000,4.000000,4.000000,4.000000,0.000000,,,,,,,,,,,,,,,,,,,,,,,,,,,,
1732157176.755019,1732157176.755718,75.000000,0.000000,4325.128418,4282.692383,4317.179688,4294.230957,4238.589844,4266.153809,4327.307617,4398.846191,4295.128418,4277.948730,4488.974121,4512.563965,4360.769043,4431.153809,1571.000000,1.000000,25.000000,,,,0.000000,2.000000,2.000000,0.000000,4.000000,2.000000,2.000000,0.000000,0.000000,4.000000,4.000000,4.000000,4.000000,4.000000,4.000000,0.000000,,,,,,,,,,,,,,,,,,,,,,,,,,,,
1732157176.762828,1732157176.763626,76.000000,0.000000,4329.230957,4282.051270,4325.256348,4292.948730,4244.487305,4264.230957,4330.512695,4402.563965,4294.230957,4277.692383,4492.692383,4518.846191,4366.538574,4447.179688,1678.000000,1.000000,25.000000,,,,0.000000,2.000000,2.000000,0.000000,4.000000,2.000000,2.000000,0.000000,0.000000,4.000000,4.000000,4.000000,4.000000,4.000000,4.000000,0.000000,,,,,,,,,,,,,,,,,19.000000,0.000000,0.512611,0.490662,-0.537842,0.455200,0.968868,0.024417,-0.054694,-34.712444,45.961514,30.927467
1732157176.770636,1732157176.771434,77.000000,0.000000,4335.512695,4282.820313,4308.333496,4291.282227,4249.743652,4262.563965,4328.717773,4402.179688,4295.769043,4279.487305,4492.307617,4523.717773,4370.641113,4458.717773,1678.000000,1.000000,25.000000,,,,0.000000,2.000000,2.000000,0.000000,4.000000,2.000000,2.000000,0.000000,0.000000,4.000000,4.000000,4.000000,4.000000,4.000000,4.000000,0.000000,,,,,,,,,,,,,,,,,,,,,,,,,,,,
1732157176.778444,1732157176.779442,78.000000,0.000000,4338.205078,4281.538574,4314.487305,4288.589844,4243.846191,4261.282227,4324.487305,4397.692383,4285.128418,4276.794922,4491.282227,4523.333496,4373.974121,4458.974121,1524.000000,1.000000,25.000000,,,,0.000000,2.000000,2.000000,0.000000,4.000000,2.000000,2.000000,0.000000,0.000000,4.000000,4.000000,4.000000,4.000000,4.000000,4.000000,0.000000,1.000000,0.000000,2.000000,2.000000,0.000000,4.000000,2.000000,2.000000,0.000000,0.000000,4.000000,4.000000,4.000000,4.000000,4.000000,4.000000,,,,,,,,,,,,
1732157176.786252,1732157176.787251,79.000000,0.000000,4341.153809,4282.179688,4316.794922,4289.358887,4243.974121,4258.077148,4324.615234,4396.153809,4277.436035,4275.897461,4496.922852,4522.307617,4380.384766,4459.743652,1571.000000,1.000000,25.000000,,,,0.000000,2.000000,2.000000,0.000000,4.000000,2.000000,2.000000,0.000000,0.000000,4.000000,4.000000,4.000000,4.000000,4.000000,4.000000,0.000000,,,,,,,,,,,,,,,,,,,,,,,,,,,,
1732157176.794060,1732157176.795159,80.000000,0.000000,4345.256348,4282.820313,4311.794922,4293.589844,4247.307617,4257.563965,4331.922852,4400.256348,4289.230957,4279.615234,4506.538574,4524.615234,4385.384766,4464.871582,1678.000000,1.000000,25.000000,,,,0.000000,2.000000,2.000000,0.000000,4.000000,2.000000,2.000000,0.000000,0.000000,4.000000,4.000000,4.000000,4.000000,4.000000,4.000000,0.000000,,,,,,,,,,,,,,,,,20.000000,0.000000,0.511814,0.489746,-0.538452,0.456360,0.986449,-0.008302,-0.061043,-35.052078,45.823826,30.979582
1732157176.801869,1732157176.802967,81.000000,0.000000,4341.025879,4280.769043,4318.333496,4290.641113,4249.358887,4259.871582,4331.794922,4402.179688,4293.077148,4280.769043,4505.512695,4523.974121,4384.871582,4464.358887,1678.000000,1.000000,25.000000,,,,0.000000,2.000000,2.000000,0.000000,4.000000,2.000000,2.000000,0.000000,0.000000,4.000000,4.000000,4.000000,4.000000,4.000000,4.000000,0.000000,,,,,,,,,,,,,,,,,,,,,,,,,,,,
1732157176.809677,1732157176.810975,82.000000,0.000000,4335.384766,4281.410156,4321.666504,4286.922852,4251.794922,4261.282227,4324.230957,4401.538574,4280.897461,4276.282227,4494.615234,4521.922852,4383.205078,4461.025879,1524.000000,1.000000,25.000000,,,,0.000000,2.000000,2.000000,0.000000,4.000000,2.000000,2.000000,0.000000,0.000000,4.000000,4.000000,4.000000,4.000000,4.000000,4.000000,0.000000,,,,,,,,,,,,,,,,,,,,,,,,,,,,
1732157176.817485,1732157176.818783,83.000000,0.000000,4343.333496,4284.743652,4316.794922,4293.461426,4251.153809,4262.051270,4326.794922,4402.179688,4280.512695,4277.179688,4494.102539,4523.205078,4386.153809,4462.948730,1571.000000,1.000000,25.000000,,,,0.000000,2.000000,2.000000,0.000000,4.000000,2.000000,2.000000,0.000000,0.000000,4.000000,4.000000,4.000000,4.000000,4.000000,4.000000,0.000000,,,,,,,,,,,,,,,,,,,,,,,,,,,,
1732157176.825293,1732157176.826691,84.000000,0.000000,4350.897461,4287.307617,4313.333496,4298.717773,4248.846191,4261.153809,4328.846191,4397.948730,4289.102539,4280.128418,4501.666504,4521.538574,4388.717773,4464.358887,1678.000000,1.000000,25.000000,,,,0.000000,2.000000,2.000000,0.000000,4.000000,2.000000,2.000000,0.000000,0.000000,4.000000,4.000000,4.000000,4.000000,4.000000,4.000000,0.000000,,,,,,,,,,,,,,,,,21.000000,0.000000,0.511326,0.488403,-0.539307,0.457336,0.961543,-0.023440,-0.058601,-35.143852,45.750633,31.091795
1732157176.833102,1732157176.834499,85.000000,0.000000,4345.769043,4286.922852,4316.922852,4295.128418,4248.589844,4261.153809,4327.820313,4395.256348,4291.410156,4280.384766,4504.358887,4518.717773,4389.102539,4466.922852,1678.000000,1.000000,25.000000,,,,0.000000,2.000000,2.000000,0.000000,4.000000,2.000000,2.000000,0.000000,0.000000,4.000000,4.000000,4.000000,4.000000,4.000000,4.000000,0.000000,,,,,,,,,,,,,,,,,,,,,,,,,,,,
1732157176.840910,1732157176.842507,86.000000,0.000000,4343.461426,4285.384766,4315.897461,4294.230957,4251.922852,4265.512695,4331.025879,4399.102539,4296.410156,4286.538574,4504.615234,4524.102539,4393.077148,4472.307617,1524.000000,1.000000,25.000000,,,,0.000000,2.000000,2.000000,0.000000,4.000000,2.000000,2.000000,0.000000,0.000000,4.000000,4.000000,4.000000,4.000000,4.000000,4.000000,0.000000,,,,,,,,,,,,,,,,,,,,,,,,,,,,
1732157176.848718,1732157176.850316,87.000000,0.000000,4351.025879,4286.666504,4310.512695,4297.948730,4255.897461,4267.179688,4332.179688,4400.000000,4299.615234,4295.000000,4504.102539,4532.051270,4397.692383,4473.589844,1571.000000,1.000000,25.000000,,,,0.000000,2.000000,2.000000,0.000000,4.000000,2.000000,2.000000,0.000000,0.000000,4.000000,4.000000,4.000000,4.000000,4.000000,4.000000,0.000000,,,,,,,,,,,,,,,,,,,,,,,,,,,,
1732157176.856526,1732157176.858224,88.000000,0.000000,4351.666504,4287.051270,4311.794922,4297.820313,4255.769043,4262.948730,4329.102539,4397.307617,4294.487305,4295.641113,4503.205078,4530.128418,4396.410156,4471.282227,1678.000000,1.000000,25.000000,,,,0.000000,2.000000,2.000000,0.000000,4.000000,2.000000,2.000000,0.000000,0.000000,4.000000,4.000000,4.000000,4.000000,4.000000,4.000000,0.000000,,,,,,,,,,,,,,,,,22.000000,0.000000,0.511326,0.488403,-0.539307,0.457336,0.984007,-0.006348,-0.049811,-35.158184,45.751347,31.092688
1732157176.864335,1732157176.866032,89.000000,0.000000,4344.615234,4289.487305,4315.641113,4293.205078,4259.871582,4260.769043,4327.820313,4399.615234,4293.846191,4290.512695,4503.589844,4522.179688,4395.769043,4470.384766,1678.000000,1.000000,25.000000,,,,0.000000,2.000000,2.000000,0.000000,4.000000,2.000000,2.000000,0.000000,0.000000,4.000000,4.000000,4.000000,4.000000,4.000000,4.000000,0.000000,,,,,,,,,,,,,,,,,,,,,,,,,,,,
1732157176.872143,1732157176.874040,90.000000,0.000000,4342.692383,4291.153809,4313.974121,4292.436035,4266.794922,4260.769043,4327.307617,4401.666504,4295.641113,4287.179688,4504.743652,4524.615234,4398.333496,4471.153809,1524.000000,1.000000,25.000000,,,,0.000000,2.000000,2.000000,0.000000,4.000000,2.000000,2.000000,0.000000,0.000000,4.000000,4.000000,4.000000,4.000000,4.000000,4.000000,0.000000,,,,,,,,,,,,,,,,,,,,,,,,,,,,
1732157176.879951,1732157176.881848,91.000000,0.000000,4342.307617,4287.820313,4311.666504,4295.897461,4258.717773,4261.410156,4327.563965,4399.358887,4292.307617,4289.230957,4505.384766,4535.256348,4397.436035,4474.230957,1571.000000,1.000000,25.000000,,,,0.000000,2.000000,2.000000,0.000000,4.000000,2.000000,2.000000,0.000000,0.000000,4.000000,4.000000,4.000000,4.000000,4.000000,4.000000,0.000000,,,,,,,,,,,,,,,,,,,,,,,,,,,,
1732157176.887759,1732157176.889756,92.000000,0.000000,4341.025879,4286.922852,4313.461426,4296.794922,4243.846191,4263.205078,4330.256348,4398.333496,4292.051270,4292.820313,4504.871582,4536.410156,4396.538574,4476.025879,1678.000000,1.000000,25.000000,,,,0.000000,2.000000,2.000000,0.000000,4.000000,2.000000,2.000000,0.000000,0.000000,4.000000,4.000000,4.000000,4.000000,4.000000,4.000000,0.000000,,,,,,,,,,,,,,,,,23.000000,0.000000,0.511306,0.487488,-0.539429,0.458191,0.990844,-0.014162,-0.040532,-35.213131,45.826923,31.165077
1732157176.895568,1732157176.897564,93.000000,0.000000,4342.692383,4289.487305,4315.641113,4295.769043,4243.846191,4264.230957,4329.615234,4398.461426,4296.410156,4295.512695,4505.256348,4533.846191,4398.461426,4472.948730,1678.000000,1.000000,25.000000,,,,0.000000,2.000000,2.000000,0.000000,4.000000,2.000000,2.000000,0.000000,0.000000,4.000000,4.000000,4.000000,4.000000,4.000000,4.000000,0.000000,,,,,,,,,,,,,,,,,,,,,,,,,,,,
1732157176.903376,1732157176.905572,94.000000,0.000000,4342.563965,4288.333496,4314.102539,4294.230957,4251.282227,4261.666504,4326.410156,4397.948730,4297.307617,4294.743652,4505.000000,4537.820313,4396.025879,4472.563965,1524.000000,1.000000,25.000000,,,,0.000000,2.000000,2.000000,0.000000,4.000000,2.000000,2.000000,0.000000,0.000000,4.000000,4.000000,4.000000,4.000000,4.000000,4.000000,0.000000,,,,,,,,,,,,,,,,,,,,,,,,,,,,
1732157176.911184,1732157176.913381,95.000000,0.000000,4335.256348,4283.461426,4312.692383,4292.051270,4250.000000,4260.000000,4326.025879,4398.846191,4293.974121,4289.102539,4503.205078,4538.589844,4387.948730,4474.230957,1571.000000,1.000000,25.000000,,,,0.000000,2.000000,2.000000,0.000000,4.000000,2.000000,2.000000,0.000000,0.000000,4.000000,4.000000,4.000000,4.000000,4.000000,4.000000,0.000000,,,,,,,,,,,,,,,,,,,,,,,,,,,,
1732157176.918992,1732157176.921289,96.000000,0.000000,4331.025879,4281.538574,4312.820313,4291.282227,4246.538574,4262.692383,4325.769043,4400.256348,4293.205078,4287.179688,4505.128418,4534.871582,4388.205078,4474.871582,1678.000000,1.000000,25.000000,,,,0.000000,2.000000,2.000000,0.000000,4.000000,2.000000,2.000000,0.000000,0.000000,4.000000,4.000000,4.000000,4.000000,4.000000,4.000000,0.000000,,,,,,,,,,,,,,,,,24.000000,0.000000,0.511519,0.487122,-0.539246,0.458557,0.989379,0.012209,-0.054694,-35.279301,45.878143,31.133713
1732157176.926801,1732157176.929097,97.000000,0.000000,4339.615234,4281.922852,4315.000000,4293.205078,4252.692383,4266.153809,4327.051270,4399.487305,4295.384766,4296.410156,4506.922852,4535.384766,4397.436035,4476.666504,1678.000000,1.000000,25.000000,,,,0.000000,2.000000,2.000000,0.000000,4.000000,2.000000,2.000000,0.000000,0.000000,4.000000,4.000000,4.000000,4.000000,4.000000,4.000000,0.000000,,,,,,,,,,,,,,,,,,,,,,,,,,,,
1732157176.934609,1732157176.936705,98.000000,0.000000,4345.000000,4285.000000,4314.358887,4294.615234,4260.384766,4266.025879,4329.358887,4398.205078,4296.282227,4295.384766,4504.615234,4541.153809,4396.666504,4476.538574,1524.000000,1.000000,25.000000,,,,0.000000,2.000000,2.000000,0.000000,4.000000,2.000000,2.000000,0.000000,0.000000,4.000000,4.000000,4.000000,4.000000,4.000000,4.000000,0.000000,,,,,,,,,,,,,,,,,,,,,,,,,,,,
1732157176.942417,1732157176.944514,99.000000,0.000000,4337.948730,4285.769043,4313.205078,4292.051270,4262.179688,4264.743652,4326.410156,4397.948730,4295.256348,4281.025879,4504.487305,4536.922852,4388.974121,4473.461426,1571.000000,1.000000,25.000000,,,,0.000000,2.000000,2.000000,0.000000,4.000000,2.000000,2.000000,0.000000,0.000000,4.000000,4.000000,4.000000,4.000000,4.000000,4.000000,0.000000,,,,,,,,,,,,,,,,,,,,,,,,,,,,
1732157176.950225,1732157176.952222,100.000000,0.000000,4331.666504,4281.922852,4313.846191,4291.282227,4261.794922,4268.589844,4325.897461,4398.974121,4294.615234,4283.846191,4502.307617,4524.615234,4385.769043,4472.820313,1678.000000,1.000000,25.000000,,,,0.000000,2.000000,2.000000,0.000000,4.000000,2.000000,2.000000,0.000000,0.000000,4.000000,4.000000,4.000000,4.000000,4.000000,4.000000,0.000000,,,,,,,,,,,,,,,,,25.000000,0.000000,0.511529,0.487122,-0.539185,0.458618,0.989379,0.012209,-0.054694,-35.257900,45.806293,31.108307
1732157176.958033,1732157176.960030,101.000000,0.000000,4336.153809,4284.487305,4314.615234,4295.512695,4264.743652,4271.410156,4330.897461,4399.230957,4297.307617,4290.256348,4491.666504,4525.512695,4384.230957,4474.487305,1678.000000,1.000000,25.000000,,,,0.000000,2.000000,2.000000,0.000000,4.000000,2.000000,2.000000,0.000000,0.000000,4.000000,4.000000,4.000000,4.000000,4.000000,4.000000,0.000000,,,,,,,,,,,,,,,,,,,,,,,,,,,,
1732157176.965842,1732157176.967639,102.000000,0.000000,4342.948730,4290.000000,4316.410156,4298.333496,4264.358887,4267.051270,4330.256348,4398.205078,4298.461426,4282.820313,4492.179688,4533.717773,4381.153809,4471.666504,1524.000000,1.000000,25.000000,,,,0.000000,2.000000,2.000000,0.000000,4.000000,2.000000,2.000000,0.000000,0.000000,4.000000,4.000000,4.000000,4.000000,4.000000,4.000000,0.000000,,,,,,,,,,,,,,,,,,,,,,,,,,,,
1732157176.973650,1732157176.975447,103.000000,0.000000,4341.282227,4288.333496,4316.025879,4297.051270,4260.384766,4262.692383,4326.153809,4398.717773,4296.153809,4286.538574,4505.897461,4532.436035,4383.461426,4465.512695,1571.000000,1.000000,25.000000,,,,0.000000,2.000000,2.000000,0.000000,4.000000,2.000000,2.000000,0.000000,0.000000,4.000000,4.000000,4.000000,4.000000,4.000000,4.000000,0.000000,,,,,,,,,,,,,,,,,,,,,,,,,,,,
1732157176.981458,1732157176.983155,104.000000,0.000000,4337.307617,4285.512695,4313.846191,4295.384766,4261.922852,4263.717773,4326.666504,4399.230957,4298.205078,4297.179688,4508.717773,4527.179688,4389.358887,4463.333496,1678.000000,1.000000,25.000000,,,,0.000000,2.000000,2.000000,0.000000,4.000000,2.000000,2.000000,0.000000,0.000000,4.000000,4.000000,4.000000,4.000000,4.000000,4.000000,0.000000,,,,,,,,,,,,,,,,,26.000000,0.000000,0.511548,0.487122,-0.539063,0.458740,0.970822,-0.000488,-0.048346,-35.423901,45.706432,31.021061
1732157176.989267,1732157176.990963,105.000000,0.000000,4335.897461,4285.641113,4315.769043,4295.256348,4258.974121,4263.974121,4330.384766,4399.358887,4302.436035,4296.794922,4505.512695,4530.769043,4388.974121,4464.102539,1678.000000,1.000000,25.000000,,,,0.000000,2.000000,2.000000,0.000000,4.000000,2.000000,2.000000,0.000000,0.000000,4.000000,4.000000,4.000000,4.000000,4.000000,4.000000,0.000000,,,,,,,,,,,,,,,,,,,,,,,,,,,,
1732157176.997075,1732157176.998572,106.000000,0.000000,4331.794922,4285.512695,4316.922852,4295.512695,4257.051270,4264.230957,4331.153809,4399.358887,4297.948730,4291.538574,4505.641113,4533.205078,4382.179688,4462.820313,1524.000000,1.000000,25.000000,,,,0.000000,2.000000,2.000000,0.000000,4.000000,2.000000,2.000000,0.000000,0.000000,4.000000,4.000000,4.000000,4.000000,4.000000,4.000000,0.000000,,,,,,,,,,,,,,,,,,,,,,,,,,,,
1732157177.004883,1732157177.006380,107.000000,0.000000,4326.538574,4285.256348,4313.333496,4295.641113,4277.820313,4271.538574,4327.307617,4399.358887,4290.128418,4285.512695,4498.461426,4526.410156,4379.743652,4458.846191,1571.000000,1.000000,25.000000,,,,0.000000,2.000000,2.000000,0.000000,4.000000,2.000000,2.000000,0.000000,0.000000,4.000000,4.000000,4.000000,4.000000,4.000000,4.000000,0.000000,,,,,,,,,,,,,,,,,,,,,,,,,,,,
1732157177.012691,1732157177.014088,108.000000,0.000000,4325.384766,4283.589844,4313.077148,4295.256348,4282.692383,4279.743652,4326.025879,4399.871582,4292.179688,4281.282227,4491.922852,4522.051270,4383.205078,4454.871582,1678.000000,1.000000,25.000000,,,,0.000000,2.000000,2.000000,0.000000,4.000000,2.000000,2.000000,0.000000,0.000000,4.000000,4.000000,4.000000,4.000000,4.000000,4.000000,0.000000,,,,,,,,,,,,,,,,,27.000000,0.000000,0.511635,0.487305,-0.538086,0.459595,0.981077,0.012697,-0.047857,-35.558361,45.813877,31.058727
1732157177.020500,1732157177.021896,109.000000,0.000000,4325.897461,4281.922852,4317.948730,4294.358887,4253.205078,4276.153809,4327.179688,4400.000000,4298.461426,4289.102539,4499.358887,4523.333496,4385.256348,4455.512695,1678.000000,1.000000,25.000000,,,,0.000000,2.000000,2.000000,0.000000,4.000000,2.000000,2.000000,0.000000,0.000000,4.000000,4.000000,4.000000,4.000000,4.000000,4.000000,0.000000,,,,,,,,,,,,,,,,,,,,,,,,,,,,
1732157177.028308,1732157177.029505,110.000000,0.000000,4324.358887,4280.769043,4317.563965,4293.461426,4241.794922,4267.307617,4324.615234,4397.692383,4297.948730,4297.307617,4505.128418,4526.666504,4383.333496,4459.487305,1524.000000,1.000000,25.000000,,,,0.000000,2.000000,2.000000,0.000000,4.000000,2.000000,2.000000,0.000000,0.000000,4.000000,4.000000,4.000000,4.000000,4.000000,4.000000,0.000000,,,,,,,,,,,,,,,,,,,,,,,,,,,,
1732157177.036116,1732157177.037313,111.000000,0.000000,4325.641113,4281.025879,4312.692383,4293.077148,4260.512695,4267.307617,4324.743652,4395.512695,4294.743652,4294.230957,4503.589844,4526.282227,4381.794922,4457.948730,1571.000000,1.000000,25.000000,,,,0.000000,2.000000,2.000000,0.000000,4.000000,2.000000,2.000000,0.000000,0.000000,4.000000,4.000000,4.000000,4.000000,4.000000,4.000000,0.000000,,,,,,,,,,,,,,,,,,,,,,,,,,,,
1732157177.043924,1732157177.045021,112.000000,0.000000,4327.436035,4284.102539,4311.282227,4293.077148,4268.461426,4273.077148,4329.487305,4399.487305,4295.769043,4291.282227,4503.205078,4523.205078,4382.179688,4449.615234,1678.000000,1.000000,25.000000,,,,0.000000,2.000000,2.000000,0.000000,4.000000,2.000000,2.000000,0.000000,0.000000,4.000000,4.000000,4.000000,4.000000,4.000000,4.000000,0.000000,,,,,,,,,,,,,,,,,28.000000,0.000000,0.511589,0.487305,-0.538025,0.459717,0.981077,0.012697,-0.047857,-35.513939,45.859241,31.102570
1732157177.051732,1732157177.052830,113.000000,0.000000,4323.461426,4283.077148,4313.717773,4293.205078,4261.538574,4277.436035,4329.487305,4401.538574,4297.307617,4291.025879,4498.589844,4521.794922,4379.615234,4445.256348,1678.000000,1.000000,25.000000,,,,0.000000,2.000000,2.000000,0.000000,4.000000,2.000000,2.000000,0.000000,0.000000,4.000000,4.000000,4.000000,4.000000,4.000000,4.000000,0.000000,,,,,,,,,,,,,,,,,,,,,,,,,,,,
1732157177.059541,1732157177.060438,114.000000,0.000000,4322.436035,4279.230957,4316.025879,4295.256348,4267.436035,4278.205078,4326.410156,4398.333496,4296.794922,4287.692383,4490.128418,4521.282227,4373.205078,4444.743652,1524.000000,1.000000,25.000000,,,,0.000000,2.000000,2.000000,0.000000,4.000000,2.000000,2.000000,0.000000,0.000000,4.000000,4.000000,4.000000,4.000000,4.000000,4.000000,0.000000,,,,,,,,,,,,,,,,,,,,,,,,,,,,
1732157177.067349,1732157177.068246,115.000000,0.000000,4325.769043,4282.051270,4315.384766,4298.205078,4282.051270,4277.051270,4325.512695,4397.563965,4298.717773,4282.948730,4488.205078,4519.358887,4370.512695,4443.333496,1571.000000,1.000000,25.000000,,,,0.000000,2.000000,2.000000,0.000000,4.000000,2.000000,2.000000,0.000000,0.000000,4.000000,4.000000,4.000000,4.000000,4.000000,4.000000,0.000000,,,,,,,,,,,,,,,,,,,,,,,,,,,,
1732157177.075157,1732157177.076154,116.000000,0.000000,4326.794922,4288.846191,4315.128418,4300.256348,4282.563965,4279.487305,4327.179688,4398.717773,4298.589844,4280.769043,4490.128418,4512.948730,4369.615234,4442.051270,1678.000000,1.000000,25.000000,,,,0.000000,2.000000,2.000000,0.000000,4.000000,2.000000,2.000000,0.000000,0.000000,4.000000,4.000000,4.000000,4.000000,4.000000,4.000000,0.000000,,,,,,,,,,,,,,,,,29.000000,0.000000,0.511358,0.487549,-0.537659,0.460144,0.979123,0.012209,-0.052252,-35.479622,46.234318,30.956413
1732157177.082965,1732157177.083962,117.000000,0.000000,4323.846191,4288.333496,4316.025879,4303.461426,4268.205078,4283.846191,4328.717773,4396.794922,4297.179688,4282.051270,4488.205078,4511.153809,4366.025879,4443.333496,1678.000000,1.000000,25.000000,,,,0.000000,2.000000,2.000000,0.000000,4.000000,2.000000,2.000000,0.000000,0.000000,4.000000,4.000000,4.000000,4.000000,4.000000,4.000000,0.000000,,,,,,,,,,,,,,,,,,,,,,,,,,,,
1732157177.090774,1732157177.091970,118.000000,0.000000,4321.410156,4283.333496,4315.000000,4303.461426,4260.256348,4282.692383,4326.922852,4395.128418,4299.358887,4281.666504,4486.282227,4512.436035,4365.897461,4445.256348,1524.000000,1.000000,25.000000,,,,0.000000,2.000000,2.000000,0.000000,4.000000,2.000000,2.000000,0.000000,0.000000,4.000000,4.000000,4.000000,4.000000,4.000000,4.000000,0.000000,,,,,,,,,,,,,,,,,,,,,,,,,,,,
1732157177.098582,1732157177.099779,119.000000,0.000000,4318.717773,4280.769043,4312.563965,4297.563965,4266.410156,4278.589844,4327.179688,4398.077148,4301.025879,4281.025879,4489.615234,4509.871582,4368.461426,4444.102539,1571.000000,1.000000,25.000000,,,,0.000000,2.000000,2.000000,0.000000,4.000000,2.000000,2.000000,0.000000,0.000000,4.000000,4.000000,4.000000,4.000000,4.000000,4.000000,0.000000,,,,,,,,,,,,,,,,,,,,,,,,,,,,
1732157177.106390,1732157177.107487,120.000000,0.000000,4317.692383,4279.871582,4312.307617,4295.384766,4277.563965,4280.000000,4330.000000,4398.974121,4296.538574,4280.641113,4492.948730,4514.615234,4367.051270,4443.589844,1678.000000,1.000000,25.000000,,,,0.000000,2.000000,2.000000,0.000000,4.000000,2.000000,2.000000,0.000000,0.000000,4.000000,4.000000,4.000000,4.000000,4.000000,4.000000,0.000000,,,,,,,,,,,,,,,,,30.000000,0.000000,0.510993,0.487671,-0.538208,0.459778,0.975217,0.016604,-0.049322,-35.340160,46.068130,31.024694
1732157177.114198,1732157177.115295,121.000000,0.000000,4319.615234,4280.897461,4314.615234,4298.589844,4278.333496,4281.794922,4327.563965,4396.666504,4292.307617,4279.871582,4492.820313,4521.922852,4366.794922,4446.153809,1678.000000,1.000000,25.000000,,,,0.000000,2.000000,2.000000,0.000000,4.000000,2.000000,2.000000,0.000000,0.000000,4.000000,4.000000,4.000000,4.000000,4.000000,4.000000,0.000000,,,,,,,,,,,,,,,,,,,,,,,,,,,,
1732157177.122007,1732157177.123303,122.000000,0.000000,4316.794922,4283.461426,4314.615234,4298.077148,4267.436035,4280.641113,4324.230957,4396.025879,4297.820313,4287.051270,4490.256348,4519.230957,4367.948730,4441.922852,1524.000000,1.000000,25.000000,,,,0.000000,2.000000,2.000000,0.000000,4.000000,2.000000,2.000000,0.000000,0.000000,4.000000,4.000000,4.000000,4.000000,4.000000,4.000000,0.000000,,,,,,,,,,,,,,,,,,,,,,,,,,,,
1732157177.129815,1732157177.131111,123.000000,0.000000,4310.512695,4279.871582,4312.948730,4294.230957,4275.000000,4278.974121,4325.000000,4397.051270,4304.102539,4295.897461,4488.333496,4512.563965,4366.025879,4432.179688,1571.000000,1.000000,25.000000,,,,0.000000,2.000000,2.000000,0.000000,4.000000,2.000000,2.000000,0.000000,0.000000,4.000000,4.000000,4.000000,4.000000,4.000000,4.000000,0.000000,,,,,,,,,,,,,,,,,,,,,,,,,,,,
1732157177.137623,1732157177.138820,124.000000,0.000000,4311.538574,4277.307617,4313.333496,4294.743652,4289.743652,4279.358887,4327.948730,4397.436035,4304.230957,4295.000000,4489.871582,4510.384766,4364.230957,4433.717773,1678.000000,1.000000,25.000000,,,,0.000000,2.000000,2.000000,0.000000,4.000000,2.000000,2.000000,0.000000,0.000000,4.000000,4.000000,4.000000,4.000000,4.000000,4.000000,0.000000,,,,,,,,,,,,,,,,,31.000000,0.000000,0.510435,0.487793,-0.538574,0.459839,0.978147,-0.015627,-0.069344,-35.328865,45.923519,31.120003
1732157177.145431,1732157177.146628,125.000000,0.000000,4317.948730,4283.717773,4315.641113,4301.538574,4275.769043,4282.563965,4329.487305,4398.077148,4302.436035,4293.589844,4487.051270,4516.025879,4364.743652,4443.461426,1678.000000,1.000000,25.000000,,,,0.000000,2.000000,2.000000,0.000000,4.000000,2.000000,2.000000,0.000000,0.000000,4.000000,4.000000,4.000000,4.000000,4.000000,4.000000,0.000000,,,,,,,,,,,,,,,,,,,,,,,,,,,,
1732157177.153240,1732157177.154236,126.000000,0.000000,4320.128418,4285.641113,4315.384766,4308.077148,4258.333496,4283.333496,4326.922852,4399.871582,4299.743652,4297.051270,4481.538574,4523.333496,4364.487305,4444.102539,1524.000000,1.000000,25.000000,,,,0.000000,2.000000,2.000000,0.000000,4.000000,2.000000,2.000000,0.000000,0.000000,4.000000,4.000000,4.000000,4.000000,4.000000,4.000000,0.000000,,,,,,,,,,,,,,,,,,,,,,,,,,,,
1732157177.161048,1732157177.162045,127.000000,0.000000,4320.128418,4282.948730,4313.717773,4308.077148,4265.512695,4279.743652,4327.051270,4399.615234,4297.051270,4296.538574,4485.897461,4521.538574,4366.025879,4441.922852,25.000000,1.000000,25.000000,,,,0.000000,2.000000,2.000000,0.000000,4.000000,2.000000,2.000000,0.000000,0.000000,4.000000,4.000000,4.000000,4.000000,4.000000,4.000000,0.000000,,,,,,,,,,,,,,,,,,,,,,,,,,,,
1732157177.168856,1732157177.169953,0.000000,0.000000,4319.358887,4286.153809,4314.743652,4305.128418,4274.615234,4279.615234,4331.153809,4399.487305,4296.538574,4292.820313,4493.205078,4517.948730,4366.282227,4442.948730,0.000000,1.000000,25.000000,,,,0.000000,2.000000,2.000000,0.000000,4.000000,2.000000,2.000000,0.000000,0.000000,4.000000,4.000000,4.000000,4.000000,4.000000,4.000000,0.000000,,,,,,,,,,,,,,,,,0.000000,0.000000,0.510132,0.487793,-0.538757,0.459961,0.978147,0.003907,-0.051764,-35.488045,45.653049,31.223869
1732157177.176664,1732157177.177761,1.000000,0.000000,4313.589844,4286.153809,4317.692383,4304.230957,4277.436035,4282.436035,4330.641113,4400.384766,4298.717773,4293.077148,4491.410156,4520.769043,4362.051270,4443.205078,1594.000000,1.000000,25.000000,,,,0.000000,2.000000,2.000000,0.000000,4.000000,2.000000,2.000000,0.000000,0.000000,4.000000,4.000000,4.000000,4.000000,4.000000,4.000000,0.000000,,,,,,,,,,,,,,,,,,,,,,,,,,,,
1732157177.184473,1732157177.185769,2.000000,0.000000,4312.436035,4280.641113,4316.922852,4303.589844,4279.230957,4281.922852,4330.000000,4398.717773,4305.384766,4295.897461,4488.461426,4517.948730,4361.282227,4440.000000,1386.000000,1.000000,25.000000,,,,0.000000,2.000000,2.000000,0.000000,4.000000,2.000000,2.000000,0.000000,0.000000,4.000000,4.000000,4.000000,4.000000,4.000000,4.000000,0.000000,,,,,,,,,,,,,,,,,,,,,,,,,,,,
1732157177.192281,1732157177.193577,3.000000,0.000000,4319.487305,4281.794922,4315.256348,4302.307617,4279.487305,4280.256348,4331.666504,4397.179688,4310.384766,4295.897461,4489.358887,4511.025879,4360.641113,4435.512695,1412.000000,1.000000,25.000000,,,,0.000000,2.000000,2.000000,0.000000,4.000000,2.000000,2.000000,0.000000,0.000000,4.000000,4.000000,4.000000,4.000000,4.000000,4.000000,0.000000,,,,,,,,,,,,,,,,,,,,,,,,,,,,
1732157177.200089,1732157177.201485,4.000000,0.000000,4320.512695,4283.846191,4315.897461,4304.230957,4278.846191,4279.871582,4331.282227,4397.948730,4303.461426,4292.820313,4487.179688,4513.461426,4357.307617,4437.563965,1401.000000,1.000000,25.000000,,,,0.000000,2.000000,2.000000,0.000000,4.000000,2.000000,2.000000,0.000000,0.000000,4.000000,4.000000,4.000000,4.000000,4.000000,4.000000,0.000000,,,,,,,,,,,,,,,,,1.000000,0.000000,0.509310,0.487854,-0.539063,0.460449,0.984984,0.022952,-0.052252,-35.480316,45.882305,31.153000
1732157177.207897,1732157177.209293,5.000000,0.000000,4313.333496,4275.256348,4316.025879,4304.102539,4275.000000,4278.461426,4331.666504,4398.333496,4296.025879,4291.794922,4486.794922,4518.333496,4359.487305,4444.358887,1235.000000,1.000000,25.000000,,,,0.000000,2.000000,2.000000,0.000000,4.000000,2.000000,2.000000,0.000000,0.000000,4.000000,4.000000,4.000000,4.000000,4.000000,4.000000,0.000000,,,,,,,,,,,,,,,,,,,,,,,,,,,,
1732157177.215706,1732157177.217301,6.000000,0.000000,4311.794922,4265.512695,4314.102539,4297.436035,4282.948730,4276.282227,4330.641113,4397.179688,4297.307617,4287.948730,4488.846191,4515.897461,4362.820313,4445.128418,0.000000,1.000000,25.000000,,,,0.000000,2.000000,2.000000,0.000000,4.000000,2.000000,2.000000,0.000000,0.000000,4.000000,4.000000,4.000000,4.000000,4.000000,4.000000,0.000000,,,,,,,,,,,,,,,,,,,,,,,,,,,,
1732157177.223514,1732157177.225110,7.000000,0.000000,4316.410156,4264.358887,4312.692383,4294.102539,4289.743652,4277.051270,4327.051270,4397.820313,4296.153809,4279.743652,4487.563965,4509.743652,4358.333496,4440.641113,0.000000,1.000000,25.000000,,,,0.000000,2.000000,2.000000,0.000000,4.000000,2.000000,2.000000,0.000000,0.000000,4.000000,4.000000,4.000000,4.000000,4.000000,4.000000,0.000000,,,,,,,,,,,,,,,,,,,,,,,,,,,,
1732157177.231322,1732157177.233018,8.000000,0.000000,4320.512695,4266.794922,4315.256348,4302.563965,4273.717773,4279.871582,4327.820313,4398.717773,4292.179688,4280.512695,4487.051270,4505.512695,4357.307617,4440.641113,1526.000000,1.000000,25.000000,,,,0.000000,2.000000,2.000000,0.000000,4.000000,2.000000,2.000000,0.000000,0.000000,4.000000,4.000000,4.000000,4.000000,4.000000,4.000000,0.000000,,,,,,,,,,,,,,,,,2.000000,0.000000,0.507576,0.488159,-0.539795,0.461182,0.983030,0.004883,-0.058601,-35.484058,45.839668,31.307264
1732157177.239130,1732157177.240826,9.000000,0.000000,4320.384766,4266.153809,4317.436035,4311.153809,4265.256348,4282.179688,4329.230957,4398.974121,4293.461426,4287.307617,4486.794922,4507.948730,4361.025879,4443.205078,1668.000000,1.000000,25.000000,,,,0.000000,2.000000,2.000000,0.000000,4.000000,2.000000,2.000000,0.000000,0.000000,4.000000,4.000000,4.000000,4.000000,4.000000,4.000000,0.000000,,,,,,,,,,,,,,,,,,,,,,,,,,,,
1732157177.246939,1732157177.248834,10.000000,0.000000,4316.666504,4265.000000,4315.769043,4305.256348,4277.563965,4283.589844,4330.384766,4400.128418,4297.051270,4290.000000,4486.794922,4516.410156,4360.000000,4445.000000,1528.000000,1.000000,25.000000,,,,0.000000,2.000000,2.000000,0.000000,4.000000,2.000000,2.000000,0.000000,0.000000,4.000000,4.000000,4.000000,4.000000,4.000000,4.000000,0.000000,,,,,,,,,,,,,,,,,,,,,,,,,,,,
1732157177.254747,1732157177.256642,11.000000,0.000000,4312.051270,4266.410156,4315.000000,4298.205078,4281.282227,4281.922852,4334.487305,4398.717773,4298.974121,4291.666504,4490.000000,4521.025879,4363.974121,4446.666504,1568.000000,1.000000,25.000000,,,,0.000000,2.000000,2.000000,0.000000,4.000000,2.000000,2.000000,0.000000,0.000000,4.000000,4.000000,4.000000,4.000000,4.000000,4.000000,0.000000,,,,,,,,,,,,,,,,,,,,,,,,,,,,
1732157177.262555,1732157177.264550,12.000000,0.000000,4310.000000,4265.000000,4317.307617,4301.538574,4275.512695,4279.102539,4331.666504,4397.179688,4296.922852,4294.230957,4491.410156,4519.358887,4366.538574,4445.000000,1678.000000,1.000000,25.000000,,,,0.000000,2.000000,2.000000,0.000000,4.000000,2.000000,2.000000,0.000000,0.000000,4.000000,4.000000,4.000000,4.000000,4.000000,4.000000,0.000000,,,,,,,,,,,,,,,,,3.000000,0.000000,0.507162,0.488281,-0.539917,0.461365,0.972287,0.001465,-0.059089,-35.457085,45.805130,31.387217
1732157177.270363,1732157177.272358,13.000000,0.000000,4314.358887,4263.077148,4316.025879,4307.051270,4278.974121,4278.461426,4326.282227,4399.102539,4300.256348,4295.256348,4489.487305,4520.000000,4361.410156,4445.128418,1671.000000,1.000000,25.000000,,,,0.000000,2.000000,2.000000,0.000000,4.000000,2.000000,2.000000,0.000000,0.000000,4.000000,4.000000,4.000000,4.000000,4.000000,4.000000,0.000000,,,,,,,,,,,,,,,,,,,,,,,,,,,,
1732157177.278172,1732157177.280366,14.000000,0.000000,4319.615234,4264.615234,4314.102539,4305.128418,4281.794922,4279.102539,4326.410156,4399.615234,4309.358887,4298.333496,4490.897461,4522.692383,4361.538574,4446.538574,1528.000000,1.000000,25.000000,,,,0.000000,2.000000,2.000000,0.000000,4.000000,2.000000,2.000000,0.000000,0.000000,4.000000,4.000000,4.000000,4.000000,4.000000,4.000000,0.000000,1.000000,0.000000,2.000000,2.000000,0.000000,1.000000,2.000000,2.000000,0.000000,0.000000,4.000000,4.000000,4.000000,4.000000,4.000000,4.000000,,,,,,,,,,,,
1732157177.285980,1732157177.288175,15.000000,0.000000,4316.410156,4264.102539,4314.871582,4301.153809,4279.871582,4278.589844,4327.563965,4397.692383,4307.051270,4300.000000,4493.461426,4516.410156,4366.794922,4445.384766,1568.000000,1.000000,25.000000,,,,0.000000,2.000000,2.000000,0.000000,4.000000,2.000000,2.000000,0.000000,0.000000,4.000000,4.000000,4.000000,4.000000,4.000000,4.000000,0.000000,,,,,,,,,,,,,,,,,,,,,,,,,,,,
1732157177.293788,1732157177.296083,16.000000,0.000000,4313.974121,4263.333496,4315.000000,4305.128418,4281.025879,4279.102539,4326.922852,4396.922852,4300.897461,4297.307617,4490.512695,4511.666504,4367.307617,4443.846191,0.000000,1.000000,25.000000,,,,0.000000,2.000000,2.000000,0.000000,4.000000,2.000000,2.000000,0.000000,0.000000,4.000000,4.000000,4.000000,4.000000,4.000000,4.000000,0.000000,,,,,,,,,,,,,,,,,4.000000,0.000000,0.506337,0.488464,-0.540161,0.461792,0.968380,-0.006837,-0.066903,-35.338573,45.715488,31.281979
1732157177.301596,1732157177.303891,17.000000,0.000000,4319.358887,4268.461426,4315.641113,4312.307617,4280.384766,4281.153809,4326.410156,4398.333496,4300.384766,4295.000000,4487.820313,4514.230957,4363.717773,4443.461426,0.000000,1.000000,25.000000,,,,0.000000,2.000000,2.000000,0.000000,4.000000,2.000000,2.000000,0.000000,0.000000,4.000000,4.000000,4.000000,4.000000,4.000000,4.000000,0.000000,,,,,,,,,,,,,,,,,,,,,,,,,,,,
1732157177.309404,1732157177.311899,18.000000,0.000000,4320.641113,4271.538574,4315.897461,4314.743652,4282.820313,4281.922852,4328.461426,4398.461426,4297.692383,4294.102539,4488.589844,4516.282227,4360.641113,4445.000000,0.000000,1.000000,25.000000,,,,0.000000,2.000000,2.000000,0.000000,4.000000,2.000000,2.000000,0.000000,0.000000,4.000000,4.000000,4.000000,4.000000,4.000000,4.000000,0.000000,,,,,,,,,,,,,,,,,,,,,,,,,,,,
1732157177.317213,1732157177.319707,19.000000,0.000000,4313.846191,4267.692383,4314.358887,4311.410156,4287.436035,4280.641113,4329.871582,4397.051270,4293.461426,4293.461426,4484.102539,4513.974121,4353.974121,4442.692383,0.000000,1.000000,25.000000,,,,0.000000,2.000000,2.000000,0.000000,4.000000,2.000000,2.000000,0.000000,0.000000,4.000000,4.000000,4.000000,4.000000,4.000000,4.000000,0.000000,,,,,,,,,,,,,,,,,,,,,,,,,,,,
1732157177.325021,1732157177.327416,20.000000,0.000000,4311.410156,4264.615234,4315.256348,4310.512695,4283.205078,4283.717773,4330.128418,4396.282227,4294.487305,4293.461426,4477.179688,4509.615234,4350.641113,4437.307617,0.000000,1.000000,25.000000,,,,0.000000,2.000000,2.000000,0.000000,4.000000,2.000000,2.000000,0.000000,0.000000,4.000000,4.000000,4.000000,4.000000,4.000000,4.000000,0.000000,,,,,,,,,,,,,,,,,5.000000,0.000000,0.505506,0.488342,-0.540527,0.462402,0.967892,-0.028812,-0.059578,-35.252579,45.721210,31.200069
1732157177.332829,1732157177.335224,21.000000,0.000000,4312.436035,4263.205078,4317.436035,4311.282227,4285.000000,4291.153809,4330.897461,4398.333496,4296.922852,4293.077148,4475.128418,4506.410156,4350.000000,4435.512695,0.000000,1.000000,25.000000,,,,0.000000,2.000000,2.000000,0.000000,4.000000,2.000000,2.000000,0.000000,0.000000,4.000000,4.000000,4.000000,4.000000,4.000000,4.000000,0.000000,,,,,,,,,,,,,,,,,,,,,,,,,,,,
1732157177.340638,1732157177.342832,22.000000,0.000000,4312.436035,4262.948730,4316.025879,4308.974121,4300.256348,4281.794922,4332.051270,4400.256348,4296.282227,4293.846191,4482.179688,4509.743652,4350.000000,4441.666504,0.000000,1.000000,25.000000,,,,0.000000,2.000000,2.000000,0.000000,4.000000,2.000000,2.000000,0.000000,0.000000,4.000000,4.000000,4.000000,4.000000,4.000000,4.000000,0.000000,,,,,,,,,,,,,,,,,,,,,,,,,,,,
1732157177.348446,1732157177.350640,23.000000,0.000000,4319.615234,4272.307617,4316.153809,4311.410156,4290.512695,4267.179688,4329.358887,4398.846191,4292.307617,4293.589844,4489.615234,4519.102539,4358.077148,4453.205078,0.000000,1.000000,25.000000,,,,0.000000,2.000000,2.000000,0.000000,4.000000,2.000000,2.000000,0.000000,0.000000,4.000000,4.000000,4.000000,4.000000,4.000000,4.000000,0.000000,,,,,,,,,,,,,,,,,,,,,,,,,,,,
1732157177.356254,1732157177.358349,24.000000,0.000000,4329.615234,4282.436035,4317.948730,4323.717773,4268.205078,4272.307617,4326.794922,4398.846191,4288.333496,4292.436035,4491.922852,4529.230957,4366.025879,4461.153809,0.000000,1.000000,25.000000,,,,0.000000,2.000000,2.000000,0.000000,4.000000,2.000000,2.000000,0.000000,0.000000,4.000000,4.000000,4.000000,4.000000,4.000000,4.000000,0.000000,,,,,,,,,,,,,,,,,6.000000,0.000000,0.504962,0.488037,-0.540894,0.462891,0.980100,-0.016604,-0.064949,-35.512920,45.644180,31.177057
1732157177.364062,1732157177.366157,25.000000,0.000000,4328.846191,4283.333496,4318.077148,4330.256348,4272.179688,4279.743652,4329.102539,4399.102539,4292.179688,4295.256348,4501.282227,4536.282227,4368.205078,4462.948730,0.000000,1.000000,25.000000,,,,0.000000,2.000000,2.000000,0.000000,4.000000,2.000000,2.000000,0.000000,0.000000,4.000000,4.000000,4.000000,4.000000,4.000000,4.000000,0.000000,,,,,,,,,,,,,,,,,,,,,,,,,,,,
1732157177.371870,1732157177.373765,26.000000,0.000000,4321.410156,4282.692383,4319.487305,4319.871582,4274.358887,4278.205078,4327.692383,4398.205078,4295.897461,4298.333496,4506.153809,4532.692383,4368.205078,4462.307617,0.000000,1.000000,25.000000,,,,0.000000,2.000000,2.000000,0.000000,4.000000,2.000000,2.000000,0.000000,0.000000,4.000000,4.000000,4.000000,4.000000,4.000000,4.000000,0.000000,,,,,,,,,,,,,,,,,,,,,,,,,,,,
1732157177.379679,1732157177.381573,27.000000,0.000000,4315.641113,4276.282227,4320.128418,4306.025879,4262.307617,4277.948730,4327.179688,4398.461426,4294.615234,4297.436035,4493.974121,4524.358887,4366.282227,4462.179688,0.000000,1.000000,25.000000,,,,0.000000,2.000000,2.000000,0.000000,4.000000,2.000000,2.000000,0.000000,0.000000,4.000000,4.000000,4.000000,4.000000,4.000000,4.000000,0.000000,,,,,,,,,,,,,,,,,,,,,,,,,,,,
1732157177.387487,1732157177.389282,28.000000,0.000000,4312.436035,4269.615234,4316.410156,4305.128418,4272.692383,4279.102539,4331.538574,4399.102539,4294.230957,4296.538574,4486.025879,4522.436035,4364.230957,4456.666504,0.000000,1.000000,25.000000,,,,0.000000,2.000000,2.000000,0.000000,4.000000,2.000000,2.000000,0.000000,0.000000,4.000000,4.000000,4.000000,4.000000,4.000000,4.000000,0.000000,,,,,,,,,,,,,,,,,7.000000,0.000000,0.504718,0.487854,-0.541077,0.463135,0.997680,-0.024905,-0.057136,-35.478798,45.490120,30.953415
1732157177.395295,1732157177.397090,29.000000,0.000000,4311.794922,4274.615234,4315.000000,4310.256348,4284.487305,4284.487305,4333.333496,4397.820313,4297.436035,4297.307617,4490.512695,4522.179688,4363.205078,4445.769043,0.000000,1.000000,25.000000,,,,0.000000,2.000000,2.000000,0.000000,4.000000,2.000000,2.000000,0.000000,0.000000,4.000000,4.000000,4.000000,4.000000,4.000000,4.000000,0.000000,,,,,,,,,,,,,,,,,,,,,,,,,,,,
1732157177.403103,1732157177.404698,30.000000,0.000000,4306.410156,4280.384766,4316.794922,4307.436035,4276.153809,4297.692383,4331.282227,4397.563965,4310.256348,4299.230957,4490.128418,4521.922852,4365.512695,4442.436035,0.000000,1.000000,25.000000,,,,0.000000,2.000000,2.000000,0.000000,4.000000,2.000000,2.000000,0.000000,0.000000,4.000000,4.000000,4.000000,4.000000,4.000000,4.000000,0.000000,,,,,,,,,,,,,,,,,,,,,,,,,,,,
1732157177.410912,1732157177.412507,31.000000,0.000000,4298.974121,4278.333496,4315.897461,4296.794922,4287.820313,4298.077148,4330.769043,4399.358887,4313.461426,4298.205078,4487.436035,4518.461426,4372.436035,4443.461426,0.000000,1.000000,25.000000,,,,0.000000,2.000000,2.000000,0.000000,4.000000,2.000000,2.000000,0.000000,0.000000,4.000000,4.000000,4.000000,4.000000,4.000000,4.000000,0.000000,,,,,,,,,,,,,,,,,,,,,,,,,,,,
1732157177.418720,1732157177.420415,32.000000,0.000000,4301.922852,4277.051270,4315.897461,4294.102539,4298.461426,4284.615234,4331.410156,4400.128418,4299.743652,4296.538574,4487.948730,4516.410156,4379.358887,4444.102539,0.000000,1.000000,25.000000,,,,0.000000,2.000000,2.000000,0.000000,4.000000,2.000000,2.000000,0.000000,0.000000,4.000000,4.000000,4.000000,4.000000,4.000000,4.000000,0.000000,,,,,,,,,,,,,,,,,8.000000,0.000000,0.504530,0.487488,-0.541321,0.463440,0.985472,-0.010255,-0.071298,-35.546162,45.376999,30.763933
1732157177.426528,1732157177.428223,33.000000,0.000000,4311.282227,4281.153809,4317.307617,4303.461426,4273.717773,4280.641113,4329.358887,4399.743652,4301.794922,4304.871582,4491.666504,4523.333496,4387.563965,4451.282227,0.000000,1.000000,25.000000,,,,0.000000,2.000000,2.000000,0.000000,4.000000,2.000000,2.000000,0.000000,0.000000,4.000000,4.000000,4.000000,4.000000,4.000000,4.000000,0.000000,,,,,,,,,,,,,,,,,,,,,,,,,,,,
1732157177.434337,1732157177.435831,34.000000,0.000000,4310.897461,4288.717773,4317.051270,4307.563965,4257.436035,4282.948730,4329.230957,4397.563965,4313.333496,4314.102539,4495.384766,4520.897461,4398.077148,4456.666504,0.000000,1.000000,25.000000,,,,0.000000,2.000000,2.000000,0.000000,4.000000,2.000000,2.000000,0.000000,0.000000,4.000000,4.000000,4.000000,4.000000,4.000000,4.000000,0.000000,,,,,,,,,,,,,,,,,,,,,,,,,,,,
1732157177.442145,1732157177.443640,35.000000,0.000000,4301.538574,4295.000000,4317.563965,4300.897461,4273.077148,4282.179688,4328.589844,4395.641113,4304.102539,4308.077148,4481.666504,4508.717773,4395.512695,4447.820313,0.000000,1.000000,25.000000,,,,0.000000,2.000000,2.000000,0.000000,4.000000,2.000000,2.000000,0.000000,0.000000,4.000000,4.000000,4.000000,4.000000,4.000000,4.000000,0.000000,,,,,,,,,,,,,,,,,,,,,,,,,,,,
1732157177.449953,1732157177.451348,36.000000,0.000000,4296.538574,4294.102539,4316.282227,4295.897461,4284.358887,4280.128418,4329.358887,4396.282227,4297.051270,4300.641113,4472.051270,4508.589844,4387.307617,4441.666504,0.000000,1.000000,25.000000,,,,0.000000,2.000000,2.000000,0.000000,4.000000,2.000000,2.000000,0.000000,0.000000,4.000000,4.000000,4.000000,4.000000,4.000000,4.000000,0.000000,,,,,,,,,,,,,,,,,9.000000,0.000000,0.504254,0.486572,-0.541931,0.463989,0.980588,-0.029789,-0.062508,-35.634056,45.452034,30.810453
1732157177.457761,1732157177.459156,37.000000,0.000000,4296.025879,4293.077148,4314.743652,4296.666504,4275.000000,4280.897461,4330.384766,4398.589844,4303.846191,4300.897461,4485.512695,4515.769043,4393.846191,4447.051270,0.000000,1.000000,25.000000,,,,0.000000,2.000000,2.000000,0.000000,4.000000,2.000000,2.000000,0.000000,0.000000,4.000000,4.000000,4.000000,4.000000,4.000000,4.000000,0.000000,,,,,,,,,,,,,,,,,,,,,,,,,,,,
1732157177.465569,1732157177.466764,38.000000,0.000000,4296.666504,4295.897461,4315.641113,4297.051270,4266.922852,4284.102539,4327.948730,4399.871582,4304.230957,4300.384766,4486.538574,4513.077148,4396.922852,4444.358887,0.000000,1.000000,25.000000,,,,0.000000,2.000000,2.000000,0.000000,4.000000,2.000000,2.000000,0.000000,0.000000,4.000000,4.000000,4.000000,4.000000,4.000000,4.000000,0.000000,,,,,,,,,,,,,,,,,,,,,,,,,,,,
1732157177.473378,1732157177.474573,39.000000,0.000000,4295.769043,4294.358887,4316.922852,4294.358887,4265.769043,4280.128418,4330.256348,4399.230957,4305.897461,4302.179688,4474.487305,4510.897461,4388.589844,4435.641113,0.000000,1.000000,25.000000,,,,0.000000,2.000000,2.000000,0.000000,4.000000,2.000000,2.000000,0.000000,0.000000,4.000000,4.000000,4.000000,4.000000,4.000000,4.000000,0.000000,,,,,,,,,,,,,,,,,,,,,,,,,,,,
1732157177.481186,1732157177.482281,40.000000,0.000000,4295.641113,4294.871582,4314.871582,4294.358887,4273.974121,4282.051270,4335.769043,4398.205078,4310.384766,4302.051270,4474.230957,4513.846191,4385.000000,4433.077148,0.000000,1.000000,25.000000,,,,0.000000,2.000000,2.000000,0.000000,4.000000,2.000000,2.000000,0.000000,0.000000,4.000000,4.000000,4.000000,4.000000,4.000000,4.000000,0.000000,,,,,,,,,,,,,,,,,10.000000,0.000000,0.504261,0.485962,-0.542419,0.464050,0.988402,-0.026370,-0.054206,-35.601921,45.421146,31.011467
1732157177.488994,1732157177.490089,41.000000,0.000000,4296.282227,4299.230957,4314.230957,4294.230957,4277.179688,4291.025879,4333.846191,4397.948730,4307.692383,4300.512695,4472.307617,4511.025879,4386.025879,4430.256348,0.000000,1.000000,25.000000,,,,0.000000,2.000000,2.000000,0.000000,4.000000,2.000000,2.000000,0.000000,0.000000,4.000000,4.000000,4.000000,4.000000,4.000000,4.000000,0.000000,,,,,,,,,,,,,,,,,,,,,,,,,,,,
1732157177.496802,1732157177.498097,42.000000,0.000000,4292.051270,4302.563965,4316.025879,4292.051270,4268.974121,4288.846191,4330.384766,4398.077148,4308.717773,4307.179688,4472.692383,4508.461426,4391.922852,4429.230957,0.000000,1.000000,25.000000,,,,0.000000,2.000000,2.000000,0.000000,4.000000,2.000000,2.000000,0.000000,0.000000,4.000000,4.000000,4.000000,4.000000,4.000000,4.000000,0.000000,,,,,,,,,,,,,,,,,,,,,,,,,,,,
1732157177.504611,1732157177.505905,43.000000,0.000000,4290.384766,4308.205078,4316.153809,4292.051270,4267.307617,4285.256348,4331.794922,4397.948730,4312.692383,4310.897461,4486.025879,4510.256348,4397.948730,4431.410156,0.000000,1.000000,25.000000,,,,0.000000,2.000000,2.000000,0.000000,4.000000,2.000000,2.000000,0.000000,0.000000,4.000000,4.000000,4.000000,4.000000,4.000000,4.000000,0.000000,,,,,,,,,,,,,,,,,,,,,,,,,,,,
1732157177.512419,1732157177.513814,44.000000,0.000000,4291.153809,4307.051270,4316.025879,4289.102539,4269.871582,4294.358887,4331.410156,4397.692383,4315.512695,4311.538574,4488.846191,4509.358887,4393.205078,4430.897461,0.000000,1.000000,25.000000,,,,0.000000,2.000000,2.000000,0.000000,4.000000,2.000000,2.000000,0.000000,0.000000,4.000000,4.000000,4.000000,4.000000,4.000000,4.000000,0.000000,,,,,,,,,,,,,,,,,11.000000,0.000000,0.503848,0.485291,-0.543091,0.464417,0.986937,-0.038091,-0.066414,-35.535889,45.277798,30.809288
1732157177.520227,1732157177.521622,45.000000,0.000000,4285.641113,4298.077148,4315.512695,4279.871582,4271.153809,4298.717773,4330.641113,4398.205078,4321.282227,4317.179688,4477.692383,4506.025879,4385.128418,4427.563965,0.000000,1.000000,25.000000,,,,0.000000,2.000000,2.000000,0.000000,4.000000,2.000000,2.000000,0.000000,0.000000,4.000000,4.000000,4.000000,4.000000,4.000000,4.000000,0.000000,,,,,,,,,,,,,,,,,,,,,,,,,,,,
1732157177.528035,1732157177.529630,46.000000,0.000000,4278.077148,4298.077148,4315.128418,4278.461426,4272.436035,4290.128418,4330.384766,4398.205078,4318.974121,4315.384766,4472.563965,4507.436035,4381.538574,4426.794922,0.000000,1.000000,25.000000,,,,0.000000,2.000000,2.000000,0.000000,4.000000,2.000000,2.000000,0.000000,0.000000,4.000000,4.000000,4.000000,4.000000,4.000000,4.000000,0.000000,,,,,,,,,,,,,,,,,,,,,,,,,,,,
1732157177.535844,1732157177.537438,47.000000,0.000000,4281.794922,4307.051270,4314.358887,4286.794922,4267.307617,4287.179688,4327.051270,4397.563965,4313.846191,4311.282227,4474.615234,4510.512695,4380.256348,4429.743652,0.000000,1.000000,25.000000,,,,0.000000,2.000000,2.000000,0.000000,4.000000,2.000000,2.000000,0.000000,0.000000,4.000000,4.000000,4.000000,4.000000,4.000000,4.000000,0.000000,,,,,,,,,,,,,,,,,,,,,,,,,,,,
1732157177.543652,1732157177.545146,48.000000,0.000000,4291.794922,4308.589844,4314.102539,4285.512695,4264.871582,4290.641113,4324.743652,4398.461426,4312.820313,4315.384766,4478.077148,4506.025879,4383.846191,4431.410156,0.000000,1.000000,25.000000,,,,0.000000,2.000000,2.000000,0.000000,4.000000,2.000000,2.000000,0.000000,0.000000,4.000000,4.000000,4.000000,4.000000,4.000000,4.000000,0.000000,,,,,,,,,,,,,,,,,12.000000,0.000000,0.503795,0.484192,-0.544067,0.464478,0.971798,-0.035161,-0.056159,-35.492401,45.246681,31.118856
1732157177.551460,1732157177.552954,49.000000,0.000000,4292.820313,4309.230957,4314.102539,4280.000000,4273.077148,4290.641113,4325.641113,4398.589844,4303.077148,4308.974121,4477.692383,4504.230957,4384.358887,4428.717773,0.000000,1.000000,25.000000,,,,0.000000,2.000000,2.000000,0.000000,4.000000,2.000000,2.000000,0.000000,0.000000,4.000000,4.000000,4.000000,4.000000,4.000000,4.000000,0.000000,,,,,,,,,,,,,,,,,,,,,,,,,,,,
1732157177.559268,1732157177.560563,50.000000,0.000000,4288.461426,4316.794922,4314.615234,4285.384766,4276.922852,4287.179688,4327.436035,4396.538574,4296.538574,4298.461426,4473.589844,4507.051270,4380.897461,4427.307617,0.000000,1.000000,25.000000,,,,0.000000,2.000000,2.000000,0.000000,4.000000,2.000000,2.000000,0.000000,0.000000,4.000000,4.000000,4.000000,4.000000,4.000000,4.000000,0.000000,,,,,,,,,,,,,,,,,,,,,,,,,,,,
1732157177.567077,1732157177.568371,51.000000,0.000000,4287.948730,4318.333496,4315.897461,4292.179688,4284.358887,4279.871582,4328.077148,4397.820313,4302.179688,4299.871582,4474.102539,4504.487305,4380.769043,4430.641113,0.000000,1.000000,25.000000,,,,0.000000,2.000000,2.000000,0.000000,4.000000,2.000000,2.000000,0.000000,0.000000,4.000000,4.000000,4.000000,4.000000,4.000000,4.000000,0.000000,,,,,,,,,,,,,,,,,,,,,,,,,,,,
1732157177.574885,1732157177.576079,52.000000,0.000000,4291.922852,4321.410156,4315.897461,4296.666504,4299.743652,4282.436035,4325.769043,4399.615234,4302.563965,4300.641113,4473.077148,4500.641113,4373.717773,4431.410156,0.000000,1.000000,25.000000,,,,0.000000,2.000000,2.000000,0.000000,4.000000,2.000000,2.000000,0.000000,0.000000,4.000000,4.000000,4.000000,4.000000,4.000000,4.000000,0.000000,,,,,,,,,,,,,,,,,13.000000,0.000000,0.503895,0.484009,-0.544189,0.464417,0.987425,-0.033207,-0.051764,-35.423847,45.221478,31.252941
1732157177.582693,1732157177.583888,53.000000,0.000000,4296.282227,4333.205078,4317.179688,4303.974121,4285.000000,4288.974121,4326.282227,4397.051270,4299.487305,4294.615234,4469.615234,4503.589844,4365.128418,4429.102539,0.000000,1.000000,25.000000,,,,0.000000,2.000000,2.000000,0.000000,4.000000,2.000000,2.000000,0.000000,0.000000,4.000000,4.000000,4.000000,4.000000,4.000000,4.000000,0.000000,,,,,,,,,,,,,,,,,,,,,,,,,,,,
1732157177.590501,1732157177.591896,54.000000,0.000000,4296.025879,4336.153809,4317.820313,4305.512695,4262.051270,4285.128418,4331.153809,4396.538574,4306.538574,4293.333496,4471.410156,4506.410156,4366.153809,4428.717773,0.000000,1.000000,25.000000,,,,0.000000,2.000000,2.000000,0.000000,4.000000,2.000000,2.000000,0.000000,0.000000,4.000000,4.000000,4.000000,4.000000,4.000000,4.000000,0.000000,,,,,,,,,,,,,,,,,,,,,,,,,,,,
1732157177.598310,1732157177.599704,55.000000,0.000000,4293.589844,4329.230957,4316.538574,4296.153809,4272.307617,4281.794922,4331.025879,4399.358887,4312.820313,4304.358887,4474.871582,4505.512695,4369.230957,4430.128418,0.000000,1.000000,25.000000,,,,0.000000,2.000000,2.000000,0.000000,4.000000,2.000000,2.000000,0.000000,0.000000,4.000000,4.000000,4.000000,4.000000,4.000000,4.000000,0.000000,,,,,,,,,,,,,,,,,,,,,,,,,,,,
1732157177.606118,1732157177.607612,56.000000,0.000000,4295.384766,4329.615234,4316.282227,4296.025879,4284.615234,4287.436035,4330.512695,4399.358887,4311.794922,4313.846191,4475.384766,4508.717773,4368.974121,4431.538574,0.000000,1.000000,25.000000,,,,0.000000,2.000000,2.000000,0.000000,4.000000,2.000000,2.000000,0.000000,0.000000,4.000000,4.000000,4.000000,4.000000,4.000000,4.000000,0.000000,,,,,,,,,,,,,,,,,14.000000,0.000000,0.503846,0.484070,-0.544128,0.464478,0.987425,-0.033207,-0.051764,-35.406651,45.147732,30.856548
1732157177.613926,1732157177.615420,57.000000,0.000000,4297.820313,4336.153809,4317.051270,4311.025879,4281.153809,4289.615234,4335.641113,4398.589844,4311.153809,4305.641113,4465.000000,4511.794922,4363.589844,4429.230957,0.000000,1.000000,25.000000,,,,0.000000,2.000000,2.000000,0.000000,4.000000,2.000000,2.000000,0.000000,0.000000,4.000000,4.000000,4.000000,4.000000,4.000000,4.000000,0.000000,,,,,,,,,,,,,,,,,,,,,,,,,,,,
1732157177.621734,1732157177.623428,58.000000,0.000000,4293.589844,4335.128418,4316.153809,4313.589844,4285.256348,4283.974121,4334.358887,4398.461426,4305.512695,4290.512695,4455.128418,4503.333496,4352.051270,4426.666504,0.000000,1.000000,25.000000,,,,0.000000,2.000000,2.000000,0.000000,4.000000,2.000000,2.000000,0.000000,0.000000,4.000000,4.000000,4.000000,4.000000,4.000000,4.000000,0.000000,,,,,,,,,,,,,,,,,,,,,,,,,,,,
1732157177.629542,1732157177.631236,59.000000,0.000000,4289.871582,4330.384766,4317.307617,4297.820313,4288.589844,4280.256348,4326.282227,4397.820313,4302.948730,4296.666504,4464.358887,4497.307617,4347.692383,4429.358887,0.000000,1.000000,25.000000,,,,0.000000,2.000000,2.000000,0.000000,4.000000,2.000000,2.000000,0.000000,0.000000,4.000000,4.000000,4.000000,4.000000,4.000000,4.000000,0.000000,,,,,,,,,,,,,,,,,,,,,,,,,,,,
1732157177.637351,1732157177.639144,60.000000,0.000000,4293.717773,4329.487305,4318.589844,4298.461426,4282.051270,4280.384766,4325.256348,4398.205078,4311.794922,4311.282227,4478.077148,4499.871582,4353.205078,4431.410156,0.000000,1.000000,25.000000,,,,0.000000,2.000000,2.000000,0.000000,4.000000,2.000000,2.000000,0.000000,0.000000,4.000000,4.000000,4.000000,4.000000,4.000000,4.000000,0.000000,,,,,,,,,,,,,,,,,15.000000,0.000000,0.503391,0.484192,-0.544128,0.464844,0.977658,-0.018557,-0.054206,-35.354385,45.171329,30.860472
1732157177.645159,1732157177.646953,61.000000,0.000000,4296.410156,4334.358887,4315.000000,4316.153809,4293.333496,4282.563965,4328.333496,4398.461426,4310.512695,4304.358887,4474.743652,4496.025879,4349.358887,4430.384766,0.000000,1.000000,25.000000,,,,0.000000,2.000000,2.000000,0.000000,4.000000,2.000000,2.000000,0.000000,0.000000,4.000000,4.000000,4.000000,4.000000,4.000000,4.000000,0.000000,,,,,,,,,,,,,,,,,,,,,,,,,,,,
1732157177.652967,1732157177.654961,62.000000,0.000000,4292.692383,4339.615234,4315.000000,4316.153809,4308.205078,4282.436035,4326.922852,4397.179688,4292.563965,4289.230957,4469.871582,4489.871582,4340.769043,4435.256348,0.000000,1.000000,25.000000,,,,0.000000,2.000000,2.000000,0.000000,4.000000,2.000000,2.000000,0.000000,0.000000,4.000000,4.000000,4.000000,4.000000,4.000000,4.000000,0.000000,,,,,,,,,,,,,,,,,,,,,,,,,,,,
1732157177.660776,1732157177.662769,63.000000,0.000000,4290.256348,4340.512695,4319.743652,4309.487305,4291.922852,4281.538574,4323.717773,4397.307617,4290.769043,4290.384766,4473.077148,4497.820313,4341.538574,4439.743652,0.000000,1.000000,25.000000,,,,0.000000,2.000000,2.000000,0.000000,4.000000,2.000000,2.000000,0.000000,0.000000,4.000000,4.000000,4.000000,4.000000,4.000000,4.000000,0.000000,,,,,,,,,,,,,,,,,,,,,,,,,,,,
1732157177.668584,1732157177.670677,64.000000,0.000000,4293.974121,4350.897461,4318.205078,4320.897461,4276.153809,4286.410156,4324.743652,4399.358887,4306.025879,4299.102539,4474.102539,4508.077148,4342.563965,4435.256348,0.000000,1.000000,25.000000,,,,0.000000,2.000000,2.000000,0.000000,4.000000,2.000000,2.000000,0.000000,0.000000,4.000000,4.000000,4.000000,4.000000,4.000000,4.000000,0.000000,,,,,,,,,,,,,,,,,16.000000,0.000000,0.503061,0.484192,-0.544434,0.464844,0.980100,-0.007325,-0.059578,-35.292053,45.248775,30.863647
1732157177.676392,1732157177.678485,65.000000,0.000000,4296.666504,4364.615234,4314.615234,4328.077148,4285.256348,4288.205078,4328.717773,4400.512695,4307.179688,4296.666504,4472.692383,4506.666504,4340.512695,4433.205078,1588.000000,1.000000,25.000000,,,,0.000000,2.000000,2.000000,0.000000,4.000000,2.000000,2.000000,0.000000,0.000000,4.000000,4.000000,4.000000,4.000000,4.000000,4.000000,0.000000,,,,,,,,,,,,,,,,,,,,,,,,,,,,
1732157177.684200,1732157177.686493,66.000000,0.000000,4291.410156,4364.102539,4316.666504,4320.384766,4286.922852,4283.589844,4328.589844,4397.948730,4299.102539,4290.641113,4467.820313,4499.615234,4339.102539,4434.487305,1386.000000,1.000000,25.000000,,,,0.000000,2.000000,2.000000,0.000000,4.000000,2.000000,2.000000,0.000000,0.000000,4.000000,4.000000,4.000000,4.000000,4.000000,4.000000,0.000000,,,,,,,,,,,,,,,,,,,,,,,,,,,,
1732157177.692008,1732157177.694301,67.000000,0.000000,4288.846191,4355.769043,4318.589844,4316.922852,4283.846191,4279.102539,4325.000000,4396.153809,4305.512695,4296.153809,4466.666504,4493.205078,4337.051270,4431.153809,1394.000000,1.000000,25.000000,,,,0.000000,2.000000,2.000000,0.000000,4.000000,2.000000,2.000000,0.000000,0.000000,4.000000,4.000000,4.000000,4.000000,4.000000,4.000000,0.000000,,,,,,,,,,,,,,,,,,,,,,,,,,,,
1732157177.699817,1732157177.702010,68.000000,0.000000,4292.820313,4352.179688,4314.102539,4320.641113,4300.384766,4279.487305,4325.641113,4398.333496,4312.436035,4303.589844,4471.922852,4490.256348,4335.256348,4426.922852,1402.000000,1.000000,25.000000,,,,0.000000,2.000000,2.000000,0.000000,4.000000,2.000000,2.000000,0.000000,0.000000,4.000000,4.000000,4.000000,4.000000,4.000000,4.000000,0.000000,,,,,,,,,,,,,,,,,17.000000,0.000000,0.502973,0.484009,-0.544678,0.464844,0.987425,-0.024905,-0.059578,-35.288231,45.401508,30.877888
1732157177.707625,1732157177.709818,69.000000,0.000000,4296.282227,4354.615234,4312.692383,4325.897461,4301.666504,4282.179688,4328.077148,4398.461426,4303.846191,4298.846191,4468.589844,4490.128418,4332.307617,4428.461426,1239.000000,1.000000,25.000000,,,,0.000000,2.000000,2.000000,0.000000,4.000000,2.000000,2.000000,0.000000,0.000000,4.000000,4.000000,4.000000,4.000000,4.000000,4.000000,0.000000,,,,,,,,,,,,,,,,,,,,,,,,,,,,
1732157177.715433,1732157177.717426,70.000000,0.000000,4299.743652,4360.128418,4316.538574,4329.743652,4277.307617,4282.179688,4326.666504,4397.051270,4299.230957,4292.820313,4465.512695,4489.358887,4335.512695,4435.384766,0.000000,1.000000,25.000000,,,,0.000000,2.000000,2.000000,0.000000,4.000000,2.000000,2.000000,0.000000,0.000000,4.000000,4.000000,4.000000,4.000000,4.000000,4.000000,0.000000,,,,,,,,,,,,,,,,,,,,,,,,,,,,
1732157177.723241,1732157177.725235,71.000000,0.000000,4305.000000,4357.436035,4317.692383,4327.692383,4280.256348,4280.769043,4325.897461,4398.333496,4312.436035,4301.153809,4476.282227,4491.538574,4347.436035,4442.307617,0.000000,1.000000,25.000000,,,,0.000000,2.000000,2.000000,0.000000,4.000000,2.000000,2.000000,0.000000,0.000000,4.000000,4.000000,4.000000,4.000000,4.000000,4.000000,0.000000,,,,,,,,,,,,,,,,,,,,,,,,,,,,
1732157177.731050,1732157177.732943,72.000000,0.000000,4305.769043,4348.333496,4316.666504,4326.538574,4311.922852,4281.666504,4328.077148,4398.717773,4315.000000,4303.974121,4480.512695,4498.846191,4348.205078,4443.333496,1523.000000,1.000000,25.000000,,,,0.000000,2.000000,2.000000,0.000000,4.000000,2.000000,2.000000,0.000000,0.000000,4.000000,4.000000,4.000000,4.000000,4.000000,4.000000,0.000000,,,,,,,,,,,,,,,,,18.000000,0.000000,0.503066,0.483765,-0.544861,0.464783,0.983030,-0.017580,-0.060554,-35.423466,45.578556,31.122757
1732157177.738858,1732157177.740751,73.000000,0.000000,4301.922852,4347.692383,4317.563965,4324.230957,4312.692383,4283.846191,4327.051270,4397.948730,4298.077148,4292.436035,4471.922852,4505.897461,4335.384766,4442.820313,1663.000000,1.000000,25.000000,,,,0.000000,2.000000,2.000000,0.000000,4.000000,2.000000,2.000000,0.000000,0.000000,4.000000,4.000000,4.000000,4.000000,4.000000,4.000000,0.000000,,,,,,,,,,,,,,,,,,,,,,,,,,,,
1732157177.746666,1732157177.748359,74.000000,0.000000,4299.487305,4346.282227,4320.256348,4316.794922,4284.871582,4282.692383,4326.538574,4399.358887,4294.230957,4288.589844,4472.307617,4506.666504,4330.769043,4443.461426,1521.000000,1.000000,25.000000,,,,0.000000,2.000000,2.000000,0.000000,4.000000,2.000000,2.000000,0.000000,0.000000,4.000000,4.000000,4.000000,4.000000,4.000000,4.000000,0.000000,,,,,,,,,,,,,,,,,,,,,,,,,,,,
1732157177.754475,1732157177.756168,75.000000,0.000000,4302.179688,4338.846191,4318.333496,4316.153809,4281.025879,4282.179688,4330.897461,4399.230957,4305.000000,4300.769043,4479.743652,4510.897461,4336.282227,4445.641113,1556.000000,1.000000,25.000000,,,,0.000000,2.000000,2.000000,0.000000,4.000000,2.000000,2.000000,0.000000,0.000000,4.000000,4.000000,4.000000,4.000000,4.000000,4.000000,0.000000,,,,,,,,,,,,,,,,,,,,,,,,,,,,
1732157177.762283,1732157177.763876,76.000000,0.000000,4307.563965,4337.436035,4316.794922,4318.846191,4296.666504,4281.153809,4330.512695,4397.051270,4309.358887,4309.871582,4479.743652,4518.974121,4337.179688,4449.230957,1681.000000,1.000000,25.000000,,,,0.000000,2.000000,2.000000,0.000000,4.000000,2.000000,2.000000,0.000000,0.000000,4.000000,4.000000,4.000000,4.000000,4.000000,4.000000,0.000000,,,,,,,,,,,,,,,,,19.000000,0.000000,0.502573,0.483582,-0.545166,0.465149,0.977658,-0.023929,-0.055671,-35.489674,45.570297,31.089432
1732157177.770091,1732157177.771684,77.000000,0.000000,4303.589844,4333.333496,4319.615234,4311.153809,4296.922852,4279.615234,4326.282227,4397.307617,4308.717773,4302.051270,4473.974121,4510.128418,4329.487305,4441.153809,1668.000000,1.000000,25.000000,,,,0.000000,2.000000,2.000000,0.000000,4.000000,2.000000,2.000000,0.000000,0.000000,4.000000,4.000000,4.000000,4.000000,4.000000,4.000000,0.000000,,,,,,,,,,,,,,,,,,,,,,,,,,,,
1732157177.777899,1732157177.779293,78.000000,0.000000,4296.282227,4326.538574,4320.897461,4307.692383,4289.230957,4282.436035,4326.410156,4397.948730,4309.102539,4299.615234,4472.820313,4497.563965,4323.205078,4428.461426,1521.000000,1.000000,25.000000,,,,0.000000,2.000000,2.000000,0.000000,4.000000,2.000000,2.000000,0.000000,0.000000,4.000000,4.000000,4.000000,4.000000,4.000000,4.000000,0.000000,1.000000,0.000000,2.000000,2.000000,0.000000,4.000000,2.000000,2.000000,0.000000,0.000000,4.000000,4.000000,4.000000,4.000000,4.000000,4.000000,,,,,,,,,,,,
1732157177.785707,1732157177.787101,79.000000,0.000000,4297.563965,4325.512695,4318.717773,4310.384766,4303.974121,4286.410156,4327.948730,4397.436035,4313.077148,4312.692383,4478.589844,4497.948730,4327.692383,4429.230957,1556.000000,1.000000,25.000000,,,,0.000000,2.000000,2.000000,0.000000,4.000000,2.000000,2.000000,0.000000,0.000000,4.000000,4.000000,4.000000,4.000000,4.000000,4.000000,0.000000,,,,,,,,,,,,,,,,,,,,,,,,,,,,
1732157177.793516,1732157177.794809,80.000000,0.000000,4297.820313,4324.102539,4315.384766,4305.769043,4320.641113,4291.153809,4326.922852,4398.461426,4315.128418,4308.077148,4473.077148,4492.820313,4323.974121,4429.615234,1681.000000,1.000000,25.000000,,,,0.000000,2.000000,2.000000,0.000000,4.000000,2.000000,2.000000,0.000000,0.000000,4.000000,4.000000,4.000000,4.000000,4.000000,4.000000,0.000000,,,,,,,,,,,,,,,,,20.000000,0.000000,0.502590,0.483643,-0.545044,0.465210,0.989867,-0.004395,-0.055183,-35.409969,45.525272,30.945774
1732157177.801324,1732157177.802617,81.000000,0.000000,4295.641113,4322.051270,4315.384766,4307.051270,4308.461426,4296.025879,4329.487305,4400.000000,4308.974121,4291.666504,4463.717773,4484.871582,4314.871582,4422.948730,1668.000000,1.000000,25.000000,,,,0.000000,2.000000,2.000000,0.000000,4.000000,2.000000,2.000000,0.000000,0.000000,4.000000,4.000000,4.000000,4.000000,4.000000,4.000000,0.000000,,,,,,,,,,,,,,,,,,,,,,,,,,,,
1732157177.809132,1732157177.810226,82.000000,0.000000,4296.410156,4319.487305,4317.051270,4310.384766,4288.974121,4298.333496,4332.692383,4398.974121,4310.897461,4299.743652,4468.589844,4490.256348,4318.461426,4423.461426,1521.000000,1.000000,25.000000,,,,0.000000,2.000000,2.000000,0.000000,4.000000,2.000000,2.000000,0.000000,0.000000,4.000000,4.000000,4.000000,4.000000,4.000000,4.000000,0.000000,,,,,,,,,,,,,,,,,,,,,,,,,,,,
1732157177.816940,1732157177.818034,83.000000,0.000000,4296.794922,4312.563965,4319.358887,4302.692383,4289.871582,4297.436035,4331.794922,4396.794922,4324.102539,4315.384766,4475.384766,4493.846191,4322.179688,4428.717773,1556.000000,1.000000,25.000000,,,,0.000000,2.000000,2.000000,0.000000,4.000000,2.000000,2.000000,0.000000,0.000000,4.000000,4.000000,4.000000,4.000000,4.000000,4.000000,0.000000,,,,,,,,,,,,,,,,,,,,,,,,,,,,
1732157177.824749,1732157177.825942,84.000000,0.000000,4295.000000,4306.666504,4319.615234,4296.666504,4299.358887,4295.769043,4331.153809,4397.563965,4321.410156,4310.769043,4473.846191,4491.153809,4316.538574,4427.563965,1681.000000,1.000000,25.000000,,,,0.000000,2.000000,2.000000,0.000000,4.000000,2.000000,2.000000,0.000000,0.000000,4.000000,4.000000,4.000000,4.000000,4.000000,4.000000,0.000000,,,,,,,,,,,,,,,,,21.000000,0.000000,0.502590,0.483643,-0.545044,0.465210,0.978635,-0.026370,-0.069833,-35.390408,45.518806,30.904409
1732157177.832557,1732157177.833750,85.000000,0.000000,4292.436035,4303.077148,4318.717773,4297.307617,4296.282227,4294.358887,4331.410156,4399.358887,4308.077148,4301.025879,4472.436035,4499.230957,4317.436035,4424.358887,1668.000000,1.000000,25.000000,,,,0.000000,2.000000,2.000000,0.000000,4.000000,2.000000,2.000000,0.000000,0.000000,4.000000,4.000000,4.000000,4.000000,4.000000,4.000000,0.000000,,,,,,,,,,,,,,,,,,,,,,,,,,,,
1732157177.840365,1732157177.841758,86.000000,0.000000,4290.384766,4297.563965,4319.743652,4295.641113,4288.589844,4293.205078,4331.025879,4398.077148,4312.563965,4305.641113,4477.820313,4510.512695,4324.230957,4426.922852,1521.000000,1.000000,25.000000,,,,0.000000,2.000000,2.000000,0.000000,4.000000,2.000000,2.000000,0.000000,0.000000,4.000000,4.000000,4.000000,4.000000,4.000000,4.000000,0.000000,,,,,,,,,,,,,,,,,,,,,,,,,,,,
1732157177.848173,1732157177.849567,87.000000,0.000000,4290.897461,4293.589844,4316.922852,4293.333496,4296.922852,4295.256348,4330.769043,4397.051270,4321.025879,4312.179688,4478.717773,4508.589844,4320.512695,4427.051270,1556.000000,1.000000,25.000000,,,,0.000000,2.000000,2.000000,0.000000,4.000000,2.000000,2.000000,0.000000,0.000000,4.000000,4.000000,4.000000,4.000000,4.000000,4.000000,0.000000,,,,,,,,,,,,,,,,,,,,,,,,,,,,
1732157177.855982,1732157177.857275,88.000000,0.000000,4293.077148,4295.384766,4313.717773,4295.512695,4312.307617,4296.025879,4331.922852,4398.205078,4312.692383,4300.128418,4467.436035,4497.563965,4311.410156,4417.436035,1681.000000,1.000000,25.000000,,,,0.000000,2.000000,2.000000,0.000000,4.000000,2.000000,2.000000,0.000000,0.000000,4.000000,4.000000,4.000000,4.000000,4.000000,4.000000,0.000000,,,,,,,,,,,,,,,,,22.000000,0.000000,0.502496,0.483337,-0.545349,0.465271,0.986449,-0.018069,-0.065926,-35.429565,45.491898,31.162573
1732157177.863790,1732157177.865083,89.000000,0.000000,4294.230957,4297.179688,4314.230957,4299.615234,4305.641113,4296.794922,4334.358887,4399.102539,4311.153809,4292.436035,4463.333496,4496.922852,4308.974121,4413.717773,1668.000000,1.000000,25.000000,,,,0.000000,2.000000,2.000000,0.000000,4.000000,2.000000,2.000000,0.000000,0.000000,4.000000,4.000000,4.000000,4.000000,4.000000,4.000000,0.000000,,,,,,,,,,,,,,,,,,,,,,,,,,,,
1732157177.871598,1732157177.872691,90.000000,0.000000,4296.282227,4289.102539,4315.000000,4303.717773,4289.230957,4299.871582,4335.384766,4399.102539,4319.871582,4304.230957,4472.179688,4505.000000,4311.794922,4421.538574,1521.000000,1.000000,25.000000,,,,0.000000,2.000000,2.000000,0.000000,4.000000,2.000000,2.000000,0.000000,0.000000,4.000000,4.000000,4.000000,4.000000,4.000000,4.000000,0.000000,,,,,,,,,,,,,,,,,,,,,,,,,,,,
1732157177.879406,1732157177.880500,91.000000,0.000000,4295.512695,4261.282227,4315.128418,4299.743652,4293.205078,4301.410156,4334.358887,4399.230957,4322.436035,4307.820313,4473.077148,4505.641113,4309.615234,4423.205078,1556.000000,1.000000,25.000000,,,,0.000000,2.000000,2.000000,0.000000,4.000000,2.000000,2.000000,0.000000,0.000000,4.000000,4.000000,4.000000,4.000000,4.000000,4.000000,0.000000,,,,,,,,,,,,,,,,,,,,,,,,,,,,
1732157177.887215,1732157177.888208,92.000000,0.000000,4293.589844,4246.153809,4315.641113,4295.128418,4299.230957,4295.641113,4334.102539,4398.461426,4322.436035,4304.871582,4469.487305,4505.128418,4310.128418,4424.743652,1681.000000,1.000000,25.000000,,,,0.000000,2.000000,2.000000,0.000000,4.000000,2.000000,2.000000,0.000000,0.000000,4.000000,4.000000,4.000000,4.000000,4.000000,4.000000,0.000000,,,,,,,,,,,,,,,,,23.000000,0.000000,0.502587,0.482788,-0.545959,0.465027,0.982542,-0.024905,-0.072274,-35.589615,45.536770,31.250017
1732157177.895023,1732157177.896016,93.000000,0.000000,4298.333496,4256.282227,4317.179688,4298.974121,4294.487305,4292.307617,4334.102539,4397.563965,4319.102539,4312.179688,4476.922852,4512.436035,4315.897461,4434.871582,1668.000000,1.000000,25.000000,,,,0.000000,2.000000,2.000000,0.000000,4.000000,2.000000,2.000000,0.000000,0.000000,4.000000,4.000000,4.000000,4.000000,4.000000,4.000000,0.000000,,,,,,,,,,,,,,,,,,,,,,,,,,,,
1732157177.902831,1732157177.903625,94.000000,0.000000,4295.769043,4254.871582,4318.974121,4298.333496,4298.846191,4299.230957,4334.358887,4398.205078,4315.641113,4306.922852,4476.410156,4511.025879,4306.922852,4429.743652,1521.000000,1.000000,25.000000,,,,0.000000,2.000000,2.000000,0.000000,4.000000,2.000000,2.000000,0.000000,0.000000,4.000000,4.000000,4.000000,4.000000,4.000000,4.000000,0.000000,,,,,,,,,,,,,,,,,,,,,,,,,,,,
1732157177.910639,1732157177.911433,95.000000,0.000000,4285.512695,4244.615234,4319.358887,4293.333496,4306.153809,4299.487305,4334.743652,4397.692383,4314.358887,4293.077148,4468.846191,4501.538574,4301.666504,4421.025879,1556.000000,1.000000,25.000000,,,,0.000000,2.000000,2.000000,0.000000,4.000000,2.000000,2.000000,0.000000,0.000000,4.000000,4.000000,4.000000,4.000000,4.000000,4.000000,0.000000,,,,,,,,,,,,,,,,,,,,,,,,,,,,
1732157177.918448,1732157177.919341,96.000000,0.000000,4286.538574,4247.307617,4318.077148,4292.948730,4300.128418,4293.461426,4333.717773,4397.563965,4317.692383,4299.743652,4471.794922,4502.948730,4311.153809,4425.512695,1681.000000,1.000000,25.000000,,,,0.000000,2.000000,2.000000,0.000000,4.000000,2.000000,2.000000,0.000000,0.000000,4.000000,4.000000,4.000000,4.000000,4.000000,4.000000,0.000000,,,,,,,,,,,,,,,,,24.000000,0.000000,0.502654,0.482422,-0.546326,0.464905,0.964962,-0.027347,-0.067391,-35.677586,45.598118,31.220846
1732157177.926256,1732157177.927149,97.000000,0.000000,4289.487305,4247.948730,4319.230957,4293.717773,4291.282227,4295.128418,4333.077148,4399.102539,4324.615234,4311.025879,4475.000000,4507.820313,4311.282227,4424.615234,1668.000000,1.000000,25.000000,,,,0.000000,2.000000,2.000000,0.000000,4.000000,2.000000,2.000000,0.000000,0.000000,4.000000,4.000000,4.000000,4.000000,4.000000,4.000000,0.000000,,,,,,,,,,,,,,,,,,,,,,,,,,,,
1732157177.934064,1732157177.935157,98.000000,0.000000,4285.256348,4241.922852,4318.077148,4292.692383,4302.948730,4298.846191,4333.846191,4400.128418,4322.820313,4306.922852,4473.461426,4506.153809,4305.769043,4420.512695,1521.000000,1.000000,25.000000,,,,0.000000,2.000000,2.000000,0.000000,4.000000,2.000000,2.000000,0.000000,0.000000,4.000000,4.000000,4.000000,4.000000,4.000000,4.000000,0.000000,,,,,,,,,,,,,,,,,,,,,,,,,,,,
1732157177.941872,1732157177.942965,99.000000,0.000000,4286.794922,4247.179688,4315.897461,4295.512695,4323.205078,4296.922852,4334.743652,4399.871582,4312.179688,4296.153809,4470.000000,4503.333496,4309.230957,4422.692383,1556.000000,1.000000,25.000000,,,,0.000000,2.000000,2.000000,0.000000,4.000000,2.000000,2.000000,0.000000,0.000000,4.000000,4.000000,4.000000,4.000000,4.000000,4.000000,0.000000,,,,,,,,,,,,,,,,,,,,,,,,,,,,
1732157177.949680,1732157177.950873,100.000000,0.000000,4294.102539,4253.205078,4316.538574,4299.358887,4311.538574,4295.384766,4334.871582,4398.717773,4310.384766,4295.000000,4465.128418,4505.769043,4311.025879,4424.487305,1681.000000,1.000000,25.000000,,,,0.000000,2.000000,2.000000,0.000000,4.000000,2.000000,2.000000,0.000000,0.000000,4.000000,4.000000,4.000000,4.000000,4.000000,4.000000,0.000000,,,,,,,,,,,,,,,,,25.000000,0.000000,0.502654,0.482422,-0.546326,0.464905,0.964962,-0.027347,-0.067391,-35.628845,45.647808,31.197220
1732157177.957489,1732157177.958682,101.000000,0.000000,4294.743652,4249.871582,4316.153809,4302.051270,4287.179688,4297.692383,4335.000000,4399.358887,4316.794922,4303.205078,4468.077148,4508.589844,4308.461426,4425.384766,1668.000000,1.000000,25.000000,,,,0.000000,2.000000,2.000000,0.000000,4.000000,2.000000,2.000000,0.000000,0.000000,4.000000,4.000000,4.000000,4.000000,4.000000,4.000000,0.000000,,,,,,,,,,,,,,,,,,,,,,,,,,,,
1732157177.965297,1732157177.966290,102.000000,0.000000,4294.615234,4249.358887,4314.102539,4305.128418,4300.897461,4298.077148,4334.615234,4401.025879,4311.153809,4301.410156,4476.794922,4508.974121,4310.512695,4429.230957,1521.000000,1.000000,25.000000,,,,0.000000,2.000000,2.000000,0.000000,4.000000,2.000000,2.000000,0.000000,0.000000,4.000000,4.000000,4.000000,4.000000,4.000000,4.000000,0.000000,,,,,,,,,,,,,,,,,,,,,,,,,,,,
1732157177.973105,1732157177.974098,103.000000,0.000000,4298.974121,4250.641113,4314.871582,4302.692383,4321.922852,4296.666504,4333.717773,4399.871582,4307.692383,4294.615234,4469.743652,4506.922852,4310.641113,4430.000000,1556.000000,1.000000,25.000000,,,,0.000000,2.000000,2.000000,0.000000,4.000000,2.000000,2.000000,0.000000,0.000000,4.000000,4.000000,4.000000,4.000000,4.000000,4.000000,0.000000,,,,,,,,,,,,,,,,,,,,,,,,,,,,
1732157177.980914,1732157177.982006,104.000000,0.000000,4297.051270,4248.461426,4314.871582,4295.512695,4304.743652,4293.589844,4332.179688,4397.051270,4315.256348,4306.538574,4461.025879,4507.692383,4310.000000,4428.717773,1681.000000,1.000000,25.000000,,,,0.000000,2.000000,2.000000,0.000000,4.000000,2.000000,2.000000,0.000000,0.000000,4.000000,4.000000,4.000000,4.000000,4.000000,4.000000,0.000000,,,,,,,,,,,,,,,,,26.000000,0.000000,0.502003,0.482422,-0.546509,0.465393,0.988402,-0.019045,-0.070809,-35.607697,45.644726,30.931414
1732157177.988722,1732157177.989815,105.000000,0.000000,4291.666504,4245.897461,4313.589844,4292.948730,4290.897461,4295.769043,4332.563965,4399.102539,4316.922852,4315.512695,4473.077148,4512.051270,4311.794922,4429.487305,1668.000000,1.000000,25.000000,,,,0.000000,2.000000,2.000000,0.000000,4.000000,2.000000,2.000000,0.000000,0.000000,4.000000,4.000000,4.000000,4.000000,4.000000,4.000000,0.000000,,,,,,,,,,,,,,,,,,,,,,,,,,,,
1732157177.996530,1732157177.997823,106.000000,0.000000,4293.846191,4246.153809,4315.897461,4294.871582,4308.974121,4296.153809,4336.025879,4403.461426,4322.692383,4302.051270,4481.794922,4513.333496,4312.692383,4430.256348,1521.000000,1.000000,25.000000,,,,0.000000,2.000000,2.000000,0.000000,4.000000,2.000000,2.000000,0.000000,0.000000,4.000000,4.000000,4.000000,4.000000,4.000000,4.000000,0.000000,,,,,,,,,,,,,,,,,,,,,,,,,,,,
1732157178.004338,1732157178.005631,107.000000,0.000000,4295.897461,4245.769043,4318.077148,4294.743652,4317.307617,4286.794922,4334.102539,4402.051270,4329.102539,4296.025879,4470.128418,4504.743652,4311.538574,4428.846191,1556.000000,1.000000,25.000000,,,,0.000000,2.000000,2.000000,0.000000,4.000000,2.000000,2.000000,0.000000,0.000000,4.000000,4.000000,4.000000,4.000000,4.000000,4.000000,0.000000,,,,,,,,,,,,,,,,,,,,,,,,,,,,
1732157178.012147,1732157178.013539,108.000000,0.000000,4288.461426,4247.307617,4315.512695,4294.871582,4318.846191,4287.307617,4329.358887,4395.256348,4317.948730,4304.487305,4463.974121,4494.615234,4307.436035,4422.051270,1681.000000,1.000000,25.000000,,,,0.000000,2.000000,2.000000,0.000000,4.000000,2.000000,2.000000,0.000000,0.000000,4.000000,4.000000,4.000000,4.000000,4.000000,4.000000,0.000000,,,,,,,,,,,,,,,,,27.000000,0.000000,0.501602,0.482544,-0.546509,0.465698,0.975705,-0.044439,-0.067391,-35.562237,45.488895,31.044445
1732157178.019955,1732157178.021347,109.000000,0.000000,4279.230957,4247.307617,4313.589844,4295.641113,4338.461426,4296.538574,4331.025879,4395.512695,4308.589844,4289.615234,4464.743652,4497.820313,4305.897461,4415.000000,1668.000000,1.000000,25.000000,,,,0.000000,2.000000,2.000000,0.000000,4.000000,2.000000,2.000000,0.000000,0.000000,4.000000,4.000000,4.000000,4.000000,4.000000,4.000000,0.000000,,,,,,,,,,,,,,,,,,,,,,,,,,,,
1732157178.027763,1732157178.029355,110.000000,0.000000,4279.487305,4241.025879,4316.153809,4295.128418,4338.461426,4299.743652,4333.589844,4402.051270,4315.769043,4272.948730,4459.871582,4507.436035,4310.769043,4414.871582,1521.000000,1.000000,25.000000,,,,0.000000,2.000000,2.000000,0.000000,4.000000,2.000000,2.000000,0.000000,0.000000,4.000000,4.000000,4.000000,4.000000,4.000000,4.000000,0.000000,,,,,,,,,,,,,,,,,,,,,,,,,,,,
1732157178.035571,1732157178.037163,111.000000,0.000000,4286.153809,4238.205078,4315.000000,4295.000000,4309.871582,4300.641113,4333.333496,4401.025879,4318.846191,4287.563965,4466.538574,4508.846191,4316.282227,4418.974121,1556.000000,1.000000,25.000000,,,,0.000000,2.000000,2.000000,0.000000,4.000000,2.000000,2.000000,0.000000,0.000000,4.000000,4.000000,4.000000,4.000000,4.000000,4.000000,0.000000,,,,,,,,,,,,,,,,,,,,,,,,,,,,
1732157178.043379,1732157178.045071,112.000000,0.000000,4287.051270,4238.205078,4311.410156,4293.846191,4309.871582,4302.692383,4331.153809,4396.794922,4312.436035,4302.051270,4477.307617,4505.128418,4317.563965,4415.897461,1681.000000,1.000000,25.000000,,,,0.000000,2.000000,2.000000,0.000000,4.000000,2.000000,2.000000,0.000000,0.000000,4.000000,4.000000,4.000000,4.000000,4.000000,4.000000,0.000000,,,,,,,,,,,,,,,,,28.000000,0.000000,0.501252,0.482544,-0.546570,0.466003,0.975705,-0.044439,-0.067391,-35.613743,45.487671,30.869335
1732157178.051188,1732157178.052880,113.000000,0.000000,4281.922852,4237.436035,4314.615234,4293.974121,4333.461426,4293.205078,4329.487305,4398.846191,4313.717773,4297.692383,4475.384766,4501.538574,4319.358887,4410.128418,1668.000000,1.000000,25.000000,,,,0.000000,2.000000,2.000000,0.000000,4.000000,2.000000,2.000000,0.000000,0.000000,4.000000,4.000000,4.000000,4.000000,4.000000,4.000000,0.000000,,,,,,,,,,,,,,,,,,,,,,,,,,,,
1732157178.058996,1732157178.060888,114.000000,0.000000,4279.743652,4243.205078,4316.794922,4296.153809,4324.743652,4287.692383,4333.077148,4400.897461,4312.563965,4295.769043,4471.538574,4498.717773,4322.179688,4412.692383,1521.000000,1.000000,25.000000,,,,0.000000,2.000000,2.000000,0.000000,4.000000,2.000000,2.000000,0.000000,0.000000,4.000000,4.000000,4.000000,4.000000,4.000000,4.000000,0.000000,,,,,,,,,,,,,,,,,,,,,,,,,,,,
1732157178.066804,1732157178.068696,115.000000,0.000000,4281.922852,4248.589844,4315.384766,4297.436035,4303.205078,4301.282227,4337.051270,4398.717773,4307.307617,4298.333496,4466.282227,4495.128418,4316.922852,4408.077148,1556.000000,1.000000,25.000000,,,,0.000000,2.000000,2.000000,0.000000,4.000000,2.000000,2.000000,0.000000,0.000000,4.000000,4.000000,4.000000,4.000000,4.000000,4.000000,0.000000,,,,,,,,,,,,,,,,,,,,,,,,,,,,
1732157178.074613,1732157178.076604,116.000000,0.000000,4282.179688,4245.897461,4316.666504,4295.897461,4305.256348,4305.512695,4332.436035,4398.717773,4311.666504,4300.128418,4462.948730,4491.153809,4318.846191,4398.589844,1681.000000,1.000000,25.000000,,,,0.000000,2.000000,2.000000,0.000000,4.000000,2.000000,2.000000,0.000000,0.000000,4.000000,4.000000,4.000000,4.000000,4.000000,4.000000,0.000000,,,,,,,,,,,,,,,,,29.000000,0.000000,0.500321,0.482239,-0.547119,0.466675,0.976682,-0.042486,-0.065438,-35.678799,45.378345,30.865828
1732157178.082421,1732157178.084412,117.000000,0.000000,4279.743652,4244.743652,4316.153809,4295.641113,4305.000000,4295.512695,4330.769043,4400.000000,4309.615234,4302.692383,4471.794922,4489.871582,4332.179688,4405.256348,1668.000000,1.000000,25.000000,,,,0.000000,2.000000,2.000000,0.000000,4.000000,2.000000,2.000000,0.000000,0.000000,4.000000,4.000000,4.000000,4.000000,4.000000,4.000000,0.000000,,,,,,,,,,,,,,,,,,,,,,,,,,,,
1732157178.090229,1732157178.092021,118.000000,0.000000,4281.410156,4246.666504,4313.461426,4296.282227,4301.538574,4293.846191,4333.589844,4397.436035,4295.897461,4298.333496,4474.358887,4495.384766,4327.820313,4410.641113,1521.000000,1.000000,25.000000,,,,0.000000,2.000000,2.000000,0.000000,4.000000,2.000000,2.000000,0.000000,0.000000,4.000000,4.000000,4.000000,4.000000,4.000000,4.000000,0.000000,,,,,,,,,,,,,,,,,,,,,,,,,,,,
1732157178.098037,1732157178.099829,119.000000,0.000000,4287.051270,4246.794922,4315.000000,4294.743652,4316.282227,4297.436035,4331.153809,4397.051270,4295.641113,4293.333496,4461.538574,4495.128418,4312.051270,4399.230957,1556.000000,1.000000,25.000000,,,,0.000000,2.000000,2.000000,0.000000,4.000000,2.000000,2.000000,0.000000,0.000000,4.000000,4.000000,4.000000,4.000000,4.000000,4.000000,0.000000,,,,,,,,,,,,,,,,,,,,,,,,,,,,
1732157178.105845,1732157178.107537,120.000000,0.000000,4287.820313,4243.461426,4316.666504,4294.230957,4317.948730,4293.077148,4331.282227,4398.974121,4308.589844,4298.205078,4462.692383,4492.436035,4317.179688,4398.077148,1681.000000,1.000000,25.000000,,,,0.000000,2.000000,2.000000,0.000000,4.000000,2.000000,2.000000,0.000000,0.000000,4.000000,4.000000,4.000000,4.000000,4.000000,4.000000,0.000000,,,,,,,,,,,,,,,,,30.000000,0.000000,0.500405,0.481934,-0.547363,0.466614,0.963985,-0.025394,-0.073739,-35.514828,45.373127,30.996321
1732157178.113654,1732157178.115345,121.000000,0.000000,4282.051270,4238.205078,4315.128418,4295.897461,4290.512695,4292.692383,4332.563965,4399.615234,4312.307617,4299.871582,4474.743652,4501.794922,4332.179688,4409.743652,1668.000000,1.000000,25.000000,,,,0.000000,2.000000,2.000000,0.000000,4.000000,2.000000,2.000000,0.000000,0.000000,4.000000,4.000000,4.000000,4.000000,4.000000,4.000000,0.000000,,,,,,,,,,,,,,,,,,,,,,,,,,,,
1732157178.121462,1732157178.122954,122.000000,0.000000,4284.102539,4240.769043,4315.384766,4296.538574,4285.512695,4295.128418,4331.410156,4398.717773,4310.128418,4296.794922,4475.897461,4508.717773,4328.717773,4412.692383,1521.000000,1.000000,25.000000,,,,0.000000,2.000000,2.000000,0.000000,4.000000,2.000000,2.000000,0.000000,0.000000,4.000000,4.000000,4.000000,4.000000,4.000000,4.000000,0.000000,,,,,,,,,,,,,,,,,,,,,,,,,,,,
1732157178.129270,1732157178.130762,123.000000,0.000000,4290.256348,4247.692383,4316.025879,4296.153809,4302.051270,4288.333496,4333.589844,4398.717773,4306.922852,4293.077148,4468.846191,4504.615234,4317.692383,4409.487305,1556.000000,1.000000,25.000000,,,,0.000000,2.000000,2.000000,0.000000,4.000000,2.000000,2.000000,0.000000,0.000000,4.000000,4.000000,4.000000,4.000000,4.000000,4.000000,0.000000,,,,,,,,,,,,,,,,,,,,,,,,,,,,
1732157178.137078,1732157178.138470,124.000000,0.000000,4285.769043,4248.974121,4314.487305,4299.102539,4296.666504,4290.769043,4335.897461,4398.717773,4302.436035,4287.307617,4466.025879,4505.769043,4317.051270,4413.974121,1681.000000,1.000000,25.000000,,,,0.000000,2.000000,2.000000,0.000000,4.000000,2.000000,2.000000,0.000000,0.000000,4.000000,4.000000,4.000000,4.000000,4.000000,4.000000,0.000000,,,,,,,,,,,,,,,,,31.000000,0.000000,0.500338,0.481934,-0.547424,0.466614,0.983518,-0.020510,-0.062508,-35.575344,45.523899,31.028687
1732157178.144887,1732157178.146278,125.000000,0.000000,4279.358887,4244.358887,4314.230957,4294.230957,4295.897461,4297.436035,4333.717773,4398.205078,4298.974121,4283.077148,4470.128418,4507.436035,4324.358887,4415.000000,1668.000000,1.000000,25.000000,,,,0.000000,2.000000,2.000000,0.000000,4.000000,2.000000,2.000000,0.000000,0.000000,4.000000,4.000000,4.000000,4.000000,4.000000,4.000000,0.000000,,,,,,,,,,,,,,,,,,,,,,,,,,,,
1732157178.152695,1732157178.153887,126.000000,0.000000,4279.102539,4237.307617,4314.358887,4283.717773,4310.897461,4287.051270,4333.974121,4398.717773,4297.948730,4285.384766,4474.230957,4496.410156,4328.846191,4406.666504,1521.000000,1.000000,25.000000,,,,0.000000,2.000000,2.000000,0.000000,4.000000,2.000000,2.000000,0.000000,0.000000,4.000000,4.000000,4.000000,4.000000,4.000000,4.000000,0.000000,,,,,,,,,,,,,,,,,,,,,,,,,,,,
1732157178.160503,1732157178.161695,127.000000,0.000000,4278.589844,4235.000000,4314.358887,4286.666504,4300.256348,4278.077148,4335.256348,4399.230957,4303.333496,4294.230957,4473.974121,4490.897461,4324.358887,4406.153809,25.000000,1.000000,25.000000,,,,0.000000,2.000000,2.000000,0.000000,4.000000,2.000000,2.000000,0.000000,0.000000,4.000000,4.000000,4.000000,4.000000,4.000000,4.000000,0.000000,,,,,,,,,,,,,,,,,,,,,,,,,,,,
1732157178.168311,1732157178.169403,0.000000,0.000000,4279.102539,4243.589844,4314.358887,4297.179688,4278.205078,4288.846191,4333.205078,4398.974121,4306.025879,4294.871582,4472.820313,4497.051270,4322.307617,4415.128418,0.000000,1.000000,25.000000,,,,0.000000,2.000000,2.000000,0.000000,4.000000,2.000000,2.000000,0.000000,0.000000,4.000000,4.000000,4.000000,4.000000,4.000000,4.000000,0.000000,,,,,,,,,,,,,,,,,0.000000,0.000000,0.500222,0.481995,-0.547424,0.466675,0.979123,-0.023440,-0.068856,-35.814362,45.202694,30.928236
1732157178.176120,1732157178.177212,1.000000,0.000000,4282.948730,4248.717773,4314.871582,4299.102539,4291.794922,4297.692383,4333.589844,4398.974121,4298.846191,4285.384766,4473.717773,4500.897461,4326.282227,4416.794922,1576.000000,1.000000,25.000000,,,,0.000000,2.000000,2.000000,0.000000,4.000000,2.000000,2.000000,0.000000,0.000000,4.000000,4.000000,4.000000,4.000000,4.000000,4.000000,0.000000,,,,,,,,,,,,,,,,,,,,,,,,,,,,
