title:4two, start timestamp:1732157284.680612, stop timestamp:1732157324.908687, headset type:EPOCX, headset serial:E5020C3A, headset firmware:730, channels:67, sampling rate:eeg_128;mot_32, samples:5153      , version:2.2, 
Timestamp,OriginalTimestamp,EEG.Counter,EEG.Interpolated,EEG.AF3,EEG.F7,EEG.F3,EEG.FC5,EEG.T7,EEG.P7,EEG.O1,EEG.O2,EEG.P8,EEG.T8,EEG.FC6,EEG.F4,EEG.F8,EEG.AF4,EEG.RawCq,EEG.Battery,EEG.BatteryPercent,MarkerIndex,MarkerType,MarkerValueInt,EEG.MarkerHardware,CQ.AF3,CQ.F7,CQ.F3,CQ.FC5,CQ.T7,CQ.P7,CQ.O1,CQ.O2,CQ.P8,CQ.T8,CQ.FC6,CQ.F4,CQ.F8,CQ.AF4,CQ.Overall,EQ.SampleRateQuality,EQ.OVERALL,EQ.AF3,EQ.F7,EQ.F3,EQ.FC5,EQ.T7,EQ.P7,EQ.O1,EQ.O2,EQ.P8,EQ.T8,EQ.FC6,EQ.F4,EQ.F8,EQ.AF4,MOT.CounterMems,MOT.InterpolatedMems,MOT.Q0,MOT.Q1,MOT.Q2,MOT.Q3,MOT.AccX,MOT.AccY,MOT.AccZ,MOT.MagX,MOT.MagY,MOT.MagZ
1732157284.680612,1732157284.682773,73.000000,0.000000,4289.871582,4265.128418,4315.256348,4293.333496,4277.948730,4282.051270,4333.846191,4401.282227,4297.563965,4281.794922,4475.641113,4504.230957,4344.230957,4415.128418,1671.000000,1.000000,25.000000,,,,0.000000,2.000000,2.000000,0.000000,4.000000,2.000000,2.000000,0.000000,0.000000,4.000000,4.000000,4.000000,4.000000,4.000000,4.000000,0.000000,,,,,,,,,,,,,,,,,,,,,,,,,,,,
1732157284.688420,1732157284.690781,74.000000,0.000000,4289.102539,4270.000000,4313.333496,4295.897461,4280.000000,4284.102539,4335.384766,4400.384766,4298.205078,4280.000000,4475.000000,4508.717773,4347.179688,4417.820313,1536.000000,1.000000,25.000000,,,,0.000000,2.000000,2.000000,0.000000,4.000000,2.000000,2.000000,0.000000,0.000000,4.000000,4.000000,4.000000,4.000000,4.000000,4.000000,0.000000,,,,,,,,,,,,,,,,,,,,,,,,,,,,
1732157284.696229,1732157284.698590,75.000000,0.000000,4290.512695,4268.461426,4313.333496,4297.051270,4293.461426,4280.641113,4332.179688,4396.922852,4294.615234,4282.051270,4473.846191,4508.846191,4349.487305,4415.512695,1566.000000,1.000000,25.000000,,,,0.000000,2.000000,2.000000,0.000000,4.000000,2.000000,2.000000,0.000000,0.000000,4.000000,4.000000,4.000000,4.000000,4.000000,4.000000,0.000000,,,,,,,,,,,,,,,,,,,,,,,,,,,,
1732157284.704037,1732157284.706498,76.000000,0.000000,4293.205078,4270.512695,4314.871582,4295.512695,4296.282227,4281.538574,4334.615234,4397.307617,4294.871582,4282.179688,4472.948730,4506.025879,4349.487305,4417.692383,1688.000000,1.000000,25.000000,,,,0.000000,2.000000,2.000000,0.000000,4.000000,2.000000,2.000000,0.000000,0.000000,4.000000,4.000000,4.000000,4.000000,4.000000,4.000000,0.000000,,,,,,,,,,,,,,,,,19.000000,0.000000,0.524807,0.496826,-0.525513,0.448975,0.979612,0.034184,-0.037602,-34.667088,45.850922,31.268675
1732157284.711845,1732157284.714306,77.000000,0.000000,4296.922852,4274.743652,4315.000000,4296.538574,4277.948730,4290.384766,4335.512695,4398.461426,4299.230957,4281.538574,4475.897461,4505.000000,4351.538574,4425.128418,1666.000000,1.000000,25.000000,,,,0.000000,2.000000,2.000000,0.000000,4.000000,2.000000,2.000000,0.000000,0.000000,4.000000,4.000000,4.000000,4.000000,4.000000,4.000000,0.000000,,,,,,,,,,,,,,,,,,,,,,,,,,,,
1732157284.719653,1732157284.722314,78.000000,0.000000,4296.538574,4271.410156,4315.769043,4295.641113,4268.846191,4289.743652,4329.743652,4398.205078,4300.641113,4284.615234,4476.922852,4506.666504,4347.820313,4425.769043,1536.000000,1.000000,25.000000,,,,0.000000,2.000000,2.000000,0.000000,4.000000,2.000000,2.000000,0.000000,0.000000,4.000000,4.000000,4.000000,4.000000,4.000000,4.000000,0.000000,1.000000,0.000000,2.000000,2.000000,0.000000,4.000000,2.000000,1.000000,0.000000,0.000000,4.000000,4.000000,4.000000,4.000000,4.000000,4.000000,,,,,,,,,,,,
1732157284.727461,1732157284.730122,79.000000,0.000000,4294.230957,4272.051270,4315.256348,4294.743652,4278.846191,4281.153809,4331.410156,4398.589844,4297.179688,4283.461426,4472.820313,4508.589844,4342.307617,4418.974121,1566.000000,1.000000,25.000000,,,,0.000000,2.000000,2.000000,0.000000,4.000000,2.000000,2.000000,0.000000,0.000000,4.000000,4.000000,4.000000,4.000000,4.000000,4.000000,0.000000,,,,,,,,,,,,,,,,,,,,,,,,,,,,
1732157284.735270,1732157284.737830,80.000000,0.000000,4296.922852,4273.333496,4313.205078,4296.538574,4280.000000,4280.384766,4336.153809,4396.922852,4297.179688,4282.179688,4473.077148,4503.589844,4348.077148,4414.487305,1688.000000,1.000000,25.000000,,,,0.000000,2.000000,2.000000,0.000000,4.000000,2.000000,2.000000,0.000000,0.000000,4.000000,4.000000,4.000000,4.000000,4.000000,4.000000,0.000000,,,,,,,,,,,,,,,,,20.000000,0.000000,0.524964,0.497681,-0.524963,0.448486,0.967403,0.064461,-0.046881,-34.750343,45.980915,31.009293
1732157284.743078,1732157284.745639,81.000000,0.000000,4294.743652,4268.333496,4314.615234,4296.794922,4275.000000,4282.692383,4333.974121,4395.897461,4308.846191,4289.743652,4476.153809,4495.897461,4350.769043,4413.205078,1666.000000,1.000000,25.000000,,,,0.000000,2.000000,2.000000,0.000000,4.000000,2.000000,2.000000,0.000000,0.000000,4.000000,4.000000,4.000000,4.000000,4.000000,4.000000,0.000000,,,,,,,,,,,,,,,,,,,,,,,,,,,,
1732157284.750886,1732157284.753647,82.000000,0.000000,4288.333496,4272.179688,4317.563965,4294.358887,4280.256348,4280.512695,4332.563965,4398.205078,4313.846191,4293.077148,4474.615234,4494.230957,4344.230957,4412.179688,1536.000000,1.000000,25.000000,,,,0.000000,2.000000,2.000000,0.000000,4.000000,2.000000,2.000000,0.000000,0.000000,4.000000,4.000000,4.000000,4.000000,4.000000,4.000000,0.000000,,,,,,,,,,,,,,,,,,,,,,,,,,,,
1732157284.758695,1732157284.761455,83.000000,0.000000,4290.641113,4281.794922,4316.794922,4294.358887,4280.384766,4280.000000,4334.871582,4397.948730,4298.205078,4282.563965,4472.051270,4493.974121,4342.563965,4411.538574,1566.000000,1.000000,25.000000,,,,0.000000,2.000000,2.000000,0.000000,4.000000,2.000000,2.000000,0.000000,0.000000,4.000000,4.000000,4.000000,4.000000,4.000000,4.000000,0.000000,,,,,,,,,,,,,,,,,,,,,,,,,,,,
1732157284.766503,1732157284.769363,84.000000,0.000000,4294.871582,4278.846191,4313.846191,4296.922852,4278.717773,4279.743652,4334.487305,4397.692383,4286.666504,4275.769043,4471.666504,4495.512695,4344.230957,4410.512695,1688.000000,1.000000,25.000000,,,,0.000000,2.000000,2.000000,0.000000,4.000000,2.000000,2.000000,0.000000,0.000000,4.000000,4.000000,4.000000,4.000000,4.000000,4.000000,0.000000,,,,,,,,,,,,,,,,,21.000000,0.000000,0.525601,0.498596,-0.523926,0.447937,0.966915,0.083506,-0.043462,-35.392776,103.351204,31.370861
1732157284.774311,1732157284.777171,85.000000,0.000000,4293.077148,4276.410156,4314.230957,4296.282227,4292.051270,4279.102539,4332.307617,4399.615234,4294.102539,4279.487305,4471.025879,4499.871582,4345.897461,4411.922852,1666.000000,1.000000,25.000000,,,,0.000000,2.000000,2.000000,0.000000,4.000000,2.000000,2.000000,0.000000,0.000000,4.000000,4.000000,4.000000,4.000000,4.000000,4.000000,0.000000,,,,,,,,,,,,,,,,,,,,,,,,,,,,
1732157284.782119,1732157284.785179,86.000000,0.000000,4292.948730,4280.641113,4314.487305,4297.820313,4296.666504,4281.410156,4332.948730,4399.487305,4296.410156,4281.666504,4474.230957,4500.769043,4349.487305,4412.051270,1536.000000,1.000000,25.000000,,,,0.000000,2.000000,2.000000,0.000000,4.000000,2.000000,2.000000,0.000000,0.000000,4.000000,4.000000,4.000000,4.000000,4.000000,4.000000,0.000000,,,,,,,,,,,,,,,,,,,,,,,,,,,,
1732157284.789927,1732157284.792987,87.000000,0.000000,4296.410156,4280.256348,4312.820313,4302.307617,4279.743652,4281.922852,4334.102539,4398.333496,4287.820313,4279.102539,4476.153809,4502.307617,4351.282227,4411.666504,1566.000000,1.000000,25.000000,,,,0.000000,2.000000,2.000000,0.000000,4.000000,2.000000,2.000000,0.000000,0.000000,4.000000,4.000000,4.000000,4.000000,4.000000,4.000000,0.000000,,,,,,,,,,,,,,,,,,,,,,,,,,,,
1732157284.797736,1732157284.800896,88.000000,0.000000,4297.179688,4279.230957,4314.102539,4305.641113,4270.769043,4281.666504,4335.128418,4398.974121,4289.871582,4277.051270,4471.282227,4508.205078,4349.230957,4414.743652,1688.000000,1.000000,25.000000,,,,0.000000,2.000000,2.000000,0.000000,4.000000,2.000000,2.000000,0.000000,0.000000,4.000000,4.000000,4.000000,4.000000,4.000000,4.000000,0.000000,,,,,,,,,,,,,,,,,22.000000,0.000000,0.526117,0.499268,-0.523132,0.447510,0.982053,0.087901,-0.038091,-35.946484,149.787811,31.580397
1732157284.805544,1732157284.808704,89.000000,0.000000,4294.871582,4279.615234,4314.743652,4305.256348,4280.256348,4282.051270,4335.897461,4398.589844,4296.410156,4277.948730,4470.769043,4502.692383,4347.692383,4411.153809,1666.000000,1.000000,25.000000,,,,0.000000,2.000000,2.000000,0.000000,4.000000,2.000000,2.000000,0.000000,0.000000,4.000000,4.000000,4.000000,4.000000,4.000000,4.000000,0.000000,,,,,,,,,,,,,,,,,,,,,,,,,,,,
1732157284.813352,1732157284.816512,90.000000,0.000000,4294.358887,4280.128418,4314.358887,4303.077148,4285.512695,4281.025879,4331.666504,4397.692383,4296.282227,4281.666504,4475.384766,4492.563965,4348.974121,4403.589844,1536.000000,1.000000,25.000000,,,,0.000000,2.000000,2.000000,0.000000,4.000000,2.000000,2.000000,0.000000,0.000000,4.000000,4.000000,4.000000,4.000000,4.000000,4.000000,0.000000,,,,,,,,,,,,,,,,,,,,,,,,,,,,
1732157284.821160,1732157284.824320,91.000000,0.000000,4294.615234,4280.000000,4315.000000,4303.717773,4278.077148,4279.487305,4328.205078,4397.948730,4296.666504,4283.461426,4477.436035,4499.487305,4351.538574,4406.794922,1566.000000,1.000000,25.000000,,,,0.000000,2.000000,2.000000,0.000000,4.000000,2.000000,2.000000,0.000000,0.000000,4.000000,4.000000,4.000000,4.000000,4.000000,4.000000,0.000000,,,,,,,,,,,,,,,,,,,,,,,,,,,,
1732157284.828969,1732157284.832128,92.000000,0.000000,4293.974121,4280.256348,4314.230957,4303.846191,4277.179688,4279.230957,4330.256348,4397.307617,4298.717773,4283.333496,4477.179688,4510.000000,4352.692383,4414.230957,1688.000000,1.000000,25.000000,,,,0.000000,2.000000,2.000000,0.000000,4.000000,2.000000,2.000000,0.000000,0.000000,4.000000,4.000000,4.000000,4.000000,4.000000,4.000000,0.000000,,,,,,,,,,,,,,,,,23.000000,0.000000,0.526117,0.499268,-0.523132,0.447510,0.989867,0.089855,-0.033207,-35.554985,129.996460,31.480122
1732157284.836777,1732157284.839937,93.000000,0.000000,4292.179688,4279.487305,4310.769043,4299.230957,4293.205078,4278.333496,4331.153809,4396.666504,4298.077148,4282.436035,4474.102539,4502.179688,4349.615234,4409.230957,1666.000000,1.000000,25.000000,,,,0.000000,2.000000,2.000000,0.000000,4.000000,2.000000,2.000000,0.000000,0.000000,4.000000,4.000000,4.000000,4.000000,4.000000,4.000000,0.000000,,,,,,,,,,,,,,,,,,,,,,,,,,,,
1732157284.844585,1732157284.847545,94.000000,0.000000,4290.769043,4276.666504,4310.769043,4294.615234,4292.692383,4277.307617,4331.410156,4398.333496,4294.615234,4278.974121,4472.948730,4494.743652,4348.717773,4402.820313,1536.000000,1.000000,25.000000,,,,0.000000,2.000000,2.000000,0.000000,4.000000,2.000000,2.000000,0.000000,0.000000,4.000000,4.000000,4.000000,4.000000,4.000000,4.000000,0.000000,,,,,,,,,,,,,,,,,,,,,,,,,,,,
1732157284.852394,1732157284.855353,95.000000,0.000000,4293.846191,4277.948730,4314.102539,4296.794922,4268.077148,4279.230957,4334.743652,4399.102539,4294.615234,4280.128418,4479.358887,4505.897461,4351.410156,4404.358887,1566.000000,1.000000,25.000000,,,,0.000000,2.000000,2.000000,0.000000,4.000000,2.000000,2.000000,0.000000,0.000000,4.000000,4.000000,4.000000,4.000000,4.000000,4.000000,0.000000,,,,,,,,,,,,,,,,,,,,,,,,,,,,
1732157284.860202,1732157284.863061,96.000000,0.000000,4295.000000,4279.871582,4314.230957,4298.333496,4265.897461,4280.897461,4334.615234,4397.820313,4296.410156,4280.128418,4474.487305,4510.256348,4346.282227,4402.692383,1688.000000,1.000000,25.000000,,,,0.000000,2.000000,2.000000,0.000000,4.000000,2.000000,2.000000,0.000000,0.000000,4.000000,4.000000,4.000000,4.000000,4.000000,4.000000,0.000000,,,,,,,,,,,,,,,,,24.000000,0.000000,0.525931,0.500793,-0.522278,0.447021,0.973752,0.061043,-0.049811,-35.439537,114.122131,31.513899
1732157284.868010,1732157284.870870,97.000000,0.000000,4289.102539,4275.512695,4312.436035,4295.384766,4283.205078,4281.282227,4328.717773,4397.820313,4295.000000,4271.666504,4459.487305,4494.615234,4334.230957,4396.282227,1666.000000,1.000000,25.000000,,,,0.000000,2.000000,2.000000,0.000000,4.000000,2.000000,2.000000,0.000000,0.000000,4.000000,4.000000,4.000000,4.000000,4.000000,4.000000,0.000000,,,,,,,,,,,,,,,,,,,,,,,,,,,,
1732157284.875818,1732157284.878478,98.000000,0.000000,4288.077148,4273.717773,4311.153809,4296.794922,4280.512695,4280.897461,4327.820313,4398.461426,4294.871582,4271.666504,4463.974121,4488.846191,4334.358887,4395.384766,1536.000000,1.000000,25.000000,,,,0.000000,2.000000,2.000000,0.000000,4.000000,2.000000,2.000000,0.000000,0.000000,4.000000,4.000000,4.000000,4.000000,4.000000,4.000000,0.000000,,,,,,,,,,,,,,,,,,,,,,,,,,,,
1732157284.883626,1732157284.886286,99.000000,0.000000,4295.641113,4279.487305,4311.410156,4303.077148,4274.615234,4279.615234,4331.025879,4397.307617,4297.051270,4279.871582,4476.410156,4501.282227,4344.358887,4403.333496,1566.000000,1.000000,25.000000,,,,0.000000,2.000000,2.000000,0.000000,4.000000,2.000000,2.000000,0.000000,0.000000,4.000000,4.000000,4.000000,4.000000,4.000000,4.000000,0.000000,,,,,,,,,,,,,,,,,,,,,,,,,,,,
1732157284.891435,1732157284.893995,100.000000,0.000000,4297.820313,4282.563965,4306.794922,4306.666504,4281.410156,4279.743652,4329.102539,4397.692383,4295.256348,4280.641113,4474.743652,4500.897461,4345.512695,4407.820313,1688.000000,1.000000,25.000000,,,,0.000000,2.000000,2.000000,0.000000,4.000000,2.000000,2.000000,0.000000,0.000000,4.000000,4.000000,4.000000,4.000000,4.000000,4.000000,0.000000,,,,,,,,,,,,,,,,,25.000000,0.000000,0.524951,0.501404,-0.522522,0.447205,0.960078,0.063484,-0.050787,-35.149357,101.218925,31.242924
1732157284.899243,1732157284.901803,101.000000,0.000000,4295.384766,4280.384766,4299.358887,4306.410156,4282.563965,4280.384766,4326.922852,4398.077148,4292.820313,4277.948730,4472.948730,4491.538574,4340.897461,4407.179688,1666.000000,1.000000,25.000000,,,,0.000000,2.000000,2.000000,0.000000,4.000000,2.000000,2.000000,0.000000,0.000000,4.000000,4.000000,4.000000,4.000000,4.000000,4.000000,0.000000,,,,,,,,,,,,,,,,,,,,,,,,,,,,
1732157284.907051,1732157284.909411,102.000000,0.000000,4296.153809,4279.871582,4295.384766,4305.256348,4280.512695,4278.589844,4327.051270,4392.948730,4293.974121,4281.153809,4476.922852,4492.051270,4341.282227,4405.000000,1536.000000,1.000000,25.000000,,,,0.000000,2.000000,2.000000,0.000000,4.000000,2.000000,2.000000,0.000000,0.000000,4.000000,4.000000,4.000000,4.000000,4.000000,4.000000,0.000000,,,,,,,,,,,,,,,,,,,,,,,,,,,,
1732157284.914859,1732157284.917219,103.000000,0.000000,4296.025879,4280.512695,4295.384766,4305.769043,4282.820313,4278.333496,4326.538574,4390.128418,4294.615234,4283.077148,4473.589844,4494.615234,4340.769043,4399.615234,1566.000000,1.000000,25.000000,,,,0.000000,2.000000,2.000000,0.000000,4.000000,2.000000,2.000000,0.000000,0.000000,4.000000,4.000000,4.000000,4.000000,4.000000,4.000000,0.000000,,,,,,,,,,,,,,,,,,,,,,,,,,,,
1732157284.922668,1732157284.925128,104.000000,0.000000,4293.333496,4279.487305,4296.025879,4306.794922,4282.563965,4279.487305,4325.000000,4391.025879,4295.512695,4281.025879,4469.615234,4495.128418,4340.256348,4401.538574,1688.000000,1.000000,25.000000,,,,0.000000,2.000000,2.000000,0.000000,4.000000,2.000000,2.000000,0.000000,0.000000,4.000000,4.000000,4.000000,4.000000,4.000000,4.000000,0.000000,,,,,,,,,,,,,,,,,26.000000,0.000000,0.524254,0.501160,-0.523193,0.447510,0.967892,0.057624,-0.053229,-34.915981,90.565666,31.221769
1732157284.930476,1732157284.932936,105.000000,0.000000,4290.000000,4277.051270,4295.512695,4302.179688,4280.128418,4278.461426,4322.563965,4389.230957,4296.666504,4283.077148,4473.589844,4494.487305,4344.871582,4411.666504,1666.000000,1.000000,25.000000,,,,0.000000,2.000000,2.000000,0.000000,4.000000,2.000000,2.000000,0.000000,0.000000,4.000000,4.000000,4.000000,4.000000,4.000000,4.000000,0.000000,,,,,,,,,,,,,,,,,,,,,,,,,,,,
1732157284.938284,1732157284.940544,106.000000,0.000000,4289.230957,4276.025879,4294.871582,4298.717773,4280.000000,4279.102539,4321.282227,4386.282227,4295.769043,4285.128418,4477.563965,4491.922852,4347.436035,4408.077148,1536.000000,1.000000,25.000000,,,,0.000000,2.000000,2.000000,0.000000,4.000000,2.000000,2.000000,0.000000,0.000000,4.000000,4.000000,4.000000,4.000000,4.000000,4.000000,0.000000,,,,,,,,,,,,,,,,,,,,,,,,,,,,
1732157284.946092,1732157284.948352,107.000000,0.000000,4290.897461,4277.692383,4294.871582,4299.358887,4281.153809,4281.153809,4321.410156,4388.589844,4295.256348,4283.461426,4477.179688,4489.871582,4344.102539,4393.333496,1566.000000,1.000000,25.000000,,,,0.000000,2.000000,2.000000,0.000000,4.000000,2.000000,2.000000,0.000000,0.000000,4.000000,4.000000,4.000000,4.000000,4.000000,4.000000,0.000000,,,,,,,,,,,,,,,,,,,,,,,,,,,,
1732157284.953901,1732157284.956061,108.000000,0.000000,4291.538574,4278.205078,4296.794922,4301.922852,4279.743652,4278.974121,4320.897461,4388.717773,4296.666504,4281.794922,4475.512695,4492.948730,4343.077148,4397.948730,1688.000000,1.000000,25.000000,,,,0.000000,2.000000,2.000000,0.000000,4.000000,2.000000,2.000000,0.000000,0.000000,4.000000,4.000000,4.000000,4.000000,4.000000,4.000000,0.000000,,,,,,,,,,,,,,,,,27.000000,0.000000,0.524059,0.500854,-0.523682,0.447510,0.967892,0.057624,-0.053229,-34.773609,82.224854,31.337967
1732157284.961709,1732157284.963869,109.000000,0.000000,4292.436035,4279.102539,4297.948730,4304.615234,4279.743652,4277.051270,4320.256348,4387.307617,4296.282227,4282.692383,4475.128418,4493.717773,4346.410156,4409.743652,1666.000000,1.000000,25.000000,,,,0.000000,2.000000,2.000000,0.000000,4.000000,2.000000,2.000000,0.000000,0.000000,4.000000,4.000000,4.000000,4.000000,4.000000,4.000000,0.000000,,,,,,,,,,,,,,,,,,,,,,,,,,,,
1732157284.969517,1732157284.971477,110.000000,0.000000,4293.717773,4281.025879,4296.922852,4303.589844,4280.000000,4278.717773,4325.000000,4391.922852,4295.000000,4281.794922,4473.589844,4492.948730,4341.794922,4405.769043,1536.000000,1.000000,25.000000,,,,0.000000,2.000000,2.000000,0.000000,4.000000,2.000000,2.000000,0.000000,0.000000,4.000000,4.000000,4.000000,4.000000,4.000000,4.000000,0.000000,,,,,,,,,,,,,,,,,,,,,,,,,,,,
1732157284.977325,1732157284.979286,111.000000,0.000000,4292.179688,4280.128418,4301.410156,4298.333496,4278.717773,4278.846191,4328.461426,4395.897461,4293.717773,4279.358887,4473.589844,4494.230957,4332.179688,4400.897461,1566.000000,1.000000,25.000000,,,,0.000000,2.000000,2.000000,0.000000,4.000000,2.000000,2.000000,0.000000,0.000000,4.000000,4.000000,4.000000,4.000000,4.000000,4.000000,0.000000,,,,,,,,,,,,,,,,,,,,,,,,,,,,
1732157284.985134,1732157284.986994,112.000000,0.000000,4294.487305,4279.230957,4306.922852,4298.461426,4281.410156,4278.461426,4325.384766,4393.846191,4292.307617,4280.000000,4476.538574,4492.436035,4335.384766,4406.538574,1688.000000,1.000000,25.000000,,,,0.000000,2.000000,2.000000,0.000000,4.000000,2.000000,2.000000,0.000000,0.000000,4.000000,4.000000,4.000000,4.000000,4.000000,4.000000,0.000000,,,,,,,,,,,,,,,,,28.000000,0.000000,0.523246,0.498169,-0.526733,0.447876,0.985960,0.055671,-0.058113,-34.753292,75.355469,31.337086
1732157284.992942,1732157284.994802,113.000000,0.000000,4301.282227,4280.897461,4307.820313,4304.230957,4282.436035,4278.077148,4324.102539,4392.820313,4292.948730,4280.769043,4477.179688,4492.051270,4344.102539,4411.666504,1666.000000,1.000000,25.000000,,,,0.000000,2.000000,2.000000,0.000000,4.000000,2.000000,2.000000,0.000000,0.000000,4.000000,4.000000,4.000000,4.000000,4.000000,4.000000,0.000000,,,,,,,,,,,,,,,,,,,,,,,,,,,,
1732157285.000750,1732157285.002810,114.000000,0.000000,4304.230957,4281.025879,4305.897461,4301.666504,4280.000000,4277.948730,4325.769043,4395.256348,4295.641113,4281.410156,4473.846191,4493.974121,4343.205078,4411.538574,1536.000000,1.000000,25.000000,,,,0.000000,2.000000,2.000000,0.000000,4.000000,2.000000,2.000000,0.000000,0.000000,4.000000,4.000000,4.000000,4.000000,4.000000,4.000000,0.000000,,,,,,,,,,,,,,,,,,,,,,,,,,,,
1732157285.008558,1732157285.010618,115.000000,0.000000,4307.692383,4280.000000,4303.589844,4298.717773,4278.717773,4281.666504,4328.717773,4395.897461,4296.282227,4280.384766,4473.461426,4491.538574,4338.846191,4410.128418,1566.000000,1.000000,25.000000,,,,0.000000,2.000000,2.000000,0.000000,4.000000,2.000000,2.000000,0.000000,0.000000,4.000000,4.000000,4.000000,4.000000,4.000000,4.000000,0.000000,,,,,,,,,,,,,,,,,,,,,,,,,,,,
1732157285.016367,1732157285.018526,116.000000,0.000000,4312.948730,4280.641113,4304.615234,4303.077148,4273.461426,4279.358887,4330.128418,4394.871582,4294.615234,4279.487305,4476.025879,4489.230957,4341.666504,4410.897461,1688.000000,1.000000,25.000000,,,,0.000000,2.000000,2.000000,0.000000,4.000000,2.000000,2.000000,0.000000,0.000000,4.000000,4.000000,4.000000,4.000000,4.000000,4.000000,0.000000,,,,,,,,,,,,,,,,,29.000000,0.000000,0.523005,0.497437,-0.527405,0.448181,0.970822,0.046392,-0.044439,-34.878498,69.729591,31.369707
1732157285.024175,1732157285.026335,117.000000,0.000000,4313.974121,4281.410156,4308.333496,4304.102539,4265.000000,4266.025879,4326.922852,4393.333496,4298.205078,4284.743652,4475.000000,4497.179688,4343.461426,4419.871582,1666.000000,1.000000,25.000000,,,,0.000000,2.000000,2.000000,0.000000,4.000000,2.000000,2.000000,0.000000,0.000000,4.000000,4.000000,4.000000,4.000000,4.000000,4.000000,0.000000,,,,,,,,,,,,,,,,,,,,,,,,,,,,
1732157285.031983,1732157285.033943,118.000000,0.000000,4312.692383,4281.153809,4311.922852,4298.974121,4263.333496,4263.333496,4324.615234,4393.333496,4297.307617,4286.666504,4473.717773,4505.256348,4341.666504,4429.230957,1536.000000,1.000000,25.000000,,,,0.000000,2.000000,2.000000,0.000000,4.000000,2.000000,2.000000,0.000000,0.000000,4.000000,4.000000,4.000000,4.000000,4.000000,4.000000,0.000000,,,,,,,,,,,,,,,,,,,,,,,,,,,,
1732157285.039791,1732157285.041751,119.000000,0.000000,4313.333496,4278.717773,4310.128418,4296.282227,4265.769043,4276.025879,4326.025879,4396.794922,4283.205078,4279.230957,4476.922852,4499.358887,4345.256348,4429.615234,1566.000000,1.000000,25.000000,,,,0.000000,2.000000,2.000000,0.000000,4.000000,2.000000,2.000000,0.000000,0.000000,4.000000,4.000000,4.000000,4.000000,4.000000,4.000000,0.000000,,,,,,,,,,,,,,,,,,,,,,,,,,,,
1732157285.047599,1732157285.049460,120.000000,0.000000,4313.589844,4277.820313,4309.743652,4298.846191,4265.256348,4275.769043,4326.794922,4398.717773,4275.512695,4277.948730,4479.230957,4497.307617,4350.641113,4427.948730,1688.000000,1.000000,25.000000,,,,0.000000,2.000000,2.000000,0.000000,4.000000,2.000000,2.000000,0.000000,0.000000,4.000000,4.000000,4.000000,4.000000,4.000000,4.000000,0.000000,,,,,,,,,,,,,,,,,30.000000,0.000000,0.522813,0.496826,-0.528015,0.448364,0.970822,0.046392,-0.044439,-35.091583,65.189308,31.616129
1732157285.055408,1732157285.057268,121.000000,0.000000,4311.538574,4279.102539,4315.128418,4295.897461,4263.461426,4264.230957,4331.282227,4396.666504,4281.794922,4284.230957,4477.436035,4498.846191,4351.538574,4429.230957,1666.000000,1.000000,25.000000,,,,0.000000,2.000000,2.000000,0.000000,4.000000,2.000000,2.000000,0.000000,0.000000,4.000000,4.000000,4.000000,4.000000,4.000000,4.000000,0.000000,,,,,,,,,,,,,,,,,,,,,,,,,,,,
1732157285.063216,1732157285.064876,122.000000,0.000000,4310.384766,4276.538574,4321.153809,4290.897461,4261.666504,4263.717773,4336.025879,4394.743652,4283.205078,4282.307617,4476.794922,4498.205078,4350.769043,4428.846191,1536.000000,1.000000,25.000000,,,,0.000000,2.000000,2.000000,0.000000,4.000000,2.000000,2.000000,0.000000,0.000000,4.000000,4.000000,4.000000,4.000000,4.000000,4.000000,0.000000,,,,,,,,,,,,,,,,,,,,,,,,,,,,
1732157285.071024,1732157285.072684,123.000000,0.000000,4311.153809,4277.179688,4321.025879,4293.461426,4262.436035,4268.589844,4332.436035,4397.307617,4279.102539,4278.333496,4477.051270,4498.333496,4351.153809,4428.205078,1566.000000,1.000000,25.000000,,,,0.000000,2.000000,2.000000,0.000000,4.000000,2.000000,2.000000,0.000000,0.000000,4.000000,4.000000,4.000000,4.000000,4.000000,4.000000,0.000000,,,,,,,,,,,,,,,,,,,,,,,,,,,,
1732157285.078833,1732157285.080592,124.000000,0.000000,4312.436035,4277.051270,4319.230957,4294.102539,4265.000000,4264.871582,4332.051270,4399.230957,4282.692383,4282.948730,4476.538574,4497.436035,4348.974121,4428.717773,1688.000000,1.000000,25.000000,,,,0.000000,2.000000,2.000000,0.000000,4.000000,2.000000,2.000000,0.000000,0.000000,4.000000,4.000000,4.000000,4.000000,4.000000,4.000000,0.000000,,,,,,,,,,,,,,,,,31.000000,0.000000,0.522556,0.495605,-0.529053,0.448792,0.973752,0.042486,-0.053229,-35.052517,61.348335,31.599064
1732157285.086641,1732157285.088401,125.000000,0.000000,4309.615234,4269.102539,4321.153809,4287.436035,4264.743652,4267.179688,4335.897461,4399.615234,4292.563965,4286.666504,4476.410156,4498.589844,4349.102539,4428.205078,1666.000000,1.000000,25.000000,,,,0.000000,2.000000,2.000000,0.000000,4.000000,2.000000,2.000000,0.000000,0.000000,4.000000,4.000000,4.000000,4.000000,4.000000,4.000000,0.000000,,,,,,,,,,,,,,,,,,,,,,,,,,,,
1732157285.094449,1732157285.096409,126.000000,0.000000,4305.897461,4267.948730,4321.538574,4286.666504,4264.615234,4274.102539,4334.743652,4398.589844,4297.307617,4283.974121,4475.512695,4504.230957,4351.282227,4429.871582,1536.000000,1.000000,25.000000,,,,0.000000,2.000000,2.000000,0.000000,4.000000,2.000000,2.000000,0.000000,0.000000,4.000000,4.000000,4.000000,4.000000,4.000000,4.000000,0.000000,,,,,,,,,,,,,,,,,,,,,,,,,,,,
1732157285.102257,1732157285.104217,127.000000,0.000000,4308.333496,4278.717773,4320.769043,4294.102539,4265.256348,4271.922852,4332.820313,4397.820313,4288.333496,4279.743652,4477.948730,4507.179688,4346.025879,4429.871582,25.000000,1.000000,25.000000,,,,0.000000,2.000000,2.000000,0.000000,4.000000,2.000000,2.000000,0.000000,0.000000,4.000000,4.000000,4.000000,4.000000,4.000000,4.000000,0.000000,,,,,,,,,,,,,,,,,,,,,,,,,,,,
1732157285.110066,1732157285.112125,0.000000,0.000000,4312.563965,4279.230957,4323.717773,4295.000000,4265.256348,4269.871582,4335.000000,4399.230957,4278.333496,4280.384766,4486.025879,4504.871582,4344.615234,4430.128418,0.000000,1.000000,25.000000,,,,0.000000,2.000000,2.000000,0.000000,4.000000,2.000000,2.000000,0.000000,0.000000,4.000000,4.000000,4.000000,4.000000,4.000000,4.000000,0.000000,,,,,,,,,,,,,,,,,0.000000,0.000000,0.522286,0.495728,-0.528687,0.449402,0.961543,0.052741,-0.048346,-34.987537,58.553818,31.351910
1732157285.117874,1732157285.119933,1.000000,0.000000,4311.025879,4272.948730,4325.256348,4288.974121,4265.256348,4275.256348,4334.615234,4400.641113,4282.179688,4282.563965,4491.794922,4506.153809,4350.897461,4431.410156,1591.000000,1.000000,25.000000,,,,0.000000,2.000000,2.000000,0.000000,4.000000,2.000000,2.000000,0.000000,0.000000,4.000000,4.000000,4.000000,4.000000,4.000000,4.000000,0.000000,,,,,,,,,,,,,,,,,,,,,,,,,,,,
1732157285.125682,1732157285.127941,2.000000,0.000000,4310.256348,4277.692383,4325.000000,4290.384766,4266.025879,4274.871582,4332.820313,4399.871582,4283.974121,4281.538574,4486.538574,4508.077148,4349.615234,4430.641113,1382.000000,1.000000,25.000000,,,,0.000000,2.000000,2.000000,0.000000,4.000000,2.000000,2.000000,0.000000,0.000000,4.000000,4.000000,4.000000,4.000000,4.000000,4.000000,0.000000,,,,,,,,,,,,,,,,,,,,,,,,,,,,
1732157285.133490,1732157285.135749,3.000000,0.000000,4316.282227,4282.692383,4323.974121,4295.384766,4265.769043,4267.307617,4333.589844,4402.436035,4279.615234,4279.102539,4482.307617,4506.410156,4346.410156,4436.538574,1409.000000,1.000000,25.000000,,,,0.000000,2.000000,2.000000,0.000000,4.000000,2.000000,2.000000,0.000000,0.000000,4.000000,4.000000,4.000000,4.000000,4.000000,4.000000,0.000000,,,,,,,,,,,,,,,,,,,,,,,,,,,,
1732157285.141298,1732157285.143458,4.000000,0.000000,4320.384766,4279.230957,4320.512695,4293.717773,4264.358887,4268.077148,4334.743652,4406.794922,4286.153809,4281.282227,4486.794922,4508.077148,4351.794922,4444.230957,1407.000000,1.000000,25.000000,,,,0.000000,2.000000,2.000000,0.000000,4.000000,2.000000,2.000000,0.000000,0.000000,4.000000,4.000000,4.000000,4.000000,4.000000,4.000000,0.000000,,,,,,,,,,,,,,,,,1.000000,0.000000,0.522286,0.495728,-0.528687,0.449402,1.014284,0.045904,-0.040532,-34.964905,56.365261,31.181713
1732157285.149107,1732157285.151266,5.000000,0.000000,4324.487305,4279.230957,4322.692383,4292.948730,4263.717773,4270.641113,4336.025879,4405.384766,4293.077148,4283.461426,4489.871582,4514.230957,4353.077148,4443.717773,1230.000000,1.000000,25.000000,,,,0.000000,2.000000,2.000000,0.000000,4.000000,2.000000,2.000000,0.000000,0.000000,4.000000,4.000000,4.000000,4.000000,4.000000,4.000000,0.000000,,,,,,,,,,,,,,,,,,,,,,,,,,,,
1732157285.156915,1732157285.159274,6.000000,0.000000,4333.461426,4284.102539,4328.461426,4297.051270,4263.974121,4266.666504,4335.128418,4402.948730,4285.256348,4271.922852,4486.410156,4522.692383,4351.282227,4449.230957,0.000000,1.000000,25.000000,,,,0.000000,2.000000,2.000000,0.000000,4.000000,2.000000,2.000000,0.000000,0.000000,4.000000,4.000000,4.000000,4.000000,4.000000,4.000000,0.000000,,,,,,,,,,,,,,,,,,,,,,,,,,,,
1732157285.164723,1732157285.167082,7.000000,0.000000,4337.436035,4283.589844,4329.230957,4297.307617,4265.256348,4265.128418,4335.512695,4404.871582,4278.205078,4261.922852,4486.025879,4521.666504,4355.769043,4459.230957,0.000000,1.000000,25.000000,,,,0.000000,2.000000,2.000000,0.000000,4.000000,2.000000,2.000000,0.000000,0.000000,4.000000,4.000000,4.000000,4.000000,4.000000,4.000000,0.000000,,,,,,,,,,,,,,,,,,,,,,,,,,,,
1732157285.172531,1732157285.174990,8.000000,0.000000,4340.769043,4283.589844,4329.871582,4297.692383,4260.897461,4266.666504,4337.563965,4405.512695,4280.128418,4270.384766,4491.794922,4518.717773,4359.487305,4461.153809,1524.000000,1.000000,25.000000,,,,0.000000,2.000000,2.000000,0.000000,4.000000,2.000000,2.000000,0.000000,0.000000,4.000000,4.000000,4.000000,4.000000,4.000000,4.000000,0.000000,,,,,,,,,,,,,,,,,2.000000,0.000000,0.521058,0.495605,-0.528870,0.450745,0.995727,0.021975,-0.050299,-34.813240,54.617527,31.210520
1732157285.180340,1732157285.182798,9.000000,0.000000,4350.641113,4289.102539,4332.051270,4302.820313,4261.153809,4265.512695,4335.897461,4404.230957,4282.307617,4274.102539,4494.230957,4522.179688,4362.051270,4466.025879,1671.000000,1.000000,25.000000,,,,0.000000,2.000000,2.000000,0.000000,4.000000,2.000000,2.000000,0.000000,0.000000,4.000000,4.000000,4.000000,4.000000,4.000000,4.000000,0.000000,,,,,,,,,,,,,,,,,,,,,,,,,,,,
1732157285.188148,1732157285.190806,10.000000,0.000000,4354.102539,4291.794922,4330.128418,4302.563965,4268.974121,4263.205078,4333.846191,4404.871582,4281.794922,4266.410156,4492.563965,4525.512695,4366.538574,4473.205078,1516.000000,1.000000,25.000000,,,,0.000000,2.000000,2.000000,0.000000,4.000000,2.000000,2.000000,0.000000,0.000000,4.000000,4.000000,4.000000,4.000000,4.000000,4.000000,0.000000,,,,,,,,,,,,,,,,,,,,,,,,,,,,
1732157285.195956,1732157285.198615,11.000000,0.000000,4350.256348,4293.077148,4327.307617,4301.153809,4261.282227,4265.256348,4335.512695,4404.871582,4281.410156,4271.538574,4490.641113,4525.128418,4366.410156,4470.769043,1566.000000,1.000000,25.000000,,,,0.000000,2.000000,2.000000,0.000000,4.000000,2.000000,2.000000,0.000000,0.000000,4.000000,4.000000,4.000000,4.000000,4.000000,4.000000,0.000000,,,,,,,,,,,,,,,,,,,,,,,,,,,,
1732157285.203764,1732157285.206523,12.000000,0.000000,4355.128418,4294.871582,4329.102539,4307.051270,4243.077148,4264.615234,4337.179688,4402.820313,4280.512695,4281.282227,4490.256348,4522.436035,4363.974121,4469.230957,1688.000000,1.000000,25.000000,,,,0.000000,2.000000,2.000000,0.000000,4.000000,2.000000,2.000000,0.000000,0.000000,4.000000,4.000000,4.000000,4.000000,4.000000,4.000000,0.000000,,,,,,,,,,,,,,,,,3.000000,0.000000,0.518490,0.496155,-0.529419,0.452454,0.947870,0.011232,-0.054206,-34.733727,53.086864,31.243855
1732157285.211573,1732157285.214331,13.000000,0.000000,4361.538574,4295.256348,4330.384766,4309.487305,4243.077148,4262.948730,4335.641113,4401.794922,4280.128418,4277.436035,4489.102539,4523.333496,4365.256348,4472.436035,1673.000000,1.000000,25.000000,,,,0.000000,2.000000,2.000000,0.000000,4.000000,2.000000,2.000000,0.000000,0.000000,4.000000,4.000000,4.000000,4.000000,4.000000,4.000000,0.000000,,,,,,,,,,,,,,,,,,,,,,,,,,,,
1732157285.219381,1732157285.222339,14.000000,0.000000,4358.333496,4294.871582,4329.487305,4306.922852,4252.820313,4263.461426,4334.230957,4401.922852,4281.282227,4276.282227,4488.461426,4530.641113,4366.153809,4471.410156,1516.000000,1.000000,25.000000,,,,0.000000,2.000000,2.000000,0.000000,4.000000,2.000000,2.000000,0.000000,0.000000,4.000000,4.000000,4.000000,4.000000,4.000000,4.000000,0.000000,1.000000,0.000000,2.000000,2.000000,0.000000,4.000000,2.000000,2.000000,0.000000,0.000000,4.000000,4.000000,4.000000,4.000000,4.000000,4.000000,,,,,,,,,,,,
1732157285.227189,1732157285.230147,15.000000,0.000000,4355.384766,4295.128418,4324.871582,4307.820313,4250.000000,4263.077148,4334.230957,4400.897461,4281.794922,4280.641113,4491.666504,4531.794922,4365.384766,4472.051270,1566.000000,1.000000,25.000000,,,,0.000000,2.000000,2.000000,0.000000,4.000000,2.000000,2.000000,0.000000,0.000000,4.000000,4.000000,4.000000,4.000000,4.000000,4.000000,0.000000,,,,,,,,,,,,,,,,,,,,,,,,,,,,
1732157285.234997,1732157285.237855,16.000000,0.000000,4355.897461,4295.128418,4323.589844,4310.256348,4248.589844,4262.307617,4334.871582,4398.846191,4281.025879,4279.230957,4493.717773,4521.538574,4366.025879,4473.974121,0.000000,1.000000,25.000000,,,,0.000000,2.000000,2.000000,0.000000,4.000000,2.000000,2.000000,0.000000,0.000000,4.000000,4.000000,4.000000,4.000000,4.000000,4.000000,0.000000,,,,,,,,,,,,,,,,,4.000000,0.000000,0.518455,0.496582,-0.529053,0.452454,0.975217,0.026859,-0.050299,-34.744316,51.655361,31.265856
1732157285.242806,1732157285.245664,17.000000,0.000000,4354.230957,4296.794922,4328.461426,4310.384766,4257.692383,4264.358887,4335.641113,4401.153809,4280.897461,4278.205078,4495.512695,4524.615234,4365.769043,4472.179688,0.000000,1.000000,25.000000,,,,0.000000,2.000000,2.000000,0.000000,4.000000,2.000000,2.000000,0.000000,0.000000,4.000000,4.000000,4.000000,4.000000,4.000000,4.000000,0.000000,,,,,,,,,,,,,,,,,,,,,,,,,,,,
1732157285.250614,1732157285.253272,18.000000,0.000000,4351.282227,4297.820313,4323.077148,4311.794922,4263.974121,4266.410156,4332.179688,4402.436035,4281.922852,4281.410156,4498.717773,4535.128418,4367.436035,4473.589844,0.000000,1.000000,25.000000,,,,0.000000,2.000000,2.000000,0.000000,4.000000,2.000000,2.000000,0.000000,0.000000,4.000000,4.000000,4.000000,4.000000,4.000000,4.000000,0.000000,,,,,,,,,,,,,,,,,,,,,,,,,,,,
1732157285.258422,1732157285.261080,19.000000,0.000000,4349.615234,4295.384766,4332.051270,4309.743652,4264.871582,4264.871582,4333.974121,4404.358887,4281.666504,4277.179688,4495.128418,4528.333496,4366.282227,4473.077148,0.000000,1.000000,25.000000,,,,0.000000,2.000000,2.000000,0.000000,4.000000,2.000000,2.000000,0.000000,0.000000,4.000000,4.000000,4.000000,4.000000,4.000000,4.000000,0.000000,,,,,,,,,,,,,,,,,,,,,,,,,,,,
1732157285.266230,1732157285.268789,20.000000,0.000000,4350.769043,4294.743652,4367.692383,4303.717773,4258.974121,4263.077148,4346.410156,4412.820313,4280.000000,4267.820313,4487.436035,4522.563965,4360.000000,4465.897461,0.000000,1.000000,25.000000,,,,0.000000,2.000000,2.000000,0.000000,4.000000,2.000000,2.000000,0.000000,0.000000,4.000000,4.000000,4.000000,4.000000,4.000000,4.000000,0.000000,,,,,,,,,,,,,,,,,5.000000,0.000000,0.518631,0.496704,-0.528870,0.452332,0.987914,0.030277,-0.061043,-34.857899,50.510841,31.328676
1732157285.274039,1732157285.276597,21.000000,0.000000,4351.922852,4294.743652,4366.153809,4305.384766,4253.717773,4264.230957,4346.282227,4413.205078,4279.487305,4265.641113,4488.717773,4527.179688,4358.589844,4457.692383,0.000000,1.000000,25.000000,,,,0.000000,2.000000,2.000000,0.000000,4.000000,2.000000,2.000000,0.000000,0.000000,4.000000,4.000000,4.000000,4.000000,4.000000,4.000000,0.000000,,,,,,,,,,,,,,,,,,,,,,,,,,,,
1732157285.281847,1732157285.284205,22.000000,0.000000,4350.512695,4296.153809,4325.128418,4311.794922,4270.512695,4263.846191,4332.436035,4402.307617,4278.589844,4267.051270,4492.692383,4526.025879,4363.846191,4463.333496,0.000000,1.000000,25.000000,,,,0.000000,2.000000,2.000000,0.000000,4.000000,2.000000,2.000000,0.000000,0.000000,4.000000,4.000000,4.000000,4.000000,4.000000,4.000000,0.000000,,,,,,,,,,,,,,,,,,,,,,,,,,,,
1732157285.289655,1732157285.292013,23.000000,0.000000,4350.128418,4301.410156,4316.153809,4313.846191,4284.102539,4261.153809,4328.846191,4398.461426,4278.461426,4266.538574,4489.102539,4520.897461,4365.769043,4472.692383,0.000000,1.000000,25.000000,,,,0.000000,2.000000,2.000000,0.000000,4.000000,2.000000,2.000000,0.000000,0.000000,4.000000,4.000000,4.000000,4.000000,4.000000,4.000000,0.000000,,,,,,,,,,,,,,,,,,,,,,,,,,,,
1732157285.297463,1732157285.299722,24.000000,0.000000,4351.410156,4301.666504,4328.205078,4312.307617,4261.282227,4261.922852,4334.230957,4402.179688,4280.512695,4276.410156,4488.974121,4521.025879,4364.230957,4467.436035,0.000000,1.000000,25.000000,,,,0.000000,2.000000,2.000000,0.000000,4.000000,2.000000,2.000000,0.000000,0.000000,4.000000,4.000000,4.000000,4.000000,4.000000,4.000000,0.000000,,,,,,,,,,,,,,,,,6.000000,0.000000,0.518706,0.496765,-0.528687,0.452393,0.995727,0.040044,-0.066903,-34.776562,49.602116,31.347895
1732157285.305272,1732157285.307530,25.000000,0.000000,4350.641113,4295.769043,4318.974121,4311.025879,4242.307617,4265.384766,4335.000000,4400.128418,4282.948730,4282.307617,4493.589844,4520.769043,4367.051270,4458.974121,0.000000,1.000000,25.000000,,,,0.000000,2.000000,2.000000,0.000000,4.000000,2.000000,2.000000,0.000000,0.000000,4.000000,4.000000,4.000000,4.000000,4.000000,4.000000,0.000000,,,,,,,,,,,,,,,,,,,,,,,,,,,,
1732157285.313080,1732157285.315138,26.000000,0.000000,4349.487305,4297.179688,4314.615234,4313.974121,4256.025879,4266.153809,4331.153809,4395.897461,4282.692383,4270.641113,4493.333496,4520.128418,4366.538574,4459.615234,0.000000,1.000000,25.000000,,,,0.000000,2.000000,2.000000,0.000000,4.000000,2.000000,2.000000,0.000000,0.000000,4.000000,4.000000,4.000000,4.000000,4.000000,4.000000,0.000000,,,,,,,,,,,,,,,,,,,,,,,,,,,,
1732157285.320888,1732157285.322947,27.000000,0.000000,4350.384766,4305.384766,4324.230957,4320.384766,4267.179688,4266.153809,4331.538574,4398.461426,4280.128418,4266.922852,4489.358887,4521.538574,4360.000000,4461.282227,0.000000,1.000000,25.000000,,,,0.000000,2.000000,2.000000,0.000000,4.000000,2.000000,2.000000,0.000000,0.000000,4.000000,4.000000,4.000000,4.000000,4.000000,4.000000,0.000000,,,,,,,,,,,,,,,,,,,,,,,,,,,,
1732157285.328696,1732157285.330855,28.000000,0.000000,4351.794922,4305.384766,4318.846191,4320.128418,4262.563965,4266.282227,4331.153809,4400.128418,4280.000000,4277.436035,4488.974121,4518.205078,4357.307617,4459.358887,0.000000,1.000000,25.000000,,,,0.000000,2.000000,2.000000,0.000000,4.000000,2.000000,2.000000,0.000000,0.000000,4.000000,4.000000,4.000000,4.000000,4.000000,4.000000,0.000000,,,,,,,,,,,,,,,,,7.000000,0.000000,0.518083,0.496460,-0.529114,0.452942,0.957148,0.018557,-0.059578,-34.772350,48.914379,31.181795
1732157285.336505,1732157285.338663,29.000000,0.000000,4351.666504,4297.948730,4315.256348,4313.589844,4258.333496,4265.384766,4329.487305,4398.846191,4290.128418,4281.282227,4492.051270,4520.384766,4359.743652,4460.641113,0.000000,1.000000,25.000000,,,,0.000000,2.000000,2.000000,0.000000,4.000000,2.000000,2.000000,0.000000,0.000000,4.000000,4.000000,4.000000,4.000000,4.000000,4.000000,0.000000,,,,,,,,,,,,,,,,,,,,,,,,,,,,
1732157285.344313,1732157285.346271,30.000000,0.000000,4346.922852,4293.717773,4319.487305,4312.051270,4267.563965,4266.282227,4329.743652,4397.948730,4300.000000,4278.846191,4492.307617,4524.102539,4359.871582,4461.794922,0.000000,1.000000,25.000000,,,,0.000000,2.000000,2.000000,0.000000,4.000000,2.000000,2.000000,0.000000,0.000000,4.000000,4.000000,4.000000,4.000000,4.000000,4.000000,0.000000,,,,,,,,,,,,,,,,,,,,,,,,,,,,
1732157285.352121,1732157285.354080,31.000000,0.000000,4341.025879,4293.077148,4321.153809,4312.051270,4283.846191,4265.256348,4330.000000,4399.102539,4290.384766,4277.051270,4488.333496,4518.589844,4356.153809,4460.384766,0.000000,1.000000,25.000000,,,,0.000000,2.000000,2.000000,0.000000,4.000000,2.000000,2.000000,0.000000,0.000000,4.000000,4.000000,4.000000,4.000000,4.000000,4.000000,0.000000,,,,,,,,,,,,,,,,,,,,,,,,,,,,
1732157285.359929,1732157285.361788,32.000000,0.000000,4342.179688,4296.794922,4318.846191,4311.153809,4277.563965,4265.512695,4330.641113,4398.461426,4279.487305,4278.205078,4488.205078,4518.974121,4358.077148,4460.769043,0.000000,1.000000,25.000000,,,,0.000000,2.000000,2.000000,0.000000,4.000000,2.000000,2.000000,0.000000,0.000000,4.000000,4.000000,4.000000,4.000000,4.000000,4.000000,0.000000,,,,,,,,,,,,,,,,,8.000000,0.000000,0.517975,0.496155,-0.529297,0.453186,0.957148,0.018557,-0.059578,-34.783936,48.380646,31.207254
1732157285.367738,1732157285.369596,33.000000,0.000000,4343.333496,4304.615234,4318.846191,4311.282227,4257.436035,4272.948730,4333.846191,4397.051270,4288.974121,4282.948730,4492.051270,4521.794922,4364.871582,4459.743652,0.000000,1.000000,25.000000,,,,0.000000,2.000000,2.000000,0.000000,4.000000,2.000000,2.000000,0.000000,0.000000,4.000000,4.000000,4.000000,4.000000,4.000000,4.000000,0.000000,,,,,,,,,,,,,,,,,,,,,,,,,,,,
1732157285.375546,1732157285.377204,34.000000,0.000000,4341.538574,4305.641113,4320.384766,4310.641113,4261.025879,4278.333496,4334.102539,4398.333496,4298.589844,4284.358887,4491.410156,4513.461426,4364.743652,4456.794922,0.000000,1.000000,25.000000,,,,0.000000,2.000000,2.000000,0.000000,4.000000,2.000000,2.000000,0.000000,0.000000,4.000000,4.000000,4.000000,4.000000,4.000000,4.000000,0.000000,,,,,,,,,,,,,,,,,,,,,,,,,,,,
1732157285.383354,1732157285.385013,35.000000,0.000000,4338.974121,4296.410156,4318.461426,4306.794922,4271.153809,4275.897461,4329.871582,4399.358887,4296.794922,4281.666504,4487.948730,4511.282227,4357.436035,4457.563965,0.000000,1.000000,25.000000,,,,0.000000,2.000000,2.000000,0.000000,4.000000,2.000000,2.000000,0.000000,0.000000,4.000000,4.000000,4.000000,4.000000,4.000000,4.000000,0.000000,,,,,,,,,,,,,,,,,,,,,,,,,,,,
1732157285.391162,1732157285.392721,36.000000,0.000000,4335.512695,4295.897461,4317.436035,4305.384766,4266.794922,4273.205078,4328.846191,4398.333496,4294.871582,4282.563965,4487.307617,4516.538574,4354.615234,4457.820313,0.000000,1.000000,25.000000,,,,0.000000,2.000000,2.000000,0.000000,4.000000,2.000000,2.000000,0.000000,0.000000,4.000000,4.000000,4.000000,4.000000,4.000000,4.000000,0.000000,,,,,,,,,,,,,,,,,9.000000,0.000000,0.517715,0.495850,-0.529419,0.453674,0.975217,0.019534,-0.060066,-34.766655,47.821659,31.159542
1732157285.398970,1732157285.400529,37.000000,0.000000,4334.358887,4302.820313,4318.589844,4309.743652,4264.230957,4276.410156,4328.205078,4397.563965,4291.922852,4281.922852,4489.102539,4515.384766,4357.051270,4453.077148,0.000000,1.000000,25.000000,,,,0.000000,2.000000,2.000000,0.000000,4.000000,2.000000,2.000000,0.000000,0.000000,4.000000,4.000000,4.000000,4.000000,4.000000,4.000000,0.000000,,,,,,,,,,,,,,,,,,,,,,,,,,,,
1732157285.406779,1732157285.408138,38.000000,0.000000,4332.820313,4300.384766,4321.153809,4309.615234,4272.563965,4276.025879,4323.974121,4397.820313,4292.563965,4283.333496,4486.922852,4512.563965,4354.615234,4449.102539,0.000000,1.000000,25.000000,,,,0.000000,2.000000,2.000000,0.000000,4.000000,2.000000,2.000000,0.000000,0.000000,4.000000,4.000000,4.000000,4.000000,4.000000,4.000000,0.000000,,,,,,,,,,,,,,,,,,,,,,,,,,,,
1732157285.414587,1732157285.415946,39.000000,0.000000,4325.897461,4293.077148,4320.128418,4302.563965,4284.871582,4271.794922,4325.641113,4397.307617,4296.410156,4280.897461,4479.487305,4510.128418,4350.000000,4445.769043,0.000000,1.000000,25.000000,,,,0.000000,2.000000,2.000000,0.000000,4.000000,2.000000,2.000000,0.000000,0.000000,4.000000,4.000000,4.000000,4.000000,4.000000,4.000000,0.000000,,,,,,,,,,,,,,,,,,,,,,,,,,,,
1732157285.422395,1732157285.423854,40.000000,0.000000,4322.051270,4294.487305,4316.410156,4303.974121,4281.025879,4273.717773,4331.538574,4397.051270,4287.820313,4267.692383,4471.538574,4503.717773,4348.589844,4443.077148,0.000000,1.000000,25.000000,,,,0.000000,2.000000,2.000000,0.000000,4.000000,2.000000,2.000000,0.000000,0.000000,4.000000,4.000000,4.000000,4.000000,4.000000,4.000000,0.000000,,,,,,,,,,,,,,,,,10.000000,0.000000,0.518220,0.494995,-0.529358,0.454102,0.992309,0.013185,-0.047857,-34.752659,47.252209,31.237562
1732157285.430204,1732157285.431662,41.000000,0.000000,4325.256348,4299.358887,4319.871582,4313.205078,4263.846191,4278.333496,4332.436035,4396.538574,4281.153809,4266.794922,4473.589844,4509.230957,4349.358887,4444.358887,0.000000,1.000000,25.000000,,,,0.000000,2.000000,2.000000,0.000000,4.000000,2.000000,2.000000,0.000000,0.000000,4.000000,4.000000,4.000000,4.000000,4.000000,4.000000,0.000000,,,,,,,,,,,,,,,,,,,,,,,,,,,,
1732157285.438012,1732157285.439670,42.000000,0.000000,4325.384766,4298.461426,4322.179688,4313.589844,4262.563965,4278.461426,4327.563965,4396.153809,4291.666504,4279.743652,4483.846191,4517.051270,4350.512695,4445.256348,0.000000,1.000000,25.000000,,,,0.000000,2.000000,2.000000,0.000000,4.000000,2.000000,2.000000,0.000000,0.000000,4.000000,4.000000,4.000000,4.000000,4.000000,4.000000,0.000000,,,,,,,,,,,,,,,,,,,,,,,,,,,,
1732157285.445820,1732157285.447478,43.000000,0.000000,4325.128418,4297.692383,4316.282227,4309.743652,4267.051270,4277.179688,4326.410156,4397.179688,4298.846191,4281.794922,4485.256348,4512.051270,4351.666504,4444.615234,0.000000,1.000000,25.000000,,,,0.000000,2.000000,2.000000,0.000000,4.000000,2.000000,2.000000,0.000000,0.000000,4.000000,4.000000,4.000000,4.000000,4.000000,4.000000,0.000000,,,,,,,,,,,,,,,,,,,,,,,,,,,,
1732157285.453628,1732157285.455187,44.000000,0.000000,4326.025879,4297.820313,4315.512695,4310.641113,4269.615234,4278.589844,4331.794922,4398.333496,4294.743652,4276.410156,4478.333496,4510.512695,4350.769043,4443.205078,0.000000,1.000000,25.000000,,,,0.000000,2.000000,2.000000,0.000000,4.000000,2.000000,2.000000,0.000000,0.000000,4.000000,4.000000,4.000000,4.000000,4.000000,4.000000,0.000000,,,,,,,,,,,,,,,,,11.000000,0.000000,0.519217,0.494202,-0.529175,0.454041,0.991332,0.023929,-0.047369,-34.864651,46.877625,31.255758
1732157285.461436,1732157285.462995,45.000000,0.000000,4321.666504,4296.282227,4321.666504,4310.512695,4283.589844,4276.410156,4333.461426,4397.436035,4295.512695,4278.974121,4475.641113,4511.282227,4348.589844,4439.615234,0.000000,1.000000,25.000000,,,,0.000000,2.000000,2.000000,0.000000,4.000000,2.000000,2.000000,0.000000,0.000000,4.000000,4.000000,4.000000,4.000000,4.000000,4.000000,0.000000,,,,,,,,,,,,,,,,,,,,,,,,,,,,
1732157285.469245,1732157285.470603,46.000000,0.000000,4320.256348,4295.128418,4321.282227,4309.358887,4284.871582,4273.846191,4331.794922,4395.641113,4299.358887,4282.563965,4478.461426,4507.820313,4350.641113,4438.846191,0.000000,1.000000,25.000000,,,,0.000000,2.000000,2.000000,0.000000,4.000000,2.000000,2.000000,0.000000,0.000000,4.000000,4.000000,4.000000,4.000000,4.000000,4.000000,0.000000,,,,,,,,,,,,,,,,,,,,,,,,,,,,
1732157285.477053,1732157285.478411,47.000000,0.000000,4325.128418,4295.512695,4318.589844,4311.282227,4265.000000,4277.948730,4332.436035,4395.897461,4297.179688,4279.358887,4477.179688,4507.307617,4350.512695,4445.000000,0.000000,1.000000,25.000000,,,,0.000000,2.000000,2.000000,0.000000,4.000000,2.000000,2.000000,0.000000,0.000000,4.000000,4.000000,4.000000,4.000000,4.000000,4.000000,0.000000,,,,,,,,,,,,,,,,,,,,,,,,,,,,
1732157285.484861,1732157285.486120,48.000000,0.000000,4326.794922,4295.769043,4319.615234,4311.025879,4260.512695,4280.256348,4330.256348,4398.461426,4295.512695,4276.410156,4473.461426,4508.589844,4343.974121,4443.717773,0.000000,1.000000,25.000000,,,,0.000000,2.000000,2.000000,0.000000,4.000000,2.000000,2.000000,0.000000,0.000000,4.000000,4.000000,4.000000,4.000000,4.000000,4.000000,0.000000,,,,,,,,,,,,,,,,,12.000000,0.000000,0.519515,0.494141,-0.528992,0.453979,0.989379,0.022952,-0.049322,-34.858704,46.805874,31.175499
1732157285.492669,1732157285.493928,49.000000,0.000000,4321.666504,4295.384766,4317.436035,4308.461426,4272.436035,4278.461426,4325.897461,4399.230957,4296.794922,4278.589844,4475.256348,4507.051270,4343.205078,4436.153809,0.000000,1.000000,25.000000,,,,0.000000,2.000000,2.000000,0.000000,4.000000,2.000000,2.000000,0.000000,0.000000,4.000000,4.000000,4.000000,4.000000,4.000000,4.000000,0.000000,,,,,,,,,,,,,,,,,,,,,,,,,,,,
1732157285.500478,1732157285.501936,50.000000,0.000000,4318.205078,4295.897461,4316.410156,4310.897461,4276.922852,4278.333496,4328.205078,4396.666504,4293.077148,4280.641113,4476.538574,4510.256348,4347.436035,4437.692383,0.000000,1.000000,25.000000,,,,0.000000,2.000000,2.000000,0.000000,4.000000,2.000000,2.000000,0.000000,0.000000,4.000000,4.000000,4.000000,4.000000,4.000000,4.000000,0.000000,,,,,,,,,,,,,,,,,,,,,,,,,,,,
1732157285.508286,1732157285.509744,51.000000,0.000000,4319.487305,4294.102539,4320.769043,4309.102539,4279.102539,4280.128418,4333.461426,4397.307617,4293.589844,4279.487305,4476.538574,4519.743652,4345.641113,4443.846191,0.000000,1.000000,25.000000,,,,0.000000,2.000000,2.000000,0.000000,4.000000,2.000000,2.000000,0.000000,0.000000,4.000000,4.000000,4.000000,4.000000,4.000000,4.000000,0.000000,,,,,,,,,,,,,,,,,,,,,,,,,,,,
1732157285.516094,1732157285.517652,52.000000,0.000000,4317.563965,4291.538574,4320.897461,4302.436035,4275.384766,4279.615234,4332.179688,4399.358887,4304.487305,4284.230957,4477.820313,4522.820313,4342.051270,4441.153809,0.000000,1.000000,25.000000,,,,0.000000,2.000000,2.000000,0.000000,4.000000,2.000000,2.000000,0.000000,0.000000,4.000000,4.000000,4.000000,4.000000,4.000000,4.000000,0.000000,,,,,,,,,,,,,,,,,13.000000,0.000000,0.521303,0.493713,-0.528259,0.453247,0.978635,0.040044,-0.037602,-34.993881,46.791092,31.250486
1732157285.523903,1732157285.525461,53.000000,0.000000,4312.948730,4292.563965,4317.948730,4304.358887,4275.641113,4279.230957,4329.102539,4398.077148,4306.282227,4286.922852,4478.974121,4512.179688,4342.436035,4431.538574,0.000000,1.000000,25.000000,,,,0.000000,2.000000,2.000000,0.000000,4.000000,2.000000,2.000000,0.000000,0.000000,4.000000,4.000000,4.000000,4.000000,4.000000,4.000000,0.000000,,,,,,,,,,,,,,,,,,,,,,,,,,,,
1732157285.531711,1732157285.533469,54.000000,0.000000,4314.102539,4295.769043,4322.051270,4311.025879,4293.333496,4280.256348,4328.717773,4397.563965,4293.846191,4278.205078,4474.871582,4504.230957,4341.794922,4426.794922,0.000000,1.000000,25.000000,,,,0.000000,2.000000,2.000000,0.000000,4.000000,2.000000,2.000000,0.000000,0.000000,4.000000,4.000000,4.000000,4.000000,4.000000,4.000000,0.000000,,,,,,,,,,,,,,,,,,,,,,,,,,,,
1732157285.539519,1732157285.541277,55.000000,0.000000,4319.487305,4297.307617,4325.256348,4312.820313,4291.922852,4281.025879,4328.461426,4400.000000,4294.358887,4275.897461,4471.794922,4514.615234,4341.410156,4430.384766,0.000000,1.000000,25.000000,,,,0.000000,2.000000,2.000000,0.000000,4.000000,2.000000,2.000000,0.000000,0.000000,4.000000,4.000000,4.000000,4.000000,4.000000,4.000000,0.000000,,,,,,,,,,,,,,,,,,,,,,,,,,,,
1732157285.547327,1732157285.548985,56.000000,0.000000,4319.358887,4295.641113,4318.974121,4312.436035,4266.410156,4280.256348,4328.333496,4400.256348,4310.128418,4282.820313,4476.282227,4524.230957,4342.820313,4432.436035,0.000000,1.000000,25.000000,,,,0.000000,2.000000,2.000000,0.000000,4.000000,2.000000,2.000000,0.000000,0.000000,4.000000,4.000000,4.000000,4.000000,4.000000,4.000000,0.000000,,,,,,,,,,,,,,,,,14.000000,0.000000,0.522286,0.493774,-0.527649,0.452759,0.967403,0.048346,-0.029300,-35.143379,46.604118,31.216228
1732157285.555135,1732157285.556793,57.000000,0.000000,4319.615234,4295.000000,4315.641113,4312.948730,4261.153809,4279.743652,4331.538574,4397.948730,4309.358887,4281.025879,4478.461426,4515.897461,4341.538574,4429.102539,0.000000,1.000000,25.000000,,,,0.000000,2.000000,2.000000,0.000000,4.000000,2.000000,2.000000,0.000000,0.000000,4.000000,4.000000,4.000000,4.000000,4.000000,4.000000,0.000000,,,,,,,,,,,,,,,,,,,,,,,,,,,,
1732157285.562944,1732157285.564801,58.000000,0.000000,4320.256348,4296.282227,4318.717773,4311.410156,4283.077148,4280.384766,4328.333496,4397.563965,4296.025879,4278.333496,4477.436035,4508.461426,4342.307617,4426.794922,0.000000,1.000000,25.000000,,,,0.000000,2.000000,2.000000,0.000000,4.000000,2.000000,2.000000,0.000000,0.000000,4.000000,4.000000,4.000000,4.000000,4.000000,4.000000,0.000000,,,,,,,,,,,,,,,,,,,,,,,,,,,,
1732157285.570752,1732157285.572609,59.000000,0.000000,4314.230957,4296.282227,4318.974121,4312.307617,4291.025879,4280.641113,4325.000000,4397.820313,4293.461426,4277.051270,4474.615234,4512.436035,4342.692383,4428.077148,0.000000,1.000000,25.000000,,,,0.000000,2.000000,2.000000,0.000000,4.000000,2.000000,2.000000,0.000000,0.000000,4.000000,4.000000,4.000000,4.000000,4.000000,4.000000,0.000000,,,,,,,,,,,,,,,,,,,,,,,,,,,,
1732157285.578560,1732157285.580518,60.000000,0.000000,4308.333496,4292.692383,4316.025879,4310.384766,4273.205078,4280.769043,4330.512695,4397.692383,4296.538574,4269.230957,4467.820313,4511.410156,4333.333496,4423.846191,0.000000,1.000000,25.000000,,,,0.000000,2.000000,2.000000,0.000000,4.000000,2.000000,2.000000,0.000000,0.000000,4.000000,4.000000,4.000000,4.000000,4.000000,4.000000,0.000000,,,,,,,,,,,,,,,,,15.000000,0.000000,0.522646,0.493896,-0.527283,0.452637,0.980588,0.040532,-0.037114,-34.962803,46.409336,31.310144
1732157285.586368,1732157285.588326,61.000000,0.000000,4306.153809,4289.487305,4317.051270,4303.846191,4266.025879,4282.692383,4332.948730,4397.820313,4297.307617,4268.846191,4466.410156,4506.025879,4323.461426,4413.846191,0.000000,1.000000,25.000000,,,,0.000000,2.000000,2.000000,0.000000,4.000000,2.000000,2.000000,0.000000,0.000000,4.000000,4.000000,4.000000,4.000000,4.000000,4.000000,0.000000,,,,,,,,,,,,,,,,,,,,,,,,,,,,
1732157285.594177,1732157285.596334,62.000000,0.000000,4306.538574,4292.692383,4318.077148,4305.128418,4275.256348,4283.846191,4331.794922,4397.436035,4300.384766,4277.692383,4471.153809,4505.769043,4327.307617,4414.358887,0.000000,1.000000,25.000000,,,,0.000000,2.000000,2.000000,0.000000,4.000000,2.000000,2.000000,0.000000,0.000000,4.000000,4.000000,4.000000,4.000000,4.000000,4.000000,0.000000,,,,,,,,,,,,,,,,,,,,,,,,,,,,
1732157285.601985,1732157285.604142,63.000000,0.000000,4309.358887,4297.820313,4318.077148,4312.051270,4278.333496,4281.410156,4333.205078,4396.025879,4305.897461,4278.333496,4471.538574,4507.563965,4335.128418,4424.871582,0.000000,1.000000,25.000000,,,,0.000000,2.000000,2.000000,0.000000,4.000000,2.000000,2.000000,0.000000,0.000000,4.000000,4.000000,4.000000,4.000000,4.000000,4.000000,0.000000,,,,,,,,,,,,,,,,,,,,,,,,,,,,
1732157285.609793,1732157285.612050,64.000000,0.000000,4310.641113,4297.436035,4318.333496,4309.487305,4285.128418,4278.846191,4334.102539,4395.641113,4303.461426,4276.538574,4472.820313,4508.205078,4335.256348,4428.589844,0.000000,1.000000,25.000000,,,,0.000000,2.000000,2.000000,0.000000,4.000000,2.000000,2.000000,0.000000,0.000000,4.000000,4.000000,4.000000,4.000000,4.000000,4.000000,0.000000,,,,,,,,,,,,,,,,,16.000000,0.000000,0.523365,0.494141,-0.526550,0.452393,0.980588,0.043462,-0.036137,-34.653202,46.299896,31.409550
1732157285.617601,1732157285.619858,65.000000,0.000000,4309.871582,4295.000000,4317.948730,4301.922852,4296.666504,4279.487305,4334.487305,4397.436035,4300.256348,4278.333496,4478.846191,4508.589844,4334.743652,4426.666504,1591.000000,1.000000,25.000000,,,,0.000000,2.000000,2.000000,0.000000,4.000000,2.000000,2.000000,0.000000,0.000000,4.000000,4.000000,4.000000,4.000000,4.000000,4.000000,0.000000,,,,,,,,,,,,,,,,,,,,,,,,,,,,
1732157285.625410,1732157285.627866,66.000000,0.000000,4309.871582,4295.897461,4317.820313,4304.871582,4281.410156,4282.179688,4333.077148,4397.692383,4298.717773,4270.897461,4477.179688,4508.077148,4335.769043,4426.666504,1382.000000,1.000000,25.000000,,,,0.000000,2.000000,2.000000,0.000000,4.000000,2.000000,2.000000,0.000000,0.000000,4.000000,4.000000,4.000000,4.000000,4.000000,4.000000,0.000000,,,,,,,,,,,,,,,,,,,,,,,,,,,,
1732157285.633218,1732157285.635675,67.000000,0.000000,4310.512695,4295.256348,4319.230957,4311.282227,4258.717773,4282.051270,4329.615234,4396.794922,4297.820313,4264.358887,4471.153809,4507.948730,4333.974121,4426.922852,1409.000000,1.000000,25.000000,,,,0.000000,2.000000,2.000000,0.000000,4.000000,2.000000,2.000000,0.000000,0.000000,4.000000,4.000000,4.000000,4.000000,4.000000,4.000000,0.000000,,,,,,,,,,,,,,,,,,,,,,,,,,,,
1732157285.641026,1732157285.643383,68.000000,0.000000,4311.666504,4294.871582,4320.512695,4310.384766,4270.512695,4280.641113,4329.743652,4397.436035,4296.282227,4266.538574,4471.538574,4508.717773,4333.846191,4426.538574,1406.000000,1.000000,25.000000,,,,0.000000,2.000000,2.000000,0.000000,4.000000,2.000000,2.000000,0.000000,0.000000,4.000000,4.000000,4.000000,4.000000,4.000000,4.000000,0.000000,,,,,,,,,,,,,,,,,17.000000,0.000000,0.524456,0.494934,-0.525452,0.451538,0.994750,0.067391,-0.044439,-34.835762,46.282913,31.296736
1732157285.648834,1732157285.651191,69.000000,0.000000,4312.436035,4295.641113,4319.615234,4308.589844,4289.358887,4281.922852,4332.179688,4398.333496,4294.102539,4265.384766,4473.333496,4508.333496,4335.512695,4428.205078,1230.000000,1.000000,25.000000,,,,0.000000,2.000000,2.000000,0.000000,4.000000,2.000000,2.000000,0.000000,0.000000,4.000000,4.000000,4.000000,4.000000,4.000000,4.000000,0.000000,,,,,,,,,,,,,,,,,,,,,,,,,,,,
1732157285.656643,1732157285.658799,70.000000,0.000000,4309.871582,4294.102539,4318.589844,4308.589844,4287.563965,4282.820313,4329.487305,4396.922852,4295.000000,4267.692383,4471.794922,4509.358887,4335.256348,4430.769043,0.000000,1.000000,25.000000,,,,0.000000,2.000000,2.000000,0.000000,4.000000,2.000000,2.000000,0.000000,0.000000,4.000000,4.000000,4.000000,4.000000,4.000000,4.000000,0.000000,,,,,,,,,,,,,,,,,,,,,,,,,,,,
1732157285.664451,1732157285.666608,71.000000,0.000000,4307.692383,4293.974121,4319.871582,4308.589844,4282.948730,4279.743652,4327.692383,4397.692383,4296.794922,4277.179688,4470.897461,4510.000000,4333.333496,4427.179688,0.000000,1.000000,25.000000,,,,0.000000,2.000000,2.000000,0.000000,4.000000,2.000000,2.000000,0.000000,0.000000,4.000000,4.000000,4.000000,4.000000,4.000000,4.000000,0.000000,,,,,,,,,,,,,,,,,,,,,,,,,,,,
1732157285.672259,1732157285.674316,72.000000,0.000000,4309.487305,4295.897461,4318.974121,4310.128418,4275.000000,4278.205078,4330.512695,4398.717773,4300.512695,4280.384766,4474.358887,4507.436035,4332.563965,4420.641113,1524.000000,1.000000,25.000000,,,,0.000000,2.000000,2.000000,0.000000,4.000000,2.000000,2.000000,0.000000,0.000000,4.000000,4.000000,4.000000,4.000000,4.000000,4.000000,0.000000,,,,,,,,,,,,,,,,,18.000000,0.000000,0.524702,0.496033,-0.524536,0.451111,0.977658,0.066903,-0.028812,-34.753632,46.084160,31.228689
1732157285.680067,1732157285.682124,73.000000,0.000000,4310.897461,4295.384766,4315.512695,4311.410156,4264.487305,4280.512695,4329.358887,4395.897461,4304.358887,4278.461426,4478.333496,4510.000000,4337.692383,4422.179688,1671.000000,1.000000,25.000000,,,,0.000000,2.000000,2.000000,0.000000,4.000000,2.000000,2.000000,0.000000,0.000000,4.000000,4.000000,4.000000,4.000000,4.000000,4.000000,0.000000,,,,,,,,,,,,,,,,,,,,,,,,,,,,
1732157285.687876,1732157285.689733,74.000000,0.000000,4307.563965,4292.820313,4312.948730,4308.974121,4268.461426,4282.051270,4326.282227,4396.025879,4300.641113,4280.641113,4475.897461,4513.333496,4339.743652,4426.410156,1526.000000,1.000000,25.000000,,,,0.000000,2.000000,2.000000,0.000000,4.000000,2.000000,2.000000,0.000000,0.000000,4.000000,4.000000,4.000000,4.000000,4.000000,4.000000,0.000000,,,,,,,,,,,,,,,,,,,,,,,,,,,,
1732157285.695684,1732157285.697541,75.000000,0.000000,4303.461426,4291.794922,4315.641113,4308.461426,4277.179688,4280.256348,4328.205078,4398.846191,4295.384766,4280.128418,4475.128418,4514.102539,4335.769043,4425.256348,1566.000000,1.000000,25.000000,,,,0.000000,2.000000,2.000000,0.000000,4.000000,2.000000,2.000000,0.000000,0.000000,4.000000,4.000000,4.000000,4.000000,4.000000,4.000000,0.000000,,,,,,,,,,,,,,,,,,,,,,,,,,,,
1732157285.703492,1732157285.705249,76.000000,0.000000,4306.410156,4293.846191,4318.077148,4310.897461,4278.205078,4279.615234,4331.410156,4398.333496,4296.282227,4277.563965,4477.820313,4515.384766,4337.692383,4427.051270,1691.000000,1.000000,25.000000,,,,0.000000,2.000000,2.000000,0.000000,4.000000,2.000000,2.000000,0.000000,0.000000,4.000000,4.000000,4.000000,4.000000,4.000000,4.000000,0.000000,,,,,,,,,,,,,,,,,19.000000,0.000000,0.524829,0.496277,-0.524231,0.451050,0.984984,0.058113,-0.046881,-34.578777,46.289837,31.185238
1732157285.711300,1732157285.713057,77.000000,0.000000,4310.769043,4295.384766,4317.563965,4310.384766,4288.333496,4279.743652,4329.358887,4396.666504,4298.589844,4277.179688,4474.230957,4513.717773,4340.769043,4428.589844,1673.000000,1.000000,25.000000,,,,0.000000,2.000000,2.000000,0.000000,4.000000,2.000000,2.000000,0.000000,0.000000,4.000000,4.000000,4.000000,4.000000,4.000000,4.000000,0.000000,,,,,,,,,,,,,,,,,,,,,,,,,,,,
1732157285.719108,1732157285.720666,78.000000,0.000000,4309.615234,4293.333496,4317.948730,4307.820313,4298.077148,4278.717773,4328.846191,4399.230957,4298.717773,4276.410156,4471.922852,4507.692383,4334.743652,4421.794922,1526.000000,1.000000,25.000000,,,,0.000000,2.000000,2.000000,0.000000,4.000000,2.000000,2.000000,0.000000,0.000000,4.000000,4.000000,4.000000,4.000000,4.000000,4.000000,0.000000,1.000000,0.000000,2.000000,2.000000,0.000000,4.000000,2.000000,2.000000,0.000000,0.000000,4.000000,4.000000,4.000000,4.000000,4.000000,4.000000,,,,,,,,,,,,
1732157285.726917,1732157285.728474,79.000000,0.000000,4309.615234,4294.615234,4321.153809,4312.307617,4279.743652,4283.205078,4334.230957,4401.025879,4303.205078,4277.948730,4475.000000,4504.743652,4330.641113,4418.077148,1566.000000,1.000000,25.000000,,,,0.000000,2.000000,2.000000,0.000000,4.000000,2.000000,2.000000,0.000000,0.000000,4.000000,4.000000,4.000000,4.000000,4.000000,4.000000,0.000000,,,,,,,,,,,,,,,,,,,,,,,,,,,,
1732157285.734725,1732157285.736182,80.000000,0.000000,4312.948730,4300.000000,4319.487305,4317.692383,4268.717773,4287.436035,4333.589844,4398.461426,4304.230957,4280.000000,4473.846191,4506.282227,4334.230957,4418.333496,1691.000000,1.000000,25.000000,,,,0.000000,2.000000,2.000000,0.000000,4.000000,2.000000,2.000000,0.000000,0.000000,4.000000,4.000000,4.000000,4.000000,4.000000,4.000000,0.000000,,,,,,,,,,,,,,,,,20.000000,0.000000,0.524791,0.496399,-0.524048,0.451172,0.989379,0.055671,-0.032719,-34.570477,46.173100,31.250044
1732157285.742533,1732157285.743990,81.000000,0.000000,4312.820313,4297.948730,4315.128418,4313.205078,4284.230957,4281.282227,4331.794922,4397.179688,4299.102539,4277.948730,4467.692383,4506.794922,4334.487305,4415.256348,1673.000000,1.000000,25.000000,,,,0.000000,2.000000,2.000000,0.000000,4.000000,2.000000,2.000000,0.000000,0.000000,4.000000,4.000000,4.000000,4.000000,4.000000,4.000000,0.000000,,,,,,,,,,,,,,,,,,,,,,,,,,,,
1732157285.750342,1732157285.751599,82.000000,0.000000,4305.256348,4295.000000,4315.641113,4309.871582,4284.358887,4281.538574,4336.538574,4398.974121,4299.871582,4277.948730,4466.410156,4507.051270,4332.948730,4414.358887,1526.000000,1.000000,25.000000,,,,0.000000,2.000000,2.000000,0.000000,4.000000,2.000000,2.000000,0.000000,0.000000,4.000000,4.000000,4.000000,4.000000,4.000000,4.000000,0.000000,,,,,,,,,,,,,,,,,,,,,,,,,,,,
1732157285.758150,1732157285.759407,83.000000,0.000000,4297.820313,4295.128418,4318.333496,4310.897461,4279.743652,4290.512695,4336.666504,4398.589844,4305.000000,4282.563965,4466.922852,4506.794922,4333.846191,4414.743652,1566.000000,1.000000,25.000000,,,,0.000000,2.000000,2.000000,0.000000,4.000000,2.000000,2.000000,0.000000,0.000000,4.000000,4.000000,4.000000,4.000000,4.000000,4.000000,0.000000,,,,,,,,,,,,,,,,,,,,,,,,,,,,
1732157285.765958,1732157285.767115,84.000000,0.000000,4297.179688,4287.692383,4318.333496,4303.461426,4295.641113,4287.051270,4329.487305,4396.410156,4303.461426,4282.692383,4466.025879,4503.974121,4332.307617,4412.820313,1691.000000,1.000000,25.000000,,,,0.000000,2.000000,2.000000,0.000000,4.000000,2.000000,2.000000,0.000000,0.000000,4.000000,4.000000,4.000000,4.000000,4.000000,4.000000,0.000000,,,,,,,,,,,,,,,,,21.000000,0.000000,0.524254,0.496338,-0.524170,0.451721,0.974240,0.037602,-0.039556,-34.700420,46.008545,31.307535
1732157285.773766,1732157285.774924,85.000000,0.000000,4298.846191,4285.128418,4315.897461,4296.538574,4295.769043,4282.436035,4329.487305,4398.205078,4302.820313,4280.256348,4469.102539,4503.589844,4332.179688,4412.436035,1673.000000,1.000000,25.000000,,,,0.000000,2.000000,2.000000,0.000000,4.000000,2.000000,2.000000,0.000000,0.000000,4.000000,4.000000,4.000000,4.000000,4.000000,4.000000,0.000000,,,,,,,,,,,,,,,,,,,,,,,,,,,,
1732157285.781575,1732157285.782532,86.000000,0.000000,4297.179688,4292.692383,4315.641113,4300.384766,4272.436035,4292.051270,4334.102539,4398.846191,4311.153809,4289.102539,4474.102539,4510.128418,4339.102539,4415.000000,1526.000000,1.000000,25.000000,,,,0.000000,2.000000,2.000000,0.000000,4.000000,2.000000,2.000000,0.000000,0.000000,4.000000,4.000000,4.000000,4.000000,4.000000,4.000000,0.000000,,,,,,,,,,,,,,,,,,,,,,,,,,,,
1732157285.789383,1732157285.790340,87.000000,0.000000,4296.794922,4294.615234,4316.025879,4304.230957,4270.256348,4298.589844,4332.051270,4395.641113,4312.051270,4296.410156,4475.641113,4515.256348,4342.179688,4415.256348,1566.000000,1.000000,25.000000,,,,0.000000,2.000000,2.000000,0.000000,4.000000,2.000000,2.000000,0.000000,0.000000,4.000000,4.000000,4.000000,4.000000,4.000000,4.000000,0.000000,,,,,,,,,,,,,,,,,,,,,,,,,,,,
1732157285.797191,1732157285.798049,88.000000,0.000000,4298.974121,4291.538574,4315.256348,4301.410156,4292.820313,4294.743652,4330.769043,4396.410156,4300.641113,4286.666504,4472.948730,4508.589844,4336.410156,4408.974121,1691.000000,1.000000,25.000000,,,,0.000000,2.000000,2.000000,0.000000,4.000000,2.000000,2.000000,0.000000,0.000000,4.000000,4.000000,4.000000,4.000000,4.000000,4.000000,0.000000,,,,,,,,,,,,,,,,,22.000000,0.000000,0.524090,0.496216,-0.524292,0.451904,0.974240,0.037602,-0.039556,-34.905674,46.016922,31.340771
1732157285.804999,1732157285.805857,89.000000,0.000000,4297.179688,4293.077148,4313.974121,4301.153809,4295.641113,4292.051270,4333.846191,4398.974121,4296.922852,4279.358887,4470.641113,4503.589844,4335.769043,4403.974121,1673.000000,1.000000,25.000000,,,,0.000000,2.000000,2.000000,0.000000,4.000000,2.000000,2.000000,0.000000,0.000000,4.000000,4.000000,4.000000,4.000000,4.000000,4.000000,0.000000,,,,,,,,,,,,,,,,,,,,,,,,,,,,
1732157285.812807,1732157285.813865,90.000000,0.000000,4296.410156,4293.589844,4314.230957,4307.051270,4276.666504,4292.051270,4333.846191,4397.436035,4307.820313,4287.692383,4472.051270,4507.692383,4342.692383,4408.205078,1526.000000,1.000000,25.000000,,,,0.000000,2.000000,2.000000,0.000000,4.000000,2.000000,2.000000,0.000000,0.000000,4.000000,4.000000,4.000000,4.000000,4.000000,4.000000,0.000000,,,,,,,,,,,,,,,,,,,,,,,,,,,,
1732157285.820616,1732157285.821673,91.000000,0.000000,4301.794922,4293.589844,4314.743652,4310.897461,4277.692383,4293.205078,4332.436035,4396.794922,4314.615234,4293.846191,4473.333496,4510.384766,4341.666504,4413.589844,1566.000000,1.000000,25.000000,,,,0.000000,2.000000,2.000000,0.000000,4.000000,2.000000,2.000000,0.000000,0.000000,4.000000,4.000000,4.000000,4.000000,4.000000,4.000000,0.000000,,,,,,,,,,,,,,,,,,,,,,,,,,,,
1732157285.828424,1732157285.829581,92.000000,0.000000,4305.897461,4295.512695,4314.615234,4310.256348,4289.743652,4295.128418,4332.692383,4398.077148,4303.974121,4287.820313,4472.692383,4509.102539,4334.487305,4413.333496,1691.000000,1.000000,25.000000,,,,0.000000,2.000000,2.000000,0.000000,4.000000,2.000000,2.000000,0.000000,0.000000,4.000000,4.000000,4.000000,4.000000,4.000000,4.000000,0.000000,,,,,,,,,,,,,,,,,23.000000,0.000000,0.523864,0.496094,-0.524475,0.452087,0.983518,0.044927,-0.037602,-34.876926,46.010372,31.456024
1732157285.836232,1732157285.837389,93.000000,0.000000,4301.666504,4291.153809,4317.436035,4308.205078,4286.025879,4289.230957,4331.794922,4397.820313,4296.282227,4280.384766,4472.820313,4506.794922,4335.769043,4413.333496,1673.000000,1.000000,25.000000,,,,0.000000,2.000000,2.000000,0.000000,4.000000,2.000000,2.000000,0.000000,0.000000,4.000000,4.000000,4.000000,4.000000,4.000000,4.000000,0.000000,,,,,,,,,,,,,,,,,,,,,,,,,,,,
1732157285.844041,1732157285.845397,94.000000,0.000000,4294.871582,4285.384766,4319.487305,4306.410156,4290.128418,4281.410156,4329.102539,4397.820313,4299.358887,4281.282227,4476.666504,4507.948730,4342.692383,4414.743652,1526.000000,1.000000,25.000000,,,,0.000000,2.000000,2.000000,0.000000,4.000000,2.000000,2.000000,0.000000,0.000000,4.000000,4.000000,4.000000,4.000000,4.000000,4.000000,0.000000,,,,,,,,,,,,,,,,,,,,,,,,,,,,
1732157285.851849,1732157285.853205,95.000000,0.000000,4296.025879,4288.717773,4319.102539,4303.846191,4299.615234,4281.666504,4326.025879,4398.589844,4299.358887,4289.871582,4477.051270,4514.230957,4343.846191,4415.256348,1566.000000,1.000000,25.000000,,,,0.000000,2.000000,2.000000,0.000000,4.000000,2.000000,2.000000,0.000000,0.000000,4.000000,4.000000,4.000000,4.000000,4.000000,4.000000,0.000000,,,,,,,,,,,,,,,,,,,,,,,,,,,,
1732157285.859657,1732157285.860914,96.000000,0.000000,4297.948730,4290.384766,4316.538574,4305.000000,4286.410156,4286.410156,4328.333496,4398.333496,4298.333496,4294.487305,4475.128418,4515.256348,4338.205078,4418.974121,1691.000000,1.000000,25.000000,,,,0.000000,2.000000,2.000000,0.000000,4.000000,2.000000,2.000000,0.000000,0.000000,4.000000,4.000000,4.000000,4.000000,4.000000,4.000000,0.000000,,,,,,,,,,,,,,,,,24.000000,0.000000,0.523138,0.495667,-0.525024,0.452759,0.996215,0.022952,-0.036137,-34.815311,46.018402,31.586046
1732157285.867465,1732157285.868722,97.000000,0.000000,4296.282227,4286.410156,4315.000000,4308.974121,4272.692383,4288.717773,4336.538574,4397.436035,4307.179688,4293.846191,4477.051270,4507.051270,4337.692383,4420.128418,1673.000000,1.000000,25.000000,,,,0.000000,2.000000,2.000000,0.000000,4.000000,2.000000,2.000000,0.000000,0.000000,4.000000,4.000000,4.000000,4.000000,4.000000,4.000000,0.000000,,,,,,,,,,,,,,,,,,,,,,,,,,,,
1732157285.875273,1732157285.876330,98.000000,0.000000,4299.487305,4288.974121,4317.436035,4310.769043,4278.333496,4287.179688,4337.307617,4396.538574,4310.641113,4293.846191,4475.512695,4505.897461,4342.436035,4415.897461,1526.000000,1.000000,25.000000,,,,0.000000,2.000000,2.000000,0.000000,4.000000,2.000000,2.000000,0.000000,0.000000,4.000000,4.000000,4.000000,4.000000,4.000000,4.000000,0.000000,,,,,,,,,,,,,,,,,,,,,,,,,,,,
1732157285.883082,1732157285.884139,99.000000,0.000000,4303.974121,4289.102539,4317.051270,4308.461426,4293.333496,4282.307617,4330.000000,4397.051270,4299.358887,4289.487305,4471.025879,4513.974121,4337.692383,4415.384766,1566.000000,1.000000,25.000000,,,,0.000000,2.000000,2.000000,0.000000,4.000000,2.000000,2.000000,0.000000,0.000000,4.000000,4.000000,4.000000,4.000000,4.000000,4.000000,0.000000,,,,,,,,,,,,,,,,,,,,,,,,,,,,
1732157285.890890,1732157285.892047,100.000000,0.000000,4304.102539,4283.205078,4313.461426,4305.256348,4297.436035,4279.230957,4329.102539,4399.487305,4296.666504,4287.307617,4478.717773,4517.692383,4333.974121,4420.512695,1691.000000,1.000000,25.000000,,,,0.000000,2.000000,2.000000,0.000000,4.000000,2.000000,2.000000,0.000000,0.000000,4.000000,4.000000,4.000000,4.000000,4.000000,4.000000,0.000000,,,,,,,,,,,,,,,,,25.000000,0.000000,0.522962,0.495361,-0.525330,0.452942,0.996215,0.022952,-0.036137,-34.793736,46.071571,31.601364
1732157285.898698,1732157285.899855,101.000000,0.000000,4306.666504,4286.922852,4315.769043,4307.436035,4284.102539,4285.256348,4335.641113,4399.102539,4307.820313,4294.358887,4487.307617,4518.974121,4339.102539,4421.538574,1673.000000,1.000000,25.000000,,,,0.000000,2.000000,2.000000,0.000000,4.000000,2.000000,2.000000,0.000000,0.000000,4.000000,4.000000,4.000000,4.000000,4.000000,4.000000,0.000000,,,,,,,,,,,,,,,,,,,,,,,,,,,,
1732157285.906506,1732157285.907863,102.000000,0.000000,4309.743652,4295.256348,4319.358887,4310.641113,4273.846191,4288.846191,4335.897461,4396.153809,4313.589844,4297.692383,4479.871582,4517.307617,4341.666504,4417.307617,1526.000000,1.000000,25.000000,,,,0.000000,2.000000,2.000000,0.000000,4.000000,2.000000,2.000000,0.000000,0.000000,4.000000,4.000000,4.000000,4.000000,4.000000,4.000000,0.000000,,,,,,,,,,,,,,,,,,,,,,,,,,,,
1732157285.914315,1732157285.915671,103.000000,0.000000,4305.256348,4294.743652,4316.538574,4309.615234,4282.179688,4282.820313,4331.153809,4398.333496,4312.307617,4294.487305,4473.846191,4510.512695,4338.461426,4414.102539,1566.000000,1.000000,25.000000,,,,0.000000,2.000000,2.000000,0.000000,4.000000,2.000000,2.000000,0.000000,0.000000,4.000000,4.000000,4.000000,4.000000,4.000000,4.000000,0.000000,,,,,,,,,,,,,,,,,,,,,,,,,,,,
1732157285.922123,1732157285.923579,104.000000,0.000000,4301.666504,4292.307617,4314.487305,4308.333496,4286.153809,4281.282227,4330.384766,4400.897461,4308.589844,4295.128418,4478.077148,4507.307617,4341.794922,4413.974121,1691.000000,1.000000,25.000000,,,,0.000000,2.000000,2.000000,0.000000,4.000000,2.000000,2.000000,0.000000,0.000000,4.000000,4.000000,4.000000,4.000000,4.000000,4.000000,0.000000,,,,,,,,,,,,,,,,,26.000000,0.000000,0.522559,0.494202,-0.526611,0.453186,0.995727,0.034184,-0.043462,-34.769592,46.026306,31.708771
1732157285.929931,1732157285.931387,105.000000,0.000000,4302.692383,4293.461426,4316.282227,4309.230957,4282.820313,4286.922852,4331.666504,4397.563965,4303.717773,4292.051270,4475.897461,4509.743652,4344.102539,4416.794922,1673.000000,1.000000,25.000000,,,,0.000000,2.000000,2.000000,0.000000,4.000000,2.000000,2.000000,0.000000,0.000000,4.000000,4.000000,4.000000,4.000000,4.000000,4.000000,0.000000,,,,,,,,,,,,,,,,,,,,,,,,,,,,
1732157285.937739,1732157285.939395,106.000000,0.000000,4299.230957,4293.077148,4315.256348,4308.461426,4299.358887,4284.743652,4329.230957,4395.512695,4298.717773,4281.538574,4470.000000,4508.589844,4335.128418,4414.487305,1526.000000,1.000000,25.000000,,,,0.000000,2.000000,2.000000,0.000000,4.000000,2.000000,2.000000,0.000000,0.000000,4.000000,4.000000,4.000000,4.000000,4.000000,4.000000,0.000000,,,,,,,,,,,,,,,,,,,,,,,,,,,,
1732157285.945548,1732157285.947204,107.000000,0.000000,4295.512695,4294.871582,4315.256348,4308.974121,4308.589844,4281.538574,4327.692383,4396.922852,4297.436035,4280.128418,4471.282227,4504.230957,4329.743652,4408.205078,1566.000000,1.000000,25.000000,,,,0.000000,2.000000,2.000000,0.000000,4.000000,2.000000,2.000000,0.000000,0.000000,4.000000,4.000000,4.000000,4.000000,4.000000,4.000000,0.000000,,,,,,,,,,,,,,,,,,,,,,,,,,,,
1732157285.953356,1732157285.955112,108.000000,0.000000,4296.282227,4294.230957,4316.666504,4311.153809,4289.487305,4286.025879,4331.025879,4396.666504,4300.769043,4291.282227,4474.615234,4507.179688,4334.358887,4407.692383,1691.000000,1.000000,25.000000,,,,0.000000,2.000000,2.000000,0.000000,4.000000,2.000000,2.000000,0.000000,0.000000,4.000000,4.000000,4.000000,4.000000,4.000000,4.000000,0.000000,,,,,,,,,,,,,,,,,27.000000,0.000000,0.522473,0.493530,-0.527588,0.452881,0.971310,0.048834,-0.025882,-34.880035,45.869640,31.650772
1732157285.961164,1732157285.962920,109.000000,0.000000,4297.820313,4293.461426,4316.410156,4310.000000,4273.846191,4284.871582,4331.282227,4396.282227,4301.282227,4297.051270,4474.743652,4511.666504,4335.897461,4414.615234,1673.000000,1.000000,25.000000,,,,0.000000,2.000000,2.000000,0.000000,4.000000,2.000000,2.000000,0.000000,0.000000,4.000000,4.000000,4.000000,4.000000,4.000000,4.000000,0.000000,,,,,,,,,,,,,,,,,,,,,,,,,,,,
1732157285.968972,1732157285.970928,110.000000,0.000000,4298.461426,4294.230957,4315.641113,4310.128418,4282.948730,4282.563965,4331.153809,4398.077148,4297.820313,4286.538574,4469.230957,4512.179688,4327.948730,4414.487305,1526.000000,1.000000,25.000000,,,,0.000000,2.000000,2.000000,0.000000,4.000000,2.000000,2.000000,0.000000,0.000000,4.000000,4.000000,4.000000,4.000000,4.000000,4.000000,0.000000,,,,,,,,,,,,,,,,,,,,,,,,,,,,
1732157285.976781,1732157285.978736,111.000000,0.000000,4297.179688,4290.897461,4315.769043,4307.820313,4290.769043,4292.820313,4332.820313,4399.358887,4298.846191,4279.487305,4464.230957,4508.461426,4326.025879,4404.871582,1566.000000,1.000000,25.000000,,,,0.000000,2.000000,2.000000,0.000000,4.000000,2.000000,2.000000,0.000000,0.000000,4.000000,4.000000,4.000000,4.000000,4.000000,4.000000,0.000000,,,,,,,,,,,,,,,,,,,,,,,,,,,,
1732157285.984589,1732157285.986644,112.000000,0.000000,4296.282227,4288.461426,4315.384766,4304.358887,4294.743652,4295.641113,4330.769043,4399.230957,4299.358887,4280.897461,4461.025879,4505.897461,4333.333496,4403.717773,1691.000000,1.000000,25.000000,,,,0.000000,2.000000,2.000000,0.000000,4.000000,2.000000,2.000000,0.000000,0.000000,4.000000,4.000000,4.000000,4.000000,4.000000,4.000000,0.000000,,,,,,,,,,,,,,,,,28.000000,0.000000,0.522720,0.493530,-0.527710,0.452454,0.968868,0.031742,-0.035649,-34.927830,45.779411,31.793791
1732157285.992397,1732157285.994453,113.000000,0.000000,4297.179688,4287.307617,4315.128418,4306.282227,4304.230957,4283.974121,4330.512695,4397.820313,4294.102539,4280.769043,4461.410156,4506.794922,4335.641113,4411.153809,1673.000000,1.000000,25.000000,,,,0.000000,2.000000,2.000000,0.000000,4.000000,2.000000,2.000000,0.000000,0.000000,4.000000,4.000000,4.000000,4.000000,4.000000,4.000000,0.000000,,,,,,,,,,,,,,,,,,,,,,,,,,,,
1732157286.000205,1732157286.002061,114.000000,0.000000,4297.692383,4283.974121,4315.256348,4305.641113,4292.179688,4280.897461,4335.769043,4396.538574,4294.102539,4282.179688,4471.025879,4507.436035,4335.512695,4413.589844,1526.000000,1.000000,25.000000,,,,0.000000,2.000000,2.000000,0.000000,4.000000,2.000000,2.000000,0.000000,0.000000,4.000000,4.000000,4.000000,4.000000,4.000000,4.000000,0.000000,,,,,,,,,,,,,,,,,,,,,,,,,,,,
1732157286.008014,1732157286.009869,115.000000,0.000000,4296.025879,4281.025879,4315.128418,4301.025879,4272.307617,4291.153809,4334.871582,4397.563965,4300.256348,4285.384766,4477.692383,4508.333496,4336.410156,4412.179688,1566.000000,1.000000,25.000000,,,,0.000000,2.000000,2.000000,0.000000,4.000000,2.000000,2.000000,0.000000,0.000000,4.000000,4.000000,4.000000,4.000000,4.000000,4.000000,0.000000,,,,,,,,,,,,,,,,,,,,,,,,,,,,
1732157286.015822,1732157286.017577,116.000000,0.000000,4295.512695,4280.641113,4315.000000,4301.794922,4276.025879,4295.000000,4328.333496,4398.461426,4297.563965,4282.563965,4472.307617,4508.589844,4334.743652,4414.102539,1691.000000,1.000000,25.000000,,,,0.000000,2.000000,2.000000,0.000000,4.000000,2.000000,2.000000,0.000000,0.000000,4.000000,4.000000,4.000000,4.000000,4.000000,4.000000,0.000000,,,,,,,,,,,,,,,,,29.000000,0.000000,0.522720,0.493530,-0.527710,0.452454,0.977170,0.037114,-0.026859,-34.936543,45.781322,31.789639
1732157286.023630,1732157286.025386,117.000000,0.000000,4297.179688,4281.922852,4315.128418,4306.153809,4286.794922,4287.820313,4331.025879,4397.692383,4294.871582,4280.641113,4467.948730,4508.333496,4331.666504,4415.641113,1673.000000,1.000000,25.000000,,,,0.000000,2.000000,2.000000,0.000000,4.000000,2.000000,2.000000,0.000000,0.000000,4.000000,4.000000,4.000000,4.000000,4.000000,4.000000,0.000000,,,,,,,,,,,,,,,,,,,,,,,,,,,,
1732157286.031438,1732157286.032994,118.000000,0.000000,4298.461426,4287.692383,4317.436035,4304.102539,4282.692383,4282.051270,4334.358887,4397.692383,4296.538574,4283.589844,4472.436035,4512.820313,4333.846191,4415.641113,1526.000000,1.000000,25.000000,,,,0.000000,2.000000,2.000000,0.000000,4.000000,2.000000,2.000000,0.000000,0.000000,4.000000,4.000000,4.000000,4.000000,4.000000,4.000000,0.000000,,,,,,,,,,,,,,,,,,,,,,,,,,,,
1732157286.039246,1732157286.040802,119.000000,0.000000,4297.436035,4289.615234,4318.205078,4298.205078,4277.179688,4282.692383,4332.051270,4398.205078,4295.256348,4281.794922,4472.307617,4515.641113,4337.051270,4415.641113,1566.000000,1.000000,25.000000,,,,0.000000,2.000000,2.000000,0.000000,4.000000,2.000000,2.000000,0.000000,0.000000,4.000000,4.000000,4.000000,4.000000,4.000000,4.000000,0.000000,,,,,,,,,,,,,,,,,,,,,,,,,,,,
1732157286.047055,1732157286.048511,120.000000,0.000000,4296.666504,4282.820313,4315.256348,4295.769043,4289.871582,4283.205078,4331.666504,4398.077148,4295.897461,4277.948730,4461.666504,4515.512695,4332.179688,4412.692383,1691.000000,1.000000,25.000000,,,,0.000000,2.000000,2.000000,0.000000,4.000000,2.000000,2.000000,0.000000,0.000000,4.000000,4.000000,4.000000,4.000000,4.000000,4.000000,0.000000,,,,,,,,,,,,,,,,,30.000000,0.000000,0.522491,0.494080,-0.527527,0.452332,0.986449,0.052741,-0.037114,-34.983601,45.751205,31.499607
1732157286.054863,1732157286.056319,121.000000,0.000000,4298.205078,4280.000000,4313.846191,4299.102539,4296.410156,4280.897461,4333.077148,4397.692383,4296.538574,4280.512695,4455.000000,4515.384766,4326.922852,4410.641113,1673.000000,1.000000,25.000000,,,,0.000000,2.000000,2.000000,0.000000,4.000000,2.000000,2.000000,0.000000,0.000000,4.000000,4.000000,4.000000,4.000000,4.000000,4.000000,0.000000,,,,,,,,,,,,,,,,,,,,,,,,,,,,
1732157286.062671,1732157286.063927,122.000000,0.000000,4298.974121,4283.333496,4316.538574,4303.461426,4275.256348,4281.282227,4333.205078,4397.692383,4295.128418,4283.333496,4465.000000,4513.589844,4331.282227,4410.384766,1526.000000,1.000000,25.000000,,,,0.000000,2.000000,2.000000,0.000000,4.000000,2.000000,2.000000,0.000000,0.000000,4.000000,4.000000,4.000000,4.000000,4.000000,4.000000,0.000000,,,,,,,,,,,,,,,,,,,,,,,,,,,,
1732157286.070480,1732157286.071735,123.000000,0.000000,4296.025879,4283.589844,4317.051270,4299.615234,4259.743652,4282.179688,4331.666504,4398.974121,4299.358887,4286.410156,4477.436035,4507.820313,4337.436035,4411.153809,1566.000000,1.000000,25.000000,,,,0.000000,2.000000,2.000000,0.000000,4.000000,2.000000,2.000000,0.000000,0.000000,4.000000,4.000000,4.000000,4.000000,4.000000,4.000000,0.000000,,,,,,,,,,,,,,,,,,,,,,,,,,,,
1732157286.078288,1732157286.079444,124.000000,0.000000,4297.307617,4282.179688,4314.102539,4295.512695,4275.512695,4280.641113,4327.820313,4399.102539,4304.102539,4291.153809,4476.025879,4512.307617,4336.025879,4412.692383,1691.000000,1.000000,25.000000,,,,0.000000,2.000000,2.000000,0.000000,4.000000,2.000000,2.000000,0.000000,0.000000,4.000000,4.000000,4.000000,4.000000,4.000000,4.000000,0.000000,,,,,,,,,,,,,,,,,31.000000,0.000000,0.521570,0.495422,-0.526917,0.452637,0.976682,0.042974,-0.049322,-34.968384,45.703476,31.479681
1732157286.086096,1732157286.087252,125.000000,0.000000,4302.307617,4282.179688,4313.077148,4298.077148,4282.051270,4282.436035,4327.307617,4397.179688,4300.641113,4290.512695,4470.897461,4522.820313,4334.102539,4413.974121,1673.000000,1.000000,25.000000,,,,0.000000,2.000000,2.000000,0.000000,4.000000,2.000000,2.000000,0.000000,0.000000,4.000000,4.000000,4.000000,4.000000,4.000000,4.000000,0.000000,,,,,,,,,,,,,,,,,,,,,,,,,,,,
1732157286.093904,1732157286.094860,126.000000,0.000000,4298.846191,4281.922852,4313.333496,4298.974121,4279.358887,4283.333496,4331.538574,4396.922852,4293.589844,4281.025879,4472.563965,4517.179688,4335.897461,4413.589844,1526.000000,1.000000,25.000000,,,,0.000000,2.000000,2.000000,0.000000,4.000000,2.000000,2.000000,0.000000,0.000000,4.000000,4.000000,4.000000,4.000000,4.000000,4.000000,0.000000,,,,,,,,,,,,,,,,,,,,,,,,,,,,
1732157286.101713,1732157286.102669,127.000000,0.000000,4292.948730,4281.538574,4314.102539,4296.282227,4294.487305,4282.948730,4331.794922,4396.666504,4293.461426,4279.358887,4475.512695,4503.846191,4336.025879,4412.051270,25.000000,1.000000,25.000000,,,,0.000000,2.000000,2.000000,0.000000,4.000000,2.000000,2.000000,0.000000,0.000000,4.000000,4.000000,4.000000,4.000000,4.000000,4.000000,0.000000,,,,,,,,,,,,,,,,,,,,,,,,,,,,
1732157286.109521,1732157286.110377,0.000000,0.000000,4296.666504,4280.897461,4315.256348,4296.282227,4289.743652,4286.025879,4332.948730,4396.538574,4300.641113,4287.307617,4470.256348,4504.102539,4336.025879,4412.563965,0.000000,1.000000,25.000000,,,,0.000000,2.000000,2.000000,0.000000,4.000000,2.000000,2.000000,0.000000,0.000000,4.000000,4.000000,4.000000,4.000000,4.000000,4.000000,0.000000,,,,,,,,,,,,,,,,,0.000000,0.000000,0.521280,0.495728,-0.526917,0.452637,0.976193,0.043951,-0.047857,-34.777721,45.614815,31.338541
1732157286.117329,1732157286.118185,1.000000,0.000000,4300.641113,4278.717773,4315.769043,4298.717773,4266.282227,4289.102539,4335.384766,4399.487305,4303.461426,4285.512695,4464.358887,4511.282227,4335.512695,4413.717773,1591.000000,1.000000,25.000000,,,,0.000000,2.000000,2.000000,0.000000,4.000000,2.000000,2.000000,0.000000,0.000000,4.000000,4.000000,4.000000,4.000000,4.000000,4.000000,0.000000,,,,,,,,,,,,,,,,,,,,,,,,,,,,
1732157286.125137,1732157286.125794,2.000000,0.000000,4297.179688,4279.743652,4317.307617,4298.205078,4269.230957,4286.794922,4334.743652,4399.102539,4296.922852,4280.512695,4470.000000,4508.846191,4334.102539,4415.512695,1382.000000,1.000000,25.000000,,,,0.000000,2.000000,2.000000,0.000000,4.000000,2.000000,2.000000,0.000000,0.000000,4.000000,4.000000,4.000000,4.000000,4.000000,4.000000,0.000000,,,,,,,,,,,,,,,,,,,,,,,,,,,,
1732157286.132945,1732157286.133602,3.000000,0.000000,4294.230957,4282.307617,4318.589844,4295.384766,4279.743652,4283.589844,4335.897461,4396.282227,4292.051270,4284.358887,4476.666504,4509.102539,4335.897461,4418.333496,1409.000000,1.000000,25.000000,,,,0.000000,2.000000,2.000000,0.000000,4.000000,2.000000,2.000000,0.000000,0.000000,4.000000,4.000000,4.000000,4.000000,4.000000,4.000000,0.000000,,,,,,,,,,,,,,,,,,,,,,,,,,,,
1732157286.140754,1732157286.141310,4.000000,0.000000,4296.025879,4281.025879,4317.436035,4295.641113,4282.307617,4282.051270,4333.589844,4397.820313,4295.512695,4287.820313,4471.538574,4519.871582,4338.846191,4418.717773,1411.000000,1.000000,25.000000,,,,0.000000,2.000000,2.000000,0.000000,4.000000,2.000000,2.000000,0.000000,0.000000,4.000000,4.000000,4.000000,4.000000,4.000000,4.000000,0.000000,,,,,,,,,,,,,,,,,1.000000,0.000000,0.521280,0.495728,-0.526917,0.452637,0.978635,0.040044,-0.063973,-34.698288,45.498001,31.179218
1732157286.148562,1732157286.149118,5.000000,0.000000,4296.538574,4279.743652,4313.846191,4295.641113,4287.179688,4281.282227,4329.743652,4398.846191,4298.589844,4289.871582,4470.256348,4521.922852,4341.025879,4420.000000,1230.000000,1.000000,25.000000,,,,0.000000,2.000000,2.000000,0.000000,4.000000,2.000000,2.000000,0.000000,0.000000,4.000000,4.000000,4.000000,4.000000,4.000000,4.000000,0.000000,,,,,,,,,,,,,,,,,,,,,,,,,,,,
1732157286.156370,1732157286.156727,6.000000,0.000000,4297.692383,4281.410156,4312.436035,4294.358887,4277.948730,4282.692383,4330.769043,4396.794922,4297.436035,4295.512695,4476.153809,4520.384766,4343.077148,4425.897461,0.000000,1.000000,25.000000,,,,0.000000,2.000000,2.000000,0.000000,4.000000,2.000000,2.000000,0.000000,0.000000,4.000000,4.000000,4.000000,4.000000,4.000000,4.000000,0.000000,,,,,,,,,,,,,,,,,,,,,,,,,,,,
1732157286.164178,1732157286.164535,7.000000,0.000000,4300.128418,4282.436035,4314.743652,4299.102539,4260.897461,4282.179688,4331.794922,4397.948730,4298.717773,4299.358887,4477.307617,4524.487305,4343.205078,4428.333496,0.000000,1.000000,25.000000,,,,0.000000,2.000000,2.000000,0.000000,4.000000,2.000000,2.000000,0.000000,0.000000,4.000000,4.000000,4.000000,4.000000,4.000000,4.000000,0.000000,,,,,,,,,,,,,,,,,,,,,,,,,,,,
1732157286.171987,1732157286.172243,8.000000,0.000000,4300.384766,4280.897461,4314.743652,4304.230957,4262.563965,4281.922852,4329.743652,4399.743652,4300.384766,4295.000000,4475.641113,4522.563965,4342.179688,4427.179688,1524.000000,1.000000,25.000000,,,,0.000000,2.000000,2.000000,0.000000,4.000000,2.000000,2.000000,0.000000,0.000000,4.000000,4.000000,4.000000,4.000000,4.000000,4.000000,0.000000,,,,,,,,,,,,,,,,,2.000000,0.000000,0.520271,0.496582,-0.526794,0.453003,0.977170,0.034184,-0.056648,-34.600613,45.565048,31.083500
1732157286.179795,1732157286.180051,9.000000,0.000000,4297.692383,4280.128418,4313.846191,4303.461426,4280.256348,4284.487305,4330.512695,4398.077148,4301.666504,4290.000000,4473.333496,4517.179688,4341.794922,4428.717773,1671.000000,1.000000,25.000000,,,,0.000000,2.000000,2.000000,0.000000,4.000000,2.000000,2.000000,0.000000,0.000000,4.000000,4.000000,4.000000,4.000000,4.000000,4.000000,0.000000,,,,,,,,,,,,,,,,,,,,,,,,,,,,
1732157286.187603,1732157286.187660,10.000000,0.000000,4295.384766,4281.153809,4315.512695,4301.410156,4295.128418,4282.820313,4331.666504,4397.436035,4304.487305,4292.051270,4472.436035,4514.743652,4343.077148,4423.333496,1534.000000,1.000000,25.000000,,,,0.000000,2.000000,2.000000,0.000000,4.000000,2.000000,2.000000,0.000000,0.000000,4.000000,4.000000,4.000000,4.000000,4.000000,4.000000,0.000000,,,,,,,,,,,,,,,,,,,,,,,,,,,,
1732157286.195411,1732157286.195468,11.000000,0.000000,4295.512695,4282.051270,4316.538574,4302.563965,4284.487305,4281.922852,4332.051270,4398.205078,4302.820313,4295.000000,4474.743652,4512.051270,4342.692383,4414.871582,1566.000000,1.000000,25.000000,,,,0.000000,2.000000,2.000000,0.000000,4.000000,2.000000,2.000000,0.000000,0.000000,4.000000,4.000000,4.000000,4.000000,4.000000,4.000000,0.000000,,,,,,,,,,,,,,,,,,,,,,,,,,,,
1732157286.203220,1732157286.203176,12.000000,0.000000,4295.256348,4281.666504,4313.333496,4302.948730,4270.000000,4288.974121,4334.743652,4399.102539,4296.666504,4290.128418,4476.025879,4508.717773,4337.563965,4416.794922,1690.000000,1.000000,25.000000,,,,0.000000,2.000000,2.000000,0.000000,4.000000,2.000000,2.000000,0.000000,0.000000,4.000000,4.000000,4.000000,4.000000,4.000000,4.000000,0.000000,,,,,,,,,,,,,,,,,3.000000,0.000000,0.519955,0.496765,-0.527039,0.452881,0.995239,0.054206,-0.052741,-34.648163,45.612686,30.969303
1732157286.211028,1732157286.210985,13.000000,0.000000,4292.307617,4281.153809,4312.692383,4302.820313,4285.128418,4288.974121,4333.717773,4398.461426,4299.487305,4285.256348,4470.128418,4502.820313,4333.333496,4416.025879,1663.000000,1.000000,25.000000,,,,0.000000,2.000000,2.000000,0.000000,4.000000,2.000000,2.000000,0.000000,0.000000,4.000000,4.000000,4.000000,4.000000,4.000000,4.000000,0.000000,,,,,,,,,,,,,,,,,,,,,,,,,,,,
1732157286.218836,1732157286.218993,14.000000,0.000000,4293.461426,4282.436035,4316.410156,4303.461426,4293.077148,4284.615234,4333.205078,4396.794922,4305.384766,4290.641113,4464.871582,4498.589844,4334.871582,4410.256348,1534.000000,1.000000,25.000000,,,,0.000000,2.000000,2.000000,0.000000,4.000000,2.000000,2.000000,0.000000,0.000000,4.000000,4.000000,4.000000,4.000000,4.000000,4.000000,0.000000,1.000000,0.000000,2.000000,2.000000,0.000000,4.000000,2.000000,2.000000,0.000000,0.000000,4.000000,4.000000,4.000000,4.000000,4.000000,4.000000,,,,,,,,,,,,
1732157286.226644,1732157286.226801,15.000000,0.000000,4293.589844,4283.205078,4317.179688,4303.077148,4273.974121,4289.358887,4334.743652,4396.794922,4301.410156,4296.282227,4469.230957,4503.589844,4336.410156,4409.743652,1566.000000,1.000000,25.000000,,,,0.000000,2.000000,2.000000,0.000000,4.000000,2.000000,2.000000,0.000000,0.000000,4.000000,4.000000,4.000000,4.000000,4.000000,4.000000,0.000000,,,,,,,,,,,,,,,,,,,,,,,,,,,,
1732157286.234453,1732157286.234709,16.000000,0.000000,4285.512695,4281.666504,4316.538574,4303.205078,4272.948730,4290.641113,4331.666504,4396.025879,4296.538574,4292.820313,4473.589844,4508.589844,4333.717773,4408.205078,0.000000,1.000000,25.000000,,,,0.000000,2.000000,2.000000,0.000000,4.000000,2.000000,2.000000,0.000000,0.000000,4.000000,4.000000,4.000000,4.000000,4.000000,4.000000,0.000000,,,,,,,,,,,,,,,,,4.000000,0.000000,0.519909,0.496887,-0.526917,0.452942,0.988890,0.035649,-0.049811,-34.936680,45.781277,31.006802
1732157286.242261,1732157286.242517,17.000000,0.000000,4285.512695,4282.051270,4314.487305,4303.333496,4285.384766,4291.794922,4330.641113,4397.051270,4297.948730,4291.025879,4470.512695,4505.128418,4332.436035,4403.077148,0.000000,1.000000,25.000000,,,,0.000000,2.000000,2.000000,0.000000,4.000000,2.000000,2.000000,0.000000,0.000000,4.000000,4.000000,4.000000,4.000000,4.000000,4.000000,0.000000,,,,,,,,,,,,,,,,,,,,,,,,,,,,
1732157286.250069,1732157286.250525,18.000000,0.000000,4294.102539,4282.948730,4314.102539,4303.589844,4288.461426,4294.358887,4331.410156,4399.358887,4298.461426,4293.974121,4469.358887,4505.512695,4333.846191,4401.153809,0.000000,1.000000,25.000000,,,,0.000000,2.000000,2.000000,0.000000,4.000000,2.000000,2.000000,0.000000,0.000000,4.000000,4.000000,4.000000,4.000000,4.000000,4.000000,0.000000,,,,,,,,,,,,,,,,,,,,,,,,,,,,
1732157286.257877,1732157286.258333,19.000000,0.000000,4289.615234,4281.282227,4318.333496,4303.205078,4298.077148,4287.307617,4332.820313,4398.333496,4299.743652,4292.563965,4472.436035,4505.512695,4333.589844,4398.461426,0.000000,1.000000,25.000000,,,,0.000000,2.000000,2.000000,0.000000,4.000000,2.000000,2.000000,0.000000,0.000000,4.000000,4.000000,4.000000,4.000000,4.000000,4.000000,0.000000,,,,,,,,,,,,,,,,,,,,,,,,,,,,
1732157286.265686,1732157286.266241,20.000000,0.000000,4280.000000,4281.025879,4320.256348,4302.948730,4297.948730,4286.153809,4335.384766,4397.436035,4305.769043,4290.256348,4471.282227,4503.205078,4333.333496,4399.230957,0.000000,1.000000,25.000000,,,,0.000000,2.000000,2.000000,0.000000,4.000000,2.000000,2.000000,0.000000,0.000000,4.000000,4.000000,4.000000,4.000000,4.000000,4.000000,0.000000,,,,,,,,,,,,,,,,,5.000000,0.000000,0.519945,0.496887,-0.527039,0.452759,0.973263,0.044439,-0.059578,-34.728710,45.779503,31.195509
1732157286.273494,1732157286.274050,21.000000,0.000000,4282.563965,4282.948730,4316.025879,4304.487305,4277.436035,4296.282227,4335.128418,4398.717773,4311.922852,4294.487305,4471.282227,4508.205078,4333.461426,4403.974121,0.000000,1.000000,25.000000,,,,0.000000,2.000000,2.000000,0.000000,4.000000,2.000000,2.000000,0.000000,0.000000,4.000000,4.000000,4.000000,4.000000,4.000000,4.000000,0.000000,,,,,,,,,,,,,,,,,,,,,,,,,,,,
1732157286.281302,1732157286.281658,22.000000,0.000000,4285.897461,4282.820313,4313.205078,4302.436035,4273.846191,4296.410156,4333.717773,4399.102539,4312.179688,4296.410156,4474.102539,4510.897461,4333.589844,4402.563965,0.000000,1.000000,25.000000,,,,0.000000,2.000000,2.000000,0.000000,4.000000,2.000000,2.000000,0.000000,0.000000,4.000000,4.000000,4.000000,4.000000,4.000000,4.000000,0.000000,,,,,,,,,,,,,,,,,,,,,,,,,,,,
1732157286.289110,1732157286.289466,23.000000,0.000000,4282.563965,4280.897461,4317.436035,4298.077148,4293.461426,4290.641113,4336.410156,4399.230957,4306.794922,4292.307617,4468.205078,4508.717773,4334.102539,4398.461426,0.000000,1.000000,25.000000,,,,0.000000,2.000000,2.000000,0.000000,4.000000,2.000000,2.000000,0.000000,0.000000,4.000000,4.000000,4.000000,4.000000,4.000000,4.000000,0.000000,,,,,,,,,,,,,,,,,,,,,,,,,,,,
1732157286.296919,1732157286.297374,24.000000,0.000000,4282.307617,4281.025879,4318.589844,4297.692383,4297.436035,4293.205078,4335.512695,4400.769043,4301.666504,4292.179688,4463.846191,4507.307617,4333.077148,4400.256348,0.000000,1.000000,25.000000,,,,0.000000,2.000000,2.000000,0.000000,4.000000,2.000000,2.000000,0.000000,0.000000,4.000000,4.000000,4.000000,4.000000,4.000000,4.000000,0.000000,,,,,,,,,,,,,,,,,6.000000,0.000000,0.519905,0.496948,-0.527283,0.452454,0.984007,0.038579,-0.062019,-34.875256,45.789730,31.221695
1732157286.304727,1732157286.305183,25.000000,0.000000,4283.205078,4281.410156,4313.461426,4299.358887,4277.820313,4294.743652,4329.743652,4398.589844,4301.025879,4292.948730,4467.692383,4508.205078,4332.820313,4402.563965,0.000000,1.000000,25.000000,,,,0.000000,2.000000,2.000000,0.000000,4.000000,2.000000,2.000000,0.000000,0.000000,4.000000,4.000000,4.000000,4.000000,4.000000,4.000000,0.000000,,,,,,,,,,,,,,,,,,,,,,,,,,,,
1732157286.312535,1732157286.313191,26.000000,0.000000,4283.589844,4279.615234,4312.820313,4297.948730,4273.205078,4295.641113,4332.563965,4398.333496,4305.384766,4290.256348,4464.487305,4509.487305,4334.871582,4401.025879,0.000000,1.000000,25.000000,,,,0.000000,2.000000,2.000000,0.000000,4.000000,2.000000,2.000000,0.000000,0.000000,4.000000,4.000000,4.000000,4.000000,4.000000,4.000000,0.000000,,,,,,,,,,,,,,,,,,,,,,,,,,,,
1732157286.320343,1732157286.320999,27.000000,0.000000,4282.179688,4278.333496,4314.871582,4295.000000,4293.333496,4297.179688,4337.179688,4401.153809,4309.615234,4289.358887,4458.717773,4504.358887,4331.153809,4397.051270,0.000000,1.000000,25.000000,,,,0.000000,2.000000,2.000000,0.000000,4.000000,2.000000,2.000000,0.000000,0.000000,4.000000,4.000000,4.000000,4.000000,4.000000,4.000000,0.000000,,,,,,,,,,,,,,,,,,,,,,,,,,,,
1732157286.328152,1732157286.328907,28.000000,0.000000,4279.358887,4277.563965,4314.102539,4293.589844,4297.307617,4296.025879,4334.487305,4401.025879,4310.000000,4291.153809,4465.128418,4498.589844,4324.230957,4394.358887,0.000000,1.000000,25.000000,,,,0.000000,2.000000,2.000000,0.000000,4.000000,2.000000,2.000000,0.000000,0.000000,4.000000,4.000000,4.000000,4.000000,4.000000,4.000000,0.000000,,,,,,,,,,,,,,,,,7.000000,0.000000,0.519632,0.497131,-0.527222,0.452637,0.993285,0.040044,-0.056648,-34.860622,45.848015,31.076241
1732157286.335960,1732157286.336715,29.000000,0.000000,4282.436035,4276.153809,4314.230957,4293.589844,4281.922852,4297.692383,4333.974121,4399.102539,4309.743652,4294.487305,4474.871582,4500.769043,4329.358887,4398.846191,0.000000,1.000000,25.000000,,,,0.000000,2.000000,2.000000,0.000000,4.000000,2.000000,2.000000,0.000000,0.000000,4.000000,4.000000,4.000000,4.000000,4.000000,4.000000,0.000000,,,,,,,,,,,,,,,,,,,,,,,,,,,,
1732157286.343768,1732157286.344723,30.000000,0.000000,4286.666504,4276.922852,4316.794922,4295.384766,4275.897461,4297.436035,4333.333496,4400.128418,4309.871582,4297.051270,4476.282227,4505.256348,4340.000000,4403.846191,0.000000,1.000000,25.000000,,,,0.000000,2.000000,2.000000,0.000000,4.000000,2.000000,2.000000,0.000000,0.000000,4.000000,4.000000,4.000000,4.000000,4.000000,4.000000,0.000000,,,,,,,,,,,,,,,,,,,,,,,,,,,,
1732157286.351576,1732157286.352531,31.000000,0.000000,4284.230957,4281.666504,4314.743652,4296.666504,4278.717773,4293.461426,4331.922852,4402.563965,4313.461426,4298.205078,4475.512695,4504.487305,4339.615234,4400.256348,0.000000,1.000000,25.000000,,,,0.000000,2.000000,2.000000,0.000000,4.000000,2.000000,2.000000,0.000000,0.000000,4.000000,4.000000,4.000000,4.000000,4.000000,4.000000,0.000000,,,,,,,,,,,,,,,,,,,,,,,,,,,,
1732157286.359385,1732157286.360439,32.000000,0.000000,4280.384766,4280.897461,4314.358887,4296.410156,4289.743652,4292.307617,4333.333496,4401.794922,4311.794922,4295.897461,4475.000000,4503.589844,4333.717773,4395.384766,0.000000,1.000000,25.000000,,,,0.000000,2.000000,2.000000,0.000000,4.000000,2.000000,2.000000,0.000000,0.000000,4.000000,4.000000,4.000000,4.000000,4.000000,4.000000,0.000000,,,,,,,,,,,,,,,,,8.000000,0.000000,0.519337,0.497070,-0.527466,0.452759,0.973263,0.033207,-0.046881,-34.892105,45.708557,31.155088
1732157286.367193,1732157286.368248,33.000000,0.000000,4281.025879,4276.922852,4317.820313,4296.025879,4299.743652,4295.256348,4333.077148,4399.871582,4300.769043,4288.461426,4470.128418,4506.794922,4333.333496,4396.282227,0.000000,1.000000,25.000000,,,,0.000000,2.000000,2.000000,0.000000,4.000000,2.000000,2.000000,0.000000,0.000000,4.000000,4.000000,4.000000,4.000000,4.000000,4.000000,0.000000,,,,,,,,,,,,,,,,,,,,,,,,,,,,
1732157286.375001,1732157286.376256,34.000000,0.000000,4281.538574,4279.615234,4315.000000,4297.307617,4290.128418,4294.615234,4332.563965,4398.974121,4295.641113,4282.948730,4464.871582,4503.205078,4334.102539,4399.358887,0.000000,1.000000,25.000000,,,,0.000000,2.000000,2.000000,0.000000,4.000000,2.000000,2.000000,0.000000,0.000000,4.000000,4.000000,4.000000,4.000000,4.000000,4.000000,0.000000,,,,,,,,,,,,,,,,,,,,,,,,,,,,
1732157286.382809,1732157286.384064,35.000000,0.000000,4281.922852,4281.538574,4314.230957,4299.358887,4271.153809,4292.692383,4332.948730,4398.205078,4302.179688,4286.282227,4463.205078,4494.743652,4333.846191,4397.820313,0.000000,1.000000,25.000000,,,,0.000000,2.000000,2.000000,0.000000,4.000000,2.000000,2.000000,0.000000,0.000000,4.000000,4.000000,4.000000,4.000000,4.000000,4.000000,0.000000,,,,,,,,,,,,,,,,,,,,,,,,,,,,
1732157286.390617,1732157286.391772,36.000000,0.000000,4281.538574,4277.948730,4317.051270,4295.641113,4279.487305,4290.256348,4331.538574,4398.333496,4304.487305,4290.897461,4462.051270,4491.666504,4333.205078,4394.487305,0.000000,1.000000,25.000000,,,,0.000000,2.000000,2.000000,0.000000,4.000000,2.000000,2.000000,0.000000,0.000000,4.000000,4.000000,4.000000,4.000000,4.000000,4.000000,0.000000,,,,,,,,,,,,,,,,,9.000000,0.000000,0.518991,0.497070,-0.527649,0.452942,0.976682,0.046881,-0.063973,-34.827606,45.743931,31.142288
1732157286.398426,1732157286.399580,37.000000,0.000000,4280.000000,4278.333496,4313.205078,4295.128418,4297.948730,4283.717773,4329.871582,4398.974121,4301.282227,4288.974121,4463.974121,4492.563965,4333.333496,4394.871582,0.000000,1.000000,25.000000,,,,0.000000,2.000000,2.000000,0.000000,4.000000,2.000000,2.000000,0.000000,0.000000,4.000000,4.000000,4.000000,4.000000,4.000000,4.000000,0.000000,,,,,,,,,,,,,,,,,,,,,,,,,,,,
1732157286.406234,1732157286.407189,38.000000,0.000000,4285.256348,4281.666504,4310.641113,4303.077148,4291.153809,4283.205078,4331.922852,4399.230957,4303.974121,4289.871582,4469.615234,4493.077148,4337.179688,4399.358887,0.000000,1.000000,25.000000,,,,0.000000,2.000000,2.000000,0.000000,4.000000,2.000000,2.000000,0.000000,0.000000,4.000000,4.000000,4.000000,4.000000,4.000000,4.000000,0.000000,,,,,,,,,,,,,,,,,,,,,,,,,,,,
1732157286.414042,1732157286.414997,39.000000,0.000000,4289.743652,4280.384766,4315.641113,4303.333496,4270.897461,4290.641113,4334.230957,4397.563965,4306.410156,4293.974121,4475.769043,4498.974121,4341.922852,4400.897461,0.000000,1.000000,25.000000,,,,0.000000,2.000000,2.000000,0.000000,4.000000,2.000000,2.000000,0.000000,0.000000,4.000000,4.000000,4.000000,4.000000,4.000000,4.000000,0.000000,,,,,,,,,,,,,,,,,,,,,,,,,,,,
1732157286.421851,1732157286.422705,40.000000,0.000000,4282.179688,4278.205078,4317.051270,4296.025879,4272.051270,4295.384766,4334.358887,4397.307617,4303.589844,4294.615234,4471.025879,4503.589844,4340.000000,4398.333496,0.000000,1.000000,25.000000,,,,0.000000,2.000000,2.000000,0.000000,4.000000,2.000000,2.000000,0.000000,0.000000,4.000000,4.000000,4.000000,4.000000,4.000000,4.000000,0.000000,,,,,,,,,,,,,,,,,10.000000,0.000000,0.518645,0.497070,-0.527832,0.453125,0.974728,0.029300,-0.058113,-34.775360,45.605919,31.265253
1732157286.429659,1732157286.430513,41.000000,0.000000,4279.358887,4279.487305,4314.743652,4295.512695,4297.948730,4294.230957,4334.358887,4400.256348,4306.410156,4294.230957,4461.025879,4496.153809,4335.897461,4399.102539,0.000000,1.000000,25.000000,,,,0.000000,2.000000,2.000000,0.000000,4.000000,2.000000,2.000000,0.000000,0.000000,4.000000,4.000000,4.000000,4.000000,4.000000,4.000000,0.000000,,,,,,,,,,,,,,,,,,,,,,,,,,,,
1732157286.437467,1732157286.438122,42.000000,0.000000,4289.358887,4281.153809,4315.641113,4298.461426,4302.948730,4293.205078,4332.563965,4402.051270,4310.769043,4293.461426,4465.769043,4493.461426,4340.256348,4400.512695,0.000000,1.000000,25.000000,,,,0.000000,2.000000,2.000000,0.000000,4.000000,2.000000,2.000000,0.000000,0.000000,4.000000,4.000000,4.000000,4.000000,4.000000,4.000000,0.000000,,,,,,,,,,,,,,,,,,,,,,,,,,,,
1732157286.445275,1732157286.445930,43.000000,0.000000,4290.641113,4280.641113,4315.897461,4296.538574,4278.077148,4294.743652,4334.615234,4399.358887,4304.487305,4293.589844,4476.922852,4495.512695,4342.948730,4398.717773,0.000000,1.000000,25.000000,,,,0.000000,2.000000,2.000000,0.000000,4.000000,2.000000,2.000000,0.000000,0.000000,4.000000,4.000000,4.000000,4.000000,4.000000,4.000000,0.000000,,,,,,,,,,,,,,,,,,,,,,,,,,,,
1732157286.453083,1732157286.453638,44.000000,0.000000,4282.051270,4278.717773,4315.897461,4295.128418,4267.436035,4293.589844,4335.384766,4397.692383,4297.307617,4292.436035,4472.692383,4491.922852,4335.641113,4400.897461,0.000000,1.000000,25.000000,,,,0.000000,2.000000,2.000000,0.000000,4.000000,2.000000,2.000000,0.000000,0.000000,4.000000,4.000000,4.000000,4.000000,4.000000,4.000000,0.000000,,,,,,,,,,,,,,,,,11.000000,0.000000,0.518648,0.496826,-0.527954,0.453247,0.973263,0.032719,-0.046881,-34.754707,45.807461,31.278189
1732157286.460892,1732157286.461447,45.000000,0.000000,4281.410156,4278.461426,4313.717773,4294.615234,4288.717773,4286.410156,4333.589844,4399.487305,4297.179688,4285.128418,4461.666504,4492.179688,4331.282227,4404.487305,0.000000,1.000000,25.000000,,,,0.000000,2.000000,2.000000,0.000000,4.000000,2.000000,2.000000,0.000000,0.000000,4.000000,4.000000,4.000000,4.000000,4.000000,4.000000,0.000000,,,,,,,,,,,,,,,,,,,,,,,,,,,,
1732157286.468700,1732157286.469055,46.000000,0.000000,4283.974121,4278.589844,4311.538574,4293.589844,4296.794922,4282.436035,4333.717773,4398.333496,4298.077148,4279.615234,4461.922852,4494.230957,4335.256348,4401.410156,0.000000,1.000000,25.000000,,,,0.000000,2.000000,2.000000,0.000000,4.000000,2.000000,2.000000,0.000000,0.000000,4.000000,4.000000,4.000000,4.000000,4.000000,4.000000,0.000000,,,,,,,,,,,,,,,,,,,,,,,,,,,,
1732157286.476508,1732157286.476863,47.000000,0.000000,4281.922852,4277.179688,4312.051270,4294.871582,4275.384766,4288.205078,4334.615234,4398.077148,4301.282227,4286.794922,4462.692383,4489.743652,4335.512695,4395.512695,0.000000,1.000000,25.000000,,,,0.000000,2.000000,2.000000,0.000000,4.000000,2.000000,2.000000,0.000000,0.000000,4.000000,4.000000,4.000000,4.000000,4.000000,4.000000,0.000000,,,,,,,,,,,,,,,,,,,,,,,,,,,,
1732157286.484316,1732157286.484572,48.000000,0.000000,4280.512695,4278.333496,4312.051270,4295.000000,4270.256348,4294.230957,4333.461426,4401.666504,4302.563965,4295.384766,4459.871582,4488.333496,4333.205078,4397.948730,0.000000,1.000000,25.000000,,,,0.000000,2.000000,2.000000,0.000000,4.000000,2.000000,2.000000,0.000000,0.000000,4.000000,4.000000,4.000000,4.000000,4.000000,4.000000,0.000000,,,,,,,,,,,,,,,,,12.000000,0.000000,0.518226,0.496338,-0.528198,0.453979,0.978147,0.021975,-0.045904,-34.547981,45.622375,31.257000
1732157286.492125,1732157286.492380,49.000000,0.000000,4280.769043,4278.717773,4312.436035,4295.256348,4278.333496,4294.358887,4333.461426,4401.282227,4297.179688,4295.256348,4463.205078,4493.974121,4339.358887,4409.743652,0.000000,1.000000,25.000000,,,,0.000000,2.000000,2.000000,0.000000,4.000000,2.000000,2.000000,0.000000,0.000000,4.000000,4.000000,4.000000,4.000000,4.000000,4.000000,0.000000,,,,,,,,,,,,,,,,,,,,,,,,,,,,
1732157286.499933,1732157286.499988,50.000000,0.000000,4281.666504,4271.025879,4314.487305,4294.615234,4283.077148,4287.563965,4336.410156,4397.820313,4294.487305,4294.615234,4462.563965,4494.743652,4343.333496,4413.333496,0.000000,1.000000,25.000000,,,,0.000000,2.000000,2.000000,0.000000,4.000000,2.000000,2.000000,0.000000,0.000000,4.000000,4.000000,4.000000,4.000000,4.000000,4.000000,0.000000,,,,,,,,,,,,,,,,,,,,,,,,,,,,
1732157286.507741,1732157286.507796,51.000000,0.000000,4282.948730,4264.102539,4315.641113,4289.487305,4289.615234,4278.846191,4336.153809,4397.692383,4297.436035,4295.384766,4460.256348,4495.256348,4336.282227,4402.307617,0.000000,1.000000,25.000000,,,,0.000000,2.000000,2.000000,0.000000,4.000000,2.000000,2.000000,0.000000,0.000000,4.000000,4.000000,4.000000,4.000000,4.000000,4.000000,0.000000,,,,,,,,,,,,,,,,,,,,,,,,,,,,
1732157286.515550,1732157286.515505,52.000000,0.000000,4283.077148,4269.102539,4316.538574,4288.333496,4286.794922,4282.179688,4335.512695,4398.461426,4296.538574,4295.512695,4465.769043,4501.538574,4332.563965,4394.358887,0.000000,1.000000,25.000000,,,,0.000000,2.000000,2.000000,0.000000,4.000000,2.000000,2.000000,0.000000,0.000000,4.000000,4.000000,4.000000,4.000000,4.000000,4.000000,0.000000,,,,,,,,,,,,,,,,,13.000000,0.000000,0.518250,0.495056,-0.529114,0.454285,0.966427,0.038091,-0.043951,-34.508865,45.657459,31.308170
1732157286.523358,1732157286.523313,53.000000,0.000000,4284.102539,4276.538574,4317.179688,4295.512695,4268.717773,4293.717773,4336.666504,4397.563965,4295.769043,4296.666504,4467.820313,4503.077148,4338.846191,4397.563965,0.000000,1.000000,25.000000,,,,0.000000,2.000000,2.000000,0.000000,4.000000,2.000000,2.000000,0.000000,0.000000,4.000000,4.000000,4.000000,4.000000,4.000000,4.000000,0.000000,,,,,,,,,,,,,,,,,,,,,,,,,,,,
1732157286.531166,1732157286.530921,54.000000,0.000000,4289.871582,4278.333496,4316.025879,4300.256348,4266.666504,4296.025879,4332.307617,4397.436035,4297.179688,4296.538574,4462.563965,4500.897461,4344.487305,4402.436035,0.000000,1.000000,25.000000,,,,0.000000,2.000000,2.000000,0.000000,4.000000,2.000000,2.000000,0.000000,0.000000,4.000000,4.000000,4.000000,4.000000,4.000000,4.000000,0.000000,,,,,,,,,,,,,,,,,,,,,,,,,,,,
1732157286.538974,1732157286.538729,55.000000,0.000000,4292.692383,4278.077148,4313.974121,4297.820313,4290.000000,4288.717773,4329.102539,4398.077148,4295.512695,4294.230957,4460.512695,4496.666504,4342.051270,4403.589844,0.000000,1.000000,25.000000,,,,0.000000,2.000000,2.000000,0.000000,4.000000,2.000000,2.000000,0.000000,0.000000,4.000000,4.000000,4.000000,4.000000,4.000000,4.000000,0.000000,,,,,,,,,,,,,,,,,,,,,,,,,,,,
1732157286.546782,1732157286.546438,56.000000,0.000000,4288.333496,4277.436035,4314.871582,4297.051270,4298.846191,4287.563965,4334.358887,4397.820313,4295.384766,4293.333496,4461.538574,4496.410156,4336.025879,4400.641113,0.000000,1.000000,25.000000,,,,0.000000,2.000000,2.000000,0.000000,4.000000,2.000000,2.000000,0.000000,0.000000,4.000000,4.000000,4.000000,4.000000,4.000000,4.000000,0.000000,,,,,,,,,,,,,,,,,14.000000,0.000000,0.518410,0.494507,-0.529419,0.454346,0.972775,0.026370,-0.036137,-34.360512,45.869209,31.366283
1732157286.554591,1732157286.554246,57.000000,0.000000,4287.692383,4278.589844,4316.153809,4297.563965,4286.666504,4293.589844,4337.307617,4397.051270,4297.179688,4295.128418,4460.769043,4500.000000,4333.461426,4396.025879,0.000000,1.000000,25.000000,,,,0.000000,2.000000,2.000000,0.000000,4.000000,2.000000,2.000000,0.000000,0.000000,4.000000,4.000000,4.000000,4.000000,4.000000,4.000000,0.000000,,,,,,,,,,,,,,,,,,,,,,,,,,,,
1732157286.562399,1732157286.562254,58.000000,0.000000,4291.282227,4275.897461,4315.512695,4297.820313,4270.769043,4290.641113,4333.974121,4396.153809,4298.205078,4296.410156,4461.538574,4500.256348,4335.128418,4397.820313,0.000000,1.000000,25.000000,,,,0.000000,2.000000,2.000000,0.000000,4.000000,2.000000,2.000000,0.000000,0.000000,4.000000,4.000000,4.000000,4.000000,4.000000,4.000000,0.000000,,,,,,,,,,,,,,,,,,,,,,,,,,,,
1732157286.570207,1732157286.570062,59.000000,0.000000,4288.077148,4268.077148,4312.179688,4297.948730,4271.922852,4280.769043,4335.000000,4397.820313,4297.307617,4294.743652,4461.666504,4494.487305,4334.743652,4400.000000,0.000000,1.000000,25.000000,,,,0.000000,2.000000,2.000000,0.000000,4.000000,2.000000,2.000000,0.000000,0.000000,4.000000,4.000000,4.000000,4.000000,4.000000,4.000000,0.000000,,,,,,,,,,,,,,,,,,,,,,,,,,,,
1732157286.578015,1732157286.577771,60.000000,0.000000,4282.436035,4266.282227,4312.820313,4294.871582,4291.794922,4279.487305,4334.871582,4398.974121,4296.410156,4291.153809,4459.743652,4489.871582,4332.692383,4397.436035,0.000000,1.000000,25.000000,,,,0.000000,2.000000,2.000000,0.000000,4.000000,2.000000,2.000000,0.000000,0.000000,4.000000,4.000000,4.000000,4.000000,4.000000,4.000000,0.000000,,,,,,,,,,,,,,,,,15.000000,0.000000,0.518419,0.494385,-0.529419,0.454468,0.975217,0.018069,-0.051764,-34.102016,45.862392,31.201691
1732157286.585824,1732157286.585579,61.000000,0.000000,4281.538574,4272.563965,4315.769043,4294.102539,4289.871582,4283.333496,4331.153809,4397.692383,4296.153809,4291.153809,4465.641113,4496.794922,4333.077148,4402.307617,0.000000,1.000000,25.000000,,,,0.000000,2.000000,2.000000,0.000000,4.000000,2.000000,2.000000,0.000000,0.000000,4.000000,4.000000,4.000000,4.000000,4.000000,4.000000,0.000000,,,,,,,,,,,,,,,,,,,,,,,,,,,,
1732157286.593632,1732157286.593587,62.000000,0.000000,4283.461426,4277.179688,4314.487305,4296.666504,4275.641113,4281.410156,4332.436035,4397.948730,4294.358887,4292.307617,4472.563965,4504.230957,4334.102539,4412.051270,0.000000,1.000000,25.000000,,,,0.000000,2.000000,2.000000,0.000000,4.000000,2.000000,2.000000,0.000000,0.000000,4.000000,4.000000,4.000000,4.000000,4.000000,4.000000,0.000000,,,,,,,,,,,,,,,,,,,,,,,,,,,,
1732157286.601440,1732157286.601395,63.000000,0.000000,4284.871582,4277.563965,4313.846191,4297.051270,4277.563965,4281.666504,4334.487305,4399.871582,4295.769043,4292.307617,4472.820313,4507.307617,4337.307617,4413.077148,0.000000,1.000000,25.000000,,,,0.000000,2.000000,2.000000,0.000000,4.000000,2.000000,2.000000,0.000000,0.000000,4.000000,4.000000,4.000000,4.000000,4.000000,4.000000,0.000000,,,,,,,,,,,,,,,,,,,,,,,,,,,,
1732157286.609248,1732157286.609303,64.000000,0.000000,4284.230957,4277.563965,4314.230957,4296.153809,4280.000000,4288.717773,4334.615234,4399.230957,4305.769043,4298.333496,4473.077148,4508.589844,4342.692383,4407.436035,0.000000,1.000000,25.000000,,,,0.000000,2.000000,2.000000,0.000000,4.000000,2.000000,2.000000,0.000000,0.000000,4.000000,4.000000,4.000000,4.000000,4.000000,4.000000,0.000000,,,,,,,,,,,,,,,,,16.000000,0.000000,0.518720,0.493835,-0.529480,0.454651,0.987425,0.018557,-0.041509,-34.042633,45.915203,31.276703
1732157286.617057,1732157286.617111,65.000000,0.000000,4280.384766,4276.922852,4314.230957,4297.051270,4271.794922,4293.461426,4334.871582,4398.205078,4314.615234,4305.128418,4474.487305,4507.051270,4343.205078,4403.205078,1591.000000,1.000000,25.000000,,,,0.000000,2.000000,2.000000,0.000000,4.000000,2.000000,2.000000,0.000000,0.000000,4.000000,4.000000,4.000000,4.000000,4.000000,4.000000,0.000000,,,,,,,,,,,,,,,,,,,,,,,,,,,,
1732157286.624865,1732157286.625119,66.000000,0.000000,4281.153809,4277.179688,4315.384766,4297.051270,4273.461426,4293.333496,4335.128418,4398.077148,4308.077148,4301.538574,4473.333496,4507.820313,4342.051270,4402.948730,1382.000000,1.000000,25.000000,,,,0.000000,2.000000,2.000000,0.000000,4.000000,2.000000,2.000000,0.000000,0.000000,4.000000,4.000000,4.000000,4.000000,4.000000,4.000000,0.000000,,,,,,,,,,,,,,,,,,,,,,,,,,,,
1732157286.632673,1732157286.632927,67.000000,0.000000,4286.666504,4278.077148,4317.307617,4297.692383,4293.461426,4286.538574,4335.128418,4397.436035,4294.487305,4292.563965,4472.563965,4505.897461,4340.256348,4407.563965,1409.000000,1.000000,25.000000,,,,0.000000,2.000000,2.000000,0.000000,4.000000,2.000000,2.000000,0.000000,0.000000,4.000000,4.000000,4.000000,4.000000,4.000000,4.000000,0.000000,,,,,,,,,,,,,,,,,,,,,,,,,,,,
1732157286.640481,1732157286.640836,68.000000,0.000000,4287.436035,4277.948730,4319.487305,4298.589844,4298.846191,4278.846191,4336.025879,4397.563965,4295.256348,4290.641113,4473.077148,4503.333496,4336.794922,4413.717773,1407.000000,1.000000,25.000000,,,,0.000000,2.000000,2.000000,0.000000,4.000000,2.000000,2.000000,0.000000,0.000000,4.000000,4.000000,4.000000,4.000000,4.000000,4.000000,0.000000,,,,,,,,,,,,,,,,,17.000000,0.000000,0.518832,0.493530,-0.529602,0.454712,0.979612,0.030277,-0.047369,-34.196198,45.726315,31.489128
1732157286.648290,1732157286.648644,69.000000,0.000000,4288.205078,4277.948730,4319.230957,4296.153809,4285.000000,4280.897461,4336.282227,4399.102539,4303.205078,4293.461426,4471.922852,4511.666504,4337.820313,4415.256348,1230.000000,1.000000,25.000000,,,,0.000000,2.000000,2.000000,0.000000,4.000000,2.000000,2.000000,0.000000,0.000000,4.000000,4.000000,4.000000,4.000000,4.000000,4.000000,0.000000,,,,,,,,,,,,,,,,,,,,,,,,,,,,
1732157286.656098,1732157286.656652,70.000000,0.000000,4293.333496,4279.102539,4316.153809,4298.717773,4274.743652,4288.846191,4335.897461,4400.128418,4304.871582,4295.641113,4474.230957,4521.153809,4341.153809,4412.692383,0.000000,1.000000,25.000000,,,,0.000000,2.000000,2.000000,0.000000,4.000000,2.000000,2.000000,0.000000,0.000000,4.000000,4.000000,4.000000,4.000000,4.000000,4.000000,0.000000,,,,,,,,,,,,,,,,,,,,,,,,,,,,
1732157286.663906,1732157286.664460,71.000000,0.000000,4296.025879,4281.922852,4314.230957,4307.436035,4275.641113,4288.077148,4334.615234,4399.358887,4306.922852,4296.025879,4479.358887,4513.717773,4342.820313,4411.538574,0.000000,1.000000,25.000000,,,,0.000000,2.000000,2.000000,0.000000,4.000000,2.000000,2.000000,0.000000,0.000000,4.000000,4.000000,4.000000,4.000000,4.000000,4.000000,0.000000,,,,,,,,,,,,,,,,,,,,,,,,,,,,
1732157286.671714,1732157286.672368,72.000000,0.000000,4295.256348,4282.051270,4314.871582,4308.461426,4288.846191,4281.794922,4332.051270,4398.717773,4306.282227,4293.461426,4478.589844,4505.512695,4342.436035,4413.589844,1524.000000,1.000000,25.000000,,,,0.000000,2.000000,2.000000,0.000000,4.000000,2.000000,2.000000,0.000000,0.000000,4.000000,4.000000,4.000000,4.000000,4.000000,4.000000,0.000000,,,,,,,,,,,,,,,,,18.000000,0.000000,0.518832,0.493530,-0.529602,0.454712,0.977170,0.036137,-0.036137,-34.335587,45.633316,31.676195
1732157286.679523,1732157286.680176,73.000000,0.000000,4296.538574,4280.384766,4315.256348,4302.563965,4300.769043,4279.871582,4333.461426,4397.820313,4299.358887,4293.333496,4472.692383,4509.871582,4337.692383,4414.230957,1671.000000,1.000000,25.000000,,,,0.000000,2.000000,2.000000,0.000000,4.000000,2.000000,2.000000,0.000000,0.000000,4.000000,4.000000,4.000000,4.000000,4.000000,4.000000,0.000000,,,,,,,,,,,,,,,,,,,,,,,,,,,,
1732157286.687331,1732157286.688184,74.000000,0.000000,4296.025879,4280.641113,4313.717773,4305.641113,4294.358887,4280.512695,4336.410156,4396.666504,4297.179688,4293.589844,4470.897461,4510.128418,4333.717773,4411.922852,1533.000000,1.000000,25.000000,,,,0.000000,2.000000,2.000000,0.000000,4.000000,2.000000,2.000000,0.000000,0.000000,4.000000,4.000000,4.000000,4.000000,4.000000,4.000000,0.000000,,,,,,,,,,,,,,,,,,,,,,,,,,,,
1732157286.695139,1732157286.695993,75.000000,0.000000,4290.000000,4282.179688,4312.436035,4310.128418,4272.179688,4284.102539,4332.948730,4397.436035,4299.230957,4287.436035,4474.358887,4507.436035,4334.743652,4410.769043,1566.000000,1.000000,25.000000,,,,0.000000,2.000000,2.000000,0.000000,4.000000,2.000000,2.000000,0.000000,0.000000,4.000000,4.000000,4.000000,4.000000,4.000000,4.000000,0.000000,,,,,,,,,,,,,,,,,,,,,,,,,,,,
1732157286.702947,1732157286.703901,76.000000,0.000000,4291.538574,4280.256348,4314.358887,4302.948730,4274.743652,4286.153809,4330.769043,4399.230957,4293.333496,4280.128418,4471.794922,4509.102539,4332.563965,4410.128418,1690.000000,1.000000,25.000000,,,,0.000000,2.000000,2.000000,0.000000,4.000000,2.000000,2.000000,0.000000,0.000000,4.000000,4.000000,4.000000,4.000000,4.000000,4.000000,0.000000,,,,,,,,,,,,,,,,,19.000000,0.000000,0.518984,0.493286,-0.529785,0.454590,0.971310,0.024417,-0.052741,-34.313492,45.881317,31.591051
1732157286.710755,1732157286.711709,77.000000,0.000000,4292.563965,4276.794922,4315.256348,4293.846191,4296.410156,4280.128418,4331.410156,4400.897461,4287.692383,4277.692383,4459.615234,4507.436035,4326.410156,4404.102539,1676.000000,1.000000,25.000000,,,,0.000000,2.000000,2.000000,0.000000,4.000000,2.000000,2.000000,0.000000,0.000000,4.000000,4.000000,4.000000,4.000000,4.000000,4.000000,0.000000,,,,,,,,,,,,,,,,,,,,,,,,,,,,
