title:two3, start timestamp:1732082943.302892, stop timestamp:1732082996.711418, headset type:EPOCX, headset serial:E5020C3A, headset firmware:730, channels:67, sampling rate:eeg_128;mot_32, samples:6841      , version:2.2, 
Timestamp,OriginalTimestamp,EEG.Counter,EEG.Interpolated,EEG.AF3,EEG.F7,EEG.F3,EEG.FC5,EEG.T7,EEG.P7,EEG.O1,EEG.O2,EEG.P8,EEG.T8,EEG.FC6,EEG.F4,EEG.F8,EEG.AF4,EEG.RawCq,EEG.Battery,EEG.BatteryPercent,MarkerIndex,MarkerType,MarkerValueInt,EEG.MarkerHardware,CQ.AF3,CQ.F7,CQ.F3,CQ.FC5,CQ.T7,CQ.P7,CQ.O1,CQ.O2,CQ.P8,CQ.T8,CQ.FC6,CQ.F4,CQ.F8,CQ.AF4,CQ.Overall,EQ.SampleRateQuality,EQ.OVERALL,EQ.AF3,EQ.F7,EQ.F3,EQ.FC5,EQ.T7,EQ.P7,EQ.O1,EQ.O2,EQ.P8,EQ.T8,EQ.FC6,EQ.F4,EQ.F8,EQ.AF4,MOT.CounterMems,MOT.InterpolatedMems,MOT.Q0,MOT.Q1,MOT.Q2,MOT.Q3,MOT.AccX,MOT.AccY,MOT.AccZ,MOT.MagX,MOT.MagY,MOT.MagZ
1732082943.302892,1732082943.305136,73.000000,0.000000,4325.897461,4300.769043,4328.461426,4318.077148,4305.897461,4313.589844,4303.333496,4348.333496,4337.307617,4307.563965,4468.461426,4493.077148,4361.666504,4427.563965,1496.000000,0.000000,8.000000,,,,0.000000,2.000000,2.000000,0.000000,2.000000,2.000000,2.000000,0.000000,2.000000,4.000000,4.000000,4.000000,4.000000,2.000000,4.000000,16.666666,,,,,,,,,,,,,,,,,,,,,,,,,,,,
1732082943.310701,1732082943.313144,74.000000,0.000000,4325.128418,4295.256348,4331.025879,4319.358887,4308.717773,4319.487305,4301.794922,4351.025879,4343.333496,4314.102539,4466.666504,4495.000000,4361.025879,4418.333496,1366.000000,0.000000,8.000000,,,,0.000000,2.000000,2.000000,0.000000,2.000000,2.000000,2.000000,0.000000,2.000000,4.000000,4.000000,4.000000,4.000000,2.000000,4.000000,16.666666,,,,,,,,,,,,,,,,,,,,,,,,,,,,
1732082943.318509,1732082943.320952,75.000000,0.000000,4325.897461,4300.128418,4333.077148,4320.256348,4308.205078,4315.897461,4302.307617,4354.358887,4342.307617,4318.077148,4468.974121,4500.512695,4365.897461,4415.256348,1503.000000,0.000000,8.000000,,,,0.000000,2.000000,2.000000,0.000000,2.000000,2.000000,2.000000,0.000000,2.000000,4.000000,4.000000,4.000000,4.000000,2.000000,4.000000,16.666666,,,,,,,,,,,,,,,,,,,,,,,,,,,,
1732082943.326317,1732082943.328661,76.000000,0.000000,4327.436035,4306.410156,4329.615234,4322.563965,4303.333496,4311.666504,4297.307617,4347.307617,4335.128418,4313.974121,4470.769043,4503.846191,4364.230957,4423.461426,1728.000000,0.000000,8.000000,,,,0.000000,2.000000,2.000000,0.000000,2.000000,2.000000,2.000000,0.000000,2.000000,4.000000,4.000000,4.000000,4.000000,2.000000,4.000000,16.666666,,,,,,,,,,,,,,,,,19.000000,0.000000,0.626742,0.397217,-0.587036,0.323730,0.973752,0.123550,-0.018069,-75.595238,62.321754,30.752979
1732082943.334125,1732082943.336469,77.000000,0.000000,4323.333496,4303.205078,4330.512695,4320.769043,4307.179688,4313.717773,4295.384766,4343.205078,4336.794922,4313.461426,4466.282227,4501.153809,4356.538574,4419.743652,1646.000000,0.000000,8.000000,,,,0.000000,2.000000,2.000000,0.000000,2.000000,2.000000,2.000000,0.000000,2.000000,4.000000,4.000000,4.000000,4.000000,2.000000,4.000000,16.666666,,,,,,,,,,,,,,,,,,,,,,,,,,,,
1732082943.341934,1732082943.344077,78.000000,0.000000,4318.846191,4299.743652,4328.974121,4315.769043,4309.230957,4313.717773,4296.922852,4347.948730,4340.641113,4318.077148,4462.436035,4497.307617,4356.410156,4411.538574,1366.000000,0.000000,8.000000,,,,0.000000,2.000000,2.000000,0.000000,2.000000,2.000000,2.000000,0.000000,2.000000,4.000000,4.000000,4.000000,4.000000,2.000000,4.000000,16.666666,1.000000,8.333333,2.000000,2.000000,0.000000,2.000000,2.000000,1.000000,0.000000,2.000000,3.000000,3.000000,4.000000,4.000000,2.000000,3.000000,,,,,,,,,,,,
1732082943.349742,1732082943.351886,79.000000,0.000000,4319.743652,4302.820313,4328.205078,4315.512695,4304.102539,4306.410156,4296.025879,4346.153809,4335.897461,4315.512695,4461.153809,4498.589844,4358.333496,4412.948730,1503.000000,0.000000,8.000000,,,,0.000000,2.000000,2.000000,0.000000,2.000000,2.000000,2.000000,0.000000,2.000000,4.000000,4.000000,4.000000,4.000000,2.000000,4.000000,16.666666,,,,,,,,,,,,,,,,,,,,,,,,,,,,
1732082943.357550,1732082943.359594,80.000000,0.000000,4319.743652,4305.897461,4326.794922,4317.563965,4305.384766,4307.179688,4292.948730,4340.384766,4330.641113,4310.000000,4459.358887,4497.820313,4356.025879,4413.461426,1728.000000,0.000000,8.000000,,,,0.000000,2.000000,2.000000,0.000000,2.000000,2.000000,2.000000,0.000000,2.000000,4.000000,4.000000,4.000000,4.000000,2.000000,4.000000,16.666666,,,,,,,,,,,,,,,,,20.000000,0.000000,0.626585,0.398010,-0.587036,0.323059,0.973752,0.123550,-0.018069,-75.503807,62.413956,30.648247
1732082943.365358,1732082943.367402,81.000000,0.000000,4320.897461,4304.230957,4328.461426,4318.589844,4306.922852,4315.384766,4296.025879,4342.820313,4333.589844,4315.641113,4458.205078,4497.436035,4355.128418,4411.794922,1646.000000,0.000000,8.000000,,,,0.000000,2.000000,2.000000,0.000000,2.000000,2.000000,2.000000,0.000000,2.000000,4.000000,4.000000,4.000000,4.000000,2.000000,4.000000,16.666666,,,,,,,,,,,,,,,,,,,,,,,,,,,,
1732082943.373167,1732082943.375011,82.000000,0.000000,4322.692383,4302.820313,4328.461426,4319.358887,4304.871582,4315.128418,4294.358887,4344.615234,4337.436035,4322.563965,4462.948730,4502.563965,4360.000000,4417.179688,1366.000000,0.000000,8.000000,,,,0.000000,2.000000,2.000000,0.000000,2.000000,2.000000,2.000000,0.000000,2.000000,4.000000,4.000000,4.000000,4.000000,2.000000,4.000000,16.666666,,,,,,,,,,,,,,,,,,,,,,,,,,,,
1732082943.380975,1732082943.382819,83.000000,0.000000,4319.743652,4304.102539,4330.512695,4316.538574,4301.794922,4309.871582,4289.230957,4341.153809,4335.897461,4320.641113,4466.282227,4504.230957,4363.717773,4421.282227,1503.000000,0.000000,8.000000,,,,0.000000,2.000000,2.000000,0.000000,2.000000,2.000000,2.000000,0.000000,2.000000,4.000000,4.000000,4.000000,4.000000,2.000000,4.000000,16.666666,,,,,,,,,,,,,,,,,,,,,,,,,,,,
1732082943.388783,1732082943.390527,84.000000,0.000000,4318.589844,4307.948730,4328.717773,4317.179688,4301.410156,4312.051270,4288.846191,4345.512695,4336.025879,4321.666504,4466.153809,4498.205078,4363.461426,4421.922852,1728.000000,0.000000,8.000000,,,,0.000000,2.000000,2.000000,0.000000,2.000000,2.000000,2.000000,0.000000,2.000000,4.000000,4.000000,4.000000,4.000000,2.000000,4.000000,16.666666,,,,,,,,,,,,,,,,,21.000000,0.000000,0.625032,0.401306,-0.587219,0.321655,0.978147,0.117690,-0.014650,-75.381416,62.465302,30.428413
1732082943.396591,1732082943.398335,85.000000,0.000000,4320.512695,4308.077148,4328.333496,4322.436035,4304.230957,4317.179688,4292.436035,4352.179688,4339.358887,4325.128418,4468.974121,4497.179688,4362.692383,4422.179688,1646.000000,0.000000,8.000000,,,,0.000000,2.000000,2.000000,0.000000,2.000000,2.000000,2.000000,0.000000,2.000000,4.000000,4.000000,4.000000,4.000000,2.000000,4.000000,16.666666,,,,,,,,,,,,,,,,,,,,,,,,,,,,
1732082943.404400,1732082943.406343,86.000000,0.000000,4320.512695,4305.256348,4327.436035,4320.256348,4307.307617,4318.077148,4291.410156,4350.769043,4340.512695,4323.846191,4465.641113,4499.230957,4361.282227,4417.948730,1366.000000,0.000000,8.000000,,,,0.000000,2.000000,2.000000,0.000000,2.000000,2.000000,2.000000,0.000000,2.000000,4.000000,4.000000,4.000000,4.000000,2.000000,4.000000,16.666666,,,,,,,,,,,,,,,,,,,,,,,,,,,,
1732082943.412208,1732082943.414151,87.000000,0.000000,4319.487305,4305.128418,4328.461426,4315.128418,4308.077148,4315.769043,4288.717773,4350.128418,4339.743652,4320.641113,4460.384766,4495.256348,4360.000000,4413.461426,1503.000000,0.000000,8.000000,,,,0.000000,2.000000,2.000000,0.000000,2.000000,2.000000,2.000000,0.000000,2.000000,4.000000,4.000000,4.000000,4.000000,2.000000,4.000000,16.666666,,,,,,,,,,,,,,,,,,,,,,,,,,,,
1732082943.420016,1732082943.421860,88.000000,0.000000,4321.666504,4307.692383,4331.538574,4318.333496,4307.692383,4316.153809,4288.077148,4354.487305,4339.615234,4320.000000,4461.282227,4492.692383,4360.000000,4412.948730,1728.000000,0.000000,8.000000,,,,0.000000,2.000000,2.000000,0.000000,2.000000,2.000000,2.000000,0.000000,2.000000,4.000000,4.000000,4.000000,4.000000,2.000000,4.000000,16.666666,,,,,,,,,,,,,,,,,22.000000,0.000000,0.624201,0.402283,-0.587769,0.321045,0.979123,0.124039,-0.016604,-75.215614,62.490227,30.267015
1732082943.427824,1732082943.429668,89.000000,0.000000,4321.666504,4306.153809,4332.820313,4318.974121,4309.487305,4321.922852,4289.743652,4359.615234,4342.948730,4320.641113,4461.410156,4492.563965,4358.846191,4410.769043,1646.000000,0.000000,8.000000,,,,0.000000,2.000000,2.000000,0.000000,2.000000,2.000000,2.000000,0.000000,2.000000,4.000000,4.000000,4.000000,4.000000,2.000000,4.000000,16.666666,,,,,,,,,,,,,,,,,,,,,,,,,,,,
1732082943.435633,1732082943.437276,90.000000,0.000000,4318.589844,4300.641113,4331.282227,4314.615234,4310.128418,4323.333496,4292.179688,4360.128418,4346.410156,4322.948730,4460.256348,4493.974121,4355.256348,4409.358887,1366.000000,0.000000,8.000000,,,,0.000000,2.000000,2.000000,0.000000,2.000000,2.000000,2.000000,0.000000,2.000000,4.000000,4.000000,4.000000,4.000000,2.000000,4.000000,16.666666,,,,,,,,,,,,,,,,,,,,,,,,,,,,
1732082943.443441,1732082943.445085,91.000000,0.000000,4319.487305,4299.358887,4330.128418,4316.538574,4307.051270,4315.769043,4287.436035,4350.897461,4339.615234,4323.205078,4462.179688,4495.769043,4355.256348,4411.410156,1503.000000,0.000000,8.000000,,,,0.000000,2.000000,2.000000,0.000000,2.000000,2.000000,2.000000,0.000000,2.000000,4.000000,4.000000,4.000000,4.000000,2.000000,4.000000,16.666666,,,,,,,,,,,,,,,,,,,,,,,,,,,,
1732082943.451249,1732082943.452793,92.000000,0.000000,4321.794922,4302.436035,4331.282227,4319.230957,4304.358887,4314.871582,4282.948730,4344.743652,4332.436035,4318.077148,4461.025879,4495.256348,4357.179688,4408.717773,1728.000000,0.000000,8.000000,,,,0.000000,2.000000,2.000000,0.000000,2.000000,2.000000,2.000000,0.000000,2.000000,4.000000,4.000000,4.000000,4.000000,2.000000,4.000000,16.666666,,,,,,,,,,,,,,,,,23.000000,0.000000,0.623690,0.402832,-0.588135,0.320679,0.960566,0.139177,-0.034672,-75.427979,62.650417,30.121283
1732082943.459057,1732082943.460601,93.000000,0.000000,4321.410156,4305.000000,4329.230957,4318.846191,4305.641113,4318.461426,4281.153809,4347.051270,4333.333496,4315.256348,4457.563965,4494.102539,4355.128418,4407.179688,1646.000000,0.000000,8.000000,,,,0.000000,2.000000,2.000000,0.000000,2.000000,2.000000,2.000000,0.000000,2.000000,4.000000,4.000000,4.000000,4.000000,2.000000,4.000000,16.666666,,,,,,,,,,,,,,,,,,,,,,,,,,,,
1732082943.466866,1732082943.468210,94.000000,0.000000,4317.307617,4302.692383,4328.974121,4316.666504,4304.615234,4313.461426,4279.230957,4347.436035,4330.769043,4315.641113,4459.743652,4495.256348,4353.461426,4410.769043,1366.000000,0.000000,8.000000,,,,0.000000,2.000000,2.000000,0.000000,2.000000,2.000000,2.000000,0.000000,2.000000,4.000000,4.000000,4.000000,4.000000,2.000000,4.000000,16.666666,,,,,,,,,,,,,,,,,,,,,,,,,,,,
1732082943.474674,1732082943.476018,95.000000,0.000000,4318.461426,4302.948730,4327.948730,4315.897461,4301.153809,4310.256348,4274.743652,4346.794922,4328.974121,4318.461426,4466.666504,4498.077148,4356.538574,4414.743652,1503.000000,0.000000,8.000000,,,,0.000000,2.000000,2.000000,0.000000,2.000000,2.000000,2.000000,0.000000,2.000000,4.000000,4.000000,4.000000,4.000000,2.000000,4.000000,16.666666,,,,,,,,,,,,,,,,,,,,,,,,,,,,
1732082943.482482,1732082943.483726,96.000000,0.000000,4320.641113,4304.102539,4328.717773,4316.410156,4302.692383,4319.102539,4276.538574,4351.666504,4334.615234,4318.461426,4466.666504,4498.974121,4358.077148,4416.025879,1728.000000,0.000000,8.000000,,,,0.000000,2.000000,2.000000,0.000000,2.000000,2.000000,2.000000,0.000000,2.000000,4.000000,4.000000,4.000000,4.000000,2.000000,4.000000,16.666666,,,,,,,,,,,,,,,,,24.000000,0.000000,0.621874,0.405334,-0.589233,0.319031,0.941521,0.153827,-0.042974,-75.536667,62.748505,29.971571
1732082943.490291,1732082943.491534,97.000000,0.000000,4316.666504,4300.384766,4325.897461,4318.077148,4306.410156,4325.256348,4278.333496,4353.589844,4336.538574,4313.333496,4456.282227,4492.307617,4353.974121,4413.077148,1646.000000,0.000000,8.000000,,,,0.000000,2.000000,2.000000,0.000000,2.000000,2.000000,2.000000,0.000000,2.000000,4.000000,4.000000,4.000000,4.000000,2.000000,4.000000,16.666666,,,,,,,,,,,,,,,,,,,,,,,,,,,,
1732082943.498099,1732082943.499542,98.000000,0.000000,4312.820313,4298.461426,4328.333496,4315.641113,4302.948730,4322.563965,4279.358887,4351.025879,4335.384766,4311.153809,4454.615234,4485.512695,4350.897461,4411.153809,1366.000000,0.000000,8.000000,,,,0.000000,2.000000,2.000000,0.000000,2.000000,2.000000,2.000000,0.000000,2.000000,4.000000,4.000000,4.000000,4.000000,2.000000,4.000000,16.666666,,,,,,,,,,,,,,,,,,,,,,,,,,,,
1732082943.505907,1732082943.507350,99.000000,0.000000,4315.897461,4300.769043,4329.102539,4313.717773,4296.666504,4324.102539,4277.820313,4354.743652,4341.794922,4316.025879,4463.974121,4489.743652,4355.512695,4416.282227,1503.000000,0.000000,8.000000,,,,0.000000,2.000000,2.000000,0.000000,2.000000,2.000000,2.000000,0.000000,2.000000,4.000000,4.000000,4.000000,4.000000,2.000000,4.000000,16.666666,,,,,,,,,,,,,,,,,,,,,,,,,,,,
1732082943.513715,1732082943.515259,100.000000,0.000000,4319.358887,4300.641113,4328.333496,4317.948730,4295.000000,4323.461426,4274.871582,4356.153809,4341.794922,4320.512695,4467.563965,4499.615234,4363.461426,4425.897461,1728.000000,0.000000,8.000000,,,,0.000000,2.000000,2.000000,0.000000,2.000000,2.000000,2.000000,0.000000,2.000000,4.000000,4.000000,4.000000,4.000000,2.000000,4.000000,16.666666,,,,,,,,,,,,,,,,,25.000000,0.000000,0.620491,0.410278,-0.589600,0.314697,0.912709,0.198755,-0.063973,-75.279701,62.844624,29.788639
1732082943.521524,1732082943.523067,101.000000,0.000000,4317.051270,4301.153809,4326.282227,4320.128418,4294.615234,4313.077148,4272.307617,4348.333496,4332.563965,4320.384766,4469.487305,4501.666504,4366.538574,4429.358887,1646.000000,0.000000,8.000000,,,,0.000000,2.000000,2.000000,0.000000,2.000000,2.000000,2.000000,0.000000,2.000000,4.000000,4.000000,4.000000,4.000000,2.000000,4.000000,16.666666,,,,,,,,,,,,,,,,,,,,,,,,,,,,
1732082943.529332,1732082943.530675,102.000000,0.000000,4312.307617,4301.922852,4326.794922,4317.436035,4291.922852,4313.846191,4276.025879,4349.358887,4333.077148,4319.487305,4471.282227,4498.974121,4365.897461,4423.589844,1366.000000,0.000000,8.000000,,,,0.000000,2.000000,2.000000,0.000000,2.000000,2.000000,2.000000,0.000000,2.000000,4.000000,4.000000,4.000000,4.000000,2.000000,4.000000,16.666666,,,,,,,,,,,,,,,,,,,,,,,,,,,,
1732082943.537140,1732082943.538483,103.000000,0.000000,4307.563965,4298.461426,4327.436035,4316.538574,4290.000000,4325.641113,4277.692383,4361.410156,4344.487305,4323.077148,4471.410156,4500.256348,4366.282227,4422.436035,1503.000000,0.000000,8.000000,,,,0.000000,2.000000,2.000000,0.000000,2.000000,2.000000,2.000000,0.000000,2.000000,4.000000,4.000000,4.000000,4.000000,2.000000,4.000000,16.666666,,,,,,,,,,,,,,,,,,,,,,,,,,,,
1732082943.544948,1732082943.546192,104.000000,0.000000,4305.641113,4299.230957,4330.000000,4318.333496,4291.922852,4322.692383,4274.743652,4361.410156,4347.692383,4328.333496,4471.025879,4499.615234,4367.179688,4424.743652,1728.000000,0.000000,8.000000,,,,0.000000,2.000000,2.000000,0.000000,2.000000,2.000000,2.000000,0.000000,2.000000,4.000000,4.000000,4.000000,4.000000,2.000000,4.000000,16.666666,,,,,,,,,,,,,,,,,26.000000,0.000000,0.620240,0.414001,-0.588623,0.312134,0.954706,0.234404,-0.083995,-75.088226,62.989143,29.373798
1732082943.552757,1732082943.554000,105.000000,0.000000,4307.307617,4303.333496,4329.615234,4317.307617,4292.179688,4314.230957,4274.743652,4351.153809,4337.051270,4323.333496,4467.820313,4491.410156,4362.436035,4418.205078,1646.000000,0.000000,8.000000,,,,0.000000,2.000000,2.000000,0.000000,2.000000,2.000000,2.000000,0.000000,2.000000,4.000000,4.000000,4.000000,4.000000,2.000000,4.000000,16.666666,,,,,,,,,,,,,,,,,,,,,,,,,,,,
1732082943.560565,1732082943.561608,106.000000,0.000000,4308.205078,4302.179688,4323.717773,4317.179688,4289.871582,4318.205078,4274.615234,4349.615234,4330.512695,4313.717773,4465.512695,4485.384766,4359.871582,4416.153809,1366.000000,0.000000,8.000000,,,,0.000000,2.000000,2.000000,0.000000,2.000000,2.000000,2.000000,0.000000,2.000000,4.000000,4.000000,4.000000,4.000000,2.000000,4.000000,16.666666,,,,,,,,,,,,,,,,,,,,,,,,,,,,
1732082943.568373,1732082943.569417,107.000000,0.000000,4308.205078,4303.974121,4327.948730,4322.692383,4293.846191,4318.589844,4273.589844,4345.128418,4331.282227,4315.000000,4470.897461,4491.025879,4368.205078,4427.820313,1503.000000,0.000000,8.000000,,,,0.000000,2.000000,2.000000,0.000000,2.000000,2.000000,2.000000,0.000000,2.000000,4.000000,4.000000,4.000000,4.000000,2.000000,4.000000,16.666666,,,,,,,,,,,,,,,,,,,,,,,,,,,,
1732082943.576182,1732082943.577325,108.000000,0.000000,4305.897461,4306.538574,4332.563965,4323.974121,4296.794922,4313.205078,4271.794922,4338.846191,4332.307617,4322.051270,4472.051270,4498.077148,4371.025879,4430.128418,1728.000000,0.000000,8.000000,,,,0.000000,2.000000,2.000000,0.000000,2.000000,2.000000,2.000000,0.000000,2.000000,4.000000,4.000000,4.000000,4.000000,2.000000,4.000000,16.666666,,,,,,,,,,,,,,,,,27.000000,0.000000,0.620136,0.415588,-0.588196,0.311035,0.976682,0.202661,-0.093273,-74.874794,63.022873,29.316111
1732082943.583990,1732082943.585133,109.000000,0.000000,4300.769043,4300.384766,4334.487305,4318.846191,4286.410156,4318.333496,4277.051270,4345.897461,4336.025879,4324.358887,4464.871582,4498.846191,4362.948730,4422.948730,1646.000000,0.000000,8.000000,,,,0.000000,2.000000,2.000000,0.000000,2.000000,2.000000,2.000000,0.000000,2.000000,4.000000,4.000000,4.000000,4.000000,2.000000,4.000000,16.666666,,,,,,,,,,,,,,,,,,,,,,,,,,,,
1732082943.591798,1732082943.593141,110.000000,0.000000,4301.794922,4297.436035,4331.538574,4317.307617,4291.794922,4324.358887,4277.820313,4354.102539,4339.358887,4322.179688,4466.666504,4499.358887,4360.000000,4424.102539,1366.000000,0.000000,8.000000,,,,0.000000,2.000000,2.000000,0.000000,2.000000,2.000000,2.000000,0.000000,2.000000,4.000000,4.000000,4.000000,4.000000,2.000000,4.000000,16.666666,,,,,,,,,,,,,,,,,,,,,,,,,,,,
1732082943.599606,1732082943.600949,111.000000,0.000000,4305.769043,4298.205078,4335.256348,4317.436035,4305.256348,4320.128418,4274.743652,4348.717773,4330.769043,4315.512695,4466.410156,4500.128418,4361.666504,4422.692383,1503.000000,0.000000,8.000000,,,,0.000000,2.000000,2.000000,0.000000,2.000000,2.000000,2.000000,0.000000,2.000000,4.000000,4.000000,4.000000,4.000000,2.000000,4.000000,16.666666,,,,,,,,,,,,,,,,,,,,,,,,,,,,
1732082943.607415,1732082943.608857,112.000000,0.000000,4305.128418,4294.615234,4335.641113,4316.538574,4289.102539,4317.436035,4271.025879,4336.922852,4322.563965,4317.436035,4457.436035,4495.128418,4361.025879,4418.205078,1728.000000,0.000000,8.000000,,,,0.000000,2.000000,2.000000,0.000000,2.000000,2.000000,2.000000,0.000000,2.000000,4.000000,4.000000,4.000000,4.000000,2.000000,4.000000,16.666666,,,,,,,,,,,,,,,,,28.000000,0.000000,0.619207,0.416138,-0.589172,0.310303,0.978147,0.117202,-0.041021,-75.061913,63.190193,29.129383
1732082943.615223,1732082943.616665,113.000000,0.000000,4302.948730,4291.794922,4333.589844,4315.641113,4272.563965,4321.153809,4273.333496,4343.461426,4332.820313,4326.538574,4456.538574,4493.846191,4357.051270,4416.794922,1646.000000,0.000000,8.000000,,,,0.000000,2.000000,2.000000,0.000000,2.000000,2.000000,2.000000,0.000000,2.000000,4.000000,4.000000,4.000000,4.000000,2.000000,4.000000,16.666666,,,,,,,,,,,,,,,,,,,,,,,,,,,,
1732082943.623031,1732082943.624673,114.000000,0.000000,4307.051270,4293.077148,4329.871582,4315.769043,4285.000000,4322.179688,4272.179688,4361.922852,4344.487305,4329.743652,4462.692383,4498.974121,4356.666504,4415.769043,1366.000000,0.000000,8.000000,,,,0.000000,2.000000,2.000000,0.000000,2.000000,2.000000,2.000000,0.000000,2.000000,4.000000,4.000000,4.000000,4.000000,2.000000,4.000000,16.666666,,,,,,,,,,,,,,,,,,,,,,,,,,,,
1732082943.630839,1732082943.632482,115.000000,0.000000,4314.230957,4295.384766,4328.333496,4315.512695,4294.102539,4322.436035,4265.512695,4352.436035,4336.153809,4327.948730,4462.307617,4500.384766,4362.563965,4417.307617,1503.000000,0.000000,8.000000,,,,0.000000,2.000000,2.000000,0.000000,2.000000,2.000000,2.000000,0.000000,2.000000,4.000000,4.000000,4.000000,4.000000,2.000000,4.000000,16.666666,,,,,,,,,,,,,,,,,,,,,,,,,,,,
1732082943.638648,1732082943.640390,116.000000,0.000000,4320.512695,4299.358887,4324.230957,4319.487305,4291.025879,4321.282227,4260.128418,4327.179688,4324.102539,4327.948730,4461.025879,4495.897461,4367.051270,4424.102539,1728.000000,0.000000,8.000000,,,,0.000000,2.000000,2.000000,0.000000,2.000000,2.000000,2.000000,0.000000,2.000000,4.000000,4.000000,4.000000,4.000000,2.000000,4.000000,16.666666,,,,,,,,,,,,,,,,,29.000000,0.000000,0.618657,0.412964,-0.590820,0.312500,0.980100,0.092296,-0.037114,-75.000153,63.440723,28.858133
1732082943.646456,1732082943.648198,117.000000,0.000000,4325.897461,4303.205078,4318.205078,4324.615234,4295.000000,4313.205078,4256.922852,4326.922852,4327.436035,4329.871582,4466.794922,4496.282227,4368.589844,4429.102539,1646.000000,0.000000,8.000000,,,,0.000000,2.000000,2.000000,0.000000,2.000000,2.000000,2.000000,0.000000,2.000000,4.000000,4.000000,4.000000,4.000000,2.000000,4.000000,16.666666,,,,,,,,,,,,,,,,,,,,,,,,,,,,
1732082943.654264,1732082943.656206,118.000000,0.000000,4325.512695,4299.358887,4317.051270,4321.153809,4296.410156,4309.871582,4254.487305,4345.256348,4337.179688,4329.230957,4468.077148,4501.538574,4368.333496,4429.358887,1366.000000,0.000000,8.000000,,,,0.000000,2.000000,2.000000,0.000000,2.000000,2.000000,2.000000,0.000000,2.000000,4.000000,4.000000,4.000000,4.000000,2.000000,4.000000,16.666666,,,,,,,,,,,,,,,,,,,,,,,,,,,,
1732082943.662072,1732082943.664014,119.000000,0.000000,4323.461426,4295.128418,4315.256348,4317.179688,4294.871582,4314.743652,4250.641113,4348.077148,4339.358887,4326.282227,4463.077148,4496.666504,4364.871582,4426.794922,1503.000000,0.000000,8.000000,,,,0.000000,2.000000,2.000000,0.000000,2.000000,2.000000,2.000000,0.000000,2.000000,4.000000,4.000000,4.000000,4.000000,2.000000,4.000000,16.666666,,,,,,,,,,,,,,,,,,,,,,,,,,,,
1732082943.669881,1732082943.671922,120.000000,0.000000,4331.538574,4299.743652,4316.794922,4322.948730,4298.846191,4314.871582,4252.051270,4341.410156,4332.948730,4322.436035,4461.153809,4488.717773,4361.153809,4422.820313,1728.000000,0.000000,8.000000,,,,0.000000,2.000000,2.000000,0.000000,2.000000,2.000000,2.000000,0.000000,2.000000,4.000000,4.000000,4.000000,4.000000,2.000000,4.000000,16.666666,,,,,,,,,,,,,,,,,30.000000,0.000000,0.618657,0.412964,-0.590820,0.312500,0.970822,0.071786,-0.007325,-74.905121,63.673653,28.758421
1732082943.677689,1732082943.679730,121.000000,0.000000,4344.871582,4305.128418,4318.205078,4328.589844,4298.333496,4309.743652,4252.179688,4337.436035,4330.000000,4323.846191,4466.153809,4491.282227,4365.769043,4425.512695,1646.000000,0.000000,8.000000,,,,0.000000,2.000000,2.000000,0.000000,2.000000,2.000000,2.000000,0.000000,2.000000,4.000000,4.000000,4.000000,4.000000,2.000000,4.000000,16.666666,,,,,,,,,,,,,,,,,,,,,,,,,,,,
1732082943.685497,1732082943.687738,122.000000,0.000000,4348.077148,4305.641113,4323.846191,4325.128418,4298.846191,4306.025879,4250.897461,4330.641113,4329.487305,4320.128418,4466.538574,4500.384766,4368.846191,4429.487305,1366.000000,0.000000,8.000000,,,,0.000000,2.000000,2.000000,0.000000,2.000000,2.000000,2.000000,0.000000,2.000000,4.000000,4.000000,4.000000,4.000000,2.000000,4.000000,16.666666,,,,,,,,,,,,,,,,,,,,,,,,,,,,
1732082943.693305,1732082943.695547,123.000000,0.000000,4342.820313,4306.025879,4323.333496,4323.461426,4303.846191,4307.692383,4249.743652,4328.974121,4325.769043,4308.717773,4459.102539,4500.384766,4363.717773,4429.230957,1503.000000,0.000000,8.000000,,,,0.000000,2.000000,2.000000,0.000000,2.000000,2.000000,2.000000,0.000000,2.000000,4.000000,4.000000,4.000000,4.000000,2.000000,4.000000,16.666666,,,,,,,,,,,,,,,,,,,,,,,,,,,,
1732082943.701114,1732082943.703255,124.000000,0.000000,4342.692383,4306.410156,4326.282227,4325.384766,4305.128418,4310.641113,4252.179688,4332.563965,4321.794922,4302.563965,4457.307617,4502.051270,4362.948730,4425.641113,1728.000000,0.000000,8.000000,,,,0.000000,2.000000,2.000000,0.000000,2.000000,2.000000,2.000000,0.000000,2.000000,4.000000,4.000000,4.000000,4.000000,2.000000,4.000000,16.666666,,,,,,,,,,,,,,,,,31.000000,0.000000,0.618546,0.403015,-0.595642,0.316528,0.952753,0.097668,-0.012697,-74.894814,63.528992,28.702654
1732082943.708922,1732082943.711063,125.000000,0.000000,4346.025879,4303.589844,4326.922852,4324.615234,4305.128418,4311.794922,4251.538574,4336.538574,4323.205078,4303.205078,4459.615234,4507.692383,4365.000000,4419.358887,1646.000000,0.000000,8.000000,,,,0.000000,2.000000,2.000000,0.000000,2.000000,2.000000,2.000000,0.000000,2.000000,4.000000,4.000000,4.000000,4.000000,2.000000,4.000000,16.666666,,,,,,,,,,,,,,,,,,,,,,,,,,,,
1732082943.716730,1732082943.718672,126.000000,0.000000,4342.948730,4302.179688,4326.025879,4322.692383,4310.128418,4310.000000,4251.666504,4337.307617,4324.743652,4301.282227,4453.077148,4506.282227,4360.641113,4414.743652,1366.000000,0.000000,8.000000,,,,0.000000,2.000000,2.000000,0.000000,2.000000,2.000000,2.000000,0.000000,2.000000,4.000000,4.000000,4.000000,4.000000,2.000000,4.000000,16.666666,,,,,,,,,,,,,,,,,,,,,,,,,,,,
1732082943.724538,1732082943.726480,127.000000,0.000000,4338.974121,4305.000000,4319.487305,4324.871582,4317.436035,4310.641113,4249.871582,4341.794922,4326.794922,4299.615234,4448.846191,4502.563965,4357.179688,4416.153809,8.000000,0.000000,8.000000,,,,0.000000,2.000000,2.000000,0.000000,2.000000,2.000000,2.000000,0.000000,2.000000,4.000000,4.000000,4.000000,4.000000,2.000000,4.000000,16.666666,,,,,,,,,,,,,,,,,,,,,,,,,,,,
1732082943.732347,1732082943.734188,0.000000,0.000000,4339.615234,4306.922852,4319.743652,4326.025879,4318.717773,4313.461426,4248.077148,4346.153809,4332.051270,4306.922852,4456.410156,4507.820313,4364.871582,4421.153809,0.000000,0.000000,8.000000,,,,0.000000,2.000000,2.000000,0.000000,2.000000,2.000000,2.000000,0.000000,2.000000,4.000000,4.000000,4.000000,4.000000,2.000000,4.000000,16.666666,,,,,,,,,,,,,,,,,0.000000,0.000000,0.618905,0.398804,-0.598389,0.315979,0.940056,0.101087,-0.005372,-74.929802,63.280151,28.639151
1732082943.740155,1732082943.741996,1.000000,0.000000,4343.717773,4308.589844,4324.871582,4324.358887,4315.000000,4311.666504,4246.922852,4342.307617,4333.717773,4313.846191,4463.205078,4515.256348,4374.358887,4425.769043,1310.000000,0.000000,8.000000,,,,0.000000,2.000000,2.000000,0.000000,2.000000,2.000000,2.000000,0.000000,2.000000,4.000000,4.000000,4.000000,4.000000,2.000000,4.000000,16.666666,,,,,,,,,,,,,,,,,,,,,,,,,,,,
1732082943.747963,1732082943.749605,2.000000,0.000000,4342.436035,4307.307617,4326.922852,4323.589844,4311.922852,4308.846191,4247.948730,4341.538574,4331.794922,4312.307617,4462.948730,4511.666504,4372.436035,4426.025879,1234.000000,0.000000,8.000000,,,,0.000000,2.000000,2.000000,0.000000,2.000000,2.000000,2.000000,0.000000,2.000000,4.000000,4.000000,4.000000,4.000000,2.000000,4.000000,16.666666,,,,,,,,,,,,,,,,,,,,,,,,,,,,
1732082943.755772,1732082943.757413,3.000000,0.000000,4337.179688,4304.230957,4325.641113,4323.333496,4308.974121,4308.205078,4246.282227,4340.897461,4331.666504,4309.615234,4461.025879,4502.563965,4368.589844,4423.333496,1185.000000,0.000000,8.000000,,,,0.000000,2.000000,2.000000,0.000000,2.000000,2.000000,2.000000,0.000000,2.000000,4.000000,4.000000,4.000000,4.000000,2.000000,4.000000,16.666666,,,,,,,,,,,,,,,,,,,,,,,,,,,,
1732082943.763580,1732082943.765221,4.000000,0.000000,4337.563965,4304.871582,4323.077148,4322.692383,4305.384766,4306.282227,4245.897461,4339.615234,4330.897461,4306.666504,4461.282227,4499.743652,4368.461426,4425.256348,1202.000000,0.000000,8.000000,,,,0.000000,2.000000,2.000000,0.000000,2.000000,2.000000,2.000000,0.000000,2.000000,4.000000,4.000000,4.000000,4.000000,2.000000,4.000000,16.666666,,,,,,,,,,,,,,,,,1.000000,0.000000,0.619628,0.397278,-0.599426,0.314514,0.981565,0.125992,-0.035161,-75.009804,63.006924,28.606045
1732082943.771388,1732082943.773029,5.000000,0.000000,4341.410156,4306.153809,4326.025879,4321.153809,4304.487305,4304.230957,4247.563965,4343.333496,4333.205078,4305.000000,4462.563965,4505.641113,4369.230957,4428.205078,1080.000000,0.000000,8.000000,,,,0.000000,2.000000,2.000000,0.000000,2.000000,2.000000,2.000000,0.000000,2.000000,4.000000,4.000000,4.000000,4.000000,2.000000,4.000000,16.666666,,,,,,,,,,,,,,,,,,,,,,,,,,,,
1732082943.779196,1732082943.780638,6.000000,0.000000,4340.128418,4306.410156,4328.974121,4322.692383,4307.307617,4306.025879,4246.922852,4345.384766,4336.282227,4309.743652,4464.230957,4507.948730,4369.871582,4427.692383,58.000000,0.000000,8.000000,,,,0.000000,2.000000,2.000000,0.000000,2.000000,2.000000,2.000000,0.000000,2.000000,4.000000,4.000000,4.000000,4.000000,2.000000,4.000000,16.666666,,,,,,,,,,,,,,,,,,,,,,,,,,,,
1732082943.787005,1732082943.788446,7.000000,0.000000,4336.794922,4306.025879,4329.487305,4324.230957,4308.846191,4306.025879,4243.205078,4343.461426,4333.333496,4313.589844,4467.051270,4507.563965,4369.871582,4427.820313,1180.000000,0.000000,8.000000,,,,0.000000,2.000000,2.000000,0.000000,2.000000,2.000000,2.000000,0.000000,2.000000,4.000000,4.000000,4.000000,4.000000,2.000000,4.000000,16.666666,,,,,,,,,,,,,,,,,,,,,,,,,,,,
1732082943.794813,1732082943.796154,8.000000,0.000000,4336.410156,4308.846191,4325.384766,4322.948730,4308.974121,4301.410156,4241.153809,4343.589844,4331.794922,4311.410156,4469.230957,4507.948730,4370.000000,4429.871582,1352.000000,0.000000,8.000000,,,,0.000000,2.000000,2.000000,0.000000,2.000000,2.000000,2.000000,0.000000,2.000000,4.000000,4.000000,4.000000,4.000000,2.000000,4.000000,16.666666,,,,,,,,,,,,,,,,,2.000000,0.000000,0.619493,0.397217,-0.599670,0.314392,0.981565,0.125992,-0.035161,-75.197945,62.878941,28.585896
1732082943.802621,1732082943.803963,9.000000,0.000000,4336.922852,4309.871582,4327.563965,4321.538574,4309.615234,4302.436035,4241.922852,4342.563965,4332.692383,4310.384766,4463.717773,4507.948730,4369.487305,4430.256348,1496.000000,0.000000,8.000000,,,,0.000000,2.000000,2.000000,0.000000,2.000000,2.000000,2.000000,0.000000,2.000000,4.000000,4.000000,4.000000,4.000000,2.000000,4.000000,16.666666,,,,,,,,,,,,,,,,,,,,,,,,,,,,
1732082943.810429,1732082943.811571,10.000000,0.000000,4337.563965,4311.410156,4326.922852,4325.000000,4307.563965,4306.282227,4240.512695,4334.487305,4327.948730,4311.922852,4458.717773,4508.077148,4366.666504,4428.717773,1366.000000,0.000000,8.000000,,,,0.000000,2.000000,2.000000,0.000000,2.000000,2.000000,2.000000,0.000000,2.000000,4.000000,4.000000,4.000000,4.000000,2.000000,4.000000,16.666666,,,,,,,,,,,,,,,,,,,,,,,,,,,,
1732082943.818238,1732082943.819379,11.000000,0.000000,4336.538574,4312.948730,4328.205078,4328.077148,4306.282227,4305.641113,4244.487305,4334.615234,4326.538574,4312.179688,4460.769043,4505.512695,4362.179688,4425.897461,1503.000000,0.000000,8.000000,,,,0.000000,2.000000,2.000000,0.000000,2.000000,2.000000,2.000000,0.000000,2.000000,4.000000,4.000000,4.000000,4.000000,2.000000,4.000000,16.666666,,,,,,,,,,,,,,,,,,,,,,,,,,,,
1732082943.826046,1732082943.827287,12.000000,0.000000,4332.179688,4310.128418,4330.512695,4324.487305,4303.717773,4305.897461,4247.436035,4342.820313,4332.563965,4314.615234,4458.461426,4501.153809,4360.769043,4420.512695,1728.000000,0.000000,8.000000,,,,0.000000,2.000000,2.000000,0.000000,2.000000,2.000000,2.000000,0.000000,2.000000,4.000000,4.000000,4.000000,4.000000,2.000000,4.000000,16.666666,,,,,,,,,,,,,,,,,3.000000,0.000000,0.617240,0.399719,-0.599915,0.315186,0.976682,0.142596,-0.056648,-75.505333,62.768608,28.376244
1732082943.833854,1732082943.835095,13.000000,0.000000,4331.922852,4306.282227,4331.025879,4322.692383,4297.307617,4307.948730,4243.333496,4344.102539,4334.871582,4317.179688,4460.128418,4501.410156,4364.871582,4418.717773,1643.000000,0.000000,8.000000,,,,0.000000,2.000000,2.000000,0.000000,2.000000,2.000000,2.000000,0.000000,2.000000,4.000000,4.000000,4.000000,4.000000,2.000000,4.000000,16.666666,,,,,,,,,,,,,,,,,,,,,,,,,,,,
1732082943.841663,1732082943.842704,14.000000,0.000000,4337.692383,4306.794922,4328.205078,4325.769043,4305.256348,4307.948730,4240.128418,4342.948730,4336.666504,4322.051270,4469.230957,4505.769043,4369.615234,4422.436035,1366.000000,0.000000,8.000000,,,,0.000000,2.000000,2.000000,0.000000,2.000000,2.000000,2.000000,0.000000,2.000000,4.000000,4.000000,4.000000,4.000000,2.000000,4.000000,16.666666,1.000000,16.666666,2.000000,2.000000,0.000000,2.000000,2.000000,2.000000,0.000000,2.000000,4.000000,4.000000,4.000000,4.000000,2.000000,3.000000,,,,,,,,,,,,
1732082943.849471,1732082943.850512,15.000000,0.000000,4336.794922,4310.128418,4330.512695,4324.230957,4313.205078,4305.897461,4245.769043,4346.025879,4338.717773,4325.256348,4467.436035,4502.692383,4367.179688,4423.077148,1503.000000,0.000000,8.000000,,,,0.000000,2.000000,2.000000,0.000000,2.000000,2.000000,2.000000,0.000000,2.000000,4.000000,4.000000,4.000000,4.000000,2.000000,4.000000,16.666666,,,,,,,,,,,,,,,,,,,,,,,,,,,,
1732082943.857279,1732082943.858220,16.000000,0.000000,4333.974121,4308.205078,4328.717773,4321.153809,4297.820313,4307.948730,4243.205078,4347.051270,4335.128418,4322.051270,4463.717773,4494.871582,4365.128418,4420.128418,0.000000,0.000000,8.000000,,,,0.000000,2.000000,2.000000,0.000000,2.000000,2.000000,2.000000,0.000000,2.000000,4.000000,4.000000,4.000000,4.000000,2.000000,4.000000,16.666666,,,,,,,,,,,,,,,,,4.000000,0.000000,0.615711,0.400879,-0.600037,0.316467,1.024051,0.085948,-0.037114,-75.522652,62.654240,28.323090
1732082943.865087,1732082943.866029,17.000000,0.000000,4335.641113,4302.051270,4323.461426,4319.615234,4284.487305,4311.153809,4239.487305,4343.974121,4335.897461,4320.512695,4468.717773,4499.487305,4365.384766,4420.512695,0.000000,0.000000,8.000000,,,,0.000000,2.000000,2.000000,0.000000,2.000000,2.000000,2.000000,0.000000,2.000000,4.000000,4.000000,4.000000,4.000000,2.000000,4.000000,16.666666,,,,,,,,,,,,,,,,,,,,,,,,,,,,
1732082943.872896,1732082943.873637,18.000000,0.000000,4340.897461,4307.563965,4321.922852,4321.794922,4294.743652,4308.077148,4240.128418,4340.000000,4341.025879,4322.692383,4465.128418,4502.051270,4362.051270,4424.102539,0.000000,0.000000,8.000000,,,,0.000000,2.000000,2.000000,0.000000,2.000000,2.000000,2.000000,0.000000,2.000000,4.000000,4.000000,4.000000,4.000000,2.000000,4.000000,16.666666,,,,,,,,,,,,,,,,,,,,,,,,,,,,
1732082943.880704,1732082943.881445,19.000000,0.000000,4345.641113,4313.846191,4323.461426,4324.230957,4300.641113,4305.641113,4238.333496,4340.897461,4337.051270,4320.512695,4458.333496,4493.333496,4365.256348,4426.410156,0.000000,0.000000,8.000000,,,,0.000000,2.000000,2.000000,0.000000,2.000000,2.000000,2.000000,0.000000,2.000000,4.000000,4.000000,4.000000,4.000000,2.000000,4.000000,16.666666,,,,,,,,,,,,,,,,,,,,,,,,,,,,
1732082943.888512,1732082943.889154,20.000000,0.000000,4351.410156,4311.794922,4324.487305,4325.256348,4291.794922,4307.307617,4235.384766,4342.051270,4331.025879,4315.128418,4465.641113,4491.538574,4374.743652,4428.846191,0.000000,0.000000,8.000000,,,,0.000000,2.000000,2.000000,0.000000,2.000000,2.000000,2.000000,0.000000,2.000000,4.000000,4.000000,4.000000,4.000000,2.000000,4.000000,16.666666,,,,,,,,,,,,,,,,,5.000000,0.000000,0.614755,0.401123,-0.600403,0.317322,0.991332,0.074228,-0.025882,-75.365013,62.478268,28.158369
1732082943.896320,1732082943.896962,21.000000,0.000000,4360.256348,4313.333496,4323.589844,4327.436035,4294.102539,4303.589844,4236.282227,4336.922852,4329.615234,4312.820313,4466.282227,4496.025879,4372.436035,4428.205078,0.000000,0.000000,8.000000,,,,0.000000,2.000000,2.000000,0.000000,2.000000,2.000000,2.000000,0.000000,2.000000,4.000000,4.000000,4.000000,4.000000,2.000000,4.000000,16.666666,,,,,,,,,,,,,,,,,,,,,,,,,,,,
1732082943.904129,1732082943.904570,22.000000,0.000000,4365.512695,4316.282227,4322.179688,4325.897461,4297.948730,4296.025879,4235.128418,4337.179688,4328.717773,4313.717773,4461.410156,4493.974121,4369.358887,4430.384766,0.000000,0.000000,8.000000,,,,0.000000,2.000000,2.000000,0.000000,2.000000,2.000000,2.000000,0.000000,2.000000,4.000000,4.000000,4.000000,4.000000,2.000000,4.000000,16.666666,,,,,,,,,,,,,,,,,,,,,,,,,,,,
1732082943.911937,1732082943.912378,23.000000,0.000000,4367.692383,4313.333496,4320.128418,4322.179688,4290.000000,4295.641113,4231.538574,4338.974121,4330.000000,4315.641113,4466.153809,4489.871582,4375.897461,4439.102539,0.000000,0.000000,8.000000,,,,0.000000,2.000000,2.000000,0.000000,2.000000,2.000000,2.000000,0.000000,2.000000,4.000000,4.000000,4.000000,4.000000,2.000000,4.000000,16.666666,,,,,,,,,,,,,,,,,,,,,,,,,,,,
1732082943.919745,1732082943.920286,24.000000,0.000000,4372.436035,4315.384766,4320.000000,4323.974121,4288.333496,4296.794922,4231.282227,4330.897461,4329.230957,4312.307617,4465.641113,4492.436035,4371.666504,4439.615234,0.000000,0.000000,8.000000,,,,0.000000,2.000000,2.000000,0.000000,2.000000,2.000000,2.000000,0.000000,2.000000,4.000000,4.000000,4.000000,4.000000,2.000000,4.000000,16.666666,,,,,,,,,,,,,,,,,6.000000,0.000000,0.612796,0.400391,-0.602051,0.318909,0.992797,0.057624,-0.031742,-75.168999,62.134064,27.969946
1732082943.927553,1732082943.928095,25.000000,0.000000,4378.589844,4319.743652,4321.410156,4328.077148,4291.282227,4294.487305,4231.153809,4324.871582,4325.000000,4307.820313,4458.974121,4495.769043,4365.897461,4439.358887,0.000000,0.000000,8.000000,,,,0.000000,2.000000,2.000000,0.000000,2.000000,2.000000,2.000000,0.000000,2.000000,4.000000,4.000000,4.000000,4.000000,2.000000,4.000000,16.666666,,,,,,,,,,,,,,,,,,,,,,,,,,,,
1732082943.935362,1732082943.935703,26.000000,0.000000,4381.410156,4316.538574,4325.000000,4326.025879,4286.794922,4293.589844,4232.692383,4324.615234,4322.563965,4307.948730,4461.922852,4497.820313,4374.871582,4448.589844,0.000000,0.000000,8.000000,,,,0.000000,2.000000,2.000000,0.000000,2.000000,2.000000,2.000000,0.000000,2.000000,4.000000,4.000000,4.000000,4.000000,2.000000,4.000000,16.666666,,,,,,,,,,,,,,,,,,,,,,,,,,,,
1732082943.943170,1732082943.943511,27.000000,0.000000,4388.589844,4320.384766,4325.384766,4325.769043,4284.102539,4295.769043,4233.205078,4325.641113,4325.384766,4311.025879,4469.743652,4496.282227,4378.717773,4456.025879,0.000000,0.000000,8.000000,,,,0.000000,2.000000,2.000000,0.000000,2.000000,2.000000,2.000000,0.000000,2.000000,4.000000,4.000000,4.000000,4.000000,2.000000,4.000000,16.666666,,,,,,,,,,,,,,,,,,,,,,,,,,,,
1732082943.950978,1732082943.951419,28.000000,0.000000,4396.666504,4326.282227,4324.358887,4328.974121,4288.333496,4295.384766,4232.820313,4331.153809,4331.410156,4314.487305,4472.051270,4497.307617,4377.179688,4457.179688,0.000000,0.000000,8.000000,,,,0.000000,2.000000,2.000000,0.000000,2.000000,2.000000,2.000000,0.000000,2.000000,4.000000,4.000000,4.000000,4.000000,2.000000,4.000000,16.666666,,,,,,,,,,,,,,,,,7.000000,0.000000,0.608942,0.399658,-0.606079,0.319580,0.927848,0.133317,-0.072274,-75.221886,62.066925,27.812323
1732082943.958786,1732082943.959228,29.000000,0.000000,4395.384766,4321.666504,4325.769043,4326.025879,4287.436035,4294.743652,4232.307617,4333.589844,4332.051270,4313.589844,4471.794922,4503.974121,4381.666504,4460.641113,0.000000,0.000000,8.000000,,,,0.000000,2.000000,2.000000,0.000000,2.000000,2.000000,2.000000,0.000000,2.000000,4.000000,4.000000,4.000000,4.000000,2.000000,4.000000,16.666666,,,,,,,,,,,,,,,,,,,,,,,,,,,,
1732082943.966595,1732082943.967236,30.000000,0.000000,4395.897461,4325.128418,4330.256348,4327.051270,4285.384766,4295.384766,4232.692383,4327.948730,4325.256348,4303.461426,4466.538574,4499.487305,4379.871582,4460.641113,0.000000,0.000000,8.000000,,,,0.000000,2.000000,2.000000,0.000000,2.000000,2.000000,2.000000,0.000000,2.000000,4.000000,4.000000,4.000000,4.000000,2.000000,4.000000,16.666666,,,,,,,,,,,,,,,,,,,,,,,,,,,,
1732082943.974403,1732082943.975044,31.000000,0.000000,4404.358887,4337.307617,4330.384766,4336.025879,4289.358887,4295.769043,4229.102539,4328.333496,4321.794922,4295.128418,4465.256348,4490.769043,4372.307617,4455.641113,0.000000,0.000000,8.000000,,,,0.000000,2.000000,2.000000,0.000000,2.000000,2.000000,2.000000,0.000000,2.000000,4.000000,4.000000,4.000000,4.000000,2.000000,4.000000,16.666666,,,,,,,,,,,,,,,,,,,,,,,,,,,,
1732082943.982211,1732082943.982952,32.000000,0.000000,4405.128418,4336.666504,4332.563965,4338.333496,4287.948730,4295.897461,4229.743652,4330.128418,4322.563965,4295.769043,4469.487305,4493.846191,4373.974121,4456.410156,0.000000,0.000000,8.000000,,,,0.000000,2.000000,2.000000,0.000000,2.000000,2.000000,2.000000,0.000000,2.000000,4.000000,4.000000,4.000000,4.000000,2.000000,4.000000,16.666666,,,,,,,,,,,,,,,,,8.000000,0.000000,0.608942,0.399658,-0.606079,0.319580,0.946405,0.130387,-0.077158,-75.279732,61.982544,27.774649
1732082943.990019,1732082943.990760,33.000000,0.000000,4401.538574,4331.025879,4333.589844,4333.846191,4280.897461,4295.641113,4233.205078,4326.794922,4320.128418,4294.230957,4468.333496,4498.589844,4376.410156,4461.922852,0.000000,0.000000,8.000000,,,,0.000000,2.000000,2.000000,0.000000,2.000000,2.000000,2.000000,0.000000,2.000000,4.000000,4.000000,4.000000,4.000000,2.000000,4.000000,16.666666,,,,,,,,,,,,,,,,,,,,,,,,,,,,
1732082943.997828,1732082943.998768,34.000000,0.000000,4404.871582,4337.692383,4331.794922,4335.256348,4277.436035,4293.717773,4233.717773,4328.461426,4320.256348,4290.384766,4470.000000,4499.615234,4372.692383,4463.333496,0.000000,0.000000,8.000000,,,,0.000000,2.000000,2.000000,0.000000,2.000000,2.000000,2.000000,0.000000,2.000000,4.000000,4.000000,4.000000,4.000000,2.000000,4.000000,16.666666,,,,,,,,,,,,,,,,,,,,,,,,,,,,
1732082944.005636,1732082944.006576,35.000000,0.000000,4405.128418,4340.256348,4329.358887,4337.051270,4277.948730,4293.077148,4232.307617,4331.282227,4325.512695,4295.512695,4475.897461,4499.743652,4375.897461,4461.922852,0.000000,0.000000,8.000000,,,,0.000000,2.000000,2.000000,0.000000,2.000000,2.000000,2.000000,0.000000,2.000000,4.000000,4.000000,4.000000,4.000000,2.000000,4.000000,16.666666,,,,,,,,,,,,,,,,,,,,,,,,,,,,
1732082944.013444,1732082944.014484,36.000000,0.000000,4397.820313,4334.102539,4332.820313,4331.410156,4282.436035,4296.025879,4235.512695,4328.461426,4322.436035,4300.000000,4472.948730,4500.000000,4377.948730,4459.743652,0.000000,0.000000,8.000000,,,,0.000000,2.000000,2.000000,0.000000,2.000000,2.000000,2.000000,0.000000,2.000000,4.000000,4.000000,4.000000,4.000000,2.000000,4.000000,16.666666,,,,,,,,,,,,,,,,,9.000000,0.000000,0.607491,0.400452,-0.607300,0.319031,0.972287,0.130387,-0.081553,-75.353249,61.890858,27.659132
1732082944.021253,1732082944.022293,37.000000,0.000000,4397.436035,4335.256348,4336.153809,4332.692383,4277.820313,4297.692383,4237.436035,4326.410156,4317.307617,4294.871582,4466.538574,4498.205078,4369.487305,4460.641113,0.000000,0.000000,8.000000,,,,0.000000,2.000000,2.000000,0.000000,2.000000,2.000000,2.000000,0.000000,2.000000,4.000000,4.000000,4.000000,4.000000,2.000000,4.000000,16.666666,,,,,,,,,,,,,,,,,,,,,,,,,,,,
1732082944.029061,1732082944.030301,38.000000,0.000000,4402.307617,4337.563965,4337.563965,4336.666504,4277.307617,4291.666504,4232.436035,4325.512695,4318.333496,4291.922852,4467.307617,4496.666504,4368.717773,4464.487305,0.000000,0.000000,8.000000,,,,0.000000,2.000000,2.000000,0.000000,2.000000,2.000000,2.000000,0.000000,2.000000,4.000000,4.000000,4.000000,4.000000,2.000000,4.000000,16.666666,,,,,,,,,,,,,,,,,,,,,,,,,,,,
1732082944.036869,1732082944.038109,39.000000,0.000000,4402.051270,4337.692383,4341.153809,4334.743652,4291.666504,4286.666504,4229.358887,4326.025879,4318.077148,4295.512695,4469.102539,4496.538574,4374.871582,4467.436035,0.000000,0.000000,8.000000,,,,0.000000,2.000000,2.000000,0.000000,2.000000,2.000000,2.000000,0.000000,2.000000,4.000000,4.000000,4.000000,4.000000,2.000000,4.000000,16.666666,,,,,,,,,,,,,,,,,,,,,,,,,,,,
1732082944.044677,1732082944.046017,40.000000,0.000000,4399.615234,4339.743652,4342.179688,4335.000000,4292.307617,4292.051270,4233.205078,4329.102539,4315.128418,4297.436035,4466.538574,4498.717773,4372.051270,4466.153809,0.000000,0.000000,8.000000,,,,0.000000,2.000000,2.000000,0.000000,2.000000,2.000000,2.000000,0.000000,2.000000,4.000000,4.000000,4.000000,4.000000,2.000000,4.000000,16.666666,,,,,,,,,,,,,,,,,10.000000,0.000000,0.605752,0.400330,-0.608826,0.319580,0.974240,0.131364,-0.077158,-75.579460,61.666595,27.438896
1732082944.052486,1732082944.053825,41.000000,0.000000,4401.025879,4333.974121,4341.282227,4335.384766,4275.256348,4298.717773,4236.410156,4328.333496,4312.436035,4301.153809,4465.000000,4506.153809,4370.512695,4464.743652,0.000000,0.000000,8.000000,,,,0.000000,2.000000,2.000000,0.000000,2.000000,2.000000,2.000000,0.000000,2.000000,4.000000,4.000000,4.000000,4.000000,2.000000,4.000000,16.666666,,,,,,,,,,,,,,,,,,,,,,,,,,,,
1732082944.060294,1732082944.061833,42.000000,0.000000,4405.000000,4329.102539,4341.153809,4335.641113,4272.179688,4293.077148,4233.205078,4326.025879,4314.358887,4305.641113,4470.256348,4507.692383,4377.307617,4469.230957,0.000000,0.000000,8.000000,,,,0.000000,2.000000,2.000000,0.000000,2.000000,2.000000,2.000000,0.000000,2.000000,4.000000,4.000000,4.000000,4.000000,2.000000,4.000000,16.666666,,,,,,,,,,,,,,,,,,,,,,,,,,,,
1732082944.068102,1732082944.069641,43.000000,0.000000,4407.820313,4335.384766,4345.641113,4340.897461,4279.743652,4284.615234,4232.563965,4328.077148,4319.743652,4304.358887,4475.000000,4506.410156,4376.666504,4474.871582,0.000000,0.000000,8.000000,,,,0.000000,2.000000,2.000000,0.000000,2.000000,2.000000,2.000000,0.000000,2.000000,4.000000,4.000000,4.000000,4.000000,2.000000,4.000000,16.666666,,,,,,,,,,,,,,,,,,,,,,,,,,,,
1732082944.075910,1732082944.077550,44.000000,0.000000,4410.128418,4336.025879,4345.000000,4341.922852,4277.307617,4284.743652,4233.205078,4325.384766,4319.615234,4302.436035,4474.487305,4508.717773,4377.948730,4478.589844,0.000000,0.000000,8.000000,,,,0.000000,2.000000,2.000000,0.000000,2.000000,2.000000,2.000000,0.000000,2.000000,4.000000,4.000000,4.000000,4.000000,2.000000,4.000000,16.666666,,,,,,,,,,,,,,,,,11.000000,0.000000,0.604828,0.398438,-0.610535,0.320435,0.968868,0.071298,-0.062508,-75.846031,61.568275,27.193840
1732082944.083719,1732082944.085358,45.000000,0.000000,4405.897461,4326.410156,4340.256348,4332.051270,4274.230957,4289.230957,4234.358887,4322.820313,4316.153809,4305.000000,4473.333496,4509.871582,4385.384766,4479.230957,0.000000,0.000000,8.000000,,,,0.000000,2.000000,2.000000,0.000000,2.000000,2.000000,2.000000,0.000000,2.000000,4.000000,4.000000,4.000000,4.000000,2.000000,4.000000,16.666666,,,,,,,,,,,,,,,,,,,,,,,,,,,,
1732082944.091527,1732082944.092966,46.000000,0.000000,4399.615234,4327.563965,4339.230957,4332.820313,4275.128418,4290.384766,4232.820313,4333.461426,4321.025879,4306.025879,4475.512695,4507.820313,4383.333496,4475.897461,0.000000,0.000000,8.000000,,,,0.000000,2.000000,2.000000,0.000000,2.000000,2.000000,2.000000,0.000000,2.000000,4.000000,4.000000,4.000000,4.000000,2.000000,4.000000,16.666666,,,,,,,,,,,,,,,,,,,,,,,,,,,,
1732082944.099335,1732082944.100774,47.000000,0.000000,4399.615234,4335.128418,4343.846191,4342.051270,4278.461426,4289.102539,4233.077148,4334.615234,4322.307617,4302.692383,4471.922852,4507.307617,4376.538574,4475.000000,0.000000,0.000000,8.000000,,,,0.000000,2.000000,2.000000,0.000000,2.000000,2.000000,2.000000,0.000000,2.000000,4.000000,4.000000,4.000000,4.000000,2.000000,4.000000,16.666666,,,,,,,,,,,,,,,,,,,,,,,,,,,,
1732082944.107144,1732082944.108483,48.000000,0.000000,4398.589844,4334.615234,4341.922852,4341.025879,4285.384766,4291.794922,4232.051270,4320.000000,4315.512695,4300.769043,4468.974121,4507.307617,4378.333496,4475.256348,0.000000,0.000000,8.000000,,,,0.000000,2.000000,2.000000,0.000000,2.000000,2.000000,2.000000,0.000000,2.000000,4.000000,4.000000,4.000000,4.000000,2.000000,4.000000,16.666666,,,,,,,,,,,,,,,,,12.000000,0.000000,0.604546,0.397339,-0.611145,0.321167,0.968868,0.071298,-0.062508,-76.128616,61.491970,26.903677
1732082944.114952,1732082944.116291,49.000000,0.000000,4390.512695,4331.922852,4337.051270,4337.307617,4286.025879,4295.769043,4232.948730,4319.358887,4317.051270,4303.461426,4473.717773,4509.102539,4384.102539,4472.692383,0.000000,0.000000,8.000000,,,,0.000000,2.000000,2.000000,0.000000,2.000000,2.000000,2.000000,0.000000,2.000000,4.000000,4.000000,4.000000,4.000000,2.000000,4.000000,16.666666,,,,,,,,,,,,,,,,,,,,,,,,,,,,
1732082944.122760,1732082944.123899,50.000000,0.000000,4386.410156,4334.487305,4333.077148,4338.461426,4285.384766,4296.282227,4231.025879,4328.846191,4324.230957,4306.922852,4474.743652,4513.717773,4386.025879,4469.743652,0.000000,0.000000,8.000000,,,,0.000000,2.000000,2.000000,0.000000,2.000000,2.000000,2.000000,0.000000,2.000000,4.000000,4.000000,4.000000,4.000000,2.000000,4.000000,16.666666,,,,,,,,,,,,,,,,,,,,,,,,,,,,
1732082944.130568,1732082944.131707,51.000000,0.000000,4389.358887,4336.922852,4332.307617,4340.897461,4288.589844,4294.743652,4229.487305,4328.461426,4323.333496,4305.128418,4472.563965,4509.487305,4382.563965,4467.051270,0.000000,0.000000,8.000000,,,,0.000000,2.000000,2.000000,0.000000,2.000000,2.000000,2.000000,0.000000,2.000000,4.000000,4.000000,4.000000,4.000000,2.000000,4.000000,16.666666,,,,,,,,,,,,,,,,,,,,,,,,,,,,
1732082944.138377,1732082944.139416,52.000000,0.000000,4386.410156,4335.256348,4332.051270,4338.589844,4289.871582,4293.846191,4230.769043,4330.384766,4323.589844,4305.256348,4473.846191,4504.358887,4379.743652,4461.153809,0.000000,0.000000,8.000000,,,,0.000000,2.000000,2.000000,0.000000,2.000000,2.000000,2.000000,0.000000,2.000000,4.000000,4.000000,4.000000,4.000000,2.000000,4.000000,16.666666,,,,,,,,,,,,,,,,,13.000000,0.000000,0.604387,0.395813,-0.611938,0.321838,0.968868,0.080088,-0.066903,-76.097511,61.253494,26.741978
1732082944.146185,1732082944.147224,53.000000,0.000000,4382.436035,4332.307617,4334.358887,4337.179688,4288.846191,4296.282227,4230.641113,4336.282227,4328.461426,4307.436035,4475.000000,4507.051270,4379.615234,4458.974121,0.000000,0.000000,8.000000,,,,0.000000,2.000000,2.000000,0.000000,2.000000,2.000000,2.000000,0.000000,2.000000,4.000000,4.000000,4.000000,4.000000,2.000000,4.000000,16.666666,,,,,,,,,,,,,,,,,,,,,,,,,,,,
1732082944.153993,1732082944.154832,54.000000,0.000000,4384.871582,4331.794922,4335.128418,4338.461426,4300.769043,4298.589844,4228.589844,4330.641113,4325.256348,4305.256348,4471.922852,4507.563965,4379.230957,4461.922852,0.000000,0.000000,8.000000,,,,0.000000,2.000000,2.000000,0.000000,2.000000,2.000000,2.000000,0.000000,2.000000,4.000000,4.000000,4.000000,4.000000,2.000000,4.000000,16.666666,,,,,,,,,,,,,,,,,,,,,,,,,,,,
1732082944.161801,1732082944.162641,55.000000,0.000000,4384.615234,4332.436035,4332.948730,4337.051270,4307.563965,4298.333496,4229.102539,4325.641113,4321.922852,4307.436035,4471.794922,4505.512695,4381.922852,4462.307617,0.000000,0.000000,8.000000,,,,0.000000,2.000000,2.000000,0.000000,2.000000,2.000000,2.000000,0.000000,2.000000,4.000000,4.000000,4.000000,4.000000,2.000000,4.000000,16.666666,,,,,,,,,,,,,,,,,,,,,,,,,,,,
1732082944.169609,1732082944.170349,56.000000,0.000000,4378.974121,4333.077148,4332.692383,4336.666504,4291.922852,4293.974121,4229.743652,4329.871582,4324.102539,4310.641113,4475.512695,4503.077148,4384.358887,4460.769043,0.000000,0.000000,8.000000,,,,0.000000,2.000000,2.000000,0.000000,2.000000,2.000000,2.000000,0.000000,2.000000,4.000000,4.000000,4.000000,4.000000,2.000000,4.000000,16.666666,,,,,,,,,,,,,,,,,14.000000,0.000000,0.601985,0.392212,-0.614746,0.325378,0.963008,0.120620,-0.075693,-76.255653,61.135330,26.549335
1732082944.177418,1732082944.178157,57.000000,0.000000,4376.794922,4332.820313,4332.436035,4336.153809,4282.307617,4295.769043,4228.589844,4334.487305,4326.410156,4308.846191,4471.153809,4495.769043,4380.897461,4459.358887,0.000000,0.000000,8.000000,,,,0.000000,2.000000,2.000000,0.000000,2.000000,2.000000,2.000000,0.000000,2.000000,4.000000,4.000000,4.000000,4.000000,2.000000,4.000000,16.666666,,,,,,,,,,,,,,,,,,,,,,,,,,,,
1732082944.185226,1732082944.185766,58.000000,0.000000,4378.717773,4331.922852,4334.743652,4334.230957,4291.666504,4302.179688,4230.512695,4333.717773,4327.179688,4310.128418,4462.948730,4490.000000,4377.948730,4455.384766,0.000000,0.000000,8.000000,,,,0.000000,2.000000,2.000000,0.000000,2.000000,2.000000,2.000000,0.000000,2.000000,4.000000,4.000000,4.000000,4.000000,2.000000,4.000000,16.666666,,,,,,,,,,,,,,,,,,,,,,,,,,,,
1732082944.193034,1732082944.193574,59.000000,0.000000,4378.205078,4333.589844,4336.666504,4333.974121,4291.794922,4301.538574,4229.871582,4328.077148,4326.025879,4315.769043,4465.384766,4492.436035,4378.333496,4455.128418,0.000000,0.000000,8.000000,,,,0.000000,2.000000,2.000000,0.000000,2.000000,2.000000,2.000000,0.000000,2.000000,4.000000,4.000000,4.000000,4.000000,2.000000,4.000000,16.666666,,,,,,,,,,,,,,,,,,,,,,,,,,,,
1732082944.200843,1732082944.201282,60.000000,0.000000,4378.077148,4333.589844,4337.179688,4335.128418,4284.487305,4296.153809,4228.846191,4324.102539,4323.333496,4316.410156,4473.974121,4493.461426,4381.153809,4458.333496,0.000000,0.000000,8.000000,,,,0.000000,2.000000,2.000000,0.000000,2.000000,2.000000,2.000000,0.000000,2.000000,4.000000,4.000000,4.000000,4.000000,2.000000,4.000000,16.666666,,,,,,,,,,,,,,,,,15.000000,0.000000,0.601254,0.392151,-0.615112,0.326111,0.963008,0.120620,-0.075693,-76.295410,60.919621,26.401628
1732082944.208651,1732082944.209090,61.000000,0.000000,4379.102539,4333.974121,4332.179688,4336.153809,4288.461426,4296.410156,4230.769043,4325.641113,4325.512695,4318.589844,4476.153809,4493.077148,4385.256348,4459.871582,0.000000,0.000000,8.000000,,,,0.000000,2.000000,2.000000,0.000000,2.000000,2.000000,2.000000,0.000000,2.000000,4.000000,4.000000,4.000000,4.000000,2.000000,4.000000,16.666666,,,,,,,,,,,,,,,,,,,,,,,,,,,,
1732082944.216459,1732082944.216699,62.000000,0.000000,4375.384766,4336.794922,4330.384766,4336.282227,4286.538574,4298.205078,4232.820313,4329.102539,4328.205078,4321.922852,4474.615234,4501.282227,4386.410156,4458.846191,0.000000,0.000000,8.000000,,,,0.000000,2.000000,2.000000,0.000000,2.000000,2.000000,2.000000,0.000000,2.000000,4.000000,4.000000,4.000000,4.000000,2.000000,4.000000,16.666666,,,,,,,,,,,,,,,,,,,,,,,,,,,,
1732082944.224267,1732082944.224507,63.000000,0.000000,4372.051270,4336.025879,4331.794922,4332.307617,4291.922852,4295.641113,4230.512695,4332.948730,4328.846191,4319.743652,4475.512695,4509.487305,4384.487305,4460.769043,0.000000,0.000000,8.000000,,,,0.000000,2.000000,2.000000,0.000000,2.000000,2.000000,2.000000,0.000000,2.000000,4.000000,4.000000,4.000000,4.000000,2.000000,4.000000,16.666666,,,,,,,,,,,,,,,,,,,,,,,,,,,,
1732082944.232076,1732082944.232415,64.000000,0.000000,4370.512695,4333.333496,4331.538574,4327.051270,4301.538574,4296.538574,4233.717773,4337.692383,4331.410156,4317.692383,4474.358887,4507.820313,4383.717773,4463.205078,0.000000,0.000000,8.000000,,,,0.000000,2.000000,2.000000,0.000000,2.000000,2.000000,2.000000,0.000000,2.000000,4.000000,4.000000,4.000000,4.000000,2.000000,4.000000,16.666666,,,,,,,,,,,,,,,,,16.000000,0.000000,0.599696,0.392944,-0.614990,0.328247,0.939079,0.092296,-0.085460,-76.745949,60.713226,26.325319
1732082944.239884,1732082944.240223,65.000000,0.000000,4369.230957,4336.025879,4329.871582,4332.563965,4285.384766,4299.358887,4233.846191,4333.333496,4329.230957,4314.102539,4473.461426,4505.000000,4384.743652,4460.641113,1309.000000,0.000000,8.000000,,,,0.000000,2.000000,2.000000,0.000000,2.000000,2.000000,2.000000,0.000000,2.000000,4.000000,4.000000,4.000000,4.000000,2.000000,4.000000,16.666666,,,,,,,,,,,,,,,,,,,,,,,,,,,,
1732082944.247692,1732082944.247832,66.000000,0.000000,4368.461426,4338.846191,4332.563965,4337.051270,4275.128418,4296.538574,4230.512695,4325.897461,4320.769043,4308.333496,4476.410156,4507.563965,4386.538574,4460.897461,1224.000000,0.000000,8.000000,,,,0.000000,2.000000,2.000000,0.000000,2.000000,2.000000,2.000000,0.000000,2.000000,4.000000,4.000000,4.000000,4.000000,2.000000,4.000000,16.666666,,,,,,,,,,,,,,,,,,,,,,,,,,,,
1732082944.255500,1732082944.255640,67.000000,0.000000,4367.307617,4336.282227,4332.692383,4334.487305,4288.461426,4295.000000,4232.820313,4329.871582,4323.717773,4311.922852,4478.461426,4505.128418,4385.641113,4461.153809,1184.000000,0.000000,8.000000,,,,0.000000,2.000000,2.000000,0.000000,2.000000,2.000000,2.000000,0.000000,2.000000,4.000000,4.000000,4.000000,4.000000,2.000000,4.000000,16.666666,,,,,,,,,,,,,,,,,,,,,,,,,,,,
1732082944.263309,1732082944.263348,68.000000,0.000000,4363.077148,4337.179688,4331.794922,4334.230957,4296.410156,4296.666504,4238.205078,4336.410156,4333.333496,4318.974121,4478.205078,4495.128418,4381.410156,4455.256348,1200.000000,0.000000,8.000000,,,,0.000000,2.000000,2.000000,0.000000,2.000000,2.000000,2.000000,0.000000,2.000000,4.000000,4.000000,4.000000,4.000000,2.000000,4.000000,16.666666,,,,,,,,,,,,,,,,,17.000000,0.000000,0.597481,0.394409,-0.613647,0.333008,0.977170,0.047857,-0.068368,-76.930885,60.612713,26.225176
1732082944.271117,1732082944.271156,69.000000,0.000000,4360.769043,4342.436035,4335.769043,4335.769043,4298.589844,4298.974121,4236.410156,4335.897461,4331.282227,4317.179688,4480.256348,4490.384766,4383.205078,4452.820313,1080.000000,0.000000,8.000000,,,,0.000000,2.000000,2.000000,0.000000,2.000000,2.000000,2.000000,0.000000,2.000000,4.000000,4.000000,4.000000,4.000000,2.000000,4.000000,16.666666,,,,,,,,,,,,,,,,,,,,,,,,,,,,
1732082944.278925,1732082944.278765,70.000000,0.000000,4363.846191,4342.051270,4339.487305,4335.512695,4298.974121,4299.102539,4235.897461,4334.487305,4324.743652,4314.358887,4487.436035,4497.948730,4388.077148,4458.461426,58.000000,0.000000,8.000000,,,,0.000000,2.000000,2.000000,0.000000,2.000000,2.000000,2.000000,0.000000,2.000000,4.000000,4.000000,4.000000,4.000000,2.000000,4.000000,16.666666,,,,,,,,,,,,,,,,,,,,,,,,,,,,
1732082944.286734,1732082944.286573,71.000000,0.000000,4366.666504,4338.333496,4340.000000,4334.358887,4284.230957,4298.461426,4239.615234,4335.641113,4326.794922,4320.256348,4491.666504,4503.717773,4387.820313,4462.307617,1190.000000,0.000000,8.000000,,,,0.000000,2.000000,2.000000,0.000000,2.000000,2.000000,2.000000,0.000000,2.000000,4.000000,4.000000,4.000000,4.000000,2.000000,4.000000,16.666666,,,,,,,,,,,,,,,,,,,,,,,,,,,,
1732082944.294542,1732082944.294281,72.000000,0.000000,4366.666504,4337.692383,4339.230957,4333.589844,4285.128418,4300.000000,4240.128418,4333.589844,4329.871582,4323.846191,4485.128418,4496.410156,4386.025879,4456.153809,1361.000000,0.000000,8.000000,,,,0.000000,2.000000,2.000000,0.000000,2.000000,2.000000,2.000000,0.000000,2.000000,4.000000,4.000000,4.000000,4.000000,2.000000,4.000000,16.666666,,,,,,,,,,,,,,,,,18.000000,0.000000,0.596117,0.393799,-0.613770,0.335938,0.999634,0.029789,-0.058113,-77.125687,60.307964,26.159058
1732082944.302350,1732082944.302090,73.000000,0.000000,4363.461426,4338.589844,4339.102539,4332.051270,4299.615234,4304.743652,4238.846191,4333.205078,4326.794922,4320.000000,4476.922852,4489.871582,4383.205078,4446.153809,1497.000000,0.000000,8.000000,,,,0.000000,2.000000,2.000000,0.000000,2.000000,2.000000,2.000000,0.000000,2.000000,4.000000,4.000000,4.000000,4.000000,2.000000,4.000000,16.666666,,,,,,,,,,,,,,,,,,,,,,,,,,,,
1732082944.310158,1732082944.310098,74.000000,0.000000,4356.282227,4336.538574,4336.410156,4330.512695,4294.871582,4304.102539,4237.820313,4336.666504,4323.974121,4317.307617,4477.179688,4494.230957,4380.128418,4443.846191,1369.000000,0.000000,8.000000,,,,0.000000,2.000000,2.000000,0.000000,2.000000,2.000000,2.000000,0.000000,2.000000,4.000000,4.000000,4.000000,4.000000,2.000000,4.000000,16.666666,,,,,,,,,,,,,,,,,,,,,,,,,,,,
1732082944.317967,1732082944.317906,75.000000,0.000000,4350.384766,4331.922852,4336.666504,4328.333496,4298.077148,4298.333496,4238.205078,4332.179688,4324.871582,4316.410156,4477.051270,4493.717773,4380.128418,4444.615234,1496.000000,0.000000,8.000000,,,,0.000000,2.000000,2.000000,0.000000,2.000000,2.000000,2.000000,0.000000,2.000000,4.000000,4.000000,4.000000,4.000000,2.000000,4.000000,16.666666,,,,,,,,,,,,,,,,,,,,,,,,,,,,
1732082944.325775,1732082944.325814,76.000000,0.000000,4352.051270,4330.384766,4336.538574,4328.205078,4311.282227,4298.846191,4237.051270,4325.512695,4326.666504,4318.589844,4474.358887,4486.410156,4379.615234,4441.794922,1730.000000,0.000000,8.000000,,,,0.000000,2.000000,2.000000,0.000000,2.000000,2.000000,2.000000,0.000000,2.000000,4.000000,4.000000,4.000000,4.000000,2.000000,4.000000,16.666666,,,,,,,,,,,,,,,,,19.000000,0.000000,0.595545,0.392944,-0.614136,0.337280,0.995727,0.013674,-0.060066,-77.006805,59.901115,26.287170
1732082944.333583,1732082944.333622,77.000000,0.000000,4355.769043,4329.871582,4336.922852,4329.871582,4300.256348,4305.512695,4238.589844,4328.846191,4329.487305,4321.153809,4476.666504,4494.230957,4378.205078,4443.846191,1648.000000,0.000000,8.000000,,,,0.000000,2.000000,2.000000,0.000000,2.000000,2.000000,2.000000,0.000000,2.000000,4.000000,4.000000,4.000000,4.000000,2.000000,4.000000,16.666666,,,,,,,,,,,,,,,,,,,,,,,,,,,,
1732082944.341391,1732082944.341630,78.000000,0.000000,4352.692383,4329.358887,4334.871582,4328.846191,4289.487305,4304.487305,4240.256348,4336.794922,4333.461426,4322.436035,4476.282227,4503.205078,4377.563965,4447.820313,1369.000000,0.000000,8.000000,,,,0.000000,2.000000,2.000000,0.000000,2.000000,2.000000,2.000000,0.000000,2.000000,4.000000,4.000000,4.000000,4.000000,2.000000,4.000000,16.666666,1.000000,16.666666,2.000000,2.000000,0.000000,2.000000,2.000000,2.000000,0.000000,2.000000,4.000000,4.000000,4.000000,4.000000,2.000000,4.000000,,,,,,,,,,,,
1732082944.349200,1732082944.349438,79.000000,0.000000,4350.769043,4333.205078,4333.461426,4326.794922,4297.051270,4298.974121,4242.692383,4338.077148,4334.102539,4323.461426,4473.846191,4495.897461,4377.179688,4443.846191,1496.000000,0.000000,8.000000,,,,0.000000,2.000000,2.000000,0.000000,2.000000,2.000000,2.000000,0.000000,2.000000,4.000000,4.000000,4.000000,4.000000,2.000000,4.000000,16.666666,,,,,,,,,,,,,,,,,,,,,,,,,,,,
1732082944.357008,1732082944.357147,80.000000,0.000000,4355.128418,4338.205078,4333.974121,4328.717773,4300.512695,4299.871582,4241.922852,4332.820313,4330.769043,4324.615234,4480.000000,4489.743652,4379.743652,4444.230957,1730.000000,0.000000,8.000000,,,,0.000000,2.000000,2.000000,0.000000,2.000000,2.000000,2.000000,0.000000,2.000000,4.000000,4.000000,4.000000,4.000000,2.000000,4.000000,16.666666,,,,,,,,,,,,,,,,,20.000000,0.000000,0.593988,0.391052,-0.615234,0.340210,0.985472,0.007813,-0.061043,-77.163849,59.563236,26.065941
1732082944.364816,1732082944.364955,81.000000,0.000000,4354.230957,4336.153809,4335.256348,4330.384766,4299.230957,4300.384766,4243.333496,4330.641113,4327.436035,4324.102539,4483.205078,4491.153809,4381.410156,4448.333496,1648.000000,0.000000,8.000000,,,,0.000000,2.000000,2.000000,0.000000,2.000000,2.000000,2.000000,0.000000,2.000000,4.000000,4.000000,4.000000,4.000000,2.000000,4.000000,16.666666,,,,,,,,,,,,,,,,,,,,,,,,,,,,
1732082944.372625,1732082944.372963,82.000000,0.000000,4350.769043,4330.512695,4334.871582,4328.589844,4302.179688,4298.974121,4242.948730,4335.000000,4330.256348,4324.358887,4480.256348,4490.000000,4377.436035,4448.461426,1369.000000,0.000000,8.000000,,,,0.000000,2.000000,2.000000,0.000000,2.000000,2.000000,2.000000,0.000000,2.000000,4.000000,4.000000,4.000000,4.000000,2.000000,4.000000,16.666666,,,,,,,,,,,,,,,,,,,,,,,,,,,,
1732082944.380433,1732082944.380771,83.000000,0.000000,4351.666504,4330.769043,4337.563965,4327.692383,4301.410156,4301.025879,4238.974121,4335.384766,4332.820313,4327.051270,4484.102539,4489.358887,4379.487305,4449.230957,1496.000000,0.000000,8.000000,,,,0.000000,2.000000,2.000000,0.000000,2.000000,2.000000,2.000000,0.000000,2.000000,4.000000,4.000000,4.000000,4.000000,2.000000,4.000000,16.666666,,,,,,,,,,,,,,,,,,,,,,,,,,,,
1732082944.388241,1732082944.388679,84.000000,0.000000,4350.897461,4331.794922,4338.461426,4328.077148,4298.461426,4300.384766,4237.436035,4325.384766,4330.000000,4327.436035,4484.230957,4492.179688,4384.743652,4448.333496,1730.000000,0.000000,8.000000,,,,0.000000,2.000000,2.000000,0.000000,2.000000,2.000000,2.000000,0.000000,2.000000,4.000000,4.000000,4.000000,4.000000,2.000000,4.000000,16.666666,,,,,,,,,,,,,,,,,21.000000,0.000000,0.591038,0.385925,-0.618652,0.344971,0.976193,0.010255,-0.068856,-77.222717,59.282890,25.910080
1732082944.396049,1732082944.396487,85.000000,0.000000,4348.333496,4328.717773,4335.897461,4328.717773,4296.922852,4296.282227,4241.282227,4323.461426,4329.102539,4325.256348,4471.538574,4492.051270,4377.563965,4443.846191,1648.000000,0.000000,8.000000,,,,0.000000,2.000000,2.000000,0.000000,2.000000,2.000000,2.000000,0.000000,2.000000,4.000000,4.000000,4.000000,4.000000,2.000000,4.000000,16.666666,,,,,,,,,,,,,,,,,,,,,,,,,,,,
1732082944.403857,1732082944.404495,86.000000,0.000000,4348.589844,4327.436035,4336.282227,4328.461426,4307.179688,4296.666504,4242.563965,4330.256348,4328.974121,4320.769043,4470.384766,4488.717773,4373.205078,4444.102539,1369.000000,0.000000,8.000000,,,,0.000000,2.000000,2.000000,0.000000,2.000000,2.000000,2.000000,0.000000,2.000000,4.000000,4.000000,4.000000,4.000000,2.000000,4.000000,16.666666,,,,,,,,,,,,,,,,,,,,,,,,,,,,
1732082944.411666,1732082944.412303,87.000000,0.000000,4345.128418,4329.102539,4336.153809,4322.307617,4318.846191,4303.077148,4241.538574,4333.846191,4334.230957,4319.743652,4482.948730,4481.153809,4381.410156,4445.769043,1496.000000,0.000000,8.000000,,,,0.000000,2.000000,2.000000,0.000000,2.000000,2.000000,2.000000,0.000000,2.000000,4.000000,4.000000,4.000000,4.000000,2.000000,4.000000,16.666666,,,,,,,,,,,,,,,,,,,,,,,,,,,,
1732082944.419474,1732082944.420212,88.000000,0.000000,4339.487305,4326.153809,4332.307617,4319.358887,4308.717773,4308.205078,4244.358887,4340.641113,4339.358887,4323.717773,4483.333496,4479.615234,4380.256348,4443.077148,1730.000000,0.000000,8.000000,,,,0.000000,2.000000,2.000000,0.000000,2.000000,2.000000,2.000000,0.000000,2.000000,4.000000,4.000000,4.000000,4.000000,2.000000,4.000000,16.666666,,,,,,,,,,,,,,,,,22.000000,0.000000,0.590443,0.384644,-0.619507,0.345886,0.983030,-0.004395,-0.069344,-77.332069,59.065807,25.978830
1732082944.427282,1732082944.428020,89.000000,0.000000,4341.922852,4323.589844,4330.128418,4324.743652,4292.307617,4312.051270,4246.153809,4341.282227,4334.102539,4323.974121,4477.563965,4487.692383,4370.256348,4442.179688,1648.000000,0.000000,8.000000,,,,0.000000,2.000000,2.000000,0.000000,2.000000,2.000000,2.000000,0.000000,2.000000,4.000000,4.000000,4.000000,4.000000,2.000000,4.000000,16.666666,,,,,,,,,,,,,,,,,,,,,,,,,,,,
1732082944.435090,1732082944.436028,90.000000,0.000000,4345.256348,4327.563965,4336.025879,4323.461426,4302.692383,4312.692383,4245.769043,4331.282227,4328.205078,4320.897461,4478.846191,4492.307617,4367.948730,4444.871582,1369.000000,0.000000,8.000000,,,,0.000000,2.000000,2.000000,0.000000,2.000000,2.000000,2.000000,0.000000,2.000000,4.000000,4.000000,4.000000,4.000000,2.000000,4.000000,16.666666,,,,,,,,,,,,,,,,,,,,,,,,,,,,
1732082944.442899,1732082944.443836,91.000000,0.000000,4343.461426,4329.487305,4337.563965,4317.051270,4325.512695,4304.230957,4240.641113,4324.615234,4328.717773,4316.922852,4479.358887,4489.615234,4369.487305,4444.102539,1496.000000,0.000000,8.000000,,,,0.000000,2.000000,2.000000,0.000000,2.000000,2.000000,2.000000,0.000000,2.000000,4.000000,4.000000,4.000000,4.000000,2.000000,4.000000,16.666666,,,,,,,,,,,,,,,,,,,,,,,,,,,,
1732082944.450707,1732082944.451744,92.000000,0.000000,4340.384766,4324.487305,4337.307617,4318.461426,4316.282227,4299.487305,4239.743652,4326.153809,4327.307617,4315.769043,4476.153809,4488.461426,4366.922852,4440.769043,1730.000000,0.000000,8.000000,,,,0.000000,2.000000,2.000000,0.000000,2.000000,2.000000,2.000000,0.000000,2.000000,4.000000,4.000000,4.000000,4.000000,2.000000,4.000000,16.666666,,,,,,,,,,,,,,,,,23.000000,0.000000,0.589526,0.382385,-0.621094,0.347107,0.990844,-0.010255,-0.070321,-77.395638,59.021637,25.792852
1732082944.458515,1732082944.459552,93.000000,0.000000,4337.051270,4322.563965,4335.256348,4321.794922,4293.974121,4304.358887,4242.820313,4330.769043,4327.563965,4320.000000,4478.589844,4489.358887,4365.000000,4439.230957,1648.000000,0.000000,8.000000,,,,0.000000,2.000000,2.000000,0.000000,2.000000,2.000000,2.000000,0.000000,2.000000,4.000000,4.000000,4.000000,4.000000,2.000000,4.000000,16.666666,,,,,,,,,,,,,,,,,,,,,,,,,,,,
1732082944.466324,1732082944.467560,94.000000,0.000000,4336.282227,4323.717773,4334.871582,4319.871582,4298.333496,4304.487305,4244.615234,4337.307617,4335.000000,4322.179688,4480.641113,4490.384766,4366.282227,4440.641113,1369.000000,0.000000,8.000000,,,,0.000000,2.000000,2.000000,0.000000,2.000000,2.000000,2.000000,0.000000,2.000000,4.000000,4.000000,4.000000,4.000000,2.000000,4.000000,16.666666,,,,,,,,,,,,,,,,,,,,,,,,,,,,
1732082944.474132,1732082944.475369,95.000000,0.000000,4338.974121,4324.230957,4334.102539,4320.512695,4309.615234,4300.384766,4243.846191,4335.512695,4331.922852,4318.846191,4475.641113,4489.230957,4368.205078,4442.179688,1496.000000,0.000000,8.000000,,,,0.000000,2.000000,2.000000,0.000000,2.000000,2.000000,2.000000,0.000000,2.000000,4.000000,4.000000,4.000000,4.000000,2.000000,4.000000,16.666666,,,,,,,,,,,,,,,,,,,,,,,,,,,,
1732082944.481940,1732082944.483277,96.000000,0.000000,4335.128418,4321.153809,4334.358887,4319.871582,4306.794922,4301.794922,4247.179688,4331.282227,4321.922852,4314.487305,4473.333496,4485.769043,4363.717773,4439.743652,1730.000000,0.000000,8.000000,,,,0.000000,2.000000,2.000000,0.000000,2.000000,2.000000,2.000000,0.000000,2.000000,4.000000,4.000000,4.000000,4.000000,2.000000,4.000000,16.666666,,,,,,,,,,,,,,,,,24.000000,0.000000,0.588072,0.378845,-0.623474,0.349182,0.972287,0.008790,-0.074716,-77.637138,58.409191,25.760544
1732082944.489748,1732082944.491085,97.000000,0.000000,4331.538574,4316.666504,4335.256348,4315.128418,4307.436035,4307.820313,4249.358887,4345.512695,4326.538574,4313.077148,4474.615234,4485.512695,4359.615234,4436.922852,1648.000000,0.000000,8.000000,,,,0.000000,2.000000,2.000000,0.000000,2.000000,2.000000,2.000000,0.000000,2.000000,4.000000,4.000000,4.000000,4.000000,2.000000,4.000000,16.666666,,,,,,,,,,,,,,,,,,,,,,,,,,,,
1732082944.497557,1732082944.499093,98.000000,0.000000,4334.615234,4317.179688,4335.256348,4315.256348,4309.358887,4311.538574,4248.205078,4346.922852,4332.436035,4314.358887,4475.000000,4486.025879,4364.358887,4435.897461,1369.000000,0.000000,8.000000,,,,0.000000,2.000000,2.000000,0.000000,2.000000,2.000000,2.000000,0.000000,2.000000,4.000000,4.000000,4.000000,4.000000,2.000000,4.000000,16.666666,,,,,,,,,,,,,,,,,,,,,,,,,,,,
1732082944.505365,1732082944.506901,99.000000,0.000000,4333.205078,4321.666504,4333.461426,4317.563965,4311.410156,4309.230957,4243.333496,4324.358887,4329.615234,4320.641113,4476.025879,4488.205078,4368.205078,4439.871582,1496.000000,0.000000,8.000000,,,,0.000000,2.000000,2.000000,0.000000,2.000000,2.000000,2.000000,0.000000,2.000000,4.000000,4.000000,4.000000,4.000000,2.000000,4.000000,16.666666,,,,,,,,,,,,,,,,,,,,,,,,,,,,
1732082944.513173,1732082944.514609,100.000000,0.000000,4330.256348,4324.102539,4332.436035,4319.487305,4324.102539,4301.794922,4242.436035,4319.102539,4326.410156,4323.717773,4476.282227,4490.000000,4367.051270,4441.666504,1730.000000,0.000000,8.000000,,,,0.000000,2.000000,2.000000,0.000000,2.000000,2.000000,2.000000,0.000000,2.000000,4.000000,4.000000,4.000000,4.000000,2.000000,4.000000,16.666666,,,,,,,,,,,,,,,,,25.000000,0.000000,0.587005,0.377441,-0.624268,0.351074,0.952265,0.006837,-0.068368,-77.816078,57.809780,25.551041
1732082944.520981,1732082944.522418,101.000000,0.000000,4335.256348,4322.692383,4335.256348,4320.897461,4314.230957,4302.692383,4246.538574,4333.205078,4325.897461,4316.666504,4478.846191,4492.692383,4365.897461,4441.538574,1648.000000,0.000000,8.000000,,,,0.000000,2.000000,2.000000,0.000000,2.000000,2.000000,2.000000,0.000000,2.000000,4.000000,4.000000,4.000000,4.000000,2.000000,4.000000,16.666666,,,,,,,,,,,,,,,,,,,,,,,,,,,,
1732082944.528790,1732082944.530026,102.000000,0.000000,4337.051270,4321.025879,4333.205078,4318.717773,4290.897461,4312.179688,4247.051270,4337.563965,4331.794922,4314.358887,4485.512695,4500.897461,4367.563965,4444.358887,1369.000000,0.000000,8.000000,,,,0.000000,2.000000,2.000000,0.000000,2.000000,2.000000,2.000000,0.000000,2.000000,4.000000,4.000000,4.000000,4.000000,2.000000,4.000000,16.666666,,,,,,,,,,,,,,,,,,,,,,,,,,,,
1732082944.536598,1732082944.537834,103.000000,0.000000,4336.538574,4324.615234,4331.025879,4320.256348,4301.282227,4311.922852,4245.256348,4335.384766,4337.436035,4314.615234,4490.000000,4507.436035,4366.410156,4446.666504,1496.000000,0.000000,8.000000,,,,0.000000,2.000000,2.000000,0.000000,2.000000,2.000000,2.000000,0.000000,2.000000,4.000000,4.000000,4.000000,4.000000,2.000000,4.000000,16.666666,,,,,,,,,,,,,,,,,,,,,,,,,,,,
1732082944.544406,1732082944.545543,104.000000,0.000000,4345.897461,4330.256348,4334.615234,4329.487305,4314.358887,4304.743652,4246.538574,4337.820313,4331.410156,4310.641113,4491.794922,4507.948730,4364.358887,4451.538574,1730.000000,0.000000,8.000000,,,,0.000000,2.000000,2.000000,0.000000,2.000000,2.000000,2.000000,0.000000,2.000000,4.000000,4.000000,4.000000,4.000000,2.000000,4.000000,16.666666,,,,,,,,,,,,,,,,,26.000000,0.000000,0.586650,0.377197,-0.624268,0.351929,0.975217,-0.001953,-0.063484,-78.009361,57.497589,25.193010
1732082944.552215,1732082944.553351,105.000000,0.000000,4351.410156,4332.820313,4336.153809,4333.717773,4300.897461,4302.692383,4247.948730,4336.282227,4323.461426,4308.333496,4487.948730,4503.717773,4370.897461,4453.846191,1648.000000,0.000000,8.000000,,,,0.000000,2.000000,2.000000,0.000000,2.000000,2.000000,2.000000,0.000000,2.000000,4.000000,4.000000,4.000000,4.000000,2.000000,4.000000,16.666666,,,,,,,,,,,,,,,,,,,,,,,,,,,,
1732082944.560023,1732082944.560959,106.000000,0.000000,4347.179688,4332.179688,4334.102539,4330.000000,4301.666504,4306.153809,4245.256348,4337.051270,4330.128418,4313.077148,4479.743652,4493.974121,4380.897461,4449.230957,1369.000000,0.000000,8.000000,,,,0.000000,2.000000,2.000000,0.000000,2.000000,2.000000,2.000000,0.000000,2.000000,4.000000,4.000000,4.000000,4.000000,2.000000,4.000000,16.666666,,,,,,,,,,,,,,,,,,,,,,,,,,,,
1732082944.567831,1732082944.568767,107.000000,0.000000,4343.846191,4327.692383,4335.769043,4322.436035,4309.871582,4311.538574,4246.794922,4342.051270,4339.871582,4317.179688,4478.077148,4487.307617,4376.666504,4437.563965,1496.000000,0.000000,8.000000,,,,0.000000,2.000000,2.000000,0.000000,2.000000,2.000000,2.000000,0.000000,2.000000,4.000000,4.000000,4.000000,4.000000,2.000000,4.000000,16.666666,,,,,,,,,,,,,,,,,,,,,,,,,,,,
1732082944.575639,1732082944.576476,108.000000,0.000000,4340.256348,4322.563965,4335.384766,4314.358887,4312.307617,4316.025879,4248.717773,4343.589844,4337.436035,4312.179688,4479.743652,4488.333496,4362.948730,4427.051270,1730.000000,0.000000,8.000000,,,,0.000000,2.000000,2.000000,0.000000,2.000000,2.000000,2.000000,0.000000,2.000000,4.000000,4.000000,4.000000,4.000000,2.000000,4.000000,16.666666,,,,,,,,,,,,,,,,,27.000000,0.000000,0.586107,0.376526,-0.624390,0.353333,0.961055,-0.016115,-0.078623,-77.900909,57.229713,25.324671
1732082944.583448,1732082944.584284,109.000000,0.000000,4334.102539,4319.230957,4332.179688,4315.000000,4320.256348,4316.538574,4250.256348,4342.307617,4334.871582,4309.743652,4474.358887,4487.563965,4364.615234,4424.102539,1648.000000,0.000000,8.000000,,,,0.000000,2.000000,2.000000,0.000000,2.000000,2.000000,2.000000,0.000000,2.000000,4.000000,4.000000,4.000000,4.000000,2.000000,4.000000,16.666666,,,,,,,,,,,,,,,,,,,,,,,,,,,,
1732082944.591256,1732082944.591892,110.000000,0.000000,4334.358887,4314.487305,4330.128418,4322.563965,4311.025879,4311.922852,4247.307617,4339.615234,4340.000000,4315.641113,4470.897461,4487.820313,4371.922852,4427.820313,1369.000000,0.000000,8.000000,,,,0.000000,2.000000,2.000000,0.000000,2.000000,2.000000,2.000000,0.000000,2.000000,4.000000,4.000000,4.000000,4.000000,2.000000,4.000000,16.666666,,,,,,,,,,,,,,,,,,,,,,,,,,,,
1732082944.599064,1732082944.599700,111.000000,0.000000,4338.717773,4312.436035,4333.077148,4322.051270,4291.410156,4309.743652,4247.692383,4342.948730,4345.512695,4321.153809,4477.307617,4495.384766,4370.256348,4432.179688,1496.000000,0.000000,8.000000,,,,0.000000,2.000000,2.000000,0.000000,2.000000,2.000000,2.000000,0.000000,2.000000,4.000000,4.000000,4.000000,4.000000,2.000000,4.000000,16.666666,,,,,,,,,,,,,,,,,,,,,,,,,,,,
1732082944.606872,1732082944.607409,112.000000,0.000000,4337.563965,4315.000000,4334.487305,4318.589844,4296.922852,4313.205078,4249.615234,4349.743652,4345.384766,4320.000000,4477.436035,4496.666504,4366.410156,4428.461426,1730.000000,0.000000,8.000000,,,,0.000000,2.000000,2.000000,0.000000,2.000000,2.000000,2.000000,0.000000,2.000000,4.000000,4.000000,4.000000,4.000000,2.000000,4.000000,16.666666,,,,,,,,,,,,,,,,,28.000000,0.000000,0.585643,0.375366,-0.624207,0.355652,0.967892,-0.023440,-0.065438,-78.196404,56.979401,25.347984
1732082944.614681,1732082944.615217,113.000000,0.000000,4334.230957,4308.846191,4334.358887,4318.333496,4307.436035,4314.487305,4250.256348,4347.307617,4341.666504,4315.384766,4473.461426,4493.333496,4365.256348,4425.897461,1648.000000,0.000000,8.000000,,,,0.000000,2.000000,2.000000,0.000000,2.000000,2.000000,2.000000,0.000000,2.000000,4.000000,4.000000,4.000000,4.000000,2.000000,4.000000,16.666666,,,,,,,,,,,,,,,,,,,,,,,,,,,,
1732082944.622489,1732082944.622825,114.000000,0.000000,4337.436035,4301.410156,4332.563965,4319.615234,4295.769043,4311.538574,4249.871582,4341.025879,4341.025879,4319.102539,4479.743652,4495.000000,4373.846191,4430.256348,1369.000000,0.000000,8.000000,,,,0.000000,2.000000,2.000000,0.000000,2.000000,2.000000,2.000000,0.000000,2.000000,4.000000,4.000000,4.000000,4.000000,2.000000,4.000000,16.666666,,,,,,,,,,,,,,,,,,,,,,,,,,,,
1732082944.630297,1732082944.630634,115.000000,0.000000,4336.922852,4302.820313,4332.179688,4321.922852,4289.487305,4311.922852,4251.538574,4339.230957,4340.897461,4321.794922,4482.307617,4494.230957,4380.384766,4432.820313,1496.000000,0.000000,8.000000,,,,0.000000,2.000000,2.000000,0.000000,2.000000,2.000000,2.000000,0.000000,2.000000,4.000000,4.000000,4.000000,4.000000,2.000000,4.000000,16.666666,,,,,,,,,,,,,,,,,,,,,,,,,,,,
1732082944.638105,1732082944.638542,116.000000,0.000000,4328.846191,4301.538574,4331.666504,4321.282227,4306.410156,4319.102539,4250.256348,4341.282227,4339.358887,4313.846191,4473.333496,4490.000000,4374.102539,4427.051270,1730.000000,0.000000,8.000000,,,,0.000000,2.000000,2.000000,0.000000,2.000000,2.000000,2.000000,0.000000,2.000000,4.000000,4.000000,4.000000,4.000000,2.000000,4.000000,16.666666,,,,,,,,,,,,,,,,,29.000000,0.000000,0.585633,0.375122,-0.624084,0.356140,0.967892,-0.023440,-0.065438,-78.315758,56.821648,25.330200
1732082944.645914,1732082944.646350,117.000000,0.000000,4328.333496,4299.487305,4333.077148,4318.717773,4318.205078,4321.538574,4248.205078,4343.589844,4337.948730,4309.743652,4476.153809,4493.846191,4376.410156,4426.666504,1648.000000,0.000000,8.000000,,,,0.000000,2.000000,2.000000,0.000000,2.000000,2.000000,2.000000,0.000000,2.000000,4.000000,4.000000,4.000000,4.000000,2.000000,4.000000,16.666666,,,,,,,,,,,,,,,,,,,,,,,,,,,,
1732082944.653722,1732082944.653958,118.000000,0.000000,4331.794922,4299.358887,4335.512695,4317.307617,4305.512695,4312.563965,4248.333496,4342.051270,4341.153809,4315.897461,4490.128418,4499.487305,4385.384766,4432.307617,1369.000000,0.000000,8.000000,,,,0.000000,2.000000,2.000000,0.000000,2.000000,2.000000,2.000000,0.000000,2.000000,4.000000,4.000000,4.000000,4.000000,2.000000,4.000000,16.666666,,,,,,,,,,,,,,,,,,,,,,,,,,,,
1732082944.661530,1732082944.661767,119.000000,0.000000,4324.487305,4294.358887,4332.179688,4312.563965,4288.077148,4315.000000,4250.769043,4340.897461,4345.000000,4317.436035,4484.743652,4494.871582,4373.333496,4423.846191,1496.000000,0.000000,8.000000,,,,0.000000,2.000000,2.000000,0.000000,2.000000,2.000000,2.000000,0.000000,2.000000,4.000000,4.000000,4.000000,4.000000,2.000000,4.000000,16.666666,,,,,,,,,,,,,,,,,,,,,,,,,,,,
1732082944.669338,1732082944.669675,120.000000,0.000000,4318.974121,4292.820313,4330.769043,4308.846191,4293.717773,4329.230957,4253.717773,4348.846191,4345.128418,4313.974121,4476.410156,4490.000000,4362.436035,4413.589844,1730.000000,0.000000,8.000000,,,,0.000000,2.000000,2.000000,0.000000,2.000000,2.000000,2.000000,0.000000,2.000000,4.000000,4.000000,4.000000,4.000000,2.000000,4.000000,16.666666,,,,,,,,,,,,,,,,,30.000000,0.000000,0.585661,0.374817,-0.623962,0.356628,0.990844,-0.020999,-0.062996,-78.469093,56.652203,25.474129
1732082944.677147,1732082944.677483,121.000000,0.000000,4324.743652,4295.769043,4333.717773,4313.846191,4303.589844,4323.461426,4250.384766,4352.051270,4344.871582,4314.615234,4482.692383,4491.410156,4370.897461,4416.666504,1648.000000,0.000000,8.000000,,,,0.000000,2.000000,2.000000,0.000000,2.000000,2.000000,2.000000,0.000000,2.000000,4.000000,4.000000,4.000000,4.000000,2.000000,4.000000,16.666666,,,,,,,,,,,,,,,,,,,,,,,,,,,,
1732082944.684955,1732082944.685091,122.000000,0.000000,4323.846191,4287.820313,4333.717773,4314.871582,4299.230957,4311.922852,4249.102539,4344.358887,4344.743652,4314.230957,4481.794922,4493.589844,4369.743652,4418.589844,1369.000000,0.000000,8.000000,,,,0.000000,2.000000,2.000000,0.000000,2.000000,2.000000,2.000000,0.000000,2.000000,4.000000,4.000000,4.000000,4.000000,2.000000,4.000000,16.666666,,,,,,,,,,,,,,,,,,,,,,,,,,,,
1732082944.692763,1732082944.692900,123.000000,0.000000,4312.179688,4277.563965,4329.871582,4305.897461,4310.000000,4320.512695,4251.666504,4346.410156,4346.410156,4316.410156,4475.384766,4493.077148,4360.512695,4410.641113,1496.000000,0.000000,8.000000,,,,0.000000,2.000000,2.000000,0.000000,2.000000,2.000000,2.000000,0.000000,2.000000,4.000000,4.000000,4.000000,4.000000,2.000000,4.000000,16.666666,,,,,,,,,,,,,,,,,,,,,,,,,,,,
1732082944.700571,1732082944.700608,124.000000,0.000000,4310.128418,4279.871582,4330.128418,4305.897461,4322.948730,4327.179688,4251.794922,4352.948730,4346.794922,4317.820313,4476.153809,4490.769043,4362.692383,4406.153809,1730.000000,0.000000,8.000000,,,,0.000000,2.000000,2.000000,0.000000,2.000000,2.000000,2.000000,0.000000,2.000000,4.000000,4.000000,4.000000,4.000000,2.000000,4.000000,16.666666,,,,,,,,,,,,,,,,,31.000000,0.000000,0.585773,0.373535,-0.623962,0.357788,0.989867,-0.015627,-0.054206,-78.543297,56.378284,25.469044
1732082944.708380,1732082944.708416,125.000000,0.000000,4319.871582,4286.538574,4331.025879,4318.717773,4305.897461,4318.461426,4248.461426,4346.538574,4341.794922,4313.333496,4476.538574,4489.358887,4364.358887,4410.512695,1648.000000,0.000000,8.000000,,,,0.000000,2.000000,2.000000,0.000000,2.000000,2.000000,2.000000,0.000000,2.000000,4.000000,4.000000,4.000000,4.000000,2.000000,4.000000,16.666666,,,,,,,,,,,,,,,,,,,,,,,,,,,,
1732082944.716188,1732082944.716424,126.000000,0.000000,4323.205078,4283.846191,4332.436035,4320.512695,4291.922852,4316.025879,4250.512695,4342.051270,4338.717773,4314.615234,4473.846191,4490.512695,4359.487305,4415.512695,1369.000000,0.000000,8.000000,,,,0.000000,2.000000,2.000000,0.000000,2.000000,2.000000,2.000000,0.000000,2.000000,4.000000,4.000000,4.000000,4.000000,2.000000,4.000000,16.666666,,,,,,,,,,,,,,,,,,,,,,,,,,,,
1732082944.723996,1732082944.724232,127.000000,0.000000,4318.333496,4279.358887,4333.717773,4312.436035,4301.794922,4323.589844,4252.820313,4344.743652,4340.641113,4321.666504,4475.769043,4489.230957,4358.461426,4416.282227,8.000000,0.000000,8.000000,,,,0.000000,2.000000,2.000000,0.000000,2.000000,2.000000,2.000000,0.000000,2.000000,4.000000,4.000000,4.000000,4.000000,2.000000,4.000000,16.666666,,,,,,,,,,,,,,,,,,,,,,,,,,,,
1732082944.731804,1732082944.732140,0.000000,0.000000,4316.410156,4280.769043,4333.974121,4314.102539,4308.589844,4324.743652,4254.102539,4346.282227,4340.256348,4319.487305,4474.487305,4486.282227,4357.948730,4412.179688,0.000000,0.000000,8.000000,,,,0.000000,2.000000,2.000000,0.000000,2.000000,2.000000,2.000000,0.000000,2.000000,4.000000,4.000000,4.000000,4.000000,2.000000,4.000000,16.666666,,,,,,,,,,,,,,,,,0.000000,0.000000,0.585966,0.372620,-0.624329,0.357788,0.987425,-0.021975,-0.056159,-78.541740,56.223076,25.569925
1732082944.739613,1732082944.739949,1.000000,0.000000,4318.974121,4281.538574,4332.948730,4322.179688,4308.333496,4324.487305,4253.589844,4347.692383,4340.384766,4314.743652,4469.230957,4487.179688,4352.820313,4410.384766,1300.000000,0.000000,8.000000,,,,0.000000,2.000000,2.000000,0.000000,2.000000,2.000000,2.000000,0.000000,2.000000,4.000000,4.000000,4.000000,4.000000,2.000000,4.000000,16.666666,,,,,,,,,,,,,,,,,,,,,,,,,,,,
1732082944.747421,1732082944.747957,2.000000,0.000000,4321.410156,4278.846191,4333.077148,4320.897461,4307.307617,4328.461426,4257.051270,4350.128418,4345.769043,4321.922852,4471.666504,4489.615234,4353.461426,4411.282227,1225.000000,0.000000,8.000000,,,,0.000000,2.000000,2.000000,0.000000,2.000000,2.000000,2.000000,0.000000,2.000000,4.000000,4.000000,4.000000,4.000000,2.000000,4.000000,16.666666,,,,,,,,,,,,,,,,,,,,,,,,,,,,
1732082944.755229,1732082944.755765,3.000000,0.000000,4321.666504,4278.974121,4333.333496,4311.794922,4304.615234,4326.922852,4259.230957,4356.282227,4348.589844,4328.589844,4479.743652,4491.666504,4364.230957,4413.205078,1184.000000,0.000000,8.000000,,,,0.000000,2.000000,2.000000,0.000000,2.000000,2.000000,2.000000,0.000000,2.000000,4.000000,4.000000,4.000000,4.000000,2.000000,4.000000,16.666666,,,,,,,,,,,,,,,,,,,,,,,,,,,,
1732082944.763038,1732082944.763673,4.000000,0.000000,4316.153809,4280.641113,4332.179688,4308.974121,4316.922852,4318.846191,4256.410156,4354.743652,4340.897461,4320.000000,4474.358887,4487.436035,4359.871582,4409.358887,1204.000000,0.000000,8.000000,,,,0.000000,2.000000,2.000000,0.000000,2.000000,2.000000,2.000000,0.000000,2.000000,4.000000,4.000000,4.000000,4.000000,2.000000,4.000000,16.666666,,,,,,,,,,,,,,,,,1.000000,0.000000,0.585991,0.372375,-0.624451,0.357788,0.987425,-0.021975,-0.056159,-78.597145,56.054024,25.524973
1732082944.770846,1732082944.771481,5.000000,0.000000,4311.922852,4279.743652,4331.666504,4313.461426,4323.717773,4322.051270,4252.051270,4344.358887,4335.512695,4314.230957,4463.333496,4483.717773,4346.025879,4403.077148,1077.000000,0.000000,8.000000,,,,0.000000,2.000000,2.000000,0.000000,2.000000,2.000000,2.000000,0.000000,2.000000,4.000000,4.000000,4.000000,4.000000,2.000000,4.000000,16.666666,,,,,,,,,,,,,,,,,,,,,,,,,,,,
1732082944.778654,1732082944.779489,6.000000,0.000000,4318.461426,4281.410156,4334.358887,4315.128418,4303.333496,4332.563965,4253.461426,4344.615234,4340.384766,4321.794922,4469.615234,4491.282227,4352.179688,4406.794922,56.000000,0.000000,8.000000,,,,0.000000,2.000000,2.000000,0.000000,2.000000,2.000000,2.000000,0.000000,2.000000,4.000000,4.000000,4.000000,4.000000,2.000000,4.000000,16.666666,,,,,,,,,,,,,,,,,,,,,,,,,,,,
1732082944.786462,1732082944.787297,7.000000,0.000000,4324.102539,4287.307617,4335.128418,4318.461426,4297.436035,4328.589844,4256.666504,4353.461426,4344.487305,4324.871582,4479.615234,4498.974121,4364.230957,4416.282227,1182.000000,0.000000,8.000000,,,,0.000000,2.000000,2.000000,0.000000,2.000000,2.000000,2.000000,0.000000,2.000000,4.000000,4.000000,4.000000,4.000000,2.000000,4.000000,16.666666,,,,,,,,,,,,,,,,,,,,,,,,,,,,
1732082944.794271,1732082944.795205,8.000000,0.000000,4323.333496,4288.717773,4332.692383,4327.692383,4315.256348,4320.897461,4255.897461,4351.794922,4338.974121,4323.333496,4475.256348,4494.615234,4360.384766,4415.769043,1354.000000,0.000000,8.000000,,,,0.000000,2.000000,2.000000,0.000000,2.000000,2.000000,2.000000,0.000000,2.000000,4.000000,4.000000,4.000000,4.000000,2.000000,4.000000,16.666666,,,,,,,,,,,,,,,,,2.000000,0.000000,0.586102,0.372070,-0.624634,0.357605,0.976682,-0.021975,-0.060554,-78.585350,55.980427,25.423561
1732082944.802079,1732082944.803014,9.000000,0.000000,4321.666504,4287.692383,4332.307617,4331.538574,4314.358887,4326.410156,4255.897461,4347.051270,4334.615234,4322.436035,4467.051270,4489.871582,4352.436035,4405.769043,1511.000000,0.000000,8.000000,,,,0.000000,2.000000,2.000000,0.000000,2.000000,2.000000,2.000000,0.000000,2.000000,4.000000,4.000000,4.000000,4.000000,2.000000,4.000000,16.666666,,,,,,,,,,,,,,,,,,,,,,,,,,,,
1732082944.809887,1732082944.811022,10.000000,0.000000,4320.000000,4287.051270,4332.436035,4327.563965,4311.153809,4331.282227,4255.000000,4351.922852,4342.179688,4320.128418,4463.333496,4492.307617,4352.179688,4401.538574,1369.000000,0.000000,8.000000,,,,0.000000,2.000000,2.000000,0.000000,2.000000,2.000000,2.000000,0.000000,2.000000,4.000000,4.000000,4.000000,4.000000,2.000000,4.000000,16.666666,,,,,,,,,,,,,,,,,,,,,,,,,,,,
1732082944.817696,1732082944.818830,11.000000,0.000000,4317.179688,4286.153809,4334.102539,4326.666504,4328.974121,4323.846191,4253.974121,4351.410156,4345.897461,4321.666504,4463.461426,4492.307617,4355.384766,4406.410156,1496.000000,0.000000,8.000000,,,,0.000000,2.000000,2.000000,0.000000,2.000000,2.000000,2.000000,0.000000,2.000000,4.000000,4.000000,4.000000,4.000000,2.000000,4.000000,16.666666,,,,,,,,,,,,,,,,,,,,,,,,,,,,
1732082944.825504,1732082944.826738,12.000000,0.000000,4322.051270,4290.769043,4334.230957,4332.307617,4328.077148,4318.077148,4251.153809,4344.102539,4335.897461,4323.333496,4470.000000,4491.794922,4362.436035,4410.128418,1738.000000,0.000000,8.000000,,,,0.000000,2.000000,2.000000,0.000000,2.000000,2.000000,2.000000,0.000000,2.000000,4.000000,4.000000,4.000000,4.000000,2.000000,4.000000,16.666666,,,,,,,,,,,,,,,,,3.000000,0.000000,0.586284,0.372192,-0.624390,0.357605,0.975705,-0.017580,-0.060554,-78.612473,55.954147,25.311419
1732082944.833312,1732082944.834546,13.000000,0.000000,4323.974121,4294.743652,4331.410156,4333.846191,4308.717773,4325.512695,4251.666504,4342.563965,4328.461426,4317.563965,4470.256348,4492.692383,4361.282227,4405.512695,1646.000000,0.000000,8.000000,,,,0.000000,2.000000,2.000000,0.000000,2.000000,2.000000,2.000000,0.000000,2.000000,4.000000,4.000000,4.000000,4.000000,2.000000,4.000000,16.666666,,,,,,,,,,,,,,,,,,,,,,,,,,,,
1732082944.841120,1732082944.842554,14.000000,0.000000,4321.538574,4293.333496,4328.846191,4332.436035,4312.436035,4331.410156,4252.563965,4343.077148,4333.717773,4314.230957,4459.615234,4486.794922,4356.922852,4400.128418,1369.000000,0.000000,8.000000,,,,0.000000,2.000000,2.000000,0.000000,2.000000,2.000000,2.000000,0.000000,2.000000,4.000000,4.000000,4.000000,4.000000,2.000000,4.000000,16.666666,1.000000,16.666666,2.000000,2.000000,0.000000,2.000000,2.000000,2.000000,0.000000,2.000000,4.000000,4.000000,4.000000,4.000000,2.000000,4.000000,,,,,,,,,,,,
1732082944.848929,1732082944.850362,15.000000,0.000000,4324.102539,4291.922852,4332.948730,4330.000000,4322.179688,4323.461426,4252.563965,4340.512695,4336.666504,4316.410156,4458.974121,4477.563965,4362.692383,4400.512695,1496.000000,0.000000,8.000000,,,,0.000000,2.000000,2.000000,0.000000,2.000000,2.000000,2.000000,0.000000,2.000000,4.000000,4.000000,4.000000,4.000000,2.000000,4.000000,16.666666,,,,,,,,,,,,,,,,,,,,,,,,,,,,
1732082944.856737,1732082944.858270,16.000000,0.000000,4325.512695,4294.358887,4333.717773,4328.846191,4316.666504,4320.897461,4252.179688,4341.922852,4335.128418,4316.410156,4465.769043,4476.922852,4368.589844,4399.743652,0.000000,0.000000,8.000000,,,,0.000000,2.000000,2.000000,0.000000,2.000000,2.000000,2.000000,0.000000,2.000000,4.000000,4.000000,4.000000,4.000000,2.000000,4.000000,16.666666,,,,,,,,,,,,,,,,,4.000000,0.000000,0.586284,0.372192,-0.624390,0.357605,0.981077,0.004883,-0.058601,-78.634430,55.962856,25.175583
1732082944.864545,1732082944.866079,17.000000,0.000000,4322.692383,4297.179688,4332.051270,4331.538574,4324.871582,4323.717773,4253.589844,4342.692383,4332.307617,4315.512695,4463.205078,4480.384766,4366.666504,4398.205078,0.000000,0.000000,8.000000,,,,0.000000,2.000000,2.000000,0.000000,2.000000,2.000000,2.000000,0.000000,2.000000,4.000000,4.000000,4.000000,4.000000,2.000000,4.000000,16.666666,,,,,,,,,,,,,,,,,,,,,,,,,,,,
1732082944.872353,1732082944.874087,18.000000,0.000000,4322.948730,4295.641113,4331.282227,4329.358887,4333.974121,4316.666504,4252.307617,4337.692383,4328.974121,4318.077148,4461.410156,4478.333496,4363.846191,4402.307617,0.000000,0.000000,8.000000,,,,0.000000,2.000000,2.000000,0.000000,2.000000,2.000000,2.000000,0.000000,2.000000,4.000000,4.000000,4.000000,4.000000,2.000000,4.000000,16.666666,,,,,,,,,,,,,,,,,,,,,,,,,,,,
1732082944.880162,1732082944.881895,19.000000,0.000000,4330.512695,4293.974121,4332.307617,4322.436035,4313.846191,4308.717773,4251.794922,4338.717773,4334.358887,4326.666504,4468.974121,4479.102539,4368.461426,4408.205078,0.000000,0.000000,8.000000,,,,0.000000,2.000000,2.000000,0.000000,2.000000,2.000000,2.000000,0.000000,2.000000,4.000000,4.000000,4.000000,4.000000,2.000000,4.000000,16.666666,,,,,,,,,,,,,,,,,,,,,,,,,,,,
1732082944.887970,1732082944.889603,20.000000,0.000000,4341.410156,4295.000000,4331.922852,4324.871582,4303.077148,4313.205078,4252.307617,4344.743652,4337.692383,4328.333496,4467.436035,4481.282227,4368.333496,4407.179688,0.000000,0.000000,8.000000,,,,0.000000,2.000000,2.000000,0.000000,2.000000,2.000000,2.000000,0.000000,2.000000,4.000000,4.000000,4.000000,4.000000,2.000000,4.000000,16.666666,,,,,,,,,,,,,,,,,5.000000,0.000000,0.586288,0.372375,-0.624207,0.357727,0.989379,-0.006348,-0.052741,-78.645561,55.759914,25.138887
1732082944.895778,1732082944.897411,21.000000,0.000000,4349.358887,4295.897461,4332.179688,4329.487305,4314.743652,4317.948730,4251.410156,4341.538574,4333.205078,4318.205078,4456.538574,4477.436035,4363.205078,4402.436035,0.000000,0.000000,8.000000,,,,0.000000,2.000000,2.000000,0.000000,2.000000,2.000000,2.000000,0.000000,2.000000,4.000000,4.000000,4.000000,4.000000,2.000000,4.000000,16.666666,,,,,,,,,,,,,,,,,,,,,,,,,,,,
1732082944.903586,1732082944.905020,22.000000,0.000000,4354.615234,4292.051270,4332.051270,4324.871582,4312.948730,4314.230957,4251.922852,4339.615234,4334.487305,4320.256348,4464.358887,4481.922852,4367.820313,4407.692383,0.000000,0.000000,8.000000,,,,0.000000,2.000000,2.000000,0.000000,2.000000,2.000000,2.000000,0.000000,2.000000,4.000000,4.000000,4.000000,4.000000,2.000000,4.000000,16.666666,,,,,,,,,,,,,,,,,,,,,,,,,,,,
1732082944.911395,1732082944.912828,23.000000,0.000000,4359.871582,4290.641113,4331.794922,4325.897461,4303.589844,4313.974121,4255.641113,4344.615234,4336.794922,4328.717773,4474.230957,4489.743652,4371.922852,4412.948730,0.000000,0.000000,8.000000,,,,0.000000,2.000000,2.000000,0.000000,2.000000,2.000000,2.000000,0.000000,2.000000,4.000000,4.000000,4.000000,4.000000,2.000000,4.000000,16.666666,,,,,,,,,,,,,,,,,,,,,,,,,,,,
1732082944.919203,1732082944.920536,24.000000,0.000000,4368.205078,4294.871582,4333.077148,4332.179688,4316.922852,4311.666504,4254.230957,4336.282227,4325.128418,4319.615234,4466.538574,4484.487305,4368.717773,4407.820313,0.000000,0.000000,8.000000,,,,0.000000,2.000000,2.000000,0.000000,2.000000,2.000000,2.000000,0.000000,2.000000,4.000000,4.000000,4.000000,4.000000,2.000000,4.000000,16.666666,,,,,,,,,,,,,,,,,6.000000,0.000000,0.586475,0.371582,-0.624329,0.358032,0.984007,-0.018557,-0.056648,-78.814568,55.500530,25.230833
1732082944.927011,1732082944.928345,25.000000,0.000000,4369.358887,4292.948730,4331.922852,4327.051270,4322.948730,4305.897461,4249.487305,4324.487305,4317.436035,4314.102539,4463.589844,4477.820313,4370.512695,4403.077148,0.000000,0.000000,8.000000,,,,0.000000,2.000000,2.000000,0.000000,2.000000,2.000000,2.000000,0.000000,2.000000,4.000000,4.000000,4.000000,4.000000,2.000000,4.000000,16.666666,,,,,,,,,,,,,,,,,,,,,,,,,,,,
1732082944.934819,1732082944.935953,26.000000,0.000000,4363.077148,4283.077148,4329.487305,4321.282227,4302.563965,4311.153809,4257.051270,4337.179688,4330.769043,4327.948730,4470.384766,4479.871582,4376.538574,4402.948730,0.000000,0.000000,8.000000,,,,0.000000,2.000000,2.000000,0.000000,2.000000,2.000000,2.000000,0.000000,2.000000,4.000000,4.000000,4.000000,4.000000,2.000000,4.000000,16.666666,,,,,,,,,,,,,,,,,,,,,,,,,,,,
1732082944.942628,1732082944.943761,27.000000,0.000000,4365.128418,4276.794922,4330.000000,4323.846191,4297.179688,4316.922852,4262.051270,4352.051270,4340.384766,4334.871582,4473.717773,4483.846191,4377.307617,4406.282227,0.000000,0.000000,8.000000,,,,0.000000,2.000000,2.000000,0.000000,2.000000,2.000000,2.000000,0.000000,2.000000,4.000000,4.000000,4.000000,4.000000,2.000000,4.000000,16.666666,,,,,,,,,,,,,,,,,,,,,,,,,,,,
1732082944.950436,1732082944.951669,28.000000,0.000000,4374.615234,4280.769043,4335.000000,4325.897461,4312.051270,4314.230957,4257.179688,4343.717773,4330.384766,4322.692383,4467.692383,4488.205078,4373.333496,4405.128418,0.000000,0.000000,8.000000,,,,0.000000,2.000000,2.000000,0.000000,2.000000,2.000000,2.000000,0.000000,2.000000,4.000000,4.000000,4.000000,4.000000,2.000000,4.000000,16.666666,,,,,,,,,,,,,,,,,7.000000,0.000000,0.586631,0.370911,-0.624512,0.358154,0.982542,-0.005860,-0.044439,-78.814796,55.428764,25.413641
1732082944.958244,1732082944.959477,29.000000,0.000000,4374.102539,4283.461426,4333.589844,4322.179688,4317.051270,4313.717773,4252.692383,4336.410156,4328.974121,4320.641113,4462.563965,4489.358887,4369.615234,4398.974121,0.000000,0.000000,8.000000,,,,0.000000,2.000000,2.000000,0.000000,2.000000,2.000000,2.000000,0.000000,2.000000,4.000000,4.000000,4.000000,4.000000,2.000000,4.000000,16.666666,,,,,,,,,,,,,,,,,,,,,,,,,,,,
1732082944.966052,1732082944.967086,30.000000,0.000000,4367.436035,4276.922852,4328.461426,4315.897461,4318.461426,4313.974121,4256.025879,4344.871582,4340.641113,4327.179688,4460.641113,4481.410156,4370.641113,4394.358887,0.000000,0.000000,8.000000,,,,0.000000,2.000000,2.000000,0.000000,2.000000,2.000000,2.000000,0.000000,2.000000,4.000000,4.000000,4.000000,4.000000,2.000000,4.000000,16.666666,,,,,,,,,,,,,,,,,,,,,,,,,,,,
1732082944.973861,1732082944.974894,31.000000,0.000000,4374.487305,4274.230957,4327.948730,4316.153809,4319.102539,4311.666504,4256.538574,4345.641113,4336.410156,4324.615234,4461.025879,4475.897461,4375.641113,4398.589844,0.000000,0.000000,8.000000,,,,0.000000,2.000000,2.000000,0.000000,2.000000,2.000000,2.000000,0.000000,2.000000,4.000000,4.000000,4.000000,4.000000,2.000000,4.000000,16.666666,,,,,,,,,,,,,,,,,,,,,,,,,,,,
1732082944.981669,1732082944.982602,32.000000,0.000000,4383.205078,4281.666504,4331.538574,4320.256348,4308.589844,4314.102539,4253.717773,4337.692383,4324.871582,4319.102539,4460.000000,4478.846191,4372.948730,4401.153809,0.000000,0.000000,8.000000,,,,0.000000,2.000000,2.000000,0.000000,2.000000,2.000000,2.000000,0.000000,2.000000,4.000000,4.000000,4.000000,4.000000,2.000000,4.000000,16.666666,,,,,,,,,,,,,,,,,8.000000,0.000000,0.586631,0.370911,-0.624512,0.358154,0.976193,-0.014650,-0.035649,-78.709991,55.580631,25.606716
1732082944.989477,1732082944.990411,33.000000,0.000000,4377.436035,4281.922852,4330.641113,4317.051270,4304.615234,4314.871582,4253.077148,4342.307617,4336.025879,4322.436035,4457.563965,4478.717773,4371.282227,4393.717773,0.000000,0.000000,8.000000,,,,0.000000,2.000000,2.000000,0.000000,2.000000,2.000000,2.000000,0.000000,2.000000,4.000000,4.000000,4.000000,4.000000,2.000000,4.000000,16.666666,,,,,,,,,,,,,,,,,,,,,,,,,,,,
1732082944.997285,1732082944.998419,34.000000,0.000000,4371.025879,4271.794922,4330.128418,4313.461426,4308.846191,4310.000000,4257.051270,4347.948730,4344.230957,4326.538574,4461.025879,4476.794922,4378.333496,4393.461426,0.000000,0.000000,8.000000,,,,0.000000,2.000000,2.000000,0.000000,2.000000,2.000000,2.000000,0.000000,2.000000,4.000000,4.000000,4.000000,4.000000,2.000000,4.000000,16.666666,,,,,,,,,,,,,,,,,,,,,,,,,,,,
1732082945.005094,1732082945.006227,35.000000,0.000000,4374.871582,4271.794922,4330.641113,4317.179688,4315.256348,4309.487305,4256.666504,4340.641113,4333.205078,4321.666504,4461.922852,4479.487305,4376.666504,4402.179688,0.000000,0.000000,8.000000,,,,0.000000,2.000000,2.000000,0.000000,2.000000,2.000000,2.000000,0.000000,2.000000,4.000000,4.000000,4.000000,4.000000,2.000000,4.000000,16.666666,,,,,,,,,,,,,,,,,,,,,,,,,,,,
1732082945.012902,1732082945.014135,36.000000,0.000000,4381.025879,4280.512695,4331.538574,4322.307617,4319.358887,4310.000000,4253.205078,4332.051270,4326.666504,4317.051270,4462.820313,4482.051270,4373.589844,4406.538574,0.000000,0.000000,8.000000,,,,0.000000,2.000000,2.000000,0.000000,2.000000,2.000000,2.000000,0.000000,2.000000,4.000000,4.000000,4.000000,4.000000,2.000000,4.000000,16.666666,,,,,,,,,,,,,,,,,9.000000,0.000000,0.586841,0.369873,-0.625000,0.358032,0.985472,-0.014162,-0.059578,-78.395088,55.593647,25.664774
1732082945.020710,1732082945.021943,37.000000,0.000000,4380.256348,4280.897461,4333.333496,4326.282227,4310.769043,4309.358887,4253.846191,4333.333496,4329.743652,4318.974121,4461.153809,4479.230957,4377.051270,4401.538574,0.000000,0.000000,8.000000,,,,0.000000,2.000000,2.000000,0.000000,2.000000,2.000000,2.000000,0.000000,2.000000,4.000000,4.000000,4.000000,4.000000,2.000000,4.000000,16.666666,,,,,,,,,,,,,,,,,,,,,,,,,,,,
1732082945.028519,1732082945.029552,38.000000,0.000000,4375.769043,4277.307617,4334.871582,4328.205078,4306.025879,4311.153809,4257.051270,4340.897461,4332.179688,4317.948730,4456.410156,4476.410156,4373.077148,4397.563965,0.000000,0.000000,8.000000,,,,0.000000,2.000000,2.000000,0.000000,2.000000,2.000000,2.000000,0.000000,2.000000,4.000000,4.000000,4.000000,4.000000,2.000000,4.000000,16.666666,,,,,,,,,,,,,,,,,,,,,,,,,,,,
1732082945.036327,1732082945.037360,39.000000,0.000000,4374.871582,4279.102539,4334.358887,4326.410156,4310.641113,4309.871582,4257.692383,4343.205078,4332.436035,4315.512695,4457.563965,4478.333496,4369.871582,4398.974121,0.000000,0.000000,8.000000,,,,0.000000,2.000000,2.000000,0.000000,2.000000,2.000000,2.000000,0.000000,2.000000,4.000000,4.000000,4.000000,4.000000,2.000000,4.000000,16.666666,,,,,,,,,,,,,,,,,,,,,,,,,,,,
1732082945.044135,1732082945.045268,40.000000,0.000000,4378.077148,4280.769043,4333.461426,4324.102539,4316.282227,4306.538574,4253.717773,4336.538574,4331.153809,4317.307617,4461.538574,4478.846191,4377.948730,4400.769043,0.000000,0.000000,8.000000,,,,0.000000,2.000000,2.000000,0.000000,2.000000,2.000000,2.000000,0.000000,2.000000,4.000000,4.000000,4.000000,4.000000,2.000000,4.000000,16.666666,,,,,,,,,,,,,,,,,10.000000,0.000000,0.587045,0.369446,-0.625305,0.357605,0.981565,-0.015627,-0.046881,-78.370026,55.594185,25.730133
1732082945.051943,1732082945.053076,41.000000,0.000000,4378.589844,4279.102539,4333.717773,4323.974121,4323.077148,4304.358887,4253.589844,4332.179688,4328.077148,4319.230957,4461.282227,4477.051270,4378.589844,4402.051270,0.000000,0.000000,8.000000,,,,0.000000,2.000000,2.000000,0.000000,2.000000,2.000000,2.000000,0.000000,2.000000,4.000000,4.000000,4.000000,4.000000,2.000000,4.000000,16.666666,,,,,,,,,,,,,,,,,,,,,,,,,,,,
1732082945.059752,1732082945.061084,42.000000,0.000000,4376.410156,4279.102539,4333.461426,4325.384766,4319.871582,4307.051270,4257.051270,4336.794922,4328.589844,4316.666504,4457.179688,4480.000000,4366.410156,4400.128418,0.000000,0.000000,8.000000,,,,0.000000,2.000000,2.000000,0.000000,2.000000,2.000000,2.000000,0.000000,2.000000,4.000000,4.000000,4.000000,4.000000,2.000000,4.000000,16.666666,,,,,,,,,,,,,,,,,,,,,,,,,,,,
1732082945.067560,1732082945.068892,43.000000,0.000000,4369.615234,4280.000000,4335.897461,4325.897461,4309.487305,4312.436035,4259.487305,4336.410156,4328.205078,4313.717773,4454.358887,4483.974121,4362.179688,4397.307617,0.000000,0.000000,8.000000,,,,0.000000,2.000000,2.000000,0.000000,2.000000,2.000000,2.000000,0.000000,2.000000,4.000000,4.000000,4.000000,4.000000,2.000000,4.000000,16.666666,,,,,,,,,,,,,,,,,,,,,,,,,,,,
1732082945.075368,1732082945.076601,44.000000,0.000000,4361.410156,4275.128418,4333.846191,4319.358887,4310.384766,4314.230957,4258.077148,4334.871582,4327.820313,4316.282227,4453.077148,4483.846191,4363.974121,4397.563965,0.000000,0.000000,8.000000,,,,0.000000,2.000000,2.000000,0.000000,2.000000,2.000000,2.000000,0.000000,2.000000,4.000000,4.000000,4.000000,4.000000,2.000000,4.000000,16.666666,,,,,,,,,,,,,,,,,11.000000,0.000000,0.587158,0.369385,-0.625305,0.357483,0.981565,-0.015627,-0.046881,-78.311386,55.722958,25.779741
1732082945.083176,1732082945.084409,45.000000,0.000000,4363.205078,4271.538574,4329.358887,4313.333496,4316.282227,4311.025879,4262.179688,4344.102539,4336.538574,4324.102539,4458.717773,4487.051270,4366.153809,4401.410156,0.000000,0.000000,8.000000,,,,0.000000,2.000000,2.000000,0.000000,2.000000,2.000000,2.000000,0.000000,2.000000,4.000000,4.000000,4.000000,4.000000,2.000000,4.000000,16.666666,,,,,,,,,,,,,,,,,,,,,,,,,,,,
1732082945.090985,1732082945.092417,46.000000,0.000000,4370.128418,4276.025879,4330.000000,4320.769043,4316.282227,4308.077148,4261.410156,4345.641113,4337.436035,4326.282227,4463.077148,4492.563965,4367.948730,4409.102539,0.000000,0.000000,8.000000,,,,0.000000,2.000000,2.000000,0.000000,2.000000,2.000000,2.000000,0.000000,2.000000,4.000000,4.000000,4.000000,4.000000,2.000000,4.000000,16.666666,,,,,,,,,,,,,,,,,,,,,,,,,,,,
1732082945.098793,1732082945.100225,47.000000,0.000000,4363.974121,4279.230957,4333.461426,4325.000000,4314.743652,4310.641113,4259.358887,4335.897461,4326.153809,4317.820313,4452.820313,4485.000000,4361.794922,4406.025879,0.000000,0.000000,8.000000,,,,0.000000,2.000000,2.000000,0.000000,2.000000,2.000000,2.000000,0.000000,2.000000,4.000000,4.000000,4.000000,4.000000,2.000000,4.000000,16.666666,,,,,,,,,,,,,,,,,,,,,,,,,,,,
1732082945.106601,1732082945.108133,48.000000,0.000000,4352.563965,4273.846191,4330.641113,4315.128418,4322.820313,4312.563965,4263.205078,4334.358887,4322.051270,4316.025879,4447.051270,4475.641113,4358.589844,4393.589844,0.000000,0.000000,8.000000,,,,0.000000,2.000000,2.000000,0.000000,2.000000,2.000000,2.000000,0.000000,2.000000,4.000000,4.000000,4.000000,4.000000,2.000000,4.000000,16.666666,,,,,,,,,,,,,,,,,12.000000,0.000000,0.587097,0.369629,-0.625183,0.357544,0.991820,-0.009278,-0.053717,-78.393890,55.743927,25.856590
1732082945.114410,1732082945.115941,49.000000,0.000000,4349.743652,4268.333496,4328.846191,4307.436035,4330.512695,4312.692383,4266.282227,4342.051270,4326.794922,4323.205078,4456.666504,4483.205078,4365.000000,4392.820313,0.000000,0.000000,8.000000,,,,0.000000,2.000000,2.000000,0.000000,2.000000,2.000000,2.000000,0.000000,2.000000,4.000000,4.000000,4.000000,4.000000,2.000000,4.000000,16.666666,,,,,,,,,,,,,,,,,,,,,,,,,,,,
1732082945.122218,1732082945.123949,50.000000,0.000000,4353.846191,4271.666504,4330.641113,4316.666504,4319.230957,4315.512695,4262.692383,4343.333496,4329.230957,4321.794922,4459.743652,4492.692383,4363.461426,4401.153809,0.000000,0.000000,8.000000,,,,0.000000,2.000000,2.000000,0.000000,2.000000,2.000000,2.000000,0.000000,2.000000,4.000000,4.000000,4.000000,4.000000,2.000000,4.000000,16.666666,,,,,,,,,,,,,,,,,,,,,,,,,,,,
1732082945.130026,1732082945.131758,51.000000,0.000000,4355.512695,4277.179688,4332.948730,4324.487305,4311.025879,4319.358887,4264.102539,4340.641113,4328.077148,4313.846191,4447.948730,4486.794922,4353.589844,4396.794922,0.000000,0.000000,8.000000,,,,0.000000,2.000000,2.000000,0.000000,2.000000,2.000000,2.000000,0.000000,2.000000,4.000000,4.000000,4.000000,4.000000,2.000000,4.000000,16.666666,,,,,,,,,,,,,,,,,,,,,,,,,,,,
1732082945.137834,1732082945.139666,52.000000,0.000000,4345.641113,4276.025879,4333.205078,4316.922852,4324.230957,4324.487305,4265.641113,4345.384766,4328.461426,4310.897461,4441.025879,4476.794922,4349.230957,4381.922852,0.000000,0.000000,8.000000,,,,0.000000,2.000000,2.000000,0.000000,2.000000,2.000000,2.000000,0.000000,2.000000,4.000000,4.000000,4.000000,4.000000,2.000000,4.000000,16.666666,,,,,,,,,,,,,,,,,13.000000,0.000000,0.587577,0.370178,-0.624756,0.356934,0.971310,-0.004395,-0.059089,-78.600716,55.624249,25.768839
1732082945.145643,1732082945.147474,53.000000,0.000000,4333.333496,4269.358887,4332.436035,4308.846191,4324.230957,4328.333496,4262.692383,4350.256348,4331.410156,4314.871582,4444.743652,4474.871582,4350.000000,4377.051270,0.000000,0.000000,8.000000,,,,0.000000,2.000000,2.000000,0.000000,2.000000,2.000000,2.000000,0.000000,2.000000,4.000000,4.000000,4.000000,4.000000,2.000000,4.000000,16.666666,,,,,,,,,,,,,,,,,,,,,,,,,,,,
1732082945.153451,1732082945.155482,54.000000,0.000000,4337.307617,4271.410156,4330.641113,4313.461426,4321.794922,4319.487305,4261.794922,4343.589844,4330.897461,4315.384766,4446.538574,4477.307617,4352.436035,4386.153809,0.000000,0.000000,8.000000,,,,0.000000,2.000000,2.000000,0.000000,2.000000,2.000000,2.000000,0.000000,2.000000,4.000000,4.000000,4.000000,4.000000,2.000000,4.000000,16.666666,,,,,,,,,,,,,,,,,,,,,,,,,,,,
1732082945.161259,1732082945.163290,55.000000,0.000000,4345.384766,4281.538574,4332.436035,4323.205078,4332.179688,4310.256348,4265.256348,4340.384766,4325.256348,4311.794922,4444.871582,4478.461426,4354.358887,4394.871582,0.000000,0.000000,8.000000,,,,0.000000,2.000000,2.000000,0.000000,2.000000,2.000000,2.000000,0.000000,2.000000,4.000000,4.000000,4.000000,4.000000,2.000000,4.000000,16.666666,,,,,,,,,,,,,,,,,,,,,,,,,,,,
1732082945.169067,1732082945.171198,56.000000,0.000000,4339.230957,4282.692383,4335.256348,4323.846191,4320.000000,4316.666504,4268.461426,4349.358887,4329.230957,4318.461426,4448.333496,4479.230957,4354.615234,4391.922852,0.000000,0.000000,8.000000,,,,0.000000,2.000000,2.000000,0.000000,2.000000,2.000000,2.000000,0.000000,2.000000,4.000000,4.000000,4.000000,4.000000,2.000000,4.000000,16.666666,,,,,,,,,,,,,,,,,14.000000,0.000000,0.588103,0.370239,-0.624573,0.356323,0.994262,-0.006837,-0.064461,-78.658249,55.582310,26.024426
1732082945.176876,1732082945.179006,57.000000,0.000000,4331.410156,4277.692383,4331.153809,4318.589844,4308.974121,4321.922852,4267.692383,4352.820313,4338.589844,4329.615234,4456.282227,4478.717773,4356.410156,4390.256348,0.000000,0.000000,8.000000,,,,0.000000,2.000000,2.000000,0.000000,2.000000,2.000000,2.000000,0.000000,2.000000,4.000000,4.000000,4.000000,4.000000,2.000000,4.000000,16.666666,,,,,,,,,,,,,,,,,,,,,,,,,,,,
1732082945.184684,1732082945.187014,58.000000,0.000000,4335.128418,4278.461426,4327.948730,4316.025879,4323.846191,4318.846191,4268.077148,4348.205078,4335.256348,4327.051270,4456.922852,4479.358887,4356.410156,4397.948730,0.000000,0.000000,8.000000,,,,0.000000,2.000000,2.000000,0.000000,2.000000,2.000000,2.000000,0.000000,2.000000,4.000000,4.000000,4.000000,4.000000,2.000000,4.000000,16.666666,,,,,,,,,,,,,,,,,,,,,,,,,,,,
1732082945.192492,1732082945.194823,59.000000,0.000000,4342.051270,4284.871582,4329.615234,4318.846191,4324.230957,4317.436035,4267.948730,4347.051270,4330.897461,4321.282227,4452.820313,4481.282227,4356.153809,4400.641113,0.000000,0.000000,8.000000,,,,0.000000,2.000000,2.000000,0.000000,2.000000,2.000000,2.000000,0.000000,2.000000,4.000000,4.000000,4.000000,4.000000,2.000000,4.000000,16.666666,,,,,,,,,,,,,,,,,,,,,,,,,,,,
1732082945.200300,1732082945.202731,60.000000,0.000000,4335.512695,4283.974121,4329.230957,4318.077148,4322.307617,4316.794922,4267.436035,4346.410156,4332.436035,4322.307617,4449.358887,4477.563965,4355.512695,4390.769043,0.000000,0.000000,8.000000,,,,0.000000,2.000000,2.000000,0.000000,2.000000,2.000000,2.000000,0.000000,2.000000,4.000000,4.000000,4.000000,4.000000,2.000000,4.000000,16.666666,,,,,,,,,,,,,,,,,15.000000,0.000000,0.588278,0.370300,-0.624512,0.356079,0.994262,-0.006837,-0.064461,-78.646515,55.331669,26.003119
1732082945.208109,1732082945.210539,61.000000,0.000000,4327.179688,4281.282227,4326.153809,4314.230957,4336.538574,4314.743652,4265.384766,4341.282227,4331.025879,4322.179688,4445.769043,4471.666504,4350.512695,4386.282227,0.000000,0.000000,8.000000,,,,0.000000,2.000000,2.000000,0.000000,2.000000,2.000000,2.000000,0.000000,2.000000,4.000000,4.000000,4.000000,4.000000,2.000000,4.000000,16.666666,,,,,,,,,,,,,,,,,,,,,,,,,,,,
1732082945.215917,1732082945.218547,62.000000,0.000000,4333.205078,4286.666504,4328.717773,4317.948730,4328.333496,4314.230957,4269.230957,4343.461426,4332.948730,4325.897461,4446.666504,4474.615234,4350.128418,4394.358887,0.000000,0.000000,8.000000,,,,0.000000,2.000000,2.000000,0.000000,2.000000,2.000000,2.000000,0.000000,2.000000,4.000000,4.000000,4.000000,4.000000,2.000000,4.000000,16.666666,,,,,,,,,,,,,,,,,,,,,,,,,,,,
1732082945.223725,1732082945.226355,63.000000,0.000000,4340.897461,4289.871582,4327.692383,4321.922852,4309.871582,4315.256348,4270.000000,4350.769043,4339.743652,4332.179688,4452.179688,4479.487305,4356.922852,4399.615234,0.000000,0.000000,8.000000,,,,0.000000,2.000000,2.000000,0.000000,2.000000,2.000000,2.000000,0.000000,2.000000,4.000000,4.000000,4.000000,4.000000,2.000000,4.000000,16.666666,,,,,,,,,,,,,,,,,,,,,,,,,,,,
1732082945.231533,1732082945.234263,64.000000,0.000000,4338.717773,4285.000000,4326.538574,4318.846191,4314.743652,4319.102539,4266.538574,4350.641113,4336.282227,4329.615234,4453.333496,4478.333496,4357.820313,4398.461426,0.000000,0.000000,8.000000,,,,0.000000,2.000000,2.000000,0.000000,2.000000,2.000000,2.000000,0.000000,2.000000,4.000000,4.000000,4.000000,4.000000,2.000000,4.000000,16.666666,,,,,,,,,,,,,,,,,16.000000,0.000000,0.588504,0.370483,-0.624329,0.355835,0.975705,0.003907,-0.056159,-78.598679,55.510319,25.929192
1732082945.239342,1732082945.242071,65.000000,0.000000,4331.666504,4282.436035,4329.102539,4316.794922,4321.666504,4322.436035,4265.769043,4349.743652,4330.000000,4326.922852,4449.743652,4479.102539,4352.179688,4398.846191,1304.000000,0.000000,8.000000,,,,0.000000,2.000000,2.000000,0.000000,2.000000,2.000000,2.000000,0.000000,2.000000,4.000000,4.000000,4.000000,4.000000,2.000000,4.000000,16.666666,,,,,,,,,,,,,,,,,,,,,,,,,,,,
1732082945.247150,1732082945.250079,66.000000,0.000000,4323.333496,4284.615234,4330.769043,4316.025879,4327.179688,4314.102539,4268.333496,4349.615234,4331.922852,4328.461426,4447.179688,4481.538574,4346.025879,4396.922852,1225.000000,0.000000,8.000000,,,,0.000000,2.000000,2.000000,0.000000,2.000000,2.000000,2.000000,0.000000,2.000000,4.000000,4.000000,4.000000,4.000000,2.000000,4.000000,16.666666,,,,,,,,,,,,,,,,,,,,,,,,,,,,
1732082945.254958,1732082945.257888,67.000000,0.000000,4317.692383,4288.461426,4329.743652,4313.589844,4329.615234,4308.077148,4266.538574,4343.717773,4330.769043,4324.358887,4444.871582,4475.641113,4344.102539,4393.846191,1185.000000,0.000000,8.000000,,,,0.000000,2.000000,2.000000,0.000000,2.000000,2.000000,2.000000,0.000000,2.000000,4.000000,4.000000,4.000000,4.000000,2.000000,4.000000,16.666666,,,,,,,,,,,,,,,,,,,,,,,,,,,,
1732082945.262766,1732082945.265596,68.000000,0.000000,4314.230957,4292.948730,4332.692383,4316.410156,4316.666504,4316.794922,4268.589844,4341.538574,4327.692383,4318.846191,4443.589844,4473.077148,4346.282227,4395.897461,1224.000000,0.000000,8.000000,,,,0.000000,2.000000,2.000000,0.000000,2.000000,2.000000,2.000000,0.000000,2.000000,4.000000,4.000000,4.000000,4.000000,2.000000,4.000000,16.666666,,,,,,,,,,,,,,,,,17.000000,0.000000,0.588598,0.370422,-0.624451,0.355530,0.986449,-0.010255,-0.061043,-78.459930,55.555027,25.969313
1732082945.270575,1732082945.273404,69.000000,0.000000,4309.743652,4297.051270,4333.077148,4320.256348,4312.820313,4322.179688,4273.077148,4345.897461,4330.897461,4322.820313,4446.025879,4485.769043,4347.820313,4397.820313,1085.000000,0.000000,8.000000,,,,0.000000,2.000000,2.000000,0.000000,2.000000,2.000000,2.000000,0.000000,2.000000,4.000000,4.000000,4.000000,4.000000,2.000000,4.000000,16.666666,,,,,,,,,,,,,,,,,,,,,,,,,,,,
1732082945.278383,1732082945.281013,70.000000,0.000000,4307.563965,4293.589844,4330.769043,4315.384766,4326.794922,4317.307617,4270.000000,4343.717773,4331.922852,4325.641113,4446.153809,4493.077148,4347.692383,4396.153809,58.000000,0.000000,8.000000,,,,0.000000,2.000000,2.000000,0.000000,2.000000,2.000000,2.000000,0.000000,2.000000,4.000000,4.000000,4.000000,4.000000,2.000000,4.000000,16.666666,,,,,,,,,,,,,,,,,,,,,,,,,,,,
1732082945.286191,1732082945.288821,71.000000,0.000000,4308.589844,4286.153809,4331.922852,4310.897461,4321.410156,4317.051270,4269.487305,4338.333496,4328.205078,4319.358887,4439.871582,4481.410156,4347.692383,4393.589844,1187.000000,0.000000,8.000000,,,,0.000000,2.000000,2.000000,0.000000,2.000000,2.000000,2.000000,0.000000,2.000000,4.000000,4.000000,4.000000,4.000000,2.000000,4.000000,16.666666,,,,,,,,,,,,,,,,,,,,,,,,,,,,
1732082945.294000,1732082945.296529,72.000000,0.000000,4309.487305,4286.666504,4331.410156,4312.563965,4317.307617,4321.153809,4273.461426,4342.307617,4327.563965,4314.615234,4438.077148,4475.128418,4346.025879,4389.743652,1357.000000,0.000000,8.000000,,,,0.000000,2.000000,2.000000,0.000000,2.000000,2.000000,2.000000,0.000000,2.000000,4.000000,4.000000,4.000000,4.000000,2.000000,4.000000,16.666666,,,,,,,,,,,,,,,,,18.000000,0.000000,0.588673,0.370361,-0.624451,0.355469,0.982053,0.003418,-0.053717,-78.214211,55.449570,25.848476
1732082945.301808,1732082945.304337,73.000000,0.000000,4311.666504,4292.179688,4330.384766,4312.948730,4337.051270,4320.641113,4272.436035,4344.743652,4330.641113,4318.974121,4440.769043,4484.743652,4345.128418,4389.487305,1497.000000,0.000000,8.000000,,,,0.000000,2.000000,2.000000,0.000000,2.000000,2.000000,2.000000,0.000000,2.000000,4.000000,4.000000,4.000000,4.000000,2.000000,4.000000,16.666666,,,,,,,,,,,,,,,,,,,,,,,,,,,,
1732082945.309616,1732082945.311946,74.000000,0.000000,4315.769043,4291.025879,4330.512695,4313.461426,4332.820313,4317.692383,4269.358887,4341.794922,4334.358887,4323.461426,4442.307617,4492.051270,4348.205078,4393.974121,1342.000000,0.000000,8.000000,,,,0.000000,2.000000,2.000000,0.000000,2.000000,2.000000,2.000000,0.000000,2.000000,4.000000,4.000000,4.000000,4.000000,2.000000,4.000000,16.666666,,,,,,,,,,,,,,,,,,,,,,,,,,,,
1732082945.317424,1732082945.319754,75.000000,0.000000,4313.974121,4285.000000,4331.666504,4315.000000,4310.000000,4313.077148,4275.000000,4345.000000,4335.641113,4321.025879,4443.717773,4488.589844,4351.922852,4394.102539,1492.000000,0.000000,8.000000,,,,0.000000,2.000000,2.000000,0.000000,2.000000,2.000000,2.000000,0.000000,2.000000,4.000000,4.000000,4.000000,4.000000,2.000000,4.000000,16.666666,,,,,,,,,,,,,,,,,,,,,,,,,,,,
1732082945.325233,1732082945.327462,76.000000,0.000000,4311.025879,4285.769043,4329.230957,4316.666504,4311.666504,4314.102539,4275.000000,4350.512695,4333.974121,4320.512695,4443.846191,4480.512695,4350.512695,4387.307617,1721.000000,0.000000,8.000000,,,,0.000000,2.000000,2.000000,0.000000,2.000000,2.000000,2.000000,0.000000,2.000000,4.000000,4.000000,4.000000,4.000000,2.000000,4.000000,16.666666,,,,,,,,,,,,,,,,,19.000000,0.000000,0.588679,0.370117,-0.624451,0.355713,0.983518,-0.008790,-0.046392,-78.300179,55.554153,25.877266
1732082945.333041,1732082945.335270,77.000000,0.000000,4311.282227,4287.820313,4327.179688,4318.461426,4326.025879,4320.512695,4271.666504,4347.051270,4331.922852,4318.974121,4440.128418,4475.512695,4343.205078,4383.974121,1633.000000,0.000000,8.000000,,,,0.000000,2.000000,2.000000,0.000000,2.000000,2.000000,2.000000,0.000000,2.000000,4.000000,4.000000,4.000000,4.000000,2.000000,4.000000,16.666666,,,,,,,,,,,,,,,,,,,,,,,,,,,,
