title:two4, start timestamp:1732083002.052551, stop timestamp:1732083047.090628, headset type:EPOCX, headset serial:E5020C3A, headset firmware:730, channels:67, sampling rate:eeg_128;mot_32, samples:5769      , version:2.2, 
Timestamp,OriginalTimestamp,EEG.Counter,EEG.Interpolated,EEG.AF3,EEG.F7,EEG.F3,EEG.FC5,EEG.T7,EEG.P7,EEG.O1,EEG.O2,EEG.P8,EEG.T8,EEG.FC6,EEG.F4,EEG.F8,EEG.AF4,EEG.RawCq,EEG.Battery,EEG.BatteryPercent,MarkerIndex,MarkerType,MarkerValueInt,EEG.MarkerHardware,CQ.AF3,CQ.F7,CQ.F3,CQ.FC5,CQ.T7,CQ.P7,CQ.O1,CQ.O2,CQ.P8,CQ.T8,CQ.FC6,CQ.F4,CQ.F8,CQ.AF4,CQ.Overall,EQ.SampleRateQuality,EQ.OVERALL,EQ.AF3,EQ.F7,EQ.F3,EQ.FC5,EQ.T7,EQ.P7,EQ.O1,EQ.O2,EQ.P8,EQ.T8,EQ.FC6,EQ.F4,EQ.F8,EQ.AF4,MOT.CounterMems,MOT.InterpolatedMems,MOT.Q0,MOT.Q1,MOT.Q2,MOT.Q3,MOT.AccX,MOT.AccY,MOT.AccZ,MOT.MagX,MOT.MagY,MOT.MagZ
1732083002.052551,1732083002.052498,45.000000,0.000000,4349.871582,4313.205078,4311.666504,4322.179688,4297.563965,4294.230957,4344.615234,4326.025879,4313.846191,4289.743652,4448.333496,4489.743652,4340.384766,4413.205078,0.000000,0.000000,8.000000,,,,0.000000,2.000000,2.000000,0.000000,2.000000,2.000000,2.000000,0.000000,2.000000,4.000000,4.000000,4.000000,4.000000,2.000000,4.000000,16.666666,,,,,,,,,,,,,,,,,,,,,,,,,,,,
1732083002.060359,1732083002.060107,46.000000,0.000000,4355.641113,4322.436035,4315.384766,4324.871582,4291.282227,4292.051270,4343.333496,4324.871582,4314.102539,4292.436035,4450.256348,4491.025879,4344.102539,4417.179688,0.000000,0.000000,8.000000,,,,0.000000,2.000000,2.000000,0.000000,2.000000,2.000000,2.000000,0.000000,2.000000,4.000000,4.000000,4.000000,4.000000,2.000000,4.000000,16.666666,,,,,,,,,,,,,,,,,,,,,,,,,,,,
1732083002.068168,1732083002.067915,47.000000,0.000000,4353.205078,4318.205078,4322.307617,4323.461426,4293.717773,4288.589844,4341.794922,4327.563965,4312.307617,4296.153809,4451.922852,4490.384766,4345.000000,4416.922852,0.000000,0.000000,8.000000,,,,0.000000,2.000000,2.000000,0.000000,2.000000,2.000000,2.000000,0.000000,2.000000,4.000000,4.000000,4.000000,4.000000,2.000000,4.000000,16.666666,,,,,,,,,,,,,,,,,,,,,,,,,,,,
1732083002.075976,1732083002.075823,48.000000,0.000000,4350.512695,4314.487305,4321.025879,4322.307617,4297.307617,4291.025879,4341.922852,4327.563965,4313.461426,4297.948730,4450.000000,4484.743652,4340.384766,4415.641113,0.000000,0.000000,8.000000,,,,0.000000,2.000000,2.000000,0.000000,2.000000,2.000000,2.000000,0.000000,2.000000,4.000000,4.000000,4.000000,4.000000,2.000000,4.000000,16.666666,,,,,,,,,,,,,,,,,12.000000,0.000000,0.644989,0.396301,-0.586914,0.287170,0.991820,0.160176,0.003907,-72.809067,65.969681,30.659563
1732083002.083784,1732083002.083631,49.000000,0.000000,4348.589844,4316.282227,4318.333496,4320.512695,4300.000000,4296.666504,4343.974121,4328.077148,4314.615234,4300.512695,4449.358887,4482.563965,4337.436035,4414.358887,0.000000,0.000000,8.000000,,,,0.000000,2.000000,2.000000,0.000000,2.000000,2.000000,2.000000,0.000000,2.000000,4.000000,4.000000,4.000000,4.000000,2.000000,4.000000,16.666666,,,,,,,,,,,,,,,,,,,,,,,,,,,,
1732083002.091592,1732083002.091639,50.000000,0.000000,4345.769043,4312.051270,4316.538574,4317.948730,4296.538574,4295.769043,4342.436035,4328.333496,4312.436035,4302.051270,4451.153809,4482.948730,4338.974121,4412.563965,0.000000,0.000000,8.000000,,,,0.000000,2.000000,2.000000,0.000000,2.000000,2.000000,2.000000,0.000000,2.000000,4.000000,4.000000,4.000000,4.000000,2.000000,4.000000,16.666666,,,,,,,,,,,,,,,,,,,,,,,,,,,,
1732083002.099401,1732083002.099448,51.000000,0.000000,4347.179688,4311.282227,4320.000000,4317.820313,4294.743652,4289.102539,4342.948730,4321.666504,4307.436035,4297.563965,4448.717773,4479.230957,4340.128418,4412.692383,0.000000,0.000000,8.000000,,,,0.000000,2.000000,2.000000,0.000000,2.000000,2.000000,2.000000,0.000000,2.000000,4.000000,4.000000,4.000000,4.000000,2.000000,4.000000,16.666666,,,,,,,,,,,,,,,,,,,,,,,,,,,,
1732083002.107209,1732083002.107356,52.000000,0.000000,4348.461426,4315.897461,4318.077148,4319.871582,4297.436035,4288.461426,4341.666504,4320.000000,4307.692383,4295.641113,4450.000000,4478.846191,4340.384766,4415.000000,0.000000,0.000000,8.000000,,,,0.000000,2.000000,2.000000,0.000000,2.000000,2.000000,2.000000,0.000000,2.000000,4.000000,4.000000,4.000000,4.000000,2.000000,4.000000,16.666666,,,,,,,,,,,,,,,,,13.000000,0.000000,0.644770,0.396362,-0.586365,0.288696,0.973263,0.139177,0.011720,-72.698677,65.917107,30.747580
1732083002.115017,1732083002.115164,53.000000,0.000000,4345.384766,4315.128418,4317.051270,4320.256348,4299.615234,4292.307617,4342.307617,4326.794922,4315.256348,4298.846191,4452.307617,4484.358887,4340.897461,4414.358887,0.000000,0.000000,8.000000,,,,0.000000,2.000000,2.000000,0.000000,2.000000,2.000000,2.000000,0.000000,2.000000,4.000000,4.000000,4.000000,4.000000,2.000000,4.000000,16.666666,,,,,,,,,,,,,,,,,,,,,,,,,,,,
1732083002.122826,1732083002.123172,54.000000,0.000000,4344.358887,4316.794922,4315.641113,4320.128418,4298.205078,4293.717773,4342.436035,4327.948730,4315.256348,4296.922852,4446.666504,4482.179688,4339.871582,4410.000000,0.000000,0.000000,8.000000,,,,0.000000,2.000000,2.000000,0.000000,2.000000,2.000000,2.000000,0.000000,2.000000,4.000000,4.000000,4.000000,4.000000,2.000000,4.000000,16.666666,,,,,,,,,,,,,,,,,,,,,,,,,,,,
1732083002.130634,1732083002.130980,55.000000,0.000000,4342.948730,4319.230957,4315.897461,4317.307617,4298.205078,4293.333496,4343.205078,4325.256348,4310.641113,4292.820313,4440.769043,4478.717773,4338.846191,4406.410156,0.000000,0.000000,8.000000,,,,0.000000,2.000000,2.000000,0.000000,2.000000,2.000000,2.000000,0.000000,2.000000,4.000000,4.000000,4.000000,4.000000,2.000000,4.000000,16.666666,,,,,,,,,,,,,,,,,,,,,,,,,,,,
1732083002.138442,1732083002.138688,56.000000,0.000000,4337.820313,4314.102539,4313.717773,4314.871582,4302.563965,4297.051270,4342.179688,4328.589844,4316.538574,4295.769043,4441.153809,4482.436035,4337.436035,4405.000000,0.000000,0.000000,8.000000,,,,0.000000,2.000000,2.000000,0.000000,2.000000,2.000000,2.000000,0.000000,2.000000,4.000000,4.000000,4.000000,4.000000,2.000000,4.000000,16.666666,,,,,,,,,,,,,,,,,14.000000,0.000000,0.644737,0.396240,-0.586182,0.289307,0.967403,0.139177,0.011720,-72.819260,66.122856,30.700539
1732083002.146250,1732083002.146497,57.000000,0.000000,4335.256348,4311.922852,4313.846191,4316.282227,4298.589844,4300.512695,4342.948730,4331.922852,4320.641113,4296.922852,4443.589844,4480.000000,4333.461426,4401.410156,0.000000,0.000000,8.000000,,,,0.000000,2.000000,2.000000,0.000000,2.000000,2.000000,2.000000,0.000000,2.000000,4.000000,4.000000,4.000000,4.000000,2.000000,4.000000,16.666666,,,,,,,,,,,,,,,,,,,,,,,,,,,,
1732083002.154059,1732083002.154505,58.000000,0.000000,4338.077148,4315.769043,4315.769043,4316.922852,4303.717773,4301.538574,4345.000000,4332.051270,4316.538574,4291.153809,4444.487305,4471.282227,4331.153809,4403.461426,0.000000,0.000000,8.000000,,,,0.000000,2.000000,2.000000,0.000000,2.000000,2.000000,2.000000,0.000000,2.000000,4.000000,4.000000,4.000000,4.000000,2.000000,4.000000,16.666666,,,,,,,,,,,,,,,,,,,,,,,,,,,,
1732083002.161867,1732083002.162313,59.000000,0.000000,4341.025879,4314.615234,4317.307617,4314.743652,4316.153809,4300.256348,4346.153809,4335.256348,4314.358887,4290.000000,4444.358887,4473.333496,4331.153809,4406.666504,0.000000,0.000000,8.000000,,,,0.000000,2.000000,2.000000,0.000000,2.000000,2.000000,2.000000,0.000000,2.000000,4.000000,4.000000,4.000000,4.000000,2.000000,4.000000,16.666666,,,,,,,,,,,,,,,,,,,,,,,,,,,,
1732083002.169675,1732083002.170221,60.000000,0.000000,4340.897461,4311.025879,4316.538574,4315.769043,4305.897461,4300.256348,4347.436035,4336.282227,4317.307617,4291.538574,4442.948730,4480.128418,4330.769043,4404.102539,0.000000,0.000000,8.000000,,,,0.000000,2.000000,2.000000,0.000000,2.000000,2.000000,2.000000,0.000000,2.000000,4.000000,4.000000,4.000000,4.000000,2.000000,4.000000,16.666666,,,,,,,,,,,,,,,,,15.000000,0.000000,0.644765,0.395935,-0.585693,0.290649,0.960078,0.149432,0.012697,-73.170265,65.972847,30.504103
1732083002.177483,1732083002.178029,61.000000,0.000000,4337.179688,4313.589844,4314.743652,4318.461426,4291.025879,4307.051270,4347.820313,4335.000000,4317.436035,4293.461426,4443.333496,4476.282227,4329.230957,4402.948730,0.000000,0.000000,8.000000,,,,0.000000,2.000000,2.000000,0.000000,2.000000,2.000000,2.000000,0.000000,2.000000,4.000000,4.000000,4.000000,4.000000,2.000000,4.000000,16.666666,,,,,,,,,,,,,,,,,,,,,,,,,,,,
1732083002.185292,1732083002.186037,62.000000,0.000000,4331.538574,4314.358887,4314.743652,4314.230957,4300.641113,4311.922852,4348.589844,4335.641113,4317.051270,4293.461426,4439.358887,4473.077148,4328.589844,4400.897461,0.000000,0.000000,8.000000,,,,0.000000,2.000000,2.000000,0.000000,2.000000,2.000000,2.000000,0.000000,2.000000,4.000000,4.000000,4.000000,4.000000,2.000000,4.000000,16.666666,,,,,,,,,,,,,,,,,,,,,,,,,,,,
1732083002.193100,1732083002.193845,63.000000,0.000000,4329.487305,4312.436035,4314.615234,4307.820313,4307.051270,4308.846191,4347.436035,4334.230957,4318.205078,4290.384766,4436.922852,4476.922852,4328.974121,4397.179688,0.000000,0.000000,8.000000,,,,0.000000,2.000000,2.000000,0.000000,2.000000,2.000000,2.000000,0.000000,2.000000,4.000000,4.000000,4.000000,4.000000,2.000000,4.000000,16.666666,,,,,,,,,,,,,,,,,,,,,,,,,,,,
1732083002.200908,1732083002.201753,64.000000,0.000000,4330.641113,4312.179688,4314.230957,4308.717773,4299.743652,4305.512695,4350.000000,4329.871582,4318.589844,4293.717773,4441.922852,4478.461426,4331.666504,4397.948730,0.000000,0.000000,8.000000,,,,0.000000,2.000000,2.000000,0.000000,2.000000,2.000000,2.000000,0.000000,2.000000,4.000000,4.000000,4.000000,4.000000,2.000000,4.000000,16.666666,,,,,,,,,,,,,,,,,16.000000,0.000000,0.645377,0.396606,-0.584473,0.290833,0.956660,0.162129,0.016115,-73.361252,65.911339,30.688324
1732083002.208716,1732083002.209562,65.000000,0.000000,4329.487305,4311.153809,4312.051270,4312.051270,4299.743652,4305.769043,4349.487305,4328.077148,4317.563965,4299.615234,4442.051270,4475.128418,4335.256348,4397.948730,1304.000000,0.000000,8.000000,,,,0.000000,2.000000,2.000000,0.000000,2.000000,2.000000,2.000000,0.000000,2.000000,4.000000,4.000000,4.000000,4.000000,2.000000,4.000000,16.666666,,,,,,,,,,,,,,,,,,,,,,,,,,,,
1732083002.216525,1732083002.217570,66.000000,0.000000,4325.897461,4308.717773,4317.948730,4310.769043,4300.000000,4301.153809,4346.025879,4327.179688,4315.384766,4294.871582,4440.128418,4476.025879,4337.948730,4395.384766,1229.000000,0.000000,8.000000,,,,0.000000,2.000000,2.000000,0.000000,2.000000,2.000000,2.000000,0.000000,2.000000,4.000000,4.000000,4.000000,4.000000,2.000000,4.000000,16.666666,,,,,,,,,,,,,,,,,,,,,,,,,,,,
1732083002.224333,1732083002.225378,67.000000,0.000000,4328.333496,4308.974121,4319.102539,4310.000000,4298.333496,4295.769043,4345.000000,4325.256348,4315.384766,4291.666504,4446.666504,4483.717773,4339.102539,4401.794922,1180.000000,0.000000,8.000000,,,,0.000000,2.000000,2.000000,0.000000,2.000000,2.000000,2.000000,0.000000,2.000000,4.000000,4.000000,4.000000,4.000000,2.000000,4.000000,16.666666,,,,,,,,,,,,,,,,,,,,,,,,,,,,
1732083002.232141,1732083002.233286,68.000000,0.000000,4332.692383,4311.666504,4316.153809,4311.410156,4303.461426,4301.922852,4349.358887,4325.512695,4317.563965,4296.922852,4448.589844,4489.743652,4337.051270,4407.948730,1197.000000,0.000000,8.000000,,,,0.000000,2.000000,2.000000,0.000000,2.000000,2.000000,2.000000,0.000000,2.000000,4.000000,4.000000,4.000000,4.000000,2.000000,4.000000,16.666666,,,,,,,,,,,,,,,,,17.000000,0.000000,0.645975,0.397339,-0.583313,0.290833,0.970333,0.182151,0.011720,-73.495949,65.718185,30.747541
1732083002.239949,1732083002.241094,69.000000,0.000000,4331.922852,4310.128418,4312.948730,4313.205078,4306.282227,4307.563965,4349.615234,4327.563965,4318.717773,4297.436035,4442.563965,4484.487305,4334.871582,4401.538574,1082.000000,0.000000,8.000000,,,,0.000000,2.000000,2.000000,0.000000,2.000000,2.000000,2.000000,0.000000,2.000000,4.000000,4.000000,4.000000,4.000000,2.000000,4.000000,16.666666,,,,,,,,,,,,,,,,,,,,,,,,,,,,
1732083002.247758,1732083002.248802,70.000000,0.000000,4328.461426,4307.051270,4316.410156,4312.563965,4299.743652,4303.077148,4350.128418,4327.436035,4316.410156,4293.461426,4441.666504,4478.717773,4336.025879,4399.743652,41.000000,0.000000,8.000000,,,,0.000000,2.000000,2.000000,0.000000,2.000000,2.000000,2.000000,0.000000,2.000000,4.000000,4.000000,4.000000,4.000000,2.000000,4.000000,16.666666,,,,,,,,,,,,,,,,,,,,,,,,,,,,
1732083002.255566,1732083002.256611,71.000000,0.000000,4331.282227,4313.589844,4316.153809,4313.589844,4304.871582,4300.256348,4348.846191,4325.000000,4313.846191,4295.256348,4445.000000,4480.641113,4340.256348,4403.461426,1190.000000,0.000000,8.000000,,,,0.000000,2.000000,2.000000,0.000000,2.000000,2.000000,2.000000,0.000000,2.000000,4.000000,4.000000,4.000000,4.000000,2.000000,4.000000,16.666666,,,,,,,,,,,,,,,,,,,,,,,,,,,,
1732083002.263374,1732083002.264319,72.000000,0.000000,4335.641113,4320.641113,4316.538574,4317.436035,4319.743652,4300.769043,4347.820313,4324.230957,4312.820313,4293.974121,4445.000000,4480.641113,4337.820313,4400.641113,1361.000000,0.000000,8.000000,,,,0.000000,2.000000,2.000000,0.000000,2.000000,2.000000,2.000000,0.000000,2.000000,4.000000,4.000000,4.000000,4.000000,2.000000,4.000000,16.666666,,,,,,,,,,,,,,,,,18.000000,0.000000,0.646033,0.397827,-0.582825,0.291016,0.977658,0.186546,0.008790,-73.568382,65.661728,30.608843
1732083002.271182,1732083002.272127,73.000000,0.000000,4332.820313,4316.666504,4315.128418,4319.743652,4310.000000,4299.615234,4350.512695,4325.128418,4311.538574,4292.179688,4443.846191,4477.563965,4330.897461,4401.666504,1499.000000,0.000000,8.000000,,,,0.000000,2.000000,2.000000,0.000000,2.000000,2.000000,2.000000,0.000000,2.000000,4.000000,4.000000,4.000000,4.000000,2.000000,4.000000,16.666666,,,,,,,,,,,,,,,,,,,,,,,,,,,,
1732083002.278991,1732083002.279736,74.000000,0.000000,4328.333496,4311.025879,4314.487305,4317.179688,4290.256348,4299.358887,4353.205078,4324.871582,4310.769043,4295.641113,4444.615234,4479.102539,4330.769043,4407.563965,1372.000000,0.000000,8.000000,,,,0.000000,2.000000,2.000000,0.000000,2.000000,2.000000,2.000000,0.000000,2.000000,4.000000,4.000000,4.000000,4.000000,2.000000,4.000000,16.666666,,,,,,,,,,,,,,,,,,,,,,,,,,,,
1732083002.286799,1732083002.287544,75.000000,0.000000,4332.820313,4313.205078,4318.077148,4316.922852,4293.974121,4299.102539,4350.897461,4323.589844,4310.512695,4297.179688,4445.769043,4481.025879,4332.179688,4408.077148,1506.000000,0.000000,8.000000,,,,0.000000,2.000000,2.000000,0.000000,2.000000,2.000000,2.000000,0.000000,2.000000,4.000000,4.000000,4.000000,4.000000,2.000000,4.000000,16.666666,,,,,,,,,,,,,,,,,,,,,,,,,,,,
1732083002.294607,1732083002.295252,76.000000,0.000000,4337.948730,4315.641113,4322.307617,4320.384766,4303.333496,4298.205078,4350.769043,4321.794922,4310.641113,4297.436035,4446.538574,4480.641113,4332.820313,4406.794922,1736.000000,0.000000,8.000000,,,,0.000000,2.000000,2.000000,0.000000,2.000000,2.000000,2.000000,0.000000,2.000000,4.000000,4.000000,4.000000,4.000000,2.000000,4.000000,16.666666,,,,,,,,,,,,,,,,,19.000000,0.000000,0.645024,0.399719,-0.581299,0.293701,0.980588,0.176291,0.018557,-73.468719,65.599335,30.671495
1732083002.302415,1732083002.303060,77.000000,0.000000,4332.692383,4314.102539,4319.615234,4317.563965,4299.102539,4299.358887,4352.948730,4325.000000,4314.102539,4300.769043,4446.538574,4482.436035,4336.794922,4405.641113,1641.000000,0.000000,8.000000,,,,0.000000,2.000000,2.000000,0.000000,2.000000,2.000000,2.000000,0.000000,2.000000,4.000000,4.000000,4.000000,4.000000,2.000000,4.000000,16.666666,,,,,,,,,,,,,,,,,,,,,,,,,,,,
1732083002.310224,1732083002.310669,78.000000,0.000000,4327.692383,4309.615234,4313.333496,4313.077148,4299.230957,4299.230957,4350.769043,4331.666504,4318.974121,4305.512695,4448.077148,4483.717773,4336.538574,4401.538574,1372.000000,0.000000,8.000000,,,,0.000000,2.000000,2.000000,0.000000,2.000000,2.000000,2.000000,0.000000,2.000000,4.000000,4.000000,4.000000,4.000000,2.000000,4.000000,16.666666,1.000000,16.666666,2.000000,2.000000,0.000000,2.000000,2.000000,2.000000,0.000000,2.000000,4.000000,3.000000,4.000000,4.000000,2.000000,4.000000,,,,,,,,,,,,
1732083002.318032,1732083002.318477,79.000000,0.000000,4331.410156,4307.179688,4314.871582,4315.512695,4304.871582,4298.333496,4350.769043,4330.897461,4317.179688,4305.000000,4448.589844,4483.589844,4330.000000,4399.615234,1506.000000,0.000000,8.000000,,,,0.000000,2.000000,2.000000,0.000000,2.000000,2.000000,2.000000,0.000000,2.000000,4.000000,4.000000,4.000000,4.000000,2.000000,4.000000,16.666666,,,,,,,,,,,,,,,,,,,,,,,,,,,,
1732083002.325840,1732083002.326185,80.000000,0.000000,4334.871582,4313.846191,4318.461426,4318.974121,4305.641113,4298.077148,4350.769043,4321.666504,4309.615234,4299.102539,4443.333496,4482.436035,4327.436035,4398.589844,1736.000000,0.000000,8.000000,,,,0.000000,2.000000,2.000000,0.000000,2.000000,2.000000,2.000000,0.000000,2.000000,4.000000,4.000000,4.000000,4.000000,2.000000,4.000000,16.666666,,,,,,,,,,,,,,,,,20.000000,0.000000,0.644021,0.400208,-0.581116,0.295593,0.981077,0.162618,0.024417,-73.544662,65.488792,30.577246
1732083002.333649,1732083002.333993,81.000000,0.000000,4328.333496,4317.948730,4318.589844,4313.077148,4305.256348,4298.461426,4351.025879,4324.871582,4309.871582,4296.153809,4438.333496,4479.358887,4327.436035,4392.563965,1641.000000,0.000000,8.000000,,,,0.000000,2.000000,2.000000,0.000000,2.000000,2.000000,2.000000,0.000000,2.000000,4.000000,4.000000,4.000000,4.000000,2.000000,4.000000,16.666666,,,,,,,,,,,,,,,,,,,,,,,,,,,,
1732083002.341457,1732083002.341602,82.000000,0.000000,4320.000000,4310.641113,4313.461426,4307.051270,4304.102539,4305.000000,4350.512695,4337.563965,4320.384766,4299.102539,4437.436035,4472.436035,4327.563965,4389.487305,1372.000000,0.000000,8.000000,,,,0.000000,2.000000,2.000000,0.000000,2.000000,2.000000,2.000000,0.000000,2.000000,4.000000,4.000000,4.000000,4.000000,2.000000,4.000000,16.666666,,,,,,,,,,,,,,,,,,,,,,,,,,,,
1732083002.349265,1732083002.349410,83.000000,0.000000,4319.358887,4307.820313,4313.717773,4310.641113,4304.230957,4305.769043,4352.692383,4331.410156,4320.000000,4299.743652,4434.615234,4468.205078,4327.307617,4391.282227,1506.000000,0.000000,8.000000,,,,0.000000,2.000000,2.000000,0.000000,2.000000,2.000000,2.000000,0.000000,2.000000,4.000000,4.000000,4.000000,4.000000,2.000000,4.000000,16.666666,,,,,,,,,,,,,,,,,,,,,,,,,,,,
1732083002.357073,1732083002.357118,84.000000,0.000000,4322.051270,4316.282227,4313.589844,4317.692383,4304.102539,4295.897461,4350.641113,4315.641113,4309.358887,4298.461426,4435.769043,4473.461426,4326.666504,4393.205078,1736.000000,0.000000,8.000000,,,,0.000000,2.000000,2.000000,0.000000,2.000000,2.000000,2.000000,0.000000,2.000000,4.000000,4.000000,4.000000,4.000000,2.000000,4.000000,16.666666,,,,,,,,,,,,,,,,,21.000000,0.000000,0.643396,0.400269,-0.581238,0.296631,0.986937,0.150897,0.025394,-73.821182,65.490921,30.372568
1732083002.364882,1732083002.364927,85.000000,0.000000,4321.922852,4318.717773,4315.641113,4319.230957,4303.461426,4292.436035,4347.692383,4316.538574,4310.000000,4301.282227,4443.589844,4482.948730,4331.666504,4393.333496,1641.000000,0.000000,8.000000,,,,0.000000,2.000000,2.000000,0.000000,2.000000,2.000000,2.000000,0.000000,2.000000,4.000000,4.000000,4.000000,4.000000,2.000000,4.000000,16.666666,,,,,,,,,,,,,,,,,,,,,,,,,,,,
1732083002.372690,1732083002.372535,86.000000,0.000000,4321.794922,4315.384766,4313.077148,4316.538574,4303.974121,4296.410156,4346.794922,4325.128418,4320.384766,4303.974121,4446.153809,4485.641113,4339.615234,4395.769043,1372.000000,0.000000,8.000000,,,,0.000000,2.000000,2.000000,0.000000,2.000000,2.000000,2.000000,0.000000,2.000000,4.000000,4.000000,4.000000,4.000000,2.000000,4.000000,16.666666,,,,,,,,,,,,,,,,,,,,,,,,,,,,
1732083002.380498,1732083002.380343,87.000000,0.000000,4324.871582,4314.871582,4312.051270,4315.000000,4303.461426,4296.410156,4349.871582,4322.692383,4321.282227,4303.333496,4441.922852,4484.615234,4337.051270,4400.641113,1506.000000,0.000000,8.000000,,,,0.000000,2.000000,2.000000,0.000000,2.000000,2.000000,2.000000,0.000000,2.000000,4.000000,4.000000,4.000000,4.000000,2.000000,4.000000,16.666666,,,,,,,,,,,,,,,,,,,,,,,,,,,,
1732083002.388307,1732083002.388052,88.000000,0.000000,4324.615234,4315.512695,4312.307617,4317.563965,4304.358887,4297.307617,4351.922852,4320.897461,4318.205078,4305.512695,4441.666504,4483.589844,4330.128418,4399.487305,1736.000000,0.000000,8.000000,,,,0.000000,2.000000,2.000000,0.000000,2.000000,2.000000,2.000000,0.000000,2.000000,4.000000,4.000000,4.000000,4.000000,2.000000,4.000000,16.666666,,,,,,,,,,,,,,,,,22.000000,0.000000,0.641670,0.400879,-0.581787,0.298462,0.991332,0.152362,0.012209,-73.941818,65.717651,30.306780
1732083002.396115,1732083002.395860,89.000000,0.000000,4317.692383,4311.922852,4314.487305,4317.051270,4305.384766,4300.256348,4354.102539,4325.256348,4318.974121,4305.512695,4443.974121,4479.487305,4331.538574,4394.358887,1641.000000,0.000000,8.000000,,,,0.000000,2.000000,2.000000,0.000000,2.000000,2.000000,2.000000,0.000000,2.000000,4.000000,4.000000,4.000000,4.000000,2.000000,4.000000,16.666666,,,,,,,,,,,,,,,,,,,,,,,,,,,,
1732083002.403923,1732083002.403468,90.000000,0.000000,4317.948730,4310.897461,4313.077148,4312.563965,4304.102539,4299.102539,4352.307617,4326.538574,4318.846191,4305.128418,4446.794922,4477.948730,4337.436035,4400.000000,1372.000000,0.000000,8.000000,,,,0.000000,2.000000,2.000000,0.000000,2.000000,2.000000,2.000000,0.000000,2.000000,4.000000,4.000000,4.000000,4.000000,2.000000,4.000000,16.666666,,,,,,,,,,,,,,,,,,,,,,,,,,,,
1732083002.411731,1732083002.411276,91.000000,0.000000,4323.846191,4313.461426,4312.436035,4312.948730,4301.794922,4299.487305,4349.615234,4325.384766,4318.974121,4308.333496,4450.512695,4482.820313,4337.948730,4407.820313,1506.000000,0.000000,8.000000,,,,0.000000,2.000000,2.000000,0.000000,2.000000,2.000000,2.000000,0.000000,2.000000,4.000000,4.000000,4.000000,4.000000,2.000000,4.000000,16.666666,,,,,,,,,,,,,,,,,,,,,,,,,,,,
1732083002.419540,1732083002.419184,92.000000,0.000000,4323.205078,4313.589844,4313.461426,4317.692383,4301.282227,4300.384766,4353.077148,4326.153809,4319.487305,4306.538574,4447.692383,4484.487305,4333.461426,4403.077148,1736.000000,0.000000,8.000000,,,,0.000000,2.000000,2.000000,0.000000,2.000000,2.000000,2.000000,0.000000,2.000000,4.000000,4.000000,4.000000,4.000000,2.000000,4.000000,16.666666,,,,,,,,,,,,,,,,,23.000000,0.000000,0.638224,0.402161,-0.583496,0.300781,0.933708,0.148944,0.018557,-73.972878,65.751297,30.153492
1732083002.427348,1732083002.426993,93.000000,0.000000,4319.102539,4309.102539,4314.871582,4314.743652,4302.051270,4298.846191,4358.589844,4330.897461,4320.128418,4302.307617,4442.692383,4480.769043,4330.512695,4398.077148,1641.000000,0.000000,8.000000,,,,0.000000,2.000000,2.000000,0.000000,2.000000,2.000000,2.000000,0.000000,2.000000,4.000000,4.000000,4.000000,4.000000,2.000000,4.000000,16.666666,,,,,,,,,,,,,,,,,,,,,,,,,,,,
1732083002.435156,1732083002.435001,94.000000,0.000000,4316.922852,4299.102539,4317.179688,4308.974121,4304.230957,4304.871582,4359.615234,4338.333496,4325.769043,4307.051270,4445.897461,4488.077148,4330.384766,4401.538574,1372.000000,0.000000,8.000000,,,,0.000000,2.000000,2.000000,0.000000,2.000000,2.000000,2.000000,0.000000,2.000000,4.000000,4.000000,4.000000,4.000000,2.000000,4.000000,16.666666,,,,,,,,,,,,,,,,,,,,,,,,,,,,
1732083002.442964,1732083002.442809,95.000000,0.000000,4319.358887,4298.717773,4316.922852,4312.179688,4303.717773,4309.743652,4358.333496,4338.974121,4329.102539,4312.051270,4450.641113,4497.179688,4334.487305,4403.974121,1506.000000,0.000000,8.000000,,,,0.000000,2.000000,2.000000,0.000000,2.000000,2.000000,2.000000,0.000000,2.000000,4.000000,4.000000,4.000000,4.000000,2.000000,4.000000,16.666666,,,,,,,,,,,,,,,,,,,,,,,,,,,,
1732083002.450773,1732083002.450517,96.000000,0.000000,4322.820313,4312.692383,4317.820313,4316.538574,4300.641113,4300.512695,4357.692383,4329.358887,4322.563965,4307.692383,4450.897461,4492.563965,4339.871582,4403.974121,1736.000000,0.000000,8.000000,,,,0.000000,2.000000,2.000000,0.000000,2.000000,2.000000,2.000000,0.000000,2.000000,4.000000,4.000000,4.000000,4.000000,2.000000,4.000000,16.666666,,,,,,,,,,,,,,,,,24.000000,0.000000,0.637199,0.401733,-0.584595,0.301392,0.963008,0.162618,0.005372,-73.939697,65.620216,30.112661
1732083002.458581,1732083002.458325,97.000000,0.000000,4322.948730,4320.384766,4312.820313,4314.358887,4301.922852,4295.000000,4354.487305,4325.769043,4318.077148,4302.820313,4447.307617,4485.641113,4340.512695,4401.538574,1641.000000,0.000000,8.000000,,,,0.000000,2.000000,2.000000,0.000000,2.000000,2.000000,2.000000,0.000000,2.000000,4.000000,4.000000,4.000000,4.000000,2.000000,4.000000,16.666666,,,,,,,,,,,,,,,,,,,,,,,,,,,,
1732083002.466389,1732083002.465934,98.000000,0.000000,4317.179688,4315.641113,4311.538574,4311.025879,4303.717773,4299.230957,4355.641113,4329.487305,4319.743652,4300.384766,4442.948730,4486.666504,4337.436035,4396.410156,1372.000000,0.000000,8.000000,,,,0.000000,2.000000,2.000000,0.000000,2.000000,2.000000,2.000000,0.000000,2.000000,4.000000,4.000000,4.000000,4.000000,2.000000,4.000000,16.666666,,,,,,,,,,,,,,,,,,,,,,,,,,,,
1732083002.474197,1732083002.473742,99.000000,0.000000,4314.743652,4314.230957,4311.922852,4312.563965,4303.974121,4297.051270,4354.615234,4328.205078,4321.410156,4302.820313,4445.641113,4488.205078,4338.205078,4399.871582,1506.000000,0.000000,8.000000,,,,0.000000,2.000000,2.000000,0.000000,2.000000,2.000000,2.000000,0.000000,2.000000,4.000000,4.000000,4.000000,4.000000,2.000000,4.000000,16.666666,,,,,,,,,,,,,,,,,,,,,,,,,,,,
1732083002.482006,1732083002.481650,100.000000,0.000000,4315.769043,4316.794922,4315.128418,4313.077148,4302.948730,4294.487305,4353.974121,4324.743652,4320.897461,4305.897461,4452.563965,4487.179688,4340.897461,4406.922852,1736.000000,0.000000,8.000000,,,,0.000000,2.000000,2.000000,0.000000,2.000000,2.000000,2.000000,0.000000,2.000000,4.000000,4.000000,4.000000,4.000000,2.000000,4.000000,16.666666,,,,,,,,,,,,,,,,,25.000000,0.000000,0.636912,0.401428,-0.585022,0.301575,0.963008,0.162618,0.005372,-73.887817,65.375710,30.312923
1732083002.489814,1732083002.489458,101.000000,0.000000,4318.077148,4317.051270,4314.615234,4313.589844,4301.153809,4297.179688,4353.461426,4325.512695,4320.000000,4304.615234,4454.743652,4484.743652,4339.743652,4402.563965,1641.000000,0.000000,8.000000,,,,0.000000,2.000000,2.000000,0.000000,2.000000,2.000000,2.000000,0.000000,2.000000,4.000000,4.000000,4.000000,4.000000,2.000000,4.000000,16.666666,,,,,,,,,,,,,,,,,,,,,,,,,,,,
1732083002.497622,1732083002.497466,102.000000,0.000000,4319.743652,4317.948730,4315.641113,4315.897461,4301.282227,4297.051270,4355.256348,4325.897461,4318.589844,4304.615234,4451.282227,4483.717773,4335.897461,4395.000000,1372.000000,0.000000,8.000000,,,,0.000000,2.000000,2.000000,0.000000,2.000000,2.000000,2.000000,0.000000,2.000000,4.000000,4.000000,4.000000,4.000000,2.000000,4.000000,16.666666,,,,,,,,,,,,,,,,,,,,,,,,,,,,
1732083002.505430,1732083002.505275,103.000000,0.000000,4313.333496,4312.692383,4313.333496,4317.051270,4306.153809,4299.230957,4355.384766,4325.000000,4319.230957,4308.077148,4450.256348,4483.717773,4332.563965,4396.025879,1506.000000,0.000000,8.000000,,,,0.000000,2.000000,2.000000,0.000000,2.000000,2.000000,2.000000,0.000000,2.000000,4.000000,4.000000,4.000000,4.000000,2.000000,4.000000,16.666666,,,,,,,,,,,,,,,,,,,,,,,,,,,,
1732083002.513239,1732083002.513183,104.000000,0.000000,4304.102539,4303.846191,4314.871582,4312.820313,4308.205078,4305.641113,4358.205078,4330.384766,4320.769043,4304.743652,4446.282227,4480.641113,4328.205078,4391.794922,1736.000000,0.000000,8.000000,,,,0.000000,2.000000,2.000000,0.000000,2.000000,2.000000,2.000000,0.000000,2.000000,4.000000,4.000000,4.000000,4.000000,2.000000,4.000000,16.666666,,,,,,,,,,,,,,,,,26.000000,0.000000,0.634183,0.401794,-0.586975,0.303040,0.956171,0.232939,-0.032230,-73.845802,65.419327,30.278467
1732083002.521047,1732083002.520991,105.000000,0.000000,4304.102539,4307.436035,4315.641113,4308.205078,4307.179688,4306.538574,4357.563965,4337.051270,4322.436035,4300.384766,4439.358887,4478.846191,4326.282227,4386.666504,1641.000000,0.000000,8.000000,,,,0.000000,2.000000,2.000000,0.000000,2.000000,2.000000,2.000000,0.000000,2.000000,4.000000,4.000000,4.000000,4.000000,2.000000,4.000000,16.666666,,,,,,,,,,,,,,,,,,,,,,,,,,,,
1732083002.528855,1732083002.528999,106.000000,0.000000,4312.051270,4316.025879,4314.102539,4312.307617,4306.794922,4302.948730,4354.743652,4333.846191,4319.743652,4307.563965,4444.230957,4482.179688,4335.641113,4395.384766,1372.000000,0.000000,8.000000,,,,0.000000,2.000000,2.000000,0.000000,2.000000,2.000000,2.000000,0.000000,2.000000,4.000000,4.000000,4.000000,4.000000,2.000000,4.000000,16.666666,,,,,,,,,,,,,,,,,,,,,,,,,,,,
1732083002.536663,1732083002.536807,107.000000,0.000000,4312.948730,4315.512695,4313.205078,4314.358887,4303.333496,4306.025879,4358.333496,4326.794922,4314.743652,4312.820313,4449.487305,4480.128418,4341.410156,4397.307617,1506.000000,0.000000,8.000000,,,,0.000000,2.000000,2.000000,0.000000,2.000000,2.000000,2.000000,0.000000,2.000000,4.000000,4.000000,4.000000,4.000000,2.000000,4.000000,16.666666,,,,,,,,,,,,,,,,,,,,,,,,,,,,
1732083002.544472,1732083002.544515,108.000000,0.000000,4307.948730,4313.077148,4313.333496,4309.871582,4312.948730,4308.461426,4359.871582,4325.897461,4315.000000,4304.102539,4440.769043,4471.922852,4330.384766,4384.358887,1736.000000,0.000000,8.000000,,,,0.000000,2.000000,2.000000,0.000000,2.000000,2.000000,2.000000,0.000000,2.000000,4.000000,4.000000,4.000000,4.000000,2.000000,4.000000,16.666666,,,,,,,,,,,,,,,,,27.000000,0.000000,0.632264,0.403503,-0.587463,0.303833,0.950800,0.239775,-0.036137,-74.065102,65.287987,30.263891
1732083002.552280,1732083002.552324,109.000000,0.000000,4310.769043,4314.487305,4312.179688,4311.410156,4320.769043,4302.692383,4354.102539,4327.820313,4316.410156,4300.000000,4437.820313,4471.794922,4326.153809,4382.436035,1641.000000,0.000000,8.000000,,,,0.000000,2.000000,2.000000,0.000000,2.000000,2.000000,2.000000,0.000000,2.000000,4.000000,4.000000,4.000000,4.000000,2.000000,4.000000,16.666666,,,,,,,,,,,,,,,,,,,,,,,,,,,,
1732083002.560088,1732083002.560332,110.000000,0.000000,4317.307617,4316.666504,4310.128418,4319.102539,4302.179688,4297.051270,4352.436035,4325.897461,4315.641113,4308.717773,4449.871582,4478.846191,4338.461426,4394.871582,1372.000000,0.000000,8.000000,,,,0.000000,2.000000,2.000000,0.000000,2.000000,2.000000,2.000000,0.000000,2.000000,4.000000,4.000000,4.000000,4.000000,2.000000,4.000000,16.666666,,,,,,,,,,,,,,,,,,,,,,,,,,,,
1732083002.567896,1732083002.568140,111.000000,0.000000,4318.333496,4320.128418,4312.820313,4320.641113,4289.871582,4300.769043,4357.307617,4325.256348,4316.282227,4310.128418,4450.641113,4481.282227,4343.077148,4400.512695,1506.000000,0.000000,8.000000,,,,0.000000,2.000000,2.000000,0.000000,2.000000,2.000000,2.000000,0.000000,2.000000,4.000000,4.000000,4.000000,4.000000,2.000000,4.000000,16.666666,,,,,,,,,,,,,,,,,,,,,,,,,,,,
1732083002.575705,1732083002.576048,112.000000,0.000000,4317.692383,4319.230957,4312.436035,4318.333496,4303.589844,4303.846191,4355.897461,4327.051270,4316.538574,4302.179688,4442.948730,4473.461426,4338.333496,4392.563965,1736.000000,0.000000,8.000000,,,,0.000000,2.000000,2.000000,0.000000,2.000000,2.000000,2.000000,0.000000,2.000000,4.000000,4.000000,4.000000,4.000000,2.000000,4.000000,16.666666,,,,,,,,,,,,,,,,,28.000000,0.000000,0.631295,0.404480,-0.587708,0.304077,0.965450,0.238799,-0.059578,-74.104401,64.959938,30.200418
1732083002.583513,1732083002.583856,113.000000,0.000000,4317.051270,4310.897461,4313.077148,4315.769043,4305.641113,4301.025879,4358.461426,4327.563965,4313.589844,4298.333496,4442.820313,4465.384766,4334.230957,4383.846191,1641.000000,0.000000,8.000000,,,,0.000000,2.000000,2.000000,0.000000,2.000000,2.000000,2.000000,0.000000,2.000000,4.000000,4.000000,4.000000,4.000000,2.000000,4.000000,16.666666,,,,,,,,,,,,,,,,,,,,,,,,,,,,
1732083002.591321,1732083002.591864,114.000000,0.000000,4313.589844,4305.512695,4312.948730,4313.846191,4294.487305,4302.820313,4361.666504,4330.128418,4316.410156,4302.179688,4443.846191,4465.384766,4331.538574,4386.153809,1372.000000,0.000000,8.000000,,,,0.000000,2.000000,2.000000,0.000000,2.000000,2.000000,2.000000,0.000000,2.000000,4.000000,4.000000,4.000000,4.000000,2.000000,4.000000,16.666666,,,,,,,,,,,,,,,,,,,,,,,,,,,,
1732083002.599130,1732083002.599672,115.000000,0.000000,4312.436035,4306.282227,4322.051270,4315.769043,4298.846191,4307.820313,4364.102539,4337.563965,4323.589844,4305.769043,4443.333496,4470.769043,4332.692383,4391.025879,1506.000000,0.000000,8.000000,,,,0.000000,2.000000,2.000000,0.000000,2.000000,2.000000,2.000000,0.000000,2.000000,4.000000,4.000000,4.000000,4.000000,2.000000,4.000000,16.666666,,,,,,,,,,,,,,,,,,,,,,,,,,,,
1732083002.606938,1732083002.607580,116.000000,0.000000,4315.000000,4308.333496,4326.410156,4317.563965,4304.230957,4310.769043,4367.051270,4344.230957,4326.282227,4306.153809,4445.256348,4474.743652,4336.794922,4391.282227,1736.000000,0.000000,8.000000,,,,0.000000,2.000000,2.000000,0.000000,2.000000,2.000000,2.000000,0.000000,2.000000,4.000000,4.000000,4.000000,4.000000,2.000000,4.000000,16.666666,,,,,,,,,,,,,,,,,29.000000,0.000000,0.628809,0.406494,-0.588318,0.305359,0.965450,0.203638,-0.044927,-73.957893,64.935883,29.940674
1732083002.614746,1732083002.615389,117.000000,0.000000,4315.641113,4308.333496,4326.794922,4316.153809,4299.871582,4308.461426,4370.000000,4338.717773,4322.307617,4304.743652,4446.794922,4476.282227,4339.358887,4394.358887,1641.000000,0.000000,8.000000,,,,0.000000,2.000000,2.000000,0.000000,2.000000,2.000000,2.000000,0.000000,2.000000,4.000000,4.000000,4.000000,4.000000,2.000000,4.000000,16.666666,,,,,,,,,,,,,,,,,,,,,,,,,,,,
1732083002.622554,1732083002.623397,118.000000,0.000000,4316.538574,4311.538574,4323.589844,4318.077148,4300.897461,4302.948730,4364.358887,4326.153809,4317.179688,4307.948730,4447.179688,4478.589844,4341.794922,4400.384766,1372.000000,0.000000,8.000000,,,,0.000000,2.000000,2.000000,0.000000,2.000000,2.000000,2.000000,0.000000,2.000000,4.000000,4.000000,4.000000,4.000000,2.000000,4.000000,16.666666,,,,,,,,,,,,,,,,,,,,,,,,,,,,
1732083002.630363,1732083002.631205,119.000000,0.000000,4316.538574,4314.743652,4320.641113,4317.692383,4302.948730,4302.948730,4360.128418,4328.717773,4321.025879,4308.846191,4447.563965,4478.717773,4339.230957,4397.179688,1506.000000,0.000000,8.000000,,,,0.000000,2.000000,2.000000,0.000000,2.000000,2.000000,2.000000,0.000000,2.000000,4.000000,4.000000,4.000000,4.000000,2.000000,4.000000,16.666666,,,,,,,,,,,,,,,,,,,,,,,,,,,,
1732083002.638171,1732083002.639113,120.000000,0.000000,4316.410156,4313.461426,4317.051270,4313.846191,4299.615234,4307.948730,4360.769043,4339.871582,4325.256348,4303.333496,4447.820313,4476.153809,4337.692383,4395.897461,1736.000000,0.000000,8.000000,,,,0.000000,2.000000,2.000000,0.000000,2.000000,2.000000,2.000000,0.000000,2.000000,4.000000,4.000000,4.000000,4.000000,2.000000,4.000000,16.666666,,,,,,,,,,,,,,,,,30.000000,0.000000,0.623826,0.405273,-0.591675,0.310669,0.974240,0.118178,-0.014162,-73.905891,64.899727,29.796946
1732083002.645979,1732083002.646921,121.000000,0.000000,4318.077148,4312.692383,4315.512695,4315.769043,4296.666504,4304.102539,4360.897461,4329.615234,4319.615234,4305.769043,4450.000000,4474.487305,4346.153809,4407.436035,1641.000000,0.000000,8.000000,,,,0.000000,2.000000,2.000000,0.000000,2.000000,2.000000,2.000000,0.000000,2.000000,4.000000,4.000000,4.000000,4.000000,2.000000,4.000000,16.666666,,,,,,,,,,,,,,,,,,,,,,,,,,,,
1732083002.653787,1732083002.654929,122.000000,0.000000,4321.538574,4313.205078,4317.436035,4317.820313,4300.384766,4296.922852,4359.487305,4310.769043,4313.205078,4313.333496,4454.743652,4474.230957,4350.000000,4413.846191,1372.000000,0.000000,8.000000,,,,0.000000,2.000000,2.000000,0.000000,2.000000,2.000000,2.000000,0.000000,2.000000,4.000000,4.000000,4.000000,4.000000,2.000000,4.000000,16.666666,,,,,,,,,,,,,,,,,,,,,,,,,,,,
1732083002.661596,1732083002.662737,123.000000,0.000000,4325.000000,4313.077148,4313.974121,4315.000000,4304.230957,4300.897461,4356.538574,4314.230957,4316.666504,4312.820313,4453.717773,4471.794922,4348.205078,4409.487305,1506.000000,0.000000,8.000000,,,,0.000000,2.000000,2.000000,0.000000,2.000000,2.000000,2.000000,0.000000,2.000000,4.000000,4.000000,4.000000,4.000000,2.000000,4.000000,16.666666,,,,,,,,,,,,,,,,,,,,,,,,,,,,
1732083002.669404,1732083002.670646,124.000000,0.000000,4327.051270,4310.769043,4313.205078,4312.436035,4301.153809,4301.410156,4352.692383,4325.256348,4321.922852,4307.563965,4448.717773,4471.794922,4350.641113,4409.615234,1736.000000,0.000000,8.000000,,,,0.000000,2.000000,2.000000,0.000000,2.000000,2.000000,2.000000,0.000000,2.000000,4.000000,4.000000,4.000000,4.000000,2.000000,4.000000,16.666666,,,,,,,,,,,,,,,,,31.000000,0.000000,0.619435,0.400574,-0.596008,0.317200,0.965938,0.107923,-0.016604,-73.973778,64.822113,29.573858
1732083002.677212,1732083002.678454,125.000000,0.000000,4327.563965,4312.436035,4310.000000,4314.230957,4299.358887,4295.512695,4350.512695,4323.077148,4323.589844,4309.487305,4452.948730,4476.282227,4352.307617,4417.820313,1641.000000,0.000000,8.000000,,,,0.000000,2.000000,2.000000,0.000000,2.000000,2.000000,2.000000,0.000000,2.000000,4.000000,4.000000,4.000000,4.000000,2.000000,4.000000,16.666666,,,,,,,,,,,,,,,,,,,,,,,,,,,,
1732083002.685021,1732083002.686062,126.000000,0.000000,4329.743652,4312.179688,4311.025879,4316.282227,4301.410156,4297.307617,4354.743652,4321.538574,4325.641113,4314.358887,4462.179688,4482.692383,4354.743652,4422.692383,1372.000000,0.000000,8.000000,,,,0.000000,2.000000,2.000000,0.000000,2.000000,2.000000,2.000000,0.000000,2.000000,4.000000,4.000000,4.000000,4.000000,2.000000,4.000000,16.666666,,,,,,,,,,,,,,,,,,,,,,,,,,,,
1732083002.692829,1732083002.693870,127.000000,0.000000,4342.307617,4311.666504,4310.384766,4320.256348,4299.230957,4300.256348,4353.205078,4333.461426,4329.743652,4313.846191,4463.077148,4485.512695,4361.410156,4425.512695,8.000000,0.000000,8.000000,,,,0.000000,2.000000,2.000000,0.000000,2.000000,2.000000,2.000000,0.000000,2.000000,4.000000,4.000000,4.000000,4.000000,2.000000,4.000000,16.666666,,,,,,,,,,,,,,,,,,,,,,,,,,,,
1732083002.700637,1732083002.701579,0.000000,0.000000,4355.769043,4318.846191,4315.897461,4327.436035,4294.615234,4294.743652,4349.615234,4339.230957,4329.102539,4306.922852,4459.230957,4486.025879,4360.256348,4429.615234,0.000000,0.000000,8.000000,,,,0.000000,2.000000,2.000000,0.000000,2.000000,2.000000,2.000000,0.000000,2.000000,4.000000,4.000000,4.000000,4.000000,2.000000,4.000000,16.666666,,,,,,,,,,,,,,,,,0.000000,0.000000,0.619435,0.400574,-0.596008,0.317200,0.966915,0.101087,-0.007813,-74.178757,64.549248,29.378159
1732083002.708445,1732083002.709387,1.000000,0.000000,4359.615234,4324.358887,4313.846191,4330.769043,4301.538574,4291.538574,4348.974121,4325.641113,4322.307617,4303.333496,4459.358887,4482.692383,4358.077148,4435.512695,1307.000000,0.000000,8.000000,,,,0.000000,2.000000,2.000000,0.000000,2.000000,2.000000,2.000000,0.000000,2.000000,4.000000,4.000000,4.000000,4.000000,2.000000,4.000000,16.666666,,,,,,,,,,,,,,,,,,,,,,,,,,,,
1732083002.716254,1732083002.716995,2.000000,0.000000,4363.205078,4321.025879,4312.948730,4325.128418,4305.256348,4290.384766,4349.230957,4313.846191,4317.436035,4305.641113,4462.820313,4483.205078,4364.743652,4442.051270,1229.000000,0.000000,8.000000,,,,0.000000,2.000000,2.000000,0.000000,2.000000,2.000000,2.000000,0.000000,2.000000,4.000000,4.000000,4.000000,4.000000,2.000000,4.000000,16.666666,,,,,,,,,,,,,,,,,,,,,,,,,,,,
1732083002.724062,1732083002.724803,3.000000,0.000000,4374.871582,4321.922852,4313.846191,4324.615234,4296.153809,4287.692383,4343.974121,4317.436035,4316.922852,4305.128418,4468.846191,4489.487305,4370.128418,4443.589844,1182.000000,0.000000,8.000000,,,,0.000000,2.000000,2.000000,0.000000,2.000000,2.000000,2.000000,0.000000,2.000000,4.000000,4.000000,4.000000,4.000000,2.000000,4.000000,16.666666,,,,,,,,,,,,,,,,,,,,,,,,,,,,
1732083002.731870,1732083002.732512,4.000000,0.000000,4381.922852,4327.820313,4315.641113,4329.102539,4292.179688,4289.230957,4346.794922,4321.282227,4315.512695,4299.358887,4471.794922,4493.333496,4371.410156,4445.512695,1197.000000,0.000000,8.000000,,,,0.000000,2.000000,2.000000,0.000000,2.000000,2.000000,2.000000,0.000000,2.000000,4.000000,4.000000,4.000000,4.000000,2.000000,4.000000,16.666666,,,,,,,,,,,,,,,,,1.000000,0.000000,0.613606,0.393982,-0.601563,0.326172,0.956660,0.057624,0.002930,-74.618126,64.104889,28.817976
1732083002.739679,1732083002.740320,5.000000,0.000000,4381.794922,4325.384766,4313.077148,4325.769043,4293.717773,4291.025879,4351.025879,4318.205078,4315.641113,4298.589844,4469.871582,4488.846191,4372.179688,4452.179688,1082.000000,0.000000,8.000000,,,,0.000000,2.000000,2.000000,0.000000,2.000000,2.000000,2.000000,0.000000,2.000000,4.000000,4.000000,4.000000,4.000000,2.000000,4.000000,16.666666,,,,,,,,,,,,,,,,,,,,,,,,,,,,
1732083002.747487,1732083002.747928,6.000000,0.000000,4382.820313,4319.743652,4311.538574,4317.948730,4288.717773,4285.897461,4346.153809,4318.717773,4317.692383,4301.410156,4467.051270,4483.974121,4369.230957,4453.717773,40.000000,0.000000,8.000000,,,,0.000000,2.000000,2.000000,0.000000,2.000000,2.000000,2.000000,0.000000,2.000000,4.000000,4.000000,4.000000,4.000000,2.000000,4.000000,16.666666,,,,,,,,,,,,,,,,,,,,,,,,,,,,
1732083002.755295,1732083002.755737,7.000000,0.000000,4388.461426,4325.512695,4315.256348,4320.256348,4287.436035,4280.512695,4341.538574,4318.717773,4317.179688,4297.820313,4467.179688,4488.974121,4368.717773,4454.487305,1189.000000,0.000000,8.000000,,,,0.000000,2.000000,2.000000,0.000000,2.000000,2.000000,2.000000,0.000000,2.000000,4.000000,4.000000,4.000000,4.000000,2.000000,4.000000,16.666666,,,,,,,,,,,,,,,,,,,,,,,,,,,,
1732083002.763103,1732083002.763445,8.000000,0.000000,4396.666504,4331.666504,4313.846191,4326.025879,4292.307617,4279.871582,4344.358887,4318.717773,4315.512695,4294.487305,4473.077148,4498.333496,4375.897461,4463.974121,1357.000000,0.000000,8.000000,,,,0.000000,2.000000,2.000000,0.000000,2.000000,2.000000,2.000000,0.000000,2.000000,4.000000,4.000000,4.000000,4.000000,2.000000,4.000000,16.666666,,,,,,,,,,,,,,,,,2.000000,0.000000,0.610251,0.389954,-0.604187,0.332397,0.934684,0.020510,-0.015139,-74.944016,63.594959,28.525894
1732083002.770912,1732083002.771253,9.000000,0.000000,4399.615234,4331.410156,4309.487305,4325.000000,4291.794922,4283.077148,4347.948730,4325.000000,4316.538574,4296.538574,4475.769043,4500.769043,4379.487305,4467.948730,1506.000000,0.000000,8.000000,,,,0.000000,2.000000,2.000000,0.000000,2.000000,2.000000,2.000000,0.000000,2.000000,4.000000,4.000000,4.000000,4.000000,2.000000,4.000000,16.666666,,,,,,,,,,,,,,,,,,,,,,,,,,,,
1732083002.778720,1732083002.778862,10.000000,0.000000,4398.205078,4332.563965,4305.384766,4325.512695,4295.256348,4286.282227,4347.307617,4326.282227,4317.179688,4295.128418,4473.333496,4495.256348,4375.512695,4463.974121,1374.000000,0.000000,8.000000,,,,0.000000,2.000000,2.000000,0.000000,2.000000,2.000000,2.000000,0.000000,2.000000,4.000000,4.000000,4.000000,4.000000,2.000000,4.000000,16.666666,,,,,,,,,,,,,,,,,,,,,,,,,,,,
1732083002.786528,1732083002.786670,11.000000,0.000000,4397.820313,4333.974121,4309.102539,4326.794922,4297.692383,4283.717773,4345.769043,4319.743652,4314.230957,4290.897461,4474.487305,4495.512695,4374.487305,4467.820313,1506.000000,0.000000,8.000000,,,,0.000000,2.000000,2.000000,0.000000,2.000000,2.000000,2.000000,0.000000,2.000000,4.000000,4.000000,4.000000,4.000000,2.000000,4.000000,16.666666,,,,,,,,,,,,,,,,,,,,,,,,,,,,
1732083002.794336,1732083002.794378,12.000000,0.000000,4400.256348,4332.179688,4306.538574,4323.205078,4294.743652,4282.179688,4344.615234,4320.256348,4313.974121,4295.897461,4478.846191,4500.512695,4380.641113,4477.179688,1733.000000,0.000000,8.000000,,,,0.000000,2.000000,2.000000,0.000000,2.000000,2.000000,2.000000,0.000000,2.000000,4.000000,4.000000,4.000000,4.000000,2.000000,4.000000,16.666666,,,,,,,,,,,,,,,,,3.000000,0.000000,0.609502,0.388916,-0.604736,0.333984,0.934684,0.020510,-0.015139,-75.397987,63.196918,28.520973
1732083002.802145,1732083002.802186,13.000000,0.000000,4399.358887,4328.333496,4309.102539,4315.897461,4305.384766,4280.128418,4345.512695,4327.307617,4319.871582,4298.589844,4480.512695,4505.256348,4384.230957,4478.333496,1636.000000,0.000000,8.000000,,,,0.000000,2.000000,2.000000,0.000000,2.000000,2.000000,2.000000,0.000000,2.000000,4.000000,4.000000,4.000000,4.000000,2.000000,4.000000,16.666666,,,,,,,,,,,,,,,,,,,,,,,,,,,,
1732083002.809953,1732083002.810194,14.000000,0.000000,4396.794922,4329.102539,4310.256348,4318.333496,4309.743652,4280.512695,4344.871582,4328.333496,4323.333496,4294.615234,4481.025879,4504.871582,4381.025879,4474.358887,1374.000000,0.000000,8.000000,,,,0.000000,2.000000,2.000000,0.000000,2.000000,2.000000,2.000000,0.000000,2.000000,4.000000,4.000000,4.000000,4.000000,2.000000,4.000000,16.666666,1.000000,16.666666,2.000000,2.000000,0.000000,2.000000,2.000000,2.000000,0.000000,2.000000,3.000000,3.000000,4.000000,4.000000,2.000000,4.000000,,,,,,,,,,,,
1732083002.817761,1732083002.818003,15.000000,0.000000,4400.769043,4332.307617,4312.179688,4326.794922,4291.666504,4282.436035,4344.230957,4323.461426,4318.461426,4293.589844,4479.487305,4504.102539,4380.128418,4475.000000,1506.000000,0.000000,8.000000,,,,0.000000,2.000000,2.000000,0.000000,2.000000,2.000000,2.000000,0.000000,2.000000,4.000000,4.000000,4.000000,4.000000,2.000000,4.000000,16.666666,,,,,,,,,,,,,,,,,,,,,,,,,,,,
1732083002.825569,1732083002.825911,16.000000,0.000000,4408.717773,4331.794922,4312.051270,4328.461426,4284.615234,4282.948730,4342.307617,4326.410156,4317.563965,4296.410156,4479.230957,4506.794922,4382.692383,4479.615234,0.000000,0.000000,8.000000,,,,0.000000,2.000000,2.000000,0.000000,2.000000,2.000000,2.000000,0.000000,2.000000,4.000000,4.000000,4.000000,4.000000,2.000000,4.000000,16.666666,,,,,,,,,,,,,,,,,4.000000,0.000000,0.608822,0.388245,-0.605042,0.335449,0.989379,0.037602,-0.006837,-76.050705,62.589504,28.485323
1732083002.833378,1732083002.833719,17.000000,0.000000,4409.615234,4330.256348,4315.769043,4324.615234,4294.358887,4281.410156,4341.538574,4327.692383,4322.051270,4298.461426,4478.717773,4509.102539,4377.436035,4479.743652,0.000000,0.000000,8.000000,,,,0.000000,2.000000,2.000000,0.000000,2.000000,2.000000,2.000000,0.000000,2.000000,4.000000,4.000000,4.000000,4.000000,2.000000,4.000000,16.666666,,,,,,,,,,,,,,,,,,,,,,,,,,,,
1732083002.841186,1732083002.841727,18.000000,0.000000,4406.025879,4332.051270,4315.128418,4323.333496,4295.128418,4279.743652,4339.743652,4320.384766,4321.538574,4299.487305,4475.128418,4507.179688,4374.871582,4476.025879,0.000000,0.000000,8.000000,,,,0.000000,2.000000,2.000000,0.000000,2.000000,2.000000,2.000000,0.000000,2.000000,4.000000,4.000000,4.000000,4.000000,2.000000,4.000000,16.666666,,,,,,,,,,,,,,,,,,,,,,,,,,,,
1732083002.848994,1732083002.849535,19.000000,0.000000,4407.051270,4335.769043,4314.743652,4324.358887,4289.743652,4281.282227,4344.358887,4320.384766,4318.589844,4300.512695,4473.717773,4503.974121,4380.000000,4474.358887,0.000000,0.000000,8.000000,,,,0.000000,2.000000,2.000000,0.000000,2.000000,2.000000,2.000000,0.000000,2.000000,4.000000,4.000000,4.000000,4.000000,2.000000,4.000000,16.666666,,,,,,,,,,,,,,,,,,,,,,,,,,,,
1732083002.856802,1732083002.857243,20.000000,0.000000,4408.717773,4337.051270,4316.410156,4325.384766,4292.563965,4282.307617,4345.000000,4322.051270,4318.717773,4300.769043,4475.769043,4502.692383,4380.256348,4474.743652,0.000000,0.000000,8.000000,,,,0.000000,2.000000,2.000000,0.000000,2.000000,2.000000,2.000000,0.000000,2.000000,4.000000,4.000000,4.000000,4.000000,2.000000,4.000000,16.666666,,,,,,,,,,,,,,,,,5.000000,0.000000,0.604738,0.387329,-0.606995,0.340332,1.001587,0.008302,-0.041021,-76.471069,61.984165,28.086445
1732083002.864611,1732083002.865052,21.000000,0.000000,4405.512695,4333.717773,4314.615234,4326.410156,4297.307617,4283.461426,4341.538574,4316.153809,4317.307617,4302.820313,4477.948730,4502.307617,4378.846191,4473.974121,0.000000,0.000000,8.000000,,,,0.000000,2.000000,2.000000,0.000000,2.000000,2.000000,2.000000,0.000000,2.000000,4.000000,4.000000,4.000000,4.000000,2.000000,4.000000,16.666666,,,,,,,,,,,,,,,,,,,,,,,,,,,,
1732083002.872419,1732083002.872660,22.000000,0.000000,4403.205078,4331.282227,4315.384766,4325.128418,4292.436035,4284.871582,4341.666504,4316.538574,4315.897461,4305.384766,4478.077148,4505.384766,4380.512695,4472.948730,0.000000,0.000000,8.000000,,,,0.000000,2.000000,2.000000,0.000000,2.000000,2.000000,2.000000,0.000000,2.000000,4.000000,4.000000,4.000000,4.000000,2.000000,4.000000,16.666666,,,,,,,,,,,,,,,,,,,,,,,,,,,,
1732083002.880227,1732083002.880468,23.000000,0.000000,4402.692383,4332.179688,4317.692383,4324.102539,4290.000000,4284.743652,4344.358887,4318.974121,4314.871582,4302.820313,4475.897461,4505.384766,4375.384766,4473.333496,0.000000,0.000000,8.000000,,,,0.000000,2.000000,2.000000,0.000000,2.000000,2.000000,2.000000,0.000000,2.000000,4.000000,4.000000,4.000000,4.000000,2.000000,4.000000,16.666666,,,,,,,,,,,,,,,,,,,,,,,,,,,,
1732083002.888035,1732083002.888376,24.000000,0.000000,4402.948730,4334.102539,4317.179688,4327.051270,4307.436035,4284.871582,4340.897461,4310.769043,4310.128418,4298.974121,4473.461426,4500.256348,4372.692383,4474.102539,0.000000,0.000000,8.000000,,,,0.000000,2.000000,2.000000,0.000000,2.000000,2.000000,2.000000,0.000000,2.000000,4.000000,4.000000,4.000000,4.000000,2.000000,4.000000,16.666666,,,,,,,,,,,,,,,,,6.000000,0.000000,0.603293,0.387329,-0.607849,0.341370,1.001587,0.008302,-0.041021,-76.873230,61.382172,27.675020
1732083002.895844,1732083002.896184,25.000000,0.000000,4400.769043,4331.666504,4316.282227,4327.436035,4309.487305,4288.717773,4340.897461,4313.077148,4309.487305,4301.282227,4475.128418,4500.384766,4382.051270,4475.128418,0.000000,0.000000,8.000000,,,,0.000000,2.000000,2.000000,0.000000,2.000000,2.000000,2.000000,0.000000,2.000000,4.000000,4.000000,4.000000,4.000000,2.000000,4.000000,16.666666,,,,,,,,,,,,,,,,,,,,,,,,,,,,
1732083002.903652,1732083002.904192,26.000000,0.000000,4398.205078,4330.641113,4321.410156,4326.538574,4285.000000,4288.846191,4347.307617,4323.333496,4315.512695,4310.256348,4481.538574,4506.538574,4385.769043,4476.666504,0.000000,0.000000,8.000000,,,,0.000000,2.000000,2.000000,0.000000,2.000000,2.000000,2.000000,0.000000,2.000000,4.000000,4.000000,4.000000,4.000000,2.000000,4.000000,16.666666,,,,,,,,,,,,,,,,,,,,,,,,,,,,
1732083002.911460,1732083002.912001,27.000000,0.000000,4398.205078,4333.589844,4322.563965,4330.384766,4284.871582,4281.538574,4348.077148,4316.410156,4316.025879,4316.153809,4485.641113,4508.717773,4381.282227,4477.051270,0.000000,0.000000,8.000000,,,,0.000000,2.000000,2.000000,0.000000,2.000000,2.000000,2.000000,0.000000,2.000000,4.000000,4.000000,4.000000,4.000000,2.000000,4.000000,16.666666,,,,,,,,,,,,,,,,,,,,,,,,,,,,
1732083002.919268,1732083002.919909,28.000000,0.000000,4395.000000,4332.692383,4321.538574,4330.769043,4300.897461,4281.282227,4345.384766,4310.897461,4313.461426,4310.512695,4484.615234,4512.563965,4382.563965,4474.615234,0.000000,0.000000,8.000000,,,,0.000000,2.000000,2.000000,0.000000,2.000000,2.000000,2.000000,0.000000,2.000000,4.000000,4.000000,4.000000,4.000000,2.000000,4.000000,16.666666,,,,,,,,,,,,,,,,,7.000000,0.000000,0.599468,0.386963,-0.610657,0.343506,0.963497,0.013674,-0.037114,-76.675652,60.739559,27.230099
1732083002.927077,1732083002.927717,29.000000,0.000000,4392.179688,4332.563965,4321.794922,4324.871582,4296.922852,4287.948730,4342.563965,4319.102539,4320.000000,4305.000000,4481.282227,4523.717773,4386.282227,4473.461426,0.000000,0.000000,8.000000,,,,0.000000,2.000000,2.000000,0.000000,2.000000,2.000000,2.000000,0.000000,2.000000,4.000000,4.000000,4.000000,4.000000,2.000000,4.000000,16.666666,,,,,,,,,,,,,,,,,,,,,,,,,,,,
1732083002.934885,1732083002.935725,30.000000,0.000000,4389.230957,4333.461426,4323.077148,4320.897461,4290.384766,4288.974121,4344.615234,4323.077148,4323.717773,4308.846191,4481.794922,4524.871582,4384.358887,4475.769043,0.000000,0.000000,8.000000,,,,0.000000,2.000000,2.000000,0.000000,2.000000,2.000000,2.000000,0.000000,2.000000,4.000000,4.000000,4.000000,4.000000,2.000000,4.000000,16.666666,,,,,,,,,,,,,,,,,,,,,,,,,,,,
1732083002.942693,1732083002.943533,31.000000,0.000000,4382.436035,4331.153809,4319.871582,4323.589844,4297.436035,4289.487305,4345.897461,4321.794922,4320.769043,4309.358887,4480.897461,4510.512695,4380.256348,4470.000000,0.000000,0.000000,8.000000,,,,0.000000,2.000000,2.000000,0.000000,2.000000,2.000000,2.000000,0.000000,2.000000,4.000000,4.000000,4.000000,4.000000,2.000000,4.000000,16.666666,,,,,,,,,,,,,,,,,,,,,,,,,,,,
1732083002.950502,1732083002.951441,32.000000,0.000000,4377.820313,4327.948730,4321.282227,4325.512695,4297.692383,4294.871582,4343.974121,4324.230957,4323.077148,4303.205078,4478.461426,4504.358887,4381.282227,4463.717773,0.000000,0.000000,8.000000,,,,0.000000,2.000000,2.000000,0.000000,2.000000,2.000000,2.000000,0.000000,2.000000,4.000000,4.000000,4.000000,4.000000,2.000000,4.000000,16.666666,,,,,,,,,,,,,,,,,8.000000,0.000000,0.596092,0.385925,-0.613647,0.345215,1.001587,0.060554,-0.061531,-77.010612,60.040710,27.048048
1732083002.958310,1732083002.959250,33.000000,0.000000,4382.179688,4329.102539,4323.077148,4322.948730,4292.436035,4294.102539,4340.384766,4319.871582,4327.179688,4308.333496,4480.000000,4508.846191,4387.436035,4470.256348,0.000000,0.000000,8.000000,,,,0.000000,2.000000,2.000000,0.000000,2.000000,2.000000,2.000000,0.000000,2.000000,4.000000,4.000000,4.000000,4.000000,2.000000,4.000000,16.666666,,,,,,,,,,,,,,,,,,,,,,,,,,,,
1732083002.966118,1732083002.967258,34.000000,0.000000,4384.230957,4330.128418,4322.692383,4321.922852,4299.743652,4285.897461,4342.692383,4313.846191,4323.077148,4312.820313,4478.717773,4507.820313,4384.615234,4473.461426,0.000000,0.000000,8.000000,,,,0.000000,2.000000,2.000000,0.000000,2.000000,2.000000,2.000000,0.000000,2.000000,4.000000,4.000000,4.000000,4.000000,2.000000,4.000000,16.666666,,,,,,,,,,,,,,,,,,,,,,,,,,,,
1732083002.973926,1732083002.975066,35.000000,0.000000,4378.846191,4327.948730,4321.538574,4323.077148,4308.589844,4286.666504,4343.589844,4316.794922,4318.589844,4307.563965,4475.000000,4505.512695,4377.563965,4465.769043,0.000000,0.000000,8.000000,,,,0.000000,2.000000,2.000000,0.000000,2.000000,2.000000,2.000000,0.000000,2.000000,4.000000,4.000000,4.000000,4.000000,2.000000,4.000000,16.666666,,,,,,,,,,,,,,,,,,,,,,,,,,,,
1732083002.981735,1732083002.982974,36.000000,0.000000,4375.128418,4326.538574,4326.410156,4321.666504,4299.487305,4296.666504,4346.282227,4321.282227,4322.051270,4309.102539,4475.641113,4509.358887,4379.871582,4462.692383,0.000000,0.000000,8.000000,,,,0.000000,2.000000,2.000000,0.000000,2.000000,2.000000,2.000000,0.000000,2.000000,4.000000,4.000000,4.000000,4.000000,2.000000,4.000000,16.666666,,,,,,,,,,,,,,,,,9.000000,0.000000,0.594894,0.386292,-0.614441,0.345459,0.995239,0.067879,-0.080088,-77.206932,59.499641,26.825584
1732083002.989543,1732083002.990782,37.000000,0.000000,4373.333496,4324.615234,4330.256348,4320.641113,4288.846191,4299.871582,4348.461426,4324.102539,4323.461426,4313.333496,4477.563965,4512.436035,4381.922852,4465.512695,0.000000,0.000000,8.000000,,,,0.000000,2.000000,2.000000,0.000000,2.000000,2.000000,2.000000,0.000000,2.000000,4.000000,4.000000,4.000000,4.000000,2.000000,4.000000,16.666666,,,,,,,,,,,,,,,,,,,,,,,,,,,,
1732083002.997351,1732083002.998790,38.000000,0.000000,4371.538574,4325.256348,4327.692383,4323.077148,4298.974121,4295.641113,4347.948730,4327.051270,4321.025879,4309.102539,4474.743652,4509.743652,4380.641113,4462.563965,0.000000,0.000000,8.000000,,,,0.000000,2.000000,2.000000,0.000000,2.000000,2.000000,2.000000,0.000000,2.000000,4.000000,4.000000,4.000000,4.000000,2.000000,4.000000,16.666666,,,,,,,,,,,,,,,,,,,,,,,,,,,,
1732083003.005160,1732083003.006598,39.000000,0.000000,4373.077148,4326.794922,4325.512695,4324.230957,4301.282227,4297.179688,4347.820313,4328.461426,4322.692383,4310.384766,4474.743652,4507.820313,4382.692383,4459.871582,0.000000,0.000000,8.000000,,,,0.000000,2.000000,2.000000,0.000000,2.000000,2.000000,2.000000,0.000000,2.000000,4.000000,4.000000,4.000000,4.000000,2.000000,4.000000,16.666666,,,,,,,,,,,,,,,,,,,,,,,,,,,,
1732083003.012968,1732083003.014307,40.000000,0.000000,4370.769043,4326.282227,4329.615234,4323.846191,4296.538574,4298.077148,4348.077148,4324.102539,4323.589844,4317.563965,4479.487305,4506.794922,4380.384766,4463.077148,0.000000,0.000000,8.000000,,,,0.000000,2.000000,2.000000,0.000000,2.000000,2.000000,2.000000,0.000000,2.000000,4.000000,4.000000,4.000000,4.000000,2.000000,4.000000,16.666666,,,,,,,,,,,,,,,,,10.000000,0.000000,0.594095,0.386902,-0.614624,0.345825,0.998657,0.062019,-0.080576,-77.705948,59.119709,26.637056
1732083003.020776,1732083003.022115,41.000000,0.000000,4363.333496,4325.384766,4333.077148,4323.717773,4307.307617,4297.307617,4345.769043,4323.461426,4319.743652,4314.358887,4476.794922,4506.025879,4376.282227,4462.179688,0.000000,0.000000,8.000000,,,,0.000000,2.000000,2.000000,0.000000,2.000000,2.000000,2.000000,0.000000,2.000000,4.000000,4.000000,4.000000,4.000000,2.000000,4.000000,16.666666,,,,,,,,,,,,,,,,,,,,,,,,,,,,
1732083003.028584,1732083003.029723,42.000000,0.000000,4362.051270,4321.922852,4331.666504,4321.153809,4305.769043,4301.282227,4347.692383,4326.922852,4317.436035,4309.358887,4475.256348,4505.769043,4380.000000,4461.153809,0.000000,0.000000,8.000000,,,,0.000000,2.000000,2.000000,0.000000,2.000000,2.000000,2.000000,0.000000,2.000000,4.000000,4.000000,4.000000,4.000000,2.000000,4.000000,16.666666,,,,,,,,,,,,,,,,,,,,,,,,,,,,
1732083003.036393,1732083003.037531,43.000000,0.000000,4362.692383,4316.794922,4331.153809,4316.025879,4288.333496,4301.153809,4350.769043,4329.743652,4321.666504,4311.410156,4478.846191,4507.307617,4379.743652,4460.641113,0.000000,0.000000,8.000000,,,,0.000000,2.000000,2.000000,0.000000,2.000000,2.000000,2.000000,0.000000,2.000000,4.000000,4.000000,4.000000,4.000000,2.000000,4.000000,16.666666,,,,,,,,,,,,,,,,,,,,,,,,,,,,
1732083003.044201,1732083003.045240,44.000000,0.000000,4356.794922,4313.846191,4331.922852,4312.179688,4287.563965,4297.051270,4350.384766,4329.871582,4323.717773,4314.615234,4471.666504,4507.051270,4369.358887,4453.333496,0.000000,0.000000,8.000000,,,,0.000000,2.000000,2.000000,0.000000,2.000000,2.000000,2.000000,0.000000,2.000000,4.000000,4.000000,4.000000,4.000000,2.000000,4.000000,16.666666,,,,,,,,,,,,,,,,,11.000000,0.000000,0.592567,0.388062,-0.614990,0.346497,1.005005,0.056648,-0.085460,-77.658485,58.818630,26.349350
1732083003.052009,1732083003.053048,45.000000,0.000000,4355.384766,4313.974121,4332.307617,4314.102539,4301.025879,4297.563965,4353.077148,4326.282227,4321.538574,4313.717773,4461.282227,4504.871582,4366.153809,4446.922852,0.000000,0.000000,8.000000,,,,0.000000,2.000000,2.000000,0.000000,2.000000,2.000000,2.000000,0.000000,2.000000,4.000000,4.000000,4.000000,4.000000,2.000000,4.000000,16.666666,,,,,,,,,,,,,,,,,,,,,,,,,,,,
1732083003.059817,1732083003.060656,46.000000,0.000000,4362.307617,4315.512695,4331.282227,4318.077148,4295.512695,4299.230957,4351.794922,4326.410156,4321.922852,4311.666504,4467.948730,4507.563965,4371.410156,4454.230957,0.000000,0.000000,8.000000,,,,0.000000,2.000000,2.000000,0.000000,2.000000,2.000000,2.000000,0.000000,2.000000,4.000000,4.000000,4.000000,4.000000,2.000000,4.000000,16.666666,,,,,,,,,,,,,,,,,,,,,,,,,,,,
1732083003.067626,1732083003.068465,47.000000,0.000000,4363.077148,4315.512695,4329.230957,4317.436035,4284.743652,4295.000000,4344.358887,4325.384766,4321.666504,4313.205078,4477.820313,4511.025879,4379.230957,4462.692383,0.000000,0.000000,8.000000,,,,0.000000,2.000000,2.000000,0.000000,2.000000,2.000000,2.000000,0.000000,2.000000,4.000000,4.000000,4.000000,4.000000,2.000000,4.000000,16.666666,,,,,,,,,,,,,,,,,,,,,,,,,,,,
1732083003.075434,1732083003.076173,48.000000,0.000000,4358.461426,4315.641113,4327.051270,4317.563965,4300.641113,4291.025879,4339.615234,4316.538574,4314.487305,4316.153809,4474.358887,4508.077148,4382.563965,4457.820313,0.000000,0.000000,8.000000,,,,0.000000,2.000000,2.000000,0.000000,2.000000,2.000000,2.000000,0.000000,2.000000,4.000000,4.000000,4.000000,4.000000,2.000000,4.000000,16.666666,,,,,,,,,,,,,,,,,12.000000,0.000000,0.588891,0.389404,-0.616394,0.348755,0.970822,0.000000,-0.073251,-77.683372,58.533092,26.299641
1732083003.083242,1732083003.083981,49.000000,0.000000,4357.179688,4318.846191,4328.205078,4322.436035,4311.538574,4295.384766,4343.205078,4311.538574,4311.666504,4316.282227,4472.436035,4506.025879,4374.743652,4454.743652,0.000000,0.000000,8.000000,,,,0.000000,2.000000,2.000000,0.000000,2.000000,2.000000,2.000000,0.000000,2.000000,4.000000,4.000000,4.000000,4.000000,2.000000,4.000000,16.666666,,,,,,,,,,,,,,,,,,,,,,,,,,,,
1732083003.091050,1732083003.091589,50.000000,0.000000,4359.102539,4323.077148,4327.051270,4325.256348,4298.205078,4306.153809,4344.102539,4318.589844,4319.487305,4313.717773,4476.153809,4507.307617,4368.589844,4456.025879,0.000000,0.000000,8.000000,,,,0.000000,2.000000,2.000000,0.000000,2.000000,2.000000,2.000000,0.000000,2.000000,4.000000,4.000000,4.000000,4.000000,2.000000,4.000000,16.666666,,,,,,,,,,,,,,,,,,,,,,,,,,,,
1732083003.098859,1732083003.099398,51.000000,0.000000,4354.487305,4318.589844,4324.615234,4323.717773,4292.692383,4313.077148,4346.410156,4323.717773,4320.769043,4309.871582,4470.128418,4505.256348,4369.102539,4446.538574,0.000000,0.000000,8.000000,,,,0.000000,2.000000,2.000000,0.000000,2.000000,2.000000,2.000000,0.000000,2.000000,4.000000,4.000000,4.000000,4.000000,2.000000,4.000000,16.666666,,,,,,,,,,,,,,,,,,,,,,,,,,,,
1732083003.106667,1732083003.107106,52.000000,0.000000,4341.794922,4310.641113,4322.051270,4320.641113,4310.128418,4311.410156,4346.025879,4325.512695,4319.230957,4312.051270,4465.384766,4500.897461,4366.282227,4437.563965,0.000000,0.000000,8.000000,,,,0.000000,2.000000,2.000000,0.000000,2.000000,2.000000,2.000000,0.000000,2.000000,4.000000,4.000000,4.000000,4.000000,2.000000,4.000000,16.666666,,,,,,,,,,,,,,,,,13.000000,0.000000,0.588047,0.389221,-0.617004,0.349304,0.952753,-0.001953,-0.061531,-77.836861,57.943470,26.179375
1732083003.114475,1732083003.114914,53.000000,0.000000,4336.025879,4311.410156,4321.794922,4317.563965,4310.641113,4311.025879,4343.974121,4333.717773,4324.615234,4316.538574,4472.179688,4502.563965,4364.487305,4440.256348,0.000000,0.000000,8.000000,,,,0.000000,2.000000,2.000000,0.000000,2.000000,2.000000,2.000000,0.000000,2.000000,4.000000,4.000000,4.000000,4.000000,2.000000,4.000000,16.666666,,,,,,,,,,,,,,,,,,,,,,,,,,,,
1732083003.122283,1732083003.122523,54.000000,0.000000,4344.230957,4313.205078,4320.769043,4318.974121,4304.102539,4312.563965,4342.692383,4336.153809,4328.589844,4316.794922,4476.666504,4508.333496,4370.897461,4444.743652,0.000000,0.000000,8.000000,,,,0.000000,2.000000,2.000000,0.000000,2.000000,2.000000,2.000000,0.000000,2.000000,4.000000,4.000000,4.000000,4.000000,2.000000,4.000000,16.666666,,,,,,,,,,,,,,,,,,,,,,,,,,,,
1732083003.130092,1732083003.130331,55.000000,0.000000,4349.871582,4310.000000,4322.307617,4323.717773,4319.102539,4305.128418,4343.589844,4332.563965,4328.846191,4313.077148,4473.974121,4507.820313,4373.974121,4445.769043,0.000000,0.000000,8.000000,,,,0.000000,2.000000,2.000000,0.000000,2.000000,2.000000,2.000000,0.000000,2.000000,4.000000,4.000000,4.000000,4.000000,2.000000,4.000000,16.666666,,,,,,,,,,,,,,,,,,,,,,,,,,,,
1732083003.137900,1732083003.138039,56.000000,0.000000,4344.871582,4307.820313,4324.102539,4324.102539,4320.000000,4303.077148,4343.461426,4334.230957,4331.153809,4312.307617,4475.384766,4502.948730,4371.538574,4445.128418,0.000000,0.000000,8.000000,,,,0.000000,2.000000,2.000000,0.000000,2.000000,2.000000,2.000000,0.000000,2.000000,4.000000,4.000000,4.000000,4.000000,2.000000,4.000000,16.666666,,,,,,,,,,,,,,,,,14.000000,0.000000,0.586491,0.389099,-0.618042,0.350220,0.956171,-0.000977,-0.072763,-77.867859,57.859211,25.860294
1732083003.145708,1732083003.145847,57.000000,0.000000,4342.563965,4311.153809,4322.820313,4322.179688,4305.897461,4315.641113,4342.820313,4333.589844,4331.538574,4313.333496,4477.179688,4503.461426,4371.410156,4441.538574,0.000000,0.000000,8.000000,,,,0.000000,2.000000,2.000000,0.000000,2.000000,2.000000,2.000000,0.000000,2.000000,4.000000,4.000000,4.000000,4.000000,2.000000,4.000000,16.666666,,,,,,,,,,,,,,,,,,,,,,,,,,,,
1732083003.153516,1732083003.153456,58.000000,0.000000,4343.077148,4312.948730,4321.538574,4321.538574,4310.769043,4321.025879,4341.666504,4331.666504,4328.205078,4309.487305,4470.128418,4502.051270,4371.538574,4434.743652,0.000000,0.000000,8.000000,,,,0.000000,2.000000,2.000000,0.000000,2.000000,2.000000,2.000000,0.000000,2.000000,4.000000,4.000000,4.000000,4.000000,2.000000,4.000000,16.666666,,,,,,,,,,,,,,,,,,,,,,,,,,,,
1732083003.161325,1732083003.161264,59.000000,0.000000,4337.179688,4305.256348,4324.102539,4318.461426,4318.077148,4318.333496,4344.230957,4333.461426,4329.102539,4304.102539,4463.717773,4494.743652,4364.615234,4431.410156,0.000000,0.000000,8.000000,,,,0.000000,2.000000,2.000000,0.000000,2.000000,2.000000,2.000000,0.000000,2.000000,4.000000,4.000000,4.000000,4.000000,2.000000,4.000000,16.666666,,,,,,,,,,,,,,,,,,,,,,,,,,,,
1732083003.169133,1732083003.168972,60.000000,0.000000,4327.820313,4296.666504,4325.769043,4311.025879,4318.205078,4321.025879,4350.769043,4335.512695,4330.128418,4306.153809,4460.897461,4491.153809,4354.871582,4429.871582,0.000000,0.000000,8.000000,,,,0.000000,2.000000,2.000000,0.000000,2.000000,2.000000,2.000000,0.000000,2.000000,4.000000,4.000000,4.000000,4.000000,2.000000,4.000000,16.666666,,,,,,,,,,,,,,,,,15.000000,0.000000,0.584512,0.389709,-0.619324,0.350586,0.950800,0.047857,-0.088878,-78.114632,57.784294,25.645172
1732083003.176941,1732083003.176781,61.000000,0.000000,4322.307617,4295.512695,4323.717773,4306.282227,4324.871582,4322.179688,4351.922852,4338.974121,4332.436035,4312.692383,4457.820313,4493.717773,4357.307617,4428.717773,0.000000,0.000000,8.000000,,,,0.000000,2.000000,2.000000,0.000000,2.000000,2.000000,2.000000,0.000000,2.000000,4.000000,4.000000,4.000000,4.000000,2.000000,4.000000,16.666666,,,,,,,,,,,,,,,,,,,,,,,,,,,,
1732083003.184749,1732083003.184789,62.000000,0.000000,4321.666504,4299.487305,4323.589844,4309.230957,4316.025879,4319.230957,4351.922852,4344.871582,4339.102539,4316.282227,4462.820313,4500.256348,4366.794922,4429.871582,0.000000,0.000000,8.000000,,,,0.000000,2.000000,2.000000,0.000000,2.000000,2.000000,2.000000,0.000000,2.000000,4.000000,4.000000,4.000000,4.000000,2.000000,4.000000,16.666666,,,,,,,,,,,,,,,,,,,,,,,,,,,,
1732083003.192558,1732083003.192597,63.000000,0.000000,4326.922852,4304.871582,4325.384766,4317.436035,4300.256348,4316.282227,4350.897461,4343.205078,4340.512695,4319.358887,4470.256348,4501.666504,4367.820313,4430.641113,0.000000,0.000000,8.000000,,,,0.000000,2.000000,2.000000,0.000000,2.000000,2.000000,2.000000,0.000000,2.000000,4.000000,4.000000,4.000000,4.000000,2.000000,4.000000,16.666666,,,,,,,,,,,,,,,,,,,,,,,,,,,,
1732083003.200366,1732083003.200505,64.000000,0.000000,4333.589844,4307.948730,4326.922852,4322.051270,4308.974121,4313.077148,4347.563965,4335.128418,4332.436035,4317.436035,4467.563965,4497.179688,4366.025879,4430.641113,0.000000,0.000000,8.000000,,,,0.000000,2.000000,2.000000,0.000000,2.000000,2.000000,2.000000,0.000000,2.000000,4.000000,4.000000,4.000000,4.000000,2.000000,4.000000,16.666666,,,,,,,,,,,,,,,,,16.000000,0.000000,0.583397,0.390442,-0.619568,0.351196,0.968380,0.034672,-0.076181,-78.197853,57.503613,25.329256
1732083003.208174,1732083003.208313,65.000000,0.000000,4335.256348,4309.358887,4325.512695,4323.974121,4315.128418,4313.717773,4344.230957,4333.205078,4328.846191,4306.922852,4461.153809,4494.871582,4366.410156,4427.948730,1307.000000,0.000000,8.000000,,,,0.000000,2.000000,2.000000,0.000000,2.000000,2.000000,2.000000,0.000000,2.000000,4.000000,4.000000,4.000000,4.000000,2.000000,4.000000,16.666666,,,,,,,,,,,,,,,,,,,,,,,,,,,,
1732083003.215983,1732083003.216321,66.000000,0.000000,4332.820313,4309.871582,4326.794922,4326.025879,4310.384766,4316.282227,4347.948730,4335.256348,4330.641113,4305.641113,4461.410156,4494.615234,4363.333496,4424.743652,1229.000000,0.000000,8.000000,,,,0.000000,2.000000,2.000000,0.000000,2.000000,2.000000,2.000000,0.000000,2.000000,4.000000,4.000000,4.000000,4.000000,2.000000,4.000000,16.666666,,,,,,,,,,,,,,,,,,,,,,,,,,,,
1732083003.223791,1732083003.224129,67.000000,0.000000,4332.820313,4311.794922,4325.897461,4329.358887,4310.897461,4315.256348,4348.333496,4334.102539,4326.410156,4310.256348,4461.282227,4492.179688,4361.538574,4424.102539,1182.000000,0.000000,8.000000,,,,0.000000,2.000000,2.000000,0.000000,2.000000,2.000000,2.000000,0.000000,2.000000,4.000000,4.000000,4.000000,4.000000,2.000000,4.000000,16.666666,,,,,,,,,,,,,,,,,,,,,,,,,,,,
1732083003.231599,1732083003.232037,68.000000,0.000000,4331.153809,4311.282227,4325.641113,4328.077148,4316.153809,4314.358887,4347.179688,4332.436035,4322.563965,4302.436035,4455.897461,4493.077148,4358.846191,4420.128418,1197.000000,0.000000,8.000000,,,,0.000000,2.000000,2.000000,0.000000,2.000000,2.000000,2.000000,0.000000,2.000000,4.000000,4.000000,4.000000,4.000000,2.000000,4.000000,16.666666,,,,,,,,,,,,,,,,,17.000000,0.000000,0.582936,0.390442,-0.619690,0.351746,0.980100,0.033207,-0.083995,-78.160263,57.344593,25.330030
1732083003.239407,1732083003.239846,69.000000,0.000000,4327.820313,4310.256348,4325.512695,4325.128418,4319.743652,4310.769043,4346.922852,4334.230957,4323.461426,4299.871582,4453.974121,4494.102539,4355.256348,4420.128418,1082.000000,0.000000,8.000000,,,,0.000000,2.000000,2.000000,0.000000,2.000000,2.000000,2.000000,0.000000,2.000000,4.000000,4.000000,4.000000,4.000000,2.000000,4.000000,16.666666,,,,,,,,,,,,,,,,,,,,,,,,,,,,
1732083003.247216,1732083003.247854,70.000000,0.000000,4327.692383,4310.769043,4326.538574,4325.641113,4310.641113,4309.358887,4348.333496,4337.051270,4324.615234,4311.410156,4458.205078,4491.025879,4359.871582,4424.102539,33.000000,0.000000,8.000000,,,,0.000000,2.000000,2.000000,0.000000,2.000000,2.000000,2.000000,0.000000,2.000000,4.000000,4.000000,4.000000,4.000000,2.000000,4.000000,16.666666,,,,,,,,,,,,,,,,,,,,,,,,,,,,
1732083003.255024,1732083003.255662,71.000000,0.000000,4327.179688,4309.743652,4326.538574,4324.358887,4298.974121,4316.538574,4349.615234,4339.743652,4327.563965,4317.948730,4458.974121,4489.871582,4362.307617,4422.051270,1177.000000,0.000000,8.000000,,,,0.000000,2.000000,2.000000,0.000000,2.000000,2.000000,2.000000,0.000000,2.000000,4.000000,4.000000,4.000000,4.000000,2.000000,4.000000,16.666666,,,,,,,,,,,,,,,,,,,,,,,,,,,,
1732083003.262832,1732083003.263570,72.000000,0.000000,4323.461426,4309.743652,4326.538574,4321.410156,4309.230957,4316.794922,4348.974121,4338.205078,4329.871582,4314.487305,4454.102539,4481.922852,4355.000000,4414.102539,1359.000000,0.000000,8.000000,,,,0.000000,2.000000,2.000000,0.000000,2.000000,2.000000,2.000000,0.000000,2.000000,4.000000,4.000000,4.000000,4.000000,2.000000,4.000000,16.666666,,,,,,,,,,,,,,,,,18.000000,0.000000,0.581785,0.389465,-0.620483,0.353333,0.998169,-0.013185,-0.092296,-78.316475,57.369122,25.300657
1732083003.270640,1732083003.271378,73.000000,0.000000,4323.589844,4310.897461,4326.025879,4322.692383,4318.333496,4310.384766,4344.487305,4328.717773,4326.025879,4311.153809,4453.846191,4473.589844,4354.487305,4412.692383,1506.000000,0.000000,8.000000,,,,0.000000,2.000000,2.000000,0.000000,2.000000,2.000000,2.000000,0.000000,2.000000,4.000000,4.000000,4.000000,4.000000,2.000000,4.000000,16.666666,,,,,,,,,,,,,,,,,,,,,,,,,,,,
1732083003.278449,1732083003.279386,74.000000,0.000000,4323.846191,4308.589844,4323.974121,4321.922852,4309.615234,4307.692383,4342.179688,4322.820313,4323.846191,4314.615234,4460.641113,4478.589844,4360.769043,4417.563965,1366.000000,0.000000,8.000000,,,,0.000000,2.000000,2.000000,0.000000,2.000000,2.000000,2.000000,0.000000,2.000000,4.000000,4.000000,4.000000,4.000000,2.000000,4.000000,16.666666,,,,,,,,,,,,,,,,,,,,,,,,,,,,
1732083003.286257,1732083003.287194,75.000000,0.000000,4315.384766,4305.000000,4324.358887,4316.153809,4309.230957,4305.128418,4344.487305,4328.717773,4328.974121,4322.051270,4460.897461,4482.307617,4359.487305,4416.025879,1504.000000,0.000000,8.000000,,,,0.000000,2.000000,2.000000,0.000000,2.000000,2.000000,2.000000,0.000000,2.000000,4.000000,4.000000,4.000000,4.000000,2.000000,4.000000,16.666666,,,,,,,,,,,,,,,,,,,,,,,,,,,,
1732083003.294065,1732083003.295102,76.000000,0.000000,4311.282227,4302.436035,4322.563965,4317.051270,4309.615234,4307.948730,4345.384766,4334.743652,4330.512695,4322.948730,4457.307617,4476.666504,4355.128418,4412.179688,1733.000000,0.000000,8.000000,,,,0.000000,2.000000,2.000000,0.000000,2.000000,2.000000,2.000000,0.000000,2.000000,4.000000,4.000000,4.000000,4.000000,2.000000,4.000000,16.666666,,,,,,,,,,,,,,,,,19.000000,0.000000,0.579152,0.384766,-0.623108,0.358154,0.974728,-0.052741,-0.067879,-78.343010,57.172321,25.143534
1732083003.301874,1732083003.302911,77.000000,0.000000,4314.358887,4303.461426,4321.794922,4323.077148,4312.307617,4315.512695,4345.128418,4333.974121,4327.179688,4318.333496,4458.589844,4474.743652,4355.384766,4411.666504,1636.000000,0.000000,8.000000,,,,0.000000,2.000000,2.000000,0.000000,2.000000,2.000000,2.000000,0.000000,2.000000,4.000000,4.000000,4.000000,4.000000,2.000000,4.000000,16.666666,,,,,,,,,,,,,,,,,,,,,,,,,,,,
1732083003.309682,1732083003.310919,78.000000,0.000000,4311.538574,4303.205078,4322.051270,4318.205078,4330.897461,4313.461426,4343.846191,4335.128418,4329.871582,4320.000000,4460.769043,4479.358887,4356.538574,4413.717773,1366.000000,0.000000,8.000000,,,,0.000000,2.000000,2.000000,0.000000,2.000000,2.000000,2.000000,0.000000,2.000000,4.000000,4.000000,4.000000,4.000000,2.000000,4.000000,16.666666,1.000000,16.666666,2.000000,2.000000,0.000000,2.000000,2.000000,2.000000,0.000000,2.000000,4.000000,3.000000,4.000000,4.000000,2.000000,4.000000,,,,,,,,,,,,
1732083003.317490,1732083003.318727,79.000000,0.000000,4310.641113,4302.307617,4324.743652,4313.589844,4325.897461,4309.230957,4345.000000,4337.307617,4333.077148,4322.307617,4459.487305,4482.820313,4356.666504,4415.128418,1504.000000,0.000000,8.000000,,,,0.000000,2.000000,2.000000,0.000000,2.000000,2.000000,2.000000,0.000000,2.000000,4.000000,4.000000,4.000000,4.000000,2.000000,4.000000,16.666666,,,,,,,,,,,,,,,,,,,,,,,,,,,,
1732083003.325298,1732083003.326635,80.000000,0.000000,4318.717773,4305.128418,4326.666504,4322.436035,4303.974121,4313.461426,4346.153809,4335.384766,4328.333496,4319.871582,4458.589844,4480.384766,4358.846191,4415.128418,1733.000000,0.000000,8.000000,,,,0.000000,2.000000,2.000000,0.000000,2.000000,2.000000,2.000000,0.000000,2.000000,4.000000,4.000000,4.000000,4.000000,2.000000,4.000000,16.666666,,,,,,,,,,,,,,,,,20.000000,0.000000,0.578685,0.383057,-0.623962,0.359253,0.971798,-0.040044,-0.069344,-78.411171,56.917912,25.041262
1732083003.333107,1732083003.334443,81.000000,0.000000,4323.205078,4307.436035,4326.794922,4328.205078,4307.307617,4313.846191,4347.563965,4333.589844,4323.461426,4315.128418,4456.025879,4475.384766,4359.230957,4417.948730,1636.000000,0.000000,8.000000,,,,0.000000,2.000000,2.000000,0.000000,2.000000,2.000000,2.000000,0.000000,2.000000,4.000000,4.000000,4.000000,4.000000,2.000000,4.000000,16.666666,,,,,,,,,,,,,,,,,,,,,,,,,,,,
1732083003.340915,1732083003.342451,82.000000,0.000000,4320.128418,4306.153809,4323.974121,4324.743652,4319.487305,4310.512695,4346.153809,4335.641113,4325.641113,4311.922852,4455.384766,4476.153809,4355.897461,4420.512695,1366.000000,0.000000,8.000000,,,,0.000000,2.000000,2.000000,0.000000,2.000000,2.000000,2.000000,0.000000,2.000000,4.000000,4.000000,4.000000,4.000000,2.000000,4.000000,16.666666,,,,,,,,,,,,,,,,,,,,,,,,,,,,
1732083003.348723,1732083003.350259,83.000000,0.000000,4318.846191,4306.922852,4324.102539,4323.589844,4318.461426,4314.487305,4346.153809,4334.743652,4327.436035,4313.717773,4458.974121,4478.461426,4357.820313,4418.717773,1504.000000,0.000000,8.000000,,,,0.000000,2.000000,2.000000,0.000000,2.000000,2.000000,2.000000,0.000000,2.000000,4.000000,4.000000,4.000000,4.000000,2.000000,4.000000,16.666666,,,,,,,,,,,,,,,,,,,,,,,,,,,,
1732083003.356532,1732083003.358167,84.000000,0.000000,4320.000000,4311.025879,4324.358887,4326.153809,4321.282227,4317.948730,4343.589844,4331.794922,4325.512695,4316.538574,4461.410156,4476.538574,4360.256348,4415.384766,1733.000000,0.000000,8.000000,,,,0.000000,2.000000,2.000000,0.000000,2.000000,2.000000,2.000000,0.000000,2.000000,4.000000,4.000000,4.000000,4.000000,2.000000,4.000000,16.666666,,,,,,,,,,,,,,,,,21.000000,0.000000,0.578124,0.379578,-0.625549,0.361084,0.976193,-0.058113,-0.062019,-78.541382,56.500175,24.983421
1732083003.364340,1732083003.365976,85.000000,0.000000,4321.794922,4310.256348,4326.922852,4325.384766,4321.025879,4315.256348,4343.333496,4331.666504,4325.000000,4314.487305,4460.897461,4476.666504,4355.897461,4415.256348,1636.000000,0.000000,8.000000,,,,0.000000,2.000000,2.000000,0.000000,2.000000,2.000000,2.000000,0.000000,2.000000,4.000000,4.000000,4.000000,4.000000,2.000000,4.000000,16.666666,,,,,,,,,,,,,,,,,,,,,,,,,,,,
1732083003.372148,1732083003.373984,86.000000,0.000000,4323.461426,4307.692383,4327.179688,4324.230957,4322.051270,4311.153809,4345.000000,4333.333496,4325.512695,4312.051270,4461.153809,4478.205078,4356.794922,4415.128418,1366.000000,0.000000,8.000000,,,,0.000000,2.000000,2.000000,0.000000,2.000000,2.000000,2.000000,0.000000,2.000000,4.000000,4.000000,4.000000,4.000000,2.000000,4.000000,16.666666,,,,,,,,,,,,,,,,,,,,,,,,,,,,
1732083003.379956,1732083003.381792,87.000000,0.000000,4322.051270,4310.128418,4322.563965,4324.102539,4334.743652,4311.025879,4347.692383,4333.846191,4322.948730,4312.307617,4460.897461,4475.128418,4363.205078,4412.820313,1504.000000,0.000000,8.000000,,,,0.000000,2.000000,2.000000,0.000000,2.000000,2.000000,2.000000,0.000000,2.000000,4.000000,4.000000,4.000000,4.000000,2.000000,4.000000,16.666666,,,,,,,,,,,,,,,,,,,,,,,,,,,,
1732083003.387765,1732083003.389500,88.000000,0.000000,4322.948730,4311.794922,4321.025879,4323.846191,4325.128418,4315.897461,4348.461426,4334.102539,4324.230957,4312.820313,4461.153809,4473.717773,4363.589844,4416.666504,1733.000000,0.000000,8.000000,,,,0.000000,2.000000,2.000000,0.000000,2.000000,2.000000,2.000000,0.000000,2.000000,4.000000,4.000000,4.000000,4.000000,2.000000,4.000000,16.666666,,,,,,,,,,,,,,,,,22.000000,0.000000,0.578320,0.373657,-0.627869,0.362915,0.987425,-0.053717,-0.058601,-78.466858,56.231808,24.933239
1732083003.395573,1732083003.397308,89.000000,0.000000,4320.384766,4310.256348,4323.077148,4324.615234,4306.282227,4318.333496,4344.743652,4335.897461,4331.025879,4315.000000,4462.563965,4475.256348,4360.769043,4420.128418,1636.000000,0.000000,8.000000,,,,0.000000,2.000000,2.000000,0.000000,2.000000,2.000000,2.000000,0.000000,2.000000,4.000000,4.000000,4.000000,4.000000,2.000000,4.000000,16.666666,,,,,,,,,,,,,,,,,,,,,,,,,,,,
1732083003.403381,1732083003.404917,90.000000,0.000000,4316.282227,4311.282227,4324.358887,4324.487305,4318.461426,4314.871582,4338.974121,4335.256348,4332.820313,4315.000000,4460.000000,4475.512695,4361.922852,4414.871582,1366.000000,0.000000,8.000000,,,,0.000000,2.000000,2.000000,0.000000,2.000000,2.000000,2.000000,0.000000,2.000000,4.000000,4.000000,4.000000,4.000000,2.000000,4.000000,16.666666,,,,,,,,,,,,,,,,,,,,,,,,,,,,
1732083003.411189,1732083003.412725,91.000000,0.000000,4319.743652,4316.666504,4323.717773,4326.282227,4326.282227,4311.025879,4339.615234,4333.974121,4329.102539,4311.922852,4458.846191,4473.461426,4365.897461,4412.692383,1504.000000,0.000000,8.000000,,,,0.000000,2.000000,2.000000,0.000000,2.000000,2.000000,2.000000,0.000000,2.000000,4.000000,4.000000,4.000000,4.000000,2.000000,4.000000,16.666666,,,,,,,,,,,,,,,,,,,,,,,,,,,,
1732083003.418998,1732083003.420433,92.000000,0.000000,4318.846191,4315.128418,4325.128418,4322.051270,4315.641113,4313.077148,4345.384766,4338.077148,4330.000000,4314.102539,4461.666504,4475.384766,4367.820313,4413.974121,1733.000000,0.000000,8.000000,,,,0.000000,2.000000,2.000000,0.000000,2.000000,2.000000,2.000000,0.000000,2.000000,4.000000,4.000000,4.000000,4.000000,2.000000,4.000000,16.666666,,,,,,,,,,,,,,,,,23.000000,0.000000,0.578977,0.371521,-0.628601,0.362793,0.993285,-0.038091,-0.060066,-78.623154,56.014431,24.759256
1732083003.426806,1732083003.428242,93.000000,0.000000,4310.897461,4309.743652,4324.487305,4312.179688,4325.384766,4317.563965,4345.897461,4344.358887,4334.615234,4318.333496,4462.307617,4484.487305,4365.641113,4412.820313,1636.000000,0.000000,8.000000,,,,0.000000,2.000000,2.000000,0.000000,2.000000,2.000000,2.000000,0.000000,2.000000,4.000000,4.000000,4.000000,4.000000,2.000000,4.000000,16.666666,,,,,,,,,,,,,,,,,,,,,,,,,,,,
1732083003.434614,1732083003.435850,94.000000,0.000000,4314.102539,4312.051270,4325.384766,4316.410156,4331.025879,4321.794922,4345.512695,4344.743652,4335.512695,4318.077148,4461.153809,4491.922852,4362.820313,4412.051270,1366.000000,0.000000,8.000000,,,,0.000000,2.000000,2.000000,0.000000,2.000000,2.000000,2.000000,0.000000,2.000000,4.000000,4.000000,4.000000,4.000000,2.000000,4.000000,16.666666,,,,,,,,,,,,,,,,,,,,,,,,,,,,
1732083003.442422,1732083003.443658,95.000000,0.000000,4324.743652,4317.436035,4324.615234,4328.205078,4310.512695,4318.077148,4343.333496,4340.384766,4333.974121,4318.717773,4462.692383,4487.563965,4365.256348,4415.128418,1504.000000,0.000000,8.000000,,,,0.000000,2.000000,2.000000,0.000000,2.000000,2.000000,2.000000,0.000000,2.000000,4.000000,4.000000,4.000000,4.000000,2.000000,4.000000,16.666666,,,,,,,,,,,,,,,,,,,,,,,,,,,,
1732083003.450231,1732083003.451366,96.000000,0.000000,4324.871582,4317.436035,4325.384766,4326.410156,4306.410156,4312.051270,4343.717773,4337.179688,4331.666504,4322.563965,4463.589844,4479.743652,4368.974121,4417.820313,1733.000000,0.000000,8.000000,,,,0.000000,2.000000,2.000000,0.000000,2.000000,2.000000,2.000000,0.000000,2.000000,4.000000,4.000000,4.000000,4.000000,2.000000,4.000000,16.666666,,,,,,,,,,,,,,,,,24.000000,0.000000,0.579258,0.370789,-0.628845,0.362671,0.993285,-0.038091,-0.060066,-78.758087,55.726688,24.804998
1732083003.458039,1732083003.459175,97.000000,0.000000,4322.948730,4315.769043,4327.307617,4321.538574,4318.077148,4317.692383,4345.512695,4335.000000,4329.102539,4321.538574,4459.871582,4476.666504,4364.871582,4414.615234,1636.000000,0.000000,8.000000,,,,0.000000,2.000000,2.000000,0.000000,2.000000,2.000000,2.000000,0.000000,2.000000,4.000000,4.000000,4.000000,4.000000,2.000000,4.000000,16.666666,,,,,,,,,,,,,,,,,,,,,,,,,,,,
1732083003.465847,1732083003.466783,98.000000,0.000000,4322.563965,4314.743652,4327.820313,4323.846191,4317.436035,4319.871582,4345.256348,4335.512695,4328.333496,4316.538574,4457.820313,4477.563965,4357.051270,4406.922852,1366.000000,0.000000,8.000000,,,,0.000000,2.000000,2.000000,0.000000,2.000000,2.000000,2.000000,0.000000,2.000000,4.000000,4.000000,4.000000,4.000000,2.000000,4.000000,16.666666,,,,,,,,,,,,,,,,,,,,,,,,,,,,
1732083003.473655,1732083003.474591,99.000000,0.000000,4318.333496,4313.717773,4326.538574,4321.538574,4314.230957,4311.282227,4340.512695,4335.512695,4326.666504,4316.922852,4462.179688,4479.358887,4358.461426,4406.282227,1504.000000,0.000000,8.000000,,,,0.000000,2.000000,2.000000,0.000000,2.000000,2.000000,2.000000,0.000000,2.000000,4.000000,4.000000,4.000000,4.000000,2.000000,4.000000,16.666666,,,,,,,,,,,,,,,,,,,,,,,,,,,,
1732083003.481464,1732083003.482300,100.000000,0.000000,4318.717773,4314.358887,4327.051270,4317.563965,4313.461426,4309.615234,4342.051270,4333.717773,4323.717773,4317.820313,4467.948730,4476.794922,4368.077148,4413.333496,1733.000000,0.000000,8.000000,,,,0.000000,2.000000,2.000000,0.000000,2.000000,2.000000,2.000000,0.000000,2.000000,4.000000,4.000000,4.000000,4.000000,2.000000,4.000000,16.666666,,,,,,,,,,,,,,,,,25.000000,0.000000,0.580420,0.368958,-0.629272,0.361938,0.979612,-0.017580,-0.053229,-78.869049,55.661953,24.885382
1732083003.489272,1732083003.490108,101.000000,0.000000,4323.205078,4314.102539,4325.641113,4318.974121,4312.307617,4315.384766,4345.384766,4337.051270,4327.307617,4319.871582,4470.256348,4479.358887,4370.128418,4413.717773,1636.000000,0.000000,8.000000,,,,0.000000,2.000000,2.000000,0.000000,2.000000,2.000000,2.000000,0.000000,2.000000,4.000000,4.000000,4.000000,4.000000,2.000000,4.000000,16.666666,,,,,,,,,,,,,,,,,,,,,,,,,,,,
1732083003.497080,1732083003.497716,102.000000,0.000000,4318.717773,4310.769043,4324.358887,4315.769043,4324.102539,4312.692383,4347.692383,4344.615234,4333.589844,4323.717773,4468.333496,4485.512695,4363.333496,4409.871582,1366.000000,0.000000,8.000000,,,,0.000000,2.000000,2.000000,0.000000,2.000000,2.000000,2.000000,0.000000,2.000000,4.000000,4.000000,4.000000,4.000000,2.000000,4.000000,16.666666,,,,,,,,,,,,,,,,,,,,,,,,,,,,
1732083003.504888,1732083003.505524,103.000000,0.000000,4312.820313,4309.871582,4326.410156,4313.333496,4327.051270,4312.307617,4346.922852,4344.487305,4331.410156,4317.692383,4466.922852,4482.051270,4361.666504,4411.666504,1504.000000,0.000000,8.000000,,,,0.000000,2.000000,2.000000,0.000000,2.000000,2.000000,2.000000,0.000000,2.000000,4.000000,4.000000,4.000000,4.000000,2.000000,4.000000,16.666666,,,,,,,,,,,,,,,,,,,,,,,,,,,,
1732083003.512697,1732083003.513433,104.000000,0.000000,4314.743652,4311.282227,4325.641113,4318.974121,4309.358887,4319.743652,4346.410156,4341.410156,4328.077148,4310.897461,4463.717773,4475.512695,4363.717773,4410.769043,1733.000000,0.000000,8.000000,,,,0.000000,2.000000,2.000000,0.000000,2.000000,2.000000,2.000000,0.000000,2.000000,4.000000,4.000000,4.000000,4.000000,2.000000,4.000000,16.666666,,,,,,,,,,,,,,,,,26.000000,0.000000,0.580838,0.368286,-0.629456,0.361633,0.984495,-0.019534,-0.051276,-78.988930,55.454514,24.992159
1732083003.520505,1732083003.521241,105.000000,0.000000,4316.538574,4311.538574,4324.487305,4317.436035,4306.282227,4317.051270,4346.282227,4348.846191,4335.769043,4318.717773,4464.487305,4481.666504,4363.461426,4409.102539,1636.000000,0.000000,8.000000,,,,0.000000,2.000000,2.000000,0.000000,2.000000,2.000000,2.000000,0.000000,2.000000,4.000000,4.000000,4.000000,4.000000,2.000000,4.000000,16.666666,,,,,,,,,,,,,,,,,,,,,,,,,,,,
1732083003.528313,1732083003.529249,106.000000,0.000000,4316.538574,4314.358887,4327.692383,4313.974121,4319.487305,4313.717773,4343.717773,4351.282227,4339.487305,4324.487305,4467.820313,4486.794922,4361.922852,4412.436035,1366.000000,0.000000,8.000000,,,,0.000000,2.000000,2.000000,0.000000,2.000000,2.000000,2.000000,0.000000,2.000000,4.000000,4.000000,4.000000,4.000000,2.000000,4.000000,16.666666,,,,,,,,,,,,,,,,,,,,,,,,,,,,
1732083003.536121,1732083003.537057,107.000000,0.000000,4322.179688,4317.948730,4329.615234,4323.205078,4318.717773,4320.256348,4340.512695,4339.102539,4331.282227,4318.205078,4465.000000,4482.051270,4364.230957,4413.205078,1504.000000,0.000000,8.000000,,,,0.000000,2.000000,2.000000,0.000000,2.000000,2.000000,2.000000,0.000000,2.000000,4.000000,4.000000,4.000000,4.000000,2.000000,4.000000,16.666666,,,,,,,,,,,,,,,,,,,,,,,,,,,,
1732083003.543930,1732083003.544765,108.000000,0.000000,4326.666504,4316.153809,4326.153809,4326.666504,4312.820313,4319.230957,4338.589844,4330.769043,4326.282227,4318.333496,4461.666504,4483.589844,4367.563965,4410.769043,1733.000000,0.000000,8.000000,,,,0.000000,2.000000,2.000000,0.000000,2.000000,2.000000,2.000000,0.000000,2.000000,4.000000,4.000000,4.000000,4.000000,2.000000,4.000000,16.666666,,,,,,,,,,,,,,,,,27.000000,0.000000,0.580715,0.368164,-0.629395,0.362061,0.966427,-0.016604,-0.052741,-78.846031,55.218159,25.098648
1732083003.551738,1732083003.552573,109.000000,0.000000,4320.384766,4312.051270,4326.538574,4319.230957,4311.410156,4312.692383,4342.051270,4334.487305,4329.743652,4322.692383,4462.820313,4491.025879,4364.230957,4410.384766,1636.000000,0.000000,8.000000,,,,0.000000,2.000000,2.000000,0.000000,2.000000,2.000000,2.000000,0.000000,2.000000,4.000000,4.000000,4.000000,4.000000,2.000000,4.000000,16.666666,,,,,,,,,,,,,,,,,,,,,,,,,,,,
1732083003.559546,1732083003.560581,110.000000,0.000000,4313.846191,4311.282227,4327.563965,4318.461426,4315.256348,4315.512695,4345.256348,4342.307617,4330.897461,4317.436035,4463.589844,4487.820313,4359.230957,4409.358887,1366.000000,0.000000,8.000000,,,,0.000000,2.000000,2.000000,0.000000,2.000000,2.000000,2.000000,0.000000,2.000000,4.000000,4.000000,4.000000,4.000000,2.000000,4.000000,16.666666,,,,,,,,,,,,,,,,,,,,,,,,,,,,
1732083003.567355,1732083003.568390,111.000000,0.000000,4314.358887,4311.794922,4324.743652,4318.717773,4326.922852,4315.384766,4345.384766,4345.128418,4329.358887,4310.512695,4460.512695,4477.307617,4355.897461,4403.589844,1504.000000,0.000000,8.000000,,,,0.000000,2.000000,2.000000,0.000000,2.000000,2.000000,2.000000,0.000000,2.000000,4.000000,4.000000,4.000000,4.000000,2.000000,4.000000,16.666666,,,,,,,,,,,,,,,,,,,,,,,,,,,,
1732083003.575163,1732083003.576098,112.000000,0.000000,4317.563965,4310.641113,4324.102539,4319.102539,4322.179688,4310.128418,4342.692383,4338.717773,4331.794922,4312.307617,4456.922852,4480.128418,4352.436035,4400.128418,1733.000000,0.000000,8.000000,,,,0.000000,2.000000,2.000000,0.000000,2.000000,2.000000,2.000000,0.000000,2.000000,4.000000,4.000000,4.000000,4.000000,2.000000,4.000000,16.666666,,,,,,,,,,,,,,,,,28.000000,0.000000,0.580563,0.368103,-0.629395,0.362366,0.976193,-0.027347,-0.063484,-79.065285,55.303375,25.491571
1732083003.582971,1732083003.583906,113.000000,0.000000,4317.051270,4310.897461,4328.205078,4324.615234,4304.615234,4312.820313,4344.102539,4335.000000,4333.717773,4315.897461,4459.743652,4489.102539,4353.461426,4404.102539,1636.000000,0.000000,8.000000,,,,0.000000,2.000000,2.000000,0.000000,2.000000,2.000000,2.000000,0.000000,2.000000,4.000000,4.000000,4.000000,4.000000,2.000000,4.000000,16.666666,,,,,,,,,,,,,,,,,,,,,,,,,,,,
1732083003.590779,1732083003.591914,114.000000,0.000000,4316.538574,4314.487305,4326.666504,4322.948730,4312.692383,4313.846191,4343.333496,4337.820313,4329.871582,4314.358887,4468.461426,4487.307617,4359.230957,4409.230957,1366.000000,0.000000,8.000000,,,,0.000000,2.000000,2.000000,0.000000,2.000000,2.000000,2.000000,0.000000,2.000000,4.000000,4.000000,4.000000,4.000000,2.000000,4.000000,16.666666,,,,,,,,,,,,,,,,,,,,,,,,,,,,
1732083003.598588,1732083003.599722,115.000000,0.000000,4320.256348,4317.948730,4324.487305,4318.077148,4323.077148,4307.692383,4342.692383,4335.384766,4323.846191,4309.743652,4471.410156,4487.820313,4359.358887,4412.051270,1504.000000,0.000000,8.000000,,,,0.000000,2.000000,2.000000,0.000000,2.000000,2.000000,2.000000,0.000000,2.000000,4.000000,4.000000,4.000000,4.000000,2.000000,4.000000,16.666666,,,,,,,,,,,,,,,,,,,,,,,,,,,,
1732083003.606396,1732083003.607631,116.000000,0.000000,4322.820313,4318.333496,4325.897461,4325.641113,4308.974121,4309.871582,4343.846191,4333.461426,4326.025879,4311.794922,4468.589844,4487.692383,4357.307617,4412.436035,1733.000000,0.000000,8.000000,,,,0.000000,2.000000,2.000000,0.000000,2.000000,2.000000,2.000000,0.000000,2.000000,4.000000,4.000000,4.000000,4.000000,2.000000,4.000000,16.666666,,,,,,,,,,,,,,,,,29.000000,0.000000,0.579481,0.367737,-0.629761,0.363831,0.991332,-0.046881,-0.052252,-78.907883,55.075733,25.386507
1732083003.614204,1732083003.615439,117.000000,0.000000,4319.358887,4315.897461,4327.307617,4331.025879,4304.615234,4316.794922,4344.743652,4344.615234,4332.563965,4315.384766,4467.179688,4478.589844,4360.769043,4410.256348,1636.000000,0.000000,8.000000,,,,0.000000,2.000000,2.000000,0.000000,2.000000,2.000000,2.000000,0.000000,2.000000,4.000000,4.000000,4.000000,4.000000,2.000000,4.000000,16.666666,,,,,,,,,,,,,,,,,,,,,,,,,,,,
1732083003.622013,1732083003.623447,118.000000,0.000000,4316.922852,4311.794922,4324.743652,4325.641113,4312.436035,4314.615234,4343.717773,4354.487305,4333.846191,4313.846191,4462.307617,4478.205078,4360.512695,4408.974121,1366.000000,0.000000,8.000000,,,,0.000000,2.000000,2.000000,0.000000,2.000000,2.000000,2.000000,0.000000,2.000000,4.000000,4.000000,4.000000,4.000000,2.000000,4.000000,16.666666,,,,,,,,,,,,,,,,,,,,,,,,,,,,
1732083003.629821,1732083003.631255,119.000000,0.000000,4316.794922,4310.128418,4325.641113,4325.512695,4311.666504,4311.794922,4346.794922,4345.384766,4331.538574,4313.974121,4458.974121,4484.102539,4356.410156,4409.358887,1504.000000,0.000000,8.000000,,,,0.000000,2.000000,2.000000,0.000000,2.000000,2.000000,2.000000,0.000000,2.000000,4.000000,4.000000,4.000000,4.000000,2.000000,4.000000,16.666666,,,,,,,,,,,,,,,,,,,,,,,,,,,,
1732083003.637629,1732083003.639163,120.000000,0.000000,4315.256348,4314.487305,4328.461426,4330.256348,4310.512695,4316.410156,4347.051270,4337.051270,4331.410156,4316.025879,4462.307617,4478.077148,4358.589844,4410.769043,1733.000000,0.000000,8.000000,,,,0.000000,2.000000,2.000000,0.000000,2.000000,2.000000,2.000000,0.000000,2.000000,4.000000,4.000000,4.000000,4.000000,2.000000,4.000000,16.666666,,,,,,,,,,,,,,,,,30.000000,0.000000,0.578899,0.367554,-0.629944,0.364624,0.998169,-0.058113,-0.061531,-78.922050,55.003010,25.434736
1732083003.645437,1732083003.646971,121.000000,0.000000,4315.641113,4316.282227,4327.820313,4328.846191,4309.230957,4319.230957,4346.282227,4346.666504,4332.051270,4315.384766,4462.820313,4470.897461,4361.025879,4411.538574,1636.000000,0.000000,8.000000,,,,0.000000,2.000000,2.000000,0.000000,2.000000,2.000000,2.000000,0.000000,2.000000,4.000000,4.000000,4.000000,4.000000,2.000000,4.000000,16.666666,,,,,,,,,,,,,,,,,,,,,,,,,,,,
1732083003.653246,1732083003.654979,122.000000,0.000000,4317.692383,4311.282227,4326.153809,4321.666504,4308.077148,4315.384766,4346.666504,4352.436035,4330.384766,4311.666504,4459.358887,4475.512695,4348.461426,4410.256348,1366.000000,0.000000,8.000000,,,,0.000000,2.000000,2.000000,0.000000,2.000000,2.000000,2.000000,0.000000,2.000000,4.000000,4.000000,4.000000,4.000000,2.000000,4.000000,16.666666,,,,,,,,,,,,,,,,,,,,,,,,,,,,
1732083003.661054,1732083003.662787,123.000000,0.000000,4321.025879,4308.717773,4326.922852,4319.487305,4306.282227,4310.641113,4342.820313,4342.692383,4330.641113,4314.358887,4461.410156,4485.897461,4332.563965,4410.384766,1504.000000,0.000000,8.000000,,,,0.000000,2.000000,2.000000,0.000000,2.000000,2.000000,2.000000,0.000000,2.000000,4.000000,4.000000,4.000000,4.000000,2.000000,4.000000,16.666666,,,,,,,,,,,,,,,,,,,,,,,,,,,,
1732083003.668862,1732083003.670696,124.000000,0.000000,4324.871582,4313.846191,4327.307617,4322.563965,4308.333496,4310.384766,4338.461426,4339.358887,4332.948730,4323.717773,4467.051270,4492.179688,4326.922852,4415.128418,1733.000000,0.000000,8.000000,,,,0.000000,2.000000,2.000000,0.000000,2.000000,2.000000,2.000000,0.000000,2.000000,4.000000,4.000000,4.000000,4.000000,2.000000,4.000000,16.666666,,,,,,,,,,,,,,,,,31.000000,0.000000,0.578899,0.367554,-0.629944,0.364624,0.978635,-0.044439,-0.065438,-78.873528,55.034103,25.383804
1732083003.676670,1732083003.678504,125.000000,0.000000,4325.641113,4317.820313,4326.282227,4324.743652,4323.846191,4315.512695,4338.333496,4345.000000,4335.128418,4326.538574,4470.384766,4490.256348,4320.769043,4417.692383,1636.000000,0.000000,8.000000,,,,0.000000,2.000000,2.000000,0.000000,2.000000,2.000000,2.000000,0.000000,2.000000,4.000000,4.000000,4.000000,4.000000,2.000000,4.000000,16.666666,,,,,,,,,,,,,,,,,,,,,,,,,,,,
1732083003.684479,1732083003.686512,126.000000,0.000000,4320.256348,4315.384766,4327.436035,4327.051270,4327.948730,4320.256348,4343.461426,4344.102539,4336.410156,4322.436035,4472.820313,4488.589844,4312.179688,4413.846191,1366.000000,0.000000,8.000000,,,,0.000000,2.000000,2.000000,0.000000,2.000000,2.000000,2.000000,0.000000,2.000000,4.000000,4.000000,4.000000,4.000000,2.000000,4.000000,16.666666,,,,,,,,,,,,,,,,,,,,,,,,,,,,
1732083003.692287,1732083003.694320,127.000000,0.000000,4320.769043,4315.128418,4326.025879,4329.615234,4307.820313,4320.256348,4345.000000,4341.666504,4338.077148,4321.282227,4470.641113,4489.102539,4307.820313,4411.025879,8.000000,0.000000,8.000000,,,,0.000000,2.000000,2.000000,0.000000,2.000000,2.000000,2.000000,0.000000,2.000000,4.000000,4.000000,4.000000,4.000000,2.000000,4.000000,16.666666,,,,,,,,,,,,,,,,,,,,,,,,,,,,
1732083003.700095,1732083003.702228,0.000000,0.000000,4322.307617,4318.461426,4324.358887,4330.769043,4305.641113,4322.820313,4345.000000,4342.563965,4338.077148,4322.436035,4466.025879,4480.000000,4302.436035,4408.205078,0.000000,0.000000,8.000000,,,,0.000000,2.000000,2.000000,0.000000,2.000000,2.000000,2.000000,0.000000,2.000000,4.000000,4.000000,4.000000,4.000000,2.000000,4.000000,16.666666,,,,,,,,,,,,,,,,,0.000000,0.000000,0.578050,0.367126,-0.630371,0.365662,0.977170,-0.051764,-0.043951,-78.902557,54.990959,25.190882
1732083003.707903,1732083003.710036,1.000000,0.000000,4314.102539,4315.256348,4326.153809,4331.153809,4320.897461,4326.922852,4344.871582,4345.512695,4336.153809,4316.794922,4464.615234,4470.897461,4293.077148,4404.230957,1307.000000,0.000000,8.000000,,,,0.000000,2.000000,2.000000,0.000000,2.000000,2.000000,2.000000,0.000000,2.000000,4.000000,4.000000,4.000000,4.000000,2.000000,4.000000,16.666666,,,,,,,,,,,,,,,,,,,,,,,,,,,,
1732083003.715712,1732083003.718044,2.000000,0.000000,4311.282227,4312.051270,4328.589844,4328.846191,4317.820313,4325.384766,4348.589844,4349.358887,4337.051270,4311.153809,4466.410156,4475.512695,4287.307617,4404.743652,1230.000000,0.000000,8.000000,,,,0.000000,2.000000,2.000000,0.000000,2.000000,2.000000,2.000000,0.000000,2.000000,4.000000,4.000000,4.000000,4.000000,2.000000,4.000000,16.666666,,,,,,,,,,,,,,,,,,,,,,,,,,,,
1732083003.723520,1732083003.725853,3.000000,0.000000,4317.692383,4316.025879,4325.769043,4325.256348,4323.077148,4319.487305,4346.666504,4346.666504,4336.153809,4315.897461,4468.333496,4479.102539,4287.307617,4408.205078,1182.000000,0.000000,8.000000,,,,0.000000,2.000000,2.000000,0.000000,2.000000,2.000000,2.000000,0.000000,2.000000,4.000000,4.000000,4.000000,4.000000,2.000000,4.000000,16.666666,,,,,,,,,,,,,,,,,,,,,,,,,,,,
1732083003.731328,1732083003.733561,4.000000,0.000000,4319.615234,4317.307617,4325.000000,4325.128418,4331.666504,4317.948730,4345.000000,4345.384766,4335.641113,4318.461426,4467.051270,4479.615234,4285.769043,4407.820313,1207.000000,0.000000,8.000000,,,,0.000000,2.000000,2.000000,0.000000,2.000000,2.000000,2.000000,0.000000,2.000000,4.000000,4.000000,4.000000,4.000000,2.000000,4.000000,16.666666,,,,,,,,,,,,,,,,,1.000000,0.000000,0.578095,0.367065,-0.630188,0.365967,0.971798,-0.037602,-0.060066,-79.066071,54.949345,25.002947
1732083003.739136,1732083003.741369,5.000000,0.000000,4321.282227,4318.589844,4326.153809,4329.871582,4316.282227,4320.769043,4344.615234,4344.743652,4334.871582,4314.102539,4465.897461,4481.538574,4281.538574,4409.743652,1080.000000,0.000000,8.000000,,,,0.000000,2.000000,2.000000,0.000000,2.000000,2.000000,2.000000,0.000000,2.000000,4.000000,4.000000,4.000000,4.000000,2.000000,4.000000,16.666666,,,,,,,,,,,,,,,,,,,,,,,,,,,,
1732083003.746945,1732083003.748977,6.000000,0.000000,4322.948730,4324.358887,4327.179688,4333.077148,4310.769043,4322.820313,4342.436035,4337.307617,4330.000000,4311.153809,4462.820313,4480.769043,4277.563965,4412.179688,35.000000,0.000000,8.000000,,,,0.000000,2.000000,2.000000,0.000000,2.000000,2.000000,2.000000,0.000000,2.000000,4.000000,4.000000,4.000000,4.000000,2.000000,4.000000,16.666666,,,,,,,,,,,,,,,,,,,,,,,,,,,,
1732083003.754753,1732083003.756786,7.000000,0.000000,4317.051270,4324.615234,4326.922852,4329.743652,4323.589844,4323.589844,4340.256348,4333.333496,4330.256348,4312.179688,4458.974121,4477.436035,4278.333496,4403.846191,1184.000000,0.000000,8.000000,,,,0.000000,2.000000,2.000000,0.000000,2.000000,2.000000,2.000000,0.000000,2.000000,4.000000,4.000000,4.000000,4.000000,2.000000,4.000000,16.666666,,,,,,,,,,,,,,,,,,,,,,,,,,,,
1732083003.762561,1732083003.764494,8.000000,0.000000,4310.512695,4318.461426,4326.282227,4324.230957,4321.410156,4323.077148,4341.794922,4335.128418,4334.358887,4312.436035,4458.205078,4473.205078,4278.461426,4395.384766,1364.000000,0.000000,8.000000,,,,0.000000,2.000000,2.000000,0.000000,2.000000,2.000000,2.000000,0.000000,2.000000,4.000000,4.000000,4.000000,4.000000,2.000000,4.000000,16.666666,,,,,,,,,,,,,,,,,2.000000,0.000000,0.578797,0.366760,-0.630005,0.365479,0.963985,-0.034672,-0.056648,-79.293518,54.957302,25.004053
1732083003.770369,1732083003.772302,9.000000,0.000000,4313.589844,4317.948730,4325.256348,4323.589844,4310.256348,4326.922852,4343.461426,4340.897461,4335.000000,4315.000000,4457.820313,4472.051270,4274.871582,4396.410156,1504.000000,0.000000,8.000000,,,,0.000000,2.000000,2.000000,0.000000,2.000000,2.000000,2.000000,0.000000,2.000000,4.000000,4.000000,4.000000,4.000000,2.000000,4.000000,16.666666,,,,,,,,,,,,,,,,,,,,,,,,,,,,
1732083003.778178,1732083003.779911,10.000000,0.000000,4315.256348,4322.179688,4325.897461,4326.794922,4323.717773,4330.384766,4343.589844,4349.102539,4335.512695,4316.410156,4458.077148,4474.230957,4273.974121,4396.282227,1369.000000,0.000000,8.000000,,,,0.000000,2.000000,2.000000,0.000000,2.000000,2.000000,2.000000,0.000000,2.000000,4.000000,4.000000,4.000000,4.000000,2.000000,4.000000,16.666666,,,,,,,,,,,,,,,,,,,,,,,,,,,,
1732083003.785986,1732083003.787719,11.000000,0.000000,4312.179688,4321.922852,4326.410156,4326.666504,4337.820313,4328.461426,4346.153809,4354.230957,4342.307617,4315.384766,4458.077148,4476.153809,4277.948730,4397.948730,1504.000000,0.000000,8.000000,,,,0.000000,2.000000,2.000000,0.000000,2.000000,2.000000,2.000000,0.000000,2.000000,4.000000,4.000000,4.000000,4.000000,2.000000,4.000000,16.666666,,,,,,,,,,,,,,,,,,,,,,,,,,,,
1732083003.793794,1732083003.795427,12.000000,0.000000,4311.410156,4317.436035,4325.256348,4325.769043,4320.384766,4326.922852,4348.717773,4352.820313,4346.538574,4319.230957,4461.025879,4477.436035,4281.922852,4404.615234,1733.000000,0.000000,8.000000,,,,0.000000,2.000000,2.000000,0.000000,2.000000,2.000000,2.000000,0.000000,2.000000,4.000000,4.000000,4.000000,4.000000,2.000000,4.000000,16.666666,,,,,,,,,,,,,,,,,3.000000,0.000000,0.578797,0.366760,-0.630005,0.365479,0.963985,-0.034672,-0.056648,-79.402748,54.933746,24.929951
1732083003.801602,1732083003.803235,13.000000,0.000000,4312.051270,4316.153809,4324.230957,4326.666504,4304.102539,4326.025879,4347.179688,4350.384766,4342.051270,4323.461426,4461.025879,4478.461426,4283.974121,4403.205078,1638.000000,0.000000,8.000000,,,,0.000000,2.000000,2.000000,0.000000,2.000000,2.000000,2.000000,0.000000,2.000000,4.000000,4.000000,4.000000,4.000000,2.000000,4.000000,16.666666,,,,,,,,,,,,,,,,,,,,,,,,,,,,
1732083003.809411,1732083003.810844,14.000000,0.000000,4315.769043,4320.769043,4324.102539,4327.179688,4315.769043,4320.641113,4340.897461,4343.974121,4337.179688,4321.538574,4460.000000,4477.563965,4286.666504,4403.717773,1369.000000,0.000000,8.000000,,,,0.000000,2.000000,2.000000,0.000000,2.000000,2.000000,2.000000,0.000000,2.000000,4.000000,4.000000,4.000000,4.000000,2.000000,4.000000,16.666666,1.000000,16.666666,2.000000,2.000000,0.000000,2.000000,2.000000,2.000000,0.000000,2.000000,4.000000,4.000000,4.000000,4.000000,2.000000,3.000000,,,,,,,,,,,,
1732083003.817219,1732083003.818652,15.000000,0.000000,4316.153809,4323.205078,4325.512695,4326.410156,4319.871582,4316.410156,4341.153809,4340.384766,4338.333496,4320.256348,4460.384766,4475.641113,4288.974121,4410.256348,1504.000000,0.000000,8.000000,,,,0.000000,2.000000,2.000000,0.000000,2.000000,2.000000,2.000000,0.000000,2.000000,4.000000,4.000000,4.000000,4.000000,2.000000,4.000000,16.666666,,,,,,,,,,,,,,,,,,,,,,,,,,,,
1732083003.825027,1732083003.826360,16.000000,0.000000,4311.410156,4320.128418,4325.897461,4325.256348,4308.974121,4320.512695,4342.307617,4342.051270,4339.743652,4321.025879,4460.641113,4477.307617,4286.922852,4407.820313,0.000000,0.000000,8.000000,,,,0.000000,2.000000,2.000000,0.000000,2.000000,2.000000,2.000000,0.000000,2.000000,4.000000,4.000000,4.000000,4.000000,2.000000,4.000000,16.666666,,,,,,,,,,,,,,,,,4.000000,0.000000,0.579906,0.366394,-0.629517,0.364929,0.985960,-0.032230,-0.054206,-79.457893,54.606335,25.078260
1732083003.832836,1732083003.834168,17.000000,0.000000,4309.230957,4319.871582,4325.256348,4324.487305,4325.000000,4319.615234,4340.128418,4334.102539,4332.307617,4319.615234,4459.871582,4477.179688,4286.025879,4399.871582,0.000000,0.000000,8.000000,,,,0.000000,2.000000,2.000000,0.000000,2.000000,2.000000,2.000000,0.000000,2.000000,4.000000,4.000000,4.000000,4.000000,2.000000,4.000000,16.666666,,,,,,,,,,,,,,,,,,,,,,,,,,,,
1732083003.840644,1732083003.842176,18.000000,0.000000,4310.641113,4323.717773,4322.563965,4324.230957,4332.307617,4316.410156,4340.769043,4331.538574,4330.512695,4318.205078,4457.948730,4474.871582,4287.307617,4396.794922,0.000000,0.000000,8.000000,,,,0.000000,2.000000,2.000000,0.000000,2.000000,2.000000,2.000000,0.000000,2.000000,4.000000,4.000000,4.000000,4.000000,2.000000,4.000000,16.666666,,,,,,,,,,,,,,,,,,,,,,,,,,,,
1732083003.848452,1732083003.849985,19.000000,0.000000,4306.794922,4320.000000,4322.692383,4323.846191,4305.512695,4323.461426,4347.820313,4344.230957,4335.384766,4317.436035,4457.692383,4475.769043,4285.769043,4398.077148,0.000000,0.000000,8.000000,,,,0.000000,2.000000,2.000000,0.000000,2.000000,2.000000,2.000000,0.000000,2.000000,4.000000,4.000000,4.000000,4.000000,2.000000,4.000000,16.666666,,,,,,,,,,,,,,,,,,,,,,,,,,,,
1732083003.856260,1732083003.857893,20.000000,0.000000,4302.051270,4314.230957,4323.077148,4323.589844,4303.333496,4328.461426,4348.333496,4350.641113,4333.461426,4315.128418,4458.589844,4483.974121,4286.538574,4401.538574,0.000000,0.000000,8.000000,,,,0.000000,2.000000,2.000000,0.000000,2.000000,2.000000,2.000000,0.000000,2.000000,4.000000,4.000000,4.000000,4.000000,2.000000,4.000000,16.666666,,,,,,,,,,,,,,,,,5.000000,0.000000,0.579955,0.366333,-0.629578,0.364807,0.984007,-0.026370,-0.054694,-79.462563,54.456131,25.076723
1732083003.864069,1732083003.865701,21.000000,0.000000,4305.384766,4314.487305,4324.487305,4323.589844,4322.692383,4322.307617,4348.461426,4347.692383,4332.563965,4313.589844,4460.769043,4492.820313,4290.769043,4405.256348,0.000000,0.000000,8.000000,,,,0.000000,2.000000,2.000000,0.000000,2.000000,2.000000,2.000000,0.000000,2.000000,4.000000,4.000000,4.000000,4.000000,2.000000,4.000000,16.666666,,,,,,,,,,,,,,,,,,,,,,,,,,,,
1732083003.871877,1732083003.873309,22.000000,0.000000,4308.846191,4315.769043,4323.333496,4322.948730,4314.615234,4316.538574,4347.436035,4350.128418,4339.358887,4321.794922,4466.025879,4491.538574,4295.000000,4408.205078,0.000000,0.000000,8.000000,,,,0.000000,2.000000,2.000000,0.000000,2.000000,2.000000,2.000000,0.000000,2.000000,4.000000,4.000000,4.000000,4.000000,2.000000,4.000000,16.666666,,,,,,,,,,,,,,,,,,,,,,,,,,,,
1732083003.879685,1732083003.881118,23.000000,0.000000,4308.974121,4318.846191,4323.461426,4322.948730,4313.846191,4319.102539,4342.948730,4350.384766,4341.538574,4331.025879,4468.717773,4487.179688,4297.051270,4408.846191,0.000000,0.000000,8.000000,,,,0.000000,2.000000,2.000000,0.000000,2.000000,2.000000,2.000000,0.000000,2.000000,4.000000,4.000000,4.000000,4.000000,2.000000,4.000000,16.666666,,,,,,,,,,,,,,,,,,,,,,,,,,,,
1732083003.887493,1732083003.888826,24.000000,0.000000,4310.000000,4320.128418,4325.128418,4326.538574,4336.922852,4320.384766,4340.641113,4343.077148,4337.563965,4327.563965,4463.846191,4489.743652,4293.846191,4402.948730,0.000000,0.000000,8.000000,,,,0.000000,2.000000,2.000000,0.000000,2.000000,2.000000,2.000000,0.000000,2.000000,4.000000,4.000000,4.000000,4.000000,2.000000,4.000000,16.666666,,,,,,,,,,,,,,,,,6.000000,0.000000,0.580021,0.366333,-0.629517,0.364807,0.984007,-0.026370,-0.054694,-79.436340,54.274467,25.210480
1732083003.895302,1732083003.896634,25.000000,0.000000,4311.410156,4315.897461,4323.974121,4327.179688,4327.563965,4318.333496,4343.589844,4343.205078,4336.922852,4324.102539,4459.743652,4486.794922,4295.000000,4397.563965,0.000000,0.000000,8.000000,,,,0.000000,2.000000,2.000000,0.000000,2.000000,2.000000,2.000000,0.000000,2.000000,4.000000,4.000000,4.000000,4.000000,2.000000,4.000000,16.666666,,,,,,,,,,,,,,,,,,,,,,,,,,,,
1732083003.903110,1732083003.904243,26.000000,0.000000,4310.641113,4318.333496,4323.589844,4325.000000,4304.102539,4320.769043,4345.000000,4348.846191,4338.974121,4325.769043,4460.256348,4478.717773,4297.563965,4398.077148,0.000000,0.000000,8.000000,,,,0.000000,2.000000,2.000000,0.000000,2.000000,2.000000,2.000000,0.000000,2.000000,4.000000,4.000000,4.000000,4.000000,2.000000,4.000000,16.666666,,,,,,,,,,,,,,,,,,,,,,,,,,,,
1732083003.910918,1732083003.912051,27.000000,0.000000,4306.794922,4322.179688,4324.615234,4321.282227,4316.025879,4325.641113,4345.000000,4352.179688,4339.871582,4322.436035,4456.666504,4477.820313,4286.538574,4396.410156,0.000000,0.000000,8.000000,,,,0.000000,2.000000,2.000000,0.000000,2.000000,2.000000,2.000000,0.000000,2.000000,4.000000,4.000000,4.000000,4.000000,2.000000,4.000000,16.666666,,,,,,,,,,,,,,,,,,,,,,,,,,,,
1732083003.918727,1732083003.919759,28.000000,0.000000,4305.256348,4316.666504,4323.974121,4317.436035,4326.666504,4328.974121,4349.230957,4350.897461,4335.128418,4312.179688,4451.538574,4478.077148,4266.410156,4393.205078,0.000000,0.000000,8.000000,,,,0.000000,2.000000,2.000000,0.000000,2.000000,2.000000,2.000000,0.000000,2.000000,4.000000,4.000000,4.000000,4.000000,2.000000,4.000000,16.666666,,,,,,,,,,,,,,,,,7.000000,0.000000,0.580211,0.365784,-0.629944,0.364319,0.982542,-0.038579,-0.063484,-79.663437,54.177319,25.410488
1732083003.926535,1732083003.927567,29.000000,0.000000,4306.282227,4318.205078,4323.205078,4322.051270,4313.077148,4327.692383,4348.333496,4344.615234,4328.333496,4307.563965,4448.717773,4475.512695,4261.153809,4392.307617,0.000000,0.000000,8.000000,,,,0.000000,2.000000,2.000000,0.000000,2.000000,2.000000,2.000000,0.000000,2.000000,4.000000,4.000000,4.000000,4.000000,2.000000,4.000000,16.666666,,,,,,,,,,,,,,,,,,,,,,,,,,,,
1732083003.934343,1732083003.935575,30.000000,0.000000,4304.615234,4326.153809,4323.846191,4328.461426,4320.512695,4319.871582,4344.230957,4334.615234,4326.025879,4308.333496,4445.897461,4475.384766,4266.794922,4389.871582,0.000000,0.000000,8.000000,,,,0.000000,2.000000,2.000000,0.000000,2.000000,2.000000,2.000000,0.000000,2.000000,4.000000,4.000000,4.000000,4.000000,2.000000,4.000000,16.666666,,,,,,,,,,,,,,,,,,,,,,,,,,,,
1732083003.942151,1732083003.943384,31.000000,0.000000,4304.871582,4323.846191,4321.666504,4326.794922,4336.666504,4316.025879,4343.846191,4331.794922,4325.384766,4308.846191,4443.846191,4473.717773,4265.128418,4388.846191,0.000000,0.000000,8.000000,,,,0.000000,2.000000,2.000000,0.000000,2.000000,2.000000,2.000000,0.000000,2.000000,4.000000,4.000000,4.000000,4.000000,2.000000,4.000000,16.666666,,,,,,,,,,,,,,,,,,,,,,,,,,,,
1732083003.949960,1732083003.951292,32.000000,0.000000,4307.051270,4320.128418,4321.794922,4324.615234,4318.461426,4326.282227,4349.230957,4342.692383,4327.692383,4307.436035,4445.128418,4471.666504,4261.666504,4390.641113,0.000000,0.000000,8.000000,,,,0.000000,2.000000,2.000000,0.000000,2.000000,2.000000,2.000000,0.000000,2.000000,4.000000,4.000000,4.000000,4.000000,2.000000,4.000000,16.666666,,,,,,,,,,,,,,,,,8.000000,0.000000,0.580145,0.365723,-0.630005,0.364380,0.989379,-0.045904,-0.055671,-79.764053,54.048626,25.439163
1732083003.957768,1732083003.959100,33.000000,0.000000,4306.538574,4323.333496,4323.589844,4327.948730,4310.769043,4328.589844,4347.692383,4347.948730,4333.589844,4308.205078,4445.128418,4479.487305,4269.102539,4393.333496,0.000000,0.000000,8.000000,,,,0.000000,2.000000,2.000000,0.000000,2.000000,2.000000,2.000000,0.000000,2.000000,4.000000,4.000000,4.000000,4.000000,2.000000,4.000000,16.666666,,,,,,,,,,,,,,,,,,,,,,,,,,,,
1732083003.965576,1732083003.967108,34.000000,0.000000,4307.692383,4323.974121,4322.820313,4326.538574,4332.948730,4315.384766,4346.538574,4340.769043,4333.846191,4315.641113,4446.025879,4490.641113,4279.743652,4393.461426,0.000000,0.000000,8.000000,,,,0.000000,2.000000,2.000000,0.000000,2.000000,2.000000,2.000000,0.000000,2.000000,4.000000,4.000000,4.000000,4.000000,2.000000,4.000000,16.666666,,,,,,,,,,,,,,,,,,,,,,,,,,,,
1732083003.973385,1732083003.974916,35.000000,0.000000,4309.487305,4323.589844,4322.563965,4323.077148,4330.000000,4316.666504,4347.307617,4338.333496,4335.128418,4323.461426,4455.000000,4491.282227,4280.512695,4395.000000,0.000000,0.000000,8.000000,,,,0.000000,2.000000,2.000000,0.000000,2.000000,2.000000,2.000000,0.000000,2.000000,4.000000,4.000000,4.000000,4.000000,2.000000,4.000000,16.666666,,,,,,,,,,,,,,,,,,,,,,,,,,,,
1732083003.981193,1732083003.982624,36.000000,0.000000,4305.128418,4321.282227,4324.871582,4323.717773,4303.333496,4328.846191,4346.922852,4345.897461,4338.333496,4322.307617,4457.051270,4479.743652,4278.077148,4398.205078,0.000000,0.000000,8.000000,,,,0.000000,2.000000,2.000000,0.000000,2.000000,2.000000,2.000000,0.000000,2.000000,4.000000,4.000000,4.000000,4.000000,2.000000,4.000000,16.666666,,,,,,,,,,,,,,,,,9.000000,0.000000,0.580194,0.365601,-0.630066,0.364319,0.989379,-0.029300,-0.062508,-79.587212,54.071056,25.577389
1732083003.989001,1732083003.990433,37.000000,0.000000,4304.102539,4320.512695,4323.333496,4323.589844,4313.461426,4323.077148,4344.230957,4345.256348,4330.897461,4313.461426,4449.102539,4472.948730,4279.358887,4396.794922,0.000000,0.000000,8.000000,,,,0.000000,2.000000,2.000000,0.000000,2.000000,2.000000,2.000000,0.000000,2.000000,4.000000,4.000000,4.000000,4.000000,2.000000,4.000000,16.666666,,,,,,,,,,,,,,,,,,,,,,,,,,,,
1732083003.996809,1732083003.998041,38.000000,0.000000,4309.230957,4323.077148,4321.666504,4320.897461,4338.077148,4314.358887,4345.128418,4342.179688,4329.487305,4313.589844,4450.256348,4483.333496,4280.256348,4397.563965,0.000000,0.000000,8.000000,,,,0.000000,2.000000,2.000000,0.000000,2.000000,2.000000,2.000000,0.000000,2.000000,4.000000,4.000000,4.000000,4.000000,2.000000,4.000000,16.666666,,,,,,,,,,,,,,,,,,,,,,,,,,,,
1732083004.004618,1732083004.005849,39.000000,0.000000,4309.615234,4319.871582,4321.025879,4323.333496,4326.282227,4324.615234,4345.897461,4346.794922,4341.922852,4326.282227,4461.538574,4491.794922,4284.487305,4405.769043,0.000000,0.000000,8.000000,,,,0.000000,2.000000,2.000000,0.000000,2.000000,2.000000,2.000000,0.000000,2.000000,4.000000,4.000000,4.000000,4.000000,2.000000,4.000000,16.666666,,,,,,,,,,,,,,,,,,,,,,,,,,,,
1732083004.012426,1732083004.013757,40.000000,0.000000,4309.743652,4317.051270,4322.948730,4329.230957,4306.410156,4328.589844,4346.153809,4348.205078,4343.974121,4327.948730,4459.487305,4487.051270,4289.230957,4406.025879,0.000000,0.000000,8.000000,,,,0.000000,2.000000,2.000000,0.000000,2.000000,2.000000,2.000000,0.000000,2.000000,4.000000,4.000000,4.000000,4.000000,2.000000,4.000000,16.666666,,,,,,,,,,,,,,,,,10.000000,0.000000,0.580089,0.365662,-0.630127,0.364319,0.980100,-0.041997,-0.063973,-79.253975,53.962555,25.499352
1732083004.020234,1732083004.021565,41.000000,0.000000,4312.436035,4324.230957,4323.205078,4329.358887,4311.922852,4318.205078,4347.179688,4345.641113,4337.307617,4319.102539,4450.000000,4485.384766,4283.974121,4395.641113,0.000000,0.000000,8.000000,,,,0.000000,2.000000,2.000000,0.000000,2.000000,2.000000,2.000000,0.000000,2.000000,4.000000,4.000000,4.000000,4.000000,2.000000,4.000000,16.666666,,,,,,,,,,,,,,,,,,,,,,,,,,,,
1732083004.028042,1732083004.029573,42.000000,0.000000,4310.256348,4329.615234,4320.128418,4328.077148,4322.563965,4320.256348,4347.563965,4340.512695,4335.256348,4315.641113,4449.615234,4484.871582,4279.102539,4398.077148,0.000000,0.000000,8.000000,,,,0.000000,2.000000,2.000000,0.000000,2.000000,2.000000,2.000000,0.000000,2.000000,4.000000,4.000000,4.000000,4.000000,2.000000,4.000000,16.666666,,,,,,,,,,,,,,,,,,,,,,,,,,,,
1732083004.035851,1732083004.037382,43.000000,0.000000,4305.641113,4323.846191,4319.487305,4328.333496,4321.282227,4328.205078,4346.922852,4337.051270,4332.820313,4317.307617,4451.153809,4479.487305,4283.461426,4404.230957,0.000000,0.000000,8.000000,,,,0.000000,2.000000,2.000000,0.000000,2.000000,2.000000,2.000000,0.000000,2.000000,4.000000,4.000000,4.000000,4.000000,2.000000,4.000000,16.666666,,,,,,,,,,,,,,,,,,,,,,,,,,,,
1732083004.043659,1732083004.045290,44.000000,0.000000,4304.230957,4318.589844,4321.922852,4321.025879,4326.922852,4320.641113,4343.461426,4339.871582,4330.641113,4316.922852,4453.846191,4479.743652,4283.077148,4398.589844,0.000000,0.000000,8.000000,,,,0.000000,2.000000,2.000000,0.000000,2.000000,2.000000,2.000000,0.000000,2.000000,4.000000,4.000000,4.000000,4.000000,2.000000,4.000000,16.666666,,,,,,,,,,,,,,,,,11.000000,0.000000,0.580175,0.366028,-0.630188,0.363708,0.984007,-0.030277,-0.061043,-79.045723,53.846336,25.631142
1732083004.051467,1732083004.053098,45.000000,0.000000,4301.025879,4318.205078,4320.128418,4312.948730,4328.974121,4312.307617,4342.692383,4343.333496,4330.897461,4314.358887,4460.512695,4487.820313,4283.974121,4396.282227,0.000000,0.000000,8.000000,,,,0.000000,2.000000,2.000000,0.000000,2.000000,2.000000,2.000000,0.000000,2.000000,4.000000,4.000000,4.000000,4.000000,2.000000,4.000000,16.666666,,,,,,,,,,,,,,,,,,,,,,,,,,,,
1732083004.059275,1732083004.061106,46.000000,0.000000,4295.128418,4316.922852,4318.077148,4314.743652,4314.615234,4318.077148,4344.487305,4342.948730,4330.769043,4312.436035,4456.794922,4485.641113,4290.000000,4399.487305,0.000000,0.000000,8.000000,,,,0.000000,2.000000,2.000000,0.000000,2.000000,2.000000,2.000000,0.000000,2.000000,4.000000,4.000000,4.000000,4.000000,2.000000,4.000000,16.666666,,,,,,,,,,,,,,,,,,,,,,,,,,,,
1732083004.067083,1732083004.068914,47.000000,0.000000,4297.436035,4317.948730,4319.743652,4320.897461,4308.461426,4323.077148,4348.077148,4343.333496,4332.436035,4313.205078,4446.922852,4481.282227,4288.333496,4397.051270,0.000000,0.000000,8.000000,,,,0.000000,2.000000,2.000000,0.000000,2.000000,2.000000,2.000000,0.000000,2.000000,4.000000,4.000000,4.000000,4.000000,2.000000,4.000000,16.666666,,,,,,,,,,,,,,,,,,,,,,,,,,,,
1732083004.074892,1732083004.076822,48.000000,0.000000,4305.769043,4323.461426,4319.358887,4324.358887,4314.743652,4319.102539,4345.512695,4345.000000,4332.179688,4315.000000,4453.717773,4489.743652,4287.436035,4398.717773,0.000000,0.000000,8.000000,,,,0.000000,2.000000,2.000000,0.000000,2.000000,2.000000,2.000000,0.000000,2.000000,4.000000,4.000000,4.000000,4.000000,2.000000,4.000000,16.666666,,,,,,,,,,,,,,,,,12.000000,0.000000,0.580289,0.366211,-0.630188,0.363342,0.983030,-0.032230,-0.060066,-78.930367,53.862198,25.694557
1732083004.082700,1732083004.084631,49.000000,0.000000,4307.436035,4324.615234,4320.256348,4323.205078,4323.974121,4314.102539,4342.051270,4339.615234,4323.589844,4306.282227,4459.871582,4490.384766,4291.282227,4399.615234,0.000000,0.000000,8.000000,,,,0.000000,2.000000,2.000000,0.000000,2.000000,2.000000,2.000000,0.000000,2.000000,4.000000,4.000000,4.000000,4.000000,2.000000,4.000000,16.666666,,,,,,,,,,,,,,,,,,,,,,,,,,,,
