title:two, start timestamp:1732081399.108820, stop timestamp:1732081429.123714, headset type:EPOCX, headset serial:E5020C3A, headset firmware:730, channels:67, sampling rate:eeg_128;mot_32, samples:3845      , version:2.2, 
Timestamp,OriginalTimestamp,EEG.Counter,EEG.Interpolated,EEG.AF3,EEG.F7,EEG.F3,EEG.FC5,EEG.T7,EEG.P7,EEG.O1,EEG.O2,EEG.P8,EEG.T8,EEG.FC6,EEG.F4,EEG.F8,EEG.AF4,EEG.RawCq,EEG.Battery,EEG.BatteryPercent,MarkerIndex,MarkerType,MarkerValueInt,EEG.MarkerHardware,CQ.AF3,CQ.F7,CQ.F3,CQ.FC5,CQ.T7,CQ.P7,CQ.O1,CQ.O2,CQ.P8,CQ.T8,CQ.FC6,CQ.F4,CQ.F8,CQ.AF4,CQ.Overall,EQ.SampleRateQuality,EQ.OVERALL,EQ.AF3,EQ.F7,EQ.F3,EQ.FC5,EQ.T7,EQ.P7,EQ.O1,EQ.O2,EQ.P8,EQ.T8,EQ.FC6,EQ.F4,EQ.F8,EQ.AF4,MOT.CounterMems,MOT.InterpolatedMems,MOT.Q0,MOT.Q1,MOT.Q2,MOT.Q3,MOT.AccX,MOT.AccY,MOT.AccZ,MOT.MagX,MOT.MagY,MOT.MagZ
1732081399.108820,1732081399.108901,69.000000,0.000000,4388.974121,4300.000000,4259.743652,4301.666504,4261.538574,4262.436035,4354.743652,4263.077148,4245.000000,4296.666504,4369.230957,4419.358887,4303.589844,4403.077148,1068.000000,0.000000,14.000000,,,,0.000000,2.000000,2.000000,0.000000,2.000000,2.000000,2.000000,0.000000,2.000000,4.000000,4.000000,4.000000,4.000000,2.000000,4.000000,16.666666,,,,,,,,,,,,,,,,,,,,,,,,,,,,
1732081399.116629,1732081399.116909,70.000000,0.000000,4390.000000,4299.487305,4260.384766,4302.307617,4263.333496,4261.282227,4352.563965,4263.077148,4242.948730,4295.641113,4373.333496,4431.282227,4306.794922,4406.922852,182.000000,0.000000,14.000000,,,,0.000000,2.000000,2.000000,0.000000,2.000000,2.000000,2.000000,0.000000,2.000000,4.000000,4.000000,4.000000,4.000000,2.000000,4.000000,16.666666,,,,,,,,,,,,,,,,,,,,,,,,,,,,
1732081399.124437,1732081399.124717,71.000000,0.000000,4389.743652,4297.436035,4258.461426,4299.871582,4276.025879,4259.871582,4352.692383,4263.205078,4249.871582,4297.692383,4376.666504,4429.615234,4308.717773,4408.461426,1204.000000,0.000000,14.000000,,,,0.000000,2.000000,2.000000,0.000000,2.000000,2.000000,2.000000,0.000000,2.000000,4.000000,4.000000,4.000000,4.000000,2.000000,4.000000,16.666666,,,,,,,,,,,,,,,,,,,,,,,,,,,,
1732081399.132245,1732081399.132425,72.000000,0.000000,4388.333496,4295.000000,4260.641113,4300.000000,4271.922852,4258.589844,4355.897461,4264.230957,4255.512695,4304.358887,4384.615234,4428.974121,4309.102539,4411.025879,1349.000000,0.000000,14.000000,,,,0.000000,2.000000,2.000000,0.000000,2.000000,2.000000,2.000000,0.000000,2.000000,4.000000,4.000000,4.000000,4.000000,2.000000,4.000000,16.666666,,,,,,,,,,,,,,,,,18.000000,0.000000,0.627746,0.404419,-0.600220,0.286560,0.963008,0.155781,-0.026859,-75.137573,65.980492,27.692799
1732081399.140053,1732081399.140233,73.000000,0.000000,4383.717773,4293.333496,4260.769043,4301.410156,4253.333496,4260.256348,4359.102539,4269.743652,4260.641113,4310.384766,4386.025879,4431.025879,4307.820313,4411.794922,1476.000000,0.000000,14.000000,,,,0.000000,2.000000,2.000000,0.000000,2.000000,2.000000,2.000000,0.000000,2.000000,4.000000,4.000000,4.000000,4.000000,2.000000,4.000000,16.666666,,,,,,,,,,,,,,,,,,,,,,,,,,,,
1732081399.147862,1732081399.147841,74.000000,0.000000,4377.179688,4296.282227,4259.743652,4301.153809,4261.538574,4264.487305,4360.128418,4273.846191,4267.948730,4309.230957,4375.769043,4423.333496,4306.025879,4405.897461,1369.000000,0.000000,14.000000,,,,0.000000,2.000000,2.000000,0.000000,2.000000,2.000000,2.000000,0.000000,2.000000,4.000000,4.000000,4.000000,4.000000,2.000000,4.000000,16.666666,,,,,,,,,,,,,,,,,,,,,,,,,,,,
1732081399.155670,1732081399.155649,75.000000,0.000000,4378.846191,4304.230957,4261.666504,4303.589844,4283.589844,4264.743652,4355.641113,4268.461426,4266.282227,4303.589844,4373.974121,4409.358887,4306.922852,4400.641113,1503.000000,0.000000,14.000000,,,,0.000000,2.000000,2.000000,0.000000,2.000000,2.000000,2.000000,0.000000,2.000000,4.000000,4.000000,4.000000,4.000000,2.000000,4.000000,16.666666,,,,,,,,,,,,,,,,,,,,,,,,,,,,
1732081399.163478,1732081399.163557,76.000000,0.000000,4381.282227,4305.128418,4265.641113,4305.128418,4277.179688,4263.333496,4356.410156,4262.563965,4259.615234,4301.282227,4379.102539,4405.128418,4312.820313,4401.025879,1733.000000,0.000000,14.000000,,,,0.000000,2.000000,2.000000,0.000000,2.000000,2.000000,2.000000,0.000000,2.000000,4.000000,4.000000,4.000000,4.000000,2.000000,4.000000,16.666666,,,,,,,,,,,,,,,,,19.000000,0.000000,0.628863,0.404602,-0.599304,0.285767,0.937126,0.188011,-0.050299,-75.041435,65.847527,27.644501
1732081399.171286,1732081399.171365,77.000000,0.000000,4374.358887,4304.102539,4263.077148,4303.589844,4265.641113,4262.820313,4358.333496,4264.358887,4257.820313,4297.179688,4372.436035,4406.538574,4312.692383,4400.000000,1658.000000,0.000000,14.000000,,,,0.000000,2.000000,2.000000,0.000000,2.000000,2.000000,2.000000,0.000000,2.000000,4.000000,4.000000,4.000000,4.000000,2.000000,4.000000,16.666666,,,,,,,,,,,,,,,,,,,,,,,,,,,,
1732081399.179094,1732081399.179373,78.000000,0.000000,4367.051270,4309.743652,4263.974121,4309.743652,4270.897461,4265.128418,4359.358887,4266.666504,4256.410156,4284.358887,4367.563965,4405.000000,4301.922852,4394.743652,1369.000000,0.000000,14.000000,,,,0.000000,2.000000,2.000000,0.000000,2.000000,2.000000,2.000000,0.000000,2.000000,4.000000,4.000000,4.000000,4.000000,2.000000,4.000000,16.666666,1.000000,16.666666,2.000000,2.000000,0.000000,2.000000,2.000000,2.000000,0.000000,2.000000,3.000000,3.000000,4.000000,4.000000,2.000000,3.000000,,,,,,,,,,,,
1732081399.186903,1732081399.187182,79.000000,0.000000,4364.487305,4313.077148,4268.846191,4317.051270,4280.128418,4267.692383,4361.410156,4264.487305,4248.589844,4277.307617,4373.333496,4406.025879,4299.230957,4386.153809,1503.000000,0.000000,14.000000,,,,0.000000,2.000000,2.000000,0.000000,2.000000,2.000000,2.000000,0.000000,2.000000,4.000000,4.000000,4.000000,4.000000,2.000000,4.000000,16.666666,,,,,,,,,,,,,,,,,,,,,,,,,,,,
1732081399.194711,1732081399.195090,80.000000,0.000000,4358.461426,4307.692383,4269.871582,4313.461426,4278.974121,4266.794922,4361.282227,4262.820313,4242.820313,4284.358887,4375.384766,4411.666504,4306.153809,4383.077148,1733.000000,0.000000,14.000000,,,,0.000000,2.000000,2.000000,0.000000,2.000000,2.000000,2.000000,0.000000,2.000000,4.000000,4.000000,4.000000,4.000000,2.000000,4.000000,16.666666,,,,,,,,,,,,,,,,,20.000000,0.000000,0.629488,0.404968,-0.598633,0.285278,0.937126,0.188011,-0.050299,-74.970230,65.908165,27.490379
1732081399.202519,1732081399.202898,81.000000,0.000000,4348.205078,4305.512695,4270.000000,4311.922852,4274.615234,4267.307617,4360.641113,4261.666504,4247.179688,4286.025879,4376.153809,4421.282227,4305.256348,4386.410156,1658.000000,0.000000,14.000000,,,,0.000000,2.000000,2.000000,0.000000,2.000000,2.000000,2.000000,0.000000,2.000000,4.000000,4.000000,4.000000,4.000000,2.000000,4.000000,16.666666,,,,,,,,,,,,,,,,,,,,,,,,,,,,
1732081399.210328,1732081399.210906,82.000000,0.000000,4339.487305,4306.538574,4266.794922,4312.948730,4285.769043,4270.897461,4357.179688,4264.871582,4256.666504,4283.717773,4381.538574,4422.563965,4300.000000,4380.641113,1369.000000,0.000000,14.000000,,,,0.000000,2.000000,2.000000,0.000000,2.000000,2.000000,2.000000,0.000000,2.000000,4.000000,4.000000,4.000000,4.000000,2.000000,4.000000,16.666666,,,,,,,,,,,,,,,,,,,,,,,,,,,,
1732081399.218136,1732081399.218714,83.000000,0.000000,4328.205078,4303.333496,4262.307617,4306.922852,4294.487305,4274.102539,4358.717773,4275.641113,4265.256348,4291.666504,4377.307617,4418.333496,4299.487305,4363.461426,1503.000000,0.000000,14.000000,,,,0.000000,2.000000,2.000000,0.000000,2.000000,2.000000,2.000000,0.000000,2.000000,4.000000,4.000000,4.000000,4.000000,2.000000,4.000000,16.666666,,,,,,,,,,,,,,,,,,,,,,,,,,,,
1732081399.225944,1732081399.226622,84.000000,0.000000,4318.846191,4302.436035,4259.230957,4304.871582,4286.666504,4275.897461,4361.794922,4277.563965,4271.538574,4301.153809,4367.307617,4419.615234,4297.692383,4354.871582,1733.000000,0.000000,14.000000,,,,0.000000,2.000000,2.000000,0.000000,2.000000,2.000000,2.000000,0.000000,2.000000,4.000000,4.000000,4.000000,4.000000,2.000000,4.000000,16.666666,,,,,,,,,,,,,,,,,21.000000,0.000000,0.631792,0.405396,-0.596436,0.284180,0.994262,0.174338,-0.048834,-74.890884,65.887283,27.857206
1732081399.233752,1732081399.234430,85.000000,0.000000,4316.538574,4306.282227,4265.000000,4312.692383,4283.461426,4280.641113,4366.282227,4270.000000,4273.717773,4297.307617,4365.641113,4420.769043,4287.820313,4351.153809,1658.000000,0.000000,14.000000,,,,0.000000,2.000000,2.000000,0.000000,2.000000,2.000000,2.000000,0.000000,2.000000,4.000000,4.000000,4.000000,4.000000,2.000000,4.000000,16.666666,,,,,,,,,,,,,,,,,,,,,,,,,,,,
1732081399.241561,1732081399.242438,86.000000,0.000000,4314.743652,4307.179688,4268.205078,4316.025879,4295.000000,4284.358887,4362.692383,4270.512695,4272.436035,4289.358887,4367.307617,4416.410156,4282.307617,4342.563965,1369.000000,0.000000,14.000000,,,,0.000000,2.000000,2.000000,0.000000,2.000000,2.000000,2.000000,0.000000,2.000000,4.000000,4.000000,4.000000,4.000000,2.000000,4.000000,16.666666,,,,,,,,,,,,,,,,,,,,,,,,,,,,
1732081399.249369,1732081399.250247,87.000000,0.000000,4306.153809,4301.666504,4269.230957,4313.589844,4296.538574,4286.025879,4364.487305,4280.641113,4270.384766,4288.589844,4361.794922,4415.384766,4282.692383,4337.563965,1503.000000,0.000000,14.000000,,,,0.000000,2.000000,2.000000,0.000000,2.000000,2.000000,2.000000,0.000000,2.000000,4.000000,4.000000,4.000000,4.000000,2.000000,4.000000,16.666666,,,,,,,,,,,,,,,,,,,,,,,,,,,,
1732081399.257177,1732081399.257955,88.000000,0.000000,4302.692383,4302.307617,4267.692383,4316.794922,4294.615234,4289.615234,4369.102539,4287.563965,4275.000000,4294.487305,4357.948730,4417.436035,4282.436035,4340.256348,1733.000000,0.000000,14.000000,,,,0.000000,2.000000,2.000000,0.000000,2.000000,2.000000,2.000000,0.000000,2.000000,4.000000,4.000000,4.000000,4.000000,2.000000,4.000000,16.666666,,,,,,,,,,,,,,,,,22.000000,0.000000,0.631915,0.404907,-0.596375,0.284729,0.976682,0.157734,-0.043462,-74.788284,65.850365,28.102671
1732081399.264985,1732081399.265763,89.000000,0.000000,4302.692383,4306.794922,4273.205078,4317.563965,4301.025879,4292.948730,4369.230957,4289.102539,4283.461426,4301.282227,4361.666504,4419.102539,4280.000000,4338.461426,1658.000000,0.000000,14.000000,,,,0.000000,2.000000,2.000000,0.000000,2.000000,2.000000,2.000000,0.000000,2.000000,4.000000,4.000000,4.000000,4.000000,2.000000,4.000000,16.666666,,,,,,,,,,,,,,,,,,,,,,,,,,,,
1732081399.272793,1732081399.273372,90.000000,0.000000,4295.384766,4305.512695,4275.384766,4313.974121,4305.384766,4298.461426,4368.077148,4285.256348,4283.974121,4301.794922,4366.794922,4421.922852,4278.205078,4330.641113,1369.000000,0.000000,14.000000,,,,0.000000,2.000000,2.000000,0.000000,2.000000,2.000000,2.000000,0.000000,2.000000,4.000000,4.000000,4.000000,4.000000,2.000000,4.000000,16.666666,,,,,,,,,,,,,,,,,,,,,,,,,,,,
1732081399.280602,1732081399.281180,91.000000,0.000000,4286.282227,4299.487305,4270.512695,4310.897461,4315.256348,4298.846191,4370.256348,4281.538574,4280.000000,4300.128418,4359.230957,4422.051270,4278.717773,4325.512695,1503.000000,0.000000,14.000000,,,,0.000000,2.000000,2.000000,0.000000,2.000000,2.000000,2.000000,0.000000,2.000000,4.000000,4.000000,4.000000,4.000000,2.000000,4.000000,16.666666,,,,,,,,,,,,,,,,,,,,,,,,,,,,
1732081399.288410,1732081399.288888,92.000000,0.000000,4281.025879,4297.051270,4266.922852,4308.974121,4316.666504,4296.922852,4370.641113,4289.358887,4286.410156,4304.871582,4350.256348,4419.615234,4277.436035,4325.769043,1733.000000,0.000000,14.000000,,,,0.000000,2.000000,2.000000,0.000000,2.000000,2.000000,2.000000,0.000000,2.000000,4.000000,4.000000,4.000000,4.000000,2.000000,4.000000,16.666666,,,,,,,,,,,,,,,,,23.000000,0.000000,0.631915,0.404907,-0.596375,0.284729,0.934684,0.154316,-0.015627,-74.765175,65.865463,28.136497
1732081399.296218,1732081399.296696,93.000000,0.000000,4276.538574,4299.358887,4270.769043,4305.769043,4300.384766,4297.436035,4369.102539,4292.436035,4292.051270,4308.461426,4360.769043,4419.615234,4277.179688,4322.820313,1658.000000,0.000000,14.000000,,,,0.000000,2.000000,2.000000,0.000000,2.000000,2.000000,2.000000,0.000000,2.000000,4.000000,4.000000,4.000000,4.000000,2.000000,4.000000,16.666666,,,,,,,,,,,,,,,,,,,,,,,,,,,,
1732081399.304026,1732081399.304305,94.000000,0.000000,4273.589844,4297.051270,4271.025879,4303.589844,4295.384766,4297.563965,4369.871582,4286.794922,4288.461426,4306.922852,4372.563965,4414.487305,4280.256348,4315.641113,1369.000000,0.000000,14.000000,,,,0.000000,2.000000,2.000000,0.000000,2.000000,2.000000,2.000000,0.000000,2.000000,4.000000,4.000000,4.000000,4.000000,2.000000,4.000000,16.666666,,,,,,,,,,,,,,,,,,,,,,,,,,,,
1732081399.311835,1732081399.312113,95.000000,0.000000,4270.256348,4295.641113,4266.025879,4304.487305,4306.538574,4296.794922,4371.666504,4291.282227,4288.589844,4306.666504,4368.205078,4408.205078,4283.589844,4312.948730,1503.000000,0.000000,14.000000,,,,0.000000,2.000000,2.000000,0.000000,2.000000,2.000000,2.000000,0.000000,2.000000,4.000000,4.000000,4.000000,4.000000,2.000000,4.000000,16.666666,,,,,,,,,,,,,,,,,,,,,,,,,,,,
1732081399.319643,1732081399.319821,96.000000,0.000000,4263.461426,4295.897461,4266.666504,4305.641113,4308.333496,4298.077148,4372.820313,4297.307617,4291.410156,4302.051270,4360.641113,4415.897461,4280.512695,4311.282227,1733.000000,0.000000,14.000000,,,,0.000000,2.000000,2.000000,0.000000,2.000000,2.000000,2.000000,0.000000,2.000000,4.000000,4.000000,4.000000,4.000000,2.000000,4.000000,16.666666,,,,,,,,,,,,,,,,,24.000000,0.000000,0.632656,0.404419,-0.596008,0.284546,0.932731,0.154316,-0.010255,-74.786461,65.929359,28.348896
1732081399.327451,1732081399.327629,97.000000,0.000000,4258.333496,4293.461426,4268.205078,4306.153809,4303.974121,4301.538574,4373.205078,4294.358887,4287.820313,4294.102539,4364.102539,4425.256348,4279.102539,4308.846191,1658.000000,0.000000,14.000000,,,,0.000000,2.000000,2.000000,0.000000,2.000000,2.000000,2.000000,0.000000,2.000000,4.000000,4.000000,4.000000,4.000000,2.000000,4.000000,16.666666,,,,,,,,,,,,,,,,,,,,,,,,,,,,
1732081399.335260,1732081399.335238,98.000000,0.000000,4256.922852,4292.436035,4267.692383,4302.436035,4308.589844,4299.358887,4374.358887,4291.666504,4285.256348,4294.230957,4367.820313,4420.128418,4283.077148,4312.179688,1369.000000,0.000000,14.000000,,,,0.000000,2.000000,2.000000,0.000000,2.000000,2.000000,2.000000,0.000000,2.000000,4.000000,4.000000,4.000000,4.000000,2.000000,4.000000,16.666666,,,,,,,,,,,,,,,,,,,,,,,,,,,,
1732081399.343068,1732081399.343046,99.000000,0.000000,4255.256348,4296.922852,4265.128418,4302.563965,4314.743652,4300.384766,4373.974121,4296.282227,4287.692383,4295.000000,4363.205078,4412.820313,4281.666504,4311.666504,1503.000000,0.000000,14.000000,,,,0.000000,2.000000,2.000000,0.000000,2.000000,2.000000,2.000000,0.000000,2.000000,4.000000,4.000000,4.000000,4.000000,2.000000,4.000000,16.666666,,,,,,,,,,,,,,,,,,,,,,,,,,,,
1732081399.350876,1732081399.350754,100.000000,0.000000,4255.512695,4300.256348,4268.589844,4308.974121,4319.102539,4307.692383,4376.666504,4299.230957,4290.256348,4289.230957,4360.384766,4416.538574,4279.230957,4305.641113,1733.000000,0.000000,14.000000,,,,0.000000,2.000000,2.000000,0.000000,2.000000,2.000000,2.000000,0.000000,2.000000,4.000000,4.000000,4.000000,4.000000,2.000000,4.000000,16.666666,,,,,,,,,,,,,,,,,25.000000,0.000000,0.633734,0.402039,-0.595947,0.285645,0.993285,0.164083,-0.034672,-74.833702,65.849449,28.544271
1732081399.358684,1732081399.358563,101.000000,0.000000,4253.205078,4298.846191,4267.948730,4309.615234,4318.205078,4311.410156,4376.153809,4299.102539,4292.692383,4291.538574,4362.563965,4416.794922,4278.333496,4303.205078,1658.000000,0.000000,14.000000,,,,0.000000,2.000000,2.000000,0.000000,2.000000,2.000000,2.000000,0.000000,2.000000,4.000000,4.000000,4.000000,4.000000,2.000000,4.000000,16.666666,,,,,,,,,,,,,,,,,,,,,,,,,,,,
1732081399.366492,1732081399.366171,102.000000,0.000000,4245.128418,4293.717773,4265.000000,4300.256348,4321.410156,4312.692383,4374.871582,4299.615234,4294.615234,4296.025879,4357.948730,4408.333496,4269.615234,4297.948730,1369.000000,0.000000,14.000000,,,,0.000000,2.000000,2.000000,0.000000,2.000000,2.000000,2.000000,0.000000,2.000000,4.000000,4.000000,4.000000,4.000000,2.000000,4.000000,16.666666,,,,,,,,,,,,,,,,,,,,,,,,,,,,
1732081399.374301,1732081399.373979,103.000000,0.000000,4242.820313,4289.230957,4263.077148,4294.487305,4333.846191,4313.974121,4370.897461,4302.307617,4297.307617,4294.743652,4349.615234,4403.974121,4263.333496,4290.256348,1503.000000,0.000000,14.000000,,,,0.000000,2.000000,2.000000,0.000000,2.000000,2.000000,2.000000,0.000000,2.000000,4.000000,4.000000,4.000000,4.000000,2.000000,4.000000,16.666666,,,,,,,,,,,,,,,,,,,,,,,,,,,,
1732081399.382109,1732081399.381687,104.000000,0.000000,4247.563965,4293.077148,4265.641113,4297.820313,4328.333496,4308.461426,4370.641113,4306.282227,4301.153809,4301.025879,4354.230957,4409.230957,4269.871582,4293.077148,1733.000000,0.000000,14.000000,,,,0.000000,2.000000,2.000000,0.000000,2.000000,2.000000,2.000000,0.000000,2.000000,4.000000,4.000000,4.000000,4.000000,2.000000,4.000000,16.666666,,,,,,,,,,,,,,,,,26.000000,0.000000,0.633370,0.401062,-0.596436,0.286804,0.956660,0.166036,-0.031254,-75.125298,65.973053,28.335861
1732081399.389917,1732081399.389495,105.000000,0.000000,4250.384766,4300.897461,4263.589844,4301.282227,4312.307617,4305.897461,4371.410156,4305.256348,4302.948730,4312.563965,4365.384766,4412.436035,4279.358887,4301.153809,1658.000000,0.000000,14.000000,,,,0.000000,2.000000,2.000000,0.000000,2.000000,2.000000,2.000000,0.000000,2.000000,4.000000,4.000000,4.000000,4.000000,2.000000,4.000000,16.666666,,,,,,,,,,,,,,,,,,,,,,,,,,,,
1732081399.397725,1732081399.397503,106.000000,0.000000,4246.922852,4302.051270,4262.051270,4303.333496,4315.641113,4317.307617,4373.461426,4302.051270,4303.717773,4313.333496,4363.461426,4407.948730,4280.256348,4298.974121,1369.000000,0.000000,14.000000,,,,0.000000,2.000000,2.000000,0.000000,2.000000,2.000000,2.000000,0.000000,2.000000,4.000000,4.000000,4.000000,4.000000,2.000000,4.000000,16.666666,,,,,,,,,,,,,,,,,,,,,,,,,,,,
1732081399.405534,1732081399.405311,107.000000,0.000000,4243.077148,4298.589844,4261.666504,4303.717773,4325.769043,4321.666504,4373.205078,4302.563965,4303.717773,4307.820313,4356.410156,4402.948730,4275.512695,4293.077148,1503.000000,0.000000,14.000000,,,,0.000000,2.000000,2.000000,0.000000,2.000000,2.000000,2.000000,0.000000,2.000000,4.000000,4.000000,4.000000,4.000000,2.000000,4.000000,16.666666,,,,,,,,,,,,,,,,,,,,,,,,,,,,
1732081399.413342,1732081399.413019,108.000000,0.000000,4246.922852,4296.666504,4262.692383,4299.871582,4321.153809,4314.615234,4373.333496,4305.897461,4301.282227,4304.743652,4358.974121,4403.717773,4273.846191,4293.077148,1733.000000,0.000000,14.000000,,,,0.000000,2.000000,2.000000,0.000000,2.000000,2.000000,2.000000,0.000000,2.000000,4.000000,4.000000,4.000000,4.000000,2.000000,4.000000,16.666666,,,,,,,,,,,,,,,,,27.000000,0.000000,0.633370,0.401062,-0.596436,0.286804,0.948358,0.152851,-0.025882,-75.481491,66.073174,28.272047
1732081399.421150,1732081399.420827,109.000000,0.000000,4250.000000,4295.897461,4264.102539,4297.563965,4317.051270,4312.051270,4373.077148,4307.948730,4301.922852,4305.769043,4363.333496,4406.922852,4277.820313,4296.666504,1658.000000,0.000000,14.000000,,,,0.000000,2.000000,2.000000,0.000000,2.000000,2.000000,2.000000,0.000000,2.000000,4.000000,4.000000,4.000000,4.000000,2.000000,4.000000,16.666666,,,,,,,,,,,,,,,,,,,,,,,,,,,,
1732081399.428958,1732081399.428835,110.000000,0.000000,4247.436035,4296.153809,4266.153809,4298.205078,4323.205078,4313.974121,4372.820313,4306.666504,4303.717773,4304.871582,4361.025879,4404.743652,4277.051270,4296.282227,1369.000000,0.000000,14.000000,,,,0.000000,2.000000,2.000000,0.000000,2.000000,2.000000,2.000000,0.000000,2.000000,4.000000,4.000000,4.000000,4.000000,2.000000,4.000000,16.666666,,,,,,,,,,,,,,,,,,,,,,,,,,,,
1732081399.436767,1732081399.436643,111.000000,0.000000,4249.615234,4300.512695,4266.410156,4300.769043,4324.487305,4313.077148,4373.717773,4306.538574,4301.538574,4297.820313,4360.384766,4403.333496,4274.615234,4297.051270,1503.000000,0.000000,14.000000,,,,0.000000,2.000000,2.000000,0.000000,2.000000,2.000000,2.000000,0.000000,2.000000,4.000000,4.000000,4.000000,4.000000,2.000000,4.000000,16.666666,,,,,,,,,,,,,,,,,,,,,,,,,,,,
1732081399.444575,1732081399.444551,112.000000,0.000000,4255.641113,4303.077148,4262.563965,4301.410156,4326.282227,4310.641113,4372.051270,4305.512695,4300.128418,4296.025879,4364.487305,4407.563965,4281.153809,4303.333496,1733.000000,0.000000,14.000000,,,,0.000000,2.000000,2.000000,0.000000,2.000000,2.000000,2.000000,0.000000,2.000000,4.000000,4.000000,4.000000,4.000000,2.000000,4.000000,16.666666,,,,,,,,,,,,,,,,,28.000000,0.000000,0.632432,0.401123,-0.595825,0.290039,0.976193,0.174338,-0.041997,-75.338341,65.895935,28.465359
1732081399.452383,1732081399.452359,113.000000,0.000000,4257.051270,4301.025879,4262.307617,4299.487305,4333.717773,4309.615234,4368.974121,4301.025879,4300.000000,4300.641113,4364.102539,4408.333496,4284.102539,4304.230957,1658.000000,0.000000,14.000000,,,,0.000000,2.000000,2.000000,0.000000,2.000000,2.000000,2.000000,0.000000,2.000000,4.000000,4.000000,4.000000,4.000000,2.000000,4.000000,16.666666,,,,,,,,,,,,,,,,,,,,,,,,,,,,
1732081399.460191,1732081399.460367,114.000000,0.000000,4256.922852,4303.717773,4263.846191,4300.384766,4331.410156,4309.615234,4367.307617,4300.897461,4300.384766,4299.871582,4361.025879,4402.820313,4277.179688,4301.666504,1369.000000,0.000000,14.000000,,,,0.000000,2.000000,2.000000,0.000000,2.000000,2.000000,2.000000,0.000000,2.000000,4.000000,4.000000,4.000000,4.000000,2.000000,4.000000,16.666666,,,,,,,,,,,,,,,,,,,,,,,,,,,,
1732081399.468000,1732081399.468176,115.000000,0.000000,4255.641113,4310.000000,4265.384766,4302.307617,4318.333496,4310.897461,4369.871582,4307.820313,4302.436035,4298.974121,4364.487305,4402.948730,4281.153809,4305.000000,1503.000000,0.000000,14.000000,,,,0.000000,2.000000,2.000000,0.000000,2.000000,2.000000,2.000000,0.000000,2.000000,4.000000,4.000000,4.000000,4.000000,2.000000,4.000000,16.666666,,,,,,,,,,,,,,,,,,,,,,,,,,,,
1732081399.475808,1732081399.475884,116.000000,0.000000,4254.871582,4309.615234,4265.512695,4302.179688,4314.743652,4311.538574,4368.077148,4312.307617,4302.179688,4300.512695,4370.256348,4408.717773,4289.358887,4310.256348,1733.000000,0.000000,14.000000,,,,0.000000,2.000000,2.000000,0.000000,2.000000,2.000000,2.000000,0.000000,2.000000,4.000000,4.000000,4.000000,4.000000,2.000000,4.000000,16.666666,,,,,,,,,,,,,,,,,29.000000,0.000000,0.632253,0.403320,-0.593933,0.291260,0.931754,0.209987,-0.037602,-75.280724,65.897377,28.421940
1732081399.483616,1732081399.483692,117.000000,0.000000,4257.051270,4305.128418,4267.948730,4300.128418,4326.666504,4308.974121,4366.794922,4308.077148,4298.205078,4295.641113,4368.974121,4407.692383,4286.410156,4309.230957,1658.000000,0.000000,14.000000,,,,0.000000,2.000000,2.000000,0.000000,2.000000,2.000000,2.000000,0.000000,2.000000,4.000000,4.000000,4.000000,4.000000,2.000000,4.000000,16.666666,,,,,,,,,,,,,,,,,,,,,,,,,,,,
1732081399.491424,1732081399.491700,118.000000,0.000000,4254.615234,4305.000000,4266.153809,4301.794922,4332.692383,4308.717773,4367.436035,4307.307617,4299.615234,4292.563965,4363.846191,4402.436035,4285.000000,4305.384766,1369.000000,0.000000,14.000000,,,,0.000000,2.000000,2.000000,0.000000,2.000000,2.000000,2.000000,0.000000,2.000000,4.000000,4.000000,4.000000,4.000000,2.000000,4.000000,16.666666,,,,,,,,,,,,,,,,,,,,,,,,,,,,
1732081399.499233,1732081399.499508,119.000000,0.000000,4251.922852,4306.794922,4266.922852,4302.948730,4321.538574,4313.077148,4371.666504,4312.179688,4303.974121,4298.077148,4366.922852,4407.051270,4290.128418,4306.410156,1503.000000,0.000000,14.000000,,,,0.000000,2.000000,2.000000,0.000000,2.000000,2.000000,2.000000,0.000000,2.000000,4.000000,4.000000,4.000000,4.000000,2.000000,4.000000,16.666666,,,,,,,,,,,,,,,,,,,,,,,,,,,,
1732081399.507041,1732081399.507416,120.000000,0.000000,4257.179688,4306.282227,4265.897461,4304.358887,4312.948730,4313.205078,4370.128418,4312.692383,4304.102539,4301.410156,4372.307617,4411.922852,4291.410156,4309.615234,1733.000000,0.000000,14.000000,,,,0.000000,2.000000,2.000000,0.000000,2.000000,2.000000,2.000000,0.000000,2.000000,4.000000,4.000000,4.000000,4.000000,2.000000,4.000000,16.666666,,,,,,,,,,,,,,,,,30.000000,0.000000,0.632615,0.404724,-0.592651,0.291138,0.931754,0.209987,-0.037602,-75.354050,65.770210,28.341772
1732081399.514849,1732081399.515224,121.000000,0.000000,4258.077148,4304.871582,4264.871582,4305.128418,4320.256348,4309.871582,4370.769043,4308.461426,4301.538574,4295.641113,4368.974121,4410.769043,4289.102539,4309.487305,1658.000000,0.000000,14.000000,,,,0.000000,2.000000,2.000000,0.000000,2.000000,2.000000,2.000000,0.000000,2.000000,4.000000,4.000000,4.000000,4.000000,2.000000,4.000000,16.666666,,,,,,,,,,,,,,,,,,,,,,,,,,,,
1732081399.522657,1732081399.523232,122.000000,0.000000,4253.717773,4306.282227,4265.256348,4304.615234,4329.743652,4313.077148,4371.410156,4309.487305,4302.692383,4293.205078,4369.743652,4414.487305,4289.615234,4311.153809,1369.000000,0.000000,14.000000,,,,0.000000,2.000000,2.000000,0.000000,2.000000,2.000000,2.000000,0.000000,2.000000,4.000000,4.000000,4.000000,4.000000,2.000000,4.000000,16.666666,,,,,,,,,,,,,,,,,,,,,,,,,,,,
1732081399.530465,1732081399.531040,123.000000,0.000000,4254.102539,4305.128418,4268.077148,4305.000000,4317.820313,4317.563965,4370.769043,4313.717773,4307.051270,4295.769043,4377.307617,4420.512695,4289.871582,4318.717773,1503.000000,0.000000,14.000000,,,,0.000000,2.000000,2.000000,0.000000,2.000000,2.000000,2.000000,0.000000,2.000000,4.000000,4.000000,4.000000,4.000000,2.000000,4.000000,16.666666,,,,,,,,,,,,,,,,,,,,,,,,,,,,
1732081399.538274,1732081399.538949,124.000000,0.000000,4258.589844,4301.922852,4268.077148,4303.717773,4314.615234,4311.410156,4370.000000,4313.205078,4306.282227,4294.358887,4379.358887,4415.641113,4291.410156,4320.897461,1733.000000,0.000000,14.000000,,,,0.000000,2.000000,2.000000,0.000000,2.000000,2.000000,2.000000,0.000000,2.000000,4.000000,4.000000,4.000000,4.000000,2.000000,4.000000,16.666666,,,,,,,,,,,,,,,,,31.000000,0.000000,0.633343,0.408508,-0.589539,0.290588,0.974240,0.212917,-0.063973,-75.396782,65.913864,28.311834
1732081399.546082,1732081399.546757,125.000000,0.000000,4260.256348,4304.230957,4269.615234,4303.077148,4331.153809,4304.230957,4372.307617,4310.897461,4301.410156,4292.307617,4376.538574,4413.846191,4290.128418,4317.307617,1658.000000,0.000000,14.000000,,,,0.000000,2.000000,2.000000,0.000000,2.000000,2.000000,2.000000,0.000000,2.000000,4.000000,4.000000,4.000000,4.000000,2.000000,4.000000,16.666666,,,,,,,,,,,,,,,,,,,,,,,,,,,,
1732081399.553890,1732081399.554765,126.000000,0.000000,4259.230957,4308.333496,4271.410156,4306.666504,4325.512695,4311.666504,4375.897461,4312.436035,4303.205078,4294.615234,4376.666504,4422.563965,4283.717773,4317.051270,1369.000000,0.000000,14.000000,,,,0.000000,2.000000,2.000000,0.000000,2.000000,2.000000,2.000000,0.000000,2.000000,4.000000,4.000000,4.000000,4.000000,2.000000,4.000000,16.666666,,,,,,,,,,,,,,,,,,,,,,,,,,,,
1732081399.561699,1732081399.562573,127.000000,0.000000,4259.743652,4303.589844,4268.589844,4310.128418,4306.410156,4319.615234,4375.384766,4313.717773,4307.563965,4296.153809,4380.128418,4421.794922,4285.128418,4317.436035,14.000000,0.000000,14.000000,,,,0.000000,2.000000,2.000000,0.000000,2.000000,2.000000,2.000000,0.000000,2.000000,4.000000,4.000000,4.000000,4.000000,2.000000,4.000000,16.666666,,,,,,,,,,,,,,,,,,,,,,,,,,,,
1732081399.569507,1732081399.570481,0.000000,0.000000,4263.333496,4298.333496,4267.563965,4307.307617,4306.922852,4314.230957,4376.410156,4310.897461,4303.974121,4295.512695,4379.871582,4414.358887,4291.794922,4315.384766,6.000000,0.000000,14.000000,,,,0.000000,2.000000,2.000000,0.000000,2.000000,2.000000,2.000000,0.000000,2.000000,4.000000,4.000000,4.000000,4.000000,2.000000,4.000000,16.666666,,,,,,,,,,,,,,,,,0.000000,0.000000,0.632669,0.414124,-0.586548,0.290161,0.963497,0.128434,-0.019534,-75.288063,65.971901,28.432587
1732081399.577315,1732081399.578289,1.000000,0.000000,4268.077148,4301.794922,4268.077148,4307.051270,4316.794922,4311.794922,4375.641113,4311.410156,4304.743652,4301.794922,4376.410156,4410.897461,4293.077148,4312.563965,1290.000000,0.000000,14.000000,,,,0.000000,2.000000,2.000000,0.000000,2.000000,2.000000,2.000000,0.000000,2.000000,4.000000,4.000000,4.000000,4.000000,2.000000,4.000000,16.666666,,,,,,,,,,,,,,,,,,,,,,,,,,,,
1732081399.585123,1732081399.586297,2.000000,0.000000,4273.461426,4304.743652,4272.820313,4310.897461,4314.358887,4322.563965,4378.846191,4313.974121,4313.461426,4307.820313,4380.128418,4410.256348,4291.282227,4313.077148,1215.000000,0.000000,14.000000,,,,0.000000,2.000000,2.000000,0.000000,2.000000,2.000000,2.000000,0.000000,2.000000,4.000000,4.000000,4.000000,4.000000,2.000000,4.000000,16.666666,,,,,,,,,,,,,,,,,,,,,,,,,,,,
1732081399.592932,1732081399.594106,3.000000,0.000000,4275.384766,4300.897461,4270.128418,4311.410156,4314.358887,4322.948730,4377.563965,4310.000000,4315.256348,4309.230957,4390.256348,4412.436035,4293.717773,4318.717773,1167.000000,0.000000,14.000000,,,,0.000000,2.000000,2.000000,0.000000,2.000000,2.000000,2.000000,0.000000,2.000000,4.000000,4.000000,4.000000,4.000000,2.000000,4.000000,16.666666,,,,,,,,,,,,,,,,,,,,,,,,,,,,
1732081399.600740,1732081399.602014,4.000000,0.000000,4272.179688,4299.230957,4267.692383,4313.589844,4317.307617,4314.743652,4375.512695,4307.948730,4312.051270,4308.717773,4389.743652,4417.179688,4293.717773,4322.948730,1170.000000,0.000000,14.000000,,,,0.000000,2.000000,2.000000,0.000000,2.000000,2.000000,2.000000,0.000000,2.000000,4.000000,4.000000,4.000000,4.000000,2.000000,4.000000,16.666666,,,,,,,,,,,,,,,,,1.000000,0.000000,0.632662,0.413879,-0.586426,0.290771,0.998657,0.120132,-0.028812,-75.153328,65.947235,28.300394
1732081399.608548,1732081399.609822,5.000000,0.000000,4270.641113,4301.282227,4267.436035,4316.794922,4318.846191,4323.846191,4376.538574,4315.769043,4316.922852,4307.307617,4386.410156,4414.615234,4291.025879,4323.333496,1067.000000,0.000000,14.000000,,,,0.000000,2.000000,2.000000,0.000000,2.000000,2.000000,2.000000,0.000000,2.000000,4.000000,4.000000,4.000000,4.000000,2.000000,4.000000,16.666666,,,,,,,,,,,,,,,,,,,,,,,,,,,,
1732081399.616356,1732081399.617830,6.000000,0.000000,4269.615234,4300.128418,4270.897461,4313.077148,4331.025879,4328.974121,4375.897461,4322.436035,4320.897461,4304.743652,4390.000000,4411.025879,4293.205078,4322.692383,178.000000,0.000000,14.000000,,,,0.000000,2.000000,2.000000,0.000000,2.000000,2.000000,2.000000,0.000000,2.000000,4.000000,4.000000,4.000000,4.000000,2.000000,4.000000,16.666666,,,,,,,,,,,,,,,,,,,,,,,,,,,,
1732081399.624164,1732081399.625638,7.000000,0.000000,4272.820313,4300.641113,4270.000000,4311.282227,4332.563965,4314.615234,4368.333496,4318.205078,4319.487305,4302.948730,4393.333496,4418.333496,4298.717773,4327.051270,1192.000000,0.000000,14.000000,,,,0.000000,2.000000,2.000000,0.000000,2.000000,2.000000,2.000000,0.000000,2.000000,4.000000,4.000000,4.000000,4.000000,2.000000,4.000000,16.666666,,,,,,,,,,,,,,,,,,,,,,,,,,,,
1732081399.631973,1732081399.633346,8.000000,0.000000,4283.077148,4302.179688,4270.384766,4317.307617,4317.563965,4308.333496,4368.205078,4316.025879,4319.102539,4302.820313,4393.205078,4426.410156,4301.922852,4336.282227,1347.000000,0.000000,14.000000,,,,0.000000,2.000000,2.000000,0.000000,2.000000,2.000000,2.000000,0.000000,2.000000,4.000000,4.000000,4.000000,4.000000,2.000000,4.000000,16.666666,,,,,,,,,,,,,,,,,2.000000,0.000000,0.632689,0.413147,-0.586670,0.291260,0.998657,0.120132,-0.028812,-74.969193,66.047264,28.238319
1732081399.639781,1732081399.641155,9.000000,0.000000,4289.230957,4303.589844,4269.230957,4320.384766,4313.461426,4318.205078,4372.692383,4316.153809,4317.179688,4304.358887,4393.077148,4425.641113,4304.743652,4341.153809,1467.000000,0.000000,14.000000,,,,0.000000,2.000000,2.000000,0.000000,2.000000,2.000000,2.000000,0.000000,2.000000,4.000000,4.000000,4.000000,4.000000,2.000000,4.000000,16.666666,,,,,,,,,,,,,,,,,,,,,,,,,,,,
1732081399.647589,1732081399.648763,10.000000,0.000000,4286.666504,4306.410156,4268.333496,4318.205078,4323.205078,4320.641113,4373.205078,4316.153809,4314.102539,4304.487305,4393.846191,4426.794922,4307.179688,4337.948730,1369.000000,0.000000,14.000000,,,,0.000000,2.000000,2.000000,0.000000,2.000000,2.000000,2.000000,0.000000,2.000000,4.000000,4.000000,4.000000,4.000000,2.000000,4.000000,16.666666,,,,,,,,,,,,,,,,,,,,,,,,,,,,
1732081399.655398,1732081399.656571,11.000000,0.000000,4286.666504,4306.666504,4268.846191,4320.256348,4326.282227,4315.512695,4373.205078,4319.743652,4320.000000,4308.333496,4398.974121,4436.025879,4309.871582,4340.256348,1503.000000,0.000000,14.000000,,,,0.000000,2.000000,2.000000,0.000000,2.000000,2.000000,2.000000,0.000000,2.000000,4.000000,4.000000,4.000000,4.000000,2.000000,4.000000,16.666666,,,,,,,,,,,,,,,,,,,,,,,,,,,,
1732081399.663206,1732081399.664280,12.000000,0.000000,4296.282227,4309.871582,4269.230957,4324.615234,4322.948730,4317.692383,4374.743652,4322.307617,4324.102539,4315.897461,4404.487305,4439.615234,4312.563965,4349.487305,1728.000000,0.000000,14.000000,,,,0.000000,2.000000,2.000000,0.000000,2.000000,2.000000,2.000000,0.000000,2.000000,4.000000,4.000000,4.000000,4.000000,2.000000,4.000000,16.666666,,,,,,,,,,,,,,,,,3.000000,0.000000,0.633328,0.407227,-0.589111,0.293274,0.963497,0.137712,-0.007813,-75.035049,66.211617,28.071373
1732081399.671014,1732081399.672088,13.000000,0.000000,4301.025879,4310.769043,4271.282227,4324.871582,4322.692383,4324.487305,4375.641113,4322.436035,4321.025879,4314.615234,4403.717773,4436.538574,4314.871582,4350.384766,1658.000000,0.000000,14.000000,,,,0.000000,2.000000,2.000000,0.000000,2.000000,2.000000,2.000000,0.000000,2.000000,4.000000,4.000000,4.000000,4.000000,2.000000,4.000000,16.666666,,,,,,,,,,,,,,,,,,,,,,,,,,,,
1732081399.678822,1732081399.679696,14.000000,0.000000,4290.384766,4300.384766,4271.410156,4319.230957,4325.641113,4329.871582,4378.846191,4328.077148,4324.871582,4310.128418,4402.179688,4438.205078,4310.897461,4341.410156,1369.000000,0.000000,14.000000,,,,0.000000,2.000000,2.000000,0.000000,2.000000,2.000000,2.000000,0.000000,2.000000,4.000000,4.000000,4.000000,4.000000,2.000000,4.000000,16.666666,1.000000,16.666666,2.000000,2.000000,0.000000,2.000000,2.000000,2.000000,0.000000,2.000000,4.000000,4.000000,4.000000,4.000000,2.000000,4.000000,,,,,,,,,,,,
1732081399.686630,1732081399.687504,15.000000,0.000000,4283.846191,4294.487305,4272.820313,4316.153809,4338.846191,4322.436035,4376.153809,4327.563965,4327.948730,4307.948730,4396.794922,4439.358887,4301.666504,4332.692383,1503.000000,0.000000,14.000000,,,,0.000000,2.000000,2.000000,0.000000,2.000000,2.000000,2.000000,0.000000,2.000000,4.000000,4.000000,4.000000,4.000000,2.000000,4.000000,16.666666,,,,,,,,,,,,,,,,,,,,,,,,,,,,
1732081399.694439,1732081399.695213,16.000000,0.000000,4299.615234,4310.897461,4272.307617,4323.333496,4344.743652,4311.410156,4366.538574,4315.512695,4321.666504,4305.641113,4391.025879,4431.922852,4300.641113,4333.077148,0.000000,0.000000,14.000000,,,,0.000000,2.000000,2.000000,0.000000,2.000000,2.000000,2.000000,0.000000,2.000000,4.000000,4.000000,4.000000,4.000000,2.000000,4.000000,16.666666,,,,,,,,,,,,,,,,,4.000000,0.000000,0.633650,0.403931,-0.590637,0.294067,0.964962,0.151386,-0.032230,-74.988388,66.294746,27.986145
1732081399.702247,1732081399.703021,17.000000,0.000000,4315.512695,4333.717773,4274.230957,4333.589844,4330.384766,4313.846191,4366.666504,4315.128418,4320.769043,4305.769043,4395.641113,4430.769043,4307.179688,4340.897461,0.000000,0.000000,14.000000,,,,0.000000,2.000000,2.000000,0.000000,2.000000,2.000000,2.000000,0.000000,2.000000,4.000000,4.000000,4.000000,4.000000,2.000000,4.000000,16.666666,,,,,,,,,,,,,,,,,,,,,,,,,,,,
1732081399.710055,1732081399.710629,18.000000,0.000000,4316.025879,4344.102539,4275.897461,4342.307617,4326.922852,4319.871582,4368.846191,4325.512695,4328.461426,4307.563965,4400.512695,4436.153809,4306.153809,4344.358887,0.000000,0.000000,14.000000,,,,0.000000,2.000000,2.000000,0.000000,2.000000,2.000000,2.000000,0.000000,2.000000,4.000000,4.000000,4.000000,4.000000,2.000000,4.000000,16.666666,,,,,,,,,,,,,,,,,,,,,,,,,,,,
1732081399.717863,1732081399.718437,19.000000,0.000000,4315.256348,4347.948730,4281.025879,4348.589844,4338.846191,4318.846191,4371.025879,4325.512695,4322.820313,4301.153809,4390.897461,4434.230957,4291.025879,4336.794922,0.000000,0.000000,14.000000,,,,0.000000,2.000000,2.000000,0.000000,2.000000,2.000000,2.000000,0.000000,2.000000,4.000000,4.000000,4.000000,4.000000,2.000000,4.000000,16.666666,,,,,,,,,,,,,,,,,,,,,,,,,,,,
1732081399.725672,1732081399.726146,20.000000,0.000000,4320.128418,4356.666504,4279.230957,4352.692383,4341.666504,4319.871582,4372.307617,4320.641113,4310.000000,4293.846191,4380.512695,4429.615234,4279.615234,4328.333496,0.000000,0.000000,14.000000,,,,0.000000,2.000000,2.000000,0.000000,2.000000,2.000000,2.000000,0.000000,2.000000,4.000000,4.000000,4.000000,4.000000,2.000000,4.000000,16.666666,,,,,,,,,,,,,,,,,5.000000,0.000000,0.633631,0.402710,-0.591248,0.294556,0.969357,0.154316,-0.038091,-74.990593,66.302078,28.052111
1732081399.733480,1732081399.733954,21.000000,0.000000,4321.025879,4363.205078,4277.051270,4350.769043,4338.717773,4321.025879,4371.922852,4321.282227,4310.256348,4292.179688,4379.102539,4432.307617,4280.256348,4324.358887,0.000000,0.000000,14.000000,,,,0.000000,2.000000,2.000000,0.000000,2.000000,2.000000,2.000000,0.000000,2.000000,4.000000,4.000000,4.000000,4.000000,2.000000,4.000000,16.666666,,,,,,,,,,,,,,,,,,,,,,,,,,,,
1732081399.741288,1732081399.741562,22.000000,0.000000,4321.282227,4360.512695,4277.820313,4346.153809,4343.717773,4320.769043,4370.128418,4325.256348,4316.922852,4290.512695,4380.256348,4433.205078,4280.641113,4322.563965,0.000000,0.000000,14.000000,,,,0.000000,2.000000,2.000000,0.000000,2.000000,2.000000,2.000000,0.000000,2.000000,4.000000,4.000000,4.000000,4.000000,2.000000,4.000000,16.666666,,,,,,,,,,,,,,,,,,,,,,,,,,,,
1732081399.749097,1732081399.749370,23.000000,0.000000,4323.333496,4356.025879,4281.025879,4342.179688,4346.025879,4325.256348,4373.846191,4327.948730,4319.102539,4291.410156,4382.307617,4428.589844,4280.256348,4321.922852,0.000000,0.000000,14.000000,,,,0.000000,2.000000,2.000000,0.000000,2.000000,2.000000,2.000000,0.000000,2.000000,4.000000,4.000000,4.000000,4.000000,2.000000,4.000000,16.666666,,,,,,,,,,,,,,,,,,,,,,,,,,,,
1732081399.756905,1732081399.757078,24.000000,0.000000,4324.487305,4358.589844,4281.538574,4344.358887,4342.948730,4328.205078,4372.948730,4327.692383,4317.307617,4296.282227,4384.230957,4425.512695,4283.589844,4325.897461,0.000000,0.000000,14.000000,,,,0.000000,2.000000,2.000000,0.000000,2.000000,2.000000,2.000000,0.000000,2.000000,4.000000,4.000000,4.000000,4.000000,2.000000,4.000000,16.666666,,,,,,,,,,,,,,,,,6.000000,0.000000,0.633103,0.400757,-0.592102,0.296631,0.937126,0.153827,-0.041021,-75.309052,66.086349,28.168877
1732081399.764713,1732081399.764886,25.000000,0.000000,4323.333496,4360.897461,4282.820313,4352.692383,4342.948730,4326.153809,4373.077148,4326.922852,4316.025879,4296.153809,4383.846191,4430.769043,4285.128418,4329.102539,0.000000,0.000000,14.000000,,,,0.000000,2.000000,2.000000,0.000000,2.000000,2.000000,2.000000,0.000000,2.000000,4.000000,4.000000,4.000000,4.000000,2.000000,4.000000,16.666666,,,,,,,,,,,,,,,,,,,,,,,,,,,,
1732081399.772521,1732081399.772494,26.000000,0.000000,4327.307617,4359.487305,4283.846191,4355.641113,4342.948730,4328.205078,4376.794922,4331.666504,4317.692383,4292.948730,4386.282227,4436.153809,4281.410156,4329.615234,0.000000,0.000000,14.000000,,,,0.000000,2.000000,2.000000,0.000000,2.000000,2.000000,2.000000,0.000000,2.000000,4.000000,4.000000,4.000000,4.000000,2.000000,4.000000,16.666666,,,,,,,,,,,,,,,,,,,,,,,,,,,,
1732081399.780329,1732081399.780302,27.000000,0.000000,4333.205078,4358.717773,4280.384766,4349.743652,4342.307617,4331.282227,4376.410156,4335.769043,4321.922852,4293.077148,4388.461426,4437.436035,4286.282227,4332.948730,0.000000,0.000000,14.000000,,,,0.000000,2.000000,2.000000,0.000000,2.000000,2.000000,2.000000,0.000000,2.000000,4.000000,4.000000,4.000000,4.000000,2.000000,4.000000,16.666666,,,,,,,,,,,,,,,,,,,,,,,,,,,,
1732081399.788138,1732081399.788010,28.000000,0.000000,4331.282227,4360.897461,4280.000000,4348.461426,4346.538574,4330.384766,4373.205078,4335.384766,4324.102539,4295.000000,4389.230957,4443.974121,4294.487305,4334.230957,0.000000,0.000000,14.000000,,,,0.000000,2.000000,2.000000,0.000000,2.000000,2.000000,2.000000,0.000000,2.000000,4.000000,4.000000,4.000000,4.000000,2.000000,4.000000,16.666666,,,,,,,,,,,,,,,,,7.000000,0.000000,0.633412,0.401733,-0.589661,0.299500,0.939079,0.161152,-0.035161,-75.200333,65.983276,28.338457
1732081399.795946,1732081399.795818,29.000000,0.000000,4329.230957,4363.461426,4282.563965,4353.717773,4344.871582,4334.102539,4375.512695,4335.641113,4322.948730,4293.717773,4392.820313,4448.974121,4291.922852,4333.846191,0.000000,0.000000,14.000000,,,,0.000000,2.000000,2.000000,0.000000,2.000000,2.000000,2.000000,0.000000,2.000000,4.000000,4.000000,4.000000,4.000000,2.000000,4.000000,16.666666,,,,,,,,,,,,,,,,,,,,,,,,,,,,
1732081399.803754,1732081399.803826,30.000000,0.000000,4330.897461,4360.128418,4283.846191,4351.153809,4343.974121,4336.922852,4378.717773,4335.384766,4322.179688,4290.641113,4395.256348,4446.794922,4292.051270,4337.051270,0.000000,0.000000,14.000000,,,,0.000000,2.000000,2.000000,0.000000,2.000000,2.000000,2.000000,0.000000,2.000000,4.000000,4.000000,4.000000,4.000000,2.000000,4.000000,16.666666,,,,,,,,,,,,,,,,,,,,,,,,,,,,
1732081399.811562,1732081399.811635,31.000000,0.000000,4329.358887,4352.307617,4279.230957,4345.641113,4355.000000,4330.769043,4377.436035,4335.897461,4323.717773,4291.794922,4395.512695,4442.948730,4299.230957,4338.077148,0.000000,0.000000,14.000000,,,,0.000000,2.000000,2.000000,0.000000,2.000000,2.000000,2.000000,0.000000,2.000000,4.000000,4.000000,4.000000,4.000000,2.000000,4.000000,16.666666,,,,,,,,,,,,,,,,,,,,,,,,,,,,
1732081399.819371,1732081399.819543,32.000000,0.000000,4325.769043,4347.436035,4276.666504,4344.230957,4351.922852,4330.256348,4376.025879,4339.615234,4327.179688,4294.358887,4397.051270,4446.410156,4300.000000,4333.461426,0.000000,0.000000,14.000000,,,,0.000000,2.000000,2.000000,0.000000,2.000000,2.000000,2.000000,0.000000,2.000000,4.000000,4.000000,4.000000,4.000000,2.000000,4.000000,16.666666,,,,,,,,,,,,,,,,,8.000000,0.000000,0.634419,0.403748,-0.586792,0.300293,0.967403,0.176291,-0.042486,-74.950600,66.033119,28.300816
1732081399.827179,1732081399.827351,33.000000,0.000000,4323.589844,4349.358887,4277.692383,4344.615234,4335.512695,4341.538574,4375.769043,4342.051270,4328.205078,4292.692383,4397.820313,4446.538574,4295.897461,4331.922852,0.000000,0.000000,14.000000,,,,0.000000,2.000000,2.000000,0.000000,2.000000,2.000000,2.000000,0.000000,2.000000,4.000000,4.000000,4.000000,4.000000,2.000000,4.000000,16.666666,,,,,,,,,,,,,,,,,,,,,,,,,,,,
1732081399.834987,1732081399.835359,34.000000,0.000000,4318.974121,4351.282227,4279.743652,4345.641113,4338.077148,4346.538574,4380.384766,4340.769043,4324.102539,4288.974121,4394.743652,4441.794922,4296.025879,4331.282227,0.000000,0.000000,14.000000,,,,0.000000,2.000000,2.000000,0.000000,2.000000,2.000000,2.000000,0.000000,2.000000,4.000000,4.000000,4.000000,4.000000,2.000000,4.000000,16.666666,,,,,,,,,,,,,,,,,,,,,,,,,,,,
1732081399.842795,1732081399.843167,35.000000,0.000000,4317.563965,4347.692383,4279.743652,4347.179688,4348.589844,4336.922852,4379.487305,4337.563965,4323.077148,4289.487305,4393.205078,4444.615234,4295.769043,4327.563965,0.000000,0.000000,14.000000,,,,0.000000,2.000000,2.000000,0.000000,2.000000,2.000000,2.000000,0.000000,2.000000,4.000000,4.000000,4.000000,4.000000,2.000000,4.000000,16.666666,,,,,,,,,,,,,,,,,,,,,,,,,,,,
1732081399.850604,1732081399.851075,36.000000,0.000000,4321.410156,4343.717773,4281.538574,4345.641113,4339.487305,4331.025879,4376.538574,4334.871582,4325.128418,4292.179688,4395.384766,4449.102539,4295.512695,4329.743652,0.000000,0.000000,14.000000,,,,0.000000,2.000000,2.000000,0.000000,2.000000,2.000000,2.000000,0.000000,2.000000,4.000000,4.000000,4.000000,4.000000,2.000000,4.000000,16.666666,,,,,,,,,,,,,,,,,9.000000,0.000000,0.635139,0.404785,-0.585327,0.300232,0.984495,0.179709,-0.039556,-75.209984,65.931824,28.406994
1732081399.858412,1732081399.858883,37.000000,0.000000,4323.846191,4345.897461,4282.307617,4345.256348,4330.384766,4334.487305,4376.153809,4334.743652,4324.487305,4291.794922,4398.717773,4449.230957,4301.025879,4335.384766,0.000000,0.000000,14.000000,,,,0.000000,2.000000,2.000000,0.000000,2.000000,2.000000,2.000000,0.000000,2.000000,4.000000,4.000000,4.000000,4.000000,2.000000,4.000000,16.666666,,,,,,,,,,,,,,,,,,,,,,,,,,,,
1732081399.866220,1732081399.866891,38.000000,0.000000,4324.487305,4349.230957,4281.794922,4348.461426,4343.077148,4335.000000,4380.512695,4334.230957,4323.846191,4290.769043,4400.769043,4450.256348,4304.743652,4336.666504,0.000000,0.000000,14.000000,,,,0.000000,2.000000,2.000000,0.000000,2.000000,2.000000,2.000000,0.000000,2.000000,4.000000,4.000000,4.000000,4.000000,2.000000,4.000000,16.666666,,,,,,,,,,,,,,,,,,,,,,,,,,,,
1732081399.874028,1732081399.874700,39.000000,0.000000,4327.307617,4350.128418,4281.794922,4351.282227,4351.666504,4331.794922,4379.871582,4332.051270,4325.769043,4293.717773,4402.436035,4452.948730,4306.922852,4341.410156,0.000000,0.000000,14.000000,,,,0.000000,2.000000,2.000000,0.000000,2.000000,2.000000,2.000000,0.000000,2.000000,4.000000,4.000000,4.000000,4.000000,2.000000,4.000000,16.666666,,,,,,,,,,,,,,,,,,,,,,,,,,,,
1732081399.881837,1732081399.882608,40.000000,0.000000,4330.384766,4352.307617,4285.641113,4352.307617,4340.641113,4333.205078,4378.974121,4332.692383,4325.897461,4300.512695,4405.769043,4455.000000,4310.128418,4351.922852,0.000000,0.000000,14.000000,,,,0.000000,2.000000,2.000000,0.000000,2.000000,2.000000,2.000000,0.000000,2.000000,4.000000,4.000000,4.000000,4.000000,2.000000,4.000000,16.666666,,,,,,,,,,,,,,,,,10.000000,0.000000,0.638205,0.408264,-0.579895,0.299561,0.971798,0.177268,-0.033696,-75.166756,66.149780,28.567999
1732081399.889645,1732081399.890416,41.000000,0.000000,4329.743652,4354.358887,4288.333496,4355.512695,4334.871582,4340.769043,4379.871582,4335.512695,4329.102539,4305.769043,4408.077148,4460.256348,4309.743652,4353.333496,0.000000,0.000000,14.000000,,,,0.000000,2.000000,2.000000,0.000000,2.000000,2.000000,2.000000,0.000000,2.000000,4.000000,4.000000,4.000000,4.000000,2.000000,4.000000,16.666666,,,,,,,,,,,,,,,,,,,,,,,,,,,,
1732081399.897453,1732081399.898424,42.000000,0.000000,4330.000000,4355.000000,4288.846191,4358.461426,4344.743652,4342.563965,4379.871582,4334.230957,4333.333496,4305.641113,4411.666504,4463.205078,4312.051270,4351.282227,0.000000,0.000000,14.000000,,,,0.000000,2.000000,2.000000,0.000000,2.000000,2.000000,2.000000,0.000000,2.000000,4.000000,4.000000,4.000000,4.000000,2.000000,4.000000,16.666666,,,,,,,,,,,,,,,,,,,,,,,,,,,,
1732081399.905261,1732081399.906232,43.000000,0.000000,4333.333496,4358.333496,4288.077148,4361.666504,4347.692383,4339.487305,4377.692383,4336.794922,4330.512695,4303.461426,4413.717773,4458.717773,4313.205078,4354.102539,0.000000,0.000000,14.000000,,,,0.000000,2.000000,2.000000,0.000000,2.000000,2.000000,2.000000,0.000000,2.000000,4.000000,4.000000,4.000000,4.000000,2.000000,4.000000,16.666666,,,,,,,,,,,,,,,,,,,,,,,,,,,,
1732081399.913070,1732081399.914140,44.000000,0.000000,4333.077148,4356.153809,4291.282227,4364.615234,4343.077148,4340.769043,4377.948730,4344.102539,4331.538574,4303.461426,4409.871582,4459.743652,4307.179688,4350.256348,0.000000,0.000000,14.000000,,,,0.000000,2.000000,2.000000,0.000000,2.000000,2.000000,2.000000,0.000000,2.000000,4.000000,4.000000,4.000000,4.000000,2.000000,4.000000,16.666666,,,,,,,,,,,,,,,,,11.000000,0.000000,0.639881,0.408508,-0.578125,0.299072,0.968868,0.159199,-0.019534,-75.081741,66.287987,28.811747
1732081399.920878,1732081399.921948,45.000000,0.000000,4330.000000,4348.205078,4291.153809,4362.563965,4346.282227,4342.436035,4378.589844,4346.025879,4340.000000,4310.000000,4414.871582,4465.000000,4313.461426,4350.641113,0.000000,0.000000,14.000000,,,,0.000000,2.000000,2.000000,0.000000,2.000000,2.000000,2.000000,0.000000,2.000000,4.000000,4.000000,4.000000,4.000000,2.000000,4.000000,16.666666,,,,,,,,,,,,,,,,,,,,,,,,,,,,
1732081399.928686,1732081399.929956,46.000000,0.000000,4327.563965,4344.615234,4290.128418,4353.974121,4346.025879,4339.743652,4376.922852,4340.512695,4342.179688,4316.410156,4427.563965,4467.436035,4332.436035,4361.666504,0.000000,0.000000,14.000000,,,,0.000000,2.000000,2.000000,0.000000,2.000000,2.000000,2.000000,0.000000,2.000000,4.000000,4.000000,4.000000,4.000000,2.000000,4.000000,16.666666,,,,,,,,,,,,,,,,,,,,,,,,,,,,
1732081399.936494,1732081399.937765,47.000000,0.000000,4325.897461,4340.641113,4288.205078,4348.077148,4341.666504,4338.846191,4376.794922,4338.589844,4339.871582,4316.282227,4430.641113,4466.922852,4341.025879,4367.179688,0.000000,0.000000,14.000000,,,,0.000000,2.000000,2.000000,0.000000,2.000000,2.000000,2.000000,0.000000,2.000000,4.000000,4.000000,4.000000,4.000000,2.000000,4.000000,16.666666,,,,,,,,,,,,,,,,,,,,,,,,,,,,
1732081399.944302,1732081399.945673,48.000000,0.000000,4325.256348,4332.307617,4284.230957,4347.563965,4342.179688,4342.563965,4378.205078,4342.820313,4339.615234,4315.128418,4431.153809,4465.897461,4343.974121,4367.948730,0.000000,0.000000,14.000000,,,,0.000000,2.000000,2.000000,0.000000,2.000000,2.000000,2.000000,0.000000,2.000000,4.000000,4.000000,4.000000,4.000000,2.000000,4.000000,16.666666,,,,,,,,,,,,,,,,,12.000000,0.000000,0.639881,0.408508,-0.578125,0.299072,0.957148,0.145037,-0.020022,-75.342873,66.189934,28.994181
1732081399.952111,1732081399.953481,49.000000,0.000000,4318.974121,4321.282227,4280.897461,4341.794922,4337.051270,4343.846191,4380.256348,4343.717773,4341.282227,4320.897461,4437.563965,4468.333496,4354.615234,4376.025879,0.000000,0.000000,14.000000,,,,0.000000,2.000000,2.000000,0.000000,2.000000,2.000000,2.000000,0.000000,2.000000,4.000000,4.000000,4.000000,4.000000,2.000000,4.000000,16.666666,,,,,,,,,,,,,,,,,,,,,,,,,,,,
1732081399.959919,1732081399.961489,50.000000,0.000000,4308.974121,4311.410156,4280.384766,4333.589844,4330.897461,4338.589844,4379.743652,4340.897461,4344.743652,4328.333496,4439.358887,4470.897461,4359.871582,4378.717773,0.000000,0.000000,14.000000,,,,0.000000,2.000000,2.000000,0.000000,2.000000,2.000000,2.000000,0.000000,2.000000,4.000000,4.000000,4.000000,4.000000,2.000000,4.000000,16.666666,,,,,,,,,,,,,,,,,,,,,,,,,,,,
1732081399.967727,1732081399.969297,51.000000,0.000000,4307.563965,4310.384766,4281.025879,4332.692383,4339.743652,4335.384766,4377.692383,4342.436035,4343.974121,4325.384766,4433.974121,4467.948730,4354.743652,4372.692383,0.000000,0.000000,14.000000,,,,0.000000,2.000000,2.000000,0.000000,2.000000,2.000000,2.000000,0.000000,2.000000,4.000000,4.000000,4.000000,4.000000,2.000000,4.000000,16.666666,,,,,,,,,,,,,,,,,,,,,,,,,,,,
1732081399.975536,1732081399.977205,52.000000,0.000000,4312.436035,4316.922852,4281.538574,4338.077148,4348.974121,4338.333496,4370.641113,4340.641113,4337.307617,4316.538574,4430.384766,4464.743652,4351.794922,4372.307617,0.000000,0.000000,14.000000,,,,0.000000,2.000000,2.000000,0.000000,2.000000,2.000000,2.000000,0.000000,2.000000,4.000000,4.000000,4.000000,4.000000,2.000000,4.000000,16.666666,,,,,,,,,,,,,,,,,13.000000,0.000000,0.642482,0.406677,-0.576782,0.298584,0.969357,0.158711,0.010255,-75.227730,66.338852,29.088619
1732081399.983344,1732081399.985014,53.000000,0.000000,4311.538574,4319.615234,4282.820313,4340.512695,4342.948730,4339.358887,4368.077148,4334.743652,4334.487305,4315.128418,4431.538574,4465.512695,4352.563965,4373.205078,0.000000,0.000000,14.000000,,,,0.000000,2.000000,2.000000,0.000000,2.000000,2.000000,2.000000,0.000000,2.000000,4.000000,4.000000,4.000000,4.000000,2.000000,4.000000,16.666666,,,,,,,,,,,,,,,,,,,,,,,,,,,,
1732081399.991152,1732081399.992922,54.000000,0.000000,4307.692383,4319.358887,4278.589844,4336.922852,4351.538574,4335.769043,4369.358887,4338.461426,4340.000000,4321.410156,4434.230957,4464.487305,4354.230957,4372.820313,0.000000,0.000000,14.000000,,,,0.000000,2.000000,2.000000,0.000000,2.000000,2.000000,2.000000,0.000000,2.000000,4.000000,4.000000,4.000000,4.000000,2.000000,4.000000,16.666666,,,,,,,,,,,,,,,,,,,,,,,,,,,,
1732081399.998960,1732081400.000730,55.000000,0.000000,4306.922852,4321.153809,4278.974121,4337.307617,4365.512695,4333.974121,4371.922852,4348.717773,4347.692383,4325.128418,4435.897461,4468.974121,4354.615234,4374.615234,0.000000,0.000000,14.000000,,,,0.000000,2.000000,2.000000,0.000000,2.000000,2.000000,2.000000,0.000000,2.000000,4.000000,4.000000,4.000000,4.000000,2.000000,4.000000,16.666666,,,,,,,,,,,,,,,,,,,,,,,,,,,,
1732081400.006769,1732081400.008438,56.000000,0.000000,4309.615234,4321.794922,4281.410156,4343.333496,4351.538574,4338.333496,4372.179688,4354.102539,4356.153809,4331.410156,4438.589844,4476.153809,4354.743652,4377.692383,0.000000,0.000000,14.000000,,,,0.000000,2.000000,2.000000,0.000000,2.000000,2.000000,2.000000,0.000000,2.000000,4.000000,4.000000,4.000000,4.000000,2.000000,4.000000,16.666666,,,,,,,,,,,,,,,,,14.000000,0.000000,0.645555,0.401489,-0.576416,0.299683,1.007447,0.154804,0.039556,-74.967796,66.509468,29.115116
1732081400.014577,1732081400.016246,57.000000,0.000000,4310.384766,4321.666504,4280.256348,4343.717773,4339.102539,4342.692383,4375.000000,4358.077148,4360.512695,4340.641113,4439.615234,4473.077148,4355.512695,4377.179688,0.000000,0.000000,14.000000,,,,0.000000,2.000000,2.000000,0.000000,2.000000,2.000000,2.000000,0.000000,2.000000,4.000000,4.000000,4.000000,4.000000,2.000000,4.000000,16.666666,,,,,,,,,,,,,,,,,,,,,,,,,,,,
1732081400.022385,1732081400.023855,58.000000,0.000000,4307.307617,4322.179688,4277.692383,4340.384766,4356.025879,4342.692383,4375.128418,4359.487305,4360.641113,4341.410156,4441.025879,4469.230957,4358.077148,4375.897461,0.000000,0.000000,14.000000,,,,0.000000,2.000000,2.000000,0.000000,2.000000,2.000000,2.000000,0.000000,2.000000,4.000000,4.000000,4.000000,4.000000,2.000000,4.000000,16.666666,,,,,,,,,,,,,,,,,,,,,,,,,,,,
1732081400.030193,1732081400.031663,59.000000,0.000000,4310.512695,4322.948730,4280.384766,4340.641113,4365.769043,4339.743652,4371.410156,4353.974121,4357.948730,4338.846191,4445.897461,4472.179688,4359.615234,4380.769043,0.000000,0.000000,14.000000,,,,0.000000,2.000000,2.000000,0.000000,2.000000,2.000000,2.000000,0.000000,2.000000,4.000000,4.000000,4.000000,4.000000,2.000000,4.000000,16.666666,,,,,,,,,,,,,,,,,,,,,,,,,,,,
1732081400.038001,1732081400.039371,60.000000,0.000000,4318.077148,4325.641113,4282.692383,4343.846191,4358.974121,4341.025879,4371.538574,4351.794922,4355.384766,4340.128418,4446.282227,4475.769043,4356.794922,4383.205078,0.000000,0.000000,14.000000,,,,0.000000,2.000000,2.000000,0.000000,2.000000,2.000000,2.000000,0.000000,2.000000,4.000000,4.000000,4.000000,4.000000,2.000000,4.000000,16.666666,,,,,,,,,,,,,,,,,15.000000,0.000000,0.646133,0.396912,-0.577759,0.301941,1.017702,0.134294,0.044439,-74.813911,66.619339,29.211576
1732081400.045810,1732081400.047180,61.000000,0.000000,4318.589844,4327.820313,4283.077148,4346.153809,4358.461426,4346.666504,4375.256348,4358.717773,4359.615234,4340.512695,4443.461426,4480.128418,4355.769043,4382.948730,0.000000,0.000000,14.000000,,,,0.000000,2.000000,2.000000,0.000000,2.000000,2.000000,2.000000,0.000000,2.000000,4.000000,4.000000,4.000000,4.000000,2.000000,4.000000,16.666666,,,,,,,,,,,,,,,,,,,,,,,,,,,,
1732081400.053618,1732081400.054788,62.000000,0.000000,4319.487305,4328.846191,4283.333496,4347.563965,4369.230957,4348.589844,4375.512695,4364.487305,4361.025879,4338.077148,4443.461426,4486.153809,4359.230957,4382.179688,0.000000,0.000000,14.000000,,,,0.000000,2.000000,2.000000,0.000000,2.000000,2.000000,2.000000,0.000000,2.000000,4.000000,4.000000,4.000000,4.000000,2.000000,4.000000,16.666666,,,,,,,,,,,,,,,,,,,,,,,,,,,,
1732081400.061426,1732081400.062596,63.000000,0.000000,4325.256348,4329.358887,4282.051270,4345.512695,4381.538574,4345.512695,4373.205078,4362.820313,4354.230957,4337.436035,4443.974121,4487.051270,4358.974121,4382.179688,0.000000,0.000000,14.000000,,,,0.000000,2.000000,2.000000,0.000000,2.000000,2.000000,2.000000,0.000000,2.000000,4.000000,4.000000,4.000000,4.000000,2.000000,4.000000,16.666666,,,,,,,,,,,,,,,,,,,,,,,,,,,,
1732081400.069234,1732081400.070304,64.000000,0.000000,4326.666504,4329.358887,4285.128418,4343.461426,4375.000000,4345.512695,4375.000000,4360.128418,4355.384766,4339.358887,4443.333496,4489.487305,4355.769043,4383.846191,16.000000,0.000000,14.000000,,,,0.000000,2.000000,2.000000,0.000000,2.000000,2.000000,2.000000,0.000000,2.000000,4.000000,4.000000,4.000000,4.000000,2.000000,4.000000,16.666666,,,,,,,,,,,,,,,,,16.000000,0.000000,0.645829,0.395508,-0.578613,0.302795,1.017702,0.134294,0.044439,-74.785934,66.691658,29.393044
1732081400.077043,1732081400.078113,65.000000,0.000000,4323.077148,4331.153809,4285.897461,4345.384766,4361.153809,4350.641113,4376.666504,4360.641113,4361.025879,4341.410156,4445.512695,4493.974121,4357.820313,4383.077148,1289.000000,0.000000,14.000000,,,,0.000000,2.000000,2.000000,0.000000,2.000000,2.000000,2.000000,0.000000,2.000000,4.000000,4.000000,4.000000,4.000000,2.000000,4.000000,16.666666,,,,,,,,,,,,,,,,,,,,,,,,,,,,
1732081400.084851,1732081400.085721,66.000000,0.000000,4324.743652,4332.563965,4285.128418,4345.512695,4365.512695,4352.179688,4376.538574,4363.077148,4355.641113,4342.820313,4447.563965,4494.358887,4361.538574,4382.436035,1219.000000,0.000000,14.000000,,,,0.000000,2.000000,2.000000,0.000000,2.000000,2.000000,2.000000,0.000000,2.000000,4.000000,4.000000,4.000000,4.000000,2.000000,4.000000,16.666666,,,,,,,,,,,,,,,,,,,,,,,,,,,,
1732081400.092659,1732081400.093529,67.000000,0.000000,4331.025879,4334.358887,4287.307617,4345.769043,4373.589844,4346.794922,4374.615234,4363.077148,4351.794922,4342.820313,4447.179688,4494.230957,4362.692383,4385.897461,1165.000000,0.000000,14.000000,,,,0.000000,2.000000,2.000000,0.000000,2.000000,2.000000,2.000000,0.000000,2.000000,4.000000,4.000000,4.000000,4.000000,2.000000,4.000000,16.666666,,,,,,,,,,,,,,,,,,,,,,,,,,,,
1732081400.100468,1732081400.101437,68.000000,0.000000,4333.333496,4337.436035,4291.282227,4350.128418,4370.512695,4346.025879,4373.717773,4361.282227,4356.922852,4342.436035,4448.589844,4495.769043,4362.563965,4388.205078,1184.000000,0.000000,14.000000,,,,0.000000,2.000000,2.000000,0.000000,2.000000,2.000000,2.000000,0.000000,2.000000,4.000000,4.000000,4.000000,4.000000,2.000000,4.000000,16.666666,,,,,,,,,,,,,,,,,17.000000,0.000000,0.644149,0.391541,-0.581604,0.305786,0.949823,0.151874,0.029789,-75.056610,66.493576,29.633366
1732081400.108276,1732081400.109246,69.000000,0.000000,4333.846191,4338.589844,4287.436035,4352.436035,4370.897461,4348.461426,4370.512695,4360.128418,4356.922852,4343.333496,4451.666504,4492.820313,4364.102539,4387.820313,1067.000000,0.000000,14.000000,,,,0.000000,2.000000,2.000000,0.000000,2.000000,2.000000,2.000000,0.000000,2.000000,4.000000,4.000000,4.000000,4.000000,2.000000,4.000000,16.666666,,,,,,,,,,,,,,,,,,,,,,,,,,,,
1732081400.116084,1732081400.116854,70.000000,0.000000,4337.820313,4339.230957,4287.051270,4347.948730,4368.333496,4344.102539,4369.230957,4361.025879,4353.589844,4342.436035,4453.205078,4489.358887,4368.974121,4390.769043,187.000000,0.000000,14.000000,,,,0.000000,2.000000,2.000000,0.000000,2.000000,2.000000,2.000000,0.000000,2.000000,4.000000,4.000000,4.000000,4.000000,2.000000,4.000000,16.666666,,,,,,,,,,,,,,,,,,,,,,,,,,,,
1732081400.123892,1732081400.124662,71.000000,0.000000,4340.256348,4342.436035,4288.974121,4346.410156,4366.538574,4340.641113,4368.974121,4364.102539,4356.025879,4338.974121,4453.461426,4492.179688,4370.769043,4395.512695,1192.000000,0.000000,14.000000,,,,0.000000,2.000000,2.000000,0.000000,2.000000,2.000000,2.000000,0.000000,2.000000,4.000000,4.000000,4.000000,4.000000,2.000000,4.000000,16.666666,,,,,,,,,,,,,,,,,,,,,,,,,,,,
1732081400.131700,1732081400.132370,72.000000,0.000000,4338.974121,4343.846191,4289.102539,4352.179688,4380.256348,4342.307617,4370.128418,4364.743652,4356.025879,4336.538574,4456.794922,4498.205078,4367.820313,4397.436035,1339.000000,0.000000,14.000000,,,,0.000000,2.000000,2.000000,0.000000,2.000000,2.000000,2.000000,0.000000,2.000000,4.000000,4.000000,4.000000,4.000000,2.000000,4.000000,16.666666,,,,,,,,,,,,,,,,,18.000000,0.000000,0.643691,0.391113,-0.581787,0.306946,0.940056,0.140154,0.016604,-75.229187,66.191467,29.811359
1732081400.139509,1732081400.140178,73.000000,0.000000,4341.922852,4344.871582,4289.230957,4355.000000,4379.358887,4342.948730,4368.589844,4363.846191,4352.948730,4339.487305,4460.769043,4497.051270,4369.358887,4397.948730,1471.000000,0.000000,14.000000,,,,0.000000,2.000000,2.000000,0.000000,2.000000,2.000000,2.000000,0.000000,2.000000,4.000000,4.000000,4.000000,4.000000,2.000000,4.000000,16.666666,,,,,,,,,,,,,,,,,,,,,,,,,,,,
1732081400.147317,1732081400.147786,74.000000,0.000000,4345.512695,4347.948730,4291.282227,4353.333496,4360.256348,4341.666504,4366.922852,4363.717773,4353.846191,4335.897461,4457.436035,4493.205078,4373.461426,4397.948730,1371.000000,0.000000,14.000000,,,,0.000000,2.000000,2.000000,0.000000,2.000000,2.000000,2.000000,0.000000,2.000000,4.000000,4.000000,4.000000,4.000000,2.000000,4.000000,16.666666,,,,,,,,,,,,,,,,,,,,,,,,,,,,
1732081400.155125,1732081400.155594,75.000000,0.000000,4344.358887,4346.025879,4292.436035,4351.794922,4358.589844,4344.358887,4366.282227,4364.487305,4354.871582,4327.051270,4454.871582,4495.000000,4370.384766,4396.922852,1503.000000,0.000000,14.000000,,,,0.000000,2.000000,2.000000,0.000000,2.000000,2.000000,2.000000,0.000000,2.000000,4.000000,4.000000,4.000000,4.000000,2.000000,4.000000,16.666666,,,,,,,,,,,,,,,,,,,,,,,,,,,,
1732081400.162933,1732081400.163302,76.000000,0.000000,4343.333496,4340.000000,4294.743652,4349.615234,4369.230957,4350.000000,4368.461426,4365.897461,4354.102539,4326.666504,4456.410156,4497.051270,4364.615234,4396.538574,1733.000000,0.000000,14.000000,,,,0.000000,2.000000,2.000000,0.000000,2.000000,2.000000,2.000000,0.000000,2.000000,4.000000,4.000000,4.000000,4.000000,2.000000,4.000000,16.666666,,,,,,,,,,,,,,,,,19.000000,0.000000,0.643660,0.391235,-0.581482,0.307434,0.926871,0.134294,0.020022,-75.202309,65.926758,30.105534
1732081400.170742,1732081400.171110,77.000000,0.000000,4346.025879,4341.153809,4294.871582,4347.307617,4366.922852,4351.794922,4369.615234,4366.666504,4358.205078,4333.846191,4457.948730,4499.743652,4369.358887,4402.179688,1658.000000,0.000000,14.000000,,,,0.000000,2.000000,2.000000,0.000000,2.000000,2.000000,2.000000,0.000000,2.000000,4.000000,4.000000,4.000000,4.000000,2.000000,4.000000,16.666666,,,,,,,,,,,,,,,,,,,,,,,,,,,,
1732081400.178550,1732081400.179118,78.000000,0.000000,4348.846191,4346.410156,4291.794922,4350.512695,4365.384766,4351.538574,4368.461426,4366.794922,4363.461426,4336.666504,4460.641113,4505.128418,4378.461426,4408.717773,1371.000000,0.000000,14.000000,,,,0.000000,2.000000,2.000000,0.000000,2.000000,2.000000,2.000000,0.000000,2.000000,4.000000,4.000000,4.000000,4.000000,2.000000,4.000000,16.666666,1.000000,16.666666,2.000000,2.000000,0.000000,2.000000,2.000000,2.000000,0.000000,2.000000,4.000000,4.000000,4.000000,4.000000,2.000000,3.000000,,,,,,,,,,,,
1732081400.186358,1732081400.186927,79.000000,0.000000,4353.205078,4347.179688,4291.666504,4359.615234,4365.769043,4349.743652,4368.461426,4366.153809,4363.077148,4331.282227,4462.820313,4504.358887,4379.487305,4407.948730,1503.000000,0.000000,14.000000,,,,0.000000,2.000000,2.000000,0.000000,2.000000,2.000000,2.000000,0.000000,2.000000,4.000000,4.000000,4.000000,4.000000,2.000000,4.000000,16.666666,,,,,,,,,,,,,,,,,,,,,,,,,,,,
1732081400.194166,1732081400.194835,80.000000,0.000000,4357.051270,4350.128418,4292.692383,4362.563965,4364.871582,4347.307617,4367.051270,4365.256348,4359.615234,4328.461426,4462.692383,4501.538574,4376.282227,4406.282227,1733.000000,0.000000,14.000000,,,,0.000000,2.000000,2.000000,0.000000,2.000000,2.000000,2.000000,0.000000,2.000000,4.000000,4.000000,4.000000,4.000000,2.000000,4.000000,16.666666,,,,,,,,,,,,,,,,,20.000000,0.000000,0.644126,0.391602,-0.580200,0.308411,0.933708,0.129899,0.023929,-75.290535,65.655670,29.863815
1732081400.201975,1732081400.202643,81.000000,0.000000,4357.307617,4352.820313,4290.512695,4358.077148,4373.974121,4346.538574,4363.077148,4364.230957,4359.230957,4331.153809,4463.974121,4507.179688,4380.000000,4408.589844,1658.000000,0.000000,14.000000,,,,0.000000,2.000000,2.000000,0.000000,2.000000,2.000000,2.000000,0.000000,2.000000,4.000000,4.000000,4.000000,4.000000,2.000000,4.000000,16.666666,,,,,,,,,,,,,,,,,,,,,,,,,,,,
1732081400.209783,1732081400.210651,82.000000,0.000000,4354.871582,4351.025879,4290.256348,4359.102539,4374.102539,4346.282227,4361.025879,4366.410156,4360.641113,4333.333496,4464.230957,4510.512695,4379.230957,4405.641113,1371.000000,0.000000,14.000000,,,,0.000000,2.000000,2.000000,0.000000,2.000000,2.000000,2.000000,0.000000,2.000000,4.000000,4.000000,4.000000,4.000000,2.000000,4.000000,16.666666,,,,,,,,,,,,,,,,,,,,,,,,,,,,
1732081400.217591,1732081400.218459,83.000000,0.000000,4354.230957,4350.384766,4293.974121,4362.179688,4361.922852,4345.128418,4362.948730,4367.563965,4361.025879,4332.051270,4461.922852,4505.256348,4374.358887,4405.128418,1503.000000,0.000000,14.000000,,,,0.000000,2.000000,2.000000,0.000000,2.000000,2.000000,2.000000,0.000000,2.000000,4.000000,4.000000,4.000000,4.000000,2.000000,4.000000,16.666666,,,,,,,,,,,,,,,,,,,,,,,,,,,,
1732081400.225399,1732081400.226367,84.000000,0.000000,4362.692383,4354.615234,4295.897461,4360.769043,4360.256348,4346.922852,4361.922852,4365.512695,4360.897461,4332.820313,4467.051270,4505.000000,4381.025879,4416.282227,1733.000000,0.000000,14.000000,,,,0.000000,2.000000,2.000000,0.000000,2.000000,2.000000,2.000000,0.000000,2.000000,4.000000,4.000000,4.000000,4.000000,2.000000,4.000000,16.666666,,,,,,,,,,,,,,,,,21.000000,0.000000,0.646142,0.391296,-0.577148,0.310303,0.969845,0.103528,0.049811,-75.505333,65.504425,29.969690
1732081400.233208,1732081400.234175,85.000000,0.000000,4375.384766,4355.384766,4295.256348,4360.256348,4365.769043,4351.922852,4362.051270,4366.153809,4360.897461,4338.589844,4476.794922,4513.846191,4389.358887,4427.307617,1658.000000,0.000000,14.000000,,,,0.000000,2.000000,2.000000,0.000000,2.000000,2.000000,2.000000,0.000000,2.000000,4.000000,4.000000,4.000000,4.000000,2.000000,4.000000,16.666666,,,,,,,,,,,,,,,,,,,,,,,,,,,,
1732081400.241016,1732081400.242183,86.000000,0.000000,4385.384766,4352.436035,4294.743652,4362.820313,4359.358887,4349.743652,4361.025879,4365.128418,4360.000000,4342.051270,4476.666504,4520.256348,4391.282227,4435.256348,1371.000000,0.000000,14.000000,,,,0.000000,2.000000,2.000000,0.000000,2.000000,2.000000,2.000000,0.000000,2.000000,4.000000,4.000000,4.000000,4.000000,2.000000,4.000000,16.666666,,,,,,,,,,,,,,,,,,,,,,,,,,,,
1732081400.248824,1732081400.249992,87.000000,0.000000,4395.512695,4355.000000,4297.051270,4366.538574,4352.820313,4341.538574,4361.538574,4362.179688,4356.922852,4339.871582,4472.948730,4520.256348,4394.871582,4441.922852,1503.000000,0.000000,14.000000,,,,0.000000,2.000000,2.000000,0.000000,2.000000,2.000000,2.000000,0.000000,2.000000,4.000000,4.000000,4.000000,4.000000,2.000000,4.000000,16.666666,,,,,,,,,,,,,,,,,,,,,,,,,,,,
1732081400.256632,1732081400.257700,88.000000,0.000000,4405.384766,4357.948730,4296.282227,4370.128418,4354.487305,4337.948730,4359.487305,4363.974121,4356.794922,4340.256348,4479.743652,4522.307617,4402.436035,4443.333496,1733.000000,0.000000,14.000000,,,,0.000000,2.000000,2.000000,0.000000,2.000000,2.000000,2.000000,0.000000,2.000000,4.000000,4.000000,4.000000,4.000000,2.000000,4.000000,16.666666,,,,,,,,,,,,,,,,,22.000000,0.000000,0.646142,0.391296,-0.577148,0.310303,0.986449,0.119155,0.054206,-75.574318,65.396919,30.040449
1732081400.264441,1732081400.265508,89.000000,0.000000,4410.641113,4353.205078,4296.922852,4369.615234,4353.461426,4336.794922,4357.948730,4366.025879,4359.230957,4343.589844,4486.025879,4529.230957,4402.179688,4444.487305,1658.000000,0.000000,14.000000,,,,0.000000,2.000000,2.000000,0.000000,2.000000,2.000000,2.000000,0.000000,2.000000,4.000000,4.000000,4.000000,4.000000,2.000000,4.000000,16.666666,,,,,,,,,,,,,,,,,,,,,,,,,,,,
1732081400.272249,1732081400.273516,90.000000,0.000000,4417.820313,4354.487305,4300.512695,4368.717773,4351.666504,4334.230957,4355.641113,4365.769043,4360.897461,4343.717773,4484.358887,4530.000000,4401.410156,4451.794922,1371.000000,0.000000,14.000000,,,,0.000000,2.000000,2.000000,0.000000,2.000000,2.000000,2.000000,0.000000,2.000000,4.000000,4.000000,4.000000,4.000000,2.000000,4.000000,16.666666,,,,,,,,,,,,,,,,,,,,,,,,,,,,
1732081400.280057,1732081400.281324,91.000000,0.000000,4429.743652,4363.717773,4304.871582,4369.615234,4344.487305,4333.461426,4357.563965,4367.179688,4361.282227,4344.230957,4488.461426,4527.307617,4410.769043,4462.692383,1503.000000,0.000000,14.000000,,,,0.000000,2.000000,2.000000,0.000000,2.000000,2.000000,2.000000,0.000000,2.000000,4.000000,4.000000,4.000000,4.000000,2.000000,4.000000,16.666666,,,,,,,,,,,,,,,,,,,,,,,,,,,,
1732081400.287865,1732081400.289233,92.000000,0.000000,4437.307617,4365.512695,4302.436035,4367.179688,4348.461426,4334.230957,4357.436035,4368.205078,4361.410156,4345.512695,4494.487305,4527.436035,4417.307617,4470.256348,1733.000000,0.000000,14.000000,,,,0.000000,2.000000,2.000000,0.000000,2.000000,2.000000,2.000000,0.000000,2.000000,4.000000,4.000000,4.000000,4.000000,2.000000,4.000000,16.666666,,,,,,,,,,,,,,,,,23.000000,0.000000,0.647745,0.389587,-0.575684,0.311829,0.975705,0.134294,0.055183,-75.465202,65.194839,30.349430
1732081400.295673,1732081400.297041,93.000000,0.000000,4441.538574,4360.000000,4299.230957,4364.102539,4363.846191,4334.230957,4355.512695,4366.410156,4361.025879,4341.410156,4492.563965,4530.256348,4414.358887,4473.846191,1658.000000,0.000000,14.000000,,,,0.000000,2.000000,2.000000,0.000000,2.000000,2.000000,2.000000,0.000000,2.000000,4.000000,4.000000,4.000000,4.000000,2.000000,4.000000,16.666666,,,,,,,,,,,,,,,,,,,,,,,,,,,,
1732081400.303482,1732081400.305049,94.000000,0.000000,4445.384766,4360.256348,4301.794922,4365.897461,4357.820313,4334.487305,4358.077148,4366.922852,4359.230957,4340.128418,4495.384766,4531.153809,4414.487305,4478.077148,1371.000000,0.000000,14.000000,,,,0.000000,2.000000,2.000000,0.000000,2.000000,2.000000,2.000000,0.000000,2.000000,4.000000,4.000000,4.000000,4.000000,2.000000,4.000000,16.666666,,,,,,,,,,,,,,,,,,,,,,,,,,,,
1732081400.311290,1732081400.312857,95.000000,0.000000,4448.077148,4362.820313,4306.538574,4365.512695,4339.615234,4332.820313,4357.692383,4367.948730,4361.666504,4346.153809,4502.820313,4534.743652,4422.307617,4488.974121,1503.000000,0.000000,14.000000,,,,0.000000,2.000000,2.000000,0.000000,2.000000,2.000000,2.000000,0.000000,2.000000,4.000000,4.000000,4.000000,4.000000,2.000000,4.000000,16.666666,,,,,,,,,,,,,,,,,,,,,,,,,,,,
1732081400.319098,1732081400.320765,96.000000,0.000000,4448.205078,4361.666504,4305.641113,4363.589844,4343.077148,4331.538574,4355.128418,4367.820313,4363.846191,4347.820313,4502.436035,4542.051270,4419.615234,4493.589844,1733.000000,0.000000,14.000000,,,,0.000000,2.000000,2.000000,0.000000,2.000000,2.000000,2.000000,0.000000,2.000000,4.000000,4.000000,4.000000,4.000000,2.000000,4.000000,16.666666,,,,,,,,,,,,,,,,,24.000000,0.000000,0.648836,0.386780,-0.574585,0.315063,0.975705,0.126969,0.067879,-75.616814,65.101151,30.506372
1732081400.326907,1732081400.328573,97.000000,0.000000,4445.512695,4357.948730,4302.179688,4363.589844,4353.589844,4331.282227,4354.487305,4367.179688,4361.538574,4344.743652,4497.820313,4541.666504,4411.922852,4489.358887,1658.000000,0.000000,14.000000,,,,0.000000,2.000000,2.000000,0.000000,2.000000,2.000000,2.000000,0.000000,2.000000,4.000000,4.000000,4.000000,4.000000,2.000000,4.000000,16.666666,,,,,,,,,,,,,,,,,,,,,,,,,,,,
1732081400.334715,1732081400.336581,98.000000,0.000000,4446.153809,4357.820313,4305.128418,4362.948730,4348.077148,4329.487305,4356.025879,4366.025879,4359.743652,4346.538574,4496.794922,4538.461426,4416.153809,4488.205078,1371.000000,0.000000,14.000000,,,,0.000000,2.000000,2.000000,0.000000,2.000000,2.000000,2.000000,0.000000,2.000000,4.000000,4.000000,4.000000,4.000000,2.000000,4.000000,16.666666,,,,,,,,,,,,,,,,,,,,,,,,,,,,
1732081400.342523,1732081400.344389,99.000000,0.000000,4452.051270,4362.179688,4306.025879,4361.025879,4347.051270,4330.512695,4352.692383,4367.692383,4363.846191,4350.384766,4501.025879,4542.307617,4422.051270,4490.897461,1503.000000,0.000000,14.000000,,,,0.000000,2.000000,2.000000,0.000000,2.000000,2.000000,2.000000,0.000000,2.000000,4.000000,4.000000,4.000000,4.000000,2.000000,4.000000,16.666666,,,,,,,,,,,,,,,,,,,,,,,,,,,,
1732081400.350331,1732081400.352298,100.000000,0.000000,4452.820313,4359.230957,4302.692383,4359.615234,4348.461426,4336.410156,4354.487305,4371.794922,4369.102539,4352.307617,4506.794922,4548.205078,4419.358887,4490.512695,1733.000000,0.000000,14.000000,,,,0.000000,2.000000,2.000000,0.000000,2.000000,2.000000,2.000000,0.000000,2.000000,4.000000,4.000000,4.000000,4.000000,2.000000,4.000000,16.666666,,,,,,,,,,,,,,,,,25.000000,0.000000,0.649087,0.385498,-0.573853,0.317444,0.989867,0.127945,0.058113,-75.834618,65.011932,30.663494
1732081400.358140,1732081400.360106,101.000000,0.000000,4452.307617,4352.820313,4302.436035,4360.512695,4348.205078,4335.000000,4357.179688,4370.512695,4366.794922,4350.512695,4507.051270,4543.077148,4414.230957,4490.641113,1658.000000,0.000000,14.000000,,,,0.000000,2.000000,2.000000,0.000000,2.000000,2.000000,2.000000,0.000000,2.000000,4.000000,4.000000,4.000000,4.000000,2.000000,4.000000,16.666666,,,,,,,,,,,,,,,,,,,,,,,,,,,,
1732081400.365948,1732081400.368114,102.000000,0.000000,4458.205078,4357.563965,4307.948730,4361.282227,4358.205078,4329.615234,4354.358887,4365.641113,4357.692383,4345.512695,4500.000000,4537.179688,4415.897461,4492.051270,1371.000000,0.000000,14.000000,,,,0.000000,2.000000,2.000000,0.000000,2.000000,2.000000,2.000000,0.000000,2.000000,4.000000,4.000000,4.000000,4.000000,2.000000,4.000000,16.666666,,,,,,,,,,,,,,,,,,,,,,,,,,,,
1732081400.373756,1732081400.375922,103.000000,0.000000,4461.410156,4364.358887,4308.589844,4362.307617,4359.615234,4333.846191,4353.846191,4365.000000,4357.051270,4346.538574,4500.641113,4537.820313,4419.358887,4492.563965,1503.000000,0.000000,14.000000,,,,0.000000,2.000000,2.000000,0.000000,2.000000,2.000000,2.000000,0.000000,2.000000,4.000000,4.000000,4.000000,4.000000,2.000000,4.000000,16.666666,,,,,,,,,,,,,,,,,,,,,,,,,,,,
1732081400.381564,1732081400.383630,104.000000,0.000000,4459.871582,4360.512695,4306.794922,4363.205078,4350.512695,4337.563965,4358.846191,4367.948730,4363.974121,4348.461426,4506.282227,4536.794922,4418.589844,4493.205078,1733.000000,0.000000,14.000000,,,,0.000000,2.000000,2.000000,0.000000,2.000000,2.000000,2.000000,0.000000,2.000000,4.000000,4.000000,4.000000,4.000000,2.000000,4.000000,16.666666,,,,,,,,,,,,,,,,,26.000000,0.000000,0.649154,0.385376,-0.573486,0.318115,0.989867,0.127945,0.058113,-75.739372,65.199669,30.537432
1732081400.389372,1732081400.391439,105.000000,0.000000,4462.563965,4358.589844,4305.000000,4365.641113,4350.128418,4335.641113,4358.589844,4370.769043,4366.025879,4346.794922,4506.282227,4536.538574,4421.153809,4494.230957,1658.000000,0.000000,14.000000,,,,0.000000,2.000000,2.000000,0.000000,2.000000,2.000000,2.000000,0.000000,2.000000,4.000000,4.000000,4.000000,4.000000,2.000000,4.000000,16.666666,,,,,,,,,,,,,,,,,,,,,,,,,,,,
1732081400.397181,1732081400.399047,106.000000,0.000000,4465.384766,4359.358887,4305.512695,4365.769043,4355.641113,4336.025879,4355.128418,4371.922852,4363.589844,4346.794922,4505.769043,4537.948730,4423.974121,4494.102539,1371.000000,0.000000,14.000000,,,,0.000000,2.000000,2.000000,0.000000,2.000000,2.000000,2.000000,0.000000,2.000000,4.000000,4.000000,4.000000,4.000000,2.000000,4.000000,16.666666,,,,,,,,,,,,,,,,,,,,,,,,,,,,
1732081400.404989,1732081400.406855,107.000000,0.000000,4466.666504,4358.205078,4305.000000,4361.794922,4355.000000,4335.128418,4352.179688,4371.153809,4363.205078,4347.436035,4507.051270,4536.282227,4422.307617,4490.897461,1503.000000,0.000000,14.000000,,,,0.000000,2.000000,2.000000,0.000000,2.000000,2.000000,2.000000,0.000000,2.000000,4.000000,4.000000,4.000000,4.000000,2.000000,4.000000,16.666666,,,,,,,,,,,,,,,,,,,,,,,,,,,,
1732081400.412797,1732081400.414563,108.000000,0.000000,4469.871582,4360.000000,4305.128418,4362.692383,4352.179688,4331.025879,4350.384766,4368.333496,4363.846191,4345.128418,4508.077148,4534.743652,4425.641113,4489.743652,1733.000000,0.000000,14.000000,,,,0.000000,2.000000,2.000000,0.000000,2.000000,2.000000,2.000000,0.000000,2.000000,4.000000,4.000000,4.000000,4.000000,2.000000,4.000000,16.666666,,,,,,,,,,,,,,,,,27.000000,0.000000,0.649149,0.385376,-0.573120,0.318787,0.976682,0.123550,0.062996,-75.570557,64.878395,30.535318
1732081400.420606,1732081400.422372,109.000000,0.000000,4471.410156,4362.563965,4306.922852,4369.615234,4354.871582,4331.153809,4350.641113,4365.000000,4367.692383,4348.461426,4512.051270,4544.358887,4430.000000,4497.051270,1658.000000,0.000000,14.000000,,,,0.000000,2.000000,2.000000,0.000000,2.000000,2.000000,2.000000,0.000000,2.000000,4.000000,4.000000,4.000000,4.000000,2.000000,4.000000,16.666666,,,,,,,,,,,,,,,,,,,,,,,,,,,,
1732081400.428414,1732081400.430380,110.000000,0.000000,4474.230957,4363.205078,4308.077148,4371.025879,4366.025879,4330.897461,4351.410156,4366.538574,4370.769043,4352.948730,4515.384766,4554.615234,4426.794922,4501.153809,1371.000000,0.000000,14.000000,,,,0.000000,2.000000,2.000000,0.000000,2.000000,2.000000,2.000000,0.000000,2.000000,4.000000,4.000000,4.000000,4.000000,2.000000,4.000000,16.666666,,,,,,,,,,,,,,,,,,,,,,,,,,,,
1732081400.436222,1732081400.438188,111.000000,0.000000,4477.820313,4364.102539,4307.051270,4366.282227,4370.897461,4328.461426,4351.025879,4371.153809,4366.410156,4349.230957,4513.974121,4551.794922,4427.051270,4498.461426,1503.000000,0.000000,14.000000,,,,0.000000,2.000000,2.000000,0.000000,2.000000,2.000000,2.000000,0.000000,2.000000,4.000000,4.000000,4.000000,4.000000,2.000000,4.000000,16.666666,,,,,,,,,,,,,,,,,,,,,,,,,,,,
1732081400.444030,1732081400.445896,112.000000,0.000000,4478.077148,4363.205078,4306.666504,4366.794922,4352.563965,4329.871582,4352.307617,4372.051270,4364.487305,4347.563965,4518.717773,4550.128418,4432.820313,4503.077148,1733.000000,0.000000,14.000000,,,,0.000000,2.000000,2.000000,0.000000,2.000000,2.000000,2.000000,0.000000,2.000000,4.000000,4.000000,4.000000,4.000000,2.000000,4.000000,16.666666,,,,,,,,,,,,,,,,,28.000000,0.000000,0.649532,0.385071,-0.572449,0.319580,0.984495,0.124039,0.060554,-75.635483,64.744835,31.115274
1732081400.451838,1732081400.453704,113.000000,0.000000,4474.871582,4360.000000,4307.179688,4369.487305,4344.358887,4330.384766,4354.615234,4369.358887,4366.922852,4351.922852,4524.871582,4553.333496,4431.025879,4508.461426,1658.000000,0.000000,14.000000,,,,0.000000,2.000000,2.000000,0.000000,2.000000,2.000000,2.000000,0.000000,2.000000,4.000000,4.000000,4.000000,4.000000,2.000000,4.000000,16.666666,,,,,,,,,,,,,,,,,,,,,,,,,,,,
1732081400.459647,1732081400.461313,114.000000,0.000000,4474.102539,4360.128418,4307.179688,4367.692383,4354.615234,4331.410156,4351.410156,4369.230957,4367.436035,4356.666504,4522.820313,4550.384766,4433.717773,4505.256348,1371.000000,0.000000,14.000000,,,,0.000000,2.000000,2.000000,0.000000,2.000000,2.000000,2.000000,0.000000,2.000000,4.000000,4.000000,4.000000,4.000000,2.000000,4.000000,16.666666,,,,,,,,,,,,,,,,,,,,,,,,,,,,
1732081400.467455,1732081400.469121,115.000000,0.000000,4476.922852,4360.769043,4308.333496,4366.410156,4354.871582,4335.769043,4353.077148,4371.538574,4370.641113,4356.794922,4521.282227,4550.000000,4444.358887,4504.487305,1503.000000,0.000000,14.000000,,,,0.000000,2.000000,2.000000,0.000000,2.000000,2.000000,2.000000,0.000000,2.000000,4.000000,4.000000,4.000000,4.000000,2.000000,4.000000,16.666666,,,,,,,,,,,,,,,,,,,,,,,,,,,,
1732081400.475263,1732081400.476829,116.000000,0.000000,4474.871582,4358.461426,4307.820313,4366.153809,4358.717773,4336.922852,4356.025879,4370.897461,4372.692383,4355.256348,4523.461426,4555.897461,4445.256348,4508.333496,1733.000000,0.000000,14.000000,,,,0.000000,2.000000,2.000000,0.000000,2.000000,2.000000,2.000000,0.000000,2.000000,4.000000,4.000000,4.000000,4.000000,2.000000,4.000000,16.666666,,,,,,,,,,,,,,,,,29.000000,0.000000,0.649610,0.384949,-0.572510,0.319458,0.984495,0.124039,0.060554,-75.673080,64.666649,31.600040
1732081400.483071,1732081400.484638,117.000000,0.000000,4466.922852,4357.051270,4307.820313,4365.384766,4366.666504,4336.794922,4356.410156,4374.743652,4372.307617,4357.051270,4523.589844,4556.794922,4439.615234,4505.512695,1658.000000,0.000000,14.000000,,,,0.000000,2.000000,2.000000,0.000000,2.000000,2.000000,2.000000,0.000000,2.000000,4.000000,4.000000,4.000000,4.000000,2.000000,4.000000,16.666666,,,,,,,,,,,,,,,,,,,,,,,,,,,,
1732081400.490880,1732081400.492246,118.000000,0.000000,4466.410156,4359.743652,4308.589844,4364.230957,4363.717773,4338.077148,4353.077148,4379.615234,4373.205078,4357.051270,4522.051270,4553.461426,4437.307617,4501.153809,1371.000000,0.000000,14.000000,,,,0.000000,2.000000,2.000000,0.000000,2.000000,2.000000,2.000000,0.000000,2.000000,4.000000,4.000000,4.000000,4.000000,2.000000,4.000000,16.666666,,,,,,,,,,,,,,,,,,,,,,,,,,,,
1732081400.498688,1732081400.500054,119.000000,0.000000,4470.897461,4361.666504,4311.410156,4366.025879,4359.102539,4337.692383,4356.538574,4376.025879,4373.717773,4353.461426,4522.563965,4553.589844,4437.307617,4504.743652,1503.000000,0.000000,14.000000,,,,0.000000,2.000000,2.000000,0.000000,2.000000,2.000000,2.000000,0.000000,2.000000,4.000000,4.000000,4.000000,4.000000,2.000000,4.000000,16.666666,,,,,,,,,,,,,,,,,,,,,,,,,,,,
1732081400.506496,1732081400.507762,120.000000,0.000000,4471.538574,4361.666504,4310.769043,4372.179688,4358.974121,4342.563965,4358.589844,4376.410156,4372.692383,4357.692383,4527.179688,4555.256348,4437.820313,4507.436035,1733.000000,0.000000,14.000000,,,,0.000000,2.000000,2.000000,0.000000,2.000000,2.000000,2.000000,0.000000,2.000000,4.000000,4.000000,4.000000,4.000000,2.000000,4.000000,16.666666,,,,,,,,,,,,,,,,,30.000000,0.000000,0.649531,0.385254,-0.572327,0.319580,0.983518,0.134294,0.059089,-75.703529,64.508316,31.771032
1732081400.514305,1732081400.515570,121.000000,0.000000,4469.871582,4365.769043,4310.512695,4375.512695,4355.256348,4347.179688,4356.410156,4381.410156,4371.282227,4360.641113,4528.717773,4553.974121,4434.615234,4501.666504,1658.000000,0.000000,14.000000,,,,0.000000,2.000000,2.000000,0.000000,2.000000,2.000000,2.000000,0.000000,2.000000,4.000000,4.000000,4.000000,4.000000,2.000000,4.000000,16.666666,,,,,,,,,,,,,,,,,,,,,,,,,,,,
1732081400.522113,1732081400.523578,122.000000,0.000000,4466.794922,4369.102539,4312.307617,4373.974121,4356.025879,4343.333496,4354.871582,4376.794922,4369.871582,4352.179688,4524.230957,4548.333496,4431.922852,4497.820313,1371.000000,0.000000,14.000000,,,,0.000000,2.000000,2.000000,0.000000,2.000000,2.000000,2.000000,0.000000,2.000000,4.000000,4.000000,4.000000,4.000000,2.000000,4.000000,16.666666,,,,,,,,,,,,,,,,,,,,,,,,,,,,
1732081400.529921,1732081400.531386,123.000000,0.000000,4461.282227,4363.205078,4314.743652,4369.871582,4360.769043,4340.000000,4355.512695,4371.153809,4370.769043,4351.538574,4522.179688,4546.025879,4434.615234,4498.589844,1503.000000,0.000000,14.000000,,,,0.000000,2.000000,2.000000,0.000000,2.000000,2.000000,2.000000,0.000000,2.000000,4.000000,4.000000,4.000000,4.000000,2.000000,4.000000,16.666666,,,,,,,,,,,,,,,,,,,,,,,,,,,,
1732081400.537729,1732081400.539295,124.000000,0.000000,4458.589844,4358.717773,4313.461426,4366.666504,4353.717773,4343.589844,4354.358887,4378.461426,4377.563965,4362.820313,4523.205078,4547.563965,4433.333496,4494.102539,1733.000000,0.000000,14.000000,,,,0.000000,2.000000,2.000000,0.000000,2.000000,2.000000,2.000000,0.000000,2.000000,4.000000,4.000000,4.000000,4.000000,2.000000,4.000000,16.666666,,,,,,,,,,,,,,,,,31.000000,0.000000,0.648691,0.387024,-0.571777,0.320129,0.959101,0.146991,0.049811,-75.956520,64.418404,31.856203
1732081400.545537,1732081400.547103,125.000000,0.000000,4455.384766,4361.666504,4314.230957,4367.820313,4354.358887,4342.179688,4356.922852,4381.153809,4379.487305,4362.692383,4523.333496,4545.512695,4428.205078,4491.282227,1658.000000,0.000000,14.000000,,,,0.000000,2.000000,2.000000,0.000000,2.000000,2.000000,2.000000,0.000000,2.000000,4.000000,4.000000,4.000000,4.000000,2.000000,4.000000,16.666666,,,,,,,,,,,,,,,,,,,,,,,,,,,,
1732081400.553346,1732081400.555111,126.000000,0.000000,4452.307617,4362.179688,4313.974121,4371.025879,4367.820313,4337.307617,4361.410156,4376.538574,4375.384766,4351.666504,4521.922852,4541.538574,4428.205078,4494.487305,1371.000000,0.000000,14.000000,,,,0.000000,2.000000,2.000000,0.000000,2.000000,2.000000,2.000000,0.000000,2.000000,4.000000,4.000000,4.000000,4.000000,2.000000,4.000000,16.666666,,,,,,,,,,,,,,,,,,,,,,,,,,,,
1732081400.561154,1732081400.562919,127.000000,0.000000,4451.922852,4360.769043,4312.692383,4369.743652,4364.102539,4343.717773,4361.410156,4380.897461,4375.128418,4347.820313,4519.487305,4542.436035,4429.615234,4492.307617,14.000000,0.000000,14.000000,,,,0.000000,2.000000,2.000000,0.000000,2.000000,2.000000,2.000000,0.000000,2.000000,4.000000,4.000000,4.000000,4.000000,2.000000,4.000000,16.666666,,,,,,,,,,,,,,,,,,,,,,,,,,,,
1732081400.568962,1732081400.570627,0.000000,0.000000,4454.230957,4362.179688,4314.743652,4370.641113,4349.102539,4353.333496,4360.769043,4383.974121,4372.948730,4348.333496,4523.974121,4545.384766,4429.743652,4493.589844,6.000000,0.000000,14.000000,,,,0.000000,2.000000,2.000000,0.000000,2.000000,2.000000,2.000000,0.000000,2.000000,4.000000,4.000000,4.000000,4.000000,2.000000,4.000000,16.666666,,,,,,,,,,,,,,,,,0.000000,0.000000,0.647823,0.388428,-0.571228,0.321167,0.968868,0.144549,0.048834,-76.148117,64.465576,31.853523
1732081400.576770,1732081400.578435,1.000000,0.000000,4458.077148,4365.512695,4318.077148,4378.717773,4353.589844,4349.487305,4362.436035,4378.077148,4366.538574,4347.563965,4531.666504,4551.794922,4433.077148,4500.384766,1284.000000,0.000000,14.000000,,,,0.000000,2.000000,2.000000,0.000000,2.000000,2.000000,2.000000,0.000000,2.000000,4.000000,4.000000,4.000000,4.000000,2.000000,4.000000,16.666666,,,,,,,,,,,,,,,,,,,,,,,,,,,,
1732081400.584579,1732081400.586043,2.000000,0.000000,4458.974121,4368.717773,4318.461426,4380.128418,4362.563965,4342.820313,4363.589844,4373.974121,4367.948730,4350.128418,4530.897461,4555.512695,4432.563965,4498.717773,1197.000000,0.000000,14.000000,,,,0.000000,2.000000,2.000000,0.000000,2.000000,2.000000,2.000000,0.000000,2.000000,4.000000,4.000000,4.000000,4.000000,2.000000,4.000000,16.666666,,,,,,,,,,,,,,,,,,,,,,,,,,,,
1732081400.592387,1732081400.593851,3.000000,0.000000,4456.666504,4369.871582,4316.153809,4376.538574,4356.410156,4344.743652,4358.717773,4371.410156,4373.717773,4352.307617,4527.307617,4548.717773,4430.512695,4495.897461,1158.000000,0.000000,14.000000,,,,0.000000,2.000000,2.000000,0.000000,2.000000,2.000000,2.000000,0.000000,2.000000,4.000000,4.000000,4.000000,4.000000,2.000000,4.000000,16.666666,,,,,,,,,,,,,,,,,,,,,,,,,,,,
1732081400.600195,1732081400.601759,4.000000,0.000000,4455.641113,4368.205078,4318.205078,4376.282227,4360.769043,4346.794922,4358.589844,4365.512695,4371.153809,4349.615234,4526.666504,4543.589844,4430.256348,4496.025879,1184.000000,0.000000,14.000000,,,,0.000000,2.000000,2.000000,0.000000,2.000000,2.000000,2.000000,0.000000,2.000000,4.000000,4.000000,4.000000,4.000000,2.000000,4.000000,16.666666,,,,,,,,,,,,,,,,,1.000000,0.000000,0.647352,0.389038,-0.571106,0.321594,0.980588,0.140154,0.041021,-76.214973,64.535446,31.913021
1732081400.608004,1732081400.609567,5.000000,0.000000,4450.512695,4366.153809,4317.820313,4375.256348,4373.461426,4348.461426,4364.102539,4369.358887,4369.743652,4347.820313,4521.025879,4542.820313,4427.948730,4490.128418,1065.000000,0.000000,14.000000,,,,0.000000,2.000000,2.000000,0.000000,2.000000,2.000000,2.000000,0.000000,2.000000,4.000000,4.000000,4.000000,4.000000,2.000000,4.000000,16.666666,,,,,,,,,,,,,,,,,,,,,,,,,,,,
1732081400.615812,1732081400.617575,6.000000,0.000000,4438.205078,4364.871582,4314.743652,4370.256348,4372.948730,4354.102539,4370.897461,4380.641113,4373.717773,4348.846191,4513.077148,4538.333496,4425.512695,4482.179688,192.000000,0.000000,14.000000,,,,0.000000,2.000000,2.000000,0.000000,2.000000,2.000000,2.000000,0.000000,2.000000,4.000000,4.000000,4.000000,4.000000,2.000000,4.000000,16.666666,,,,,,,,,,,,,,,,,,,,,,,,,,,,
1732081400.623620,1732081400.625384,7.000000,0.000000,4433.974121,4364.487305,4313.077148,4368.205078,4362.563965,4355.897461,4371.153809,4382.436035,4375.641113,4349.230957,4514.102539,4536.410156,4425.897461,4477.436035,1192.000000,0.000000,14.000000,,,,0.000000,2.000000,2.000000,0.000000,2.000000,2.000000,2.000000,0.000000,2.000000,4.000000,4.000000,4.000000,4.000000,2.000000,4.000000,16.666666,,,,,,,,,,,,,,,,,,,,,,,,,,,,
1732081400.631428,1732081400.633292,8.000000,0.000000,4433.589844,4362.307617,4314.615234,4369.487305,4353.589844,4354.615234,4371.666504,4380.897461,4376.410156,4351.025879,4518.589844,4544.230957,4426.666504,4473.717773,1339.000000,0.000000,14.000000,,,,0.000000,2.000000,2.000000,0.000000,2.000000,2.000000,2.000000,0.000000,2.000000,4.000000,4.000000,4.000000,4.000000,2.000000,4.000000,16.666666,,,,,,,,,,,,,,,,,2.000000,0.000000,0.646352,0.390198,-0.570862,0.322632,0.984984,0.128922,0.056159,-76.157463,64.658714,31.869547
1732081400.639236,1732081400.641100,9.000000,0.000000,4432.820313,4361.025879,4314.615234,4369.487305,4358.846191,4350.641113,4368.846191,4385.641113,4379.102539,4357.051270,4524.743652,4550.384766,4430.256348,4479.487305,1471.000000,0.000000,14.000000,,,,0.000000,2.000000,2.000000,0.000000,2.000000,2.000000,2.000000,0.000000,2.000000,4.000000,4.000000,4.000000,4.000000,2.000000,4.000000,16.666666,,,,,,,,,,,,,,,,,,,,,,,,,,,,
1732081400.647045,1732081400.649108,10.000000,0.000000,4439.871582,4364.358887,4318.717773,4369.743652,4360.769043,4341.794922,4364.102539,4383.717773,4381.922852,4360.641113,4530.128418,4550.384766,4435.384766,4491.025879,1359.000000,0.000000,14.000000,,,,0.000000,2.000000,2.000000,0.000000,2.000000,2.000000,2.000000,0.000000,2.000000,4.000000,4.000000,4.000000,4.000000,2.000000,4.000000,16.666666,,,,,,,,,,,,,,,,,,,,,,,,,,,,
1732081400.654853,1732081400.656916,11.000000,0.000000,4447.563965,4369.358887,4321.922852,4375.641113,4356.153809,4340.000000,4364.743652,4372.563965,4377.820313,4356.282227,4525.897461,4549.743652,4435.128418,4493.077148,1489.000000,0.000000,14.000000,,,,0.000000,2.000000,2.000000,0.000000,2.000000,2.000000,2.000000,0.000000,2.000000,4.000000,4.000000,4.000000,4.000000,2.000000,4.000000,16.666666,,,,,,,,,,,,,,,,,,,,,,,,,,,,
1732081400.662661,1732081400.664824,12.000000,0.000000,4442.563965,4369.487305,4320.641113,4380.512695,4367.820313,4347.948730,4369.102539,4369.358887,4367.948730,4348.717773,4519.487305,4547.692383,4431.922852,4484.743652,1716.000000,0.000000,14.000000,,,,0.000000,2.000000,2.000000,0.000000,2.000000,2.000000,2.000000,0.000000,2.000000,4.000000,4.000000,4.000000,4.000000,2.000000,4.000000,16.666666,,,,,,,,,,,,,,,,,3.000000,0.000000,0.644207,0.392578,-0.570374,0.324890,0.968380,0.125992,0.046392,-76.207542,64.568558,31.556000
1732081400.670469,1732081400.672633,13.000000,0.000000,4433.589844,4366.410156,4319.487305,4378.589844,4375.769043,4352.436035,4371.922852,4374.487305,4367.948730,4347.307617,4521.922852,4546.025879,4431.025879,4478.333496,1649.000000,0.000000,14.000000,,,,0.000000,2.000000,2.000000,0.000000,2.000000,2.000000,2.000000,0.000000,2.000000,4.000000,4.000000,4.000000,4.000000,2.000000,4.000000,16.666666,,,,,,,,,,,,,,,,,,,,,,,,,,,,
1732081400.678278,1732081400.680641,14.000000,0.000000,4427.179688,4362.692383,4320.128418,4375.641113,4359.358887,4356.410156,4373.974121,4381.410156,4380.512695,4352.051270,4525.000000,4549.102539,4427.051270,4478.077148,1359.000000,0.000000,14.000000,,,,0.000000,2.000000,2.000000,0.000000,2.000000,2.000000,2.000000,0.000000,2.000000,4.000000,4.000000,4.000000,4.000000,2.000000,4.000000,16.666666,1.000000,8.333333,1.000000,2.000000,0.000000,2.000000,2.000000,2.000000,0.000000,2.000000,4.000000,4.000000,3.000000,4.000000,2.000000,3.000000,,,,,,,,,,,,
1732081400.686086,1732081400.688449,15.000000,0.000000,4419.615234,4361.153809,4317.436035,4373.846191,4364.230957,4360.897461,4375.384766,4388.077148,4385.256348,4356.282227,4518.461426,4547.051270,4421.666504,4473.717773,1489.000000,0.000000,14.000000,,,,0.000000,2.000000,2.000000,0.000000,2.000000,2.000000,2.000000,0.000000,2.000000,4.000000,4.000000,4.000000,4.000000,2.000000,4.000000,16.666666,,,,,,,,,,,,,,,,,,,,,,,,,,,,
1732081400.693894,1732081400.696357,16.000000,0.000000,4416.666504,4360.384766,4317.948730,4370.641113,4385.000000,4357.692383,4375.512695,4390.512695,4385.769043,4359.615234,4518.589844,4543.205078,4423.717773,4471.794922,0.000000,0.000000,14.000000,,,,0.000000,2.000000,2.000000,0.000000,2.000000,2.000000,2.000000,0.000000,2.000000,4.000000,4.000000,4.000000,4.000000,2.000000,4.000000,16.666666,,,,,,,,,,,,,,,,,4.000000,0.000000,0.643807,0.392944,-0.570435,0.325134,0.975705,0.133805,0.039556,-76.379776,64.572197,31.480360
1732081400.701702,1732081400.704165,17.000000,0.000000,4418.589844,4360.256348,4322.436035,4368.461426,4372.307617,4353.589844,4376.282227,4393.205078,4394.102539,4362.179688,4524.102539,4546.666504,4425.897461,4474.871582,0.000000,0.000000,14.000000,,,,0.000000,2.000000,2.000000,0.000000,2.000000,2.000000,2.000000,0.000000,2.000000,4.000000,4.000000,4.000000,4.000000,2.000000,4.000000,16.666666,,,,,,,,,,,,,,,,,,,,,,,,,,,,
1732081400.709511,1732081400.712173,18.000000,0.000000,4419.102539,4361.666504,4320.512695,4367.948730,4353.846191,4357.179688,4377.563965,4395.641113,4398.846191,4364.615234,4524.230957,4551.538574,4422.051270,4475.000000,0.000000,0.000000,14.000000,,,,0.000000,2.000000,2.000000,0.000000,2.000000,2.000000,2.000000,0.000000,2.000000,4.000000,4.000000,4.000000,4.000000,2.000000,4.000000,16.666666,,,,,,,,,,,,,,,,,,,,,,,,,,,,
1732081400.717319,1732081400.719981,19.000000,0.000000,4419.615234,4362.692383,4318.333496,4369.487305,4367.563965,4358.333496,4378.461426,4392.563965,4389.358887,4361.538574,4521.538574,4550.641113,4422.051270,4472.948730,0.000000,0.000000,14.000000,,,,0.000000,2.000000,2.000000,0.000000,2.000000,2.000000,2.000000,0.000000,2.000000,4.000000,4.000000,4.000000,4.000000,2.000000,4.000000,16.666666,,,,,,,,,,,,,,,,,,,,,,,,,,,,
1732081400.725127,1732081400.727889,20.000000,0.000000,4423.205078,4364.102539,4320.897461,4372.179688,4384.487305,4355.128418,4374.358887,4384.615234,4379.230957,4354.358887,4520.000000,4545.897461,4425.384766,4474.487305,0.000000,0.000000,14.000000,,,,0.000000,2.000000,2.000000,0.000000,2.000000,2.000000,2.000000,0.000000,2.000000,4.000000,4.000000,4.000000,4.000000,2.000000,4.000000,16.666666,,,,,,,,,,,,,,,,,5.000000,0.000000,0.643072,0.393616,-0.570557,0.325562,0.976682,0.112807,0.047369,-76.054283,64.875145,31.452425
1732081400.732935,1732081400.735698,21.000000,0.000000,4426.025879,4367.051270,4323.846191,4372.948730,4373.974121,4354.358887,4374.358887,4384.871582,4380.384766,4352.563965,4520.384766,4546.410156,4423.461426,4477.179688,0.000000,0.000000,14.000000,,,,0.000000,2.000000,2.000000,0.000000,2.000000,2.000000,2.000000,0.000000,2.000000,4.000000,4.000000,4.000000,4.000000,2.000000,4.000000,16.666666,,,,,,,,,,,,,,,,,,,,,,,,,,,,
1732081400.740744,1732081400.743306,22.000000,0.000000,4425.769043,4369.615234,4322.436035,4373.717773,4358.974121,4359.102539,4378.205078,4389.871582,4385.256348,4359.230957,4522.563965,4552.436035,4423.077148,4477.179688,0.000000,0.000000,14.000000,,,,0.000000,2.000000,2.000000,0.000000,2.000000,2.000000,2.000000,0.000000,2.000000,4.000000,4.000000,4.000000,4.000000,2.000000,4.000000,16.666666,,,,,,,,,,,,,,,,,,,,,,,,,,,,
1732081400.748552,1732081400.751114,23.000000,0.000000,4421.666504,4368.077148,4322.051270,4375.384766,4375.384766,4364.487305,4381.794922,4389.743652,4385.512695,4361.025879,4518.974121,4550.128418,4422.307617,4470.897461,0.000000,0.000000,14.000000,,,,0.000000,2.000000,2.000000,0.000000,2.000000,2.000000,2.000000,0.000000,2.000000,4.000000,4.000000,4.000000,4.000000,2.000000,4.000000,16.666666,,,,,,,,,,,,,,,,,,,,,,,,,,,,
1732081400.756360,1732081400.758822,24.000000,0.000000,4415.512695,4364.230957,4322.051270,4374.230957,4393.077148,4365.897461,4380.512695,4392.820313,4386.794922,4356.794922,4509.102539,4541.794922,4414.871582,4460.641113,0.000000,0.000000,14.000000,,,,0.000000,2.000000,2.000000,0.000000,2.000000,2.000000,2.000000,0.000000,2.000000,4.000000,4.000000,4.000000,4.000000,2.000000,4.000000,16.666666,,,,,,,,,,,,,,,,,6.000000,0.000000,0.641702,0.394775,-0.570984,0.326111,0.967892,0.122085,0.046392,-76.207306,64.872200,31.351463
1732081400.764168,1732081400.766631,25.000000,0.000000,4407.563965,4359.615234,4321.666504,4370.769043,4378.333496,4368.717773,4386.794922,4399.102539,4391.153809,4356.538574,4506.666504,4545.769043,4412.051270,4458.077148,0.000000,0.000000,14.000000,,,,0.000000,2.000000,2.000000,0.000000,2.000000,2.000000,2.000000,0.000000,2.000000,4.000000,4.000000,4.000000,4.000000,2.000000,4.000000,16.666666,,,,,,,,,,,,,,,,,,,,,,,,,,,,
1732081400.771977,1732081400.774239,26.000000,0.000000,4398.333496,4357.820313,4320.000000,4371.666504,4368.589844,4375.384766,4392.563965,4401.538574,4393.974121,4358.205078,4508.333496,4548.461426,4412.307617,4456.666504,0.000000,0.000000,14.000000,,,,0.000000,2.000000,2.000000,0.000000,2.000000,2.000000,2.000000,0.000000,2.000000,4.000000,4.000000,4.000000,4.000000,2.000000,4.000000,16.666666,,,,,,,,,,,,,,,,,,,,,,,,,,,,
1732081400.779785,1732081400.782047,27.000000,0.000000,4398.077148,4363.846191,4321.666504,4374.358887,4378.333496,4374.230957,4387.307617,4400.000000,4395.000000,4357.179688,4502.051270,4539.871582,4410.897461,4449.358887,0.000000,0.000000,14.000000,,,,0.000000,2.000000,2.000000,0.000000,2.000000,2.000000,2.000000,0.000000,2.000000,4.000000,4.000000,4.000000,4.000000,2.000000,4.000000,16.666666,,,,,,,,,,,,,,,,,,,,,,,,,,,,
1732081400.787593,1732081400.789756,28.000000,0.000000,4405.384766,4370.128418,4322.948730,4375.128418,4381.922852,4365.641113,4380.256348,4398.717773,4394.102539,4357.051270,4506.025879,4541.666504,4411.666504,4450.897461,0.000000,0.000000,14.000000,,,,0.000000,2.000000,2.000000,0.000000,2.000000,2.000000,2.000000,0.000000,2.000000,4.000000,4.000000,4.000000,4.000000,2.000000,4.000000,16.666666,,,,,,,,,,,,,,,,,7.000000,0.000000,0.640639,0.395996,-0.571228,0.326294,0.973752,0.128922,0.031742,-76.487915,64.859818,31.268019
1732081400.795401,1732081400.797564,29.000000,0.000000,4413.846191,4370.641113,4324.871582,4378.846191,4380.897461,4362.307617,4380.769043,4397.948730,4391.153809,4358.205078,4517.820313,4552.051270,4412.051270,4461.538574,0.000000,0.000000,14.000000,,,,0.000000,2.000000,2.000000,0.000000,2.000000,2.000000,2.000000,0.000000,2.000000,4.000000,4.000000,4.000000,4.000000,2.000000,4.000000,16.666666,,,,,,,,,,,,,,,,,,,,,,,,,,,,
1732081400.803209,1732081400.805172,30.000000,0.000000,4415.641113,4371.153809,4326.025879,4383.205078,4378.717773,4364.743652,4385.641113,4397.307617,4391.282227,4358.974121,4512.692383,4551.025879,4408.205078,4462.051270,0.000000,0.000000,14.000000,,,,0.000000,2.000000,2.000000,0.000000,2.000000,2.000000,2.000000,0.000000,2.000000,4.000000,4.000000,4.000000,4.000000,2.000000,4.000000,16.666666,,,,,,,,,,,,,,,,,,,,,,,,,,,,
1732081400.811018,1732081400.812980,31.000000,0.000000,4409.487305,4369.487305,4326.025879,4379.230957,4366.794922,4368.461426,4385.769043,4398.589844,4394.487305,4359.615234,4503.077148,4544.358887,4406.153809,4455.384766,0.000000,0.000000,14.000000,,,,0.000000,2.000000,2.000000,0.000000,2.000000,2.000000,2.000000,0.000000,2.000000,4.000000,4.000000,4.000000,4.000000,2.000000,4.000000,16.666666,,,,,,,,,,,,,,,,,,,,,,,,,,,,
1732081400.818826,1732081400.820689,32.000000,0.000000,4401.794922,4364.358887,4323.205078,4370.769043,4371.410156,4367.563965,4385.384766,4397.948730,4394.871582,4359.230957,4510.256348,4547.948730,4407.948730,4458.205078,0.000000,0.000000,14.000000,,,,0.000000,2.000000,2.000000,0.000000,2.000000,2.000000,2.000000,0.000000,2.000000,4.000000,4.000000,4.000000,4.000000,2.000000,4.000000,16.666666,,,,,,,,,,,,,,,,,8.000000,0.000000,0.640341,0.396301,-0.571350,0.326294,0.966915,0.124527,0.035649,-76.363548,64.981453,31.248762
1732081400.826634,1732081400.828497,33.000000,0.000000,4397.436035,4363.461426,4320.769043,4367.820313,4389.487305,4364.871582,4386.153809,4397.051270,4394.871582,4360.256348,4515.000000,4554.871582,4405.000000,4462.179688,0.000000,0.000000,14.000000,,,,0.000000,2.000000,2.000000,0.000000,2.000000,2.000000,2.000000,0.000000,2.000000,4.000000,4.000000,4.000000,4.000000,2.000000,4.000000,16.666666,,,,,,,,,,,,,,,,,,,,,,,,,,,,
1732081400.834443,1732081400.836105,34.000000,0.000000,4396.794922,4363.846191,4323.974121,4369.230957,4378.333496,4366.666504,4389.230957,4399.487305,4397.307617,4363.333496,4513.077148,4555.256348,4401.922852,4461.794922,0.000000,0.000000,14.000000,,,,0.000000,2.000000,2.000000,0.000000,2.000000,2.000000,2.000000,0.000000,2.000000,4.000000,4.000000,4.000000,4.000000,2.000000,4.000000,16.666666,,,,,,,,,,,,,,,,,,,,,,,,,,,,
1732081400.842251,1732081400.843914,35.000000,0.000000,4398.589844,4366.025879,4325.256348,4373.205078,4359.230957,4369.487305,4391.153809,4401.922852,4395.641113,4361.794922,4516.410156,4546.282227,4404.487305,4464.871582,0.000000,0.000000,14.000000,,,,0.000000,2.000000,2.000000,0.000000,2.000000,2.000000,2.000000,0.000000,2.000000,4.000000,4.000000,4.000000,4.000000,2.000000,4.000000,16.666666,,,,,,,,,,,,,,,,,,,,,,,,,,,,
1732081400.850059,1732081400.851822,36.000000,0.000000,4399.871582,4369.615234,4325.256348,4376.282227,4367.179688,4368.974121,4392.307617,4401.410156,4389.743652,4355.897461,4514.615234,4539.487305,4409.102539,4465.128418,0.000000,0.000000,14.000000,,,,0.000000,2.000000,2.000000,0.000000,2.000000,2.000000,2.000000,0.000000,2.000000,4.000000,4.000000,4.000000,4.000000,2.000000,4.000000,16.666666,,,,,,,,,,,,,,,,,9.000000,0.000000,0.639473,0.396973,-0.571716,0.326538,0.984007,0.130387,0.025394,-76.196136,64.854973,31.344831
1732081400.857867,1732081400.859630,37.000000,0.000000,4395.897461,4367.692383,4326.153809,4376.282227,4376.410156,4366.666504,4390.641113,4400.641113,4389.230957,4355.641113,4507.307617,4541.794922,4406.794922,4459.487305,0.000000,0.000000,14.000000,,,,0.000000,2.000000,2.000000,0.000000,2.000000,2.000000,2.000000,0.000000,2.000000,4.000000,4.000000,4.000000,4.000000,2.000000,4.000000,16.666666,,,,,,,,,,,,,,,,,,,,,,,,,,,,
1732081400.865676,1732081400.867238,38.000000,0.000000,4390.641113,4363.717773,4328.333496,4375.128418,4367.820313,4367.948730,4391.538574,4401.282227,4394.358887,4360.384766,4507.436035,4546.922852,4401.410156,4456.538574,0.000000,0.000000,14.000000,,,,0.000000,2.000000,2.000000,0.000000,2.000000,2.000000,2.000000,0.000000,2.000000,4.000000,4.000000,4.000000,4.000000,2.000000,4.000000,16.666666,,,,,,,,,,,,,,,,,,,,,,,,,,,,
1732081400.873484,1732081400.875047,39.000000,0.000000,4392.948730,4366.538574,4326.153809,4375.769043,4370.769043,4369.743652,4390.384766,4402.820313,4398.589844,4366.025879,4515.384766,4554.487305,4405.256348,4462.436035,0.000000,0.000000,14.000000,,,,0.000000,2.000000,2.000000,0.000000,2.000000,2.000000,2.000000,0.000000,2.000000,4.000000,4.000000,4.000000,4.000000,2.000000,4.000000,16.666666,,,,,,,,,,,,,,,,,,,,,,,,,,,,
1732081400.881292,1732081400.882755,40.000000,0.000000,4395.512695,4365.641113,4326.153809,4375.000000,4385.897461,4367.563965,4388.717773,4405.897461,4400.641113,4371.282227,4522.948730,4561.922852,4408.846191,4466.410156,0.000000,0.000000,14.000000,,,,0.000000,2.000000,2.000000,0.000000,2.000000,2.000000,2.000000,0.000000,2.000000,4.000000,4.000000,4.000000,4.000000,2.000000,4.000000,16.666666,,,,,,,,,,,,,,,,,10.000000,0.000000,0.638042,0.397766,-0.572693,0.326660,0.965938,0.124527,0.026859,-76.193871,64.635864,31.422646
1732081400.889100,1732081400.890563,41.000000,0.000000,4393.461426,4362.692383,4326.025879,4371.410156,4376.282227,4367.563965,4389.230957,4404.358887,4400.256348,4373.589844,4523.205078,4562.563965,4403.974121,4462.692383,0.000000,0.000000,14.000000,,,,0.000000,2.000000,2.000000,0.000000,2.000000,2.000000,2.000000,0.000000,2.000000,4.000000,4.000000,4.000000,4.000000,2.000000,4.000000,16.666666,,,,,,,,,,,,,,,,,,,,,,,,,,,,
1732081400.896908,1732081400.898171,42.000000,0.000000,4388.589844,4363.974121,4324.358887,4368.589844,4361.410156,4372.820313,4393.333496,4402.307617,4397.948730,4372.179688,4520.384766,4557.436035,4400.256348,4458.077148,0.000000,0.000000,14.000000,,,,0.000000,2.000000,2.000000,0.000000,2.000000,2.000000,2.000000,0.000000,2.000000,4.000000,4.000000,4.000000,4.000000,2.000000,4.000000,16.666666,,,,,,,,,,,,,,,,,,,,,,,,,,,,
1732081400.904717,1732081400.905979,43.000000,0.000000,4387.692383,4364.358887,4322.948730,4370.769043,4377.051270,4374.230957,4393.846191,4406.153809,4397.948730,4370.512695,4520.512695,4551.282227,4405.641113,4458.077148,0.000000,0.000000,14.000000,,,,0.000000,2.000000,2.000000,0.000000,2.000000,2.000000,2.000000,0.000000,2.000000,4.000000,4.000000,4.000000,4.000000,2.000000,4.000000,16.666666,,,,,,,,,,,,,,,,,,,,,,,,,,,,
1732081400.912525,1732081400.913687,44.000000,0.000000,4389.487305,4366.282227,4325.256348,4372.436035,4389.871582,4371.922852,4391.282227,4407.051270,4400.128418,4372.179688,4522.948730,4546.153809,4410.000000,4460.000000,0.000000,0.000000,14.000000,,,,0.000000,2.000000,2.000000,0.000000,2.000000,2.000000,2.000000,0.000000,2.000000,4.000000,4.000000,4.000000,4.000000,2.000000,4.000000,16.666666,,,,,,,,,,,,,,,,,11.000000,0.000000,0.637594,0.398071,-0.572876,0.326843,0.965938,0.124527,0.026859,-76.345367,64.553383,31.207344
1732081400.920333,1732081400.921495,45.000000,0.000000,4390.769043,4367.563965,4326.538574,4369.230957,4372.563965,4376.153809,4390.384766,4403.333496,4400.384766,4374.230957,4522.820313,4543.589844,4405.384766,4457.692383,0.000000,0.000000,14.000000,,,,0.000000,2.000000,2.000000,0.000000,2.000000,2.000000,2.000000,0.000000,2.000000,4.000000,4.000000,4.000000,4.000000,2.000000,4.000000,16.666666,,,,,,,,,,,,,,,,,,,,,,,,,,,,
1732081400.928141,1732081400.929103,46.000000,0.000000,4391.794922,4366.153809,4326.410156,4368.589844,4364.230957,4378.077148,4390.128418,4401.794922,4401.538574,4372.051270,4519.102539,4546.282227,4407.307617,4458.077148,0.000000,0.000000,14.000000,,,,0.000000,2.000000,2.000000,0.000000,2.000000,2.000000,2.000000,0.000000,2.000000,4.000000,4.000000,4.000000,4.000000,2.000000,4.000000,16.666666,,,,,,,,,,,,,,,,,,,,,,,,,,,,
1732081400.935950,1732081400.936911,47.000000,0.000000,4392.820313,4367.436035,4326.153809,4371.282227,4375.256348,4375.256348,4390.000000,4401.794922,4400.769043,4367.307617,4516.538574,4547.563965,4413.461426,4459.871582,0.000000,0.000000,14.000000,,,,0.000000,2.000000,2.000000,0.000000,2.000000,2.000000,2.000000,0.000000,2.000000,4.000000,4.000000,4.000000,4.000000,2.000000,4.000000,16.666666,,,,,,,,,,,,,,,,,,,,,,,,,,,,
1732081400.943758,1732081400.944819,48.000000,0.000000,4391.282227,4369.615234,4327.692383,4370.256348,4377.692383,4374.230957,4387.820313,4401.922852,4398.333496,4363.974121,4516.794922,4546.666504,4409.358887,4454.743652,0.000000,0.000000,14.000000,,,,0.000000,2.000000,2.000000,0.000000,2.000000,2.000000,2.000000,0.000000,2.000000,4.000000,4.000000,4.000000,4.000000,2.000000,4.000000,16.666666,,,,,,,,,,,,,,,,,12.000000,0.000000,0.637181,0.398193,-0.573181,0.326965,0.966915,0.119155,0.030765,-76.293083,64.238243,31.244616
1732081400.951566,1732081400.952627,49.000000,0.000000,4388.205078,4369.615234,4329.102539,4367.436035,4379.871582,4372.692383,4388.461426,4402.820313,4396.410156,4361.282227,4512.563965,4547.051270,4403.974121,4446.282227,0.000000,0.000000,14.000000,,,,0.000000,2.000000,2.000000,0.000000,2.000000,2.000000,2.000000,0.000000,2.000000,4.000000,4.000000,4.000000,4.000000,2.000000,4.000000,16.666666,,,,,,,,,,,,,,,,,,,,,,,,,,,,
1732081400.959374,1732081400.960635,50.000000,0.000000,4388.974121,4368.974121,4327.307617,4368.717773,4383.333496,4375.512695,4391.410156,4403.461426,4397.051270,4360.769043,4505.512695,4543.846191,4403.974121,4442.948730,0.000000,0.000000,14.000000,,,,0.000000,2.000000,2.000000,0.000000,2.000000,2.000000,2.000000,0.000000,2.000000,4.000000,4.000000,4.000000,4.000000,2.000000,4.000000,16.666666,,,,,,,,,,,,,,,,,,,,,,,,,,,,
1732081400.967183,1732081400.968443,51.000000,0.000000,4388.461426,4367.051270,4326.794922,4371.410156,4380.769043,4380.512695,4393.846191,4403.974121,4396.666504,4362.179688,4504.102539,4537.179688,4401.153809,4442.820313,0.000000,0.000000,14.000000,,,,0.000000,2.000000,2.000000,0.000000,2.000000,2.000000,2.000000,0.000000,2.000000,4.000000,4.000000,4.000000,4.000000,2.000000,4.000000,16.666666,,,,,,,,,,,,,,,,,,,,,,,,,,,,
1732081400.974991,1732081400.976152,52.000000,0.000000,4383.589844,4366.282227,4326.922852,4373.589844,4377.307617,4376.282227,4390.256348,4405.000000,4396.410156,4364.102539,4507.179688,4534.102539,4403.077148,4440.641113,0.000000,0.000000,14.000000,,,,0.000000,2.000000,2.000000,0.000000,2.000000,2.000000,2.000000,0.000000,2.000000,4.000000,4.000000,4.000000,4.000000,2.000000,4.000000,16.666666,,,,,,,,,,,,,,,,,13.000000,0.000000,0.635580,0.398743,-0.574158,0.327698,0.966915,0.112807,0.007813,-76.475731,64.227974,31.088139
1732081400.982799,1732081400.983959,53.000000,0.000000,4383.717773,4371.282227,4329.358887,4377.563965,4375.256348,4369.230957,4389.615234,4403.077148,4399.615234,4368.205078,4508.077148,4535.000000,4412.820313,4443.333496,0.000000,0.000000,14.000000,,,,0.000000,2.000000,2.000000,0.000000,2.000000,2.000000,2.000000,0.000000,2.000000,4.000000,4.000000,4.000000,4.000000,2.000000,4.000000,16.666666,,,,,,,,,,,,,,,,,,,,,,,,,,,,
1732081400.990607,1732081400.991568,54.000000,0.000000,4388.589844,4377.692383,4330.897461,4382.820313,4370.000000,4372.820313,4391.282227,4401.538574,4398.717773,4370.769043,4508.717773,4530.000000,4413.717773,4446.410156,0.000000,0.000000,14.000000,,,,0.000000,2.000000,2.000000,0.000000,2.000000,2.000000,2.000000,0.000000,2.000000,4.000000,4.000000,4.000000,4.000000,2.000000,4.000000,16.666666,,,,,,,,,,,,,,,,,,,,,,,,,,,,
1732081400.998416,1732081400.999376,55.000000,0.000000,4384.487305,4377.948730,4330.897461,4382.051270,4374.102539,4374.871582,4392.948730,4400.000000,4392.307617,4363.717773,4507.051270,4526.538574,4404.743652,4442.436035,0.000000,0.000000,14.000000,,,,0.000000,2.000000,2.000000,0.000000,2.000000,2.000000,2.000000,0.000000,2.000000,4.000000,4.000000,4.000000,4.000000,2.000000,4.000000,16.666666,,,,,,,,,,,,,,,,,,,,,,,,,,,,
1732081401.006224,1732081401.007084,56.000000,0.000000,4377.692383,4373.077148,4327.436035,4376.282227,4389.230957,4367.692383,4390.128418,4397.692383,4391.153809,4357.820313,4505.384766,4530.512695,4401.410156,4439.871582,0.000000,0.000000,14.000000,,,,0.000000,2.000000,2.000000,0.000000,2.000000,2.000000,2.000000,0.000000,2.000000,4.000000,4.000000,4.000000,4.000000,2.000000,4.000000,16.666666,,,,,,,,,,,,,,,,,14.000000,0.000000,0.634749,0.398621,-0.574951,0.328064,0.974240,0.122085,0.026859,-76.572006,64.296326,30.926392
1732081401.014032,1732081401.014892,57.000000,0.000000,4378.717773,4371.538574,4330.000000,4376.410156,4384.487305,4371.025879,4391.794922,4397.563965,4393.717773,4360.384766,4505.897461,4534.871582,4402.948730,4440.512695,0.000000,0.000000,14.000000,,,,0.000000,2.000000,2.000000,0.000000,2.000000,2.000000,2.000000,0.000000,2.000000,4.000000,4.000000,4.000000,4.000000,2.000000,4.000000,16.666666,,,,,,,,,,,,,,,,,,,,,,,,,,,,
1732081401.021840,1732081401.022900,58.000000,0.000000,4380.641113,4374.615234,4334.615234,4379.615234,4374.230957,4381.153809,4393.205078,4400.000000,4392.820313,4361.282227,4506.922852,4534.358887,4402.692383,4440.384766,0.000000,0.000000,14.000000,,,,0.000000,2.000000,2.000000,0.000000,2.000000,2.000000,2.000000,0.000000,2.000000,4.000000,4.000000,4.000000,4.000000,2.000000,4.000000,16.666666,,,,,,,,,,,,,,,,,,,,,,,,,,,,
1732081401.029649,1732081401.030708,59.000000,0.000000,4379.743652,4373.333496,4333.205078,4375.769043,4381.666504,4378.205078,4392.563965,4404.743652,4393.846191,4360.641113,4509.358887,4533.717773,4403.205078,4438.974121,0.000000,0.000000,14.000000,,,,0.000000,2.000000,2.000000,0.000000,2.000000,2.000000,2.000000,0.000000,2.000000,4.000000,4.000000,4.000000,4.000000,2.000000,4.000000,16.666666,,,,,,,,,,,,,,,,,,,,,,,,,,,,
1732081401.037457,1732081401.038616,60.000000,0.000000,4379.102539,4368.333496,4329.487305,4371.794922,4377.820313,4373.974121,4392.179688,4409.102539,4398.717773,4365.769043,4509.871582,4538.589844,4408.461426,4442.051270,0.000000,0.000000,14.000000,,,,0.000000,2.000000,2.000000,0.000000,2.000000,2.000000,2.000000,0.000000,2.000000,4.000000,4.000000,4.000000,4.000000,2.000000,4.000000,16.666666,,,,,,,,,,,,,,,,,15.000000,0.000000,0.634342,0.398804,-0.575134,0.328308,0.974240,0.122085,0.026859,-76.526657,64.303360,30.655376
1732081401.045265,1732081401.046424,61.000000,0.000000,4379.615234,4369.487305,4330.256348,4374.487305,4367.436035,4377.436035,4393.461426,4408.846191,4396.922852,4366.922852,4509.102539,4539.358887,4409.487305,4446.922852,0.000000,0.000000,14.000000,,,,0.000000,2.000000,2.000000,0.000000,2.000000,2.000000,2.000000,0.000000,2.000000,4.000000,4.000000,4.000000,4.000000,2.000000,4.000000,16.666666,,,,,,,,,,,,,,,,,,,,,,,,,,,,
1732081401.053073,1732081401.054432,62.000000,0.000000,4379.743652,4372.563965,4331.666504,4375.641113,4382.179688,4375.256348,4393.461426,4403.846191,4393.589844,4361.282227,4508.846191,4535.897461,4406.153809,4447.436035,0.000000,0.000000,14.000000,,,,0.000000,2.000000,2.000000,0.000000,2.000000,2.000000,2.000000,0.000000,2.000000,4.000000,4.000000,4.000000,4.000000,2.000000,4.000000,16.666666,,,,,,,,,,,,,,,,,,,,,,,,,,,,
1732081401.060882,1732081401.062240,63.000000,0.000000,4380.128418,4370.384766,4330.769043,4371.794922,4387.692383,4368.077148,4389.871582,4399.615234,4392.051270,4361.282227,4509.230957,4536.410156,4407.051270,4447.692383,0.000000,0.000000,14.000000,,,,0.000000,2.000000,2.000000,0.000000,2.000000,2.000000,2.000000,0.000000,2.000000,4.000000,4.000000,4.000000,4.000000,2.000000,4.000000,16.666666,,,,,,,,,,,,,,,,,,,,,,,,,,,,
1732081401.068690,1732081401.070149,64.000000,0.000000,4379.743652,4372.179688,4331.282227,4372.692383,4367.179688,4368.205078,4390.641113,4399.487305,4392.436035,4363.846191,4509.230957,4538.077148,4407.179688,4448.717773,6.000000,0.000000,14.000000,,,,0.000000,2.000000,2.000000,0.000000,2.000000,2.000000,2.000000,0.000000,2.000000,4.000000,4.000000,4.000000,4.000000,2.000000,4.000000,16.666666,,,,,,,,,,,,,,,,,16.000000,0.000000,0.633214,0.399414,-0.575500,0.329102,0.972287,0.122085,0.013674,-76.339928,64.324051,30.534189
1732081401.076498,1732081401.077957,65.000000,0.000000,4379.487305,4376.538574,4331.282227,4377.307617,4370.256348,4369.102539,4392.563965,4400.000000,4392.692383,4361.922852,4509.102539,4531.282227,4406.538574,4447.436035,1284.000000,0.000000,14.000000,,,,0.000000,2.000000,2.000000,0.000000,2.000000,2.000000,2.000000,0.000000,2.000000,4.000000,4.000000,4.000000,4.000000,2.000000,4.000000,16.666666,,,,,,,,,,,,,,,,,,,,,,,,,,,,
1732081401.084306,1732081401.085965,66.000000,0.000000,4376.666504,4373.717773,4330.000000,4373.205078,4379.102539,4373.974121,4395.512695,4401.922852,4389.230957,4360.128418,4508.717773,4531.025879,4407.820313,4445.512695,1204.000000,0.000000,14.000000,,,,0.000000,2.000000,2.000000,0.000000,2.000000,2.000000,2.000000,0.000000,2.000000,4.000000,4.000000,4.000000,4.000000,2.000000,4.000000,16.666666,,,,,,,,,,,,,,,,,,,,,,,,,,,,
1732081401.092115,1732081401.093773,67.000000,0.000000,4373.205078,4368.205078,4330.512695,4365.000000,4374.102539,4382.051270,4394.230957,4403.333496,4387.692383,4361.410156,4507.692383,4538.205078,4406.025879,4446.922852,1158.000000,0.000000,14.000000,,,,0.000000,2.000000,2.000000,0.000000,2.000000,2.000000,2.000000,0.000000,2.000000,4.000000,4.000000,4.000000,4.000000,2.000000,4.000000,16.666666,,,,,,,,,,,,,,,,,,,,,,,,,,,,
1732081401.099923,1732081401.101681,68.000000,0.000000,4375.000000,4372.051270,4333.077148,4365.897461,4382.436035,4376.666504,4393.846191,4400.641113,4389.358887,4361.794922,4506.666504,4539.358887,4403.461426,4448.589844,1179.000000,0.000000,14.000000,,,,0.000000,2.000000,2.000000,0.000000,2.000000,2.000000,2.000000,0.000000,2.000000,4.000000,4.000000,4.000000,4.000000,2.000000,4.000000,16.666666,,,,,,,,,,,,,,,,,17.000000,0.000000,0.633131,0.398804,-0.576050,0.329041,0.980588,0.107435,0.022464,-76.338676,64.025818,30.412693
1732081401.107731,1732081401.109489,69.000000,0.000000,4376.538574,4376.538574,4331.410156,4372.820313,4386.282227,4369.230957,4393.974121,4400.000000,4392.051270,4364.871582,4507.307617,4538.333496,4407.179688,4450.512695,1060.000000,0.000000,14.000000,,,,0.000000,2.000000,2.000000,0.000000,2.000000,2.000000,2.000000,0.000000,2.000000,4.000000,4.000000,4.000000,4.000000,2.000000,4.000000,16.666666,,,,,,,,,,,,,,,,,,,,,,,,,,,,
1732081401.115539,1732081401.117497,70.000000,0.000000,4372.436035,4372.179688,4330.769043,4373.846191,4371.794922,4373.846191,4395.128418,4401.025879,4393.974121,4369.615234,4508.846191,4539.102539,4409.102539,4453.461426,175.000000,0.000000,14.000000,,,,0.000000,2.000000,2.000000,0.000000,2.000000,2.000000,2.000000,0.000000,2.000000,4.000000,4.000000,4.000000,4.000000,2.000000,4.000000,16.666666,,,,,,,,,,,,,,,,,,,,,,,,,,,,
1732081401.123348,1732081401.125305,71.000000,0.000000,4371.794922,4371.538574,4331.410156,4371.666504,4371.410156,4374.358887,4392.307617,4399.487305,4394.743652,4368.846191,4508.717773,4537.692383,4407.563965,4453.846191,1192.000000,0.000000,14.000000,,,,0.000000,2.000000,2.000000,0.000000,2.000000,2.000000,2.000000,0.000000,2.000000,4.000000,4.000000,4.000000,4.000000,2.000000,4.000000,16.666666,,,,,,,,,,,,,,,,,,,,,,,,,,,,
1732081401.131156,1732081401.133014,72.000000,0.000000,4376.282227,4376.025879,4333.846191,4372.563965,4379.871582,4367.692383,4390.128418,4398.333496,4392.179688,4367.179688,4507.563965,4537.051270,4408.333496,4451.538574,1334.000000,0.000000,14.000000,,,,0.000000,2.000000,2.000000,0.000000,2.000000,2.000000,2.000000,0.000000,2.000000,4.000000,4.000000,4.000000,4.000000,2.000000,4.000000,16.666666,,,,,,,,,,,,,,,,,18.000000,0.000000,0.632794,0.398621,-0.576477,0.329163,0.973752,0.117202,0.013185,-76.474327,63.779243,30.340948
1732081401.138964,1732081401.140822,73.000000,0.000000,4376.666504,4374.102539,4333.589844,4373.333496,4377.692383,4369.230957,4391.153809,4400.128418,4392.051270,4370.384766,4507.563965,4533.077148,4407.436035,4451.666504,1469.000000,0.000000,14.000000,,,,0.000000,2.000000,2.000000,0.000000,2.000000,2.000000,2.000000,0.000000,2.000000,4.000000,4.000000,4.000000,4.000000,2.000000,4.000000,16.666666,,,,,,,,,,,,,,,,,,,,,,,,,,,,
