title:1left, start timestamp:1732156443.139162, stop timestamp:1732156479.588034, headset type:EPOCX, headset serial:E5020C3A, headset firmware:730, channels:67, sampling rate:eeg_128;mot_32, samples:4669      , version:2.2, 
Timestamp,OriginalTimestamp,EEG.Counter,EEG.Interpolated,EEG.AF3,EEG.F7,EEG.F3,EEG.FC5,EEG.T7,EEG.P7,EEG.O1,EEG.O2,EEG.P8,EEG.T8,EEG.FC6,EEG.F4,EEG.F8,EEG.AF4,EEG.RawCq,EEG.Battery,EEG.BatteryPercent,MarkerIndex,MarkerType,MarkerValueInt,EEG.MarkerHardware,CQ.AF3,CQ.F7,CQ.F3,CQ.FC5,CQ.T7,CQ.P7,CQ.O1,CQ.O2,CQ.P8,CQ.T8,CQ.FC6,CQ.F4,CQ.F8,CQ.AF4,CQ.Overall,EQ.SampleRateQuality,EQ.OVERALL,EQ.AF3,EQ.F7,EQ.F3,EQ.FC5,EQ.T7,EQ.P7,EQ.O1,EQ.O2,EQ.P8,EQ.T8,EQ.FC6,EQ.F4,EQ.F8,EQ.AF4,MOT.CounterMems,MOT.InterpolatedMems,MOT.Q0,MOT.Q1,MOT.Q2,MOT.Q3,MOT.AccX,MOT.AccY,MOT.AccZ,MOT.MagX,MOT.MagY,MOT.MagZ
1732156443.139162,1732156443.140477,73.000000,0.000000,4301.410156,4292.948730,4313.333496,4304.743652,4283.589844,4288.846191,4331.666504,4394.230957,4295.000000,4288.205078,4462.948730,4507.692383,4355.897461,4411.666504,1678.000000,1.000000,28.000000,,,,0.000000,2.000000,2.000000,0.000000,4.000000,2.000000,2.000000,0.000000,0.000000,4.000000,4.000000,4.000000,4.000000,4.000000,4.000000,0.000000,,,,,,,,,,,,,,,,,,,,,,,,,,,,
1732156443.146970,1732156443.148085,74.000000,0.000000,4299.230957,4293.205078,4313.461426,4302.307617,4289.871582,4291.666504,4331.410156,4396.153809,4294.102539,4289.358887,4463.846191,4508.589844,4354.871582,4409.871582,1528.000000,1.000000,28.000000,,,,0.000000,2.000000,2.000000,0.000000,4.000000,2.000000,2.000000,0.000000,0.000000,4.000000,4.000000,4.000000,4.000000,4.000000,4.000000,0.000000,,,,,,,,,,,,,,,,,,,,,,,,,,,,
1732156443.154778,1732156443.155894,75.000000,0.000000,4295.000000,4292.436035,4311.794922,4302.948730,4287.820313,4290.000000,4333.974121,4393.205078,4293.846191,4291.538574,4463.846191,4506.282227,4356.025879,4411.282227,1584.000000,1.000000,28.000000,,,,0.000000,2.000000,2.000000,0.000000,4.000000,2.000000,2.000000,0.000000,0.000000,4.000000,4.000000,4.000000,4.000000,4.000000,4.000000,0.000000,,,,,,,,,,,,,,,,,,,,,,,,,,,,
1732156443.162586,1732156443.163802,76.000000,0.000000,4294.871582,4292.179688,4312.307617,4301.922852,4289.871582,4286.153809,4334.743652,4392.692383,4291.794922,4286.025879,4462.307617,4503.589844,4356.025879,4410.256348,1705.000000,1.000000,28.000000,,,,0.000000,2.000000,2.000000,0.000000,4.000000,2.000000,2.000000,0.000000,0.000000,4.000000,4.000000,4.000000,4.000000,4.000000,4.000000,0.000000,,,,,,,,,,,,,,,,,19.000000,0.000000,0.682635,-0.071167,-0.719299,-0.107483,0.963497,0.047369,-0.053717,-67.399651,33.730801,45.102489
1732156443.170395,1732156443.171610,77.000000,0.000000,4297.051270,4291.410156,4313.205078,4300.256348,4296.282227,4289.358887,4333.589844,4394.230957,4296.410156,4287.563965,4462.436035,4505.897461,4352.948730,4405.641113,1698.000000,1.000000,28.000000,,,,0.000000,2.000000,2.000000,0.000000,4.000000,2.000000,2.000000,0.000000,0.000000,4.000000,4.000000,4.000000,4.000000,4.000000,4.000000,0.000000,,,,,,,,,,,,,,,,,,,,,,,,,,,,
1732156443.178203,1732156443.179618,78.000000,0.000000,4296.666504,4287.692383,4314.871582,4301.922852,4293.205078,4291.794922,4333.846191,4393.077148,4301.538574,4295.512695,4463.333496,4508.077148,4351.410156,4401.153809,1528.000000,1.000000,28.000000,,,,0.000000,2.000000,2.000000,0.000000,4.000000,2.000000,2.000000,0.000000,0.000000,4.000000,4.000000,4.000000,4.000000,4.000000,4.000000,0.000000,1.000000,0.000000,2.000000,2.000000,0.000000,4.000000,2.000000,2.000000,0.000000,0.000000,4.000000,4.000000,4.000000,4.000000,4.000000,4.000000,,,,,,,,,,,,
1732156443.186011,1732156443.187426,79.000000,0.000000,4293.077148,4285.000000,4312.820313,4299.102539,4301.538574,4285.128418,4334.358887,4392.563965,4297.051270,4294.871582,4461.922852,4497.307617,4351.538574,4397.820313,1584.000000,1.000000,28.000000,,,,0.000000,2.000000,2.000000,0.000000,4.000000,2.000000,2.000000,0.000000,0.000000,4.000000,4.000000,4.000000,4.000000,4.000000,4.000000,0.000000,,,,,,,,,,,,,,,,,,,,,,,,,,,,
1732156443.193819,1732156443.195334,80.000000,0.000000,4294.743652,4289.358887,4311.794922,4296.794922,4310.897461,4281.410156,4333.461426,4392.692383,4292.948730,4290.641113,4462.307617,4490.769043,4354.358887,4397.692383,1705.000000,1.000000,28.000000,,,,0.000000,2.000000,2.000000,0.000000,4.000000,2.000000,2.000000,0.000000,0.000000,4.000000,4.000000,4.000000,4.000000,4.000000,4.000000,0.000000,,,,,,,,,,,,,,,,,20.000000,0.000000,0.682635,-0.071167,-0.719299,-0.107483,0.972287,0.057136,-0.057624,-67.297050,33.921947,45.249683
1732156443.201628,1732156443.203142,81.000000,0.000000,4298.333496,4295.897461,4312.692383,4298.589844,4289.615234,4286.538574,4334.230957,4390.641113,4297.820313,4288.461426,4464.230957,4498.589844,4357.307617,4399.615234,1698.000000,1.000000,28.000000,,,,0.000000,2.000000,2.000000,0.000000,4.000000,2.000000,2.000000,0.000000,0.000000,4.000000,4.000000,4.000000,4.000000,4.000000,4.000000,0.000000,,,,,,,,,,,,,,,,,,,,,,,,,,,,
1732156443.209436,1732156443.211150,82.000000,0.000000,4298.333496,4291.538574,4312.948730,4298.077148,4269.102539,4288.846191,4334.743652,4390.000000,4299.102539,4285.512695,4462.436035,4500.000000,4357.436035,4398.333496,1528.000000,1.000000,28.000000,,,,0.000000,2.000000,2.000000,0.000000,4.000000,2.000000,2.000000,0.000000,0.000000,4.000000,4.000000,4.000000,4.000000,4.000000,4.000000,0.000000,,,,,,,,,,,,,,,,,,,,,,,,,,,,
1732156443.217244,1732156443.218959,83.000000,0.000000,4294.871582,4286.153809,4314.487305,4294.230957,4281.666504,4287.051270,4333.846191,4394.615234,4297.051270,4283.974121,4458.846191,4490.384766,4354.487305,4394.615234,1584.000000,1.000000,28.000000,,,,0.000000,2.000000,2.000000,0.000000,4.000000,2.000000,2.000000,0.000000,0.000000,4.000000,4.000000,4.000000,4.000000,4.000000,4.000000,0.000000,,,,,,,,,,,,,,,,,,,,,,,,,,,,
1732156443.225052,1732156443.226867,84.000000,0.000000,4294.871582,4290.512695,4313.461426,4296.282227,4293.333496,4289.102539,4332.179688,4394.358887,4300.897461,4287.692383,4457.179688,4486.282227,4354.102539,4396.282227,1705.000000,1.000000,28.000000,,,,0.000000,2.000000,2.000000,0.000000,4.000000,2.000000,2.000000,0.000000,0.000000,4.000000,4.000000,4.000000,4.000000,4.000000,4.000000,0.000000,,,,,,,,,,,,,,,,,21.000000,0.000000,0.683211,-0.070679,-0.718506,-0.109436,0.991332,0.071298,-0.031254,-67.210609,34.113445,45.087246
1732156443.232860,1732156443.234675,85.000000,0.000000,4297.436035,4291.025879,4312.436035,4300.128418,4281.282227,4290.641113,4332.436035,4390.000000,4304.358887,4292.307617,4461.025879,4495.000000,4357.692383,4402.179688,1698.000000,1.000000,28.000000,,,,0.000000,2.000000,2.000000,0.000000,4.000000,2.000000,2.000000,0.000000,0.000000,4.000000,4.000000,4.000000,4.000000,4.000000,4.000000,0.000000,,,,,,,,,,,,,,,,,,,,,,,,,,,,
1732156443.240669,1732156443.242683,86.000000,0.000000,4296.025879,4286.282227,4311.538574,4297.692383,4286.153809,4285.897461,4332.948730,4389.871582,4303.846191,4292.563965,4463.589844,4504.230957,4356.666504,4401.666504,1528.000000,1.000000,28.000000,,,,0.000000,2.000000,2.000000,0.000000,4.000000,2.000000,2.000000,0.000000,0.000000,4.000000,4.000000,4.000000,4.000000,4.000000,4.000000,0.000000,,,,,,,,,,,,,,,,,,,,,,,,,,,,
1732156443.248477,1732156443.250491,87.000000,0.000000,4295.256348,4285.897461,4313.974121,4296.410156,4305.512695,4281.410156,4334.358887,4392.307617,4306.666504,4289.230957,4463.589844,4506.538574,4352.436035,4397.820313,1584.000000,1.000000,28.000000,,,,0.000000,2.000000,2.000000,0.000000,4.000000,2.000000,2.000000,0.000000,0.000000,4.000000,4.000000,4.000000,4.000000,4.000000,4.000000,0.000000,,,,,,,,,,,,,,,,,,,,,,,,,,,,
1732156443.256285,1732156443.258399,88.000000,0.000000,4296.922852,4288.974121,4311.153809,4302.436035,4298.461426,4286.666504,4335.128418,4393.333496,4306.922852,4288.589844,4463.974121,4504.358887,4356.282227,4400.000000,1705.000000,1.000000,28.000000,,,,0.000000,2.000000,2.000000,0.000000,4.000000,2.000000,2.000000,0.000000,0.000000,4.000000,4.000000,4.000000,4.000000,4.000000,4.000000,0.000000,,,,,,,,,,,,,,,,,22.000000,0.000000,0.683573,-0.070801,-0.717773,-0.111877,0.984495,0.079600,-0.020999,-67.287262,34.113556,44.947334
1732156443.264094,1732156443.266208,89.000000,0.000000,4295.769043,4290.256348,4311.794922,4305.128418,4283.589844,4294.487305,4334.358887,4393.077148,4302.692383,4292.436035,4463.589844,4506.282227,4362.563965,4405.256348,1698.000000,1.000000,28.000000,,,,0.000000,2.000000,2.000000,0.000000,4.000000,2.000000,2.000000,0.000000,0.000000,4.000000,4.000000,4.000000,4.000000,4.000000,4.000000,0.000000,,,,,,,,,,,,,,,,,,,,,,,,,,,,
1732156443.271902,1732156443.273816,90.000000,0.000000,4293.077148,4291.538574,4313.077148,4301.282227,4288.589844,4294.615234,4334.358887,4391.410156,4304.487305,4295.384766,4467.307617,4509.358887,4360.769043,4407.820313,1528.000000,1.000000,28.000000,,,,0.000000,2.000000,2.000000,0.000000,4.000000,2.000000,2.000000,0.000000,0.000000,4.000000,4.000000,4.000000,4.000000,4.000000,4.000000,0.000000,,,,,,,,,,,,,,,,,,,,,,,,,,,,
1732156443.279710,1732156443.281624,91.000000,0.000000,4294.230957,4291.538574,4315.897461,4299.102539,4292.948730,4290.512695,4335.000000,4391.153809,4306.153809,4294.102539,4471.794922,4507.436035,4359.615234,4411.410156,1584.000000,1.000000,28.000000,,,,0.000000,2.000000,2.000000,0.000000,4.000000,2.000000,2.000000,0.000000,0.000000,4.000000,4.000000,4.000000,4.000000,4.000000,4.000000,0.000000,,,,,,,,,,,,,,,,,,,,,,,,,,,,
1732156443.287518,1732156443.289332,92.000000,0.000000,4296.794922,4289.230957,4312.307617,4301.794922,4286.922852,4287.948730,4332.179688,4392.436035,4304.487305,4291.282227,4468.846191,4506.666504,4362.948730,4413.077148,1705.000000,1.000000,28.000000,,,,0.000000,2.000000,2.000000,0.000000,4.000000,2.000000,2.000000,0.000000,0.000000,4.000000,4.000000,4.000000,4.000000,4.000000,4.000000,0.000000,,,,,,,,,,,,,,,,,23.000000,0.000000,0.683194,-0.070435,-0.717834,-0.114014,0.987425,0.091808,-0.037114,-67.071014,34.083649,44.877342
1732156443.295326,1732156443.297141,93.000000,0.000000,4295.641113,4289.871582,4311.666504,4301.410156,4288.077148,4285.769043,4330.256348,4391.794922,4302.307617,4287.307617,4466.025879,4506.922852,4364.871582,4408.846191,1698.000000,1.000000,28.000000,,,,0.000000,2.000000,2.000000,0.000000,4.000000,2.000000,2.000000,0.000000,0.000000,4.000000,4.000000,4.000000,4.000000,4.000000,4.000000,0.000000,,,,,,,,,,,,,,,,,,,,,,,,,,,,
1732156443.303135,1732156443.304749,94.000000,0.000000,4296.666504,4291.666504,4314.230957,4301.410156,4293.846191,4284.743652,4332.563965,4391.153809,4299.102539,4287.179688,4474.358887,4508.974121,4366.922852,4410.000000,1528.000000,1.000000,28.000000,,,,0.000000,2.000000,2.000000,0.000000,4.000000,2.000000,2.000000,0.000000,0.000000,4.000000,4.000000,4.000000,4.000000,4.000000,4.000000,0.000000,,,,,,,,,,,,,,,,,,,,,,,,,,,,
1732156443.310943,1732156443.312557,95.000000,0.000000,4300.641113,4290.512695,4312.307617,4302.436035,4287.051270,4286.410156,4333.461426,4390.897461,4298.846191,4289.102539,4474.358887,4511.922852,4366.410156,4413.717773,1584.000000,1.000000,28.000000,,,,0.000000,2.000000,2.000000,0.000000,4.000000,2.000000,2.000000,0.000000,0.000000,4.000000,4.000000,4.000000,4.000000,4.000000,4.000000,0.000000,,,,,,,,,,,,,,,,,,,,,,,,,,,,
1732156443.318751,1732156443.320466,96.000000,0.000000,4301.794922,4288.333496,4310.897461,4299.358887,4284.743652,4286.153809,4332.307617,4391.538574,4298.205078,4284.743652,4458.333496,4511.282227,4361.922852,4411.922852,1705.000000,1.000000,28.000000,,,,0.000000,2.000000,2.000000,0.000000,4.000000,2.000000,2.000000,0.000000,0.000000,4.000000,4.000000,4.000000,4.000000,4.000000,4.000000,0.000000,,,,,,,,,,,,,,,,,24.000000,0.000000,0.682926,-0.070374,-0.718018,-0.114502,0.987425,0.091808,-0.037114,-66.930855,34.099422,44.837315
1732156443.326559,1732156443.328274,97.000000,0.000000,4297.563965,4289.743652,4312.563965,4297.051270,4302.307617,4288.846191,4332.051270,4392.436035,4302.692383,4282.051270,4459.487305,4509.487305,4363.846191,4407.692383,1698.000000,1.000000,28.000000,,,,0.000000,2.000000,2.000000,0.000000,4.000000,2.000000,2.000000,0.000000,0.000000,4.000000,4.000000,4.000000,4.000000,4.000000,4.000000,0.000000,,,,,,,,,,,,,,,,,,,,,,,,,,,,
1732156443.334368,1732156443.336282,98.000000,0.000000,4298.589844,4292.692383,4316.025879,4303.077148,4303.077148,4293.589844,4333.589844,4391.666504,4309.487305,4288.077148,4474.871582,4509.487305,4367.436035,4407.307617,1528.000000,1.000000,28.000000,,,,0.000000,2.000000,2.000000,0.000000,4.000000,2.000000,2.000000,0.000000,0.000000,4.000000,4.000000,4.000000,4.000000,4.000000,4.000000,0.000000,,,,,,,,,,,,,,,,,,,,,,,,,,,,
1732156443.342176,1732156443.344090,99.000000,0.000000,4304.358887,4292.820313,4312.179688,4310.000000,4279.102539,4293.589844,4333.717773,4390.897461,4312.307617,4293.717773,4473.077148,4507.307617,4366.282227,4409.743652,1584.000000,1.000000,28.000000,,,,0.000000,2.000000,2.000000,0.000000,4.000000,2.000000,2.000000,0.000000,0.000000,4.000000,4.000000,4.000000,4.000000,4.000000,4.000000,0.000000,,,,,,,,,,,,,,,,,,,,,,,,,,,,
1732156443.349984,1732156443.351799,100.000000,0.000000,4307.051270,4290.897461,4310.000000,4305.897461,4270.384766,4293.205078,4336.666504,4394.743652,4310.384766,4291.025879,4463.846191,4505.384766,4365.512695,4411.538574,1705.000000,1.000000,28.000000,,,,0.000000,2.000000,2.000000,0.000000,4.000000,2.000000,2.000000,0.000000,0.000000,4.000000,4.000000,4.000000,4.000000,4.000000,4.000000,0.000000,,,,,,,,,,,,,,,,,25.000000,0.000000,0.681293,-0.071106,-0.719543,-0.114197,0.974240,0.069344,-0.043462,-66.888992,34.310532,45.023224
1732156443.357793,1732156443.359607,101.000000,0.000000,4307.051270,4291.666504,4310.000000,4300.897461,4282.563965,4294.743652,4336.666504,4395.512695,4310.128418,4288.077148,4468.846191,4507.179688,4367.307617,4412.820313,1698.000000,1.000000,28.000000,,,,0.000000,2.000000,2.000000,0.000000,4.000000,2.000000,2.000000,0.000000,0.000000,4.000000,4.000000,4.000000,4.000000,4.000000,4.000000,0.000000,,,,,,,,,,,,,,,,,,,,,,,,,,,,
1732156443.365601,1732156443.367215,102.000000,0.000000,4306.025879,4289.358887,4314.230957,4301.794922,4284.230957,4290.512695,4334.487305,4393.717773,4303.974121,4285.128418,4470.256348,4506.025879,4367.179688,4407.948730,1528.000000,1.000000,28.000000,,,,0.000000,2.000000,2.000000,0.000000,4.000000,2.000000,2.000000,0.000000,0.000000,4.000000,4.000000,4.000000,4.000000,4.000000,4.000000,0.000000,,,,,,,,,,,,,,,,,,,,,,,,,,,,
1732156443.373409,1732156443.375023,103.000000,0.000000,4307.436035,4287.179688,4313.205078,4302.563965,4278.846191,4286.410156,4333.846191,4392.692383,4293.974121,4282.563965,4460.897461,4501.410156,4364.230957,4406.025879,1584.000000,1.000000,28.000000,,,,0.000000,2.000000,2.000000,0.000000,4.000000,2.000000,2.000000,0.000000,0.000000,4.000000,4.000000,4.000000,4.000000,4.000000,4.000000,0.000000,,,,,,,,,,,,,,,,,,,,,,,,,,,,
1732156443.381217,1732156443.382732,104.000000,0.000000,4310.384766,4291.666504,4312.051270,4303.461426,4276.410156,4288.846191,4333.589844,4393.333496,4293.974121,4284.615234,4461.666504,4503.974121,4365.897461,4412.692383,1705.000000,1.000000,28.000000,,,,0.000000,2.000000,2.000000,0.000000,4.000000,2.000000,2.000000,0.000000,0.000000,4.000000,4.000000,4.000000,4.000000,4.000000,4.000000,0.000000,,,,,,,,,,,,,,,,,26.000000,0.000000,0.680864,-0.071899,-0.719910,-0.113953,0.976682,0.034184,-0.058601,-66.888420,34.398197,45.207146
1732156443.389025,1732156443.390540,105.000000,0.000000,4309.615234,4295.256348,4313.974121,4306.794922,4272.563965,4288.974121,4334.102539,4396.538574,4296.410156,4285.769043,4465.769043,4507.820313,4371.410156,4415.000000,1698.000000,1.000000,28.000000,,,,0.000000,2.000000,2.000000,0.000000,4.000000,2.000000,2.000000,0.000000,0.000000,4.000000,4.000000,4.000000,4.000000,4.000000,4.000000,0.000000,,,,,,,,,,,,,,,,,,,,,,,,,,,,
1732156443.396834,1732156443.398148,106.000000,0.000000,4300.256348,4290.256348,4315.512695,4304.615234,4276.410156,4287.820313,4337.692383,4396.538574,4293.846191,4281.666504,4461.666504,4506.410156,4368.589844,4409.871582,1528.000000,1.000000,28.000000,,,,0.000000,2.000000,2.000000,0.000000,4.000000,2.000000,2.000000,0.000000,0.000000,4.000000,4.000000,4.000000,4.000000,4.000000,4.000000,0.000000,,,,,,,,,,,,,,,,,,,,,,,,,,,,
1732156443.404642,1732156443.405957,107.000000,0.000000,4295.769043,4289.743652,4312.307617,4302.436035,4282.820313,4289.230957,4338.205078,4394.743652,4294.487305,4278.077148,4464.871582,4507.307617,4365.000000,4409.615234,1584.000000,1.000000,28.000000,,,,0.000000,2.000000,2.000000,0.000000,4.000000,2.000000,2.000000,0.000000,0.000000,4.000000,4.000000,4.000000,4.000000,4.000000,4.000000,0.000000,,,,,,,,,,,,,,,,,,,,,,,,,,,,
1732156443.412450,1732156443.413665,108.000000,0.000000,4301.153809,4296.794922,4315.128418,4305.897461,4280.897461,4286.794922,4336.025879,4398.333496,4298.333496,4279.487305,4470.128418,4509.743652,4368.846191,4414.230957,1705.000000,1.000000,28.000000,,,,0.000000,2.000000,2.000000,0.000000,4.000000,2.000000,2.000000,0.000000,0.000000,4.000000,4.000000,4.000000,4.000000,4.000000,4.000000,0.000000,,,,,,,,,,,,,,,,,27.000000,0.000000,0.680502,-0.072937,-0.720215,-0.113525,0.976682,0.034184,-0.058601,-66.736282,34.275871,45.226120
1732156443.420258,1732156443.421473,109.000000,0.000000,4300.641113,4295.512695,4318.205078,4305.384766,4274.358887,4285.128418,4336.538574,4400.512695,4299.230957,4282.563965,4470.000000,4509.615234,4370.128418,4410.897461,1698.000000,1.000000,28.000000,,,,0.000000,2.000000,2.000000,0.000000,4.000000,2.000000,2.000000,0.000000,0.000000,4.000000,4.000000,4.000000,4.000000,4.000000,4.000000,0.000000,,,,,,,,,,,,,,,,,,,,,,,,,,,,
1732156443.428067,1732156443.429081,110.000000,0.000000,4295.384766,4290.897461,4316.410156,4299.358887,4269.743652,4289.102539,4336.410156,4396.794922,4300.384766,4285.256348,4467.307617,4506.153809,4369.358887,4409.102539,1528.000000,1.000000,28.000000,,,,0.000000,2.000000,2.000000,0.000000,4.000000,2.000000,2.000000,0.000000,0.000000,4.000000,4.000000,4.000000,4.000000,4.000000,4.000000,0.000000,,,,,,,,,,,,,,,,,,,,,,,,,,,,
1732156443.435875,1732156443.436890,111.000000,0.000000,4296.666504,4291.922852,4315.256348,4298.717773,4271.025879,4293.461426,4334.871582,4396.666504,4306.922852,4286.538574,4465.641113,4502.948730,4373.205078,4411.794922,1584.000000,1.000000,28.000000,,,,0.000000,2.000000,2.000000,0.000000,4.000000,2.000000,2.000000,0.000000,0.000000,4.000000,4.000000,4.000000,4.000000,4.000000,4.000000,0.000000,,,,,,,,,,,,,,,,,,,,,,,,,,,,
1732156443.443683,1732156443.444798,112.000000,0.000000,4299.487305,4296.538574,4319.743652,4306.282227,4270.384766,4293.589844,4337.692383,4397.692383,4306.538574,4287.436035,4468.461426,4504.615234,4376.794922,4413.846191,1705.000000,1.000000,28.000000,,,,0.000000,2.000000,2.000000,0.000000,4.000000,2.000000,2.000000,0.000000,0.000000,4.000000,4.000000,4.000000,4.000000,4.000000,4.000000,0.000000,,,,,,,,,,,,,,,,,28.000000,0.000000,0.680082,-0.078369,-0.720337,-0.111633,0.967403,0.018069,-0.038091,-66.861389,34.475124,44.918156
1732156443.451491,1732156443.452606,113.000000,0.000000,4302.051270,4297.179688,4319.615234,4311.410156,4265.769043,4285.769043,4339.487305,4397.051270,4303.461426,4285.128418,4473.205078,4508.205078,4379.871582,4420.641113,1698.000000,1.000000,28.000000,,,,0.000000,2.000000,2.000000,0.000000,4.000000,2.000000,2.000000,0.000000,0.000000,4.000000,4.000000,4.000000,4.000000,4.000000,4.000000,0.000000,,,,,,,,,,,,,,,,,,,,,,,,,,,,
1732156443.459299,1732156443.460214,114.000000,0.000000,4308.589844,4295.769043,4316.282227,4307.948730,4259.358887,4279.871582,4338.333496,4397.820313,4303.333496,4282.307617,4474.230957,4512.307617,4383.333496,4428.846191,1528.000000,1.000000,28.000000,,,,0.000000,2.000000,2.000000,0.000000,4.000000,2.000000,2.000000,0.000000,0.000000,4.000000,4.000000,4.000000,4.000000,4.000000,4.000000,0.000000,,,,,,,,,,,,,,,,,,,,,,,,,,,,
1732156443.467108,1732156443.468023,115.000000,0.000000,4306.922852,4296.282227,4321.025879,4303.077148,4255.641113,4280.641113,4338.077148,4397.692383,4301.666504,4280.000000,4471.538574,4515.128418,4380.641113,4431.025879,1584.000000,1.000000,28.000000,,,,0.000000,2.000000,2.000000,0.000000,4.000000,2.000000,2.000000,0.000000,0.000000,4.000000,4.000000,4.000000,4.000000,4.000000,4.000000,0.000000,,,,,,,,,,,,,,,,,,,,,,,,,,,,
1732156443.474916,1732156443.475931,116.000000,0.000000,4300.128418,4295.897461,4324.871582,4304.230957,4255.000000,4280.384766,4337.948730,4396.410156,4301.153809,4278.461426,4469.230957,4513.974121,4375.769043,4428.846191,1705.000000,1.000000,28.000000,,,,0.000000,2.000000,2.000000,0.000000,4.000000,2.000000,2.000000,0.000000,0.000000,4.000000,4.000000,4.000000,4.000000,4.000000,4.000000,0.000000,,,,,,,,,,,,,,,,,29.000000,0.000000,0.680324,-0.083069,-0.719666,-0.111084,0.974240,0.053717,-0.053229,-66.954391,34.506516,44.843708
1732156443.482724,1732156443.483739,117.000000,0.000000,4299.615234,4291.666504,4324.615234,4304.230957,4255.384766,4279.871582,4338.205078,4400.256348,4302.820313,4277.820313,4464.358887,4510.128418,4372.307617,4424.358887,1698.000000,1.000000,28.000000,,,,0.000000,2.000000,2.000000,0.000000,4.000000,2.000000,2.000000,0.000000,0.000000,4.000000,4.000000,4.000000,4.000000,4.000000,4.000000,0.000000,,,,,,,,,,,,,,,,,,,,,,,,,,,,
1732156443.490533,1732156443.491747,118.000000,0.000000,4296.282227,4289.615234,4321.025879,4302.436035,4262.692383,4284.615234,4337.307617,4400.512695,4305.512695,4277.692383,4459.358887,4507.820313,4366.153809,4418.333496,1528.000000,1.000000,28.000000,,,,0.000000,2.000000,2.000000,0.000000,4.000000,2.000000,2.000000,0.000000,0.000000,4.000000,4.000000,4.000000,4.000000,4.000000,4.000000,0.000000,,,,,,,,,,,,,,,,,,,,,,,,,,,,
1732156443.498341,1732156443.499555,119.000000,0.000000,4292.307617,4293.205078,4320.897461,4305.000000,4267.948730,4290.384766,4337.307617,4393.974121,4310.641113,4278.077148,4460.769043,4506.025879,4366.282227,4415.512695,1584.000000,1.000000,28.000000,,,,0.000000,2.000000,2.000000,0.000000,4.000000,2.000000,2.000000,0.000000,0.000000,4.000000,4.000000,4.000000,4.000000,4.000000,4.000000,0.000000,,,,,,,,,,,,,,,,,,,,,,,,,,,,
1732156443.506149,1732156443.507463,120.000000,0.000000,4296.153809,4295.128418,4319.358887,4307.436035,4275.000000,4291.025879,4338.205078,4391.666504,4312.563965,4276.794922,4463.974121,4504.487305,4370.000000,4415.128418,1705.000000,1.000000,28.000000,,,,0.000000,2.000000,2.000000,0.000000,4.000000,2.000000,2.000000,0.000000,0.000000,4.000000,4.000000,4.000000,4.000000,4.000000,4.000000,0.000000,,,,,,,,,,,,,,,,,30.000000,0.000000,0.680324,-0.083069,-0.719666,-0.111084,0.979123,0.043462,-0.046881,-67.059723,34.516945,44.798405
1732156443.513957,1732156443.515271,121.000000,0.000000,4296.538574,4292.051270,4319.871582,4303.333496,4282.436035,4287.820313,4337.820313,4396.538574,4309.871582,4277.563965,4466.538574,4504.615234,4370.384766,4414.615234,1698.000000,1.000000,28.000000,,,,0.000000,2.000000,2.000000,0.000000,4.000000,2.000000,2.000000,0.000000,0.000000,4.000000,4.000000,4.000000,4.000000,4.000000,4.000000,0.000000,,,,,,,,,,,,,,,,,,,,,,,,,,,,
1732156443.521765,1732156443.523279,122.000000,0.000000,4293.717773,4293.846191,4318.461426,4303.077148,4271.025879,4287.307617,4335.641113,4399.358887,4311.282227,4280.769043,4472.563965,4504.615234,4374.230957,4414.230957,1528.000000,1.000000,28.000000,,,,0.000000,2.000000,2.000000,0.000000,4.000000,2.000000,2.000000,0.000000,0.000000,4.000000,4.000000,4.000000,4.000000,4.000000,4.000000,0.000000,,,,,,,,,,,,,,,,,,,,,,,,,,,,
1732156443.529574,1732156443.531088,123.000000,0.000000,4295.641113,4299.102539,4321.410156,4306.794922,4251.025879,4286.153809,4337.051270,4396.282227,4309.487305,4274.615234,4471.282227,4504.871582,4377.179688,4411.025879,1584.000000,1.000000,28.000000,,,,0.000000,2.000000,2.000000,0.000000,4.000000,2.000000,2.000000,0.000000,0.000000,4.000000,4.000000,4.000000,4.000000,4.000000,4.000000,0.000000,,,,,,,,,,,,,,,,,,,,,,,,,,,,
1732156443.537382,1732156443.538996,124.000000,0.000000,4295.897461,4296.922852,4323.461426,4303.077148,4246.922852,4281.282227,4337.563965,4393.974121,4304.358887,4272.179688,4466.666504,4505.641113,4376.153809,4411.538574,1705.000000,1.000000,28.000000,,,,0.000000,2.000000,2.000000,0.000000,4.000000,2.000000,2.000000,0.000000,0.000000,4.000000,4.000000,4.000000,4.000000,4.000000,4.000000,0.000000,,,,,,,,,,,,,,,,,31.000000,0.000000,0.680395,-0.087036,-0.719177,-0.110779,0.983518,0.047369,-0.058113,-67.016708,34.197060,44.615040
1732156443.545190,1732156443.546804,125.000000,0.000000,4295.384766,4290.128418,4323.205078,4296.025879,4250.128418,4277.179688,4337.563965,4393.717773,4308.846191,4277.179688,4468.717773,4509.615234,4377.820313,4416.794922,1698.000000,1.000000,28.000000,,,,0.000000,2.000000,2.000000,0.000000,4.000000,2.000000,2.000000,0.000000,0.000000,4.000000,4.000000,4.000000,4.000000,4.000000,4.000000,0.000000,,,,,,,,,,,,,,,,,,,,,,,,,,,,
1732156443.552998,1732156443.554812,126.000000,0.000000,4296.794922,4292.563965,4318.717773,4300.256348,4253.589844,4280.256348,4339.230957,4393.333496,4312.563965,4273.589844,4467.436035,4512.436035,4371.666504,4412.692383,1528.000000,1.000000,28.000000,,,,0.000000,2.000000,2.000000,0.000000,4.000000,2.000000,2.000000,0.000000,0.000000,4.000000,4.000000,4.000000,4.000000,4.000000,4.000000,0.000000,,,,,,,,,,,,,,,,,,,,,,,,,,,,
1732156443.560807,1732156443.562620,127.000000,0.000000,4295.256348,4293.461426,4318.717773,4307.436035,4261.666504,4284.102539,4338.461426,4394.743652,4310.641113,4268.974121,4463.717773,4512.563965,4359.230957,4406.025879,28.000000,1.000000,28.000000,,,,0.000000,2.000000,2.000000,0.000000,4.000000,2.000000,2.000000,0.000000,0.000000,4.000000,4.000000,4.000000,4.000000,4.000000,4.000000,0.000000,,,,,,,,,,,,,,,,,,,,,,,,,,,,
1732156443.568615,1732156443.570528,0.000000,0.000000,4296.025879,4288.333496,4320.897461,4302.051270,4261.410156,4282.179688,4337.692383,4398.333496,4315.512695,4279.743652,4471.922852,4519.102539,4367.563965,4411.666504,0.000000,1.000000,28.000000,,,,0.000000,2.000000,2.000000,0.000000,4.000000,2.000000,2.000000,0.000000,0.000000,4.000000,4.000000,4.000000,4.000000,4.000000,4.000000,0.000000,,,,,,,,,,,,,,,,,0.000000,0.000000,0.680263,-0.091187,-0.718872,-0.110229,0.981077,0.054206,-0.047857,-66.856873,33.884617,44.583183
1732156443.576423,1732156443.578337,1.000000,0.000000,4294.487305,4285.897461,4319.358887,4292.692383,4255.384766,4278.589844,4338.717773,4397.820313,4321.282227,4288.589844,4481.153809,4524.102539,4386.922852,4416.538574,1591.000000,1.000000,28.000000,,,,0.000000,2.000000,2.000000,0.000000,4.000000,2.000000,2.000000,0.000000,0.000000,4.000000,4.000000,4.000000,4.000000,4.000000,4.000000,0.000000,,,,,,,,,,,,,,,,,,,,,,,,,,,,
1732156443.584232,1732156443.586345,2.000000,0.000000,4287.820313,4284.102539,4314.871582,4292.692383,4259.358887,4278.589844,4338.205078,4395.641113,4322.051270,4290.256348,4480.641113,4521.282227,4390.512695,4412.948730,1419.000000,1.000000,28.000000,,,,0.000000,2.000000,2.000000,0.000000,4.000000,2.000000,2.000000,0.000000,0.000000,4.000000,4.000000,4.000000,4.000000,4.000000,4.000000,0.000000,,,,,,,,,,,,,,,,,,,,,,,,,,,,
1732156443.592040,1732156443.594153,3.000000,0.000000,4287.563965,4276.282227,4311.666504,4291.538574,4262.820313,4285.769043,4337.692383,4397.051270,4325.256348,4298.077148,4487.307617,4521.538574,4392.820313,4416.410156,1412.000000,1.000000,28.000000,,,,0.000000,2.000000,2.000000,0.000000,4.000000,2.000000,2.000000,0.000000,0.000000,4.000000,4.000000,4.000000,4.000000,4.000000,4.000000,0.000000,,,,,,,,,,,,,,,,,,,,,,,,,,,,
1732156443.599848,1732156443.602061,4.000000,0.000000,4287.179688,4269.230957,4314.102539,4283.333496,4260.384766,4286.666504,4340.128418,4396.922852,4323.717773,4298.717773,4494.615234,4520.128418,4401.025879,4423.717773,1409.000000,1.000000,28.000000,,,,0.000000,2.000000,2.000000,0.000000,4.000000,2.000000,2.000000,0.000000,0.000000,4.000000,4.000000,4.000000,4.000000,4.000000,4.000000,0.000000,,,,,,,,,,,,,,,,,1.000000,0.000000,0.680075,-0.091919,-0.718994,-0.109985,0.985472,0.055183,-0.049322,-66.940727,33.776539,44.545712
1732156443.607656,1732156443.609869,5.000000,0.000000,4279.102539,4271.025879,4315.769043,4284.102539,4259.358887,4278.589844,4338.205078,4393.077148,4315.384766,4287.307617,4486.922852,4509.871582,4398.589844,4418.974121,1249.000000,1.000000,28.000000,,,,0.000000,2.000000,2.000000,0.000000,4.000000,2.000000,2.000000,0.000000,0.000000,4.000000,4.000000,4.000000,4.000000,4.000000,4.000000,0.000000,,,,,,,,,,,,,,,,,,,,,,,,,,,,
1732156443.615464,1732156443.617877,6.000000,0.000000,4280.897461,4276.538574,4315.000000,4291.025879,4261.410156,4278.461426,4334.487305,4393.846191,4313.333496,4281.538574,4477.692383,4505.641113,4390.897461,4411.666504,0.000000,1.000000,28.000000,,,,0.000000,2.000000,2.000000,0.000000,4.000000,2.000000,2.000000,0.000000,0.000000,4.000000,4.000000,4.000000,4.000000,4.000000,4.000000,0.000000,,,,,,,,,,,,,,,,,,,,,,,,,,,,
1732156443.623273,1732156443.625685,7.000000,0.000000,4286.282227,4281.538574,4313.974121,4292.179688,4266.538574,4286.794922,4333.461426,4394.615234,4316.410156,4278.589844,4475.128418,4510.000000,4388.974121,4419.102539,0.000000,1.000000,28.000000,,,,0.000000,2.000000,2.000000,0.000000,4.000000,2.000000,2.000000,0.000000,0.000000,4.000000,4.000000,4.000000,4.000000,4.000000,4.000000,0.000000,,,,,,,,,,,,,,,,,,,,,,,,,,,,
1732156443.631081,1732156443.633593,8.000000,0.000000,4285.000000,4282.692383,4318.461426,4291.794922,4268.205078,4290.512695,4333.205078,4393.333496,4314.230957,4272.179688,4475.769043,4510.512695,4386.794922,4424.743652,1526.000000,1.000000,28.000000,,,,0.000000,2.000000,2.000000,0.000000,4.000000,2.000000,2.000000,0.000000,0.000000,4.000000,4.000000,4.000000,4.000000,4.000000,4.000000,0.000000,,,,,,,,,,,,,,,,,2.000000,0.000000,0.679838,-0.092163,-0.719177,-0.110046,0.987425,0.067879,-0.046392,-67.111992,33.622330,44.485359
1732156443.638889,1732156443.641402,9.000000,0.000000,4286.282227,4283.461426,4317.820313,4295.897461,4265.897461,4287.948730,4333.205078,4395.384766,4310.769043,4268.205078,4473.461426,4507.563965,4384.358887,4417.820313,1668.000000,1.000000,28.000000,,,,0.000000,2.000000,2.000000,0.000000,4.000000,2.000000,2.000000,0.000000,0.000000,4.000000,4.000000,4.000000,4.000000,4.000000,4.000000,0.000000,,,,,,,,,,,,,,,,,,,,,,,,,,,,
1732156443.646697,1732156443.649410,10.000000,0.000000,4288.461426,4283.717773,4316.410156,4297.820313,4264.358887,4285.641113,4336.153809,4396.794922,4312.436035,4274.487305,4472.051270,4507.436035,4384.871582,4412.436035,1518.000000,1.000000,28.000000,,,,0.000000,2.000000,2.000000,0.000000,4.000000,2.000000,2.000000,0.000000,0.000000,4.000000,4.000000,4.000000,4.000000,4.000000,4.000000,0.000000,,,,,,,,,,,,,,,,,,,,,,,,,,,,
1732156443.654506,1732156443.657218,11.000000,0.000000,4285.769043,4280.769043,4315.000000,4293.846191,4263.717773,4286.025879,4338.205078,4393.589844,4316.153809,4285.641113,4478.717773,4509.871582,4390.256348,4413.974121,1584.000000,1.000000,28.000000,,,,0.000000,2.000000,2.000000,0.000000,4.000000,2.000000,2.000000,0.000000,0.000000,4.000000,4.000000,4.000000,4.000000,4.000000,4.000000,0.000000,,,,,,,,,,,,,,,,,,,,,,,,,,,,
1732156443.662314,1732156443.664926,12.000000,0.000000,4286.153809,4277.692383,4315.256348,4288.589844,4263.589844,4287.436035,4336.153809,4392.563965,4318.717773,4287.436035,4483.974121,4511.538574,4392.051270,4415.769043,1703.000000,1.000000,28.000000,,,,0.000000,2.000000,2.000000,0.000000,4.000000,2.000000,2.000000,0.000000,0.000000,4.000000,4.000000,4.000000,4.000000,4.000000,4.000000,0.000000,,,,,,,,,,,,,,,,,3.000000,0.000000,0.679319,-0.091919,-0.719727,-0.109863,0.992797,0.062019,-0.060554,-67.389046,33.354088,44.601475
1732156443.670122,1732156443.672734,13.000000,0.000000,4285.769043,4275.897461,4313.846191,4284.743652,4262.179688,4285.000000,4334.102539,4394.102539,4319.615234,4282.692383,4478.077148,4508.974121,4385.128418,4412.692383,1698.000000,1.000000,28.000000,,,,0.000000,2.000000,2.000000,0.000000,4.000000,2.000000,2.000000,0.000000,0.000000,4.000000,4.000000,4.000000,4.000000,4.000000,4.000000,0.000000,,,,,,,,,,,,,,,,,,,,,,,,,,,,
1732156443.677930,1732156443.680343,14.000000,0.000000,4281.794922,4275.256348,4315.128418,4282.436035,4262.179688,4279.743652,4335.641113,4393.846191,4318.589844,4283.077148,4473.077148,4506.410156,4381.282227,4410.128418,1518.000000,1.000000,28.000000,,,,0.000000,2.000000,2.000000,0.000000,4.000000,2.000000,2.000000,0.000000,0.000000,4.000000,4.000000,4.000000,4.000000,4.000000,4.000000,0.000000,1.000000,0.000000,2.000000,2.000000,0.000000,4.000000,2.000000,2.000000,0.000000,0.000000,4.000000,4.000000,4.000000,4.000000,4.000000,4.000000,,,,,,,,,,,,
1732156443.685738,1732156443.688151,15.000000,0.000000,4281.794922,4276.538574,4315.384766,4286.153809,4263.333496,4279.102539,4338.589844,4397.051270,4317.179688,4283.974121,4476.410156,4508.205078,4384.102539,4411.922852,1584.000000,1.000000,28.000000,,,,0.000000,2.000000,2.000000,0.000000,4.000000,2.000000,2.000000,0.000000,0.000000,4.000000,4.000000,4.000000,4.000000,4.000000,4.000000,0.000000,,,,,,,,,,,,,,,,,,,,,,,,,,,,
1732156443.693547,1732156443.695859,16.000000,0.000000,4285.000000,4282.179688,4313.077148,4294.743652,4265.641113,4282.692383,4337.307617,4397.692383,4315.641113,4280.769043,4476.410156,4507.948730,4384.230957,4413.077148,0.000000,1.000000,28.000000,,,,0.000000,2.000000,2.000000,0.000000,4.000000,2.000000,2.000000,0.000000,0.000000,4.000000,4.000000,4.000000,4.000000,4.000000,4.000000,0.000000,,,,,,,,,,,,,,,,,4.000000,0.000000,0.677943,-0.092468,-0.721008,-0.109497,0.976682,0.035649,-0.050787,-67.358459,33.151810,44.530529
1732156443.701355,1732156443.703667,17.000000,0.000000,4289.102539,4282.820313,4311.153809,4298.205078,4265.512695,4285.128418,4333.077148,4392.948730,4311.922852,4278.333496,4470.641113,4504.743652,4380.512695,4409.102539,0.000000,1.000000,28.000000,,,,0.000000,2.000000,2.000000,0.000000,4.000000,2.000000,2.000000,0.000000,0.000000,4.000000,4.000000,4.000000,4.000000,4.000000,4.000000,0.000000,,,,,,,,,,,,,,,,,,,,,,,,,,,,
1732156443.709163,1732156443.711276,18.000000,0.000000,4294.102539,4277.948730,4312.948730,4295.000000,4262.948730,4285.384766,4333.974121,4393.461426,4313.333496,4282.179688,4471.153809,4505.128418,4380.000000,4408.589844,0.000000,1.000000,28.000000,,,,0.000000,2.000000,2.000000,0.000000,4.000000,2.000000,2.000000,0.000000,0.000000,4.000000,4.000000,4.000000,4.000000,4.000000,4.000000,0.000000,,,,,,,,,,,,,,,,,,,,,,,,,,,,
1732156443.716972,1732156443.719084,19.000000,0.000000,4293.974121,4279.871582,4318.333496,4290.128418,4263.846191,4283.589844,4338.717773,4396.410156,4318.974121,4288.974121,4474.871582,4506.922852,4380.256348,4412.563965,0.000000,1.000000,28.000000,,,,0.000000,2.000000,2.000000,0.000000,4.000000,2.000000,2.000000,0.000000,0.000000,4.000000,4.000000,4.000000,4.000000,4.000000,4.000000,0.000000,,,,,,,,,,,,,,,,,,,,,,,,,,,,
1732156443.724780,1732156443.726792,20.000000,0.000000,4293.589844,4286.794922,4312.051270,4289.230957,4265.512695,4284.102539,4334.615234,4390.897461,4320.000000,4297.692383,4474.871582,4505.128418,4382.563965,4411.666504,0.000000,1.000000,28.000000,,,,0.000000,2.000000,2.000000,0.000000,4.000000,2.000000,2.000000,0.000000,0.000000,4.000000,4.000000,4.000000,4.000000,4.000000,4.000000,0.000000,,,,,,,,,,,,,,,,,5.000000,0.000000,0.677690,-0.092896,-0.721191,-0.109497,0.976682,0.035649,-0.050787,-67.242020,32.821301,44.331394
1732156443.732588,1732156443.734601,21.000000,0.000000,4295.128418,4286.025879,4315.128418,4289.615234,4259.230957,4285.512695,4331.794922,4387.948730,4313.205078,4299.743652,4473.205078,4505.512695,4381.025879,4411.153809,0.000000,1.000000,28.000000,,,,0.000000,2.000000,2.000000,0.000000,4.000000,2.000000,2.000000,0.000000,0.000000,4.000000,4.000000,4.000000,4.000000,4.000000,4.000000,0.000000,,,,,,,,,,,,,,,,,,,,,,,,,,,,
1732156443.740396,1732156443.742209,22.000000,0.000000,4295.641113,4278.717773,4320.897461,4290.256348,4254.358887,4285.512695,4334.871582,4391.282227,4308.461426,4293.333496,4473.589844,4508.333496,4372.692383,4414.615234,0.000000,1.000000,28.000000,,,,0.000000,2.000000,2.000000,0.000000,4.000000,2.000000,2.000000,0.000000,0.000000,4.000000,4.000000,4.000000,4.000000,4.000000,4.000000,0.000000,,,,,,,,,,,,,,,,,,,,,,,,,,,,
1732156443.748204,1732156443.750017,23.000000,0.000000,4293.717773,4279.230957,4317.051270,4291.410156,4262.051270,4287.307617,4334.358887,4392.692383,4311.794922,4291.538574,4473.974121,4508.205078,4369.615234,4413.589844,0.000000,1.000000,28.000000,,,,0.000000,2.000000,2.000000,0.000000,4.000000,2.000000,2.000000,0.000000,0.000000,4.000000,4.000000,4.000000,4.000000,4.000000,4.000000,0.000000,,,,,,,,,,,,,,,,,,,,,,,,,,,,
1732156443.756013,1732156443.757726,24.000000,0.000000,4293.974121,4286.153809,4312.820313,4295.512695,4267.179688,4290.000000,4331.922852,4392.692383,4313.974121,4296.153809,4473.205078,4507.948730,4377.307617,4411.794922,0.000000,1.000000,28.000000,,,,0.000000,2.000000,2.000000,0.000000,4.000000,2.000000,2.000000,0.000000,0.000000,4.000000,4.000000,4.000000,4.000000,4.000000,4.000000,0.000000,,,,,,,,,,,,,,,,,6.000000,0.000000,0.677095,-0.094055,-0.721619,-0.109375,0.969845,0.036626,-0.049811,-67.291039,32.221920,44.268429
1732156443.763821,1732156443.765534,25.000000,0.000000,4295.769043,4287.820313,4320.384766,4295.256348,4258.717773,4289.871582,4335.000000,4393.461426,4309.487305,4293.461426,4475.384766,4509.871582,4383.974121,4416.025879,0.000000,1.000000,28.000000,,,,0.000000,2.000000,2.000000,0.000000,4.000000,2.000000,2.000000,0.000000,0.000000,4.000000,4.000000,4.000000,4.000000,4.000000,4.000000,0.000000,,,,,,,,,,,,,,,,,,,,,,,,,,,,
1732156443.771629,1732156443.773542,26.000000,0.000000,4297.563965,4288.974121,4319.871582,4295.128418,4256.666504,4286.794922,4336.538574,4392.820313,4306.922852,4285.641113,4477.179688,4509.102539,4383.077148,4416.538574,0.000000,1.000000,28.000000,,,,0.000000,2.000000,2.000000,0.000000,4.000000,2.000000,2.000000,0.000000,0.000000,4.000000,4.000000,4.000000,4.000000,4.000000,4.000000,0.000000,,,,,,,,,,,,,,,,,,,,,,,,,,,,
1732156443.779437,1732156443.781350,27.000000,0.000000,4299.871582,4290.256348,4315.769043,4298.717773,4265.000000,4285.897461,4334.102539,4394.102539,4313.846191,4291.282227,4474.871582,4507.948730,4379.871582,4413.205078,0.000000,1.000000,28.000000,,,,0.000000,2.000000,2.000000,0.000000,4.000000,2.000000,2.000000,0.000000,0.000000,4.000000,4.000000,4.000000,4.000000,4.000000,4.000000,0.000000,,,,,,,,,,,,,,,,,,,,,,,,,,,,
1732156443.787246,1732156443.789058,28.000000,0.000000,4298.717773,4288.205078,4316.025879,4296.538574,4266.410156,4290.256348,4334.871582,4396.282227,4317.948730,4301.794922,4474.230957,4510.641113,4378.846191,4415.000000,0.000000,1.000000,28.000000,,,,0.000000,2.000000,2.000000,0.000000,4.000000,2.000000,2.000000,0.000000,0.000000,4.000000,4.000000,4.000000,4.000000,4.000000,4.000000,0.000000,,,,,,,,,,,,,,,,,7.000000,0.000000,0.676378,-0.094788,-0.722351,-0.108337,0.966915,0.053717,-0.054206,-67.139076,32.353088,44.287426
1732156443.795054,1732156443.796866,29.000000,0.000000,4295.512695,4291.282227,4314.871582,4295.512695,4262.179688,4291.794922,4336.282227,4394.230957,4308.589844,4294.615234,4475.769043,4509.487305,4380.256348,4418.461426,0.000000,1.000000,28.000000,,,,0.000000,2.000000,2.000000,0.000000,4.000000,2.000000,2.000000,0.000000,0.000000,4.000000,4.000000,4.000000,4.000000,4.000000,4.000000,0.000000,,,,,,,,,,,,,,,,,,,,,,,,,,,,
1732156443.802862,1732156443.804475,30.000000,0.000000,4294.871582,4297.948730,4314.871582,4300.512695,4263.077148,4285.256348,4335.641113,4395.256348,4306.282227,4287.436035,4474.230957,4504.871582,4381.153809,4414.871582,0.000000,1.000000,28.000000,,,,0.000000,2.000000,2.000000,0.000000,4.000000,2.000000,2.000000,0.000000,0.000000,4.000000,4.000000,4.000000,4.000000,4.000000,4.000000,0.000000,,,,,,,,,,,,,,,,,,,,,,,,,,,,
1732156443.810671,1732156443.812283,31.000000,0.000000,4296.153809,4298.461426,4315.256348,4302.692383,4265.769043,4282.179688,4333.461426,4396.666504,4315.384766,4292.307617,4473.461426,4508.974121,4382.948730,4412.179688,0.000000,1.000000,28.000000,,,,0.000000,2.000000,2.000000,0.000000,4.000000,2.000000,2.000000,0.000000,0.000000,4.000000,4.000000,4.000000,4.000000,4.000000,4.000000,0.000000,,,,,,,,,,,,,,,,,,,,,,,,,,,,
1732156443.818479,1732156443.820191,32.000000,0.000000,4300.000000,4295.384766,4312.436035,4296.922852,4262.307617,4282.692383,4332.820313,4391.794922,4309.102539,4291.410156,4474.230957,4513.589844,4383.205078,4420.384766,0.000000,1.000000,28.000000,,,,0.000000,2.000000,2.000000,0.000000,4.000000,2.000000,2.000000,0.000000,0.000000,4.000000,4.000000,4.000000,4.000000,4.000000,4.000000,0.000000,,,,,,,,,,,,,,,,,8.000000,0.000000,0.675902,-0.095154,-0.722839,-0.107727,0.962031,0.033207,-0.067879,-66.902649,32.311001,44.306149
1732156443.826287,1732156443.827999,33.000000,0.000000,4305.897461,4295.128418,4313.717773,4294.230957,4262.307617,4278.846191,4333.461426,4388.589844,4294.487305,4283.589844,4473.333496,4512.436035,4380.897461,4427.820313,0.000000,1.000000,28.000000,,,,0.000000,2.000000,2.000000,0.000000,4.000000,2.000000,2.000000,0.000000,0.000000,4.000000,4.000000,4.000000,4.000000,4.000000,4.000000,0.000000,,,,,,,,,,,,,,,,,,,,,,,,,,,,
1732156443.834095,1732156443.836007,34.000000,0.000000,4305.256348,4295.256348,4316.153809,4296.410156,4265.384766,4278.846191,4332.051270,4391.666504,4299.743652,4284.743652,4475.000000,4515.897461,4381.922852,4427.820313,0.000000,1.000000,28.000000,,,,0.000000,2.000000,2.000000,0.000000,4.000000,2.000000,2.000000,0.000000,0.000000,4.000000,4.000000,4.000000,4.000000,4.000000,4.000000,0.000000,,,,,,,,,,,,,,,,,,,,,,,,,,,,
1732156443.841903,1732156443.843816,35.000000,0.000000,4298.077148,4294.487305,4313.717773,4297.051270,4265.384766,4288.846191,4330.641113,4392.820313,4311.794922,4290.641113,4477.436035,4517.436035,4381.282227,4426.538574,0.000000,1.000000,28.000000,,,,0.000000,2.000000,2.000000,0.000000,4.000000,2.000000,2.000000,0.000000,0.000000,4.000000,4.000000,4.000000,4.000000,4.000000,4.000000,0.000000,,,,,,,,,,,,,,,,,,,,,,,,,,,,
1732156443.849712,1732156443.851524,36.000000,0.000000,4297.436035,4291.538574,4315.641113,4295.256348,4265.256348,4290.000000,4333.333496,4391.410156,4306.794922,4290.897461,4475.000000,4509.871582,4378.974121,4423.589844,0.000000,1.000000,28.000000,,,,0.000000,2.000000,2.000000,0.000000,4.000000,2.000000,2.000000,0.000000,0.000000,4.000000,4.000000,4.000000,4.000000,4.000000,4.000000,0.000000,,,,,,,,,,,,,,,,,9.000000,0.000000,0.675683,-0.095337,-0.723083,-0.107300,0.987425,0.033696,-0.080088,-66.762810,32.378578,44.089649
1732156443.857520,1732156443.859332,37.000000,0.000000,4296.922852,4289.487305,4316.794922,4292.307617,4267.179688,4283.717773,4334.102539,4390.641113,4297.692383,4289.615234,4473.333496,4505.000000,4378.205078,4416.538574,0.000000,1.000000,28.000000,,,,0.000000,2.000000,2.000000,0.000000,4.000000,2.000000,2.000000,0.000000,0.000000,4.000000,4.000000,4.000000,4.000000,4.000000,4.000000,0.000000,,,,,,,,,,,,,,,,,,,,,,,,,,,,
1732156443.865328,1732156443.867340,38.000000,0.000000,4289.743652,4292.436035,4316.794922,4292.948730,4268.077148,4282.179688,4333.589844,4393.461426,4299.743652,4287.692383,4476.794922,4506.410156,4375.769043,4412.563965,0.000000,1.000000,28.000000,,,,0.000000,2.000000,2.000000,0.000000,4.000000,2.000000,2.000000,0.000000,0.000000,4.000000,4.000000,4.000000,4.000000,4.000000,4.000000,0.000000,,,,,,,,,,,,,,,,,,,,,,,,,,,,
1732156443.873136,1732156443.875148,39.000000,0.000000,4289.358887,4293.846191,4315.256348,4295.641113,4263.717773,4279.743652,4334.230957,4396.666504,4305.897461,4286.282227,4478.461426,4508.333496,4373.974121,4413.974121,0.000000,1.000000,28.000000,,,,0.000000,2.000000,2.000000,0.000000,4.000000,2.000000,2.000000,0.000000,0.000000,4.000000,4.000000,4.000000,4.000000,4.000000,4.000000,0.000000,,,,,,,,,,,,,,,,,,,,,,,,,,,,
1732156443.880945,1732156443.883056,40.000000,0.000000,4292.948730,4289.358887,4317.948730,4293.846191,4261.153809,4279.102539,4335.512695,4395.512695,4306.666504,4288.589844,4475.256348,4507.179688,4373.974121,4413.205078,0.000000,1.000000,28.000000,,,,0.000000,2.000000,2.000000,0.000000,4.000000,2.000000,2.000000,0.000000,0.000000,4.000000,4.000000,4.000000,4.000000,4.000000,4.000000,0.000000,,,,,,,,,,,,,,,,,10.000000,0.000000,0.674935,-0.097046,-0.723877,-0.105103,0.984007,0.028324,-0.068368,-66.821213,32.253315,44.115948
1732156443.888753,1732156443.890865,41.000000,0.000000,4292.820313,4290.128418,4317.436035,4291.666504,4268.589844,4286.666504,4334.615234,4390.769043,4305.897461,4289.230957,4474.358887,4505.641113,4372.820313,4414.743652,0.000000,1.000000,28.000000,,,,0.000000,2.000000,2.000000,0.000000,4.000000,2.000000,2.000000,0.000000,0.000000,4.000000,4.000000,4.000000,4.000000,4.000000,4.000000,0.000000,,,,,,,,,,,,,,,,,,,,,,,,,,,,
1732156443.896561,1732156443.898873,42.000000,0.000000,4296.538574,4296.282227,4316.538574,4296.666504,4273.974121,4289.102539,4333.333496,4390.897461,4308.333496,4288.589844,4476.282227,4507.948730,4371.922852,4417.051270,0.000000,1.000000,28.000000,,,,0.000000,2.000000,2.000000,0.000000,4.000000,2.000000,2.000000,0.000000,0.000000,4.000000,4.000000,4.000000,4.000000,4.000000,4.000000,0.000000,,,,,,,,,,,,,,,,,,,,,,,,,,,,
1732156443.904369,1732156443.906681,43.000000,0.000000,4301.025879,4298.205078,4315.897461,4302.436035,4267.436035,4287.820313,4333.333496,4392.948730,4309.871582,4288.974121,4476.666504,4510.256348,4375.256348,4413.974121,0.000000,1.000000,28.000000,,,,0.000000,2.000000,2.000000,0.000000,4.000000,2.000000,2.000000,0.000000,0.000000,4.000000,4.000000,4.000000,4.000000,4.000000,4.000000,0.000000,,,,,,,,,,,,,,,,,,,,,,,,,,,,
1732156443.912177,1732156443.914589,44.000000,0.000000,4299.230957,4296.794922,4317.692383,4300.128418,4260.769043,4289.743652,4334.487305,4392.563965,4313.077148,4290.384766,4476.153809,4511.666504,4373.461426,4415.256348,0.000000,1.000000,28.000000,,,,0.000000,2.000000,2.000000,0.000000,4.000000,2.000000,2.000000,0.000000,0.000000,4.000000,4.000000,4.000000,4.000000,4.000000,4.000000,0.000000,,,,,,,,,,,,,,,,,11.000000,0.000000,0.674815,-0.098022,-0.724060,-0.103699,0.991332,0.017580,-0.066903,-66.690178,32.046852,44.012253
1732156443.919986,1732156443.922397,45.000000,0.000000,4301.794922,4297.307617,4316.666504,4301.410156,4264.871582,4286.282227,4334.230957,4392.051270,4315.384766,4291.666504,4477.563965,4516.410156,4368.589844,4425.000000,0.000000,1.000000,28.000000,,,,0.000000,2.000000,2.000000,0.000000,4.000000,2.000000,2.000000,0.000000,0.000000,4.000000,4.000000,4.000000,4.000000,4.000000,4.000000,0.000000,,,,,,,,,,,,,,,,,,,,,,,,,,,,
1732156443.927794,1732156443.930405,46.000000,0.000000,4304.615234,4296.538574,4315.897461,4302.307617,4267.436035,4281.922852,4332.179688,4391.282227,4312.307617,4290.897461,4478.974121,4516.666504,4368.974121,4429.230957,0.000000,1.000000,28.000000,,,,0.000000,2.000000,2.000000,0.000000,4.000000,2.000000,2.000000,0.000000,0.000000,4.000000,4.000000,4.000000,4.000000,4.000000,4.000000,0.000000,,,,,,,,,,,,,,,,,,,,,,,,,,,,
1732156443.935602,1732156443.938213,47.000000,0.000000,4300.641113,4295.512695,4317.179688,4299.487305,4263.974121,4284.871582,4331.153809,4392.179688,4308.974121,4283.717773,4476.025879,4510.256348,4367.563965,4425.641113,0.000000,1.000000,28.000000,,,,0.000000,2.000000,2.000000,0.000000,4.000000,2.000000,2.000000,0.000000,0.000000,4.000000,4.000000,4.000000,4.000000,4.000000,4.000000,0.000000,,,,,,,,,,,,,,,,,,,,,,,,,,,,
1732156443.943411,1732156443.946122,48.000000,0.000000,4301.538574,4298.333496,4318.974121,4301.153809,4263.846191,4286.282227,4331.153809,4394.102539,4304.102539,4278.205078,4473.717773,4509.102539,4367.692383,4427.948730,0.000000,1.000000,28.000000,,,,0.000000,2.000000,2.000000,0.000000,4.000000,2.000000,2.000000,0.000000,0.000000,4.000000,4.000000,4.000000,4.000000,4.000000,4.000000,0.000000,,,,,,,,,,,,,,,,,12.000000,0.000000,0.674932,-0.098633,-0.723938,-0.103210,0.983030,0.008302,-0.071786,-66.749046,32.114616,44.218258
1732156443.951219,1732156443.953930,49.000000,0.000000,4305.769043,4298.205078,4318.077148,4304.358887,4265.641113,4284.358887,4332.563965,4394.871582,4298.846191,4279.743652,4477.307617,4510.384766,4368.333496,4433.461426,0.000000,1.000000,28.000000,,,,0.000000,2.000000,2.000000,0.000000,4.000000,2.000000,2.000000,0.000000,0.000000,4.000000,4.000000,4.000000,4.000000,4.000000,4.000000,0.000000,,,,,,,,,,,,,,,,,,,,,,,,,,,,
1732156443.959027,1732156443.961938,50.000000,0.000000,4306.538574,4297.051270,4316.922852,4301.153809,4265.000000,4283.846191,4332.948730,4391.922852,4297.563965,4280.641113,4478.974121,4507.179688,4364.230957,4430.897461,0.000000,1.000000,28.000000,,,,0.000000,2.000000,2.000000,0.000000,4.000000,2.000000,2.000000,0.000000,0.000000,4.000000,4.000000,4.000000,4.000000,4.000000,4.000000,0.000000,,,,,,,,,,,,,,,,,,,,,,,,,,,,
1732156443.966835,1732156443.969746,51.000000,0.000000,4306.538574,4297.436035,4318.461426,4298.333496,4265.256348,4280.000000,4332.563965,4390.384766,4298.846191,4279.871582,4475.897461,4506.153809,4362.563965,4428.846191,0.000000,1.000000,28.000000,,,,0.000000,2.000000,2.000000,0.000000,4.000000,2.000000,2.000000,0.000000,0.000000,4.000000,4.000000,4.000000,4.000000,4.000000,4.000000,0.000000,,,,,,,,,,,,,,,,,,,,,,,,,,,,
1732156443.974644,1732156443.977654,52.000000,0.000000,4307.948730,4296.282227,4318.333496,4302.179688,4265.897461,4280.000000,4333.077148,4393.717773,4302.563965,4284.102539,4475.897461,4509.102539,4365.128418,4433.333496,0.000000,1.000000,28.000000,,,,0.000000,2.000000,2.000000,0.000000,4.000000,2.000000,2.000000,0.000000,0.000000,4.000000,4.000000,4.000000,4.000000,4.000000,4.000000,0.000000,,,,,,,,,,,,,,,,,13.000000,0.000000,0.675208,-0.099670,-0.723694,-0.102112,0.982542,0.022464,-0.073739,-66.860062,31.839506,44.461788
1732156443.982452,1732156443.985462,53.000000,0.000000,4310.512695,4296.666504,4318.589844,4303.333496,4265.769043,4282.436035,4334.102539,4396.153809,4306.410156,4286.538574,4479.743652,4508.717773,4364.615234,4433.333496,0.000000,1.000000,28.000000,,,,0.000000,2.000000,2.000000,0.000000,4.000000,2.000000,2.000000,0.000000,0.000000,4.000000,4.000000,4.000000,4.000000,4.000000,4.000000,0.000000,,,,,,,,,,,,,,,,,,,,,,,,,,,,
1732156443.990260,1732156443.993071,54.000000,0.000000,4310.641113,4297.820313,4315.897461,4300.769043,4270.128418,4280.256348,4332.563965,4393.717773,4304.358887,4286.794922,4476.794922,4505.000000,4362.563965,4428.077148,0.000000,1.000000,28.000000,,,,0.000000,2.000000,2.000000,0.000000,4.000000,2.000000,2.000000,0.000000,0.000000,4.000000,4.000000,4.000000,4.000000,4.000000,4.000000,0.000000,,,,,,,,,,,,,,,,,,,,,,,,,,,,
1732156443.998068,1732156444.000879,55.000000,0.000000,4309.102539,4297.820313,4317.179688,4303.717773,4274.743652,4276.666504,4332.692383,4391.794922,4303.589844,4288.077148,4474.358887,4511.410156,4365.641113,4428.205078,0.000000,1.000000,28.000000,,,,0.000000,2.000000,2.000000,0.000000,4.000000,2.000000,2.000000,0.000000,0.000000,4.000000,4.000000,4.000000,4.000000,4.000000,4.000000,0.000000,,,,,,,,,,,,,,,,,,,,,,,,,,,,
1732156444.005876,1732156444.008587,56.000000,0.000000,4307.948730,4300.769043,4315.897461,4308.974121,4274.615234,4279.487305,4332.948730,4392.820313,4308.974121,4294.615234,4483.846191,4519.230957,4368.717773,4432.051270,0.000000,1.000000,28.000000,,,,0.000000,2.000000,2.000000,0.000000,4.000000,2.000000,2.000000,0.000000,0.000000,4.000000,4.000000,4.000000,4.000000,4.000000,4.000000,0.000000,,,,,,,,,,,,,,,,,14.000000,0.000000,0.675802,-0.101440,-0.723022,-0.101196,0.944451,0.004395,-0.064949,-66.961647,31.846666,44.419048
1732156444.013685,1732156444.016395,57.000000,0.000000,4304.615234,4301.538574,4317.436035,4306.538574,4276.538574,4282.948730,4332.179688,4392.179688,4312.563965,4300.384766,4489.358887,4514.487305,4365.641113,4430.128418,0.000000,1.000000,28.000000,,,,0.000000,2.000000,2.000000,0.000000,4.000000,2.000000,2.000000,0.000000,0.000000,4.000000,4.000000,4.000000,4.000000,4.000000,4.000000,0.000000,,,,,,,,,,,,,,,,,,,,,,,,,,,,
1732156444.021493,1732156444.024004,58.000000,0.000000,4304.487305,4295.897461,4319.743652,4302.948730,4281.282227,4280.000000,4333.717773,4390.769043,4310.512695,4298.461426,4484.615234,4510.641113,4360.000000,4427.051270,0.000000,1.000000,28.000000,,,,0.000000,2.000000,2.000000,0.000000,4.000000,2.000000,2.000000,0.000000,0.000000,4.000000,4.000000,4.000000,4.000000,4.000000,4.000000,0.000000,,,,,,,,,,,,,,,,,,,,,,,,,,,,
1732156444.029301,1732156444.031812,59.000000,0.000000,4310.641113,4292.692383,4321.025879,4304.743652,4282.948730,4278.461426,4333.717773,4390.000000,4303.974121,4296.922852,4485.641113,4519.230957,4359.230957,4429.487305,0.000000,1.000000,28.000000,,,,0.000000,2.000000,2.000000,0.000000,4.000000,2.000000,2.000000,0.000000,0.000000,4.000000,4.000000,4.000000,4.000000,4.000000,4.000000,0.000000,,,,,,,,,,,,,,,,,,,,,,,,,,,,
1732156444.037110,1732156444.039520,60.000000,0.000000,4311.410156,4294.102539,4317.820313,4305.512695,4285.512695,4280.769043,4331.538574,4392.051270,4298.589844,4296.794922,4490.256348,4520.256348,4361.025879,4431.666504,0.000000,1.000000,28.000000,,,,0.000000,2.000000,2.000000,0.000000,4.000000,2.000000,2.000000,0.000000,0.000000,4.000000,4.000000,4.000000,4.000000,4.000000,4.000000,0.000000,,,,,,,,,,,,,,,,,15.000000,0.000000,0.676241,-0.103027,-0.722412,-0.101013,0.967403,-0.010743,-0.058601,-66.935600,31.702467,44.389431
1732156444.044918,1732156444.047329,61.000000,0.000000,4305.897461,4292.179688,4317.051270,4303.205078,4286.794922,4279.487305,4333.846191,4394.743652,4298.846191,4295.128418,4483.077148,4511.410156,4351.538574,4429.487305,0.000000,1.000000,28.000000,,,,0.000000,2.000000,2.000000,0.000000,4.000000,2.000000,2.000000,0.000000,0.000000,4.000000,4.000000,4.000000,4.000000,4.000000,4.000000,0.000000,,,,,,,,,,,,,,,,,,,,,,,,,,,,
1732156444.052726,1732156444.054937,62.000000,0.000000,4307.436035,4290.384766,4319.487305,4304.230957,4286.922852,4278.333496,4337.179688,4396.538574,4298.974121,4294.487305,4474.871582,4513.077148,4343.077148,4425.897461,0.000000,1.000000,28.000000,,,,0.000000,2.000000,2.000000,0.000000,4.000000,2.000000,2.000000,0.000000,0.000000,4.000000,4.000000,4.000000,4.000000,4.000000,4.000000,0.000000,,,,,,,,,,,,,,,,,,,,,,,,,,,,
1732156444.060534,1732156444.062745,63.000000,0.000000,4310.897461,4292.692383,4320.641113,4308.589844,4290.256348,4283.333496,4335.128418,4395.512695,4299.743652,4297.051270,4475.512695,4520.769043,4347.436035,4426.794922,0.000000,1.000000,28.000000,,,,0.000000,2.000000,2.000000,0.000000,4.000000,2.000000,2.000000,0.000000,0.000000,4.000000,4.000000,4.000000,4.000000,4.000000,4.000000,0.000000,,,,,,,,,,,,,,,,,,,,,,,,,,,,
1732156444.068342,1732156444.070453,64.000000,0.000000,4311.538574,4295.512695,4320.641113,4310.897461,4293.589844,4285.256348,4333.461426,4393.077148,4304.743652,4298.205078,4477.820313,4523.205078,4350.128418,4431.025879,0.000000,1.000000,28.000000,,,,0.000000,2.000000,2.000000,0.000000,4.000000,2.000000,2.000000,0.000000,0.000000,4.000000,4.000000,4.000000,4.000000,4.000000,4.000000,0.000000,,,,,,,,,,,,,,,,,16.000000,0.000000,0.676251,-0.103699,-0.722290,-0.101135,0.972287,0.005372,-0.071298,-66.947838,31.568998,43.998772
1732156444.076151,1732156444.078262,65.000000,0.000000,4314.358887,4297.948730,4319.102539,4312.563965,4292.820313,4278.717773,4333.846191,4391.666504,4308.077148,4298.205078,4478.333496,4523.846191,4345.000000,4432.820313,1591.000000,1.000000,28.000000,,,,0.000000,2.000000,2.000000,0.000000,4.000000,2.000000,2.000000,0.000000,0.000000,4.000000,4.000000,4.000000,4.000000,4.000000,4.000000,0.000000,,,,,,,,,,,,,,,,,,,,,,,,,,,,
1732156444.083959,1732156444.085870,66.000000,0.000000,4317.692383,4297.307617,4316.794922,4313.077148,4291.410156,4276.025879,4332.179688,4392.692383,4308.205078,4298.974121,4477.436035,4523.589844,4345.512695,4431.282227,1419.000000,1.000000,28.000000,,,,0.000000,2.000000,2.000000,0.000000,4.000000,2.000000,2.000000,0.000000,0.000000,4.000000,4.000000,4.000000,4.000000,4.000000,4.000000,0.000000,,,,,,,,,,,,,,,,,,,,,,,,,,,,
1732156444.091767,1732156444.093678,67.000000,0.000000,4316.153809,4293.717773,4315.897461,4310.512695,4289.871582,4278.717773,4331.153809,4390.641113,4308.589844,4298.461426,4475.384766,4521.794922,4348.333496,4430.256348,1412.000000,1.000000,28.000000,,,,0.000000,2.000000,2.000000,0.000000,4.000000,2.000000,2.000000,0.000000,0.000000,4.000000,4.000000,4.000000,4.000000,4.000000,4.000000,0.000000,,,,,,,,,,,,,,,,,,,,,,,,,,,,
1732156444.099575,1732156444.101387,68.000000,0.000000,4313.205078,4292.948730,4319.102539,4308.077148,4289.615234,4281.282227,4333.205078,4388.974121,4306.153809,4298.974121,4475.769043,4522.051270,4343.717773,4431.794922,1407.000000,1.000000,28.000000,,,,0.000000,2.000000,2.000000,0.000000,4.000000,2.000000,2.000000,0.000000,0.000000,4.000000,4.000000,4.000000,4.000000,4.000000,4.000000,0.000000,,,,,,,,,,,,,,,,,17.000000,0.000000,0.676183,-0.105286,-0.722107,-0.101257,0.984984,0.014162,-0.064461,-66.904419,31.532555,44.060673
1732156444.107384,1732156444.109195,69.000000,0.000000,4315.769043,4291.922852,4318.205078,4307.563965,4291.922852,4279.615234,4332.820313,4391.666504,4304.230957,4296.666504,4476.282227,4517.179688,4341.666504,4431.538574,1245.000000,1.000000,28.000000,,,,0.000000,2.000000,2.000000,0.000000,4.000000,2.000000,2.000000,0.000000,0.000000,4.000000,4.000000,4.000000,4.000000,4.000000,4.000000,0.000000,,,,,,,,,,,,,,,,,,,,,,,,,,,,
1732156444.115192,1732156444.117203,70.000000,0.000000,4320.000000,4293.077148,4319.358887,4309.230957,4288.974121,4273.846191,4332.051270,4392.307617,4302.948730,4291.794922,4473.461426,4512.179688,4343.589844,4434.743652,0.000000,1.000000,28.000000,,,,0.000000,2.000000,2.000000,0.000000,4.000000,2.000000,2.000000,0.000000,0.000000,4.000000,4.000000,4.000000,4.000000,4.000000,4.000000,0.000000,,,,,,,,,,,,,,,,,,,,,,,,,,,,
1732156444.123000,1732156444.125011,71.000000,0.000000,4324.615234,4303.974121,4321.282227,4316.538574,4288.333496,4270.897461,4332.436035,4390.000000,4300.256348,4289.358887,4470.512695,4520.256348,4341.666504,4441.538574,0.000000,1.000000,28.000000,,,,0.000000,2.000000,2.000000,0.000000,4.000000,2.000000,2.000000,0.000000,0.000000,4.000000,4.000000,4.000000,4.000000,4.000000,4.000000,0.000000,,,,,,,,,,,,,,,,,,,,,,,,,,,,
1732156444.130808,1732156444.132719,72.000000,0.000000,4328.717773,4311.025879,4322.051270,4322.820313,4297.051270,4276.025879,4331.922852,4390.512695,4299.743652,4287.692383,4470.000000,4525.000000,4339.102539,4439.230957,1534.000000,1.000000,28.000000,,,,0.000000,2.000000,2.000000,0.000000,4.000000,2.000000,2.000000,0.000000,0.000000,4.000000,4.000000,4.000000,4.000000,4.000000,4.000000,0.000000,,,,,,,,,,,,,,,,,18.000000,0.000000,0.676131,-0.106689,-0.721924,-0.101440,1.007936,-0.009278,-0.066903,-67.015907,31.584703,44.047478
1732156444.138616,1732156444.140528,73.000000,0.000000,4329.743652,4305.384766,4317.179688,4321.794922,4297.948730,4281.153809,4330.641113,4391.153809,4303.205078,4292.307617,4473.461426,4521.538574,4349.615234,4437.436035,1675.000000,1.000000,28.000000,,,,0.000000,2.000000,2.000000,0.000000,4.000000,2.000000,2.000000,0.000000,0.000000,4.000000,4.000000,4.000000,4.000000,4.000000,4.000000,0.000000,,,,,,,,,,,,,,,,,,,,,,,,,,,,
1732156444.146425,1732156444.148136,74.000000,0.000000,4328.846191,4301.794922,4316.025879,4320.256348,4287.563965,4271.666504,4331.410156,4391.538574,4303.717773,4301.922852,4479.102539,4524.102539,4364.102539,4444.743652,1536.000000,1.000000,28.000000,,,,0.000000,2.000000,2.000000,0.000000,4.000000,2.000000,2.000000,0.000000,0.000000,4.000000,4.000000,4.000000,4.000000,4.000000,4.000000,0.000000,,,,,,,,,,,,,,,,,,,,,,,,,,,,
1732156444.154233,1732156444.155944,75.000000,0.000000,4328.333496,4306.538574,4317.436035,4322.179688,4287.179688,4267.179688,4330.769043,4394.615234,4299.871582,4301.410156,4479.615234,4528.974121,4362.948730,4444.487305,1584.000000,1.000000,28.000000,,,,0.000000,2.000000,2.000000,0.000000,4.000000,2.000000,2.000000,0.000000,0.000000,4.000000,4.000000,4.000000,4.000000,4.000000,4.000000,0.000000,,,,,,,,,,,,,,,,,,,,,,,,,,,,
1732156444.162041,1732156444.163652,76.000000,0.000000,4325.384766,4303.717773,4319.615234,4319.358887,4290.641113,4277.948730,4329.615234,4394.230957,4296.666504,4291.410156,4469.615234,4522.179688,4355.256348,4432.179688,1701.000000,1.000000,28.000000,,,,0.000000,2.000000,2.000000,0.000000,4.000000,2.000000,2.000000,0.000000,0.000000,4.000000,4.000000,4.000000,4.000000,4.000000,4.000000,0.000000,,,,,,,,,,,,,,,,,19.000000,0.000000,0.676063,-0.107117,-0.721924,-0.101440,1.007936,-0.009278,-0.066903,-67.124557,31.228609,44.191792
1732156444.169850,1732156444.171461,77.000000,0.000000,4317.179688,4296.410156,4317.563965,4315.000000,4280.000000,4283.717773,4331.025879,4391.410156,4298.333496,4288.461426,4457.692383,4510.769043,4350.000000,4426.794922,1695.000000,1.000000,28.000000,,,,0.000000,2.000000,2.000000,0.000000,4.000000,2.000000,2.000000,0.000000,0.000000,4.000000,4.000000,4.000000,4.000000,4.000000,4.000000,0.000000,,,,,,,,,,,,,,,,,,,,,,,,,,,,
1732156444.177658,1732156444.179069,78.000000,0.000000,4310.512695,4294.743652,4316.666504,4308.846191,4280.384766,4277.948730,4331.538574,4391.794922,4303.974121,4293.461426,4457.307617,4504.230957,4351.153809,4427.051270,1536.000000,1.000000,28.000000,,,,0.000000,2.000000,2.000000,0.000000,4.000000,2.000000,2.000000,0.000000,0.000000,4.000000,4.000000,4.000000,4.000000,4.000000,4.000000,0.000000,1.000000,0.000000,2.000000,2.000000,0.000000,4.000000,2.000000,2.000000,0.000000,0.000000,4.000000,4.000000,4.000000,4.000000,4.000000,4.000000,,,,,,,,,,,,
1732156444.185466,1732156444.186877,79.000000,0.000000,4308.461426,4292.692383,4316.538574,4302.436035,4297.051270,4276.794922,4331.538574,4393.461426,4306.922852,4295.384766,4462.563965,4504.487305,4361.282227,4423.077148,1584.000000,1.000000,28.000000,,,,0.000000,2.000000,2.000000,0.000000,4.000000,2.000000,2.000000,0.000000,0.000000,4.000000,4.000000,4.000000,4.000000,4.000000,4.000000,0.000000,,,,,,,,,,,,,,,,,,,,,,,,,,,,
1732156444.193274,1732156444.194785,80.000000,0.000000,4307.563965,4295.512695,4315.897461,4306.666504,4297.436035,4286.025879,4334.487305,4391.922852,4308.333496,4293.333496,4460.384766,4506.410156,4364.358887,4423.333496,1701.000000,1.000000,28.000000,,,,0.000000,2.000000,2.000000,0.000000,4.000000,2.000000,2.000000,0.000000,0.000000,4.000000,4.000000,4.000000,4.000000,4.000000,4.000000,0.000000,,,,,,,,,,,,,,,,,20.000000,0.000000,0.676069,-0.107727,-0.721802,-0.101624,0.983518,-0.017092,-0.056648,-67.070892,31.248507,44.175350
1732156444.201083,1732156444.202594,81.000000,0.000000,4308.846191,4305.384766,4316.666504,4313.974121,4280.128418,4287.563965,4336.282227,4391.538574,4312.051270,4294.871582,4458.589844,4506.922852,4362.436035,4430.384766,1695.000000,1.000000,28.000000,,,,0.000000,2.000000,2.000000,0.000000,4.000000,2.000000,2.000000,0.000000,0.000000,4.000000,4.000000,4.000000,4.000000,4.000000,4.000000,0.000000,,,,,,,,,,,,,,,,,,,,,,,,,,,,
1732156444.208891,1732156444.210602,82.000000,0.000000,4309.871582,4311.153809,4316.410156,4312.179688,4274.871582,4281.282227,4333.077148,4393.974121,4312.307617,4300.128418,4462.179688,4507.179688,4371.538574,4432.307617,1536.000000,1.000000,28.000000,,,,0.000000,2.000000,2.000000,0.000000,4.000000,2.000000,2.000000,0.000000,0.000000,4.000000,4.000000,4.000000,4.000000,4.000000,4.000000,0.000000,,,,,,,,,,,,,,,,,,,,,,,,,,,,
1732156444.216699,1732156444.218410,83.000000,0.000000,4303.717773,4309.102539,4318.846191,4306.538574,4280.000000,4278.717773,4333.461426,4394.871582,4309.358887,4297.692383,4458.846191,4506.025879,4377.820313,4422.692383,1584.000000,1.000000,28.000000,,,,0.000000,2.000000,2.000000,0.000000,4.000000,2.000000,2.000000,0.000000,0.000000,4.000000,4.000000,4.000000,4.000000,4.000000,4.000000,0.000000,,,,,,,,,,,,,,,,,,,,,,,,,,,,
1732156444.224507,1732156444.226318,84.000000,0.000000,4298.589844,4306.538574,4319.358887,4305.128418,4280.641113,4282.563965,4335.384766,4391.794922,4311.538574,4291.025879,4454.358887,4505.000000,4373.205078,4416.153809,1701.000000,1.000000,28.000000,,,,0.000000,2.000000,2.000000,0.000000,4.000000,2.000000,2.000000,0.000000,0.000000,4.000000,4.000000,4.000000,4.000000,4.000000,4.000000,0.000000,,,,,,,,,,,,,,,,,21.000000,0.000000,0.676054,-0.109497,-0.721619,-0.101135,0.990844,-0.008790,-0.061043,-66.877419,31.197958,44.045368
1732156444.232315,1732156444.234126,85.000000,0.000000,4300.256348,4305.000000,4319.358887,4302.307617,4278.333496,4286.794922,4332.820313,4390.384766,4311.666504,4291.922852,4456.025879,4504.871582,4376.666504,4418.589844,1695.000000,1.000000,28.000000,,,,0.000000,2.000000,2.000000,0.000000,4.000000,2.000000,2.000000,0.000000,0.000000,4.000000,4.000000,4.000000,4.000000,4.000000,4.000000,0.000000,,,,,,,,,,,,,,,,,,,,,,,,,,,,
1732156444.240124,1732156444.242134,86.000000,0.000000,4297.948730,4306.025879,4317.436035,4300.384766,4277.307617,4288.077148,4329.102539,4391.666504,4306.794922,4293.589844,4452.307617,4503.974121,4380.512695,4415.769043,1536.000000,1.000000,28.000000,,,,0.000000,2.000000,2.000000,0.000000,4.000000,2.000000,2.000000,0.000000,0.000000,4.000000,4.000000,4.000000,4.000000,4.000000,4.000000,0.000000,,,,,,,,,,,,,,,,,,,,,,,,,,,,
1732156444.247932,1732156444.249942,87.000000,0.000000,4293.333496,4308.077148,4318.333496,4302.563965,4280.512695,4288.333496,4331.282227,4392.692383,4305.769043,4288.717773,4445.000000,4505.512695,4374.358887,4410.897461,1584.000000,1.000000,28.000000,,,,0.000000,2.000000,2.000000,0.000000,4.000000,2.000000,2.000000,0.000000,0.000000,4.000000,4.000000,4.000000,4.000000,4.000000,4.000000,0.000000,,,,,,,,,,,,,,,,,,,,,,,,,,,,
1732156444.255740,1732156444.257651,88.000000,0.000000,4296.153809,4308.717773,4316.025879,4304.487305,4287.820313,4286.410156,4332.179688,4391.794922,4307.563965,4289.358887,4446.666504,4506.666504,4376.153809,4413.205078,1701.000000,1.000000,28.000000,,,,0.000000,2.000000,2.000000,0.000000,4.000000,2.000000,2.000000,0.000000,0.000000,4.000000,4.000000,4.000000,4.000000,4.000000,4.000000,0.000000,,,,,,,,,,,,,,,,,22.000000,0.000000,0.675935,-0.109985,-0.721741,-0.100525,0.986449,0.001465,-0.062508,-66.815712,31.213678,43.976746
1732156444.263548,1732156444.265459,89.000000,0.000000,4293.077148,4306.153809,4317.436035,4299.743652,4287.436035,4288.205078,4330.000000,4391.410156,4305.769043,4293.461426,4446.025879,4500.384766,4377.820313,4411.666504,1695.000000,1.000000,28.000000,,,,0.000000,2.000000,2.000000,0.000000,4.000000,2.000000,2.000000,0.000000,0.000000,4.000000,4.000000,4.000000,4.000000,4.000000,4.000000,0.000000,,,,,,,,,,,,,,,,,,,,,,,,,,,,
1732156444.271357,1732156444.273467,90.000000,0.000000,4280.384766,4295.384766,4318.333496,4292.820313,4281.538574,4290.512695,4331.282227,4391.025879,4305.512695,4292.820313,4441.410156,4493.461426,4376.538574,4404.102539,1536.000000,1.000000,28.000000,,,,0.000000,2.000000,2.000000,0.000000,4.000000,2.000000,2.000000,0.000000,0.000000,4.000000,4.000000,4.000000,4.000000,4.000000,4.000000,0.000000,,,,,,,,,,,,,,,,,,,,,,,,,,,,
1732156444.279165,1732156444.281275,91.000000,0.000000,4283.461426,4291.410156,4317.179688,4295.769043,4278.846191,4288.717773,4334.487305,4391.153809,4307.179688,4291.538574,4447.179688,4498.589844,4379.102539,4403.461426,1584.000000,1.000000,28.000000,,,,0.000000,2.000000,2.000000,0.000000,4.000000,2.000000,2.000000,0.000000,0.000000,4.000000,4.000000,4.000000,4.000000,4.000000,4.000000,0.000000,,,,,,,,,,,,,,,,,,,,,,,,,,,,
1732156444.286973,1732156444.289183,92.000000,0.000000,4292.820313,4303.205078,4315.000000,4300.641113,4291.025879,4293.717773,4334.615234,4394.487305,4307.051270,4289.487305,4444.871582,4499.102539,4372.179688,4401.794922,1701.000000,1.000000,28.000000,,,,0.000000,2.000000,2.000000,0.000000,4.000000,2.000000,2.000000,0.000000,0.000000,4.000000,4.000000,4.000000,4.000000,4.000000,4.000000,0.000000,,,,,,,,,,,,,,,,,23.000000,0.000000,0.675609,-0.110596,-0.722046,-0.099854,0.993774,-0.008790,-0.070321,-66.914055,31.109747,43.949497
1732156444.294781,1732156444.296991,93.000000,0.000000,4285.641113,4303.077148,4317.051270,4294.743652,4305.256348,4301.666504,4333.461426,4394.743652,4308.589844,4288.846191,4435.256348,4493.846191,4362.436035,4395.000000,1695.000000,1.000000,28.000000,,,,0.000000,2.000000,2.000000,0.000000,4.000000,2.000000,2.000000,0.000000,0.000000,4.000000,4.000000,4.000000,4.000000,4.000000,4.000000,0.000000,,,,,,,,,,,,,,,,,,,,,,,,,,,,
1732156444.302590,1732156444.304999,94.000000,0.000000,4282.436035,4294.743652,4318.589844,4296.410156,4293.589844,4298.717773,4333.589844,4393.077148,4312.820313,4293.717773,4439.743652,4495.384766,4366.025879,4397.948730,1536.000000,1.000000,28.000000,,,,0.000000,2.000000,2.000000,0.000000,4.000000,2.000000,2.000000,0.000000,0.000000,4.000000,4.000000,4.000000,4.000000,4.000000,4.000000,0.000000,,,,,,,,,,,,,,,,,,,,,,,,,,,,
1732156444.310398,1732156444.312808,95.000000,0.000000,4293.333496,4301.153809,4319.102539,4308.333496,4274.102539,4289.102539,4334.358887,4393.974121,4310.128418,4291.538574,4442.948730,4499.487305,4367.692383,4406.153809,1584.000000,1.000000,28.000000,,,,0.000000,2.000000,2.000000,0.000000,4.000000,2.000000,2.000000,0.000000,0.000000,4.000000,4.000000,4.000000,4.000000,4.000000,4.000000,0.000000,,,,,,,,,,,,,,,,,,,,,,,,,,,,
1732156444.318206,1732156444.320716,96.000000,0.000000,4296.538574,4307.436035,4319.615234,4308.846191,4281.025879,4286.025879,4334.615234,4394.871582,4301.282227,4281.538574,4436.410156,4496.025879,4361.794922,4408.974121,1701.000000,1.000000,28.000000,,,,0.000000,2.000000,2.000000,0.000000,4.000000,2.000000,2.000000,0.000000,0.000000,4.000000,4.000000,4.000000,4.000000,4.000000,4.000000,0.000000,,,,,,,,,,,,,,,,,24.000000,0.000000,0.674828,-0.111145,-0.722900,-0.098328,0.975705,-0.005860,-0.056648,-66.650391,31.245562,44.002426
1732156444.326014,1732156444.328524,97.000000,0.000000,4292.563965,4296.666504,4319.358887,4299.230957,4291.282227,4286.410156,4334.230957,4392.051270,4301.153809,4287.051270,4441.410156,4495.769043,4367.692383,4412.692383,1695.000000,1.000000,28.000000,,,,0.000000,2.000000,2.000000,0.000000,4.000000,2.000000,2.000000,0.000000,0.000000,4.000000,4.000000,4.000000,4.000000,4.000000,4.000000,0.000000,,,,,,,,,,,,,,,,,,,,,,,,,,,,
1732156444.333823,1732156444.336532,98.000000,0.000000,4295.769043,4287.436035,4318.974121,4298.717773,4284.230957,4285.512695,4334.871582,4392.436035,4310.128418,4299.487305,4450.641113,4503.333496,4372.307617,4418.333496,1536.000000,1.000000,28.000000,,,,0.000000,2.000000,2.000000,0.000000,4.000000,2.000000,2.000000,0.000000,0.000000,4.000000,4.000000,4.000000,4.000000,4.000000,4.000000,0.000000,,,,,,,,,,,,,,,,,,,,,,,,,,,,
1732156444.341631,1732156444.344340,99.000000,0.000000,4300.000000,4292.436035,4316.794922,4304.230957,4284.102539,4287.179688,4333.077148,4394.230957,4308.717773,4295.128418,4444.615234,4499.102539,4362.820313,4417.563965,1584.000000,1.000000,28.000000,,,,0.000000,2.000000,2.000000,0.000000,4.000000,2.000000,2.000000,0.000000,0.000000,4.000000,4.000000,4.000000,4.000000,4.000000,4.000000,0.000000,,,,,,,,,,,,,,,,,,,,,,,,,,,,
1732156444.349439,1732156444.352248,100.000000,0.000000,4297.948730,4297.307617,4319.615234,4303.846191,4294.102539,4287.563965,4330.128418,4391.538574,4302.948730,4292.436035,4444.102539,4494.358887,4363.717773,4416.922852,1701.000000,1.000000,28.000000,,,,0.000000,2.000000,2.000000,0.000000,4.000000,2.000000,2.000000,0.000000,0.000000,4.000000,4.000000,4.000000,4.000000,4.000000,4.000000,0.000000,,,,,,,,,,,,,,,,,25.000000,0.000000,0.674493,-0.110779,-0.723328,-0.097900,0.969357,-0.027835,-0.065438,-66.593483,31.393904,44.036964
1732156444.357247,1732156444.360056,101.000000,0.000000,4295.128418,4296.922852,4320.512695,4304.615234,4298.333496,4290.000000,4332.179688,4389.871582,4308.461426,4299.230957,4448.846191,4498.205078,4371.538574,4418.846191,1695.000000,1.000000,28.000000,,,,0.000000,2.000000,2.000000,0.000000,4.000000,2.000000,2.000000,0.000000,0.000000,4.000000,4.000000,4.000000,4.000000,4.000000,4.000000,0.000000,,,,,,,,,,,,,,,,,,,,,,,,,,,,
1732156444.365056,1732156444.368064,102.000000,0.000000,4294.358887,4297.307617,4320.000000,4307.948730,4298.461426,4295.128418,4337.436035,4393.461426,4313.717773,4297.692383,4445.128418,4497.307617,4369.871582,4414.615234,1536.000000,1.000000,28.000000,,,,0.000000,2.000000,2.000000,0.000000,4.000000,2.000000,2.000000,0.000000,0.000000,4.000000,4.000000,4.000000,4.000000,4.000000,4.000000,0.000000,,,,,,,,,,,,,,,,,,,,,,,,,,,,
1732156444.372864,1732156444.375873,103.000000,0.000000,4296.282227,4295.769043,4316.025879,4307.179688,4297.307617,4295.384766,4336.922852,4393.333496,4313.461426,4299.358887,4450.128418,4492.563965,4372.179688,4411.538574,1584.000000,1.000000,28.000000,,,,0.000000,2.000000,2.000000,0.000000,4.000000,2.000000,2.000000,0.000000,0.000000,4.000000,4.000000,4.000000,4.000000,4.000000,4.000000,0.000000,,,,,,,,,,,,,,,,,,,,,,,,,,,,
1732156444.380672,1732156444.383581,104.000000,0.000000,4294.743652,4289.487305,4316.666504,4304.102539,4300.641113,4292.563965,4333.717773,4388.333496,4314.487305,4306.025879,4454.615234,4490.897461,4377.051270,4413.077148,1701.000000,1.000000,28.000000,,,,0.000000,2.000000,2.000000,0.000000,4.000000,2.000000,2.000000,0.000000,0.000000,4.000000,4.000000,4.000000,4.000000,4.000000,4.000000,0.000000,,,,,,,,,,,,,,,,,26.000000,0.000000,0.674493,-0.110779,-0.723328,-0.097900,0.982542,-0.013185,-0.076670,-66.622383,31.334063,44.169941
1732156444.388480,1732156444.391389,105.000000,0.000000,4292.948730,4288.461426,4319.358887,4303.333496,4298.717773,4292.436035,4333.589844,4388.333496,4316.922852,4303.717773,4447.563965,4491.794922,4374.615234,4411.794922,1695.000000,1.000000,28.000000,,,,0.000000,2.000000,2.000000,0.000000,4.000000,2.000000,2.000000,0.000000,0.000000,4.000000,4.000000,4.000000,4.000000,4.000000,4.000000,0.000000,,,,,,,,,,,,,,,,,,,,,,,,,,,,
1732156444.396289,1732156444.398998,106.000000,0.000000,4293.589844,4290.128418,4321.666504,4300.769043,4302.563965,4292.307617,4334.743652,4393.205078,4316.282227,4299.230957,4443.333496,4490.641113,4367.436035,4410.128418,1536.000000,1.000000,28.000000,,,,0.000000,2.000000,2.000000,0.000000,4.000000,2.000000,2.000000,0.000000,0.000000,4.000000,4.000000,4.000000,4.000000,4.000000,4.000000,0.000000,,,,,,,,,,,,,,,,,,,,,,,,,,,,
1732156444.404097,1732156444.406806,107.000000,0.000000,4292.563965,4287.436035,4317.307617,4300.897461,4320.128418,4291.282227,4334.358887,4392.820313,4309.230957,4296.282227,4444.615234,4491.282227,4361.922852,4412.179688,1584.000000,1.000000,28.000000,,,,0.000000,2.000000,2.000000,0.000000,4.000000,2.000000,2.000000,0.000000,0.000000,4.000000,4.000000,4.000000,4.000000,4.000000,4.000000,0.000000,,,,,,,,,,,,,,,,,,,,,,,,,,,,
1732156444.411905,1732156444.414514,108.000000,0.000000,4290.000000,4287.051270,4316.153809,4304.615234,4316.922852,4291.410156,4332.307617,4389.743652,4303.077148,4293.333496,4444.615234,4491.025879,4362.436035,4411.153809,1701.000000,1.000000,28.000000,,,,0.000000,2.000000,2.000000,0.000000,4.000000,2.000000,2.000000,0.000000,0.000000,4.000000,4.000000,4.000000,4.000000,4.000000,4.000000,0.000000,,,,,,,,,,,,,,,,,27.000000,0.000000,0.674383,-0.110413,-0.723511,-0.097717,0.976193,-0.019534,-0.068856,-66.852463,31.333923,44.390987
1732156444.419713,1732156444.422322,109.000000,0.000000,4285.769043,4284.615234,4319.102539,4298.589844,4300.000000,4291.666504,4332.307617,4393.205078,4310.641113,4300.512695,4445.512695,4491.538574,4361.538574,4402.563965,1695.000000,1.000000,28.000000,,,,0.000000,2.000000,2.000000,0.000000,4.000000,2.000000,2.000000,0.000000,0.000000,4.000000,4.000000,4.000000,4.000000,4.000000,4.000000,0.000000,,,,,,,,,,,,,,,,,,,,,,,,,,,,
1732156444.427522,1732156444.429931,110.000000,0.000000,4281.025879,4278.461426,4320.641113,4292.948730,4308.461426,4295.769043,4335.512695,4395.512695,4319.615234,4310.256348,4446.538574,4491.153809,4357.436035,4399.871582,1536.000000,1.000000,28.000000,,,,0.000000,2.000000,2.000000,0.000000,4.000000,2.000000,2.000000,0.000000,0.000000,4.000000,4.000000,4.000000,4.000000,4.000000,4.000000,0.000000,,,,,,,,,,,,,,,,,,,,,,,,,,,,
1732156444.435330,1732156444.437739,111.000000,0.000000,4282.948730,4280.256348,4320.641113,4300.769043,4328.077148,4296.666504,4337.051270,4390.897461,4308.461426,4304.743652,4443.333496,4488.333496,4355.641113,4404.358887,1584.000000,1.000000,28.000000,,,,0.000000,2.000000,2.000000,0.000000,4.000000,2.000000,2.000000,0.000000,0.000000,4.000000,4.000000,4.000000,4.000000,4.000000,4.000000,0.000000,,,,,,,,,,,,,,,,,,,,,,,,,,,,
1732156444.443138,1732156444.445647,112.000000,0.000000,4285.769043,4285.512695,4319.871582,4307.563965,4327.436035,4292.051270,4334.871582,4389.102539,4299.358887,4299.615234,4444.230957,4488.974121,4358.077148,4406.538574,1701.000000,1.000000,28.000000,,,,0.000000,2.000000,2.000000,0.000000,4.000000,2.000000,2.000000,0.000000,0.000000,4.000000,4.000000,4.000000,4.000000,4.000000,4.000000,0.000000,,,,,,,,,,,,,,,,,28.000000,0.000000,0.674322,-0.111206,-0.723389,-0.098145,0.978147,-0.006837,-0.064461,-66.888832,30.888811,44.233364
1732156444.450946,1732156444.453455,113.000000,0.000000,4283.205078,4282.051270,4319.102539,4300.000000,4323.589844,4294.743652,4333.846191,4392.948730,4308.717773,4304.871582,4444.358887,4489.615234,4351.666504,4401.025879,1695.000000,1.000000,28.000000,,,,0.000000,2.000000,2.000000,0.000000,4.000000,2.000000,2.000000,0.000000,0.000000,4.000000,4.000000,4.000000,4.000000,4.000000,4.000000,0.000000,,,,,,,,,,,,,,,,,,,,,,,,,,,,
1732156444.458754,1732156444.461064,114.000000,0.000000,4283.974121,4276.153809,4319.358887,4292.563965,4337.563965,4297.179688,4333.077148,4392.820313,4316.922852,4313.333496,4444.230957,4489.615234,4346.410156,4400.000000,1536.000000,1.000000,28.000000,,,,0.000000,2.000000,2.000000,0.000000,4.000000,2.000000,2.000000,0.000000,0.000000,4.000000,4.000000,4.000000,4.000000,4.000000,4.000000,0.000000,,,,,,,,,,,,,,,,,,,,,,,,,,,,
1732156444.466563,1732156444.468872,115.000000,0.000000,4288.461426,4272.692383,4321.025879,4294.871582,4345.256348,4288.077148,4331.153809,4389.871582,4312.307617,4316.666504,4447.179688,4490.128418,4351.794922,4404.358887,1584.000000,1.000000,28.000000,,,,0.000000,2.000000,2.000000,0.000000,4.000000,2.000000,2.000000,0.000000,0.000000,4.000000,4.000000,4.000000,4.000000,4.000000,4.000000,0.000000,,,,,,,,,,,,,,,,,,,,,,,,,,,,
1732156444.474371,1732156444.476580,116.000000,0.000000,4291.922852,4276.025879,4318.846191,4302.436035,4329.615234,4287.563965,4331.410156,4389.102539,4303.974121,4311.153809,4446.153809,4488.717773,4351.025879,4402.179688,1701.000000,1.000000,28.000000,,,,0.000000,2.000000,2.000000,0.000000,4.000000,2.000000,2.000000,0.000000,0.000000,4.000000,4.000000,4.000000,4.000000,4.000000,4.000000,0.000000,,,,,,,,,,,,,,,,,29.000000,0.000000,0.674305,-0.111145,-0.723389,-0.098328,0.996215,-0.025882,-0.069344,-67.279953,30.703272,44.139027
1732156444.482179,1732156444.484388,117.000000,0.000000,4295.000000,4280.256348,4319.358887,4305.641113,4313.333496,4297.563965,4335.384766,4389.743652,4301.794922,4306.538574,4445.384766,4488.333496,4344.230957,4398.333496,1695.000000,1.000000,28.000000,,,,0.000000,2.000000,2.000000,0.000000,4.000000,2.000000,2.000000,0.000000,0.000000,4.000000,4.000000,4.000000,4.000000,4.000000,4.000000,0.000000,,,,,,,,,,,,,,,,,,,,,,,,,,,,
1732156444.489987,1732156444.491997,118.000000,0.000000,4296.410156,4279.230957,4316.666504,4304.743652,4321.794922,4295.000000,4335.769043,4390.769043,4301.410156,4308.461426,4444.358887,4487.179688,4341.922852,4396.538574,1536.000000,1.000000,28.000000,,,,0.000000,2.000000,2.000000,0.000000,4.000000,2.000000,2.000000,0.000000,0.000000,4.000000,4.000000,4.000000,4.000000,4.000000,4.000000,0.000000,,,,,,,,,,,,,,,,,,,,,,,,,,,,
1732156444.497796,1732156444.499805,119.000000,0.000000,4297.179688,4278.205078,4317.179688,4305.384766,4323.974121,4292.051270,4333.846191,4393.077148,4305.384766,4312.051270,4448.333496,4490.897461,4348.846191,4397.051270,1584.000000,1.000000,28.000000,,,,0.000000,2.000000,2.000000,0.000000,4.000000,2.000000,2.000000,0.000000,0.000000,4.000000,4.000000,4.000000,4.000000,4.000000,4.000000,0.000000,,,,,,,,,,,,,,,,,,,,,,,,,,,,
1732156444.505604,1732156444.507513,120.000000,0.000000,4300.384766,4279.487305,4318.461426,4307.948730,4317.692383,4301.410156,4333.589844,4392.436035,4314.358887,4319.487305,4459.230957,4499.487305,4354.102539,4404.230957,1701.000000,1.000000,28.000000,,,,0.000000,2.000000,2.000000,0.000000,4.000000,2.000000,2.000000,0.000000,0.000000,4.000000,4.000000,4.000000,4.000000,4.000000,4.000000,0.000000,,,,,,,,,,,,,,,,,30.000000,0.000000,0.674305,-0.111145,-0.723389,-0.098328,0.973263,-0.012209,-0.066903,-67.446762,30.597982,44.107613
1732156444.513412,1732156444.515322,121.000000,0.000000,4302.179688,4276.025879,4317.820313,4307.051270,4327.820313,4305.512695,4334.487305,4390.897461,4313.333496,4320.128418,4458.461426,4498.846191,4346.153809,4407.051270,1695.000000,1.000000,28.000000,,,,0.000000,2.000000,2.000000,0.000000,4.000000,2.000000,2.000000,0.000000,0.000000,4.000000,4.000000,4.000000,4.000000,4.000000,4.000000,0.000000,,,,,,,,,,,,,,,,,,,,,,,,,,,,
1732156444.521220,1732156444.523330,122.000000,0.000000,4303.974121,4275.256348,4315.769043,4307.820313,4324.615234,4302.436035,4334.230957,4392.179688,4306.153809,4310.128418,4451.025879,4492.051270,4342.436035,4403.974121,1536.000000,1.000000,28.000000,,,,0.000000,2.000000,2.000000,0.000000,4.000000,2.000000,2.000000,0.000000,0.000000,4.000000,4.000000,4.000000,4.000000,4.000000,4.000000,0.000000,,,,,,,,,,,,,,,,,,,,,,,,,,,,
1732156444.529029,1732156444.531138,123.000000,0.000000,4308.333496,4280.256348,4320.256348,4311.538574,4299.487305,4302.436035,4333.717773,4391.794922,4311.538574,4310.384766,4454.358887,4493.205078,4346.538574,4405.512695,1584.000000,1.000000,28.000000,,,,0.000000,2.000000,2.000000,0.000000,4.000000,2.000000,2.000000,0.000000,0.000000,4.000000,4.000000,4.000000,4.000000,4.000000,4.000000,0.000000,,,,,,,,,,,,,,,,,,,,,,,,,,,,
1732156444.536837,1732156444.539046,124.000000,0.000000,4308.974121,4278.333496,4320.128418,4308.461426,4288.974121,4302.307617,4334.487305,4390.128418,4324.358887,4324.358887,4460.641113,4497.179688,4345.384766,4407.948730,1701.000000,1.000000,28.000000,,,,0.000000,2.000000,2.000000,0.000000,4.000000,2.000000,2.000000,0.000000,0.000000,4.000000,4.000000,4.000000,4.000000,4.000000,4.000000,0.000000,,,,,,,,,,,,,,,,,31.000000,0.000000,0.674262,-0.110229,-0.723511,-0.098755,0.980100,-0.009278,-0.053229,-67.631874,30.679365,44.232166
1732156444.544645,1732156444.546854,125.000000,0.000000,4307.692383,4276.410156,4317.436035,4304.743652,4295.384766,4299.102539,4335.769043,4390.769043,4321.538574,4326.282227,4460.769043,4500.897461,4342.436035,4408.846191,1695.000000,1.000000,28.000000,,,,0.000000,2.000000,2.000000,0.000000,4.000000,2.000000,2.000000,0.000000,0.000000,4.000000,4.000000,4.000000,4.000000,4.000000,4.000000,0.000000,,,,,,,,,,,,,,,,,,,,,,,,,,,,
1732156444.552453,1732156444.554462,126.000000,0.000000,4310.128418,4282.820313,4317.948730,4309.743652,4298.205078,4296.794922,4335.641113,4393.205078,4310.128418,4317.436035,4462.307617,4507.436035,4346.922852,4410.769043,1536.000000,1.000000,28.000000,,,,0.000000,2.000000,2.000000,0.000000,4.000000,2.000000,2.000000,0.000000,0.000000,4.000000,4.000000,4.000000,4.000000,4.000000,4.000000,0.000000,,,,,,,,,,,,,,,,,,,,,,,,,,,,
1732156444.560262,1732156444.562271,127.000000,0.000000,4309.230957,4280.897461,4319.230957,4309.615234,4298.717773,4298.077148,4333.589844,4393.461426,4310.384766,4314.358887,4462.051270,4508.077148,4342.948730,4405.769043,28.000000,1.000000,28.000000,,,,0.000000,2.000000,2.000000,0.000000,4.000000,2.000000,2.000000,0.000000,0.000000,4.000000,4.000000,4.000000,4.000000,4.000000,4.000000,0.000000,,,,,,,,,,,,,,,,,,,,,,,,,,,,
1732156444.568070,1732156444.569979,0.000000,0.000000,4301.538574,4270.128418,4321.282227,4302.307617,4296.153809,4303.077148,4334.102539,4393.333496,4316.025879,4315.128418,4458.461426,4505.000000,4330.000000,4396.794922,0.000000,1.000000,28.000000,,,,0.000000,2.000000,2.000000,0.000000,4.000000,2.000000,2.000000,0.000000,0.000000,4.000000,4.000000,4.000000,4.000000,4.000000,4.000000,0.000000,,,,,,,,,,,,,,,,,0.000000,0.000000,0.674105,-0.109436,-0.723694,-0.099365,0.981565,-0.004395,-0.071298,-67.846817,30.801952,44.378056
1732156444.575878,1732156444.577787,1.000000,0.000000,4295.256348,4267.307617,4320.384766,4300.641113,4298.846191,4300.256348,4334.615234,4391.922852,4316.666504,4317.051270,4459.230957,4505.641113,4329.487305,4396.922852,1599.000000,1.000000,28.000000,,,,0.000000,2.000000,2.000000,0.000000,4.000000,2.000000,2.000000,0.000000,0.000000,4.000000,4.000000,4.000000,4.000000,4.000000,4.000000,0.000000,,,,,,,,,,,,,,,,,,,,,,,,,,,,
1732156444.583686,1732156444.585396,2.000000,0.000000,4296.410156,4274.871582,4319.487305,4303.333496,4315.512695,4296.666504,4335.128418,4391.282227,4312.948730,4312.820313,4458.205078,4504.615234,4330.384766,4399.358887,1417.000000,1.000000,28.000000,,,,0.000000,2.000000,2.000000,0.000000,4.000000,2.000000,2.000000,0.000000,0.000000,4.000000,4.000000,4.000000,4.000000,4.000000,4.000000,0.000000,,,,,,,,,,,,,,,,,,,,,,,,,,,,
1732156444.591495,1732156444.593204,3.000000,0.000000,4299.102539,4277.436035,4319.615234,4305.000000,4314.102539,4305.641113,4336.794922,4391.538574,4312.051270,4307.179688,4457.948730,4504.102539,4326.410156,4402.820313,1411.000000,1.000000,28.000000,,,,0.000000,2.000000,2.000000,0.000000,4.000000,2.000000,2.000000,0.000000,0.000000,4.000000,4.000000,4.000000,4.000000,4.000000,4.000000,0.000000,,,,,,,,,,,,,,,,,,,,,,,,,,,,
1732156444.599303,1732156444.600912,4.000000,0.000000,4295.384766,4273.461426,4319.615234,4305.000000,4290.128418,4308.589844,4337.307617,4392.307617,4314.487305,4310.128418,4459.871582,4505.384766,4325.512695,4404.871582,1401.000000,1.000000,28.000000,,,,0.000000,2.000000,2.000000,0.000000,4.000000,2.000000,2.000000,0.000000,0.000000,4.000000,4.000000,4.000000,4.000000,4.000000,4.000000,0.000000,,,,,,,,,,,,,,,,,1.000000,0.000000,0.674062,-0.109131,-0.723755,-0.099548,0.985960,0.000000,-0.082530,-67.685928,30.649582,44.242889
1732156444.607111,1732156444.608720,5.000000,0.000000,4292.948730,4273.333496,4316.666504,4305.384766,4286.922852,4303.205078,4334.102539,4393.846191,4316.282227,4313.717773,4459.358887,4502.820313,4323.589844,4400.256348,1242.000000,1.000000,28.000000,,,,0.000000,2.000000,2.000000,0.000000,4.000000,2.000000,2.000000,0.000000,0.000000,4.000000,4.000000,4.000000,4.000000,4.000000,4.000000,0.000000,,,,,,,,,,,,,,,,,,,,,,,,,,,,
1732156444.614919,1732156444.616728,6.000000,0.000000,4294.487305,4272.820313,4318.974121,4303.461426,4308.589844,4305.000000,4335.256348,4393.205078,4314.487305,4309.230957,4458.589844,4495.256348,4319.102539,4399.230957,0.000000,1.000000,28.000000,,,,0.000000,2.000000,2.000000,0.000000,4.000000,2.000000,2.000000,0.000000,0.000000,4.000000,4.000000,4.000000,4.000000,4.000000,4.000000,0.000000,,,,,,,,,,,,,,,,,,,,,,,,,,,,
1732156444.622728,1732156444.624537,7.000000,0.000000,4293.077148,4269.871582,4318.333496,4302.948730,4314.230957,4308.974121,4339.102539,4390.512695,4314.743652,4305.000000,4459.743652,4492.692383,4318.333496,4400.128418,0.000000,1.000000,28.000000,,,,0.000000,2.000000,2.000000,0.000000,4.000000,2.000000,2.000000,0.000000,0.000000,4.000000,4.000000,4.000000,4.000000,4.000000,4.000000,0.000000,,,,,,,,,,,,,,,,,,,,,,,,,,,,
1732156444.630536,1732156444.632445,8.000000,0.000000,4296.922852,4274.487305,4317.051270,4309.615234,4297.692383,4307.563965,4337.948730,4391.666504,4318.717773,4308.461426,4461.282227,4498.589844,4319.358887,4399.743652,1541.000000,1.000000,28.000000,,,,0.000000,2.000000,2.000000,0.000000,4.000000,2.000000,2.000000,0.000000,0.000000,4.000000,4.000000,4.000000,4.000000,4.000000,4.000000,0.000000,,,,,,,,,,,,,,,,,2.000000,0.000000,0.673928,-0.108643,-0.723877,-0.100098,0.975705,0.009278,-0.065438,-67.532265,30.614494,44.098408
1732156444.638344,1732156444.640253,9.000000,0.000000,4303.077148,4278.846191,4317.307617,4312.179688,4292.436035,4309.230957,4334.487305,4392.436035,4316.666504,4307.563965,4458.974121,4497.948730,4312.436035,4398.974121,1681.000000,1.000000,28.000000,,,,0.000000,2.000000,2.000000,0.000000,4.000000,2.000000,2.000000,0.000000,0.000000,4.000000,4.000000,4.000000,4.000000,4.000000,4.000000,0.000000,,,,,,,,,,,,,,,,,,,,,,,,,,,,
1732156444.646152,1732156444.648261,10.000000,0.000000,4300.128418,4274.358887,4320.000000,4306.025879,4300.256348,4304.358887,4336.410156,4391.153809,4311.282227,4302.307617,4457.307617,4493.974121,4309.102539,4397.179688,1541.000000,1.000000,28.000000,,,,0.000000,2.000000,2.000000,0.000000,4.000000,2.000000,2.000000,0.000000,0.000000,4.000000,4.000000,4.000000,4.000000,4.000000,4.000000,0.000000,,,,,,,,,,,,,,,,,,,,,,,,,,,,
1732156444.653961,1732156444.656069,11.000000,0.000000,4296.922852,4274.487305,4317.436035,4307.692383,4298.333496,4295.256348,4337.948730,4392.307617,4310.512695,4303.717773,4459.615234,4494.743652,4311.794922,4397.692383,1584.000000,1.000000,28.000000,,,,0.000000,2.000000,2.000000,0.000000,4.000000,2.000000,2.000000,0.000000,0.000000,4.000000,4.000000,4.000000,4.000000,4.000000,4.000000,0.000000,,,,,,,,,,,,,,,,,,,,,,,,,,,,
1732156444.661769,1732156444.663777,12.000000,0.000000,4299.615234,4277.692383,4317.179688,4314.102539,4294.743652,4298.846191,4336.282227,4391.282227,4313.717773,4307.307617,4460.384766,4496.282227,4312.051270,4400.128418,1705.000000,1.000000,28.000000,,,,0.000000,2.000000,2.000000,0.000000,4.000000,2.000000,2.000000,0.000000,0.000000,4.000000,4.000000,4.000000,4.000000,4.000000,4.000000,0.000000,,,,,,,,,,,,,,,,,3.000000,0.000000,0.673882,-0.107788,-0.723938,-0.100891,0.967892,0.015627,-0.075693,-67.307800,30.691074,44.136375
1732156444.669577,1732156444.671586,13.000000,0.000000,4301.025879,4272.820313,4319.358887,4309.487305,4305.512695,4299.871582,4335.256348,4388.846191,4314.230957,4303.974121,4459.743652,4497.051270,4310.256348,4399.743652,1696.000000,1.000000,28.000000,,,,0.000000,2.000000,2.000000,0.000000,4.000000,2.000000,2.000000,0.000000,0.000000,4.000000,4.000000,4.000000,4.000000,4.000000,4.000000,0.000000,,,,,,,,,,,,,,,,,,,,,,,,,,,,
1732156444.677385,1732156444.679194,14.000000,0.000000,4303.077148,4273.589844,4320.512695,4309.230957,4306.794922,4293.589844,4335.384766,4390.641113,4311.666504,4297.820313,4458.717773,4496.922852,4310.641113,4400.000000,1541.000000,1.000000,28.000000,,,,0.000000,2.000000,2.000000,0.000000,4.000000,2.000000,2.000000,0.000000,0.000000,4.000000,4.000000,4.000000,4.000000,4.000000,4.000000,0.000000,1.000000,0.000000,2.000000,2.000000,0.000000,4.000000,2.000000,2.000000,0.000000,0.000000,4.000000,4.000000,4.000000,4.000000,4.000000,4.000000,,,,,,,,,,,,
1732156444.685193,1732156444.687002,15.000000,0.000000,4304.743652,4282.179688,4319.102539,4316.922852,4292.563965,4296.153809,4333.461426,4391.153809,4307.179688,4295.769043,4456.282227,4492.051270,4309.230957,4401.538574,1584.000000,1.000000,28.000000,,,,0.000000,2.000000,2.000000,0.000000,4.000000,2.000000,2.000000,0.000000,0.000000,4.000000,4.000000,4.000000,4.000000,4.000000,4.000000,0.000000,,,,,,,,,,,,,,,,,,,,,,,,,,,,
1732156444.693002,1732156444.694910,16.000000,0.000000,4297.307617,4279.487305,4318.205078,4314.615234,4290.000000,4306.282227,4328.717773,4389.358887,4306.922852,4296.282227,4453.974121,4488.589844,4305.897461,4398.077148,0.000000,1.000000,28.000000,,,,0.000000,2.000000,2.000000,0.000000,4.000000,2.000000,2.000000,0.000000,0.000000,4.000000,4.000000,4.000000,4.000000,4.000000,4.000000,0.000000,,,,,,,,,,,,,,,,,4.000000,0.000000,0.673970,-0.107361,-0.723877,-0.101196,0.981565,0.000488,-0.079600,-67.135986,30.679770,43.997131
1732156444.700810,1732156444.702719,17.000000,0.000000,4291.153809,4273.077148,4321.025879,4309.358887,4295.641113,4306.153809,4328.077148,4391.282227,4311.666504,4299.615234,4458.717773,4493.205078,4311.410156,4397.563965,0.000000,1.000000,28.000000,,,,0.000000,2.000000,2.000000,0.000000,4.000000,2.000000,2.000000,0.000000,0.000000,4.000000,4.000000,4.000000,4.000000,4.000000,4.000000,0.000000,,,,,,,,,,,,,,,,,,,,,,,,,,,,
1732156444.708618,1732156444.710727,18.000000,0.000000,4294.871582,4273.974121,4318.974121,4311.666504,4292.692383,4298.589844,4328.333496,4391.538574,4310.256348,4301.538574,4463.589844,4492.179688,4313.846191,4401.666504,0.000000,1.000000,28.000000,,,,0.000000,2.000000,2.000000,0.000000,4.000000,2.000000,2.000000,0.000000,0.000000,4.000000,4.000000,4.000000,4.000000,4.000000,4.000000,0.000000,,,,,,,,,,,,,,,,,,,,,,,,,,,,
1732156444.716426,1732156444.718535,19.000000,0.000000,4295.256348,4273.461426,4316.153809,4308.717773,4299.102539,4295.128418,4325.512695,4389.743652,4305.512695,4296.794922,4457.948730,4487.436035,4303.077148,4399.102539,0.000000,1.000000,28.000000,,,,0.000000,2.000000,2.000000,0.000000,4.000000,2.000000,2.000000,0.000000,0.000000,4.000000,4.000000,4.000000,4.000000,4.000000,4.000000,0.000000,,,,,,,,,,,,,,,,,,,,,,,,,,,,
1732156444.724235,1732156444.726443,20.000000,0.000000,4292.692383,4272.179688,4315.641113,4304.487305,4311.025879,4295.384766,4323.205078,4389.615234,4303.333496,4291.922852,4452.307617,4489.230957,4299.358887,4395.512695,0.000000,1.000000,28.000000,,,,0.000000,2.000000,2.000000,0.000000,4.000000,2.000000,2.000000,0.000000,0.000000,4.000000,4.000000,4.000000,4.000000,4.000000,4.000000,0.000000,,,,,,,,,,,,,,,,,5.000000,0.000000,0.673924,-0.107239,-0.723938,-0.101196,0.981565,0.000488,-0.079600,-67.458481,30.887280,44.042675
1732156444.732043,1732156444.734251,21.000000,0.000000,4296.025879,4275.897461,4320.641113,4309.230957,4301.410156,4299.487305,4328.205078,4391.153809,4304.487305,4295.769043,4456.538574,4491.922852,4310.256348,4397.563965,0.000000,1.000000,28.000000,,,,0.000000,2.000000,2.000000,0.000000,4.000000,2.000000,2.000000,0.000000,0.000000,4.000000,4.000000,4.000000,4.000000,4.000000,4.000000,0.000000,,,,,,,,,,,,,,,,,,,,,,,,,,,,
1732156444.739851,1732156444.742259,22.000000,0.000000,4294.358887,4277.563965,4315.641113,4311.153809,4288.205078,4303.846191,4330.769043,4391.922852,4310.256348,4306.538574,4462.436035,4491.666504,4312.436035,4397.820313,0.000000,1.000000,28.000000,,,,0.000000,2.000000,2.000000,0.000000,4.000000,2.000000,2.000000,0.000000,0.000000,4.000000,4.000000,4.000000,4.000000,4.000000,4.000000,0.000000,,,,,,,,,,,,,,,,,,,,,,,,,,,,
1732156444.747659,1732156444.750067,23.000000,0.000000,4286.282227,4276.025879,4310.769043,4305.256348,4290.000000,4302.820313,4326.538574,4390.897461,4315.512695,4307.692383,4459.487305,4489.102539,4304.487305,4395.256348,0.000000,1.000000,28.000000,,,,0.000000,2.000000,2.000000,0.000000,4.000000,2.000000,2.000000,0.000000,0.000000,4.000000,4.000000,4.000000,4.000000,4.000000,4.000000,0.000000,,,,,,,,,,,,,,,,,,,,,,,,,,,,
1732156444.755468,1732156444.757975,24.000000,0.000000,4286.410156,4278.589844,4314.358887,4303.974121,4297.307617,4299.487305,4325.512695,4390.769043,4312.948730,4298.077148,4455.128418,4485.769043,4303.974121,4396.025879,0.000000,1.000000,28.000000,,,,0.000000,2.000000,2.000000,0.000000,4.000000,2.000000,2.000000,0.000000,0.000000,4.000000,4.000000,4.000000,4.000000,4.000000,4.000000,0.000000,,,,,,,,,,,,,,,,,6.000000,0.000000,0.673944,-0.106873,-0.723999,-0.101013,0.963497,0.018557,-0.068368,-67.289703,31.215364,43.927902
1732156444.763276,1732156444.765784,25.000000,0.000000,4286.153809,4278.077148,4321.282227,4308.461426,4294.871582,4298.846191,4328.333496,4392.948730,4304.743652,4294.358887,4456.666504,4484.615234,4305.897461,4398.205078,0.000000,1.000000,28.000000,,,,0.000000,2.000000,2.000000,0.000000,4.000000,2.000000,2.000000,0.000000,0.000000,4.000000,4.000000,4.000000,4.000000,4.000000,4.000000,0.000000,,,,,,,,,,,,,,,,,,,,,,,,,,,,
1732156444.771084,1732156444.773692,26.000000,0.000000,4282.179688,4274.615234,4318.077148,4309.743652,4297.179688,4297.948730,4328.205078,4393.333496,4301.666504,4296.794922,4458.077148,4486.025879,4305.512695,4397.436035,0.000000,1.000000,28.000000,,,,0.000000,2.000000,2.000000,0.000000,4.000000,2.000000,2.000000,0.000000,0.000000,4.000000,4.000000,4.000000,4.000000,4.000000,4.000000,0.000000,,,,,,,,,,,,,,,,,,,,,,,,,,,,
1732156444.778892,1732156444.781500,27.000000,0.000000,4289.615234,4276.794922,4315.769043,4304.487305,4311.153809,4294.230957,4326.538574,4390.769043,4302.051270,4296.410156,4456.410156,4489.871582,4308.589844,4397.563965,0.000000,1.000000,28.000000,,,,0.000000,2.000000,2.000000,0.000000,4.000000,2.000000,2.000000,0.000000,0.000000,4.000000,4.000000,4.000000,4.000000,4.000000,4.000000,0.000000,,,,,,,,,,,,,,,,,,,,,,,,,,,,
1732156444.786701,1732156444.789208,28.000000,0.000000,4298.333496,4279.615234,4316.282227,4304.102539,4309.230957,4294.230957,4326.410156,4390.512695,4305.384766,4297.051270,4457.563965,4494.102539,4312.436035,4399.615234,0.000000,1.000000,28.000000,,,,0.000000,2.000000,2.000000,0.000000,4.000000,2.000000,2.000000,0.000000,0.000000,4.000000,4.000000,4.000000,4.000000,4.000000,4.000000,0.000000,,,,,,,,,,,,,,,,,7.000000,0.000000,0.673962,-0.106812,-0.723999,-0.100952,0.971310,0.004883,-0.077646,-67.186325,31.214445,43.818268
1732156444.794509,1732156444.797016,29.000000,0.000000,4295.000000,4277.948730,4316.410156,4308.589844,4289.102539,4299.487305,4328.846191,4390.128418,4310.897461,4300.512695,4461.153809,4494.487305,4314.358887,4398.205078,0.000000,1.000000,28.000000,,,,0.000000,2.000000,2.000000,0.000000,4.000000,2.000000,2.000000,0.000000,0.000000,4.000000,4.000000,4.000000,4.000000,4.000000,4.000000,0.000000,,,,,,,,,,,,,,,,,,,,,,,,,,,,
1732156444.802317,1732156444.804625,30.000000,0.000000,4293.589844,4275.897461,4317.051270,4310.641113,4283.717773,4300.000000,4331.410156,4389.615234,4309.871582,4299.871582,4461.025879,4492.179688,4317.563965,4396.922852,0.000000,1.000000,28.000000,,,,0.000000,2.000000,2.000000,0.000000,4.000000,2.000000,2.000000,0.000000,0.000000,4.000000,4.000000,4.000000,4.000000,4.000000,4.000000,0.000000,,,,,,,,,,,,,,,,,,,,,,,,,,,,
1732156444.810125,1732156444.812433,31.000000,0.000000,4296.153809,4276.025879,4315.384766,4305.384766,4294.871582,4296.410156,4330.769043,4390.897461,4307.179688,4295.256348,4456.410156,4489.743652,4318.461426,4396.666504,0.000000,1.000000,28.000000,,,,0.000000,2.000000,2.000000,0.000000,4.000000,2.000000,2.000000,0.000000,0.000000,4.000000,4.000000,4.000000,4.000000,4.000000,4.000000,0.000000,,,,,,,,,,,,,,,,,,,,,,,,,,,,
1732156444.817934,1732156444.820141,32.000000,0.000000,4293.333496,4276.410156,4313.717773,4300.641113,4292.820313,4295.128418,4328.333496,4391.794922,4307.563965,4293.589844,4453.333496,4489.102539,4317.436035,4396.410156,0.000000,1.000000,28.000000,,,,0.000000,2.000000,2.000000,0.000000,4.000000,2.000000,2.000000,0.000000,0.000000,4.000000,4.000000,4.000000,4.000000,4.000000,4.000000,0.000000,,,,,,,,,,,,,,,,,8.000000,0.000000,0.673989,-0.107056,-0.723938,-0.100952,0.965450,0.004883,-0.062996,-67.277588,30.952034,43.662796
1732156444.825742,1732156444.827950,33.000000,0.000000,4293.461426,4276.025879,4316.282227,4300.769043,4286.666504,4297.948730,4329.102539,4390.000000,4308.846191,4299.102539,4456.538574,4491.922852,4323.974121,4398.077148,0.000000,1.000000,28.000000,,,,0.000000,2.000000,2.000000,0.000000,4.000000,2.000000,2.000000,0.000000,0.000000,4.000000,4.000000,4.000000,4.000000,4.000000,4.000000,0.000000,,,,,,,,,,,,,,,,,,,,,,,,,,,,
1732156444.833550,1732156444.835558,34.000000,0.000000,4296.025879,4273.974121,4318.589844,4302.051270,4296.794922,4297.948730,4331.282227,4391.538574,4308.589844,4301.282227,4460.769043,4493.077148,4327.948730,4400.384766,0.000000,1.000000,28.000000,,,,0.000000,2.000000,2.000000,0.000000,4.000000,2.000000,2.000000,0.000000,0.000000,4.000000,4.000000,4.000000,4.000000,4.000000,4.000000,0.000000,,,,,,,,,,,,,,,,,,,,,,,,,,,,
1732156444.841358,1732156444.843366,35.000000,0.000000,4295.256348,4271.410156,4314.615234,4302.307617,4304.487305,4292.948730,4329.871582,4394.230957,4307.436035,4295.256348,4458.589844,4491.153809,4325.256348,4396.922852,0.000000,1.000000,28.000000,,,,0.000000,2.000000,2.000000,0.000000,4.000000,2.000000,2.000000,0.000000,0.000000,4.000000,4.000000,4.000000,4.000000,4.000000,4.000000,0.000000,,,,,,,,,,,,,,,,,,,,,,,,,,,,
1732156444.849167,1732156444.851075,36.000000,0.000000,4296.666504,4271.666504,4314.615234,4300.641113,4291.922852,4291.153809,4328.717773,4393.717773,4305.512695,4294.102539,4458.077148,4497.051270,4325.512695,4396.922852,0.000000,1.000000,28.000000,,,,0.000000,2.000000,2.000000,0.000000,4.000000,2.000000,2.000000,0.000000,0.000000,4.000000,4.000000,4.000000,4.000000,4.000000,4.000000,0.000000,,,,,,,,,,,,,,,,,9.000000,0.000000,0.674025,-0.107300,-0.723877,-0.100891,0.967403,0.008790,-0.061531,-66.971512,31.119480,43.821865
1732156444.856975,1732156444.858883,37.000000,0.000000,4301.153809,4275.641113,4315.641113,4303.205078,4274.615234,4291.922852,4329.358887,4393.205078,4306.666504,4297.692383,4464.102539,4504.487305,4327.820313,4405.769043,0.000000,1.000000,28.000000,,,,0.000000,2.000000,2.000000,0.000000,4.000000,2.000000,2.000000,0.000000,0.000000,4.000000,4.000000,4.000000,4.000000,4.000000,4.000000,0.000000,,,,,,,,,,,,,,,,,,,,,,,,,,,,
1732156444.864783,1732156444.866491,38.000000,0.000000,4301.538574,4276.410156,4317.307617,4304.102539,4278.461426,4290.512695,4330.641113,4394.102539,4303.717773,4292.692383,4463.846191,4498.333496,4325.897461,4407.179688,0.000000,1.000000,28.000000,,,,0.000000,2.000000,2.000000,0.000000,4.000000,2.000000,2.000000,0.000000,0.000000,4.000000,4.000000,4.000000,4.000000,4.000000,4.000000,0.000000,,,,,,,,,,,,,,,,,,,,,,,,,,,,
1732156444.872591,1732156444.874299,39.000000,0.000000,4299.487305,4275.128418,4315.897461,4303.205078,4288.205078,4288.205078,4330.256348,4393.205078,4296.922852,4288.717773,4458.717773,4490.512695,4324.743652,4403.461426,0.000000,1.000000,28.000000,,,,0.000000,2.000000,2.000000,0.000000,4.000000,2.000000,2.000000,0.000000,0.000000,4.000000,4.000000,4.000000,4.000000,4.000000,4.000000,0.000000,,,,,,,,,,,,,,,,,,,,,,,,,,,,
1732156444.880400,1732156444.882008,40.000000,0.000000,4297.436035,4275.256348,4317.563965,4305.512695,4289.487305,4288.461426,4329.487305,4391.794922,4298.717773,4290.512695,4460.128418,4494.230957,4324.615234,4403.461426,0.000000,1.000000,28.000000,,,,0.000000,2.000000,2.000000,0.000000,4.000000,2.000000,2.000000,0.000000,0.000000,4.000000,4.000000,4.000000,4.000000,4.000000,4.000000,0.000000,,,,,,,,,,,,,,,,,10.000000,0.000000,0.674146,-0.107239,-0.723816,-0.100586,0.988402,0.001953,-0.069344,-67.141930,31.160112,43.984043
1732156444.888208,1732156444.889816,41.000000,0.000000,4294.871582,4276.922852,4317.051270,4306.025879,4300.641113,4288.205078,4329.743652,4393.974121,4301.794922,4290.000000,4460.256348,4493.974121,4321.153809,4399.871582,0.000000,1.000000,28.000000,,,,0.000000,2.000000,2.000000,0.000000,4.000000,2.000000,2.000000,0.000000,0.000000,4.000000,4.000000,4.000000,4.000000,4.000000,4.000000,0.000000,,,,,,,,,,,,,,,,,,,,,,,,,,,,
1732156444.896016,1732156444.897424,42.000000,0.000000,4298.846191,4278.077148,4316.025879,4306.922852,4303.333496,4287.436035,4332.436035,4393.589844,4300.000000,4291.282227,4462.307617,4491.282227,4324.487305,4397.820313,0.000000,1.000000,28.000000,,,,0.000000,2.000000,2.000000,0.000000,4.000000,2.000000,2.000000,0.000000,0.000000,4.000000,4.000000,4.000000,4.000000,4.000000,4.000000,0.000000,,,,,,,,,,,,,,,,,,,,,,,,,,,,
1732156444.903824,1732156444.905232,43.000000,0.000000,4308.589844,4277.692383,4314.487305,4308.589844,4285.256348,4289.230957,4332.436035,4389.743652,4306.410156,4297.563965,4471.794922,4499.743652,4333.717773,4406.538574,0.000000,1.000000,28.000000,,,,0.000000,2.000000,2.000000,0.000000,4.000000,2.000000,2.000000,0.000000,0.000000,4.000000,4.000000,4.000000,4.000000,4.000000,4.000000,0.000000,,,,,,,,,,,,,,,,,,,,,,,,,,,,
1732156444.911632,1732156444.913141,44.000000,0.000000,4307.179688,4277.563965,4318.205078,4305.128418,4276.025879,4287.051270,4328.717773,4389.871582,4313.461426,4298.077148,4475.256348,4506.666504,4332.563965,4413.077148,0.000000,1.000000,28.000000,,,,0.000000,2.000000,2.000000,0.000000,4.000000,2.000000,2.000000,0.000000,0.000000,4.000000,4.000000,4.000000,4.000000,4.000000,4.000000,0.000000,,,,,,,,,,,,,,,,,11.000000,0.000000,0.674136,-0.107361,-0.723816,-0.100525,0.982542,-0.009278,-0.065926,-67.198296,31.193024,44.195408
1732156444.919441,1732156444.920949,45.000000,0.000000,4299.230957,4276.922852,4318.589844,4301.153809,4283.077148,4281.922852,4330.000000,4392.179688,4305.897461,4293.461426,4470.897461,4504.615234,4329.230957,4410.897461,0.000000,1.000000,28.000000,,,,0.000000,2.000000,2.000000,0.000000,4.000000,2.000000,2.000000,0.000000,0.000000,4.000000,4.000000,4.000000,4.000000,4.000000,4.000000,0.000000,,,,,,,,,,,,,,,,,,,,,,,,,,,,
1732156444.927249,1732156444.928557,46.000000,0.000000,4299.102539,4278.077148,4315.000000,4305.000000,4295.641113,4280.000000,4332.820313,4391.410156,4297.948730,4294.102539,4471.282227,4503.974121,4333.589844,4408.461426,0.000000,1.000000,28.000000,,,,0.000000,2.000000,2.000000,0.000000,4.000000,2.000000,2.000000,0.000000,0.000000,4.000000,4.000000,4.000000,4.000000,4.000000,4.000000,0.000000,,,,,,,,,,,,,,,,,,,,,,,,,,,,
1732156444.935057,1732156444.936365,47.000000,0.000000,4305.000000,4282.051270,4316.538574,4307.563965,4300.512695,4278.205078,4330.384766,4392.692383,4301.282227,4296.538574,4474.615234,4507.948730,4333.974121,4406.666504,0.000000,1.000000,28.000000,,,,0.000000,2.000000,2.000000,0.000000,4.000000,2.000000,2.000000,0.000000,0.000000,4.000000,4.000000,4.000000,4.000000,4.000000,4.000000,0.000000,,,,,,,,,,,,,,,,,,,,,,,,,,,,
1732156444.942865,1732156444.944274,48.000000,0.000000,4307.051270,4288.333496,4318.461426,4310.384766,4288.205078,4278.461426,4328.974121,4396.282227,4302.948730,4294.102539,4471.666504,4507.563965,4328.974121,4408.589844,0.000000,1.000000,28.000000,,,,0.000000,2.000000,2.000000,0.000000,4.000000,2.000000,2.000000,0.000000,0.000000,4.000000,4.000000,4.000000,4.000000,4.000000,4.000000,0.000000,,,,,,,,,,,,,,,,,12.000000,0.000000,0.674126,-0.107422,-0.723816,-0.100525,0.968380,0.013185,-0.064949,-67.288956,31.211349,44.186615
1732156444.950674,1732156444.952082,49.000000,0.000000,4306.025879,4285.128418,4316.153809,4313.461426,4275.641113,4280.000000,4332.051270,4395.897461,4298.974121,4292.179688,4466.794922,4504.871582,4331.025879,4412.307617,0.000000,1.000000,28.000000,,,,0.000000,2.000000,2.000000,0.000000,4.000000,2.000000,2.000000,0.000000,0.000000,4.000000,4.000000,4.000000,4.000000,4.000000,4.000000,0.000000,,,,,,,,,,,,,,,,,,,,,,,,,,,,
1732156444.958482,1732156444.960090,50.000000,0.000000,4304.102539,4276.794922,4315.384766,4307.948730,4280.769043,4279.743652,4332.436035,4392.436035,4301.410156,4293.974121,4470.128418,4504.487305,4333.077148,4411.153809,0.000000,1.000000,28.000000,,,,0.000000,2.000000,2.000000,0.000000,4.000000,2.000000,2.000000,0.000000,0.000000,4.000000,4.000000,4.000000,4.000000,4.000000,4.000000,0.000000,,,,,,,,,,,,,,,,,,,,,,,,,,,,
1732156444.966290,1732156444.967898,51.000000,0.000000,4302.563965,4279.871582,4319.102539,4305.769043,4286.410156,4279.358887,4331.282227,4392.436035,4304.102539,4292.820313,4475.897461,4505.512695,4328.589844,4411.153809,0.000000,1.000000,28.000000,,,,0.000000,2.000000,2.000000,0.000000,4.000000,2.000000,2.000000,0.000000,0.000000,4.000000,4.000000,4.000000,4.000000,4.000000,4.000000,0.000000,,,,,,,,,,,,,,,,,,,,,,,,,,,,
1732156444.974098,1732156444.975606,52.000000,0.000000,4305.256348,4283.589844,4317.563965,4312.692383,4286.794922,4280.256348,4330.000000,4392.307617,4298.333496,4286.538574,4471.666504,4503.461426,4327.948730,4413.974121,0.000000,1.000000,28.000000,,,,0.000000,2.000000,2.000000,0.000000,4.000000,2.000000,2.000000,0.000000,0.000000,4.000000,4.000000,4.000000,4.000000,4.000000,4.000000,0.000000,,,,,,,,,,,,,,,,,13.000000,0.000000,0.674106,-0.107422,-0.723877,-0.100220,0.993285,-0.012209,-0.066903,-67.219048,31.041193,44.249493
1732156444.981907,1732156444.983414,53.000000,0.000000,4304.615234,4277.948730,4316.666504,4309.871582,4293.717773,4280.897461,4329.358887,4391.025879,4292.051270,4283.333496,4460.384766,4495.897461,4326.153809,4410.512695,0.000000,1.000000,28.000000,,,,0.000000,2.000000,2.000000,0.000000,4.000000,2.000000,2.000000,0.000000,0.000000,4.000000,4.000000,4.000000,4.000000,4.000000,4.000000,0.000000,,,,,,,,,,,,,,,,,,,,,,,,,,,,
1732156444.989715,1732156444.991023,54.000000,0.000000,4295.512695,4274.871582,4314.615234,4302.948730,4294.871582,4284.102539,4329.743652,4393.077148,4295.897461,4282.436035,4458.717773,4491.282227,4319.487305,4403.846191,0.000000,1.000000,28.000000,,,,0.000000,2.000000,2.000000,0.000000,4.000000,2.000000,2.000000,0.000000,0.000000,4.000000,4.000000,4.000000,4.000000,4.000000,4.000000,0.000000,,,,,,,,,,,,,,,,,,,,,,,,,,,,
1732156444.997523,1732156444.998831,55.000000,0.000000,4294.615234,4276.025879,4315.769043,4303.205078,4288.333496,4287.051270,4330.384766,4395.256348,4300.769043,4283.333496,4462.820313,4495.897461,4317.948730,4402.820313,0.000000,1.000000,28.000000,,,,0.000000,2.000000,2.000000,0.000000,4.000000,2.000000,2.000000,0.000000,0.000000,4.000000,4.000000,4.000000,4.000000,4.000000,4.000000,0.000000,,,,,,,,,,,,,,,,,,,,,,,,,,,,
1732156445.005331,1732156445.006539,56.000000,0.000000,4304.102539,4275.128418,4316.410156,4304.615234,4299.615234,4282.820313,4328.717773,4392.307617,4297.563965,4287.307617,4463.333496,4497.692383,4322.307617,4407.179688,0.000000,1.000000,28.000000,,,,0.000000,2.000000,2.000000,0.000000,4.000000,2.000000,2.000000,0.000000,0.000000,4.000000,4.000000,4.000000,4.000000,4.000000,4.000000,0.000000,,,,,,,,,,,,,,,,,14.000000,0.000000,0.674131,-0.107361,-0.723938,-0.099670,0.984007,0.008790,-0.083018,-67.244095,31.041700,44.180420
1732156445.013140,1732156445.014348,57.000000,0.000000,4306.922852,4278.461426,4316.538574,4306.922852,4309.487305,4280.641113,4328.846191,4390.256348,4294.230957,4287.179688,4461.025879,4497.179688,4323.333496,4410.000000,0.000000,1.000000,28.000000,,,,0.000000,2.000000,2.000000,0.000000,4.000000,2.000000,2.000000,0.000000,0.000000,4.000000,4.000000,4.000000,4.000000,4.000000,4.000000,0.000000,,,,,,,,,,,,,,,,,,,,,,,,,,,,
1732156445.020948,1732156445.022356,58.000000,0.000000,4303.846191,4283.205078,4313.589844,4311.153809,4291.025879,4289.743652,4331.666504,4393.717773,4296.922852,4286.922852,4462.436035,4499.230957,4318.974121,4407.692383,0.000000,1.000000,28.000000,,,,0.000000,2.000000,2.000000,0.000000,4.000000,2.000000,2.000000,0.000000,0.000000,4.000000,4.000000,4.000000,4.000000,4.000000,4.000000,0.000000,,,,,,,,,,,,,,,,,,,,,,,,,,,,
1732156445.028756,1732156445.030164,59.000000,0.000000,4302.948730,4282.051270,4315.641113,4308.205078,4269.615234,4294.102539,4332.051270,4393.974121,4303.717773,4291.538574,4468.846191,4500.641113,4321.538574,4404.230957,0.000000,1.000000,28.000000,,,,0.000000,2.000000,2.000000,0.000000,4.000000,2.000000,2.000000,0.000000,0.000000,4.000000,4.000000,4.000000,4.000000,4.000000,4.000000,0.000000,,,,,,,,,,,,,,,,,,,,,,,,,,,,
1732156445.036564,1732156445.038072,60.000000,0.000000,4300.769043,4279.102539,4316.794922,4301.410156,4282.563965,4285.000000,4331.282227,4392.436035,4304.871582,4295.384766,4474.358887,4496.025879,4329.743652,4405.256348,0.000000,1.000000,28.000000,,,,0.000000,2.000000,2.000000,0.000000,4.000000,2.000000,2.000000,0.000000,0.000000,4.000000,4.000000,4.000000,4.000000,4.000000,4.000000,0.000000,,,,,,,,,,,,,,,,,15.000000,0.000000,0.674131,-0.107361,-0.723938,-0.099670,0.974728,-0.002930,-0.060554,-67.249390,31.012110,43.944473
1732156445.044373,1732156445.045880,61.000000,0.000000,4300.897461,4279.230957,4315.384766,4300.000000,4300.512695,4278.333496,4332.436035,4394.615234,4306.282227,4296.922852,4474.871582,4499.102539,4330.897461,4411.410156,0.000000,1.000000,28.000000,,,,0.000000,2.000000,2.000000,0.000000,4.000000,2.000000,2.000000,0.000000,0.000000,4.000000,4.000000,4.000000,4.000000,4.000000,4.000000,0.000000,,,,,,,,,,,,,,,,,,,,,,,,,,,,
1732156445.052181,1732156445.053888,62.000000,0.000000,4303.589844,4282.179688,4315.000000,4304.358887,4288.333496,4286.922852,4332.436035,4394.487305,4312.820313,4299.743652,4474.871582,4506.538574,4328.717773,4414.743652,0.000000,1.000000,28.000000,,,,0.000000,2.000000,2.000000,0.000000,4.000000,2.000000,2.000000,0.000000,0.000000,4.000000,4.000000,4.000000,4.000000,4.000000,4.000000,0.000000,,,,,,,,,,,,,,,,,,,,,,,,,,,,
1732156445.059989,1732156445.061696,63.000000,0.000000,4299.871582,4284.230957,4314.358887,4306.538574,4275.128418,4295.769043,4330.641113,4391.666504,4311.794922,4301.025879,4477.051270,4503.717773,4331.410156,4411.922852,0.000000,1.000000,28.000000,,,,0.000000,2.000000,2.000000,0.000000,4.000000,2.000000,2.000000,0.000000,0.000000,4.000000,4.000000,4.000000,4.000000,4.000000,4.000000,0.000000,,,,,,,,,,,,,,,,,,,,,,,,,,,,
1732156445.067797,1732156445.069604,64.000000,0.000000,4295.641113,4282.563965,4315.256348,4305.897461,4278.589844,4294.487305,4331.922852,4392.820313,4302.820313,4294.230957,4475.000000,4496.538574,4330.384766,4408.974121,0.000000,1.000000,28.000000,,,,0.000000,2.000000,2.000000,0.000000,4.000000,2.000000,2.000000,0.000000,0.000000,4.000000,4.000000,4.000000,4.000000,4.000000,4.000000,0.000000,,,,,,,,,,,,,,,,,16.000000,0.000000,0.674158,-0.107422,-0.723938,-0.099426,0.975705,-0.003418,-0.075204,-67.260338,31.048143,44.141689
1732156445.075606,1732156445.077413,65.000000,0.000000,4300.512695,4282.820313,4316.282227,4308.846191,4287.179688,4291.538574,4332.436035,4394.487305,4301.153809,4288.846191,4470.384766,4497.436035,4326.922852,4409.102539,1594.000000,1.000000,28.000000,,,,0.000000,2.000000,2.000000,0.000000,4.000000,2.000000,2.000000,0.000000,0.000000,4.000000,4.000000,4.000000,4.000000,4.000000,4.000000,0.000000,,,,,,,,,,,,,,,,,,,,,,,,,,,,
1732156445.083414,1732156445.085421,66.000000,0.000000,4301.153809,4282.179688,4317.179688,4310.641113,4293.589844,4291.153809,4331.410156,4393.846191,4306.282227,4293.461426,4473.461426,4504.230957,4327.179688,4406.794922,1419.000000,1.000000,28.000000,,,,0.000000,2.000000,2.000000,0.000000,4.000000,2.000000,2.000000,0.000000,0.000000,4.000000,4.000000,4.000000,4.000000,4.000000,4.000000,0.000000,,,,,,,,,,,,,,,,,,,,,,,,,,,,
1732156445.091222,1732156445.093229,67.000000,0.000000,4294.230957,4279.358887,4314.487305,4306.410156,4291.922852,4293.461426,4332.307617,4391.538574,4307.307617,4299.615234,4474.743652,4503.461426,4327.179688,4403.846191,1411.000000,1.000000,28.000000,,,,0.000000,2.000000,2.000000,0.000000,4.000000,2.000000,2.000000,0.000000,0.000000,4.000000,4.000000,4.000000,4.000000,4.000000,4.000000,0.000000,,,,,,,,,,,,,,,,,,,,,,,,,,,,
1732156445.099030,1732156445.101137,68.000000,0.000000,4292.179688,4279.871582,4313.846191,4303.974121,4287.307617,4293.333496,4335.000000,4391.153809,4307.820313,4295.256348,4468.589844,4496.153809,4327.307617,4403.846191,1402.000000,1.000000,28.000000,,,,0.000000,2.000000,2.000000,0.000000,4.000000,2.000000,2.000000,0.000000,0.000000,4.000000,4.000000,4.000000,4.000000,4.000000,4.000000,0.000000,,,,,,,,,,,,,,,,,17.000000,0.000000,0.674185,-0.107422,-0.723938,-0.099243,0.975705,-0.017092,-0.064949,-67.179207,30.995663,44.191437
1732156445.106839,1732156445.108945,69.000000,0.000000,4295.512695,4280.384766,4312.307617,4305.256348,4295.000000,4288.461426,4333.846191,4392.948730,4308.974121,4290.512695,4463.846191,4492.307617,4328.077148,4401.794922,1242.000000,1.000000,28.000000,,,,0.000000,2.000000,2.000000,0.000000,4.000000,2.000000,2.000000,0.000000,0.000000,4.000000,4.000000,4.000000,4.000000,4.000000,4.000000,0.000000,,,,,,,,,,,,,,,,,,,,,,,,,,,,
1732156445.114647,1732156445.116953,70.000000,0.000000,4293.717773,4276.153809,4314.743652,4303.846191,4297.051270,4286.025879,4331.666504,4394.487305,4308.461426,4293.077148,4464.743652,4492.692383,4327.051270,4399.102539,0.000000,1.000000,28.000000,,,,0.000000,2.000000,2.000000,0.000000,4.000000,2.000000,2.000000,0.000000,0.000000,4.000000,4.000000,4.000000,4.000000,4.000000,4.000000,0.000000,,,,,,,,,,,,,,,,,,,,,,,,,,,,
1732156445.122455,1732156445.124761,71.000000,0.000000,4289.743652,4275.769043,4315.128418,4303.589844,4279.102539,4292.820313,4332.307617,4394.871582,4308.205078,4293.846191,4468.333496,4494.102539,4325.897461,4398.974121,0.000000,1.000000,28.000000,,,,0.000000,2.000000,2.000000,0.000000,4.000000,2.000000,2.000000,0.000000,0.000000,4.000000,4.000000,4.000000,4.000000,4.000000,4.000000,0.000000,,,,,,,,,,,,,,,,,,,,,,,,,,,,
1732156445.130263,1732156445.132570,72.000000,0.000000,4290.384766,4279.358887,4315.512695,4305.256348,4274.102539,4294.487305,4333.717773,4394.743652,4307.436035,4290.641113,4466.922852,4492.051270,4325.769043,4397.436035,1536.000000,1.000000,28.000000,,,,0.000000,2.000000,2.000000,0.000000,4.000000,2.000000,2.000000,0.000000,0.000000,4.000000,4.000000,4.000000,4.000000,4.000000,4.000000,0.000000,,,,,,,,,,,,,,,,,18.000000,0.000000,0.674191,-0.107849,-0.723877,-0.099182,0.981565,-0.013674,-0.067391,-67.213493,31.044819,44.220062
1732156445.138071,1732156445.140378,73.000000,0.000000,4292.820313,4281.410156,4315.384766,4308.205078,4283.333496,4290.000000,4331.153809,4393.974121,4308.333496,4293.333496,4462.051270,4492.436035,4326.538574,4397.307617,1675.000000,1.000000,28.000000,,,,0.000000,2.000000,2.000000,0.000000,4.000000,2.000000,2.000000,0.000000,0.000000,4.000000,4.000000,4.000000,4.000000,4.000000,4.000000,0.000000,,,,,,,,,,,,,,,,,,,,,,,,,,,,
1732156445.145880,1732156445.147986,74.000000,0.000000,4290.256348,4282.563965,4317.436035,4305.769043,4289.487305,4290.769043,4330.384766,4393.205078,4307.051270,4297.692383,4460.128418,4492.563965,4326.153809,4395.256348,1534.000000,1.000000,28.000000,,,,0.000000,2.000000,2.000000,0.000000,4.000000,2.000000,2.000000,0.000000,0.000000,4.000000,4.000000,4.000000,4.000000,4.000000,4.000000,0.000000,,,,,,,,,,,,,,,,,,,,,,,,,,,,
1732156445.153688,1732156445.155794,75.000000,0.000000,4287.051270,4281.794922,4316.538574,4298.333496,4295.000000,4294.743652,4333.717773,4393.589844,4304.487305,4294.102539,4460.769043,4492.307617,4323.333496,4388.846191,1583.000000,1.000000,28.000000,,,,0.000000,2.000000,2.000000,0.000000,4.000000,2.000000,2.000000,0.000000,0.000000,4.000000,4.000000,4.000000,4.000000,4.000000,4.000000,0.000000,,,,,,,,,,,,,,,,,,,,,,,,,,,,
1732156445.161496,1732156445.163503,76.000000,0.000000,4292.051270,4277.051270,4315.512695,4295.769043,4290.000000,4295.128418,4335.000000,4391.922852,4303.717773,4291.153809,4461.666504,4491.922852,4322.051270,4390.384766,1706.000000,1.000000,28.000000,,,,0.000000,2.000000,2.000000,0.000000,4.000000,2.000000,2.000000,0.000000,0.000000,4.000000,4.000000,4.000000,4.000000,4.000000,4.000000,0.000000,,,,,,,,,,,,,,,,,19.000000,0.000000,0.674200,-0.107849,-0.723877,-0.099121,0.981565,-0.013674,-0.067391,-67.457924,31.067970,44.146584
1732156445.169304,1732156445.171311,77.000000,0.000000,4297.179688,4273.461426,4316.410156,4296.153809,4277.307617,4295.641113,4334.358887,4391.794922,4304.615234,4296.025879,4461.666504,4491.666504,4323.846191,4397.307617,1703.000000,1.000000,28.000000,,,,0.000000,2.000000,2.000000,0.000000,4.000000,2.000000,2.000000,0.000000,0.000000,4.000000,4.000000,4.000000,4.000000,4.000000,4.000000,0.000000,,,,,,,,,,,,,,,,,,,,,,,,,,,,
