title:left, start timestamp:1732155910.804516, stop timestamp:1732155946.659956, headset type:EPOCX, headset serial:E5020C3A, headset firmware:730, channels:67, sampling rate:eeg_128;mot_32, samples:4593      , version:2.2, 
Timestamp,OriginalTimestamp,EEG.Counter,EEG.Interpolated,EEG.AF3,EEG.F7,EEG.F3,EEG.FC5,EEG.T7,EEG.P7,EEG.O1,EEG.O2,EEG.P8,EEG.T8,EEG.FC6,EEG.F4,EEG.F8,EEG.AF4,EEG.RawCq,EEG.Battery,EEG.BatteryPercent,MarkerIndex,MarkerType,MarkerValueInt,EEG.MarkerHardware,CQ.AF3,CQ.F7,CQ.F3,CQ.FC5,CQ.T7,CQ.P7,CQ.O1,CQ.O2,CQ.P8,CQ.T8,CQ.FC6,CQ.F4,CQ.F8,CQ.AF4,CQ.Overall,EQ.SampleRateQuality,EQ.OVERALL,EQ.AF3,EQ.F7,EQ.F3,EQ.FC5,EQ.T7,EQ.P7,EQ.O1,EQ.O2,EQ.P8,EQ.T8,EQ.FC6,EQ.F4,EQ.F8,EQ.AF4,MOT.CounterMems,MOT.InterpolatedMems,MOT.Q0,MOT.Q1,MOT.Q2,MOT.Q3,MOT.AccX,MOT.AccY,MOT.AccZ,MOT.MagX,MOT.MagY,MOT.MagZ
1732155910.804516,1732155910.805531,121.000000,0.000000,4325.512695,4305.256348,4316.025879,4316.410156,4282.307617,4318.461426,4342.563965,4390.384766,4304.871582,4286.922852,4445.641113,4488.461426,4346.538574,4415.384766,1705.000000,1.000000,30.000000,,,,0.000000,2.000000,2.000000,0.000000,4.000000,2.000000,2.000000,0.000000,0.000000,4.000000,4.000000,4.000000,4.000000,4.000000,4.000000,0.000000,,,,,,,,,,,,,,,,,,,,,,,,,,,,
1732155910.812325,1732155910.813539,122.000000,0.000000,4328.974121,4307.179688,4315.769043,4317.820313,4291.282227,4312.307617,4344.743652,4390.897461,4300.641113,4279.615234,4444.871582,4489.230957,4345.128418,4413.589844,1544.000000,1.000000,30.000000,,,,0.000000,2.000000,2.000000,0.000000,4.000000,2.000000,2.000000,0.000000,0.000000,4.000000,4.000000,4.000000,4.000000,4.000000,4.000000,0.000000,,,,,,,,,,,,,,,,,,,,,,,,,,,,
1732155910.820133,1732155910.821347,123.000000,0.000000,4336.666504,4308.461426,4315.384766,4321.538574,4288.846191,4311.410156,4343.077148,4390.256348,4298.461426,4279.230957,4447.179688,4492.436035,4345.000000,4418.717773,1583.000000,1.000000,30.000000,,,,0.000000,2.000000,2.000000,0.000000,4.000000,2.000000,2.000000,0.000000,0.000000,4.000000,4.000000,4.000000,4.000000,4.000000,4.000000,0.000000,,,,,,,,,,,,,,,,,,,,,,,,,,,,
1732155910.827941,1732155910.829255,124.000000,0.000000,4333.717773,4304.230957,4312.436035,4319.230957,4302.051270,4311.410156,4340.384766,4390.769043,4300.256348,4283.205078,4446.538574,4493.077148,4344.743652,4417.307617,1728.000000,1.000000,30.000000,,,,0.000000,2.000000,2.000000,0.000000,4.000000,2.000000,2.000000,0.000000,0.000000,4.000000,4.000000,4.000000,4.000000,4.000000,4.000000,0.000000,,,,,,,,,,,,,,,,,31.000000,0.000000,0.672366,-0.077759,-0.717468,-0.164673,0.975705,0.127457,-0.034672,-66.934196,38.029659,44.463245
1732155910.835750,1732155910.837064,125.000000,0.000000,4326.410156,4300.256348,4311.794922,4314.871582,4304.358887,4303.077148,4343.077148,4391.794922,4303.205078,4284.487305,4446.538574,4491.538574,4344.487305,4414.487305,1705.000000,1.000000,30.000000,,,,0.000000,2.000000,2.000000,0.000000,4.000000,2.000000,2.000000,0.000000,0.000000,4.000000,4.000000,4.000000,4.000000,4.000000,4.000000,0.000000,,,,,,,,,,,,,,,,,,,,,,,,,,,,
1732155910.843558,1732155910.845072,126.000000,0.000000,4328.974121,4299.615234,4314.615234,4317.307617,4279.743652,4302.563965,4346.025879,4392.179688,4305.128418,4285.128418,4450.384766,4493.077148,4346.282227,4417.948730,1544.000000,1.000000,30.000000,,,,0.000000,2.000000,2.000000,0.000000,4.000000,2.000000,2.000000,0.000000,0.000000,4.000000,4.000000,4.000000,4.000000,4.000000,4.000000,0.000000,,,,,,,,,,,,,,,,,,,,,,,,,,,,
1732155910.851366,1732155910.852880,127.000000,0.000000,4332.948730,4300.384766,4316.666504,4320.128418,4278.205078,4309.487305,4343.205078,4392.436035,4301.410156,4284.358887,4450.128418,4492.051270,4346.666504,4417.179688,30.000000,1.000000,30.000000,,,,0.000000,2.000000,2.000000,0.000000,4.000000,2.000000,2.000000,0.000000,0.000000,4.000000,4.000000,4.000000,4.000000,4.000000,4.000000,0.000000,,,,,,,,,,,,,,,,,,,,,,,,,,,,
1732155910.859174,1732155910.860788,0.000000,0.000000,4328.974121,4298.461426,4316.282227,4317.563965,4295.769043,4307.179688,4342.179688,4393.333496,4300.897461,4284.102539,4448.589844,4490.128418,4343.205078,4413.974121,0.000000,1.000000,30.000000,,,,0.000000,2.000000,2.000000,0.000000,4.000000,2.000000,2.000000,0.000000,0.000000,4.000000,4.000000,4.000000,4.000000,4.000000,4.000000,0.000000,,,,,,,,,,,,,,,,,0.000000,0.000000,0.672608,-0.076965,-0.717102,-0.165649,0.962031,0.124039,-0.025394,-66.876701,38.037357,44.456894
1732155910.866982,1732155910.868596,1.000000,0.000000,4326.282227,4298.077148,4314.871582,4316.153809,4294.358887,4301.025879,4342.948730,4392.436035,4306.794922,4290.000000,4454.487305,4491.410156,4345.769043,4416.410156,1619.000000,1.000000,30.000000,,,,0.000000,2.000000,2.000000,0.000000,4.000000,2.000000,2.000000,0.000000,0.000000,4.000000,4.000000,4.000000,4.000000,4.000000,4.000000,0.000000,,,,,,,,,,,,,,,,,,,,,,,,,,,,
1732155910.874791,1732155910.876604,2.000000,0.000000,4325.000000,4298.205078,4316.153809,4315.641113,4288.333496,4299.743652,4341.153809,4391.666504,4304.487305,4292.307617,4456.666504,4492.436035,4347.692383,4417.820313,1431.000000,1.000000,30.000000,,,,0.000000,2.000000,2.000000,0.000000,4.000000,2.000000,2.000000,0.000000,0.000000,4.000000,4.000000,4.000000,4.000000,4.000000,4.000000,0.000000,,,,,,,,,,,,,,,,,,,,,,,,,,,,
1732155910.882599,1732155910.884412,3.000000,0.000000,4317.051270,4296.282227,4314.487305,4314.102539,4295.641113,4299.615234,4341.410156,4390.897461,4297.436035,4287.820313,4447.307617,4491.410156,4342.179688,4412.820313,1434.000000,1.000000,30.000000,,,,0.000000,2.000000,2.000000,0.000000,4.000000,2.000000,2.000000,0.000000,0.000000,4.000000,4.000000,4.000000,4.000000,4.000000,4.000000,0.000000,,,,,,,,,,,,,,,,,,,,,,,,,,,,
1732155910.890407,1732155910.892320,4.000000,0.000000,4315.000000,4297.820313,4312.307617,4313.205078,4293.717773,4298.717773,4346.410156,4389.871582,4300.897461,4288.717773,4443.589844,4488.717773,4341.282227,4410.897461,1406.000000,1.000000,30.000000,,,,0.000000,2.000000,2.000000,0.000000,4.000000,2.000000,2.000000,0.000000,0.000000,4.000000,4.000000,4.000000,4.000000,4.000000,4.000000,0.000000,,,,,,,,,,,,,,,,,1.000000,0.000000,0.672574,-0.076233,-0.716858,-0.167175,0.978147,0.141131,-0.041021,-66.793465,38.131924,44.580086
1732155910.898215,1732155910.900129,5.000000,0.000000,4321.666504,4304.358887,4311.025879,4317.051270,4299.102539,4298.974121,4342.820313,4390.128418,4306.922852,4293.205078,4454.230957,4490.256348,4349.358887,4413.205078,1260.000000,1.000000,30.000000,,,,0.000000,2.000000,2.000000,0.000000,4.000000,2.000000,2.000000,0.000000,0.000000,4.000000,4.000000,4.000000,4.000000,4.000000,4.000000,0.000000,,,,,,,,,,,,,,,,,,,,,,,,,,,,
1732155910.906024,1732155910.908137,6.000000,0.000000,4321.410156,4305.000000,4316.410156,4320.641113,4319.743652,4297.692383,4338.846191,4390.769043,4304.102539,4291.794922,4457.948730,4494.230957,4351.282227,4415.128418,0.000000,1.000000,30.000000,,,,0.000000,2.000000,2.000000,0.000000,4.000000,2.000000,2.000000,0.000000,0.000000,4.000000,4.000000,4.000000,4.000000,4.000000,4.000000,0.000000,,,,,,,,,,,,,,,,,,,,,,,,,,,,
1732155910.913832,1732155910.915945,7.000000,0.000000,4315.000000,4300.384766,4316.025879,4319.230957,4314.358887,4301.794922,4342.563965,4391.153809,4306.282227,4292.692383,4449.102539,4488.717773,4343.461426,4413.717773,0.000000,1.000000,30.000000,,,,0.000000,2.000000,2.000000,0.000000,4.000000,2.000000,2.000000,0.000000,0.000000,4.000000,4.000000,4.000000,4.000000,4.000000,4.000000,0.000000,,,,,,,,,,,,,,,,,,,,,,,,,,,,
1732155910.921640,1732155910.923653,8.000000,0.000000,4313.589844,4300.128418,4313.205078,4316.282227,4290.384766,4311.025879,4345.128418,4391.410156,4308.589844,4292.179688,4445.897461,4481.794922,4341.410156,4405.769043,1543.000000,1.000000,30.000000,,,,0.000000,2.000000,2.000000,0.000000,4.000000,2.000000,2.000000,0.000000,0.000000,4.000000,4.000000,4.000000,4.000000,4.000000,4.000000,0.000000,,,,,,,,,,,,,,,,,2.000000,0.000000,0.672543,-0.075562,-0.716858,-0.167603,0.975705,0.136247,-0.041021,-66.927704,37.980194,44.786533
1732155910.929448,1732155910.931461,9.000000,0.000000,4311.410156,4301.153809,4312.563965,4315.641113,4292.307617,4315.128418,4344.230957,4390.384766,4299.230957,4282.820313,4446.153809,4477.436035,4342.307617,4397.436035,1705.000000,1.000000,30.000000,,,,0.000000,2.000000,2.000000,0.000000,4.000000,2.000000,2.000000,0.000000,0.000000,4.000000,4.000000,4.000000,4.000000,4.000000,4.000000,0.000000,,,,,,,,,,,,,,,,,,,,,,,,,,,,
1732155910.937256,1732155910.939070,10.000000,0.000000,4305.000000,4296.282227,4316.538574,4314.102539,4304.615234,4314.230957,4345.641113,4389.615234,4298.717773,4280.128418,4443.333496,4476.922852,4336.025879,4395.384766,1544.000000,1.000000,30.000000,,,,0.000000,2.000000,2.000000,0.000000,4.000000,2.000000,2.000000,0.000000,0.000000,4.000000,4.000000,4.000000,4.000000,4.000000,4.000000,0.000000,,,,,,,,,,,,,,,,,,,,,,,,,,,,
1732155910.945065,1732155910.946878,11.000000,0.000000,4306.410156,4293.717773,4315.641113,4314.358887,4301.410156,4310.641113,4345.256348,4389.102539,4308.974121,4288.077148,4447.179688,4482.692383,4337.307617,4397.436035,1583.000000,1.000000,30.000000,,,,0.000000,2.000000,2.000000,0.000000,4.000000,2.000000,2.000000,0.000000,0.000000,4.000000,4.000000,4.000000,4.000000,4.000000,4.000000,0.000000,,,,,,,,,,,,,,,,,,,,,,,,,,,,
1732155910.952873,1732155910.954586,12.000000,0.000000,4311.794922,4296.410156,4315.384766,4315.897461,4309.102539,4305.641113,4343.717773,4387.436035,4308.974121,4293.717773,4451.282227,4486.666504,4346.282227,4397.948730,1728.000000,1.000000,30.000000,,,,0.000000,2.000000,2.000000,0.000000,4.000000,2.000000,2.000000,0.000000,0.000000,4.000000,4.000000,4.000000,4.000000,4.000000,4.000000,0.000000,,,,,,,,,,,,,,,,,3.000000,0.000000,0.672068,-0.072937,-0.717102,-0.169617,0.969845,0.159199,-0.038091,-66.774773,38.153957,44.778759
1732155910.960681,1732155910.962395,13.000000,0.000000,4309.871582,4297.692383,4313.333496,4315.769043,4320.769043,4305.897461,4343.333496,4386.922852,4310.256348,4294.871582,4448.077148,4485.769043,4344.743652,4398.333496,1705.000000,1.000000,30.000000,,,,0.000000,2.000000,2.000000,0.000000,4.000000,2.000000,2.000000,0.000000,0.000000,4.000000,4.000000,4.000000,4.000000,4.000000,4.000000,0.000000,,,,,,,,,,,,,,,,,,,,,,,,,,,,
1732155910.968490,1732155910.970403,14.000000,0.000000,4310.256348,4296.410156,4312.179688,4316.410156,4301.025879,4306.538574,4341.922852,4388.461426,4317.307617,4296.794922,4452.563965,4487.179688,4344.102539,4403.589844,1544.000000,1.000000,30.000000,,,,0.000000,2.000000,2.000000,0.000000,4.000000,2.000000,2.000000,0.000000,0.000000,4.000000,4.000000,4.000000,4.000000,4.000000,4.000000,0.000000,1.000000,0.000000,2.000000,2.000000,0.000000,4.000000,2.000000,2.000000,0.000000,0.000000,1.000000,4.000000,4.000000,4.000000,4.000000,4.000000,,,,,,,,,,,,
1732155910.976298,1732155910.978211,15.000000,0.000000,4317.692383,4299.358887,4321.538574,4315.641113,4278.846191,4296.025879,4345.128418,4390.000000,4306.538574,4297.179688,4459.487305,4490.769043,4352.820313,4409.871582,1583.000000,1.000000,30.000000,,,,0.000000,2.000000,2.000000,0.000000,4.000000,2.000000,2.000000,0.000000,0.000000,4.000000,4.000000,4.000000,4.000000,4.000000,4.000000,0.000000,,,,,,,,,,,,,,,,,,,,,,,,,,,,
1732155910.984106,1732155910.985919,16.000000,0.000000,4323.589844,4305.641113,4321.153809,4313.717773,4284.871582,4291.794922,4344.487305,4390.256348,4294.487305,4292.692383,4453.589844,4488.461426,4353.333496,4412.051270,0.000000,1.000000,30.000000,,,,0.000000,2.000000,2.000000,0.000000,4.000000,2.000000,2.000000,0.000000,0.000000,4.000000,4.000000,4.000000,4.000000,4.000000,4.000000,0.000000,,,,,,,,,,,,,,,,,4.000000,0.000000,0.671322,-0.070068,-0.717651,-0.171448,0.973263,0.146014,-0.040532,-66.802567,38.521370,44.774128
1732155910.991914,1732155910.993727,17.000000,0.000000,4325.128418,4306.794922,4311.666504,4313.846191,4296.282227,4297.051270,4337.948730,4391.794922,4303.077148,4287.051270,4450.769043,4488.205078,4348.846191,4412.307617,0.000000,1.000000,30.000000,,,,0.000000,2.000000,2.000000,0.000000,4.000000,2.000000,2.000000,0.000000,0.000000,4.000000,4.000000,4.000000,4.000000,4.000000,4.000000,0.000000,,,,,,,,,,,,,,,,,,,,,,,,,,,,
1732155910.999722,1732155911.001336,18.000000,0.000000,4324.743652,4304.230957,4308.077148,4316.410156,4293.846191,4295.384766,4336.794922,4391.538574,4310.000000,4288.461426,4456.922852,4490.000000,4351.794922,4411.794922,0.000000,1.000000,30.000000,,,,0.000000,2.000000,2.000000,0.000000,4.000000,2.000000,2.000000,0.000000,0.000000,4.000000,4.000000,4.000000,4.000000,4.000000,4.000000,0.000000,,,,,,,,,,,,,,,,,,,,,,,,,,,,
1732155911.007531,1732155911.009144,19.000000,0.000000,4322.820313,4302.051270,4314.743652,4315.769043,4291.794922,4292.563965,4342.820313,4390.897461,4305.897461,4292.948730,4458.077148,4488.974121,4352.179688,4410.256348,0.000000,1.000000,30.000000,,,,0.000000,2.000000,2.000000,0.000000,4.000000,2.000000,2.000000,0.000000,0.000000,4.000000,4.000000,4.000000,4.000000,4.000000,4.000000,0.000000,,,,,,,,,,,,,,,,,,,,,,,,,,,,
1732155911.015339,1732155911.016852,20.000000,0.000000,4321.410156,4301.794922,4311.666504,4315.000000,4304.743652,4294.487305,4339.871582,4389.615234,4305.897461,4292.436035,4455.512695,4490.000000,4348.077148,4409.102539,0.000000,1.000000,30.000000,,,,0.000000,2.000000,2.000000,0.000000,4.000000,2.000000,2.000000,0.000000,0.000000,4.000000,4.000000,4.000000,4.000000,4.000000,4.000000,0.000000,,,,,,,,,,,,,,,,,5.000000,0.000000,0.671024,-0.069214,-0.717896,-0.171936,0.973263,0.146014,-0.040532,-66.713409,38.485645,44.912045
1732155911.023147,1732155911.024660,21.000000,0.000000,4322.051270,4299.615234,4308.461426,4313.461426,4311.538574,4296.025879,4336.666504,4391.025879,4307.436035,4289.615234,4455.512695,4489.487305,4348.333496,4406.666504,0.000000,1.000000,30.000000,,,,0.000000,2.000000,2.000000,0.000000,4.000000,2.000000,2.000000,0.000000,0.000000,4.000000,4.000000,4.000000,4.000000,4.000000,4.000000,0.000000,,,,,,,,,,,,,,,,,,,,,,,,,,,,
1732155911.030955,1732155911.032269,22.000000,0.000000,4321.410156,4296.025879,4310.000000,4314.358887,4295.512695,4301.794922,4339.487305,4391.666504,4310.384766,4292.948730,4456.538574,4488.717773,4350.384766,4402.820313,0.000000,1.000000,30.000000,,,,0.000000,2.000000,2.000000,0.000000,4.000000,2.000000,2.000000,0.000000,0.000000,4.000000,4.000000,4.000000,4.000000,4.000000,4.000000,0.000000,,,,,,,,,,,,,,,,,,,,,,,,,,,,
1732155911.038764,1732155911.040077,23.000000,0.000000,4320.128418,4294.743652,4313.589844,4317.179688,4281.282227,4307.307617,4340.641113,4390.512695,4312.692383,4295.769043,4456.538574,4489.487305,4347.820313,4407.436035,0.000000,1.000000,30.000000,,,,0.000000,2.000000,2.000000,0.000000,4.000000,2.000000,2.000000,0.000000,0.000000,4.000000,4.000000,4.000000,4.000000,4.000000,4.000000,0.000000,,,,,,,,,,,,,,,,,,,,,,,,,,,,
1732155911.046572,1732155911.047785,24.000000,0.000000,4321.666504,4296.794922,4313.461426,4314.230957,4289.615234,4308.333496,4338.846191,4391.538574,4312.436035,4295.384766,4454.871582,4492.051270,4345.641113,4412.563965,0.000000,1.000000,30.000000,,,,0.000000,2.000000,2.000000,0.000000,4.000000,2.000000,2.000000,0.000000,0.000000,4.000000,4.000000,4.000000,4.000000,4.000000,4.000000,0.000000,,,,,,,,,,,,,,,,,6.000000,0.000000,0.670669,-0.068604,-0.718140,-0.172546,0.968380,0.131852,-0.040532,-66.671196,38.421703,44.775421
1732155911.054380,1732155911.055594,25.000000,0.000000,4320.000000,4298.077148,4312.820313,4312.820313,4299.871582,4306.666504,4338.589844,4392.563965,4314.487305,4296.922852,4456.410156,4492.820313,4349.102539,4406.922852,0.000000,1.000000,30.000000,,,,0.000000,2.000000,2.000000,0.000000,4.000000,2.000000,2.000000,0.000000,0.000000,4.000000,4.000000,4.000000,4.000000,4.000000,4.000000,0.000000,,,,,,,,,,,,,,,,,,,,,,,,,,,,
1732155911.062189,1732155911.063602,26.000000,0.000000,4315.128418,4295.897461,4313.461426,4316.025879,4299.358887,4302.436035,4343.077148,4390.512695,4313.974121,4296.922852,4457.948730,4489.615234,4351.153809,4403.846191,0.000000,1.000000,30.000000,,,,0.000000,2.000000,2.000000,0.000000,4.000000,2.000000,2.000000,0.000000,0.000000,4.000000,4.000000,4.000000,4.000000,4.000000,4.000000,0.000000,,,,,,,,,,,,,,,,,,,,,,,,,,,,
1732155911.069997,1732155911.071410,27.000000,0.000000,4318.077148,4295.641113,4313.846191,4317.179688,4295.641113,4298.589844,4343.333496,4388.077148,4309.487305,4294.615234,4453.333496,4489.230957,4347.436035,4408.589844,0.000000,1.000000,30.000000,,,,0.000000,2.000000,2.000000,0.000000,4.000000,2.000000,2.000000,0.000000,0.000000,4.000000,4.000000,4.000000,4.000000,4.000000,4.000000,0.000000,,,,,,,,,,,,,,,,,,,,,,,,,,,,
1732155911.077805,1732155911.079318,28.000000,0.000000,4325.512695,4298.205078,4310.384766,4314.230957,4302.563965,4297.820313,4340.897461,4390.897461,4308.589844,4291.666504,4448.717773,4490.384766,4343.333496,4407.692383,0.000000,1.000000,30.000000,,,,0.000000,2.000000,2.000000,0.000000,4.000000,2.000000,2.000000,0.000000,0.000000,4.000000,4.000000,4.000000,4.000000,4.000000,4.000000,0.000000,,,,,,,,,,,,,,,,,7.000000,0.000000,0.669934,-0.067444,-0.718567,-0.174072,0.965450,0.136735,-0.027835,-66.525337,38.636581,44.786427
1732155911.085613,1732155911.087126,29.000000,0.000000,4321.410156,4298.205078,4311.794922,4311.282227,4315.512695,4296.794922,4341.282227,4391.794922,4309.487305,4287.948730,4445.384766,4487.179688,4340.128418,4400.897461,0.000000,1.000000,30.000000,,,,0.000000,2.000000,2.000000,0.000000,4.000000,2.000000,2.000000,0.000000,0.000000,4.000000,4.000000,4.000000,4.000000,4.000000,4.000000,0.000000,,,,,,,,,,,,,,,,,,,,,,,,,,,,
1732155911.093421,1732155911.094734,30.000000,0.000000,4314.102539,4293.333496,4315.384766,4310.512695,4306.282227,4301.922852,4341.922852,4390.769043,4309.102539,4288.205078,4442.179688,4486.153809,4337.820313,4397.436035,0.000000,1.000000,30.000000,,,,0.000000,2.000000,2.000000,0.000000,4.000000,2.000000,2.000000,0.000000,0.000000,4.000000,4.000000,4.000000,4.000000,4.000000,4.000000,0.000000,,,,,,,,,,,,,,,,,,,,,,,,,,,,
1732155911.101230,1732155911.102543,31.000000,0.000000,4315.769043,4292.436035,4315.641113,4312.692383,4286.410156,4311.538574,4341.922852,4391.025879,4311.922852,4292.820313,4448.589844,4490.512695,4338.717773,4399.487305,0.000000,1.000000,30.000000,,,,0.000000,2.000000,2.000000,0.000000,4.000000,2.000000,2.000000,0.000000,0.000000,4.000000,4.000000,4.000000,4.000000,4.000000,4.000000,0.000000,,,,,,,,,,,,,,,,,,,,,,,,,,,,
1732155911.109038,1732155911.110251,32.000000,0.000000,4316.922852,4295.000000,4313.333496,4312.820313,4288.077148,4311.538574,4344.743652,4392.179688,4314.102539,4294.615234,4458.461426,4491.410156,4342.948730,4403.077148,0.000000,1.000000,30.000000,,,,0.000000,2.000000,2.000000,0.000000,4.000000,2.000000,2.000000,0.000000,0.000000,4.000000,4.000000,4.000000,4.000000,4.000000,4.000000,0.000000,,,,,,,,,,,,,,,,,8.000000,0.000000,0.669795,-0.067566,-0.718567,-0.174561,0.965450,0.136735,-0.027835,-66.345520,38.755630,44.695339
1732155911.116846,1732155911.118059,33.000000,0.000000,4316.922852,4294.871582,4312.948730,4312.179688,4297.307617,4309.871582,4345.384766,4391.794922,4315.128418,4294.358887,4458.974121,4490.897461,4347.179688,4403.974121,0.000000,1.000000,30.000000,,,,0.000000,2.000000,2.000000,0.000000,4.000000,2.000000,2.000000,0.000000,0.000000,4.000000,4.000000,4.000000,4.000000,4.000000,4.000000,0.000000,,,,,,,,,,,,,,,,,,,,,,,,,,,,
1732155911.124654,1732155911.125667,34.000000,0.000000,4316.153809,4291.922852,4317.563965,4312.948730,4295.256348,4312.051270,4342.948730,4392.179688,4316.282227,4294.230957,4454.102539,4489.615234,4344.615234,4398.717773,0.000000,1.000000,30.000000,,,,0.000000,2.000000,2.000000,0.000000,4.000000,2.000000,2.000000,0.000000,0.000000,4.000000,4.000000,4.000000,4.000000,4.000000,4.000000,0.000000,,,,,,,,,,,,,,,,,,,,,,,,,,,,
1732155911.132463,1732155911.133475,35.000000,0.000000,4310.897461,4291.282227,4315.897461,4311.666504,4297.948730,4309.871582,4344.358887,4393.333496,4312.820313,4291.153809,4453.461426,4484.102539,4338.461426,4395.000000,0.000000,1.000000,30.000000,,,,0.000000,2.000000,2.000000,0.000000,4.000000,2.000000,2.000000,0.000000,0.000000,4.000000,4.000000,4.000000,4.000000,4.000000,4.000000,0.000000,,,,,,,,,,,,,,,,,,,,,,,,,,,,
1732155911.140271,1732155911.141383,36.000000,0.000000,4311.153809,4293.333496,4312.179688,4309.487305,4300.641113,4306.153809,4346.666504,4392.307617,4310.384766,4290.384766,4456.025879,4485.000000,4341.025879,4397.307617,0.000000,1.000000,30.000000,,,,0.000000,2.000000,2.000000,0.000000,4.000000,2.000000,2.000000,0.000000,0.000000,4.000000,4.000000,4.000000,4.000000,4.000000,4.000000,0.000000,,,,,,,,,,,,,,,,,9.000000,0.000000,0.669216,-0.068054,-0.718628,-0.176331,0.973263,0.156757,-0.028324,-66.343208,38.897060,44.753223
1732155911.148079,1732155911.149192,37.000000,0.000000,4319.743652,4293.717773,4311.153809,4311.025879,4300.641113,4304.743652,4343.846191,4390.384766,4311.922852,4293.846191,4457.436035,4487.948730,4345.512695,4398.717773,0.000000,1.000000,30.000000,,,,0.000000,2.000000,2.000000,0.000000,4.000000,2.000000,2.000000,0.000000,0.000000,4.000000,4.000000,4.000000,4.000000,4.000000,4.000000,0.000000,,,,,,,,,,,,,,,,,,,,,,,,,,,,
1732155911.155887,1732155911.157200,38.000000,0.000000,4322.307617,4291.666504,4316.410156,4310.256348,4313.717773,4302.820313,4342.692383,4391.153809,4308.589844,4291.538574,4454.615234,4484.358887,4340.897461,4396.538574,0.000000,1.000000,30.000000,,,,0.000000,2.000000,2.000000,0.000000,4.000000,2.000000,2.000000,0.000000,0.000000,4.000000,4.000000,4.000000,4.000000,4.000000,4.000000,0.000000,,,,,,,,,,,,,,,,,,,,,,,,,,,,
1732155911.163695,1732155911.165008,39.000000,0.000000,4319.230957,4292.179688,4315.769043,4310.000000,4312.820313,4302.563965,4344.487305,4391.410156,4305.512695,4289.615234,4451.410156,4482.436035,4339.358887,4395.512695,0.000000,1.000000,30.000000,,,,0.000000,2.000000,2.000000,0.000000,4.000000,2.000000,2.000000,0.000000,0.000000,4.000000,4.000000,4.000000,4.000000,4.000000,4.000000,0.000000,,,,,,,,,,,,,,,,,,,,,,,,,,,,
1732155911.171504,1732155911.172916,40.000000,0.000000,4320.769043,4295.897461,4314.230957,4312.307617,4288.974121,4305.000000,4343.461426,4389.743652,4309.743652,4293.846191,4451.282227,4485.769043,4343.846191,4397.307617,0.000000,1.000000,30.000000,,,,0.000000,2.000000,2.000000,0.000000,4.000000,2.000000,2.000000,0.000000,0.000000,4.000000,4.000000,4.000000,4.000000,4.000000,4.000000,0.000000,,,,,,,,,,,,,,,,,10.000000,0.000000,0.668191,-0.067566,-0.718689,-0.180115,0.956660,0.193871,-0.046881,-66.359665,38.946621,44.568443
1732155911.179312,1732155911.180724,41.000000,0.000000,4321.922852,4295.256348,4315.000000,4312.179688,4282.948730,4305.384766,4342.179688,4388.846191,4313.205078,4295.384766,4452.948730,4488.333496,4346.153809,4398.205078,0.000000,1.000000,30.000000,,,,0.000000,2.000000,2.000000,0.000000,4.000000,2.000000,2.000000,0.000000,0.000000,4.000000,4.000000,4.000000,4.000000,4.000000,4.000000,0.000000,,,,,,,,,,,,,,,,,,,,,,,,,,,,
1732155911.187120,1732155911.188732,42.000000,0.000000,4320.641113,4290.641113,4315.000000,4309.487305,4295.000000,4305.256348,4346.538574,4389.487305,4312.692383,4293.974121,4455.641113,4488.589844,4348.717773,4398.717773,0.000000,1.000000,30.000000,,,,0.000000,2.000000,2.000000,0.000000,4.000000,2.000000,2.000000,0.000000,0.000000,4.000000,4.000000,4.000000,4.000000,4.000000,4.000000,0.000000,,,,,,,,,,,,,,,,,,,,,,,,,,,,
1732155911.194929,1732155911.196540,43.000000,0.000000,4323.077148,4292.820313,4312.563965,4313.589844,4292.307617,4307.820313,4346.153809,4389.230957,4313.077148,4296.410156,4459.358887,4490.512695,4350.769043,4399.230957,0.000000,1.000000,30.000000,,,,0.000000,2.000000,2.000000,0.000000,4.000000,2.000000,2.000000,0.000000,0.000000,4.000000,4.000000,4.000000,4.000000,4.000000,4.000000,0.000000,,,,,,,,,,,,,,,,,,,,,,,,,,,,
1732155911.202737,1732155911.204248,44.000000,0.000000,4323.461426,4299.102539,4315.000000,4317.820313,4295.128418,4305.897461,4340.641113,4387.948730,4311.922852,4299.871582,4462.179688,4491.922852,4350.512695,4399.102539,0.000000,1.000000,30.000000,,,,0.000000,2.000000,2.000000,0.000000,4.000000,2.000000,2.000000,0.000000,0.000000,4.000000,4.000000,4.000000,4.000000,4.000000,4.000000,0.000000,,,,,,,,,,,,,,,,,11.000000,0.000000,0.667796,-0.066406,-0.718811,-0.181519,0.961055,0.199731,-0.045904,-66.367996,39.040096,44.322105
1732155911.210545,1732155911.212056,45.000000,0.000000,4318.077148,4298.461426,4315.000000,4313.077148,4314.230957,4299.102539,4340.897461,4388.077148,4309.615234,4296.153809,4461.538574,4493.461426,4350.256348,4397.948730,0.000000,1.000000,30.000000,,,,0.000000,2.000000,2.000000,0.000000,4.000000,2.000000,2.000000,0.000000,0.000000,4.000000,4.000000,4.000000,4.000000,4.000000,4.000000,0.000000,,,,,,,,,,,,,,,,,,,,,,,,,,,,
1732155911.218353,1732155911.219665,46.000000,0.000000,4314.615234,4293.333496,4311.922852,4310.128418,4303.589844,4297.051270,4343.461426,4389.102539,4308.846191,4292.948730,4456.794922,4491.794922,4347.692383,4396.922852,0.000000,1.000000,30.000000,,,,0.000000,2.000000,2.000000,0.000000,4.000000,2.000000,2.000000,0.000000,0.000000,4.000000,4.000000,4.000000,4.000000,4.000000,4.000000,0.000000,,,,,,,,,,,,,,,,,,,,,,,,,,,,
1732155911.226161,1732155911.227473,47.000000,0.000000,4316.666504,4293.846191,4313.333496,4312.051270,4277.692383,4301.153809,4342.051270,4389.102539,4307.436035,4293.974121,4454.615234,4491.025879,4345.384766,4397.179688,0.000000,1.000000,30.000000,,,,0.000000,2.000000,2.000000,0.000000,4.000000,2.000000,2.000000,0.000000,0.000000,4.000000,4.000000,4.000000,4.000000,4.000000,4.000000,0.000000,,,,,,,,,,,,,,,,,,,,,,,,,,,,
1732155911.233970,1732155911.235381,48.000000,0.000000,4316.794922,4293.846191,4316.538574,4309.102539,4280.128418,4303.846191,4341.666504,4387.179688,4307.051270,4294.230957,4456.153809,4491.922852,4346.922852,4397.179688,0.000000,1.000000,30.000000,,,,0.000000,2.000000,2.000000,0.000000,4.000000,2.000000,2.000000,0.000000,0.000000,4.000000,4.000000,4.000000,4.000000,4.000000,4.000000,0.000000,,,,,,,,,,,,,,,,,12.000000,0.000000,0.667598,-0.065735,-0.718933,-0.182007,0.960078,0.186058,-0.049811,-66.488075,39.412476,43.944241
1732155911.241778,1732155911.243189,49.000000,0.000000,4311.538574,4289.743652,4316.410156,4305.769043,4290.897461,4303.333496,4344.358887,4387.820313,4309.358887,4294.102539,4451.282227,4489.743652,4345.512695,4396.153809,0.000000,1.000000,30.000000,,,,0.000000,2.000000,2.000000,0.000000,4.000000,2.000000,2.000000,0.000000,0.000000,4.000000,4.000000,4.000000,4.000000,4.000000,4.000000,0.000000,,,,,,,,,,,,,,,,,,,,,,,,,,,,
1732155911.249586,1732155911.251197,50.000000,0.000000,4310.641113,4288.077148,4312.563965,4308.846191,4290.256348,4307.051270,4344.743652,4389.871582,4310.384766,4295.000000,4450.769043,4490.384766,4343.717773,4396.282227,0.000000,1.000000,30.000000,,,,0.000000,2.000000,2.000000,0.000000,4.000000,2.000000,2.000000,0.000000,0.000000,4.000000,4.000000,4.000000,4.000000,4.000000,4.000000,0.000000,,,,,,,,,,,,,,,,,,,,,,,,,,,,
1732155911.257394,1732155911.259005,51.000000,0.000000,4312.563965,4290.128418,4312.307617,4307.820313,4292.692383,4311.410156,4346.410156,4389.230957,4309.487305,4295.128418,4458.589844,4492.436035,4348.717773,4397.820313,0.000000,1.000000,30.000000,,,,0.000000,2.000000,2.000000,0.000000,4.000000,2.000000,2.000000,0.000000,0.000000,4.000000,4.000000,4.000000,4.000000,4.000000,4.000000,0.000000,,,,,,,,,,,,,,,,,,,,,,,,,,,,
1732155911.265203,1732155911.266913,52.000000,0.000000,4313.077148,4288.205078,4312.948730,4303.333496,4296.410156,4309.743652,4346.922852,4388.461426,4311.410156,4297.563965,4460.384766,4491.922852,4352.948730,4399.743652,0.000000,1.000000,30.000000,,,,0.000000,2.000000,2.000000,0.000000,4.000000,2.000000,2.000000,0.000000,0.000000,4.000000,4.000000,4.000000,4.000000,4.000000,4.000000,0.000000,,,,,,,,,,,,,,,,,13.000000,0.000000,0.667358,-0.064636,-0.719116,-0.182556,0.958125,0.194360,-0.040044,-66.298676,39.759106,43.996502
1732155911.273011,1732155911.274721,53.000000,0.000000,4310.384766,4284.615234,4316.025879,4304.743652,4292.307617,4302.436035,4343.333496,4389.615234,4316.794922,4300.641113,4457.820313,4496.025879,4348.589844,4399.487305,0.000000,1.000000,30.000000,,,,0.000000,2.000000,2.000000,0.000000,4.000000,2.000000,2.000000,0.000000,0.000000,4.000000,4.000000,4.000000,4.000000,4.000000,4.000000,0.000000,,,,,,,,,,,,,,,,,,,,,,,,,,,,
1732155911.280819,1732155911.282729,54.000000,0.000000,4309.871582,4285.384766,4314.743652,4308.077148,4290.897461,4299.487305,4341.538574,4389.102539,4319.358887,4300.000000,4457.948730,4500.641113,4343.077148,4397.436035,0.000000,1.000000,30.000000,,,,0.000000,2.000000,2.000000,0.000000,4.000000,2.000000,2.000000,0.000000,0.000000,4.000000,4.000000,4.000000,4.000000,4.000000,4.000000,0.000000,,,,,,,,,,,,,,,,,,,,,,,,,,,,
1732155911.288627,1732155911.290538,55.000000,0.000000,4311.666504,4287.436035,4314.615234,4309.102539,4292.563965,4302.948730,4346.922852,4389.615234,4317.179688,4298.717773,4455.512695,4500.897461,4341.025879,4396.538574,0.000000,1.000000,30.000000,,,,0.000000,2.000000,2.000000,0.000000,4.000000,2.000000,2.000000,0.000000,0.000000,4.000000,4.000000,4.000000,4.000000,4.000000,4.000000,0.000000,,,,,,,,,,,,,,,,,,,,,,,,,,,,
1732155911.296436,1732155911.298246,56.000000,0.000000,4313.077148,4287.692383,4311.410156,4310.384766,4303.974121,4299.743652,4346.410156,4390.769043,4314.615234,4296.922852,4449.871582,4495.641113,4343.589844,4397.563965,0.000000,1.000000,30.000000,,,,0.000000,2.000000,2.000000,0.000000,4.000000,2.000000,2.000000,0.000000,0.000000,4.000000,4.000000,4.000000,4.000000,4.000000,4.000000,0.000000,,,,,,,,,,,,,,,,,14.000000,0.000000,0.667304,-0.062622,-0.719360,-0.182495,0.959101,0.173849,-0.052252,-66.476929,39.594875,44.125500
1732155911.304244,1732155911.306054,57.000000,0.000000,4317.692383,4286.153809,4310.000000,4312.436035,4312.820313,4295.641113,4337.820313,4388.589844,4312.820313,4291.410156,4451.025879,4494.358887,4345.641113,4396.153809,0.000000,1.000000,30.000000,,,,0.000000,2.000000,2.000000,0.000000,4.000000,2.000000,2.000000,0.000000,0.000000,4.000000,4.000000,4.000000,4.000000,4.000000,4.000000,0.000000,,,,,,,,,,,,,,,,,,,,,,,,,,,,
1732155911.312052,1732155911.313663,58.000000,0.000000,4321.153809,4289.102539,4309.743652,4317.436035,4297.948730,4303.077148,4336.282227,4387.563965,4314.487305,4292.948730,4457.179688,4498.205078,4345.384766,4395.256348,0.000000,1.000000,30.000000,,,,0.000000,2.000000,2.000000,0.000000,4.000000,2.000000,2.000000,0.000000,0.000000,4.000000,4.000000,4.000000,4.000000,4.000000,4.000000,0.000000,,,,,,,,,,,,,,,,,,,,,,,,,,,,
1732155911.319860,1732155911.321471,59.000000,0.000000,4317.051270,4294.871582,4309.871582,4320.769043,4283.077148,4306.538574,4341.410156,4388.333496,4318.077148,4298.846191,4457.436035,4498.589844,4345.769043,4397.692383,0.000000,1.000000,30.000000,,,,0.000000,2.000000,2.000000,0.000000,4.000000,2.000000,2.000000,0.000000,0.000000,4.000000,4.000000,4.000000,4.000000,4.000000,4.000000,0.000000,,,,,,,,,,,,,,,,,,,,,,,,,,,,
1732155911.327669,1732155911.329179,60.000000,0.000000,4310.897461,4294.615234,4307.820313,4315.769043,4290.641113,4295.897461,4341.153809,4388.333496,4315.384766,4296.538574,4451.666504,4491.666504,4345.512695,4398.589844,0.000000,1.000000,30.000000,,,,0.000000,2.000000,2.000000,0.000000,4.000000,2.000000,2.000000,0.000000,0.000000,4.000000,4.000000,4.000000,4.000000,4.000000,4.000000,0.000000,,,,,,,,,,,,,,,,,15.000000,0.000000,0.667376,-0.062378,-0.719299,-0.182556,0.975705,0.190941,-0.046392,-66.442978,39.756851,44.196655
1732155911.335477,1732155911.336987,61.000000,0.000000,4312.051270,4294.102539,4309.487305,4310.897461,4298.205078,4291.410156,4338.974121,4388.077148,4311.538574,4295.256348,4452.820313,4489.871582,4346.538574,4398.461426,0.000000,1.000000,30.000000,,,,0.000000,2.000000,2.000000,0.000000,4.000000,2.000000,2.000000,0.000000,0.000000,4.000000,4.000000,4.000000,4.000000,4.000000,4.000000,0.000000,,,,,,,,,,,,,,,,,,,,,,,,,,,,
1732155911.343285,1732155911.344596,62.000000,0.000000,4312.692383,4296.410156,4311.794922,4312.820313,4292.307617,4297.820313,4338.974121,4390.128418,4317.436035,4300.769043,4460.512695,4497.051270,4351.794922,4400.128418,0.000000,1.000000,30.000000,,,,0.000000,2.000000,2.000000,0.000000,4.000000,2.000000,2.000000,0.000000,0.000000,4.000000,4.000000,4.000000,4.000000,4.000000,4.000000,0.000000,,,,,,,,,,,,,,,,,,,,,,,,,,,,
1732155911.351093,1732155911.352404,63.000000,0.000000,4306.922852,4293.461426,4313.333496,4311.794922,4294.871582,4295.897461,4341.282227,4390.128418,4320.512695,4299.743652,4459.230957,4498.461426,4350.641113,4398.205078,0.000000,1.000000,30.000000,,,,0.000000,2.000000,2.000000,0.000000,4.000000,2.000000,2.000000,0.000000,0.000000,4.000000,4.000000,4.000000,4.000000,4.000000,4.000000,0.000000,,,,,,,,,,,,,,,,,,,,,,,,,,,,
1732155911.358902,1732155911.360112,64.000000,0.000000,4307.563965,4287.820313,4316.410156,4306.794922,4305.641113,4287.563965,4345.897461,4390.769043,4316.282227,4295.256348,4453.077148,4495.769043,4345.384766,4395.897461,0.000000,1.000000,30.000000,,,,0.000000,2.000000,2.000000,0.000000,4.000000,2.000000,2.000000,0.000000,0.000000,4.000000,4.000000,4.000000,4.000000,4.000000,4.000000,0.000000,,,,,,,,,,,,,,,,,16.000000,0.000000,0.667609,-0.062195,-0.719238,-0.182007,0.984495,0.170919,-0.047857,-66.042145,39.929714,44.159290
1732155911.366710,1732155911.367920,65.000000,0.000000,4311.922852,4288.333496,4319.487305,4304.615234,4297.820313,4288.589844,4348.974121,4392.051270,4316.794922,4297.436035,4455.128418,4495.128418,4346.282227,4398.077148,1616.000000,1.000000,30.000000,,,,0.000000,2.000000,2.000000,0.000000,4.000000,2.000000,2.000000,0.000000,0.000000,4.000000,4.000000,4.000000,4.000000,4.000000,4.000000,0.000000,,,,,,,,,,,,,,,,,,,,,,,,,,,,
1732155911.374518,1732155911.375529,66.000000,0.000000,4312.051270,4288.974121,4321.410156,4307.820313,4278.974121,4295.897461,4348.077148,4391.666504,4320.641113,4300.769043,4457.948730,4494.487305,4347.948730,4399.358887,1431.000000,1.000000,30.000000,,,,0.000000,2.000000,2.000000,0.000000,4.000000,2.000000,2.000000,0.000000,0.000000,4.000000,4.000000,4.000000,4.000000,4.000000,4.000000,0.000000,,,,,,,,,,,,,,,,,,,,,,,,,,,,
1732155911.382326,1732155911.383337,67.000000,0.000000,4311.794922,4287.436035,4321.410156,4310.000000,4277.563965,4299.102539,4347.948730,4391.410156,4322.563965,4299.871582,4458.077148,4494.871582,4345.769043,4398.461426,1436.000000,1.000000,30.000000,,,,0.000000,2.000000,2.000000,0.000000,4.000000,2.000000,2.000000,0.000000,0.000000,4.000000,4.000000,4.000000,4.000000,4.000000,4.000000,0.000000,,,,,,,,,,,,,,,,,,,,,,,,,,,,
1732155911.390134,1732155911.391245,68.000000,0.000000,4311.025879,4285.641113,4324.615234,4303.974121,4286.538574,4298.846191,4349.102539,4392.692383,4322.692383,4297.692383,4454.871582,4493.461426,4344.358887,4398.717773,1404.000000,1.000000,30.000000,,,,0.000000,2.000000,2.000000,0.000000,4.000000,2.000000,2.000000,0.000000,0.000000,4.000000,4.000000,4.000000,4.000000,4.000000,4.000000,0.000000,,,,,,,,,,,,,,,,,17.000000,0.000000,0.668043,-0.063904,-0.719360,-0.179321,0.964962,0.169943,-0.038091,-66.117470,39.948071,44.522358
1732155911.397943,1732155911.399053,69.000000,0.000000,4308.333496,4282.692383,4323.333496,4300.128418,4287.436035,4295.769043,4347.179688,4393.333496,4320.128418,4297.820313,4450.897461,4490.897461,4345.256348,4398.333496,1259.000000,1.000000,30.000000,,,,0.000000,2.000000,2.000000,0.000000,4.000000,2.000000,2.000000,0.000000,0.000000,4.000000,4.000000,4.000000,4.000000,4.000000,4.000000,0.000000,,,,,,,,,,,,,,,,,,,,,,,,,,,,
1732155911.405751,1732155911.406662,70.000000,0.000000,4308.846191,4282.948730,4324.871582,4307.051270,4282.436035,4288.846191,4348.077148,4392.179688,4318.461426,4300.769043,4454.230957,4495.897461,4345.256348,4399.358887,0.000000,1.000000,30.000000,,,,0.000000,2.000000,2.000000,0.000000,4.000000,2.000000,2.000000,0.000000,0.000000,4.000000,4.000000,4.000000,4.000000,4.000000,4.000000,0.000000,,,,,,,,,,,,,,,,,,,,,,,,,,,,
1732155911.413559,1732155911.414470,71.000000,0.000000,4311.922852,4288.205078,4321.410156,4312.179688,4288.589844,4286.538574,4347.820313,4391.538574,4323.077148,4303.205078,4459.230957,4500.897461,4347.436035,4401.153809,0.000000,1.000000,30.000000,,,,0.000000,2.000000,2.000000,0.000000,4.000000,2.000000,2.000000,0.000000,0.000000,4.000000,4.000000,4.000000,4.000000,4.000000,4.000000,0.000000,,,,,,,,,,,,,,,,,,,,,,,,,,,,
1732155911.421368,1732155911.422178,72.000000,0.000000,4308.589844,4286.794922,4318.461426,4305.384766,4302.436035,4288.333496,4344.743652,4392.051270,4322.948730,4298.974121,4454.871582,4495.128418,4347.307617,4399.230957,1544.000000,1.000000,30.000000,,,,0.000000,2.000000,2.000000,0.000000,4.000000,2.000000,2.000000,0.000000,0.000000,4.000000,4.000000,4.000000,4.000000,4.000000,4.000000,0.000000,,,,,,,,,,,,,,,,,18.000000,0.000000,0.668483,-0.065430,-0.719238,-0.177612,0.973263,0.156757,-0.050787,-66.203484,40.002937,44.688110
1732155911.429176,1732155911.429987,73.000000,0.000000,4306.666504,4284.871582,4319.615234,4306.794922,4296.153809,4288.461426,4344.487305,4391.794922,4316.282227,4295.000000,4449.871582,4490.897461,4343.461426,4395.897461,1708.000000,1.000000,30.000000,,,,0.000000,2.000000,2.000000,0.000000,4.000000,2.000000,2.000000,0.000000,0.000000,4.000000,4.000000,4.000000,4.000000,4.000000,4.000000,0.000000,,,,,,,,,,,,,,,,,,,,,,,,,,,,
1732155911.436984,1732155911.437595,74.000000,0.000000,4310.000000,4293.333496,4321.794922,4316.153809,4276.666504,4288.974121,4345.256348,4389.871582,4314.230957,4297.563965,4452.436035,4492.051270,4345.128418,4395.641113,1546.000000,1.000000,30.000000,,,,0.000000,2.000000,2.000000,0.000000,4.000000,2.000000,2.000000,0.000000,0.000000,4.000000,4.000000,4.000000,4.000000,4.000000,4.000000,0.000000,,,,,,,,,,,,,,,,,,,,,,,,,,,,
1732155911.444792,1732155911.445403,75.000000,0.000000,4314.487305,4297.307617,4317.692383,4318.333496,4277.436035,4288.717773,4342.307617,4390.000000,4312.179688,4297.692383,4453.461426,4491.666504,4349.615234,4395.769043,1583.000000,1.000000,30.000000,,,,0.000000,2.000000,2.000000,0.000000,4.000000,2.000000,2.000000,0.000000,0.000000,4.000000,4.000000,4.000000,4.000000,4.000000,4.000000,0.000000,,,,,,,,,,,,,,,,,,,,,,,,,,,,
1732155911.452600,1732155911.453111,76.000000,0.000000,4316.666504,4294.615234,4314.871582,4317.307617,4288.205078,4284.487305,4341.153809,4390.512695,4309.871582,4293.333496,4450.384766,4491.922852,4348.589844,4397.307617,1728.000000,1.000000,30.000000,,,,0.000000,2.000000,2.000000,0.000000,4.000000,2.000000,2.000000,0.000000,0.000000,4.000000,4.000000,4.000000,4.000000,4.000000,4.000000,0.000000,,,,,,,,,,,,,,,,,19.000000,0.000000,0.668615,-0.065918,-0.719116,-0.177429,0.977170,0.155781,-0.037602,-66.418159,39.685711,44.589035
1732155911.460409,1732155911.460920,77.000000,0.000000,4313.846191,4295.641113,4315.384766,4316.025879,4294.615234,4283.205078,4344.743652,4389.230957,4309.102539,4290.769043,4450.384766,4497.692383,4344.743652,4402.307617,1705.000000,1.000000,30.000000,,,,0.000000,2.000000,2.000000,0.000000,4.000000,2.000000,2.000000,0.000000,0.000000,4.000000,4.000000,4.000000,4.000000,4.000000,4.000000,0.000000,,,,,,,,,,,,,,,,,,,,,,,,,,,,
1732155911.468217,1732155911.468528,78.000000,0.000000,4310.897461,4300.128418,4312.692383,4315.256348,4302.179688,4287.948730,4343.974121,4388.974121,4309.230957,4292.563965,4454.871582,4503.205078,4346.794922,4403.333496,1546.000000,1.000000,30.000000,,,,0.000000,2.000000,2.000000,0.000000,4.000000,2.000000,2.000000,0.000000,0.000000,4.000000,4.000000,4.000000,4.000000,4.000000,4.000000,0.000000,1.000000,0.000000,2.000000,2.000000,0.000000,4.000000,1.000000,2.000000,0.000000,0.000000,3.000000,4.000000,4.000000,4.000000,4.000000,4.000000,,,,,,,,,,,,
1732155911.476025,1732155911.476336,79.000000,0.000000,4312.436035,4296.153809,4313.077148,4315.000000,4293.846191,4292.948730,4341.794922,4391.794922,4311.666504,4299.230957,4459.871582,4506.025879,4352.692383,4404.871582,1583.000000,1.000000,30.000000,,,,0.000000,2.000000,2.000000,0.000000,4.000000,2.000000,2.000000,0.000000,0.000000,4.000000,4.000000,4.000000,4.000000,4.000000,4.000000,0.000000,,,,,,,,,,,,,,,,,,,,,,,,,,,,
1732155911.483833,1732155911.484244,80.000000,0.000000,4315.000000,4293.717773,4315.769043,4315.384766,4274.487305,4293.974121,4342.179688,4391.794922,4317.563965,4306.794922,4462.820313,4508.717773,4357.179688,4409.230957,1728.000000,1.000000,30.000000,,,,0.000000,2.000000,2.000000,0.000000,4.000000,2.000000,2.000000,0.000000,0.000000,4.000000,4.000000,4.000000,4.000000,4.000000,4.000000,0.000000,,,,,,,,,,,,,,,,,20.000000,0.000000,0.668781,-0.066711,-0.718933,-0.177246,0.970822,0.142107,-0.045904,-66.482040,39.443760,44.697121
1732155911.491642,1732155911.492052,81.000000,0.000000,4313.333496,4296.794922,4315.897461,4314.230957,4277.692383,4287.051270,4345.897461,4390.000000,4315.128418,4304.487305,4461.025879,4506.538574,4356.666504,4406.538574,1705.000000,1.000000,30.000000,,,,0.000000,2.000000,2.000000,0.000000,4.000000,2.000000,2.000000,0.000000,0.000000,4.000000,4.000000,4.000000,4.000000,4.000000,4.000000,0.000000,,,,,,,,,,,,,,,,,,,,,,,,,,,,
1732155911.499450,1732155911.500060,82.000000,0.000000,4310.769043,4295.256348,4314.230957,4310.384766,4295.641113,4277.563965,4346.153809,4390.512695,4309.487305,4298.333496,4458.077148,4497.179688,4353.846191,4400.769043,1546.000000,1.000000,30.000000,,,,0.000000,2.000000,2.000000,0.000000,4.000000,2.000000,2.000000,0.000000,0.000000,4.000000,4.000000,4.000000,4.000000,4.000000,4.000000,0.000000,,,,,,,,,,,,,,,,,,,,,,,,,,,,
1732155911.507258,1732155911.507868,83.000000,0.000000,4311.410156,4291.282227,4317.179688,4307.948730,4294.871582,4278.846191,4343.461426,4392.179688,4312.051270,4299.102539,4458.333496,4493.974121,4353.205078,4400.128418,1583.000000,1.000000,30.000000,,,,0.000000,2.000000,2.000000,0.000000,4.000000,2.000000,2.000000,0.000000,0.000000,4.000000,4.000000,4.000000,4.000000,4.000000,4.000000,0.000000,,,,,,,,,,,,,,,,,,,,,,,,,,,,
1732155911.515066,1732155911.515576,84.000000,0.000000,4314.487305,4291.538574,4318.461426,4312.563965,4278.846191,4288.205078,4345.128418,4392.820313,4313.974121,4297.436035,4460.384766,4500.000000,4353.846191,4400.000000,1728.000000,1.000000,30.000000,,,,0.000000,2.000000,2.000000,0.000000,4.000000,2.000000,2.000000,0.000000,0.000000,4.000000,4.000000,4.000000,4.000000,4.000000,4.000000,0.000000,,,,,,,,,,,,,,,,,21.000000,0.000000,0.669058,-0.069641,-0.718323,-0.177551,0.967403,0.159199,-0.038579,-66.483788,39.281113,44.618000
1732155911.522874,1732155911.523384,85.000000,0.000000,4314.358887,4293.974121,4318.974121,4316.666504,4275.384766,4289.102539,4347.948730,4392.692383,4309.871582,4291.153809,4456.538574,4502.692383,4351.153809,4398.333496,1705.000000,1.000000,30.000000,,,,0.000000,2.000000,2.000000,0.000000,4.000000,2.000000,2.000000,0.000000,0.000000,4.000000,4.000000,4.000000,4.000000,4.000000,4.000000,0.000000,,,,,,,,,,,,,,,,,,,,,,,,,,,,
1732155911.530683,1732155911.530993,86.000000,0.000000,4310.769043,4292.820313,4317.692383,4311.538574,4285.769043,4286.282227,4346.666504,4392.436035,4308.589844,4291.025879,4450.256348,4496.922852,4347.948730,4399.743652,1546.000000,1.000000,30.000000,,,,0.000000,2.000000,2.000000,0.000000,4.000000,2.000000,2.000000,0.000000,0.000000,4.000000,4.000000,4.000000,4.000000,4.000000,4.000000,0.000000,,,,,,,,,,,,,,,,,,,,,,,,,,,,
1732155911.538491,1732155911.538801,87.000000,0.000000,4308.589844,4290.769043,4317.948730,4310.000000,4290.641113,4291.025879,4346.666504,4392.692383,4310.897461,4294.487305,4451.153809,4497.820313,4347.179688,4399.102539,1583.000000,1.000000,30.000000,,,,0.000000,2.000000,2.000000,0.000000,4.000000,2.000000,2.000000,0.000000,0.000000,4.000000,4.000000,4.000000,4.000000,4.000000,4.000000,0.000000,,,,,,,,,,,,,,,,,,,,,,,,,,,,
1732155911.546299,1732155911.546509,88.000000,0.000000,4310.256348,4295.512695,4317.051270,4317.563965,4289.358887,4294.871582,4347.820313,4393.974121,4312.436035,4296.922852,4455.128418,4501.666504,4347.436035,4396.794922,1728.000000,1.000000,30.000000,,,,0.000000,2.000000,2.000000,0.000000,4.000000,2.000000,2.000000,0.000000,0.000000,4.000000,4.000000,4.000000,4.000000,4.000000,4.000000,0.000000,,,,,,,,,,,,,,,,,22.000000,0.000000,0.669217,-0.070313,-0.718079,-0.177673,0.956171,0.179709,-0.044439,-66.198532,39.066032,44.683914
1732155911.554108,1732155911.554317,89.000000,0.000000,4313.333496,4300.641113,4317.436035,4320.000000,4294.743652,4287.948730,4345.769043,4395.512695,4313.333496,4299.743652,4456.025879,4499.230957,4348.846191,4398.589844,1705.000000,1.000000,30.000000,,,,0.000000,2.000000,2.000000,0.000000,4.000000,2.000000,2.000000,0.000000,0.000000,4.000000,4.000000,4.000000,4.000000,4.000000,4.000000,0.000000,,,,,,,,,,,,,,,,,,,,,,,,,,,,
1732155911.561916,1732155911.562325,90.000000,0.000000,4313.333496,4299.487305,4314.487305,4318.077148,4306.666504,4280.512695,4343.077148,4393.589844,4311.410156,4297.563965,4454.487305,4495.000000,4349.615234,4399.102539,1546.000000,1.000000,30.000000,,,,0.000000,2.000000,2.000000,0.000000,4.000000,2.000000,2.000000,0.000000,0.000000,4.000000,4.000000,4.000000,4.000000,4.000000,4.000000,0.000000,,,,,,,,,,,,,,,,,,,,,,,,,,,,
1732155911.569724,1732155911.570133,91.000000,0.000000,4312.692383,4297.307617,4314.358887,4318.974121,4306.794922,4282.692383,4343.589844,4389.487305,4308.333496,4295.641113,4454.230957,4496.153809,4351.153809,4398.846191,1583.000000,1.000000,30.000000,,,,0.000000,2.000000,2.000000,0.000000,4.000000,2.000000,2.000000,0.000000,0.000000,4.000000,4.000000,4.000000,4.000000,4.000000,4.000000,0.000000,,,,,,,,,,,,,,,,,,,,,,,,,,,,
1732155911.577532,1732155911.578041,92.000000,0.000000,4313.461426,4302.436035,4316.153809,4322.692383,4287.563965,4288.846191,4345.769043,4389.487305,4311.153809,4298.077148,4458.077148,4499.230957,4350.512695,4399.102539,1728.000000,1.000000,30.000000,,,,0.000000,2.000000,2.000000,0.000000,4.000000,2.000000,2.000000,0.000000,0.000000,4.000000,4.000000,4.000000,4.000000,4.000000,4.000000,0.000000,,,,,,,,,,,,,,,,,23.000000,0.000000,0.669687,-0.071289,-0.717529,-0.177734,0.958125,0.170431,-0.042486,-66.160812,38.926823,44.997303
1732155911.585341,1732155911.585849,93.000000,0.000000,4311.794922,4304.743652,4314.743652,4322.563965,4277.436035,4287.692383,4343.589844,4392.179688,4309.102539,4296.282227,4456.282227,4495.897461,4347.436035,4397.692383,1705.000000,1.000000,30.000000,,,,0.000000,2.000000,2.000000,0.000000,4.000000,2.000000,2.000000,0.000000,0.000000,4.000000,4.000000,4.000000,4.000000,4.000000,4.000000,0.000000,,,,,,,,,,,,,,,,,,,,,,,,,,,,
1732155911.593149,1732155911.593857,94.000000,0.000000,4310.769043,4301.025879,4311.794922,4321.025879,4291.666504,4281.410156,4340.769043,4391.666504,4302.307617,4293.461426,4452.051270,4492.948730,4347.307617,4396.666504,1546.000000,1.000000,30.000000,,,,0.000000,2.000000,2.000000,0.000000,4.000000,2.000000,2.000000,0.000000,0.000000,4.000000,4.000000,4.000000,4.000000,4.000000,4.000000,0.000000,,,,,,,,,,,,,,,,,,,,,,,,,,,,
1732155911.600957,1732155911.601665,95.000000,0.000000,4308.589844,4300.000000,4312.179688,4322.307617,4296.282227,4282.820313,4344.358887,4391.282227,4303.077148,4293.333496,4454.871582,4491.666504,4349.743652,4397.307617,1583.000000,1.000000,30.000000,,,,0.000000,2.000000,2.000000,0.000000,4.000000,2.000000,2.000000,0.000000,0.000000,4.000000,4.000000,4.000000,4.000000,4.000000,4.000000,0.000000,,,,,,,,,,,,,,,,,,,,,,,,,,,,
1732155911.608765,1732155911.609373,96.000000,0.000000,4302.307617,4298.077148,4316.153809,4318.589844,4294.230957,4285.769043,4348.589844,4395.000000,4302.179688,4288.461426,4452.692383,4489.871582,4346.666504,4396.153809,1728.000000,1.000000,30.000000,,,,0.000000,2.000000,2.000000,0.000000,4.000000,2.000000,2.000000,0.000000,0.000000,4.000000,4.000000,4.000000,4.000000,4.000000,4.000000,0.000000,,,,,,,,,,,,,,,,,24.000000,0.000000,0.670870,-0.071960,-0.716492,-0.177185,0.972287,0.157734,-0.040532,-66.163589,38.949059,45.049480
1732155911.616573,1732155911.617181,97.000000,0.000000,4303.077148,4295.384766,4318.205078,4313.333496,4306.282227,4280.384766,4344.615234,4393.974121,4293.974121,4281.666504,4443.974121,4489.615234,4341.025879,4394.230957,1705.000000,1.000000,30.000000,,,,0.000000,2.000000,2.000000,0.000000,4.000000,2.000000,2.000000,0.000000,0.000000,4.000000,4.000000,4.000000,4.000000,4.000000,4.000000,0.000000,,,,,,,,,,,,,,,,,,,,,,,,,,,,
1732155911.624382,1732155911.625189,98.000000,0.000000,4311.538574,4299.358887,4320.512695,4317.563965,4303.461426,4278.461426,4342.051270,4391.153809,4294.871582,4286.025879,4444.230957,4490.128418,4340.897461,4396.666504,1546.000000,1.000000,30.000000,,,,0.000000,2.000000,2.000000,0.000000,4.000000,2.000000,2.000000,0.000000,0.000000,4.000000,4.000000,4.000000,4.000000,4.000000,4.000000,0.000000,,,,,,,,,,,,,,,,,,,,,,,,,,,,
1732155911.632190,1732155911.632998,99.000000,0.000000,4313.461426,4301.922852,4317.948730,4323.077148,4286.153809,4284.871582,4344.615234,4390.897461,4300.897461,4288.717773,4448.589844,4490.512695,4341.666504,4398.461426,1583.000000,1.000000,30.000000,,,,0.000000,2.000000,2.000000,0.000000,4.000000,2.000000,2.000000,0.000000,0.000000,4.000000,4.000000,4.000000,4.000000,4.000000,4.000000,0.000000,,,,,,,,,,,,,,,,,,,,,,,,,,,,
1732155911.639998,1732155911.640906,100.000000,0.000000,4310.000000,4297.692383,4316.922852,4320.256348,4284.615234,4287.051270,4346.794922,4390.512695,4299.487305,4283.589844,4445.769043,4488.589844,4342.436035,4397.436035,1728.000000,1.000000,30.000000,,,,0.000000,2.000000,2.000000,0.000000,4.000000,2.000000,2.000000,0.000000,0.000000,4.000000,4.000000,4.000000,4.000000,4.000000,4.000000,0.000000,,,,,,,,,,,,,,,,,25.000000,0.000000,0.671299,-0.071899,-0.716187,-0.176819,0.972287,0.157734,-0.036137,-65.999176,38.917072,44.925079
1732155911.647807,1732155911.648714,101.000000,0.000000,4310.641113,4298.717773,4318.333496,4319.615234,4296.538574,4283.077148,4344.871582,4389.487305,4300.897461,4284.487305,4448.077148,4488.974121,4346.153809,4397.307617,1705.000000,1.000000,30.000000,,,,0.000000,2.000000,2.000000,0.000000,4.000000,2.000000,2.000000,0.000000,0.000000,4.000000,4.000000,4.000000,4.000000,4.000000,4.000000,0.000000,,,,,,,,,,,,,,,,,,,,,,,,,,,,
1732155911.655615,1732155911.656722,102.000000,0.000000,4313.205078,4302.307617,4317.948730,4321.538574,4299.615234,4281.794922,4343.077148,4390.256348,4304.743652,4288.846191,4451.025879,4489.743652,4346.922852,4398.461426,1546.000000,1.000000,30.000000,,,,0.000000,2.000000,2.000000,0.000000,4.000000,2.000000,2.000000,0.000000,0.000000,4.000000,4.000000,4.000000,4.000000,4.000000,4.000000,0.000000,,,,,,,,,,,,,,,,,,,,,,,,,,,,
1732155911.663423,1732155911.664530,103.000000,0.000000,4312.820313,4298.333496,4311.666504,4320.512695,4298.077148,4282.563965,4345.000000,4391.282227,4301.794922,4286.922852,4446.153809,4490.641113,4344.102539,4400.000000,1583.000000,1.000000,30.000000,,,,0.000000,2.000000,2.000000,0.000000,4.000000,2.000000,2.000000,0.000000,0.000000,4.000000,4.000000,4.000000,4.000000,4.000000,4.000000,0.000000,,,,,,,,,,,,,,,,,,,,,,,,,,,,
1732155911.671231,1732155911.672438,104.000000,0.000000,4308.461426,4290.128418,4312.563965,4315.897461,4309.358887,4283.461426,4348.461426,4391.794922,4301.025879,4281.282227,4442.179688,4490.512695,4339.615234,4396.153809,1728.000000,1.000000,30.000000,,,,0.000000,2.000000,2.000000,0.000000,4.000000,2.000000,2.000000,0.000000,0.000000,4.000000,4.000000,4.000000,4.000000,4.000000,4.000000,0.000000,,,,,,,,,,,,,,,,,26.000000,0.000000,0.671484,-0.071838,-0.716064,-0.176636,0.969845,0.130875,-0.037114,-66.189331,39.249493,44.749313
1732155911.679039,1732155911.680246,105.000000,0.000000,4306.025879,4289.743652,4312.563965,4311.794922,4316.282227,4289.230957,4345.897461,4391.666504,4305.512695,4282.692383,4443.077148,4490.128418,4339.743652,4390.897461,1705.000000,1.000000,30.000000,,,,0.000000,2.000000,2.000000,0.000000,4.000000,2.000000,2.000000,0.000000,0.000000,4.000000,4.000000,4.000000,4.000000,4.000000,4.000000,0.000000,,,,,,,,,,,,,,,,,,,,,,,,,,,,
1732155911.686848,1732155911.688254,106.000000,0.000000,4308.205078,4294.871582,4313.333496,4313.717773,4301.410156,4291.282227,4343.846191,4389.743652,4306.282227,4289.102539,4448.589844,4491.025879,4345.128418,4393.205078,1546.000000,1.000000,30.000000,,,,0.000000,2.000000,2.000000,0.000000,4.000000,2.000000,2.000000,0.000000,0.000000,4.000000,4.000000,4.000000,4.000000,4.000000,4.000000,0.000000,,,,,,,,,,,,,,,,,,,,,,,,,,,,
1732155911.694656,1732155911.696063,107.000000,0.000000,4308.077148,4297.307617,4316.922852,4319.871582,4288.717773,4284.230957,4345.384766,4389.743652,4306.666504,4292.307617,4454.871582,4491.153809,4348.077148,4398.717773,1583.000000,1.000000,30.000000,,,,0.000000,2.000000,2.000000,0.000000,4.000000,2.000000,2.000000,0.000000,0.000000,4.000000,4.000000,4.000000,4.000000,4.000000,4.000000,0.000000,,,,,,,,,,,,,,,,,,,,,,,,,,,,
1732155911.702464,1732155911.703971,108.000000,0.000000,4306.666504,4300.128418,4318.205078,4321.410156,4298.333496,4281.025879,4345.000000,4391.538574,4310.769043,4294.230957,4457.692383,4492.179688,4348.717773,4398.333496,1728.000000,1.000000,30.000000,,,,0.000000,2.000000,2.000000,0.000000,4.000000,2.000000,2.000000,0.000000,0.000000,4.000000,4.000000,4.000000,4.000000,4.000000,4.000000,0.000000,,,,,,,,,,,,,,,,,27.000000,0.000000,0.671988,-0.072144,-0.715576,-0.176575,0.963985,0.133317,-0.032230,-66.185028,39.360424,44.860279
1732155911.710272,1732155911.711779,109.000000,0.000000,4308.717773,4301.410156,4314.487305,4319.487305,4307.692383,4285.384766,4344.358887,4392.307617,4311.153809,4295.000000,4458.077148,4492.820313,4350.512695,4397.563965,1705.000000,1.000000,30.000000,,,,0.000000,2.000000,2.000000,0.000000,4.000000,2.000000,2.000000,0.000000,0.000000,4.000000,4.000000,4.000000,4.000000,4.000000,4.000000,0.000000,,,,,,,,,,,,,,,,,,,,,,,,,,,,
1732155911.718081,1732155911.719387,110.000000,0.000000,4307.692383,4299.358887,4314.615234,4319.358887,4303.974121,4285.384766,4343.333496,4392.820313,4309.230957,4294.102539,4456.153809,4492.051270,4348.333496,4398.846191,1546.000000,1.000000,30.000000,,,,0.000000,2.000000,2.000000,0.000000,4.000000,2.000000,2.000000,0.000000,0.000000,4.000000,4.000000,4.000000,4.000000,4.000000,4.000000,0.000000,,,,,,,,,,,,,,,,,,,,,,,,,,,,
1732155911.725889,1732155911.727196,111.000000,0.000000,4304.358887,4296.025879,4316.282227,4316.153809,4300.128418,4280.897461,4341.922852,4391.922852,4309.358887,4291.794922,4454.102539,4492.179688,4345.000000,4398.974121,1583.000000,1.000000,30.000000,,,,0.000000,2.000000,2.000000,0.000000,4.000000,2.000000,2.000000,0.000000,0.000000,4.000000,4.000000,4.000000,4.000000,4.000000,4.000000,0.000000,,,,,,,,,,,,,,,,,,,,,,,,,,,,
1732155911.733697,1732155911.734904,112.000000,0.000000,4303.589844,4295.897461,4315.128418,4312.436035,4308.205078,4279.871582,4342.692383,4388.589844,4311.410156,4291.410156,4454.871582,4491.282227,4348.205078,4399.743652,1728.000000,1.000000,30.000000,,,,0.000000,2.000000,2.000000,0.000000,4.000000,2.000000,2.000000,0.000000,0.000000,4.000000,4.000000,4.000000,4.000000,4.000000,4.000000,0.000000,,,,,,,,,,,,,,,,,28.000000,0.000000,0.672453,-0.073120,-0.714844,-0.177368,0.967403,0.145526,-0.026370,-66.164871,39.213608,44.755157
1732155911.741505,1732155911.742712,113.000000,0.000000,4305.512695,4296.153809,4315.128418,4312.692383,4318.077148,4276.410156,4343.461426,4388.846191,4311.666504,4295.641113,4455.641113,4489.102539,4350.641113,4399.358887,1705.000000,1.000000,30.000000,,,,0.000000,2.000000,2.000000,0.000000,4.000000,2.000000,2.000000,0.000000,0.000000,4.000000,4.000000,4.000000,4.000000,4.000000,4.000000,0.000000,,,,,,,,,,,,,,,,,,,,,,,,,,,,
1732155911.749313,1732155911.750320,114.000000,0.000000,4307.563965,4295.256348,4314.615234,4312.692383,4305.128418,4274.358887,4344.102539,4390.512695,4311.410156,4300.512695,4453.974121,4489.102539,4348.974121,4397.179688,1546.000000,1.000000,30.000000,,,,0.000000,2.000000,2.000000,0.000000,4.000000,2.000000,2.000000,0.000000,0.000000,4.000000,4.000000,4.000000,4.000000,4.000000,4.000000,0.000000,,,,,,,,,,,,,,,,,,,,,,,,,,,,
1732155911.757122,1732155911.758129,115.000000,0.000000,4309.358887,4296.666504,4314.615234,4313.077148,4281.025879,4278.333496,4344.871582,4390.641113,4311.538574,4300.000000,4455.769043,4491.538574,4350.256348,4397.948730,1583.000000,1.000000,30.000000,,,,0.000000,2.000000,2.000000,0.000000,4.000000,2.000000,2.000000,0.000000,0.000000,4.000000,4.000000,4.000000,4.000000,4.000000,4.000000,0.000000,,,,,,,,,,,,,,,,,,,,,,,,,,,,
1732155911.764930,1732155911.765837,116.000000,0.000000,4308.846191,4296.153809,4313.974121,4312.820313,4289.102539,4280.128418,4343.589844,4391.282227,4312.307617,4299.871582,4456.666504,4491.410156,4351.410156,4399.487305,1728.000000,1.000000,30.000000,,,,0.000000,2.000000,2.000000,0.000000,4.000000,2.000000,2.000000,0.000000,0.000000,4.000000,4.000000,4.000000,4.000000,4.000000,4.000000,0.000000,,,,,,,,,,,,,,,,,29.000000,0.000000,0.672526,-0.073792,-0.714539,-0.178040,0.964962,0.162618,-0.025394,-66.166878,39.234692,44.855011
1732155911.772738,1732155911.773645,117.000000,0.000000,4305.384766,4292.436035,4317.436035,4308.333496,4310.512695,4280.128418,4344.102539,4392.179688,4312.051270,4302.307617,4451.666504,4489.358887,4346.794922,4397.307617,1705.000000,1.000000,30.000000,,,,0.000000,2.000000,2.000000,0.000000,4.000000,2.000000,2.000000,0.000000,0.000000,4.000000,4.000000,4.000000,4.000000,4.000000,4.000000,0.000000,,,,,,,,,,,,,,,,,,,,,,,,,,,,
1732155911.780547,1732155911.781254,118.000000,0.000000,4301.922852,4288.846191,4315.641113,4307.051270,4300.256348,4284.230957,4343.974121,4391.794922,4310.641113,4299.487305,4450.128418,4489.230957,4344.487305,4395.512695,1546.000000,1.000000,30.000000,,,,0.000000,2.000000,2.000000,0.000000,4.000000,2.000000,2.000000,0.000000,0.000000,4.000000,4.000000,4.000000,4.000000,4.000000,4.000000,0.000000,,,,,,,,,,,,,,,,,,,,,,,,,,,,
1732155911.788355,1732155911.789062,119.000000,0.000000,4301.538574,4288.846191,4313.717773,4308.846191,4282.051270,4283.333496,4341.282227,4391.282227,4311.794922,4297.179688,4450.128418,4491.538574,4347.820313,4395.128418,1583.000000,1.000000,30.000000,,,,0.000000,2.000000,2.000000,0.000000,4.000000,2.000000,2.000000,0.000000,0.000000,4.000000,4.000000,4.000000,4.000000,4.000000,4.000000,0.000000,,,,,,,,,,,,,,,,,,,,,,,,,,,,
1732155911.796163,1732155911.796970,120.000000,0.000000,4303.717773,4291.153809,4313.333496,4307.436035,4287.948730,4278.974121,4340.256348,4389.615234,4314.230957,4302.948730,4451.025879,4488.589844,4346.410156,4393.077148,1728.000000,1.000000,30.000000,,,,0.000000,2.000000,2.000000,0.000000,4.000000,2.000000,2.000000,0.000000,0.000000,4.000000,4.000000,4.000000,4.000000,4.000000,4.000000,0.000000,,,,,,,,,,,,,,,,,30.000000,0.000000,0.672684,-0.073975,-0.714355,-0.178101,0.968380,0.162618,-0.022464,-66.198502,39.221767,45.040894
1732155911.803971,1732155911.804779,121.000000,0.000000,4302.179688,4288.077148,4315.769043,4303.589844,4295.897461,4278.974121,4343.205078,4389.615234,4313.333496,4302.692383,4452.436035,4480.897461,4341.025879,4387.563965,1705.000000,1.000000,30.000000,,,,0.000000,2.000000,2.000000,0.000000,4.000000,2.000000,2.000000,0.000000,0.000000,4.000000,4.000000,4.000000,4.000000,4.000000,4.000000,0.000000,,,,,,,,,,,,,,,,,,,,,,,,,,,,
1732155911.811779,1732155911.812787,122.000000,0.000000,4298.205078,4281.666504,4313.205078,4303.333496,4293.461426,4280.769043,4342.179688,4392.179688,4314.487305,4297.948730,4448.717773,4478.333496,4342.692383,4384.487305,1546.000000,1.000000,30.000000,,,,0.000000,2.000000,2.000000,0.000000,4.000000,2.000000,2.000000,0.000000,0.000000,4.000000,4.000000,4.000000,4.000000,4.000000,4.000000,0.000000,,,,,,,,,,,,,,,,,,,,,,,,,,,,
1732155911.819588,1732155911.820595,123.000000,0.000000,4298.974121,4282.948730,4313.589844,4303.205078,4293.333496,4280.512695,4341.666504,4391.282227,4315.256348,4299.102539,4446.666504,4483.461426,4345.512695,4388.205078,1583.000000,1.000000,30.000000,,,,0.000000,2.000000,2.000000,0.000000,4.000000,2.000000,2.000000,0.000000,0.000000,4.000000,4.000000,4.000000,4.000000,4.000000,4.000000,0.000000,,,,,,,,,,,,,,,,,,,,,,,,,,,,
1732155911.827396,1732155911.828303,124.000000,0.000000,4302.051270,4292.307617,4314.102539,4305.000000,4296.410156,4280.897461,4343.589844,4389.615234,4312.692383,4298.333496,4444.615234,4481.922852,4343.589844,4390.128418,1728.000000,1.000000,30.000000,,,,0.000000,2.000000,2.000000,0.000000,4.000000,2.000000,2.000000,0.000000,0.000000,4.000000,4.000000,4.000000,4.000000,4.000000,4.000000,0.000000,,,,,,,,,,,,,,,,,31.000000,0.000000,0.673113,-0.075073,-0.713806,-0.178223,0.976682,0.145037,-0.025882,-66.314125,39.007965,44.999790
1732155911.835204,1732155911.836111,125.000000,0.000000,4299.743652,4291.153809,4316.025879,4305.128418,4303.205078,4280.769043,4344.358887,4391.538574,4310.641113,4295.256348,4443.717773,4478.717773,4345.384766,4387.307617,1705.000000,1.000000,30.000000,,,,0.000000,2.000000,2.000000,0.000000,4.000000,2.000000,2.000000,0.000000,0.000000,4.000000,4.000000,4.000000,4.000000,4.000000,4.000000,0.000000,,,,,,,,,,,,,,,,,,,,,,,,,,,,
1732155911.843012,1732155911.843720,126.000000,0.000000,4298.589844,4286.153809,4317.563965,4303.333496,4308.846191,4279.230957,4343.461426,4392.692383,4312.563965,4297.820313,4450.256348,4485.256348,4349.487305,4390.000000,1546.000000,1.000000,30.000000,,,,0.000000,2.000000,2.000000,0.000000,4.000000,2.000000,2.000000,0.000000,0.000000,4.000000,4.000000,4.000000,4.000000,4.000000,4.000000,0.000000,,,,,,,,,,,,,,,,,,,,,,,,,,,,
1732155911.850821,1732155911.851528,127.000000,0.000000,4301.794922,4290.769043,4317.436035,4306.410156,4292.948730,4280.769043,4342.307617,4391.410156,4314.358887,4301.282227,4457.051270,4489.615234,4347.948730,4397.051270,30.000000,1.000000,30.000000,,,,0.000000,2.000000,2.000000,0.000000,4.000000,2.000000,2.000000,0.000000,0.000000,4.000000,4.000000,4.000000,4.000000,4.000000,4.000000,0.000000,,,,,,,,,,,,,,,,,,,,,,,,,,,,
1732155911.858629,1732155911.859236,0.000000,0.000000,4299.743652,4288.717773,4317.436035,4305.384766,4275.897461,4283.333496,4343.077148,4392.179688,4311.410156,4296.794922,4449.358887,4484.358887,4343.846191,4395.384766,0.000000,1.000000,30.000000,,,,0.000000,2.000000,2.000000,0.000000,4.000000,2.000000,2.000000,0.000000,0.000000,4.000000,4.000000,4.000000,4.000000,4.000000,4.000000,0.000000,,,,,,,,,,,,,,,,,0.000000,0.000000,0.673317,-0.075562,-0.713623,-0.177979,0.960078,0.150409,-0.023440,-66.486107,38.956451,44.818165
1732155911.866437,1732155911.867044,1.000000,0.000000,4295.512695,4278.717773,4316.153809,4300.769043,4291.282227,4278.974121,4343.205078,4391.922852,4308.846191,4292.307617,4442.051270,4480.512695,4341.666504,4388.846191,1616.000000,1.000000,30.000000,,,,0.000000,2.000000,2.000000,0.000000,4.000000,2.000000,2.000000,0.000000,0.000000,4.000000,4.000000,4.000000,4.000000,4.000000,4.000000,0.000000,,,,,,,,,,,,,,,,,,,,,,,,,,,,
1732155911.874245,1732155911.875052,2.000000,0.000000,4298.077148,4280.641113,4316.666504,4301.538574,4307.307617,4277.307617,4342.563965,4390.512695,4310.512695,4292.436035,4446.153809,4484.871582,4341.153809,4387.692383,1431.000000,1.000000,30.000000,,,,0.000000,2.000000,2.000000,0.000000,4.000000,2.000000,2.000000,0.000000,0.000000,4.000000,4.000000,4.000000,4.000000,4.000000,4.000000,0.000000,,,,,,,,,,,,,,,,,,,,,,,,,,,,
1732155911.882054,1732155911.882860,3.000000,0.000000,4300.512695,4288.974121,4317.051270,4303.461426,4292.820313,4284.230957,4343.974121,4390.769043,4312.820313,4293.589844,4447.820313,4488.333496,4340.384766,4389.487305,1436.000000,1.000000,30.000000,,,,0.000000,2.000000,2.000000,0.000000,4.000000,2.000000,2.000000,0.000000,0.000000,4.000000,4.000000,4.000000,4.000000,4.000000,4.000000,0.000000,,,,,,,,,,,,,,,,,,,,,,,,,,,,
1732155911.889862,1732155911.890768,4.000000,0.000000,4298.717773,4284.487305,4317.436035,4300.769043,4278.205078,4289.487305,4347.436035,4392.307617,4313.461426,4293.461426,4445.128418,4488.461426,4339.358887,4387.692383,1407.000000,1.000000,30.000000,,,,0.000000,2.000000,2.000000,0.000000,4.000000,2.000000,2.000000,0.000000,0.000000,4.000000,4.000000,4.000000,4.000000,4.000000,4.000000,0.000000,,,,,,,,,,,,,,,,,1.000000,0.000000,0.673317,-0.075562,-0.713623,-0.177979,0.948846,0.156269,-0.024905,-66.595413,38.989723,44.821045
1732155911.897670,1732155911.898577,5.000000,0.000000,4302.179688,4278.333496,4316.153809,4302.307617,4289.102539,4287.436035,4345.384766,4392.307617,4312.307617,4292.820313,4443.077148,4484.487305,4338.589844,4383.461426,1259.000000,1.000000,30.000000,,,,0.000000,2.000000,2.000000,0.000000,4.000000,2.000000,2.000000,0.000000,0.000000,4.000000,4.000000,4.000000,4.000000,4.000000,4.000000,0.000000,,,,,,,,,,,,,,,,,,,,,,,,,,,,
1732155911.905478,1732155911.906585,6.000000,0.000000,4308.077148,4283.333496,4318.974121,4306.410156,4299.743652,4287.436035,4340.000000,4392.051270,4310.384766,4292.436035,4443.077148,4479.358887,4338.461426,4381.282227,0.000000,1.000000,30.000000,,,,0.000000,2.000000,2.000000,0.000000,4.000000,2.000000,2.000000,0.000000,0.000000,4.000000,4.000000,4.000000,4.000000,4.000000,4.000000,0.000000,,,,,,,,,,,,,,,,,,,,,,,,,,,,
1732155911.913287,1732155911.914393,7.000000,0.000000,4306.282227,4285.128418,4316.538574,4306.153809,4292.307617,4290.769043,4338.974121,4392.692383,4310.512695,4293.717773,4444.487305,4485.128418,4336.794922,4382.436035,0.000000,1.000000,30.000000,,,,0.000000,2.000000,2.000000,0.000000,4.000000,2.000000,2.000000,0.000000,0.000000,4.000000,4.000000,4.000000,4.000000,4.000000,4.000000,0.000000,,,,,,,,,,,,,,,,,,,,,,,,,,,,
1732155911.921095,1732155911.922101,8.000000,0.000000,4301.025879,4279.487305,4314.615234,4305.128418,4299.102539,4288.333496,4344.230957,4391.025879,4312.563965,4292.307617,4441.153809,4491.538574,4335.384766,4385.000000,1544.000000,1.000000,30.000000,,,,0.000000,2.000000,2.000000,0.000000,4.000000,2.000000,2.000000,0.000000,0.000000,4.000000,4.000000,4.000000,4.000000,4.000000,4.000000,0.000000,,,,,,,,,,,,,,,,,2.000000,0.000000,0.673352,-0.075684,-0.713623,-0.177795,0.970822,0.152362,-0.018069,-66.538948,38.938343,44.631714
1732155911.928903,1732155911.929909,9.000000,0.000000,4302.948730,4282.692383,4313.717773,4305.384766,4316.410156,4285.128418,4343.077148,4388.717773,4310.769043,4289.230957,4438.846191,4486.025879,4337.179688,4383.974121,1705.000000,1.000000,30.000000,,,,0.000000,2.000000,2.000000,0.000000,4.000000,2.000000,2.000000,0.000000,0.000000,4.000000,4.000000,4.000000,4.000000,4.000000,4.000000,0.000000,,,,,,,,,,,,,,,,,,,,,,,,,,,,
1732155911.936711,1732155911.937517,10.000000,0.000000,4306.922852,4290.897461,4314.358887,4306.410156,4305.000000,4289.102539,4337.692383,4388.077148,4308.589844,4291.410156,4442.563965,4482.307617,4340.769043,4380.256348,1544.000000,1.000000,30.000000,,,,0.000000,2.000000,2.000000,0.000000,4.000000,2.000000,2.000000,0.000000,0.000000,4.000000,4.000000,4.000000,4.000000,4.000000,4.000000,0.000000,,,,,,,,,,,,,,,,,,,,,,,,,,,,
1732155911.944520,1732155911.945325,11.000000,0.000000,4308.974121,4289.871582,4313.846191,4307.307617,4281.666504,4294.487305,4340.512695,4387.692383,4311.025879,4296.794922,4445.384766,4486.410156,4342.820313,4383.205078,1583.000000,1.000000,30.000000,,,,0.000000,2.000000,2.000000,0.000000,4.000000,2.000000,2.000000,0.000000,0.000000,4.000000,4.000000,4.000000,4.000000,4.000000,4.000000,0.000000,,,,,,,,,,,,,,,,,,,,,,,,,,,,
1732155911.952328,1732155911.953233,12.000000,0.000000,4307.051270,4285.384766,4313.717773,4305.769043,4282.307617,4291.666504,4343.461426,4388.333496,4311.538574,4297.051270,4443.589844,4482.692383,4341.025879,4387.820313,1728.000000,1.000000,30.000000,,,,0.000000,2.000000,2.000000,0.000000,4.000000,2.000000,2.000000,0.000000,0.000000,4.000000,4.000000,4.000000,4.000000,4.000000,4.000000,0.000000,,,,,,,,,,,,,,,,,3.000000,0.000000,0.673371,-0.075806,-0.713562,-0.177917,0.972287,0.139177,-0.030277,-66.439880,38.808392,44.465023
1732155911.960136,1732155911.961041,13.000000,0.000000,4300.384766,4282.051270,4314.230957,4299.358887,4302.179688,4288.717773,4341.794922,4389.871582,4310.769043,4293.717773,4442.563965,4480.641113,4337.563965,4383.717773,1705.000000,1.000000,30.000000,,,,0.000000,2.000000,2.000000,0.000000,4.000000,2.000000,2.000000,0.000000,0.000000,4.000000,4.000000,4.000000,4.000000,4.000000,4.000000,0.000000,,,,,,,,,,,,,,,,,,,,,,,,,,,,
1732155911.967944,1732155911.969049,14.000000,0.000000,4298.974121,4277.948730,4315.128418,4295.128418,4305.256348,4289.487305,4343.333496,4388.461426,4312.179688,4293.077148,4443.461426,4488.205078,4336.410156,4380.769043,1544.000000,1.000000,30.000000,,,,0.000000,2.000000,2.000000,0.000000,4.000000,2.000000,2.000000,0.000000,0.000000,4.000000,4.000000,4.000000,4.000000,4.000000,4.000000,0.000000,1.000000,0.000000,2.000000,2.000000,0.000000,4.000000,2.000000,2.000000,0.000000,0.000000,1.000000,4.000000,4.000000,4.000000,1.000000,4.000000,,,,,,,,,,,,
1732155911.975752,1732155911.976857,15.000000,0.000000,4307.179688,4280.000000,4314.743652,4301.025879,4286.666504,4289.743652,4345.256348,4389.102539,4312.820313,4293.461426,4445.000000,4492.051270,4338.205078,4390.641113,1583.000000,1.000000,30.000000,,,,0.000000,2.000000,2.000000,0.000000,4.000000,2.000000,2.000000,0.000000,0.000000,4.000000,4.000000,4.000000,4.000000,4.000000,4.000000,0.000000,,,,,,,,,,,,,,,,,,,,,,,,,,,,
1732155911.983561,1732155911.984766,16.000000,0.000000,4310.000000,4284.358887,4312.820313,4305.897461,4275.384766,4289.871582,4340.769043,4391.410156,4313.333496,4294.102539,4447.307617,4489.615234,4343.846191,4397.692383,0.000000,1.000000,30.000000,,,,0.000000,2.000000,2.000000,0.000000,4.000000,2.000000,2.000000,0.000000,0.000000,4.000000,4.000000,4.000000,4.000000,4.000000,4.000000,0.000000,,,,,,,,,,,,,,,,,4.000000,0.000000,0.673401,-0.075684,-0.713562,-0.177856,0.966427,0.139665,-0.021487,-66.336304,38.834797,44.261669
1732155911.991369,1732155911.992574,17.000000,0.000000,4304.615234,4285.256348,4313.974121,4303.846191,4286.282227,4288.077148,4339.743652,4389.358887,4313.333496,4297.563965,4448.461426,4490.512695,4347.307617,4395.897461,0.000000,1.000000,30.000000,,,,0.000000,2.000000,2.000000,0.000000,4.000000,2.000000,2.000000,0.000000,0.000000,4.000000,4.000000,4.000000,4.000000,4.000000,4.000000,0.000000,,,,,,,,,,,,,,,,,,,,,,,,,,,,
1732155911.999177,1732155912.000582,18.000000,0.000000,4304.615234,4284.743652,4314.102539,4303.461426,4300.000000,4287.948730,4343.717773,4386.025879,4311.025879,4295.384766,4447.563965,4489.743652,4342.948730,4391.410156,0.000000,1.000000,30.000000,,,,0.000000,2.000000,2.000000,0.000000,4.000000,2.000000,2.000000,0.000000,0.000000,4.000000,4.000000,4.000000,4.000000,4.000000,4.000000,0.000000,,,,,,,,,,,,,,,,,,,,,,,,,,,,
1732155912.006986,1732155912.008390,19.000000,0.000000,4304.230957,4284.487305,4314.102539,4305.000000,4296.410156,4291.410156,4344.871582,4388.846191,4310.128418,4287.436035,4446.794922,4488.077148,4339.358887,4390.256348,0.000000,1.000000,30.000000,,,,0.000000,2.000000,2.000000,0.000000,4.000000,2.000000,2.000000,0.000000,0.000000,4.000000,4.000000,4.000000,4.000000,4.000000,4.000000,0.000000,,,,,,,,,,,,,,,,,,,,,,,,,,,,
1732155912.014794,1732155912.016298,20.000000,0.000000,4299.871582,4286.794922,4313.461426,4304.743652,4294.230957,4293.589844,4341.538574,4391.538574,4310.128418,4288.589844,4446.538574,4491.410156,4347.179688,4391.794922,0.000000,1.000000,30.000000,,,,0.000000,2.000000,2.000000,0.000000,4.000000,2.000000,2.000000,0.000000,0.000000,4.000000,4.000000,4.000000,4.000000,4.000000,4.000000,0.000000,,,,,,,,,,,,,,,,,5.000000,0.000000,0.673417,-0.075684,-0.713562,-0.177795,0.966427,0.139665,-0.021487,-66.082405,38.897854,44.180283
1732155912.022602,1732155912.024106,21.000000,0.000000,4298.846191,4286.410156,4315.641113,4303.333496,4302.692383,4291.666504,4339.743652,4389.743652,4310.384766,4295.512695,4447.051270,4491.922852,4349.487305,4391.666504,0.000000,1.000000,30.000000,,,,0.000000,2.000000,2.000000,0.000000,4.000000,2.000000,2.000000,0.000000,0.000000,4.000000,4.000000,4.000000,4.000000,4.000000,4.000000,0.000000,,,,,,,,,,,,,,,,,,,,,,,,,,,,
1732155912.030410,1732155912.032114,22.000000,0.000000,4300.512695,4285.256348,4314.487305,4302.051270,4303.077148,4287.563965,4341.025879,4388.461426,4312.563965,4295.256348,4448.461426,4490.769043,4343.717773,4392.307617,0.000000,1.000000,30.000000,,,,0.000000,2.000000,2.000000,0.000000,4.000000,2.000000,2.000000,0.000000,0.000000,4.000000,4.000000,4.000000,4.000000,4.000000,4.000000,0.000000,,,,,,,,,,,,,,,,,,,,,,,,,,,,
1732155912.038218,1732155912.039923,23.000000,0.000000,4300.769043,4284.615234,4314.615234,4302.563965,4286.282227,4284.487305,4341.025879,4388.974121,4311.922852,4291.794922,4447.436035,4491.282227,4344.743652,4391.922852,0.000000,1.000000,30.000000,,,,0.000000,2.000000,2.000000,0.000000,4.000000,2.000000,2.000000,0.000000,0.000000,4.000000,4.000000,4.000000,4.000000,4.000000,4.000000,0.000000,,,,,,,,,,,,,,,,,,,,,,,,,,,,
1732155912.046027,1732155912.047831,24.000000,0.000000,4301.794922,4282.820313,4313.205078,4307.692383,4277.692383,4288.846191,4338.333496,4388.717773,4308.974121,4292.436035,4443.461426,4488.333496,4346.153809,4390.000000,0.000000,1.000000,30.000000,,,,0.000000,2.000000,2.000000,0.000000,4.000000,2.000000,2.000000,0.000000,0.000000,4.000000,4.000000,4.000000,4.000000,4.000000,4.000000,0.000000,,,,,,,,,,,,,,,,,6.000000,0.000000,0.673511,-0.075562,-0.713501,-0.177734,0.960078,0.146991,-0.022952,-66.015083,38.813927,44.354362
1732155912.053835,1732155912.055639,25.000000,0.000000,4301.794922,4280.641113,4314.743652,4308.205078,4296.410156,4292.820313,4341.538574,4388.461426,4305.512695,4288.846191,4441.410156,4485.769043,4339.615234,4388.974121,0.000000,1.000000,30.000000,,,,0.000000,2.000000,2.000000,0.000000,4.000000,2.000000,2.000000,0.000000,0.000000,4.000000,4.000000,4.000000,4.000000,4.000000,4.000000,0.000000,,,,,,,,,,,,,,,,,,,,,,,,,,,,
1732155912.061643,1732155912.063647,26.000000,0.000000,4297.692383,4285.384766,4316.025879,4306.025879,4308.333496,4289.102539,4346.025879,4389.230957,4302.563965,4284.871582,4441.282227,4483.333496,4338.077148,4386.410156,0.000000,1.000000,30.000000,,,,0.000000,2.000000,2.000000,0.000000,4.000000,2.000000,2.000000,0.000000,0.000000,4.000000,4.000000,4.000000,4.000000,4.000000,4.000000,0.000000,,,,,,,,,,,,,,,,,,,,,,,,,,,,
1732155912.069451,1732155912.071455,27.000000,0.000000,4296.794922,4288.717773,4315.897461,4309.102539,4289.102539,4288.461426,4342.563965,4389.230957,4303.461426,4289.230957,4441.282227,4481.153809,4342.563965,4384.230957,0.000000,1.000000,30.000000,,,,0.000000,2.000000,2.000000,0.000000,4.000000,2.000000,2.000000,0.000000,0.000000,4.000000,4.000000,4.000000,4.000000,4.000000,4.000000,0.000000,,,,,,,,,,,,,,,,,,,,,,,,,,,,
1732155912.077260,1732155912.079263,28.000000,0.000000,4301.025879,4284.871582,4312.692383,4312.179688,4275.897461,4294.358887,4340.256348,4389.358887,4307.948730,4293.717773,4443.717773,4484.615234,4343.846191,4390.256348,0.000000,1.000000,30.000000,,,,0.000000,2.000000,2.000000,0.000000,4.000000,2.000000,2.000000,0.000000,0.000000,4.000000,4.000000,4.000000,4.000000,4.000000,4.000000,0.000000,,,,,,,,,,,,,,,,,7.000000,0.000000,0.673387,-0.075806,-0.713562,-0.177856,0.970822,0.159687,-0.021975,-66.247215,38.640949,44.382034
1732155912.085068,1732155912.087071,29.000000,0.000000,4303.846191,4285.897461,4312.820313,4308.589844,4296.666504,4292.820313,4342.692383,4390.769043,4307.179688,4293.846191,4445.384766,4490.641113,4344.615234,4396.794922,0.000000,1.000000,30.000000,,,,0.000000,2.000000,2.000000,0.000000,4.000000,2.000000,2.000000,0.000000,0.000000,4.000000,4.000000,4.000000,4.000000,4.000000,4.000000,0.000000,,,,,,,,,,,,,,,,,,,,,,,,,,,,
1732155912.092876,1732155912.094680,30.000000,0.000000,4300.000000,4284.230957,4314.871582,4302.563965,4305.256348,4283.846191,4341.410156,4391.025879,4307.307617,4291.153809,4445.384766,4488.717773,4345.256348,4392.307617,0.000000,1.000000,30.000000,,,,0.000000,2.000000,2.000000,0.000000,4.000000,2.000000,2.000000,0.000000,0.000000,4.000000,4.000000,4.000000,4.000000,4.000000,4.000000,0.000000,,,,,,,,,,,,,,,,,,,,,,,,,,,,
1732155912.100684,1732155912.102488,31.000000,0.000000,4297.948730,4278.846191,4314.102539,4302.692383,4282.179688,4284.871582,4338.846191,4390.256348,4313.846191,4291.922852,4446.282227,4487.692383,4346.282227,4391.922852,0.000000,1.000000,30.000000,,,,0.000000,2.000000,2.000000,0.000000,4.000000,2.000000,2.000000,0.000000,0.000000,4.000000,4.000000,4.000000,4.000000,4.000000,4.000000,0.000000,,,,,,,,,,,,,,,,,,,,,,,,,,,,
1732155912.108492,1732155912.110196,32.000000,0.000000,4300.641113,4279.615234,4313.846191,4303.717773,4273.333496,4294.358887,4343.461426,4391.410156,4316.282227,4297.563965,4451.410156,4493.717773,4351.153809,4397.563965,0.000000,1.000000,30.000000,,,,0.000000,2.000000,2.000000,0.000000,4.000000,2.000000,2.000000,0.000000,0.000000,4.000000,4.000000,4.000000,4.000000,4.000000,4.000000,0.000000,,,,,,,,,,,,,,,,,8.000000,0.000000,0.673343,-0.076050,-0.713562,-0.177917,0.970822,0.159687,-0.021975,-66.203583,38.675835,44.371113
1732155912.116301,1732155912.118005,33.000000,0.000000,4302.692383,4281.025879,4314.102539,4301.538574,4290.384766,4296.025879,4344.615234,4389.743652,4312.563965,4300.769043,4456.538574,4493.717773,4354.230957,4398.717773,0.000000,1.000000,30.000000,,,,0.000000,2.000000,2.000000,0.000000,4.000000,2.000000,2.000000,0.000000,0.000000,4.000000,4.000000,4.000000,4.000000,4.000000,4.000000,0.000000,,,,,,,,,,,,,,,,,,,,,,,,,,,,
1732155912.124109,1732155912.125613,34.000000,0.000000,4299.230957,4275.897461,4315.000000,4298.717773,4303.461426,4288.846191,4339.871582,4388.974121,4311.794922,4293.077148,4452.051270,4489.871582,4351.666504,4396.153809,0.000000,1.000000,30.000000,,,,0.000000,2.000000,2.000000,0.000000,4.000000,2.000000,2.000000,0.000000,0.000000,4.000000,4.000000,4.000000,4.000000,4.000000,4.000000,0.000000,,,,,,,,,,,,,,,,,,,,,,,,,,,,
1732155912.131917,1732155912.133421,35.000000,0.000000,4295.384766,4274.615234,4312.692383,4298.205078,4299.102539,4288.589844,4338.461426,4390.512695,4316.538574,4288.205078,4445.256348,4489.615234,4349.102539,4394.871582,0.000000,1.000000,30.000000,,,,0.000000,2.000000,2.000000,0.000000,4.000000,2.000000,2.000000,0.000000,0.000000,4.000000,4.000000,4.000000,4.000000,4.000000,4.000000,0.000000,,,,,,,,,,,,,,,,,,,,,,,,,,,,
1732155912.139726,1732155912.141130,36.000000,0.000000,4295.256348,4277.563965,4315.512695,4299.615234,4287.820313,4294.743652,4341.282227,4390.769043,4315.128418,4293.589844,4448.205078,4491.025879,4348.846191,4395.769043,0.000000,1.000000,30.000000,,,,0.000000,2.000000,2.000000,0.000000,4.000000,2.000000,2.000000,0.000000,0.000000,4.000000,4.000000,4.000000,4.000000,4.000000,4.000000,0.000000,,,,,,,,,,,,,,,,,9.000000,0.000000,0.673178,-0.076782,-0.713867,-0.177002,0.964962,0.149432,-0.034672,-66.313232,38.742424,44.392269
1732155912.147534,1732155912.148938,37.000000,0.000000,4296.410156,4275.769043,4315.641113,4300.897461,4287.051270,4300.897461,4343.589844,4391.153809,4311.282227,4295.256348,4451.538574,4491.538574,4347.436035,4397.051270,0.000000,1.000000,30.000000,,,,0.000000,2.000000,2.000000,0.000000,4.000000,2.000000,2.000000,0.000000,0.000000,4.000000,4.000000,4.000000,4.000000,4.000000,4.000000,0.000000,,,,,,,,,,,,,,,,,,,,,,,,,,,,
1732155912.155342,1732155912.156546,38.000000,0.000000,4296.025879,4274.615234,4315.897461,4300.769043,4290.769043,4300.897461,4344.743652,4392.179688,4313.589844,4290.641113,4447.948730,4491.410156,4345.256348,4397.179688,0.000000,1.000000,30.000000,,,,0.000000,2.000000,2.000000,0.000000,4.000000,2.000000,2.000000,0.000000,0.000000,4.000000,4.000000,4.000000,4.000000,4.000000,4.000000,0.000000,,,,,,,,,,,,,,,,,,,,,,,,,,,,
1732155912.163150,1732155912.164354,39.000000,0.000000,4295.256348,4276.025879,4315.512695,4299.743652,4297.563965,4294.615234,4341.922852,4389.871582,4313.974121,4291.410156,4447.436035,4491.025879,4345.128418,4395.512695,0.000000,1.000000,30.000000,,,,0.000000,2.000000,2.000000,0.000000,4.000000,2.000000,2.000000,0.000000,0.000000,4.000000,4.000000,4.000000,4.000000,4.000000,4.000000,0.000000,,,,,,,,,,,,,,,,,,,,,,,,,,,,
1732155912.170959,1732155912.172063,40.000000,0.000000,4295.769043,4275.256348,4316.922852,4298.205078,4304.743652,4294.358887,4339.743652,4389.615234,4311.282227,4295.384766,4448.974121,4491.794922,4344.358887,4395.512695,0.000000,1.000000,30.000000,,,,0.000000,2.000000,2.000000,0.000000,4.000000,2.000000,2.000000,0.000000,0.000000,4.000000,4.000000,4.000000,4.000000,4.000000,4.000000,0.000000,,,,,,,,,,,,,,,,,10.000000,0.000000,0.673261,-0.077026,-0.713928,-0.176331,0.960078,0.139665,-0.025882,-66.285385,38.663033,44.476070
1732155912.178767,1732155912.179871,41.000000,0.000000,4296.410156,4277.307617,4315.512695,4298.461426,4293.589844,4298.589844,4341.025879,4393.205078,4313.333496,4297.179688,4450.641113,4495.641113,4344.743652,4397.563965,0.000000,1.000000,30.000000,,,,0.000000,2.000000,2.000000,0.000000,4.000000,2.000000,2.000000,0.000000,0.000000,4.000000,4.000000,4.000000,4.000000,4.000000,4.000000,0.000000,,,,,,,,,,,,,,,,,,,,,,,,,,,,
1732155912.186575,1732155912.187479,42.000000,0.000000,4296.666504,4280.897461,4314.615234,4302.948730,4271.794922,4295.512695,4340.512695,4391.410156,4316.538574,4298.461426,4451.794922,4496.666504,4348.846191,4399.102539,0.000000,1.000000,30.000000,,,,0.000000,2.000000,2.000000,0.000000,4.000000,2.000000,2.000000,0.000000,0.000000,4.000000,4.000000,4.000000,4.000000,4.000000,4.000000,0.000000,,,,,,,,,,,,,,,,,,,,,,,,,,,,
1732155912.194383,1732155912.195288,43.000000,0.000000,4297.179688,4278.333496,4313.846191,4305.512695,4283.333496,4289.487305,4337.948730,4388.846191,4314.102539,4297.051270,4448.077148,4492.820313,4347.820313,4397.179688,0.000000,1.000000,30.000000,,,,0.000000,2.000000,2.000000,0.000000,4.000000,2.000000,2.000000,0.000000,0.000000,4.000000,4.000000,4.000000,4.000000,4.000000,4.000000,0.000000,,,,,,,,,,,,,,,,,,,,,,,,,,,,
1732155912.202191,1732155912.202996,44.000000,0.000000,4294.871582,4275.897461,4314.615234,4302.563965,4306.794922,4291.410156,4342.179688,4389.871582,4312.563965,4294.230957,4443.205078,4489.871582,4341.282227,4393.974121,0.000000,1.000000,30.000000,,,,0.000000,2.000000,2.000000,0.000000,4.000000,2.000000,2.000000,0.000000,0.000000,4.000000,4.000000,4.000000,4.000000,4.000000,4.000000,0.000000,,,,,,,,,,,,,,,,,11.000000,0.000000,0.673263,-0.077148,-0.713989,-0.176025,0.978147,0.146991,-0.033207,-66.167831,38.885387,44.702286
1732155912.210000,1732155912.210804,45.000000,0.000000,4296.025879,4279.230957,4314.615234,4301.666504,4293.205078,4296.794922,4345.512695,4389.102539,4314.871582,4294.615234,4445.897461,4491.666504,4342.692383,4394.358887,0.000000,1.000000,30.000000,,,,0.000000,2.000000,2.000000,0.000000,4.000000,2.000000,2.000000,0.000000,0.000000,4.000000,4.000000,4.000000,4.000000,4.000000,4.000000,0.000000,,,,,,,,,,,,,,,,,,,,,,,,,,,,
1732155912.217808,1732155912.218412,46.000000,0.000000,4300.897461,4282.563965,4313.333496,4304.743652,4273.974121,4298.846191,4341.410156,4388.589844,4314.743652,4298.333496,4453.589844,4494.615234,4351.025879,4398.205078,0.000000,1.000000,30.000000,,,,0.000000,2.000000,2.000000,0.000000,4.000000,2.000000,2.000000,0.000000,0.000000,4.000000,4.000000,4.000000,4.000000,4.000000,4.000000,0.000000,,,,,,,,,,,,,,,,,,,,,,,,,,,,
1732155912.225616,1732155912.226221,47.000000,0.000000,4299.358887,4282.436035,4314.102539,4305.512695,4283.333496,4297.820313,4338.589844,4390.384766,4313.717773,4297.692383,4457.563965,4494.102539,4352.436035,4399.230957,0.000000,1.000000,30.000000,,,,0.000000,2.000000,2.000000,0.000000,4.000000,2.000000,2.000000,0.000000,0.000000,4.000000,4.000000,4.000000,4.000000,4.000000,4.000000,0.000000,,,,,,,,,,,,,,,,,,,,,,,,,,,,
1732155912.233425,1732155912.233929,48.000000,0.000000,4296.666504,4282.436035,4315.384766,4305.000000,4290.128418,4297.436035,4340.256348,4389.102539,4314.743652,4295.641113,4456.410156,4493.333496,4350.512695,4398.589844,0.000000,1.000000,30.000000,,,,0.000000,2.000000,2.000000,0.000000,4.000000,2.000000,2.000000,0.000000,0.000000,4.000000,4.000000,4.000000,4.000000,4.000000,4.000000,0.000000,,,,,,,,,,,,,,,,,12.000000,0.000000,0.673245,-0.077271,-0.714172,-0.175293,0.963497,0.140642,-0.033696,-66.389275,38.780499,44.853851
1732155912.241233,1732155912.241737,49.000000,0.000000,4297.563965,4280.512695,4315.769043,4302.307617,4286.794922,4297.820313,4344.358887,4389.743652,4314.615234,4295.256348,4448.846191,4494.487305,4348.589844,4398.077148,0.000000,1.000000,30.000000,,,,0.000000,2.000000,2.000000,0.000000,4.000000,2.000000,2.000000,0.000000,0.000000,4.000000,4.000000,4.000000,4.000000,4.000000,4.000000,0.000000,,,,,,,,,,,,,,,,,,,,,,,,,,,,
1732155912.249041,1732155912.249346,50.000000,0.000000,4298.333496,4278.974121,4314.358887,4299.487305,4300.641113,4295.897461,4343.205078,4392.179688,4311.025879,4294.358887,4445.256348,4492.948730,4343.333496,4397.051270,0.000000,1.000000,30.000000,,,,0.000000,2.000000,2.000000,0.000000,4.000000,2.000000,2.000000,0.000000,0.000000,4.000000,4.000000,4.000000,4.000000,4.000000,4.000000,0.000000,,,,,,,,,,,,,,,,,,,,,,,,,,,,
1732155912.256849,1732155912.257154,51.000000,0.000000,4297.307617,4278.205078,4315.769043,4300.000000,4304.871582,4293.461426,4341.538574,4392.179688,4309.102539,4294.487305,4446.666504,4492.563965,4341.153809,4396.410156,0.000000,1.000000,30.000000,,,,0.000000,2.000000,2.000000,0.000000,4.000000,2.000000,2.000000,0.000000,0.000000,4.000000,4.000000,4.000000,4.000000,4.000000,4.000000,0.000000,,,,,,,,,,,,,,,,,,,,,,,,,,,,
1732155912.264657,1732155912.264862,52.000000,0.000000,4298.974121,4277.436035,4314.871582,4302.692383,4276.922852,4295.769043,4343.589844,4391.538574,4313.461426,4295.256348,4446.410156,4497.820313,4343.974121,4397.948730,0.000000,1.000000,30.000000,,,,0.000000,2.000000,2.000000,0.000000,4.000000,2.000000,2.000000,0.000000,0.000000,4.000000,4.000000,4.000000,4.000000,4.000000,4.000000,0.000000,,,,,,,,,,,,,,,,,13.000000,0.000000,0.672993,-0.077454,-0.714600,-0.174438,0.966427,0.147479,-0.042486,-66.235313,38.952202,44.783287
1732155912.272466,1732155912.272670,53.000000,0.000000,4299.615234,4277.820313,4315.000000,4302.563965,4272.436035,4298.333496,4344.487305,4390.641113,4313.205078,4292.179688,4446.153809,4497.563965,4342.820313,4399.487305,0.000000,1.000000,30.000000,,,,0.000000,2.000000,2.000000,0.000000,4.000000,2.000000,2.000000,0.000000,0.000000,4.000000,4.000000,4.000000,4.000000,4.000000,4.000000,0.000000,,,,,,,,,,,,,,,,,,,,,,,,,,,,
1732155912.280274,1732155912.280678,54.000000,0.000000,4295.000000,4277.692383,4311.922852,4301.025879,4299.743652,4293.205078,4341.025879,4389.743652,4311.794922,4292.436035,4445.769043,4490.000000,4341.666504,4398.077148,0.000000,1.000000,30.000000,,,,0.000000,2.000000,2.000000,0.000000,4.000000,2.000000,2.000000,0.000000,0.000000,4.000000,4.000000,4.000000,4.000000,4.000000,4.000000,0.000000,,,,,,,,,,,,,,,,,,,,,,,,,,,,
1732155912.288082,1732155912.288486,55.000000,0.000000,4291.538574,4277.563965,4313.589844,4300.641113,4300.128418,4288.205078,4341.025879,4391.538574,4315.000000,4297.948730,4446.153809,4491.794922,4346.794922,4398.205078,0.000000,1.000000,30.000000,,,,0.000000,2.000000,2.000000,0.000000,4.000000,2.000000,2.000000,0.000000,0.000000,4.000000,4.000000,4.000000,4.000000,4.000000,4.000000,0.000000,,,,,,,,,,,,,,,,,,,,,,,,,,,,
1732155912.295890,1732155912.296394,56.000000,0.000000,4293.333496,4278.333496,4314.487305,4301.666504,4272.948730,4292.179688,4342.692383,4393.461426,4316.153809,4299.102539,4450.641113,4497.820313,4348.589844,4401.410156,0.000000,1.000000,30.000000,,,,0.000000,2.000000,2.000000,0.000000,4.000000,2.000000,2.000000,0.000000,0.000000,4.000000,4.000000,4.000000,4.000000,4.000000,4.000000,0.000000,,,,,,,,,,,,,,,,,14.000000,0.000000,0.672867,-0.077393,-0.714844,-0.173950,0.974728,0.139177,-0.040532,-66.245605,38.917953,44.732796
1732155912.303699,1732155912.304202,57.000000,0.000000,4293.717773,4276.666504,4313.589844,4301.282227,4272.692383,4296.794922,4341.282227,4392.179688,4316.153809,4296.410156,4452.820313,4495.641113,4343.205078,4400.000000,0.000000,1.000000,30.000000,,,,0.000000,2.000000,2.000000,0.000000,4.000000,2.000000,2.000000,0.000000,0.000000,4.000000,4.000000,4.000000,4.000000,4.000000,4.000000,0.000000,,,,,,,,,,,,,,,,,,,,,,,,,,,,
1732155912.311507,1732155912.312210,58.000000,0.000000,4285.384766,4275.769043,4312.948730,4298.461426,4296.410156,4295.897461,4341.282227,4391.153809,4317.948730,4296.794922,4447.692383,4491.538574,4341.538574,4395.384766,0.000000,1.000000,30.000000,,,,0.000000,2.000000,2.000000,0.000000,4.000000,2.000000,2.000000,0.000000,0.000000,4.000000,4.000000,4.000000,4.000000,4.000000,4.000000,0.000000,,,,,,,,,,,,,,,,,,,,,,,,,,,,
1732155912.319315,1732155912.320019,59.000000,0.000000,4283.589844,4277.051270,4316.538574,4297.436035,4293.205078,4296.025879,4343.077148,4390.641113,4316.922852,4298.589844,4446.025879,4490.897461,4345.256348,4397.051270,0.000000,1.000000,30.000000,,,,0.000000,2.000000,2.000000,0.000000,4.000000,2.000000,2.000000,0.000000,0.000000,4.000000,4.000000,4.000000,4.000000,4.000000,4.000000,0.000000,,,,,,,,,,,,,,,,,,,,,,,,,,,,
1732155912.327123,1732155912.327927,60.000000,0.000000,4294.358887,4278.205078,4316.922852,4302.692383,4273.717773,4300.512695,4343.205078,4391.538574,4314.871582,4298.974121,4448.717773,4490.769043,4347.820313,4400.128418,0.000000,1.000000,30.000000,,,,0.000000,2.000000,2.000000,0.000000,4.000000,2.000000,2.000000,0.000000,0.000000,4.000000,4.000000,4.000000,4.000000,4.000000,4.000000,0.000000,,,,,,,,,,,,,,,,,15.000000,0.000000,0.672811,-0.077454,-0.714905,-0.173889,0.970822,0.134782,-0.023929,-66.110603,38.763542,44.760231
1732155912.334931,1732155912.335735,61.000000,0.000000,4297.307617,4280.384766,4314.871582,4304.615234,4276.025879,4301.153809,4342.307617,4390.897461,4315.512695,4297.436035,4446.794922,4489.102539,4347.948730,4397.948730,0.000000,1.000000,30.000000,,,,0.000000,2.000000,2.000000,0.000000,4.000000,2.000000,2.000000,0.000000,0.000000,4.000000,4.000000,4.000000,4.000000,4.000000,4.000000,0.000000,,,,,,,,,,,,,,,,,,,,,,,,,,,,
1732155912.342740,1732155912.343343,62.000000,0.000000,4292.948730,4281.794922,4316.025879,4300.769043,4283.205078,4296.794922,4341.922852,4388.846191,4315.512695,4294.743652,4445.769043,4489.487305,4347.051270,4398.077148,0.000000,1.000000,30.000000,,,,0.000000,2.000000,2.000000,0.000000,4.000000,2.000000,2.000000,0.000000,0.000000,4.000000,4.000000,4.000000,4.000000,4.000000,4.000000,0.000000,,,,,,,,,,,,,,,,,,,,,,,,,,,,
1732155912.350548,1732155912.351151,63.000000,0.000000,4293.974121,4279.102539,4316.025879,4299.102539,4291.025879,4293.333496,4342.051270,4390.128418,4314.102539,4293.589844,4446.538574,4489.871582,4344.102539,4398.846191,0.000000,1.000000,30.000000,,,,0.000000,2.000000,2.000000,0.000000,4.000000,2.000000,2.000000,0.000000,0.000000,4.000000,4.000000,4.000000,4.000000,4.000000,4.000000,0.000000,,,,,,,,,,,,,,,,,,,,,,,,,,,,
1732155912.358356,1732155912.359059,64.000000,0.000000,4297.179688,4280.128418,4314.743652,4302.307617,4298.205078,4294.102539,4342.563965,4392.692383,4314.871582,4295.000000,4445.641113,4487.820313,4344.230957,4397.692383,0.000000,1.000000,30.000000,,,,0.000000,2.000000,2.000000,0.000000,4.000000,2.000000,2.000000,0.000000,0.000000,4.000000,4.000000,4.000000,4.000000,4.000000,4.000000,0.000000,,,,,,,,,,,,,,,,,16.000000,0.000000,0.672672,-0.077515,-0.715088,-0.173645,0.961055,0.149432,-0.037114,-66.256256,38.661800,44.522453
1732155912.366165,1732155912.366867,65.000000,0.000000,4295.897461,4285.256348,4315.128418,4306.410156,4284.487305,4297.692383,4342.563965,4390.384766,4313.846191,4295.000000,4446.410156,4488.846191,4346.922852,4401.794922,1613.000000,1.000000,30.000000,,,,0.000000,2.000000,2.000000,0.000000,4.000000,2.000000,2.000000,0.000000,0.000000,4.000000,4.000000,4.000000,4.000000,4.000000,4.000000,0.000000,,,,,,,,,,,,,,,,,,,,,,,,,,,,
1732155912.373973,1732155912.374875,66.000000,0.000000,4297.051270,4285.384766,4319.102539,4305.384766,4273.077148,4298.461426,4341.794922,4390.769043,4313.461426,4295.512695,4448.846191,4498.589844,4347.307617,4405.256348,1431.000000,1.000000,30.000000,,,,0.000000,2.000000,2.000000,0.000000,4.000000,2.000000,2.000000,0.000000,0.000000,4.000000,4.000000,4.000000,4.000000,4.000000,4.000000,0.000000,,,,,,,,,,,,,,,,,,,,,,,,,,,,
1732155912.381781,1732155912.382684,67.000000,0.000000,4301.666504,4284.358887,4315.512695,4304.358887,4283.717773,4296.538574,4341.153809,4392.563965,4316.794922,4295.256348,4451.538574,4502.692383,4345.000000,4402.563965,1436.000000,1.000000,30.000000,,,,0.000000,2.000000,2.000000,0.000000,4.000000,2.000000,2.000000,0.000000,0.000000,4.000000,4.000000,4.000000,4.000000,4.000000,4.000000,0.000000,,,,,,,,,,,,,,,,,,,,,,,,,,,,
1732155912.389589,1732155912.390592,68.000000,0.000000,4301.538574,4283.333496,4313.461426,4306.153809,4285.641113,4297.307617,4342.436035,4390.641113,4315.897461,4291.538574,4451.153809,4494.358887,4342.436035,4399.743652,1414.000000,1.000000,30.000000,,,,0.000000,2.000000,2.000000,0.000000,4.000000,2.000000,2.000000,0.000000,0.000000,4.000000,4.000000,4.000000,4.000000,4.000000,4.000000,0.000000,,,,,,,,,,,,,,,,,17.000000,0.000000,0.672218,-0.077637,-0.715576,-0.173340,0.968380,0.138200,-0.030277,-66.254234,38.612724,44.691521
1732155912.397397,1732155912.398400,69.000000,0.000000,4298.717773,4277.692383,4314.358887,4304.743652,4287.563965,4298.333496,4342.179688,4389.743652,4313.461426,4288.333496,4445.128418,4490.641113,4339.871582,4398.717773,1255.000000,1.000000,30.000000,,,,0.000000,2.000000,2.000000,0.000000,4.000000,2.000000,2.000000,0.000000,0.000000,4.000000,4.000000,4.000000,4.000000,4.000000,4.000000,0.000000,,,,,,,,,,,,,,,,,,,,,,,,,,,,
1732155912.405206,1732155912.406408,70.000000,0.000000,4297.436035,4275.384766,4316.153809,4301.153809,4298.461426,4300.512695,4341.153809,4390.769043,4316.025879,4288.974121,4441.794922,4492.820313,4337.051270,4398.205078,0.000000,1.000000,30.000000,,,,0.000000,2.000000,2.000000,0.000000,4.000000,2.000000,2.000000,0.000000,0.000000,4.000000,4.000000,4.000000,4.000000,4.000000,4.000000,0.000000,,,,,,,,,,,,,,,,,,,,,,,,,,,,
1732155912.413014,1732155912.414216,71.000000,0.000000,4297.179688,4282.436035,4313.205078,4306.282227,4286.922852,4303.205078,4341.410156,4390.512695,4319.102539,4291.922852,4448.205078,4492.820313,4340.384766,4398.974121,0.000000,1.000000,30.000000,,,,0.000000,2.000000,2.000000,0.000000,4.000000,2.000000,2.000000,0.000000,0.000000,4.000000,4.000000,4.000000,4.000000,4.000000,4.000000,0.000000,,,,,,,,,,,,,,,,,,,,,,,,,,,,
1732155912.420822,1732155912.422124,72.000000,0.000000,4296.025879,4288.077148,4314.615234,4312.179688,4273.589844,4302.563965,4344.487305,4390.000000,4316.410156,4292.820313,4451.794922,4492.563965,4345.769043,4398.974121,1544.000000,1.000000,30.000000,,,,0.000000,2.000000,2.000000,0.000000,4.000000,2.000000,2.000000,0.000000,0.000000,4.000000,4.000000,4.000000,4.000000,4.000000,4.000000,0.000000,,,,,,,,,,,,,,,,,18.000000,0.000000,0.672119,-0.077637,-0.715698,-0.173218,0.968380,0.138200,-0.030277,-66.170929,38.411308,44.746799
1732155912.428630,1732155912.429932,73.000000,0.000000,4296.153809,4287.948730,4315.769043,4309.871582,4285.769043,4302.563965,4344.487305,4389.102539,4311.922852,4292.307617,4450.641113,4490.256348,4345.641113,4397.948730,1710.000000,1.000000,30.000000,,,,0.000000,2.000000,2.000000,0.000000,4.000000,2.000000,2.000000,0.000000,0.000000,4.000000,4.000000,4.000000,4.000000,4.000000,4.000000,0.000000,,,,,,,,,,,,,,,,,,,,,,,,,,,,
1732155912.436439,1732155912.437940,74.000000,0.000000,4297.051270,4288.461426,4315.000000,4311.282227,4289.871582,4304.230957,4342.051270,4388.333496,4312.051270,4291.922852,4450.769043,4486.922852,4342.563965,4396.794922,1544.000000,1.000000,30.000000,,,,0.000000,2.000000,2.000000,0.000000,4.000000,2.000000,2.000000,0.000000,0.000000,4.000000,4.000000,4.000000,4.000000,4.000000,4.000000,0.000000,,,,,,,,,,,,,,,,,,,,,,,,,,,,
1732155912.444247,1732155912.445749,75.000000,0.000000,4296.025879,4291.538574,4313.846191,4312.692383,4293.717773,4303.077148,4342.436035,4388.846191,4314.358887,4292.948730,4448.333496,4485.128418,4342.692383,4394.487305,1583.000000,1.000000,30.000000,,,,0.000000,2.000000,2.000000,0.000000,4.000000,2.000000,2.000000,0.000000,0.000000,4.000000,4.000000,4.000000,4.000000,4.000000,4.000000,0.000000,,,,,,,,,,,,,,,,,,,,,,,,,,,,
1732155912.452055,1732155912.453457,76.000000,0.000000,4294.615234,4287.179688,4316.153809,4306.794922,4306.794922,4298.846191,4344.871582,4390.641113,4314.487305,4295.128418,4443.589844,4483.846191,4346.794922,4393.077148,1728.000000,1.000000,30.000000,,,,0.000000,2.000000,2.000000,0.000000,4.000000,2.000000,2.000000,0.000000,0.000000,4.000000,4.000000,4.000000,4.000000,4.000000,4.000000,0.000000,,,,,,,,,,,,,,,,,19.000000,0.000000,0.671854,-0.077820,-0.715942,-0.173157,0.968380,0.129410,-0.040044,-66.126785,38.346493,44.719906
1732155912.459863,1732155912.461265,77.000000,0.000000,4296.794922,4281.666504,4317.563965,4306.538574,4295.512695,4298.589844,4345.384766,4390.641113,4315.256348,4297.563965,4445.128418,4483.077148,4349.487305,4395.897461,1705.000000,1.000000,30.000000,,,,0.000000,2.000000,2.000000,0.000000,4.000000,2.000000,2.000000,0.000000,0.000000,4.000000,4.000000,4.000000,4.000000,4.000000,4.000000,0.000000,,,,,,,,,,,,,,,,,,,,,,,,,,,,
1732155912.467672,1732155912.468874,78.000000,0.000000,4299.871582,4284.102539,4315.641113,4309.230957,4271.922852,4301.025879,4341.410156,4386.282227,4319.743652,4298.974121,4450.769043,4482.179688,4349.615234,4396.410156,1544.000000,1.000000,30.000000,,,,0.000000,2.000000,2.000000,0.000000,4.000000,2.000000,2.000000,0.000000,0.000000,4.000000,4.000000,4.000000,4.000000,4.000000,4.000000,0.000000,1.000000,0.000000,2.000000,2.000000,0.000000,4.000000,2.000000,2.000000,0.000000,0.000000,1.000000,4.000000,1.000000,4.000000,1.000000,3.000000,,,,,,,,,,,,
1732155912.475480,1732155912.476682,79.000000,0.000000,4300.000000,4288.461426,4315.256348,4308.205078,4276.538574,4299.871582,4339.743652,4385.256348,4320.256348,4297.563965,4448.717773,4478.205078,4347.307617,4391.410156,1583.000000,1.000000,30.000000,,,,0.000000,2.000000,2.000000,0.000000,4.000000,2.000000,2.000000,0.000000,0.000000,4.000000,4.000000,4.000000,4.000000,4.000000,4.000000,0.000000,,,,,,,,,,,,,,,,,,,,,,,,,,,,
1732155912.483288,1732155912.484390,80.000000,0.000000,4299.102539,4289.102539,4315.128418,4307.179688,4301.538574,4295.000000,4341.794922,4388.846191,4313.333496,4294.358887,4445.769043,4476.922852,4347.179688,4391.922852,1728.000000,1.000000,30.000000,,,,0.000000,2.000000,2.000000,0.000000,4.000000,2.000000,2.000000,0.000000,0.000000,4.000000,4.000000,4.000000,4.000000,4.000000,4.000000,0.000000,,,,,,,,,,,,,,,,,20.000000,0.000000,0.671375,-0.077881,-0.716370,-0.173218,0.954218,0.142107,-0.042974,-66.124367,38.360661,44.764790
1732155912.491096,1732155912.492198,81.000000,0.000000,4296.794922,4284.743652,4314.358887,4305.128418,4301.666504,4292.563965,4343.333496,4392.051270,4309.102539,4289.487305,4445.512695,4477.051270,4347.563965,4397.307617,1705.000000,1.000000,30.000000,,,,0.000000,2.000000,2.000000,0.000000,4.000000,2.000000,2.000000,0.000000,0.000000,4.000000,4.000000,4.000000,4.000000,4.000000,4.000000,0.000000,,,,,,,,,,,,,,,,,,,,,,,,,,,,
1732155912.498905,1732155912.499807,82.000000,0.000000,4292.563965,4281.794922,4311.538574,4303.077148,4279.230957,4298.205078,4342.563965,4392.563965,4315.384766,4287.820313,4445.000000,4473.077148,4344.102539,4395.897461,1544.000000,1.000000,30.000000,,,,0.000000,2.000000,2.000000,0.000000,4.000000,2.000000,2.000000,0.000000,0.000000,4.000000,4.000000,4.000000,4.000000,4.000000,4.000000,0.000000,,,,,,,,,,,,,,,,,,,,,,,,,,,,
1732155912.506713,1732155912.507615,83.000000,0.000000,4294.102539,4284.230957,4314.871582,4305.384766,4277.436035,4303.589844,4344.102539,4393.205078,4319.615234,4291.282227,4445.256348,4478.717773,4343.461426,4394.102539,1583.000000,1.000000,30.000000,,,,0.000000,2.000000,2.000000,0.000000,4.000000,2.000000,2.000000,0.000000,0.000000,4.000000,4.000000,4.000000,4.000000,4.000000,4.000000,0.000000,,,,,,,,,,,,,,,,,,,,,,,,,,,,
1732155912.514521,1732155912.515323,84.000000,0.000000,4301.410156,4289.102539,4315.769043,4308.077148,4290.384766,4302.436035,4344.230957,4391.538574,4313.333496,4293.717773,4446.282227,4487.179688,4346.025879,4399.102539,1728.000000,1.000000,30.000000,,,,0.000000,2.000000,2.000000,0.000000,4.000000,2.000000,2.000000,0.000000,0.000000,4.000000,4.000000,4.000000,4.000000,4.000000,4.000000,0.000000,,,,,,,,,,,,,,,,,21.000000,0.000000,0.671167,-0.077698,-0.716614,-0.173096,0.977170,0.148944,-0.044927,-66.044067,38.437134,44.736149
1732155912.522329,1732155912.523131,85.000000,0.000000,4301.282227,4287.051270,4314.358887,4306.025879,4287.563965,4299.615234,4342.692383,4390.897461,4305.769043,4291.025879,4445.256348,4481.666504,4345.000000,4395.512695,1705.000000,1.000000,30.000000,,,,0.000000,2.000000,2.000000,0.000000,4.000000,2.000000,2.000000,0.000000,0.000000,4.000000,4.000000,4.000000,4.000000,4.000000,4.000000,0.000000,,,,,,,,,,,,,,,,,,,,,,,,,,,,
1732155912.530138,1732155912.530740,86.000000,0.000000,4294.230957,4280.512695,4312.307617,4303.333496,4290.384766,4299.487305,4341.410156,4389.743652,4306.025879,4285.769043,4441.025879,4473.077148,4339.615234,4387.179688,1544.000000,1.000000,30.000000,,,,0.000000,2.000000,2.000000,0.000000,4.000000,2.000000,2.000000,0.000000,0.000000,4.000000,4.000000,4.000000,4.000000,4.000000,4.000000,0.000000,,,,,,,,,,,,,,,,,,,,,,,,,,,,
1732155912.537946,1732155912.538548,87.000000,0.000000,4295.641113,4281.538574,4315.000000,4302.436035,4301.282227,4303.589844,4339.487305,4388.077148,4310.128418,4285.256348,4441.153809,4475.384766,4338.717773,4391.025879,1583.000000,1.000000,30.000000,,,,0.000000,2.000000,2.000000,0.000000,4.000000,2.000000,2.000000,0.000000,0.000000,4.000000,4.000000,4.000000,4.000000,4.000000,4.000000,0.000000,,,,,,,,,,,,,,,,,,,,,,,,,,,,
1732155912.545754,1732155912.546256,88.000000,0.000000,4302.820313,4286.794922,4315.256348,4305.769043,4285.769043,4306.666504,4338.974121,4392.051270,4311.282227,4292.563965,4445.512695,4480.769043,4345.000000,4398.589844,1728.000000,1.000000,30.000000,,,,0.000000,2.000000,2.000000,0.000000,4.000000,2.000000,2.000000,0.000000,0.000000,4.000000,4.000000,4.000000,4.000000,4.000000,4.000000,0.000000,,,,,,,,,,,,,,,,,22.000000,0.000000,0.671190,-0.077637,-0.716614,-0.173035,0.970333,0.137224,-0.043951,-66.194031,38.417412,44.722946
1732155912.553562,1732155912.554065,89.000000,0.000000,4301.794922,4287.051270,4315.769043,4306.922852,4272.179688,4303.205078,4342.179688,4392.179688,4311.538574,4295.769043,4447.563965,4483.974121,4346.922852,4399.358887,1705.000000,1.000000,30.000000,,,,0.000000,2.000000,2.000000,0.000000,4.000000,2.000000,2.000000,0.000000,0.000000,4.000000,4.000000,4.000000,4.000000,4.000000,4.000000,0.000000,,,,,,,,,,,,,,,,,,,,,,,,,,,,
1732155912.561370,1732155912.561673,90.000000,0.000000,4299.230957,4285.897461,4315.769043,4305.000000,4283.717773,4304.871582,4342.436035,4387.051270,4310.512695,4292.307617,4445.512695,4486.410156,4344.487305,4397.948730,1544.000000,1.000000,30.000000,,,,0.000000,2.000000,2.000000,0.000000,4.000000,2.000000,2.000000,0.000000,0.000000,4.000000,4.000000,4.000000,4.000000,4.000000,4.000000,0.000000,,,,,,,,,,,,,,,,,,,,,,,,,,,,
1732155912.569179,1732155912.569481,91.000000,0.000000,4300.897461,4287.436035,4316.538574,4305.512695,4292.307617,4308.846191,4337.692383,4387.436035,4309.102539,4292.179688,4444.615234,4480.769043,4344.871582,4396.153809,1583.000000,1.000000,30.000000,,,,0.000000,2.000000,2.000000,0.000000,4.000000,2.000000,2.000000,0.000000,0.000000,4.000000,4.000000,4.000000,4.000000,4.000000,4.000000,0.000000,,,,,,,,,,,,,,,,,,,,,,,,,,,,
1732155912.576987,1732155912.577189,92.000000,0.000000,4296.410156,4285.000000,4316.025879,4305.384766,4296.282227,4303.846191,4337.948730,4390.384766,4310.769043,4294.358887,4446.153809,4474.230957,4345.256348,4391.153809,1728.000000,1.000000,30.000000,,,,0.000000,2.000000,2.000000,0.000000,4.000000,2.000000,2.000000,0.000000,0.000000,4.000000,4.000000,4.000000,4.000000,4.000000,4.000000,0.000000,,,,,,,,,,,,,,,,,23.000000,0.000000,0.671123,-0.077942,-0.716614,-0.173157,0.958125,0.129410,-0.040532,-66.273827,38.259769,44.767254
1732155912.584795,1732155912.584998,93.000000,0.000000,4293.717773,4280.769043,4314.230957,4306.538574,4294.487305,4303.461426,4341.794922,4388.717773,4314.230957,4296.153809,4446.025879,4475.897461,4343.974121,4388.461426,1705.000000,1.000000,30.000000,,,,0.000000,2.000000,2.000000,0.000000,4.000000,2.000000,2.000000,0.000000,0.000000,4.000000,4.000000,4.000000,4.000000,4.000000,4.000000,0.000000,,,,,,,,,,,,,,,,,,,,,,,,,,,,
1732155912.592604,1732155912.592606,94.000000,0.000000,4301.794922,4283.333496,4312.820313,4310.512695,4279.615234,4312.307617,4342.179688,4388.974121,4316.025879,4295.512695,4445.769043,4479.358887,4341.922852,4390.000000,1544.000000,1.000000,30.000000,,,,0.000000,2.000000,2.000000,0.000000,4.000000,2.000000,2.000000,0.000000,0.000000,4.000000,4.000000,4.000000,4.000000,4.000000,4.000000,0.000000,,,,,,,,,,,,,,,,,,,,,,,,,,,,
1732155912.600412,1732155912.600414,95.000000,0.000000,4303.461426,4285.512695,4314.487305,4307.436035,4274.230957,4314.230957,4341.282227,4389.871582,4315.641113,4293.974121,4445.512695,4477.307617,4340.897461,4387.948730,1583.000000,1.000000,30.000000,,,,0.000000,2.000000,2.000000,0.000000,4.000000,2.000000,2.000000,0.000000,0.000000,4.000000,4.000000,4.000000,4.000000,4.000000,4.000000,0.000000,,,,,,,,,,,,,,,,,,,,,,,,,,,,
1732155912.608220,1732155912.608122,96.000000,0.000000,4299.230957,4282.179688,4318.077148,4300.384766,4283.461426,4311.538574,4343.077148,4389.743652,4314.871582,4294.615234,4446.025879,4474.615234,4342.436035,4387.179688,1728.000000,1.000000,30.000000,,,,0.000000,2.000000,2.000000,0.000000,4.000000,2.000000,2.000000,0.000000,0.000000,4.000000,4.000000,4.000000,4.000000,4.000000,4.000000,0.000000,,,,,,,,,,,,,,,,,24.000000,0.000000,0.671067,-0.078003,-0.716675,-0.173096,0.968868,0.135759,-0.039067,-66.091805,38.080414,44.871475
1732155912.616028,1732155912.615930,97.000000,0.000000,4304.615234,4285.000000,4316.025879,4302.948730,4284.358887,4313.205078,4342.948730,4391.025879,4314.358887,4296.025879,4448.333496,4477.307617,4343.846191,4393.461426,1705.000000,1.000000,30.000000,,,,0.000000,2.000000,2.000000,0.000000,4.000000,2.000000,2.000000,0.000000,0.000000,4.000000,4.000000,4.000000,4.000000,4.000000,4.000000,0.000000,,,,,,,,,,,,,,,,,,,,,,,,,,,,
1732155912.623836,1732155912.623938,98.000000,0.000000,4310.512695,4286.153809,4316.282227,4306.794922,4290.641113,4307.179688,4341.153809,4391.794922,4313.205078,4288.974121,4446.538574,4479.230957,4339.871582,4396.794922,1544.000000,1.000000,30.000000,,,,0.000000,2.000000,2.000000,0.000000,4.000000,2.000000,2.000000,0.000000,0.000000,4.000000,4.000000,4.000000,4.000000,4.000000,4.000000,0.000000,,,,,,,,,,,,,,,,,,,,,,,,,,,,
1732155912.631645,1732155912.631746,99.000000,0.000000,4306.666504,4279.487305,4316.794922,4303.205078,4304.230957,4304.358887,4342.948730,4391.794922,4310.897461,4283.205078,4443.205078,4475.769043,4336.282227,4391.282227,1583.000000,1.000000,30.000000,,,,0.000000,2.000000,2.000000,0.000000,4.000000,2.000000,2.000000,0.000000,0.000000,4.000000,4.000000,4.000000,4.000000,4.000000,4.000000,0.000000,,,,,,,,,,,,,,,,,,,,,,,,,,,,
1732155912.639453,1732155912.639654,100.000000,0.000000,4303.205078,4277.692383,4317.436035,4298.974121,4294.230957,4312.307617,4345.769043,4392.051270,4309.743652,4287.692383,4446.025879,4475.769043,4336.025879,4384.358887,1728.000000,1.000000,30.000000,,,,0.000000,2.000000,2.000000,0.000000,4.000000,2.000000,2.000000,0.000000,0.000000,4.000000,4.000000,4.000000,4.000000,4.000000,4.000000,0.000000,,,,,,,,,,,,,,,,,25.000000,0.000000,0.671037,-0.078125,-0.716675,-0.173157,0.979123,0.130875,-0.044927,-66.034363,38.055134,44.925896
1732155912.647261,1732155912.647462,101.000000,0.000000,4306.153809,4285.128418,4315.897461,4303.846191,4276.153809,4313.461426,4342.948730,4388.846191,4312.563965,4292.307617,4447.436035,4481.410156,4339.102539,4386.666504,1705.000000,1.000000,30.000000,,,,0.000000,2.000000,2.000000,0.000000,4.000000,2.000000,2.000000,0.000000,0.000000,4.000000,4.000000,4.000000,4.000000,4.000000,4.000000,0.000000,,,,,,,,,,,,,,,,,,,,,,,,,,,,
1732155912.655069,1732155912.655470,102.000000,0.000000,4308.461426,4287.948730,4317.307617,4310.769043,4279.358887,4308.461426,4341.794922,4388.974121,4314.743652,4291.922852,4446.153809,4486.794922,4344.487305,4394.871582,1544.000000,1.000000,30.000000,,,,0.000000,2.000000,2.000000,0.000000,4.000000,2.000000,2.000000,0.000000,0.000000,4.000000,4.000000,4.000000,4.000000,4.000000,4.000000,0.000000,,,,,,,,,,,,,,,,,,,,,,,,,,,,
1732155912.662878,1732155912.663279,103.000000,0.000000,4308.717773,4283.846191,4316.282227,4309.743652,4294.230957,4306.794922,4342.179688,4393.205078,4310.128418,4291.922852,4447.563965,4489.743652,4343.461426,4397.948730,1583.000000,1.000000,30.000000,,,,0.000000,2.000000,2.000000,0.000000,4.000000,2.000000,2.000000,0.000000,0.000000,4.000000,4.000000,4.000000,4.000000,4.000000,4.000000,0.000000,,,,,,,,,,,,,,,,,,,,,,,,,,,,
1732155912.670686,1732155912.671187,104.000000,0.000000,4306.538574,4280.512695,4316.025879,4303.846191,4294.871582,4304.615234,4341.794922,4391.410156,4305.641113,4291.282227,4447.948730,4491.922852,4337.692383,4395.000000,1728.000000,1.000000,30.000000,,,,0.000000,2.000000,2.000000,0.000000,4.000000,2.000000,2.000000,0.000000,0.000000,4.000000,4.000000,4.000000,4.000000,4.000000,4.000000,0.000000,,,,,,,,,,,,,,,,,26.000000,0.000000,0.671060,-0.078064,-0.716675,-0.173096,0.966427,0.145526,-0.032719,-66.186165,38.012993,44.781643
1732155912.678494,1732155912.678995,105.000000,0.000000,4302.051270,4277.307617,4312.307617,4301.025879,4282.948730,4306.794922,4341.282227,4388.077148,4309.487305,4293.589844,4450.641113,4493.717773,4341.282227,4395.000000,1705.000000,1.000000,30.000000,,,,0.000000,2.000000,2.000000,0.000000,4.000000,2.000000,2.000000,0.000000,0.000000,4.000000,4.000000,4.000000,4.000000,4.000000,4.000000,0.000000,,,,,,,,,,,,,,,,,,,,,,,,,,,,
1732155912.686302,1732155912.687003,106.000000,0.000000,4300.512695,4279.615234,4313.846191,4303.461426,4272.692383,4313.205078,4341.153809,4390.000000,4315.256348,4299.871582,4455.897461,4492.948730,4346.410156,4397.563965,1544.000000,1.000000,30.000000,,,,0.000000,2.000000,2.000000,0.000000,4.000000,2.000000,2.000000,0.000000,0.000000,4.000000,4.000000,4.000000,4.000000,4.000000,4.000000,0.000000,,,,,,,,,,,,,,,,,,,,,,,,,,,,
1732155912.694111,1732155912.694811,107.000000,0.000000,4305.897461,4287.948730,4318.589844,4309.487305,4284.102539,4312.820313,4340.897461,4391.153809,4314.743652,4301.025879,4456.282227,4490.641113,4345.128418,4396.153809,1583.000000,1.000000,30.000000,,,,0.000000,2.000000,2.000000,0.000000,4.000000,2.000000,2.000000,0.000000,0.000000,4.000000,4.000000,4.000000,4.000000,4.000000,4.000000,0.000000,,,,,,,,,,,,,,,,,,,,,,,,,,,,
1732155912.701919,1732155912.702719,108.000000,0.000000,4307.179688,4286.538574,4316.922852,4311.282227,4304.230957,4307.692383,4342.820313,4388.717773,4311.025879,4296.666504,4451.538574,4490.769043,4344.871582,4395.256348,1728.000000,1.000000,30.000000,,,,0.000000,2.000000,2.000000,0.000000,4.000000,2.000000,2.000000,0.000000,0.000000,4.000000,4.000000,4.000000,4.000000,4.000000,4.000000,0.000000,,,,,,,,,,,,,,,,,27.000000,0.000000,0.670937,-0.077393,-0.716980,-0.172607,0.975217,0.138689,-0.044927,-66.270790,38.270523,44.506462
1732155912.709727,1732155912.710527,109.000000,0.000000,4303.205078,4283.461426,4313.205078,4307.692383,4292.179688,4306.282227,4346.025879,4389.743652,4315.512695,4296.410156,4451.794922,4493.333496,4346.282227,4397.179688,1705.000000,1.000000,30.000000,,,,0.000000,2.000000,2.000000,0.000000,4.000000,2.000000,2.000000,0.000000,0.000000,4.000000,4.000000,4.000000,4.000000,4.000000,4.000000,0.000000,,,,,,,,,,,,,,,,,,,,,,,,,,,,
1732155912.717535,1732155912.718535,110.000000,0.000000,4302.948730,4288.974121,4314.358887,4310.256348,4272.179688,4310.128418,4342.563965,4391.538574,4323.077148,4301.538574,4454.743652,4491.282227,4347.436035,4398.333496,1544.000000,1.000000,30.000000,,,,0.000000,2.000000,2.000000,0.000000,4.000000,2.000000,2.000000,0.000000,0.000000,4.000000,4.000000,4.000000,4.000000,4.000000,4.000000,0.000000,,,,,,,,,,,,,,,,,,,,,,,,,,,,
1732155912.725344,1732155912.726344,111.000000,0.000000,4304.615234,4293.077148,4315.384766,4313.846191,4281.538574,4312.436035,4338.077148,4391.025879,4319.743652,4300.384766,4456.282227,4489.358887,4345.512695,4396.410156,1583.000000,1.000000,30.000000,,,,0.000000,2.000000,2.000000,0.000000,4.000000,2.000000,2.000000,0.000000,0.000000,4.000000,4.000000,4.000000,4.000000,4.000000,4.000000,0.000000,,,,,,,,,,,,,,,,,,,,,,,,,,,,
1732155912.733152,1732155912.734252,112.000000,0.000000,4303.717773,4287.948730,4312.307617,4312.051270,4295.128418,4310.769043,4336.922852,4390.769043,4311.153809,4293.589844,4452.563965,4490.769043,4340.897461,4393.205078,1728.000000,1.000000,30.000000,,,,0.000000,2.000000,2.000000,0.000000,4.000000,2.000000,2.000000,0.000000,0.000000,4.000000,4.000000,4.000000,4.000000,4.000000,4.000000,0.000000,,,,,,,,,,,,,,,,,28.000000,0.000000,0.670761,-0.076904,-0.717285,-0.172241,0.989379,0.127457,-0.049322,-66.302673,38.515793,44.450233
1732155912.740960,1732155912.742060,113.000000,0.000000,4301.538574,4285.769043,4315.769043,4310.256348,4287.692383,4310.256348,4338.333496,4390.512695,4312.563965,4293.333496,4448.333496,4489.230957,4341.282227,4396.153809,1705.000000,1.000000,30.000000,,,,0.000000,2.000000,2.000000,0.000000,4.000000,2.000000,2.000000,0.000000,0.000000,4.000000,4.000000,4.000000,4.000000,4.000000,4.000000,0.000000,,,,,,,,,,,,,,,,,,,,,,,,,,,,
1732155912.748768,1732155912.750068,114.000000,0.000000,4299.487305,4289.871582,4318.333496,4308.205078,4291.025879,4311.538574,4339.743652,4390.256348,4316.410156,4296.538574,4448.205078,4488.077148,4344.230957,4396.538574,1544.000000,1.000000,30.000000,,,,0.000000,2.000000,2.000000,0.000000,4.000000,2.000000,2.000000,0.000000,0.000000,4.000000,4.000000,4.000000,4.000000,4.000000,4.000000,0.000000,,,,,,,,,,,,,,,,,,,,,,,,,,,,
1732155912.756577,1732155912.757876,115.000000,0.000000,4298.717773,4289.230957,4315.897461,4305.512695,4306.666504,4310.512695,4341.153809,4391.794922,4312.692383,4292.307617,4447.563965,4490.128418,4342.563965,4389.871582,1583.000000,1.000000,30.000000,,,,0.000000,2.000000,2.000000,0.000000,4.000000,2.000000,2.000000,0.000000,0.000000,4.000000,4.000000,4.000000,4.000000,4.000000,4.000000,0.000000,,,,,,,,,,,,,,,,,,,,,,,,,,,,
1732155912.764385,1732155912.765784,116.000000,0.000000,4301.282227,4286.025879,4312.820313,4308.077148,4294.615234,4310.128418,4342.051270,4391.922852,4313.589844,4293.461426,4450.128418,4489.615234,4342.179688,4391.410156,1728.000000,1.000000,30.000000,,,,0.000000,2.000000,2.000000,0.000000,4.000000,2.000000,2.000000,0.000000,0.000000,4.000000,4.000000,4.000000,4.000000,4.000000,4.000000,0.000000,,,,,,,,,,,,,,,,,29.000000,0.000000,0.670764,-0.076721,-0.717346,-0.172058,0.961055,0.142596,-0.043462,-66.308502,38.639458,44.238022
1732155912.772193,1732155912.773593,117.000000,0.000000,4303.589844,4285.897461,4315.897461,4309.230957,4275.256348,4309.358887,4344.358887,4389.230957,4319.487305,4301.153809,4452.692383,4486.794922,4344.743652,4398.589844,1705.000000,1.000000,30.000000,,,,0.000000,2.000000,2.000000,0.000000,4.000000,2.000000,2.000000,0.000000,0.000000,4.000000,4.000000,4.000000,4.000000,4.000000,4.000000,0.000000,,,,,,,,,,,,,,,,,,,,,,,,,,,,
1732155912.780001,1732155912.781601,118.000000,0.000000,4301.666504,4287.820313,4313.974121,4305.256348,4277.820313,4306.282227,4345.000000,4387.820313,4318.589844,4299.230957,4452.563965,4487.307617,4344.871582,4397.820313,1544.000000,1.000000,30.000000,,,,0.000000,2.000000,2.000000,0.000000,4.000000,2.000000,2.000000,0.000000,0.000000,4.000000,4.000000,4.000000,4.000000,4.000000,4.000000,0.000000,,,,,,,,,,,,,,,,,,,,,,,,,,,,
1732155912.787809,1732155912.789409,119.000000,0.000000,4298.205078,4283.974121,4312.820313,4303.717773,4283.205078,4301.538574,4343.589844,4388.717773,4311.922852,4293.077148,4455.384766,4490.897461,4344.487305,4396.538574,1583.000000,1.000000,30.000000,,,,0.000000,2.000000,2.000000,0.000000,4.000000,2.000000,2.000000,0.000000,0.000000,4.000000,4.000000,4.000000,4.000000,4.000000,4.000000,0.000000,,,,,,,,,,,,,,,,,,,,,,,,,,,,
1732155912.795618,1732155912.797317,120.000000,0.000000,4297.307617,4279.743652,4313.333496,4303.461426,4290.256348,4295.897461,4343.461426,4389.102539,4310.769043,4297.692383,4458.077148,4491.282227,4344.358887,4399.615234,1728.000000,1.000000,30.000000,,,,0.000000,2.000000,2.000000,0.000000,4.000000,2.000000,2.000000,0.000000,0.000000,4.000000,4.000000,4.000000,4.000000,4.000000,4.000000,0.000000,,,,,,,,,,,,,,,,,30.000000,0.000000,0.670724,-0.076477,-0.717468,-0.171814,0.967892,0.147967,-0.047857,-66.668221,38.596294,44.009464
1732155912.803426,1732155912.805125,121.000000,0.000000,4300.897461,4283.717773,4316.153809,4301.922852,4297.436035,4294.102539,4343.461426,4390.128418,4315.512695,4303.589844,4457.307617,4492.563965,4344.102539,4399.743652,1705.000000,1.000000,30.000000,,,,0.000000,2.000000,2.000000,0.000000,4.000000,2.000000,2.000000,0.000000,0.000000,4.000000,4.000000,4.000000,4.000000,4.000000,4.000000,0.000000,,,,,,,,,,,,,,,,,,,,,,,,,,,,
1732155912.811234,1732155912.812933,122.000000,0.000000,4305.384766,4287.051270,4316.794922,4304.871582,4283.333496,4296.025879,4342.051270,4392.692383,4317.051270,4301.922852,4458.846191,4497.179688,4347.051270,4400.000000,1544.000000,1.000000,30.000000,,,,0.000000,2.000000,2.000000,0.000000,4.000000,2.000000,2.000000,0.000000,0.000000,4.000000,4.000000,4.000000,4.000000,4.000000,4.000000,0.000000,,,,,,,,,,,,,,,,,,,,,,,,,,,,
1732155912.819043,1732155912.820741,123.000000,0.000000,4304.487305,4283.461426,4316.794922,4304.487305,4270.641113,4295.128418,4343.077148,4392.563965,4313.205078,4298.717773,4459.358887,4497.307617,4347.307617,4401.538574,1583.000000,1.000000,30.000000,,,,0.000000,2.000000,2.000000,0.000000,4.000000,2.000000,2.000000,0.000000,0.000000,4.000000,4.000000,4.000000,4.000000,4.000000,4.000000,0.000000,,,,,,,,,,,,,,,,,,,,,,,,,,,,
1732155912.826851,1732155912.828650,124.000000,0.000000,4302.051270,4284.230957,4313.717773,4302.820313,4282.307617,4294.871582,4345.769043,4391.282227,4308.717773,4296.410156,4454.102539,4493.077148,4344.102539,4399.230957,1728.000000,1.000000,30.000000,,,,0.000000,2.000000,2.000000,0.000000,4.000000,2.000000,2.000000,0.000000,0.000000,4.000000,4.000000,4.000000,4.000000,4.000000,4.000000,0.000000,,,,,,,,,,,,,,,,,31.000000,0.000000,0.670730,-0.076721,-0.717407,-0.171936,0.968380,0.135270,-0.039556,-66.729591,38.477997,44.027668
1732155912.834659,1732155912.836458,125.000000,0.000000,4306.025879,4290.384766,4311.538574,4308.717773,4284.230957,4299.230957,4344.871582,4390.000000,4311.153809,4297.436035,4455.384766,4492.179688,4346.025879,4398.333496,1705.000000,1.000000,30.000000,,,,0.000000,2.000000,2.000000,0.000000,4.000000,2.000000,2.000000,0.000000,0.000000,4.000000,4.000000,4.000000,4.000000,4.000000,4.000000,0.000000,,,,,,,,,,,,,,,,,,,,,,,,,,,,
