title:1one, start timestamp:1732156756.530760, stop timestamp:1732156817.497513, headset type:EPOCX, headset serial:E5020C3A, headset firmware:730, channels:67, sampling rate:eeg_128;mot_32, samples:7809      , version:2.2, 
Timestamp,OriginalTimestamp,EEG.Counter,EEG.Interpolated,EEG.AF3,EEG.F7,EEG.F3,EEG.FC5,EEG.T7,EEG.P7,EEG.O1,EEG.O2,EEG.P8,EEG.T8,EEG.FC6,EEG.F4,EEG.F8,EEG.AF4,EEG.RawCq,EEG.Battery,EEG.BatteryPercent,MarkerIndex,MarkerType,MarkerValueInt,EEG.MarkerHardware,CQ.AF3,CQ.F7,CQ.F3,CQ.FC5,CQ.T7,CQ.P7,CQ.O1,CQ.O2,CQ.P8,CQ.T8,CQ.FC6,CQ.F4,CQ.F8,CQ.AF4,CQ.Overall,EQ.SampleRateQuality,EQ.OVERALL,EQ.AF3,EQ.F7,EQ.F3,EQ.FC5,EQ.T7,EQ.P7,EQ.O1,EQ.O2,EQ.P8,EQ.T8,EQ.FC6,EQ.F4,EQ.F8,EQ.AF4,MOT.CounterMems,MOT.InterpolatedMems,MOT.Q0,MOT.Q1,MOT.Q2,MOT.Q3,MOT.AccX,MOT.AccY,MOT.AccZ,MOT.MagX,MOT.MagY,MOT.MagZ
1732156756.530760,1732156756.530546,17.000000,0.000000,4294.615234,4284.871582,4314.102539,4298.461426,4273.461426,4288.846191,4334.358887,4397.307617,4302.820313,4289.743652,4469.102539,4498.461426,4343.333496,4398.077148,0.000000,1.000000,27.000000,,,,0.000000,2.000000,2.000000,0.000000,4.000000,2.000000,2.000000,0.000000,0.000000,4.000000,4.000000,4.000000,4.000000,4.000000,4.000000,0.000000,,,,,,,,,,,,,,,,,,,,,,,,,,,,
1732156756.538568,1732156756.538155,18.000000,0.000000,4293.333496,4280.256348,4313.205078,4295.128418,4279.487305,4287.820313,4335.000000,4398.077148,4300.897461,4286.666504,4466.794922,4493.461426,4343.205078,4395.769043,0.000000,1.000000,27.000000,,,,0.000000,2.000000,2.000000,0.000000,4.000000,2.000000,2.000000,0.000000,0.000000,4.000000,4.000000,4.000000,4.000000,4.000000,4.000000,0.000000,,,,,,,,,,,,,,,,,,,,,,,,,,,,
1732156756.546376,1732156756.545963,19.000000,0.000000,4295.384766,4281.282227,4311.666504,4293.974121,4281.153809,4284.230957,4335.000000,4399.743652,4297.051270,4280.641113,4462.436035,4490.512695,4341.410156,4394.615234,0.000000,1.000000,27.000000,,,,0.000000,2.000000,2.000000,0.000000,4.000000,2.000000,2.000000,0.000000,0.000000,4.000000,4.000000,4.000000,4.000000,4.000000,4.000000,0.000000,,,,,,,,,,,,,,,,,,,,,,,,,,,,
1732156756.554185,1732156756.553871,20.000000,0.000000,4295.000000,4282.051270,4311.282227,4293.333496,4289.871582,4279.230957,4334.487305,4399.871582,4295.512695,4278.846191,4460.641113,4490.384766,4340.512695,4396.410156,0.000000,1.000000,27.000000,,,,0.000000,2.000000,2.000000,0.000000,4.000000,2.000000,2.000000,0.000000,0.000000,4.000000,4.000000,4.000000,4.000000,4.000000,4.000000,0.000000,,,,,,,,,,,,,,,,,5.000000,0.000000,0.492795,0.454163,-0.590515,0.449646,0.971310,-0.077646,-0.105970,-36.614010,44.172882,30.721739
1732156756.561993,1732156756.561679,21.000000,0.000000,4294.743652,4281.538574,4313.333496,4292.307617,4290.769043,4280.769043,4335.000000,4399.230957,4295.897461,4280.897461,4465.256348,4495.897461,4341.282227,4398.717773,0.000000,1.000000,27.000000,,,,0.000000,2.000000,2.000000,0.000000,4.000000,2.000000,2.000000,0.000000,0.000000,4.000000,4.000000,4.000000,4.000000,4.000000,4.000000,0.000000,,,,,,,,,,,,,,,,,,,,,,,,,,,,
1732156756.569801,1732156756.569687,22.000000,0.000000,4297.179688,4284.230957,4313.846191,4299.230957,4276.538574,4285.000000,4334.871582,4399.871582,4301.666504,4287.692383,4472.051270,4502.307617,4342.179688,4400.128418,0.000000,1.000000,27.000000,,,,0.000000,2.000000,2.000000,0.000000,4.000000,2.000000,2.000000,0.000000,0.000000,4.000000,4.000000,4.000000,4.000000,4.000000,4.000000,0.000000,,,,,,,,,,,,,,,,,,,,,,,,,,,,
1732156756.577609,1732156756.577496,23.000000,0.000000,4298.589844,4287.820313,4313.589844,4304.102539,4283.717773,4285.000000,4334.230957,4399.615234,4301.666504,4292.692383,4473.717773,4503.461426,4341.922852,4402.692383,0.000000,1.000000,27.000000,,,,0.000000,2.000000,2.000000,0.000000,4.000000,2.000000,2.000000,0.000000,0.000000,4.000000,4.000000,4.000000,4.000000,4.000000,4.000000,0.000000,,,,,,,,,,,,,,,,,,,,,,,,,,,,
1732156756.585418,1732156756.585404,24.000000,0.000000,4297.051270,4285.128418,4313.461426,4297.051270,4292.948730,4284.743652,4334.358887,4399.615234,4296.922852,4291.282227,4472.436035,4501.666504,4341.794922,4403.974121,0.000000,1.000000,27.000000,,,,0.000000,2.000000,2.000000,0.000000,4.000000,2.000000,2.000000,0.000000,0.000000,4.000000,4.000000,4.000000,4.000000,4.000000,4.000000,0.000000,,,,,,,,,,,,,,,,,6.000000,0.000000,0.493409,0.453918,-0.590515,0.449219,0.975217,-0.065438,-0.111342,-36.685680,44.195034,30.939610
1732156756.593226,1732156756.593212,25.000000,0.000000,4295.897461,4282.563965,4312.820313,4294.230957,4278.846191,4287.051270,4335.000000,4399.615234,4302.948730,4291.666504,4471.538574,4502.692383,4342.051270,4398.974121,0.000000,1.000000,27.000000,,,,0.000000,2.000000,2.000000,0.000000,4.000000,2.000000,2.000000,0.000000,0.000000,4.000000,4.000000,4.000000,4.000000,4.000000,4.000000,0.000000,,,,,,,,,,,,,,,,,,,,,,,,,,,,
1732156756.601034,1732156756.601220,26.000000,0.000000,4296.282227,4286.666504,4313.333496,4300.897461,4274.743652,4287.820313,4335.000000,4399.743652,4312.563965,4296.153809,4473.333496,4506.025879,4344.102539,4394.743652,0.000000,1.000000,27.000000,,,,0.000000,2.000000,2.000000,0.000000,4.000000,2.000000,2.000000,0.000000,0.000000,4.000000,4.000000,4.000000,4.000000,4.000000,4.000000,0.000000,,,,,,,,,,,,,,,,,,,,,,,,,,,,
1732156756.608842,1732156756.609028,27.000000,0.000000,4296.794922,4293.589844,4313.589844,4301.922852,4284.743652,4287.179688,4334.871582,4399.615234,4308.589844,4293.846191,4475.256348,4506.666504,4344.487305,4397.307617,0.000000,1.000000,27.000000,,,,0.000000,2.000000,2.000000,0.000000,4.000000,2.000000,2.000000,0.000000,0.000000,4.000000,4.000000,4.000000,4.000000,4.000000,4.000000,0.000000,,,,,,,,,,,,,,,,,,,,,,,,,,,,
1732156756.616651,1732156756.616936,28.000000,0.000000,4295.641113,4292.307617,4311.794922,4296.922852,4295.769043,4284.102539,4334.230957,4399.358887,4297.948730,4283.333496,4467.820313,4498.589844,4338.846191,4398.717773,0.000000,1.000000,27.000000,,,,0.000000,2.000000,2.000000,0.000000,4.000000,2.000000,2.000000,0.000000,0.000000,4.000000,4.000000,4.000000,4.000000,4.000000,4.000000,0.000000,,,,,,,,,,,,,,,,,7.000000,0.000000,0.493682,0.454041,-0.590332,0.449036,0.975217,-0.065438,-0.111342,-36.680401,44.347977,31.067751
1732156756.624459,1732156756.624744,29.000000,0.000000,4294.358887,4285.641113,4312.179688,4295.769043,4300.897461,4280.769043,4333.974121,4400.384766,4298.333496,4280.000000,4459.230957,4493.077148,4336.922852,4396.410156,0.000000,1.000000,27.000000,,,,0.000000,2.000000,2.000000,0.000000,4.000000,2.000000,2.000000,0.000000,0.000000,4.000000,4.000000,4.000000,4.000000,4.000000,4.000000,0.000000,,,,,,,,,,,,,,,,,,,,,,,,,,,,
1732156756.632267,1732156756.632752,30.000000,0.000000,4294.358887,4290.641113,4312.436035,4300.897461,4286.794922,4285.256348,4335.769043,4398.974121,4304.358887,4285.256348,4461.666504,4496.666504,4341.922852,4397.563965,0.000000,1.000000,27.000000,,,,0.000000,2.000000,2.000000,0.000000,4.000000,2.000000,2.000000,0.000000,0.000000,4.000000,4.000000,4.000000,4.000000,4.000000,4.000000,0.000000,,,,,,,,,,,,,,,,,,,,,,,,,,,,
1732156756.640075,1732156756.640561,31.000000,0.000000,4295.769043,4294.743652,4310.769043,4304.102539,4274.358887,4291.282227,4335.897461,4397.563965,4301.025879,4284.230957,4463.461426,4499.487305,4343.717773,4399.487305,0.000000,1.000000,27.000000,,,,0.000000,2.000000,2.000000,0.000000,4.000000,2.000000,2.000000,0.000000,0.000000,4.000000,4.000000,4.000000,4.000000,4.000000,4.000000,0.000000,,,,,,,,,,,,,,,,,,,,,,,,,,,,
1732156756.647884,1732156756.648469,32.000000,0.000000,4296.282227,4287.563965,4312.820313,4301.153809,4282.307617,4289.871582,4333.717773,4397.948730,4296.794922,4278.846191,4459.358887,4500.384766,4341.410156,4398.589844,0.000000,1.000000,27.000000,,,,0.000000,2.000000,2.000000,0.000000,4.000000,2.000000,2.000000,0.000000,0.000000,4.000000,4.000000,4.000000,4.000000,4.000000,4.000000,0.000000,,,,,,,,,,,,,,,,,8.000000,0.000000,0.494370,0.454590,-0.589844,0.448364,0.986449,-0.062508,-0.112807,-36.519459,44.756863,31.023211
1732156756.655692,1732156756.656277,33.000000,0.000000,4294.230957,4287.436035,4315.128418,4298.846191,4288.205078,4286.025879,4334.615234,4398.077148,4299.615234,4280.256348,4460.128418,4497.563965,4342.307617,4397.692383,0.000000,1.000000,27.000000,,,,0.000000,2.000000,2.000000,0.000000,4.000000,2.000000,2.000000,0.000000,0.000000,4.000000,4.000000,4.000000,4.000000,4.000000,4.000000,0.000000,,,,,,,,,,,,,,,,,,,,,,,,,,,,
1732156756.663500,1732156756.664285,34.000000,0.000000,4296.282227,4295.128418,4314.871582,4305.769043,4286.025879,4282.436035,4336.666504,4396.922852,4299.743652,4282.307617,4462.820313,4491.794922,4344.615234,4399.102539,0.000000,1.000000,27.000000,,,,0.000000,2.000000,2.000000,0.000000,4.000000,2.000000,2.000000,0.000000,0.000000,4.000000,4.000000,4.000000,4.000000,4.000000,4.000000,0.000000,,,,,,,,,,,,,,,,,,,,,,,,,,,,
1732156756.671308,1732156756.672093,35.000000,0.000000,4300.384766,4297.436035,4314.230957,4311.666504,4284.230957,4281.282227,4335.512695,4397.563965,4298.974121,4281.794922,4461.538574,4492.948730,4344.102539,4398.333496,0.000000,1.000000,27.000000,,,,0.000000,2.000000,2.000000,0.000000,4.000000,2.000000,2.000000,0.000000,0.000000,4.000000,4.000000,4.000000,4.000000,4.000000,4.000000,0.000000,,,,,,,,,,,,,,,,,,,,,,,,,,,,
1732156756.679117,1732156756.680001,36.000000,0.000000,4298.333496,4295.256348,4315.641113,4303.846191,4293.974121,4280.897461,4333.461426,4398.461426,4300.384766,4280.512695,4459.871582,4495.000000,4342.051270,4395.000000,0.000000,1.000000,27.000000,,,,0.000000,2.000000,2.000000,0.000000,4.000000,2.000000,2.000000,0.000000,0.000000,4.000000,4.000000,4.000000,4.000000,4.000000,4.000000,0.000000,,,,,,,,,,,,,,,,,9.000000,0.000000,0.494893,0.457092,-0.588257,0.447327,0.973752,-0.041509,-0.117202,-36.589096,44.584724,31.067135
1732156756.686925,1732156756.687810,37.000000,0.000000,4294.358887,4294.102539,4314.102539,4296.794922,4302.436035,4279.615234,4333.974121,4397.692383,4295.384766,4277.692383,4458.717773,4490.769043,4340.897461,4394.743652,0.000000,1.000000,27.000000,,,,0.000000,2.000000,2.000000,0.000000,4.000000,2.000000,2.000000,0.000000,0.000000,4.000000,4.000000,4.000000,4.000000,4.000000,4.000000,0.000000,,,,,,,,,,,,,,,,,,,,,,,,,,,,
1732156756.694733,1732156756.695818,38.000000,0.000000,4294.743652,4292.563965,4310.384766,4301.410156,4283.077148,4279.743652,4334.743652,4397.692383,4292.436035,4279.487305,4462.179688,4494.230957,4344.743652,4397.820313,0.000000,1.000000,27.000000,,,,0.000000,2.000000,2.000000,0.000000,4.000000,2.000000,2.000000,0.000000,0.000000,4.000000,4.000000,4.000000,4.000000,4.000000,4.000000,0.000000,,,,,,,,,,,,,,,,,,,,,,,,,,,,
1732156756.702541,1732156756.703626,39.000000,0.000000,4294.358887,4293.333496,4310.769043,4305.641113,4261.282227,4281.922852,4334.102539,4397.436035,4296.794922,4283.333496,4465.897461,4500.897461,4349.743652,4398.333496,0.000000,1.000000,27.000000,,,,0.000000,2.000000,2.000000,0.000000,4.000000,2.000000,2.000000,0.000000,0.000000,4.000000,4.000000,4.000000,4.000000,4.000000,4.000000,0.000000,,,,,,,,,,,,,,,,,,,,,,,,,,,,
1732156756.710349,1732156756.711534,40.000000,0.000000,4292.820313,4294.615234,4310.512695,4303.333496,4277.051270,4281.538574,4333.589844,4397.563965,4294.358887,4280.897461,4462.051270,4494.487305,4349.615234,4395.000000,0.000000,1.000000,27.000000,,,,0.000000,2.000000,2.000000,0.000000,4.000000,2.000000,2.000000,0.000000,0.000000,4.000000,4.000000,4.000000,4.000000,4.000000,4.000000,0.000000,,,,,,,,,,,,,,,,,10.000000,0.000000,0.494639,0.458252,-0.587708,0.447144,0.978635,-0.061043,-0.113783,-36.708832,44.538628,31.017712
1732156756.718158,1732156756.719342,41.000000,0.000000,4295.897461,4294.743652,4307.948730,4305.000000,4292.948730,4279.871582,4333.974121,4397.563965,4289.230957,4276.922852,4460.128418,4490.512695,4348.846191,4396.410156,0.000000,1.000000,27.000000,,,,0.000000,2.000000,2.000000,0.000000,4.000000,2.000000,2.000000,0.000000,0.000000,4.000000,4.000000,4.000000,4.000000,4.000000,4.000000,0.000000,,,,,,,,,,,,,,,,,,,,,,,,,,,,
1732156756.725966,1732156756.727350,42.000000,0.000000,4297.307617,4295.641113,4309.358887,4308.846191,4273.333496,4280.384766,4333.461426,4396.538574,4292.692383,4278.589844,4468.589844,4497.948730,4350.641113,4399.102539,0.000000,1.000000,27.000000,,,,0.000000,2.000000,2.000000,0.000000,4.000000,2.000000,2.000000,0.000000,0.000000,4.000000,4.000000,4.000000,4.000000,4.000000,4.000000,0.000000,,,,,,,,,,,,,,,,,,,,,,,,,,,,
1732156756.733774,1732156756.735158,43.000000,0.000000,4296.025879,4294.487305,4309.871582,4308.974121,4260.384766,4281.410156,4333.846191,4396.922852,4297.436035,4285.769043,4475.128418,4502.051270,4351.153809,4398.205078,0.000000,1.000000,27.000000,,,,0.000000,2.000000,2.000000,0.000000,4.000000,2.000000,2.000000,0.000000,0.000000,4.000000,4.000000,4.000000,4.000000,4.000000,4.000000,0.000000,,,,,,,,,,,,,,,,,,,,,,,,,,,,
1732156756.741583,1732156756.743066,44.000000,0.000000,4297.948730,4293.205078,4307.563965,4305.512695,4270.384766,4282.948730,4335.641113,4397.948730,4297.051270,4292.307617,4473.846191,4501.282227,4351.153809,4399.615234,0.000000,1.000000,27.000000,,,,0.000000,2.000000,2.000000,0.000000,4.000000,2.000000,2.000000,0.000000,0.000000,4.000000,4.000000,4.000000,4.000000,4.000000,4.000000,0.000000,,,,,,,,,,,,,,,,,11.000000,0.000000,0.494350,0.458679,-0.587524,0.447266,0.977658,-0.067879,-0.120132,-36.795822,44.847954,31.141014
1732156756.749391,1732156756.750875,45.000000,0.000000,4300.128418,4293.974121,4310.256348,4299.102539,4279.615234,4283.333496,4335.128418,4397.179688,4296.922852,4293.846191,4470.000000,4500.769043,4352.179688,4399.487305,0.000000,1.000000,27.000000,,,,0.000000,2.000000,2.000000,0.000000,4.000000,2.000000,2.000000,0.000000,0.000000,4.000000,4.000000,4.000000,4.000000,4.000000,4.000000,0.000000,,,,,,,,,,,,,,,,,,,,,,,,,,,,
1732156756.757199,1732156756.758483,46.000000,0.000000,4296.666504,4293.461426,4313.205078,4295.000000,4289.102539,4279.487305,4333.333496,4396.282227,4294.358887,4285.769043,4464.358887,4495.000000,4347.820313,4393.717773,0.000000,1.000000,27.000000,,,,0.000000,2.000000,2.000000,0.000000,4.000000,2.000000,2.000000,0.000000,0.000000,4.000000,4.000000,4.000000,4.000000,4.000000,4.000000,0.000000,,,,,,,,,,,,,,,,,,,,,,,,,,,,
1732156756.765007,1732156756.766291,47.000000,0.000000,4293.461426,4293.205078,4308.717773,4295.897461,4287.563965,4280.769043,4334.743652,4397.179688,4291.666504,4278.589844,4458.974121,4489.230957,4342.563965,4391.922852,0.000000,1.000000,27.000000,,,,0.000000,2.000000,2.000000,0.000000,4.000000,2.000000,2.000000,0.000000,0.000000,4.000000,4.000000,4.000000,4.000000,4.000000,4.000000,0.000000,,,,,,,,,,,,,,,,,,,,,,,,,,,,
1732156756.772815,1732156756.774000,48.000000,0.000000,4299.358887,4293.077148,4309.358887,4299.871582,4269.102539,4286.666504,4336.153809,4398.717773,4302.051270,4287.307617,4460.897461,4492.692383,4342.948730,4397.436035,0.000000,1.000000,27.000000,,,,0.000000,2.000000,2.000000,0.000000,4.000000,2.000000,2.000000,0.000000,0.000000,4.000000,4.000000,4.000000,4.000000,4.000000,4.000000,0.000000,,,,,,,,,,,,,,,,,12.000000,0.000000,0.492669,0.459534,-0.587524,0.448242,0.969845,-0.072274,-0.123550,-36.629616,44.745178,31.182554
1732156756.780624,1732156756.781808,49.000000,0.000000,4303.589844,4289.743652,4313.077148,4300.897461,4264.487305,4285.512695,4335.769043,4398.974121,4310.000000,4297.820313,4465.897461,4495.512695,4343.589844,4398.205078,0.000000,1.000000,27.000000,,,,0.000000,2.000000,2.000000,0.000000,4.000000,2.000000,2.000000,0.000000,0.000000,4.000000,4.000000,4.000000,4.000000,4.000000,4.000000,0.000000,,,,,,,,,,,,,,,,,,,,,,,,,,,,
1732156756.788432,1732156756.789416,50.000000,0.000000,4297.948730,4288.589844,4311.282227,4297.179688,4278.974121,4278.589844,4336.282227,4397.179688,4300.512695,4294.102539,4466.922852,4490.897461,4346.666504,4395.897461,0.000000,1.000000,27.000000,,,,0.000000,2.000000,2.000000,0.000000,4.000000,2.000000,2.000000,0.000000,0.000000,4.000000,4.000000,4.000000,4.000000,4.000000,4.000000,0.000000,,,,,,,,,,,,,,,,,,,,,,,,,,,,
1732156756.796240,1732156756.797224,51.000000,0.000000,4294.102539,4295.256348,4310.128418,4296.153809,4279.358887,4279.102539,4335.512695,4396.153809,4294.487305,4290.256348,4469.358887,4492.820313,4353.974121,4401.666504,0.000000,1.000000,27.000000,,,,0.000000,2.000000,2.000000,0.000000,4.000000,2.000000,2.000000,0.000000,0.000000,4.000000,4.000000,4.000000,4.000000,4.000000,4.000000,0.000000,,,,,,,,,,,,,,,,,,,,,,,,,,,,
1732156756.804048,1732156756.804933,52.000000,0.000000,4295.512695,4296.538574,4311.282227,4300.128418,4276.410156,4285.641113,4333.846191,4398.461426,4299.230957,4294.358887,4472.436035,4499.615234,4347.179688,4402.179688,0.000000,1.000000,27.000000,,,,0.000000,2.000000,2.000000,0.000000,4.000000,2.000000,2.000000,0.000000,0.000000,4.000000,4.000000,4.000000,4.000000,4.000000,4.000000,0.000000,,,,,,,,,,,,,,,,,13.000000,0.000000,0.492318,0.459106,-0.588013,0.448425,0.983030,-0.076181,-0.125015,-36.693321,44.605259,31.222868
1732156756.811857,1732156756.812741,53.000000,0.000000,4292.436035,4288.461426,4312.179688,4299.615234,4283.461426,4286.666504,4335.256348,4399.230957,4297.820313,4294.102539,4472.051270,4496.025879,4340.256348,4399.230957,0.000000,1.000000,27.000000,,,,0.000000,2.000000,2.000000,0.000000,4.000000,2.000000,2.000000,0.000000,0.000000,4.000000,4.000000,4.000000,4.000000,4.000000,4.000000,0.000000,,,,,,,,,,,,,,,,,,,,,,,,,,,,
1732156756.819665,1732156756.820349,54.000000,0.000000,4292.051270,4288.461426,4313.205078,4296.410156,4282.179688,4280.897461,4336.153809,4396.922852,4293.461426,4293.205078,4476.282227,4490.256348,4357.820313,4405.641113,0.000000,1.000000,27.000000,,,,0.000000,2.000000,2.000000,0.000000,4.000000,2.000000,2.000000,0.000000,0.000000,4.000000,4.000000,4.000000,4.000000,4.000000,4.000000,0.000000,,,,,,,,,,,,,,,,,,,,,,,,,,,,
1732156756.827473,1732156756.828157,55.000000,0.000000,4302.948730,4295.512695,4312.307617,4298.333496,4274.487305,4280.256348,4333.846191,4397.692383,4296.153809,4295.384766,4482.820313,4499.487305,4370.256348,4416.794922,0.000000,1.000000,27.000000,,,,0.000000,2.000000,2.000000,0.000000,4.000000,2.000000,2.000000,0.000000,0.000000,4.000000,4.000000,4.000000,4.000000,4.000000,4.000000,0.000000,,,,,,,,,,,,,,,,,,,,,,,,,,,,
1732156756.835281,1732156756.835866,56.000000,0.000000,4312.820313,4296.282227,4310.128418,4299.102539,4273.461426,4278.589844,4332.563965,4399.743652,4296.922852,4292.820313,4481.666504,4508.846191,4364.487305,4422.563965,0.000000,1.000000,27.000000,,,,0.000000,2.000000,2.000000,0.000000,4.000000,2.000000,2.000000,0.000000,0.000000,4.000000,4.000000,4.000000,4.000000,4.000000,4.000000,0.000000,,,,,,,,,,,,,,,,,14.000000,0.000000,0.492111,0.458740,-0.588379,0.448547,0.946893,-0.079111,-0.128434,-36.819923,44.491928,31.210524
1732156756.843090,1732156756.843674,57.000000,0.000000,4316.666504,4293.974121,4311.666504,4295.897461,4280.384766,4269.102539,4333.589844,4398.717773,4294.615234,4291.282227,4482.692383,4504.230957,4368.974121,4424.358887,0.000000,1.000000,27.000000,,,,0.000000,2.000000,2.000000,0.000000,4.000000,2.000000,2.000000,0.000000,0.000000,4.000000,4.000000,4.000000,4.000000,4.000000,4.000000,0.000000,,,,,,,,,,,,,,,,,,,,,,,,,,,,
1732156756.850898,1732156756.851282,58.000000,0.000000,4322.436035,4295.641113,4311.538574,4295.384766,4272.948730,4265.128418,4333.333496,4397.436035,4295.256348,4294.230957,4490.512695,4502.179688,4386.410156,4432.692383,0.000000,1.000000,27.000000,,,,0.000000,2.000000,2.000000,0.000000,4.000000,2.000000,2.000000,0.000000,0.000000,4.000000,4.000000,4.000000,4.000000,4.000000,4.000000,0.000000,,,,,,,,,,,,,,,,,,,,,,,,,,,,
1732156756.858706,1732156756.859091,59.000000,0.000000,4329.871582,4296.282227,4310.641113,4297.436035,4249.871582,4268.717773,4332.692383,4398.717773,4296.025879,4296.282227,4493.333496,4509.487305,4394.230957,4446.538574,0.000000,1.000000,27.000000,,,,0.000000,2.000000,2.000000,0.000000,4.000000,2.000000,2.000000,0.000000,0.000000,4.000000,4.000000,4.000000,4.000000,4.000000,4.000000,0.000000,,,,,,,,,,,,,,,,,,,,,,,,,,,,
1732156756.866514,1732156756.866799,60.000000,0.000000,4339.743652,4294.358887,4312.051270,4296.922852,4245.641113,4267.692383,4333.205078,4398.077148,4295.256348,4294.871582,4496.282227,4513.205078,4397.563965,4457.820313,0.000000,1.000000,27.000000,,,,0.000000,2.000000,2.000000,0.000000,4.000000,2.000000,2.000000,0.000000,0.000000,4.000000,4.000000,4.000000,4.000000,4.000000,4.000000,0.000000,,,,,,,,,,,,,,,,,15.000000,0.000000,0.492132,0.458008,-0.588745,0.448792,0.960078,-0.073251,-0.128434,-36.569138,44.113461,31.075523
1732156756.874323,1732156756.874607,61.000000,0.000000,4348.077148,4296.025879,4312.436035,4296.538574,4250.256348,4263.717773,4332.948730,4396.282227,4293.974121,4292.692383,4505.641113,4514.358887,4405.769043,4466.538574,0.000000,1.000000,27.000000,,,,0.000000,2.000000,2.000000,0.000000,4.000000,2.000000,2.000000,0.000000,0.000000,4.000000,4.000000,4.000000,4.000000,4.000000,4.000000,0.000000,,,,,,,,,,,,,,,,,,,,,,,,,,,,
1732156756.882131,1732156756.882615,62.000000,0.000000,4350.641113,4294.871582,4308.974121,4296.153809,4246.922852,4263.077148,4329.615234,4396.794922,4294.487305,4292.820313,4508.974121,4518.846191,4413.205078,4473.461426,0.000000,1.000000,27.000000,,,,0.000000,2.000000,2.000000,0.000000,4.000000,2.000000,2.000000,0.000000,0.000000,4.000000,4.000000,4.000000,4.000000,4.000000,4.000000,0.000000,,,,,,,,,,,,,,,,,,,,,,,,,,,,
1732156756.889939,1732156756.890423,63.000000,0.000000,4356.666504,4292.051270,4308.974121,4293.333496,4255.897461,4259.615234,4326.922852,4397.307617,4290.897461,4292.307617,4507.820313,4522.051270,4420.256348,4480.000000,0.000000,1.000000,27.000000,,,,0.000000,2.000000,2.000000,0.000000,4.000000,2.000000,2.000000,0.000000,0.000000,4.000000,4.000000,4.000000,4.000000,4.000000,4.000000,0.000000,,,,,,,,,,,,,,,,,,,,,,,,,,,,
1732156756.897747,1732156756.898132,64.000000,0.000000,4366.922852,4295.000000,4313.589844,4294.230957,4258.589844,4255.000000,4329.743652,4397.051270,4285.641113,4290.512695,4514.487305,4523.974121,4426.794922,4487.051270,0.000000,1.000000,27.000000,,,,0.000000,2.000000,2.000000,0.000000,4.000000,2.000000,2.000000,0.000000,0.000000,4.000000,4.000000,4.000000,4.000000,4.000000,4.000000,0.000000,,,,,,,,,,,,,,,,,16.000000,0.000000,0.492350,0.455994,-0.589661,0.449402,0.971310,-0.077158,-0.112807,-36.471001,44.350235,30.951174
1732156756.905556,1732156756.905940,65.000000,0.000000,4368.974121,4298.461426,4312.436035,4296.666504,4236.153809,4255.128418,4334.743652,4397.692383,4289.487305,4292.692383,4521.538574,4524.487305,4429.230957,4492.179688,1593.000000,1.000000,27.000000,,,,0.000000,2.000000,2.000000,0.000000,4.000000,2.000000,2.000000,0.000000,0.000000,4.000000,4.000000,4.000000,4.000000,4.000000,4.000000,0.000000,,,,,,,,,,,,,,,,,,,,,,,,,,,,
1732156756.913364,1732156756.913948,66.000000,0.000000,4365.128418,4293.461426,4308.077148,4293.974121,4229.230957,4258.589844,4334.102539,4398.205078,4293.077148,4297.179688,4521.538574,4524.102539,4432.307617,4489.871582,1397.000000,1.000000,27.000000,,,,0.000000,2.000000,2.000000,0.000000,4.000000,2.000000,2.000000,0.000000,0.000000,4.000000,4.000000,4.000000,4.000000,4.000000,4.000000,0.000000,,,,,,,,,,,,,,,,,,,,,,,,,,,,
1732156756.921172,1732156756.921756,67.000000,0.000000,4366.153809,4291.025879,4308.333496,4289.743652,4239.743652,4260.897461,4329.487305,4398.077148,4285.897461,4295.769043,4520.384766,4522.820313,4439.743652,4492.307617,1416.000000,1.000000,27.000000,,,,0.000000,2.000000,2.000000,0.000000,4.000000,2.000000,2.000000,0.000000,0.000000,4.000000,4.000000,4.000000,4.000000,4.000000,4.000000,0.000000,,,,,,,,,,,,,,,,,,,,,,,,,,,,
1732156756.928980,1732156756.929664,68.000000,0.000000,4367.563965,4293.461426,4309.358887,4289.615234,4248.333496,4255.384766,4326.538574,4398.461426,4277.051270,4290.512695,4522.436035,4521.794922,4444.102539,4496.538574,1414.000000,1.000000,27.000000,,,,0.000000,2.000000,2.000000,0.000000,4.000000,2.000000,2.000000,0.000000,0.000000,4.000000,4.000000,4.000000,4.000000,4.000000,4.000000,0.000000,,,,,,,,,,,,,,,,,17.000000,0.000000,0.492322,0.453613,-0.590820,0.450317,0.963008,-0.079600,-0.101087,-36.453178,44.532024,30.732119
1732156756.936788,1732156756.937472,69.000000,0.000000,4365.897461,4287.563965,4307.436035,4286.538574,4258.974121,4252.307617,4327.436035,4398.461426,4282.179688,4292.051270,4523.205078,4522.051270,4441.922852,4494.743652,1244.000000,1.000000,27.000000,,,,0.000000,2.000000,2.000000,0.000000,4.000000,2.000000,2.000000,0.000000,0.000000,4.000000,4.000000,4.000000,4.000000,4.000000,4.000000,0.000000,,,,,,,,,,,,,,,,,,,,,,,,,,,,
1732156756.944597,1732156756.945480,70.000000,0.000000,4364.871582,4280.384766,4310.384766,4282.563965,4252.436035,4259.358887,4331.666504,4397.948730,4292.179688,4298.333496,4522.179688,4523.974121,4442.436035,4498.333496,0.000000,1.000000,27.000000,,,,0.000000,2.000000,2.000000,0.000000,4.000000,2.000000,2.000000,0.000000,0.000000,4.000000,4.000000,4.000000,4.000000,4.000000,4.000000,0.000000,,,,,,,,,,,,,,,,,,,,,,,,,,,,
1732156756.952405,1732156756.953289,71.000000,0.000000,4364.615234,4280.897461,4313.333496,4285.641113,4228.717773,4263.717773,4335.769043,4397.692383,4289.615234,4299.230957,4523.589844,4525.769043,4442.948730,4505.256348,0.000000,1.000000,27.000000,,,,0.000000,2.000000,2.000000,0.000000,4.000000,2.000000,2.000000,0.000000,0.000000,4.000000,4.000000,4.000000,4.000000,4.000000,4.000000,0.000000,,,,,,,,,,,,,,,,,,,,,,,,,,,,
1732156756.960213,1732156756.961197,72.000000,0.000000,4364.871582,4281.410156,4311.410156,4286.153809,4229.615234,4261.025879,4334.871582,4397.820313,4280.769043,4294.358887,4520.897461,4527.179688,4440.256348,4502.692383,1528.000000,1.000000,27.000000,,,,0.000000,2.000000,2.000000,0.000000,4.000000,2.000000,2.000000,0.000000,0.000000,4.000000,4.000000,4.000000,4.000000,4.000000,4.000000,0.000000,,,,,,,,,,,,,,,,,18.000000,0.000000,0.492316,0.452759,-0.591248,0.450623,0.968380,-0.083995,-0.096203,-36.620407,44.462608,30.783016
1732156756.968022,1732156756.969005,73.000000,0.000000,4365.641113,4283.077148,4311.922852,4283.589844,4247.307617,4258.846191,4331.922852,4397.563965,4280.000000,4293.333496,4522.692383,4533.461426,4441.538574,4503.717773,1671.000000,1.000000,27.000000,,,,0.000000,2.000000,2.000000,0.000000,4.000000,2.000000,2.000000,0.000000,0.000000,4.000000,4.000000,4.000000,4.000000,4.000000,4.000000,0.000000,,,,,,,,,,,,,,,,,,,,,,,,,,,,
1732156756.975830,1732156756.977013,74.000000,0.000000,4366.282227,4283.461426,4313.461426,4286.794922,4247.051270,4258.589844,4332.820313,4396.794922,4283.461426,4299.743652,4534.615234,4541.282227,4446.282227,4510.512695,1528.000000,1.000000,27.000000,,,,0.000000,2.000000,2.000000,0.000000,4.000000,2.000000,2.000000,0.000000,0.000000,4.000000,4.000000,4.000000,4.000000,4.000000,4.000000,0.000000,,,,,,,,,,,,,,,,,,,,,,,,,,,,
1732156756.983638,1732156756.984821,75.000000,0.000000,4362.820313,4276.410156,4310.512695,4287.820313,4249.230957,4253.589844,4334.487305,4395.897461,4280.256348,4297.563965,4534.102539,4536.922852,4443.333496,4504.102539,1566.000000,1.000000,27.000000,,,,0.000000,2.000000,2.000000,0.000000,4.000000,2.000000,2.000000,0.000000,0.000000,4.000000,4.000000,4.000000,4.000000,4.000000,4.000000,0.000000,,,,,,,,,,,,,,,,,,,,,,,,,,,,
1732156756.991446,1732156756.992729,76.000000,0.000000,4366.666504,4283.589844,4309.487305,4293.846191,4264.487305,4260.256348,4334.615234,4396.025879,4284.615234,4294.871582,4527.179688,4536.922852,4443.717773,4499.358887,1693.000000,1.000000,27.000000,,,,0.000000,2.000000,2.000000,0.000000,4.000000,2.000000,2.000000,0.000000,0.000000,4.000000,4.000000,4.000000,4.000000,4.000000,4.000000,0.000000,,,,,,,,,,,,,,,,,19.000000,0.000000,0.492605,0.450256,-0.592590,0.451050,0.976193,-0.079111,-0.114760,-36.644196,44.523045,31.079243
1732156756.999255,1732156757.000537,77.000000,0.000000,4375.897461,4304.871582,4310.384766,4307.948730,4262.948730,4278.333496,4333.589844,4396.794922,4298.461426,4305.769043,4537.051270,4549.871582,4455.641113,4510.128418,1686.000000,1.000000,27.000000,,,,0.000000,2.000000,2.000000,0.000000,4.000000,2.000000,2.000000,0.000000,0.000000,4.000000,4.000000,4.000000,4.000000,4.000000,4.000000,0.000000,,,,,,,,,,,,,,,,,,,,,,,,,,,,
1732156757.007063,1732156757.008545,78.000000,0.000000,4371.282227,4298.461426,4311.410156,4305.384766,4244.871582,4270.256348,4330.000000,4397.436035,4300.641113,4310.384766,4543.333496,4549.615234,4453.077148,4511.794922,1528.000000,1.000000,27.000000,,,,0.000000,2.000000,2.000000,0.000000,4.000000,2.000000,2.000000,0.000000,0.000000,4.000000,4.000000,4.000000,4.000000,4.000000,4.000000,0.000000,1.000000,0.000000,2.000000,2.000000,0.000000,4.000000,2.000000,2.000000,0.000000,0.000000,4.000000,4.000000,3.000000,4.000000,3.000000,3.000000,,,,,,,,,,,,
1732156757.014871,1732156757.016354,79.000000,0.000000,4362.948730,4280.384766,4311.538574,4291.922852,4232.563965,4247.820313,4327.307617,4398.589844,4287.948730,4299.358887,4528.333496,4536.282227,4436.794922,4502.820313,1566.000000,1.000000,27.000000,,,,0.000000,2.000000,2.000000,0.000000,4.000000,2.000000,2.000000,0.000000,0.000000,4.000000,4.000000,4.000000,4.000000,4.000000,4.000000,0.000000,,,,,,,,,,,,,,,,,,,,,,,,,,,,
1732156757.022679,1732156757.024262,80.000000,0.000000,4364.487305,4286.282227,4306.794922,4294.871582,4247.051270,4248.846191,4327.692383,4399.102539,4282.051270,4291.794922,4519.871582,4535.128418,4436.282227,4502.436035,1693.000000,1.000000,27.000000,,,,0.000000,2.000000,2.000000,0.000000,4.000000,2.000000,2.000000,0.000000,0.000000,4.000000,4.000000,4.000000,4.000000,4.000000,4.000000,0.000000,,,,,,,,,,,,,,,,,20.000000,0.000000,0.492297,0.448608,-0.593445,0.451904,0.981565,-0.105970,-0.104993,-36.831799,44.543667,31.099186
1732156757.030487,1732156757.032070,81.000000,0.000000,4366.922852,4292.948730,4304.871582,4299.230957,4266.922852,4254.358887,4327.820313,4398.461426,4291.922852,4300.897461,4532.307617,4539.743652,4445.641113,4506.153809,1686.000000,1.000000,27.000000,,,,0.000000,2.000000,2.000000,0.000000,4.000000,2.000000,2.000000,0.000000,0.000000,4.000000,4.000000,4.000000,4.000000,4.000000,4.000000,0.000000,,,,,,,,,,,,,,,,,,,,,,,,,,,,
1732156757.038296,1732156757.040078,82.000000,0.000000,4363.461426,4288.333496,4309.615234,4297.051270,4258.205078,4251.794922,4328.974121,4397.692383,4298.205078,4308.461426,4536.666504,4540.000000,4445.000000,4505.000000,1528.000000,1.000000,27.000000,,,,0.000000,2.000000,2.000000,0.000000,4.000000,2.000000,2.000000,0.000000,0.000000,4.000000,4.000000,4.000000,4.000000,4.000000,4.000000,0.000000,,,,,,,,,,,,,,,,,,,,,,,,,,,,
1732156757.046104,1732156757.047886,83.000000,0.000000,4362.692383,4293.461426,4311.153809,4302.948730,4241.794922,4259.871582,4335.256348,4398.205078,4295.897461,4302.436035,4527.179688,4543.333496,4438.589844,4505.256348,1566.000000,1.000000,27.000000,,,,0.000000,2.000000,2.000000,0.000000,4.000000,2.000000,2.000000,0.000000,0.000000,4.000000,4.000000,4.000000,4.000000,4.000000,4.000000,0.000000,,,,,,,,,,,,,,,,,,,,,,,,,,,,
1732156757.053912,1732156757.055794,84.000000,0.000000,4361.794922,4299.871582,4309.743652,4306.153809,4247.179688,4269.615234,4335.769043,4398.333496,4296.282227,4298.077148,4523.077148,4542.051270,4433.077148,4504.358887,1693.000000,1.000000,27.000000,,,,0.000000,2.000000,2.000000,0.000000,4.000000,2.000000,2.000000,0.000000,0.000000,4.000000,4.000000,4.000000,4.000000,4.000000,4.000000,0.000000,,,,,,,,,,,,,,,,,21.000000,0.000000,0.492184,0.448059,-0.593628,0.452332,0.981565,-0.105970,-0.104993,-36.882092,44.390369,31.057009
1732156757.061720,1732156757.063602,85.000000,0.000000,4356.794922,4295.384766,4311.922852,4299.230957,4253.846191,4263.717773,4329.487305,4397.307617,4297.563965,4303.077148,4527.179688,4537.436035,4429.615234,4502.948730,1686.000000,1.000000,27.000000,,,,0.000000,2.000000,2.000000,0.000000,4.000000,2.000000,2.000000,0.000000,0.000000,4.000000,4.000000,4.000000,4.000000,4.000000,4.000000,0.000000,,,,,,,,,,,,,,,,,,,,,,,,,,,,
1732156757.069529,1732156757.071610,86.000000,0.000000,4354.230957,4294.358887,4312.436035,4296.666504,4250.000000,4261.282227,4326.538574,4397.051270,4292.948730,4306.025879,4527.307617,4539.102539,4433.077148,4504.230957,1528.000000,1.000000,27.000000,,,,0.000000,2.000000,2.000000,0.000000,4.000000,2.000000,2.000000,0.000000,0.000000,4.000000,4.000000,4.000000,4.000000,4.000000,4.000000,0.000000,,,,,,,,,,,,,,,,,,,,,,,,,,,,
1732156757.077337,1732156757.079419,87.000000,0.000000,4355.897461,4297.692383,4311.666504,4297.820313,4263.333496,4262.563965,4328.077148,4398.077148,4289.615234,4300.512695,4522.563965,4538.846191,4433.717773,4504.230957,1566.000000,1.000000,27.000000,,,,0.000000,2.000000,2.000000,0.000000,4.000000,2.000000,2.000000,0.000000,0.000000,4.000000,4.000000,4.000000,4.000000,4.000000,4.000000,0.000000,,,,,,,,,,,,,,,,,,,,,,,,,,,,
1732156757.085145,1732156757.087127,88.000000,0.000000,4357.563965,4295.769043,4312.692383,4298.077148,4272.563965,4260.384766,4331.666504,4397.692383,4294.230957,4303.717773,4523.077148,4538.717773,4429.358887,4502.179688,1693.000000,1.000000,27.000000,,,,0.000000,2.000000,2.000000,0.000000,4.000000,2.000000,2.000000,0.000000,0.000000,4.000000,4.000000,4.000000,4.000000,4.000000,4.000000,0.000000,,,,,,,,,,,,,,,,,22.000000,0.000000,0.492164,0.447388,-0.593872,0.452698,0.980588,-0.117690,-0.115248,-36.802826,44.551201,31.117844
1732156757.092953,1732156757.094935,89.000000,0.000000,4353.205078,4295.256348,4312.307617,4298.717773,4254.358887,4263.333496,4334.743652,4396.794922,4300.512695,4311.794922,4526.666504,4540.128418,4429.102539,4497.820313,1686.000000,1.000000,27.000000,,,,0.000000,2.000000,2.000000,0.000000,4.000000,2.000000,2.000000,0.000000,0.000000,4.000000,4.000000,4.000000,4.000000,4.000000,4.000000,0.000000,,,,,,,,,,,,,,,,,,,,,,,,,,,,
1732156757.100762,1732156757.102544,90.000000,0.000000,4349.358887,4299.230957,4312.179688,4300.512695,4248.077148,4267.436035,4334.487305,4398.077148,4300.512695,4311.410156,4526.666504,4537.820313,4428.717773,4493.205078,1528.000000,1.000000,27.000000,,,,0.000000,2.000000,2.000000,0.000000,4.000000,2.000000,2.000000,0.000000,0.000000,4.000000,4.000000,4.000000,4.000000,4.000000,4.000000,0.000000,,,,,,,,,,,,,,,,,,,,,,,,,,,,
1732156757.108570,1732156757.110352,91.000000,0.000000,4350.512695,4300.512695,4317.307617,4303.846191,4261.410156,4267.179688,4332.436035,4398.846191,4296.666504,4308.974121,4522.563965,4535.769043,4424.871582,4490.897461,1566.000000,1.000000,27.000000,,,,0.000000,2.000000,2.000000,0.000000,4.000000,2.000000,2.000000,0.000000,0.000000,4.000000,4.000000,4.000000,4.000000,4.000000,4.000000,0.000000,,,,,,,,,,,,,,,,,,,,,,,,,,,,
1732156757.116378,1732156757.118060,92.000000,0.000000,4351.282227,4302.179688,4319.358887,4306.153809,4269.487305,4265.897461,4333.589844,4398.717773,4297.820313,4310.641113,4521.922852,4540.897461,4426.410156,4492.692383,1693.000000,1.000000,27.000000,,,,0.000000,2.000000,2.000000,0.000000,4.000000,2.000000,2.000000,0.000000,0.000000,4.000000,4.000000,4.000000,4.000000,4.000000,4.000000,0.000000,,,,,,,,,,,,,,,,,23.000000,0.000000,0.491344,0.445374,-0.594666,0.454529,0.955683,-0.114272,-0.113783,-36.961956,44.619804,31.162119
1732156757.124186,1732156757.125868,93.000000,0.000000,4350.641113,4302.948730,4314.871582,4301.025879,4265.256348,4265.769043,4334.871582,4398.717773,4297.563965,4311.282227,4525.769043,4542.179688,4430.512695,4495.641113,1686.000000,1.000000,27.000000,,,,0.000000,2.000000,2.000000,0.000000,4.000000,2.000000,2.000000,0.000000,0.000000,4.000000,4.000000,4.000000,4.000000,4.000000,4.000000,0.000000,,,,,,,,,,,,,,,,,,,,,,,,,,,,
1732156757.131995,1732156757.133577,94.000000,0.000000,4347.948730,4294.871582,4312.692383,4292.051270,4258.589844,4264.102539,4330.769043,4397.692383,4293.717773,4307.307617,4524.230957,4537.563965,4423.461426,4493.846191,1528.000000,1.000000,27.000000,,,,0.000000,2.000000,2.000000,0.000000,4.000000,2.000000,2.000000,0.000000,0.000000,4.000000,4.000000,4.000000,4.000000,4.000000,4.000000,0.000000,,,,,,,,,,,,,,,,,,,,,,,,,,,,
1732156757.139803,1732156757.141385,95.000000,0.000000,4353.846191,4297.307617,4317.820313,4297.051270,4272.307617,4267.179688,4329.358887,4398.974121,4301.538574,4312.179688,4523.461426,4546.538574,4420.641113,4492.436035,1566.000000,1.000000,27.000000,,,,0.000000,2.000000,2.000000,0.000000,4.000000,2.000000,2.000000,0.000000,0.000000,4.000000,4.000000,4.000000,4.000000,4.000000,4.000000,0.000000,,,,,,,,,,,,,,,,,,,,,,,,,,,,
1732156757.147611,1732156757.149093,96.000000,0.000000,4362.820313,4312.820313,4318.974121,4309.615234,4289.743652,4274.615234,4332.948730,4401.025879,4314.102539,4319.358887,4525.897461,4556.025879,4427.436035,4495.641113,1693.000000,1.000000,27.000000,,,,0.000000,2.000000,2.000000,0.000000,4.000000,2.000000,2.000000,0.000000,0.000000,4.000000,4.000000,4.000000,4.000000,4.000000,4.000000,0.000000,,,,,,,,,,,,,,,,,24.000000,0.000000,0.491277,0.443481,-0.595154,0.455811,0.966427,-0.132829,-0.103528,-36.967518,44.477043,31.307983
1732156757.155419,1732156757.156901,97.000000,0.000000,4354.871582,4309.871582,4316.282227,4304.487305,4277.051270,4269.230957,4336.025879,4400.384766,4310.384766,4313.461426,4522.307617,4545.769043,4422.692383,4492.436035,1686.000000,1.000000,27.000000,,,,0.000000,2.000000,2.000000,0.000000,4.000000,2.000000,2.000000,0.000000,0.000000,4.000000,4.000000,4.000000,4.000000,4.000000,4.000000,0.000000,,,,,,,,,,,,,,,,,,,,,,,,,,,,
1732156757.163227,1732156757.164909,98.000000,0.000000,4344.358887,4296.538574,4316.794922,4294.230957,4253.077148,4266.794922,4335.128418,4399.102539,4300.256348,4308.205078,4518.333496,4538.589844,4412.307617,4485.641113,1528.000000,1.000000,27.000000,,,,0.000000,2.000000,2.000000,0.000000,4.000000,2.000000,2.000000,0.000000,0.000000,4.000000,4.000000,4.000000,4.000000,4.000000,4.000000,0.000000,,,,,,,,,,,,,,,,,,,,,,,,,,,,
1732156757.171036,1732156757.172718,99.000000,0.000000,4348.717773,4297.179688,4318.077148,4298.717773,4262.051270,4276.410156,4333.333496,4398.974121,4300.128418,4310.512695,4521.410156,4552.179688,4412.179688,4487.948730,1566.000000,1.000000,27.000000,,,,0.000000,2.000000,2.000000,0.000000,4.000000,2.000000,2.000000,0.000000,0.000000,4.000000,4.000000,4.000000,4.000000,4.000000,4.000000,0.000000,,,,,,,,,,,,,,,,,,,,,,,,,,,,
1732156757.178844,1732156757.180426,100.000000,0.000000,4350.769043,4300.512695,4320.256348,4300.897461,4285.384766,4273.461426,4332.179688,4399.358887,4304.487305,4311.666504,4523.461426,4554.743652,4415.512695,4492.692383,1693.000000,1.000000,27.000000,,,,0.000000,2.000000,2.000000,0.000000,4.000000,2.000000,2.000000,0.000000,0.000000,4.000000,4.000000,4.000000,4.000000,4.000000,4.000000,0.000000,,,,,,,,,,,,,,,,,25.000000,0.000000,0.491505,0.442688,-0.595276,0.456177,0.966427,-0.132829,-0.103528,-37.132023,44.576405,31.407801
1732156757.186652,1732156757.188234,101.000000,0.000000,4343.205078,4299.615234,4322.179688,4297.179688,4278.589844,4267.436035,4333.077148,4399.871582,4309.102539,4307.563965,4516.538574,4542.563965,4412.820313,4486.538574,1686.000000,1.000000,27.000000,,,,0.000000,2.000000,2.000000,0.000000,4.000000,2.000000,2.000000,0.000000,0.000000,4.000000,4.000000,4.000000,4.000000,4.000000,4.000000,0.000000,,,,,,,,,,,,,,,,,,,,,,,,,,,,
1732156757.194461,1732156757.195843,102.000000,0.000000,4340.769043,4296.538574,4321.282227,4299.230957,4265.384766,4283.717773,4336.410156,4400.000000,4309.743652,4302.563965,4514.871582,4543.846191,4408.333496,4476.538574,1528.000000,1.000000,27.000000,,,,0.000000,2.000000,2.000000,0.000000,4.000000,2.000000,2.000000,0.000000,0.000000,4.000000,4.000000,4.000000,4.000000,4.000000,4.000000,0.000000,,,,,,,,,,,,,,,,,,,,,,,,,,,,
1732156757.202269,1732156757.203651,103.000000,0.000000,4341.666504,4295.641113,4318.846191,4301.794922,4272.179688,4286.410156,4336.025879,4398.205078,4300.897461,4302.307617,4521.025879,4547.820313,4404.743652,4474.615234,1566.000000,1.000000,27.000000,,,,0.000000,2.000000,2.000000,0.000000,4.000000,2.000000,2.000000,0.000000,0.000000,4.000000,4.000000,4.000000,4.000000,4.000000,4.000000,0.000000,,,,,,,,,,,,,,,,,,,,,,,,,,,,
1732156757.210077,1732156757.211359,104.000000,0.000000,4341.153809,4301.153809,4320.128418,4300.897461,4277.563965,4264.743652,4333.846191,4398.846191,4295.641113,4306.025879,4517.436035,4546.666504,4401.794922,4478.333496,1693.000000,1.000000,27.000000,,,,0.000000,2.000000,2.000000,0.000000,4.000000,2.000000,2.000000,0.000000,0.000000,4.000000,4.000000,4.000000,4.000000,4.000000,4.000000,0.000000,,,,,,,,,,,,,,,,,26.000000,0.000000,0.491600,0.440186,-0.595459,0.458252,0.976193,-0.117202,-0.086925,-37.081940,44.396889,31.381985
1732156757.217885,1732156757.219167,105.000000,0.000000,4342.948730,4303.205078,4321.282227,4301.282227,4271.025879,4265.256348,4334.230957,4400.769043,4299.102539,4307.563965,4509.358887,4545.512695,4402.179688,4479.743652,1686.000000,1.000000,27.000000,,,,0.000000,2.000000,2.000000,0.000000,4.000000,2.000000,2.000000,0.000000,0.000000,4.000000,4.000000,4.000000,4.000000,4.000000,4.000000,0.000000,,,,,,,,,,,,,,,,,,,,,,,,,,,,
1732156757.225694,1732156757.226776,106.000000,0.000000,4343.077148,4296.794922,4323.974121,4297.563965,4272.948730,4281.794922,4335.000000,4398.974121,4298.205078,4303.333496,4508.846191,4546.282227,4403.717773,4476.922852,1528.000000,1.000000,27.000000,,,,0.000000,2.000000,2.000000,0.000000,4.000000,2.000000,2.000000,0.000000,0.000000,4.000000,4.000000,4.000000,4.000000,4.000000,4.000000,0.000000,,,,,,,,,,,,,,,,,,,,,,,,,,,,
1732156757.233502,1732156757.234584,107.000000,0.000000,4343.461426,4295.000000,4326.410156,4292.692383,4282.436035,4281.282227,4335.128418,4397.179688,4298.333496,4299.358887,4510.128418,4545.641113,4401.794922,4475.769043,1566.000000,1.000000,27.000000,,,,0.000000,2.000000,2.000000,0.000000,4.000000,2.000000,2.000000,0.000000,0.000000,4.000000,4.000000,4.000000,4.000000,4.000000,4.000000,0.000000,,,,,,,,,,,,,,,,,,,,,,,,,,,,
1732156757.241310,1732156757.242292,108.000000,0.000000,4344.358887,4296.666504,4323.974121,4293.077148,4281.153809,4277.307617,4334.615234,4398.846191,4308.846191,4298.589844,4507.436035,4546.025879,4396.922852,4478.974121,1693.000000,1.000000,27.000000,,,,0.000000,2.000000,2.000000,0.000000,4.000000,2.000000,2.000000,0.000000,0.000000,4.000000,4.000000,4.000000,4.000000,4.000000,4.000000,0.000000,,,,,,,,,,,,,,,,,27.000000,0.000000,0.491156,0.439209,-0.595276,0.459900,0.969845,-0.110853,-0.082530,-37.094704,44.266479,31.486074
1732156757.249118,1732156757.250100,109.000000,0.000000,4342.948730,4294.358887,4322.820313,4295.512695,4282.563965,4279.743652,4334.743652,4400.897461,4312.563965,4300.897461,4506.410156,4543.974121,4395.000000,4474.615234,1686.000000,1.000000,27.000000,,,,0.000000,2.000000,2.000000,0.000000,4.000000,2.000000,2.000000,0.000000,0.000000,4.000000,4.000000,4.000000,4.000000,4.000000,4.000000,0.000000,,,,,,,,,,,,,,,,,,,,,,,,,,,,
1732156757.256926,1732156757.258108,110.000000,0.000000,4344.358887,4295.384766,4325.512695,4293.846191,4280.512695,4276.922852,4334.871582,4399.358887,4309.487305,4307.307617,4506.922852,4540.512695,4396.410156,4465.641113,1528.000000,1.000000,27.000000,,,,0.000000,2.000000,2.000000,0.000000,4.000000,2.000000,2.000000,0.000000,0.000000,4.000000,4.000000,4.000000,4.000000,4.000000,4.000000,0.000000,,,,,,,,,,,,,,,,,,,,,,,,,,,,
1732156757.264735,1732156757.265917,111.000000,0.000000,4340.897461,4295.256348,4329.487305,4285.897461,4276.153809,4274.487305,4334.743652,4399.230957,4312.563965,4307.692383,4506.794922,4542.820313,4397.051270,4465.769043,1566.000000,1.000000,27.000000,,,,0.000000,2.000000,2.000000,0.000000,4.000000,2.000000,2.000000,0.000000,0.000000,4.000000,4.000000,4.000000,4.000000,4.000000,4.000000,0.000000,,,,,,,,,,,,,,,,,,,,,,,,,,,,
1732156757.272543,1732156757.273825,112.000000,0.000000,4331.153809,4292.436035,4327.307617,4285.256348,4290.897461,4277.692383,4334.743652,4400.128418,4307.307617,4300.256348,4506.025879,4541.666504,4397.563965,4468.974121,1693.000000,1.000000,27.000000,,,,0.000000,2.000000,2.000000,0.000000,4.000000,2.000000,2.000000,0.000000,0.000000,4.000000,4.000000,4.000000,4.000000,4.000000,4.000000,0.000000,,,,,,,,,,,,,,,,,28.000000,0.000000,0.491156,0.439209,-0.595276,0.459900,0.973752,-0.121109,-0.085948,-36.970043,44.175846,31.390387
1732156757.280351,1732156757.281633,113.000000,0.000000,4329.871582,4297.436035,4323.717773,4294.743652,4295.512695,4278.846191,4335.000000,4398.717773,4295.897461,4294.615234,4505.000000,4538.974121,4395.897461,4464.743652,1686.000000,1.000000,27.000000,,,,0.000000,2.000000,2.000000,0.000000,4.000000,2.000000,2.000000,0.000000,0.000000,4.000000,4.000000,4.000000,4.000000,4.000000,4.000000,0.000000,,,,,,,,,,,,,,,,,,,,,,,,,,,,
1732156757.288159,1732156757.289641,114.000000,0.000000,4335.897461,4306.025879,4324.358887,4300.512695,4277.820313,4284.487305,4334.615234,4397.179688,4296.666504,4296.666504,4504.871582,4538.077148,4393.589844,4460.769043,1528.000000,1.000000,27.000000,,,,0.000000,2.000000,2.000000,0.000000,4.000000,2.000000,2.000000,0.000000,0.000000,4.000000,4.000000,4.000000,4.000000,4.000000,4.000000,0.000000,,,,,,,,,,,,,,,,,,,,,,,,,,,,
1732156757.295968,1732156757.297449,115.000000,0.000000,4336.153809,4312.179688,4325.769043,4303.461426,4275.384766,4288.846191,4334.615234,4397.820313,4305.897461,4298.077148,4504.487305,4539.102539,4395.897461,4461.666504,1566.000000,1.000000,27.000000,,,,0.000000,2.000000,2.000000,0.000000,4.000000,2.000000,2.000000,0.000000,0.000000,4.000000,4.000000,4.000000,4.000000,4.000000,4.000000,0.000000,,,,,,,,,,,,,,,,,,,,,,,,,,,,
1732156757.303776,1732156757.305157,116.000000,0.000000,4333.205078,4309.615234,4325.641113,4306.153809,4289.487305,4283.974121,4336.025879,4398.846191,4312.948730,4297.051270,4503.589844,4538.333496,4394.615234,4457.563965,1693.000000,1.000000,27.000000,,,,0.000000,2.000000,2.000000,0.000000,4.000000,2.000000,2.000000,0.000000,0.000000,4.000000,4.000000,4.000000,4.000000,4.000000,4.000000,0.000000,,,,,,,,,,,,,,,,,29.000000,0.000000,0.491015,0.438599,-0.595276,0.460632,0.971798,-0.130875,-0.091320,-36.839069,44.044102,31.487881
1732156757.311584,1732156757.312966,117.000000,0.000000,4328.846191,4301.922852,4326.666504,4302.051270,4290.897461,4280.897461,4335.897461,4398.846191,4312.436035,4297.563965,4499.871582,4536.538574,4385.512695,4449.358887,1686.000000,1.000000,27.000000,,,,0.000000,2.000000,2.000000,0.000000,4.000000,2.000000,2.000000,0.000000,0.000000,4.000000,4.000000,4.000000,4.000000,4.000000,4.000000,0.000000,,,,,,,,,,,,,,,,,,,,,,,,,,,,
1732156757.319392,1732156757.320574,118.000000,0.000000,4321.922852,4297.948730,4326.410156,4295.897461,4287.307617,4284.230957,4333.717773,4397.948730,4301.794922,4293.717773,4491.666504,4535.641113,4379.230957,4443.205078,1528.000000,1.000000,27.000000,,,,0.000000,2.000000,2.000000,0.000000,4.000000,2.000000,2.000000,0.000000,0.000000,4.000000,4.000000,4.000000,4.000000,4.000000,4.000000,0.000000,,,,,,,,,,,,,,,,,,,,,,,,,,,,
1732156757.327201,1732156757.328382,119.000000,0.000000,4321.410156,4302.948730,4326.538574,4299.102539,4291.282227,4282.051270,4333.589844,4397.051270,4296.922852,4291.025879,4488.077148,4532.563965,4379.871582,4446.538574,1566.000000,1.000000,27.000000,,,,0.000000,2.000000,2.000000,0.000000,4.000000,2.000000,2.000000,0.000000,0.000000,4.000000,4.000000,4.000000,4.000000,4.000000,4.000000,0.000000,,,,,,,,,,,,,,,,,,,,,,,,,,,,
1732156757.335009,1732156757.336290,120.000000,0.000000,4327.307617,4308.717773,4327.820313,4306.282227,4293.717773,4278.717773,4335.000000,4398.333496,4310.769043,4294.871582,4493.589844,4536.153809,4381.922852,4456.666504,1693.000000,1.000000,27.000000,,,,0.000000,2.000000,2.000000,0.000000,4.000000,2.000000,2.000000,0.000000,0.000000,4.000000,4.000000,4.000000,4.000000,4.000000,4.000000,0.000000,,,,,,,,,,,,,,,,,30.000000,0.000000,0.491029,0.437073,-0.596008,0.461121,0.983518,-0.126969,-0.077158,-36.982979,44.117390,31.270184
1732156757.342817,1732156757.344099,121.000000,0.000000,4328.461426,4305.128418,4326.666504,4305.641113,4290.128418,4281.538574,4334.871582,4399.102539,4314.487305,4296.538574,4495.512695,4539.743652,4382.692383,4461.922852,1686.000000,1.000000,27.000000,,,,0.000000,2.000000,2.000000,0.000000,4.000000,2.000000,2.000000,0.000000,0.000000,4.000000,4.000000,4.000000,4.000000,4.000000,4.000000,0.000000,,,,,,,,,,,,,,,,,,,,,,,,,,,,
1732156757.350625,1732156757.352107,122.000000,0.000000,4325.128418,4301.153809,4325.384766,4298.846191,4293.461426,4280.384766,4334.487305,4397.820313,4301.410156,4293.461426,4491.282227,4532.692383,4381.282227,4460.641113,1528.000000,1.000000,27.000000,,,,0.000000,2.000000,2.000000,0.000000,4.000000,2.000000,2.000000,0.000000,0.000000,4.000000,4.000000,4.000000,4.000000,4.000000,4.000000,0.000000,,,,,,,,,,,,,,,,,,,,,,,,,,,,
1732156757.358434,1732156757.359915,123.000000,0.000000,4325.000000,4304.102539,4327.179688,4299.487305,4302.051270,4277.179688,4334.871582,4397.692383,4297.563965,4290.384766,4490.128418,4526.666504,4379.358887,4454.615234,1566.000000,1.000000,27.000000,,,,0.000000,2.000000,2.000000,0.000000,4.000000,2.000000,2.000000,0.000000,0.000000,4.000000,4.000000,4.000000,4.000000,4.000000,4.000000,0.000000,,,,,,,,,,,,,,,,,,,,,,,,,,,,
1732156757.366242,1732156757.367823,124.000000,0.000000,4326.282227,4309.615234,4326.025879,4307.820313,4299.871582,4284.871582,4335.000000,4398.461426,4303.205078,4290.256348,4491.282227,4535.384766,4380.769043,4449.102539,1693.000000,1.000000,27.000000,,,,0.000000,2.000000,2.000000,0.000000,4.000000,2.000000,2.000000,0.000000,0.000000,4.000000,4.000000,4.000000,4.000000,4.000000,4.000000,0.000000,,,,,,,,,,,,,,,,,31.000000,0.000000,0.491551,0.436462,-0.596497,0.460510,0.969357,-0.117690,-0.083018,-37.192879,44.066753,31.362181
1732156757.374050,1732156757.375631,125.000000,0.000000,4321.410156,4309.230957,4323.846191,4310.384766,4289.102539,4292.820313,4334.743652,4397.692383,4307.948730,4290.897461,4490.128418,4542.179688,4378.974121,4448.077148,1686.000000,1.000000,27.000000,,,,0.000000,2.000000,2.000000,0.000000,4.000000,2.000000,2.000000,0.000000,0.000000,4.000000,4.000000,4.000000,4.000000,4.000000,4.000000,0.000000,,,,,,,,,,,,,,,,,,,,,,,,,,,,
1732156757.381858,1732156757.383639,126.000000,0.000000,4317.563965,4306.282227,4323.974121,4307.436035,4287.307617,4286.282227,4334.358887,4396.794922,4311.153809,4293.846191,4488.077148,4529.487305,4372.563965,4447.692383,1528.000000,1.000000,27.000000,,,,0.000000,2.000000,2.000000,0.000000,4.000000,2.000000,2.000000,0.000000,0.000000,4.000000,4.000000,4.000000,4.000000,4.000000,4.000000,0.000000,,,,,,,,,,,,,,,,,,,,,,,,,,,,
1732156757.389667,1732156757.391447,127.000000,0.000000,4321.410156,4309.358887,4323.333496,4309.871582,4289.871582,4277.436035,4335.384766,4396.666504,4306.538574,4292.563965,4488.461426,4523.205078,4371.922852,4447.563965,27.000000,1.000000,27.000000,,,,0.000000,2.000000,2.000000,0.000000,4.000000,2.000000,2.000000,0.000000,0.000000,4.000000,4.000000,4.000000,4.000000,4.000000,4.000000,0.000000,,,,,,,,,,,,,,,,,,,,,,,,,,,,
1732156757.397475,1732156757.399355,0.000000,0.000000,4330.512695,4313.461426,4323.846191,4312.948730,4290.897461,4278.717773,4334.487305,4396.794922,4295.641113,4285.769043,4490.128418,4531.794922,4375.512695,4453.461426,0.000000,1.000000,27.000000,,,,0.000000,2.000000,2.000000,0.000000,4.000000,2.000000,2.000000,0.000000,0.000000,4.000000,4.000000,4.000000,4.000000,4.000000,4.000000,0.000000,,,,,,,,,,,,,,,,,0.000000,0.000000,0.491551,0.436462,-0.596497,0.460510,0.976682,-0.110365,-0.097180,-37.302898,44.055737,31.556700
1732156757.405283,1732156757.407164,1.000000,0.000000,4330.897461,4312.948730,4325.256348,4310.897461,4304.358887,4278.589844,4332.051270,4399.230957,4297.436035,4285.000000,4488.974121,4530.769043,4374.615234,4455.000000,1614.000000,1.000000,27.000000,,,,0.000000,2.000000,2.000000,0.000000,4.000000,2.000000,2.000000,0.000000,0.000000,4.000000,4.000000,4.000000,4.000000,4.000000,4.000000,0.000000,,,,,,,,,,,,,,,,,,,,,,,,,,,,
1732156757.413091,1732156757.415172,2.000000,0.000000,4320.512695,4311.282227,4325.000000,4310.000000,4305.897461,4282.692383,4333.461426,4399.743652,4310.384766,4292.948730,4489.102539,4522.179688,4372.436035,4447.436035,1409.000000,1.000000,27.000000,,,,0.000000,2.000000,2.000000,0.000000,4.000000,2.000000,2.000000,0.000000,0.000000,4.000000,4.000000,4.000000,4.000000,4.000000,4.000000,0.000000,,,,,,,,,,,,,,,,,,,,,,,,,,,,
1732156757.420900,1732156757.422980,3.000000,0.000000,4315.897461,4310.256348,4322.948730,4310.000000,4280.256348,4291.794922,4334.615234,4398.077148,4313.717773,4297.051270,4490.000000,4523.205078,4372.051270,4443.846191,1429.000000,1.000000,27.000000,,,,0.000000,2.000000,2.000000,0.000000,4.000000,2.000000,2.000000,0.000000,0.000000,4.000000,4.000000,4.000000,4.000000,4.000000,4.000000,0.000000,,,,,,,,,,,,,,,,,,,,,,,,,,,,
1732156757.428708,1732156757.430888,4.000000,0.000000,4316.538574,4305.897461,4323.205078,4303.974121,4275.000000,4287.436035,4333.077148,4398.974121,4309.615234,4293.589844,4483.717773,4523.461426,4365.897461,4443.205078,1424.000000,1.000000,27.000000,,,,0.000000,2.000000,2.000000,0.000000,4.000000,2.000000,2.000000,0.000000,0.000000,4.000000,4.000000,4.000000,4.000000,4.000000,4.000000,0.000000,,,,,,,,,,,,,,,,,1.000000,0.000000,0.492956,0.435669,-0.597046,0.459045,0.968380,-0.083018,-0.085948,-37.153683,44.106812,31.594261
1732156757.436516,1732156757.438697,5.000000,0.000000,4312.436035,4302.179688,4323.461426,4298.717773,4297.563965,4282.820313,4332.948730,4401.538574,4311.282227,4293.717773,4479.743652,4519.871582,4362.948730,4440.769043,1237.000000,1.000000,27.000000,,,,0.000000,2.000000,2.000000,0.000000,4.000000,2.000000,2.000000,0.000000,0.000000,4.000000,4.000000,4.000000,4.000000,4.000000,4.000000,0.000000,,,,,,,,,,,,,,,,,,,,,,,,,,,,
1732156757.444324,1732156757.446705,6.000000,0.000000,4308.461426,4304.743652,4321.794922,4302.051270,4296.538574,4295.384766,4335.512695,4402.307617,4320.512695,4297.692383,4487.692383,4525.769043,4369.358887,4442.307617,0.000000,1.000000,27.000000,,,,0.000000,2.000000,2.000000,0.000000,4.000000,2.000000,2.000000,0.000000,0.000000,4.000000,4.000000,4.000000,4.000000,4.000000,4.000000,0.000000,,,,,,,,,,,,,,,,,,,,,,,,,,,,
1732156757.452133,1732156757.454513,7.000000,0.000000,4311.538574,4307.051270,4321.153809,4307.820313,4277.436035,4299.102539,4335.000000,4400.128418,4320.641113,4299.230957,4493.589844,4529.358887,4370.897461,4446.666504,0.000000,1.000000,27.000000,,,,0.000000,2.000000,2.000000,0.000000,4.000000,2.000000,2.000000,0.000000,0.000000,4.000000,4.000000,4.000000,4.000000,4.000000,4.000000,0.000000,,,,,,,,,,,,,,,,,,,,,,,,,,,,
1732156757.459941,1732156757.462421,8.000000,0.000000,4313.974121,4305.769043,4322.820313,4308.461426,4282.436035,4283.846191,4331.666504,4396.794922,4305.256348,4296.282227,4485.128418,4527.307617,4365.000000,4444.358887,1539.000000,1.000000,27.000000,,,,0.000000,2.000000,2.000000,0.000000,4.000000,2.000000,2.000000,0.000000,0.000000,4.000000,4.000000,4.000000,4.000000,4.000000,4.000000,0.000000,,,,,,,,,,,,,,,,,2.000000,0.000000,0.493502,0.435669,-0.596924,0.458618,0.983518,-0.106947,-0.083018,-37.076149,44.268185,31.656351
1732156757.467749,1732156757.470229,9.000000,0.000000,4313.205078,4306.538574,4323.717773,4307.436035,4290.897461,4279.102539,4330.256348,4396.410156,4293.846191,4286.538574,4478.077148,4528.077148,4365.384766,4443.589844,1685.000000,1.000000,27.000000,,,,0.000000,2.000000,2.000000,0.000000,4.000000,2.000000,2.000000,0.000000,0.000000,4.000000,4.000000,4.000000,4.000000,4.000000,4.000000,0.000000,,,,,,,,,,,,,,,,,,,,,,,,,,,,
1732156757.475557,1732156757.477838,10.000000,0.000000,4311.538574,4305.256348,4323.589844,4303.077148,4294.615234,4284.743652,4331.282227,4398.333496,4296.922852,4276.922852,4476.794922,4525.000000,4368.205078,4444.487305,1534.000000,1.000000,27.000000,,,,0.000000,2.000000,2.000000,0.000000,4.000000,2.000000,2.000000,0.000000,0.000000,4.000000,4.000000,4.000000,4.000000,4.000000,4.000000,0.000000,,,,,,,,,,,,,,,,,,,,,,,,,,,,
1732156757.483365,1732156757.485646,11.000000,0.000000,4310.384766,4304.743652,4321.410156,4299.487305,4301.794922,4287.436035,4333.461426,4398.333496,4306.025879,4280.128418,4477.563965,4522.051270,4366.666504,4439.230957,1581.000000,1.000000,27.000000,,,,0.000000,2.000000,2.000000,0.000000,4.000000,2.000000,2.000000,0.000000,0.000000,4.000000,4.000000,4.000000,4.000000,4.000000,4.000000,0.000000,,,,,,,,,,,,,,,,,,,,,,,,,,,,
1732156757.491174,1732156757.493354,12.000000,0.000000,4312.051270,4304.871582,4319.871582,4301.025879,4295.769043,4291.794922,4334.871582,4397.179688,4314.487305,4294.102539,4486.410156,4526.410156,4367.307617,4433.333496,1706.000000,1.000000,27.000000,,,,0.000000,2.000000,2.000000,0.000000,4.000000,2.000000,2.000000,0.000000,0.000000,4.000000,4.000000,4.000000,4.000000,4.000000,4.000000,0.000000,,,,,,,,,,,,,,,,,3.000000,0.000000,0.493595,0.435730,-0.596802,0.458618,0.983518,-0.106947,-0.083018,-37.065014,44.300564,31.621645
1732156757.498982,1732156757.501162,13.000000,0.000000,4306.282227,4302.692383,4321.666504,4301.410156,4286.282227,4295.512695,4334.487305,4397.307617,4320.256348,4296.025879,4488.717773,4527.436035,4365.128418,4430.512695,1695.000000,1.000000,27.000000,,,,0.000000,2.000000,2.000000,0.000000,4.000000,2.000000,2.000000,0.000000,0.000000,4.000000,4.000000,4.000000,4.000000,4.000000,4.000000,0.000000,,,,,,,,,,,,,,,,,,,,,,,,,,,,
1732156757.506790,1732156757.508771,14.000000,0.000000,4300.641113,4304.615234,4322.820313,4300.256348,4288.974121,4297.179688,4333.846191,4398.846191,4318.589844,4285.128418,4479.615234,4521.410156,4360.769043,4428.205078,1534.000000,1.000000,27.000000,,,,0.000000,2.000000,2.000000,0.000000,4.000000,2.000000,2.000000,0.000000,0.000000,4.000000,4.000000,4.000000,4.000000,4.000000,4.000000,0.000000,1.000000,0.000000,2.000000,2.000000,0.000000,4.000000,2.000000,2.000000,0.000000,0.000000,4.000000,4.000000,4.000000,4.000000,3.000000,3.000000,,,,,,,,,,,,
1732156757.514598,1732156757.516579,15.000000,0.000000,4305.256348,4311.153809,4323.205078,4304.358887,4297.563965,4295.897461,4333.846191,4399.743652,4312.948730,4278.717773,4473.589844,4519.615234,4356.922852,4427.179688,1581.000000,1.000000,27.000000,,,,0.000000,2.000000,2.000000,0.000000,4.000000,2.000000,2.000000,0.000000,0.000000,4.000000,4.000000,4.000000,4.000000,4.000000,4.000000,0.000000,,,,,,,,,,,,,,,,,,,,,,,,,,,,
1732156757.522407,1732156757.524287,16.000000,0.000000,4306.153809,4311.922852,4324.743652,4307.307617,4305.512695,4291.153809,4334.358887,4398.205078,4307.948730,4278.974121,4478.205078,4520.128418,4351.282227,4427.051270,0.000000,1.000000,27.000000,,,,0.000000,2.000000,2.000000,0.000000,4.000000,2.000000,2.000000,0.000000,0.000000,4.000000,4.000000,4.000000,4.000000,4.000000,4.000000,0.000000,,,,,,,,,,,,,,,,,4.000000,0.000000,0.493655,0.435913,-0.596619,0.458618,0.986449,-0.093761,-0.085460,-37.120995,44.303455,31.586864
1732156757.530215,1732156757.532095,17.000000,0.000000,4298.717773,4303.589844,4326.538574,4305.512695,4302.307617,4290.641113,4334.358887,4397.051270,4309.871582,4281.410156,4483.333496,4523.846191,4351.410156,4427.692383,0.000000,1.000000,27.000000,,,,0.000000,2.000000,2.000000,0.000000,4.000000,2.000000,2.000000,0.000000,0.000000,4.000000,4.000000,4.000000,4.000000,4.000000,4.000000,0.000000,,,,,,,,,,,,,,,,,,,,,,,,,,,,
1732156757.538023,1732156757.539704,18.000000,0.000000,4295.641113,4299.358887,4325.897461,4303.333496,4289.615234,4297.051270,4334.358887,4399.358887,4317.179688,4281.538574,4479.102539,4525.128418,4353.077148,4427.179688,0.000000,1.000000,27.000000,,,,0.000000,2.000000,2.000000,0.000000,4.000000,2.000000,2.000000,0.000000,0.000000,4.000000,4.000000,4.000000,4.000000,4.000000,4.000000,0.000000,,,,,,,,,,,,,,,,,,,,,,,,,,,,
1732156757.545831,1732156757.547512,19.000000,0.000000,4301.282227,4302.436035,4325.641113,4303.974121,4289.615234,4298.077148,4334.743652,4402.051270,4317.820313,4280.384766,4474.358887,4520.641113,4349.743652,4426.153809,0.000000,1.000000,27.000000,,,,0.000000,2.000000,2.000000,0.000000,4.000000,2.000000,2.000000,0.000000,0.000000,4.000000,4.000000,4.000000,4.000000,4.000000,4.000000,0.000000,,,,,,,,,,,,,,,,,,,,,,,,,,,,
1732156757.553640,1732156757.555220,20.000000,0.000000,4306.282227,4308.333496,4324.102539,4306.922852,4301.538574,4294.358887,4335.897461,4400.000000,4312.820313,4283.461426,4477.820313,4520.128418,4351.922852,4427.820313,0.000000,1.000000,27.000000,,,,0.000000,2.000000,2.000000,0.000000,4.000000,2.000000,2.000000,0.000000,0.000000,4.000000,4.000000,4.000000,4.000000,4.000000,4.000000,0.000000,,,,,,,,,,,,,,,,,5.000000,0.000000,0.494015,0.435852,-0.596741,0.458130,0.971798,-0.107435,-0.078623,-37.279671,44.237465,31.777027
1732156757.561448,1732156757.563029,21.000000,0.000000,4303.205078,4311.410156,4321.794922,4305.641113,4312.820313,4292.948730,4334.615234,4395.769043,4309.102539,4288.333496,4482.051270,4521.922852,4359.230957,4431.538574,0.000000,1.000000,27.000000,,,,0.000000,2.000000,2.000000,0.000000,4.000000,2.000000,2.000000,0.000000,0.000000,4.000000,4.000000,4.000000,4.000000,4.000000,4.000000,0.000000,,,,,,,,,,,,,,,,,,,,,,,,,,,,
1732156757.569256,1732156757.570637,22.000000,0.000000,4295.769043,4309.615234,4322.051270,4303.205078,4315.256348,4294.358887,4332.820313,4397.436035,4312.692383,4291.153809,4479.102539,4521.153809,4358.205078,4429.615234,0.000000,1.000000,27.000000,,,,0.000000,2.000000,2.000000,0.000000,4.000000,2.000000,2.000000,0.000000,0.000000,4.000000,4.000000,4.000000,4.000000,4.000000,4.000000,0.000000,,,,,,,,,,,,,,,,,,,,,,,,,,,,
1732156757.577064,1732156757.578445,23.000000,0.000000,4293.333496,4308.717773,4322.436035,4305.769043,4299.743652,4298.077148,4335.897461,4402.307617,4320.384766,4296.922852,4476.922852,4521.282227,4353.077148,4421.410156,0.000000,1.000000,27.000000,,,,0.000000,2.000000,2.000000,0.000000,4.000000,2.000000,2.000000,0.000000,0.000000,4.000000,4.000000,4.000000,4.000000,4.000000,4.000000,0.000000,,,,,,,,,,,,,,,,,,,,,,,,,,,,
1732156757.584873,1732156757.586353,24.000000,0.000000,4296.410156,4309.358887,4322.563965,4308.077148,4296.922852,4298.461426,4334.615234,4399.743652,4318.333496,4295.769043,4475.897461,4518.077148,4348.846191,4413.461426,0.000000,1.000000,27.000000,,,,0.000000,2.000000,2.000000,0.000000,4.000000,2.000000,2.000000,0.000000,0.000000,4.000000,4.000000,4.000000,4.000000,4.000000,4.000000,0.000000,,,,,,,,,,,,,,,,,6.000000,0.000000,0.494138,0.435974,-0.596924,0.457642,0.978147,-0.094738,-0.091808,-37.259869,44.252346,31.796059
1732156757.592681,1732156757.594162,25.000000,0.000000,4296.025879,4307.692383,4322.820313,4305.769043,4309.230957,4296.025879,4329.102539,4397.436035,4309.487305,4284.743652,4472.436035,4512.948730,4341.794922,4411.922852,0.000000,1.000000,27.000000,,,,0.000000,2.000000,2.000000,0.000000,4.000000,2.000000,2.000000,0.000000,0.000000,4.000000,4.000000,4.000000,4.000000,4.000000,4.000000,0.000000,,,,,,,,,,,,,,,,,,,,,,,,,,,,
1732156757.600489,1732156757.602170,26.000000,0.000000,4294.358887,4306.282227,4322.051270,4309.487305,4299.358887,4296.025879,4331.410156,4400.897461,4308.333496,4285.256348,4473.589844,4518.589844,4343.461426,4417.692383,0.000000,1.000000,27.000000,,,,0.000000,2.000000,2.000000,0.000000,4.000000,2.000000,2.000000,0.000000,0.000000,4.000000,4.000000,4.000000,4.000000,4.000000,4.000000,0.000000,,,,,,,,,,,,,,,,,,,,,,,,,,,,
1732156757.608297,1732156757.609978,27.000000,0.000000,4296.153809,4310.128418,4322.436035,4315.897461,4287.948730,4295.897461,4334.871582,4400.128418,4312.179688,4293.461426,4476.666504,4524.743652,4349.871582,4420.000000,0.000000,1.000000,27.000000,,,,0.000000,2.000000,2.000000,0.000000,4.000000,2.000000,2.000000,0.000000,0.000000,4.000000,4.000000,4.000000,4.000000,4.000000,4.000000,0.000000,,,,,,,,,,,,,,,,,,,,,,,,,,,,
1732156757.616106,1732156757.617686,28.000000,0.000000,4297.692383,4311.666504,4323.974121,4312.436035,4300.128418,4295.512695,4333.077148,4397.436035,4310.512695,4292.563965,4476.282227,4520.641113,4346.153809,4415.641113,0.000000,1.000000,27.000000,,,,0.000000,2.000000,2.000000,0.000000,4.000000,2.000000,2.000000,0.000000,0.000000,4.000000,4.000000,4.000000,4.000000,4.000000,4.000000,0.000000,,,,,,,,,,,,,,,,,7.000000,0.000000,0.494090,0.436157,-0.596924,0.457520,0.978147,-0.094738,-0.091808,-37.318825,44.286068,31.636475
1732156757.623914,1732156757.625494,29.000000,0.000000,4295.512695,4306.922852,4323.974121,4310.769043,4305.769043,4298.717773,4333.846191,4398.974121,4309.743652,4292.179688,4474.102539,4519.358887,4341.025879,4414.102539,0.000000,1.000000,27.000000,,,,0.000000,2.000000,2.000000,0.000000,4.000000,2.000000,2.000000,0.000000,0.000000,4.000000,4.000000,4.000000,4.000000,4.000000,4.000000,0.000000,,,,,,,,,,,,,,,,,,,,,,,,,,,,
1732156757.631722,1732156757.633103,30.000000,0.000000,4292.563965,4305.897461,4322.179688,4310.641113,4302.436035,4301.794922,4336.794922,4398.846191,4312.563965,4297.051270,4472.820313,4522.179688,4343.077148,4414.871582,0.000000,1.000000,27.000000,,,,0.000000,2.000000,2.000000,0.000000,4.000000,2.000000,2.000000,0.000000,0.000000,4.000000,4.000000,4.000000,4.000000,4.000000,4.000000,0.000000,,,,,,,,,,,,,,,,,,,,,,,,,,,,
1732156757.639530,1732156757.640911,31.000000,0.000000,4293.205078,4306.025879,4322.179688,4306.666504,4316.025879,4296.794922,4336.153809,4398.205078,4312.820313,4298.077148,4474.871582,4520.128418,4343.205078,4412.948730,0.000000,1.000000,27.000000,,,,0.000000,2.000000,2.000000,0.000000,4.000000,2.000000,2.000000,0.000000,0.000000,4.000000,4.000000,4.000000,4.000000,4.000000,4.000000,0.000000,,,,,,,,,,,,,,,,,,,,,,,,,,,,
1732156757.647339,1732156757.648619,32.000000,0.000000,4296.025879,4304.615234,4322.563965,4304.487305,4317.307617,4292.692383,4335.641113,4400.769043,4313.461426,4296.666504,4477.179688,4518.205078,4342.563965,4410.769043,0.000000,1.000000,27.000000,,,,0.000000,2.000000,2.000000,0.000000,4.000000,2.000000,2.000000,0.000000,0.000000,4.000000,4.000000,4.000000,4.000000,4.000000,4.000000,0.000000,,,,,,,,,,,,,,,,,8.000000,0.000000,0.493973,0.436584,-0.596802,0.457397,0.968380,-0.116225,-0.088390,-37.156582,44.281715,31.555544
1732156757.655147,1732156757.656427,33.000000,0.000000,4297.563965,4305.512695,4320.769043,4308.846191,4298.717773,4303.461426,4336.025879,4401.153809,4318.333496,4297.948730,4476.538574,4520.769043,4344.743652,4410.000000,0.000000,1.000000,27.000000,,,,0.000000,2.000000,2.000000,0.000000,4.000000,2.000000,2.000000,0.000000,0.000000,4.000000,4.000000,4.000000,4.000000,4.000000,4.000000,0.000000,,,,,,,,,,,,,,,,,,,,,,,,,,,,
1732156757.662955,1732156757.664435,34.000000,0.000000,4297.948730,4308.205078,4322.179688,4312.692383,4291.666504,4311.538574,4336.153809,4399.230957,4317.692383,4297.051270,4476.794922,4524.230957,4344.358887,4409.615234,0.000000,1.000000,27.000000,,,,0.000000,2.000000,2.000000,0.000000,4.000000,2.000000,2.000000,0.000000,0.000000,4.000000,4.000000,4.000000,4.000000,4.000000,4.000000,0.000000,,,,,,,,,,,,,,,,,,,,,,,,,,,,
1732156757.670763,1732156757.672244,35.000000,0.000000,4297.563965,4307.307617,4330.897461,4311.153809,4293.846191,4302.948730,4336.153809,4401.153809,4309.230957,4295.384766,4477.563965,4524.358887,4340.256348,4410.384766,0.000000,1.000000,27.000000,,,,0.000000,2.000000,2.000000,0.000000,4.000000,2.000000,2.000000,0.000000,0.000000,4.000000,4.000000,4.000000,4.000000,4.000000,4.000000,0.000000,,,,,,,,,,,,,,,,,,,,,,,,,,,,
1732156757.678572,1732156757.680152,36.000000,0.000000,4297.692383,4303.589844,4339.615234,4306.922852,4297.563965,4293.333496,4335.256348,4404.230957,4307.692383,4298.846191,4478.077148,4521.666504,4343.846191,4408.717773,0.000000,1.000000,27.000000,,,,0.000000,2.000000,2.000000,0.000000,4.000000,2.000000,2.000000,0.000000,0.000000,4.000000,4.000000,4.000000,4.000000,4.000000,4.000000,0.000000,,,,,,,,,,,,,,,,,9.000000,0.000000,0.493834,0.436279,-0.597046,0.457520,0.963008,-0.124039,-0.099622,-37.041832,44.378189,31.423325
1732156757.686380,1732156757.687960,37.000000,0.000000,4295.641113,4300.000000,4334.743652,4303.461426,4304.487305,4294.487305,4336.538574,4402.051270,4311.922852,4302.179688,4477.820313,4519.871582,4350.000000,4404.743652,0.000000,1.000000,27.000000,,,,0.000000,2.000000,2.000000,0.000000,4.000000,2.000000,2.000000,0.000000,0.000000,4.000000,4.000000,4.000000,4.000000,4.000000,4.000000,0.000000,,,,,,,,,,,,,,,,,,,,,,,,,,,,
1732156757.694188,1732156757.695968,38.000000,0.000000,4293.205078,4299.230957,4327.692383,4305.384766,4302.307617,4300.769043,4338.333496,4398.461426,4311.410156,4303.717773,4475.384766,4520.256348,4346.025879,4398.717773,0.000000,1.000000,27.000000,,,,0.000000,2.000000,2.000000,0.000000,4.000000,2.000000,2.000000,0.000000,0.000000,4.000000,4.000000,4.000000,4.000000,4.000000,4.000000,0.000000,,,,,,,,,,,,,,,,,,,,,,,,,,,,
1732156757.701996,1732156757.703776,39.000000,0.000000,4294.871582,4305.897461,4329.102539,4310.641113,4290.000000,4303.589844,4335.769043,4398.717773,4312.563965,4311.666504,4475.897461,4517.563965,4341.538574,4396.282227,0.000000,1.000000,27.000000,,,,0.000000,2.000000,2.000000,0.000000,4.000000,2.000000,2.000000,0.000000,0.000000,4.000000,4.000000,4.000000,4.000000,4.000000,4.000000,0.000000,,,,,,,,,,,,,,,,,,,,,,,,,,,,
1732156757.709804,1732156757.711484,40.000000,0.000000,4294.743652,4308.461426,4327.820313,4313.205078,4291.794922,4301.922852,4333.717773,4399.230957,4310.769043,4311.538574,4478.205078,4516.153809,4342.692383,4399.487305,0.000000,1.000000,27.000000,,,,0.000000,2.000000,2.000000,0.000000,4.000000,2.000000,2.000000,0.000000,0.000000,4.000000,4.000000,4.000000,4.000000,4.000000,4.000000,0.000000,,,,,,,,,,,,,,,,,10.000000,0.000000,0.493718,0.436096,-0.597229,0.457581,0.980100,-0.119155,-0.093761,-36.812218,44.211334,31.469559
1732156757.717613,1732156757.719293,41.000000,0.000000,4288.974121,4302.692383,4322.436035,4310.128418,4303.205078,4301.538574,4336.153809,4396.153809,4297.948730,4297.436035,4475.641113,4514.230957,4342.179688,4399.871582,0.000000,1.000000,27.000000,,,,0.000000,2.000000,2.000000,0.000000,4.000000,2.000000,2.000000,0.000000,0.000000,4.000000,4.000000,4.000000,4.000000,4.000000,4.000000,0.000000,,,,,,,,,,,,,,,,,,,,,,,,,,,,
1732156757.725421,1732156757.726901,42.000000,0.000000,4288.461426,4302.692383,4322.051270,4307.948730,4304.358887,4304.358887,4337.436035,4395.897461,4293.333496,4298.077148,4474.230957,4514.487305,4340.897461,4400.512695,0.000000,1.000000,27.000000,,,,0.000000,2.000000,2.000000,0.000000,4.000000,2.000000,2.000000,0.000000,0.000000,4.000000,4.000000,4.000000,4.000000,4.000000,4.000000,0.000000,,,,,,,,,,,,,,,,,,,,,,,,,,,,
1732156757.733229,1732156757.734709,43.000000,0.000000,4292.307617,4305.256348,4322.820313,4311.538574,4299.615234,4301.410156,4335.000000,4398.589844,4300.512695,4313.077148,4478.205078,4515.897461,4343.717773,4403.333496,0.000000,1.000000,27.000000,,,,0.000000,2.000000,2.000000,0.000000,4.000000,2.000000,2.000000,0.000000,0.000000,4.000000,4.000000,4.000000,4.000000,4.000000,4.000000,0.000000,,,,,,,,,,,,,,,,,,,,,,,,,,,,
1732156757.741037,1732156757.742418,44.000000,0.000000,4288.333496,4301.410156,4321.666504,4309.743652,4306.794922,4296.282227,4334.358887,4398.077148,4304.615234,4314.487305,4478.333496,4512.563965,4343.846191,4400.641113,0.000000,1.000000,27.000000,,,,0.000000,2.000000,2.000000,0.000000,4.000000,2.000000,2.000000,0.000000,0.000000,4.000000,4.000000,4.000000,4.000000,4.000000,4.000000,0.000000,,,,,,,,,,,,,,,,,11.000000,0.000000,0.493006,0.435913,-0.597717,0.457886,0.966915,-0.113295,-0.083018,-36.752895,44.202847,31.285343
1732156757.748846,1732156757.750226,45.000000,0.000000,4280.256348,4295.384766,4323.333496,4300.128418,4315.641113,4297.307617,4335.897461,4397.307617,4305.641113,4310.897461,4475.256348,4506.794922,4340.000000,4396.410156,0.000000,1.000000,27.000000,,,,0.000000,2.000000,2.000000,0.000000,4.000000,2.000000,2.000000,0.000000,0.000000,4.000000,4.000000,4.000000,4.000000,4.000000,4.000000,0.000000,,,,,,,,,,,,,,,,,,,,,,,,,,,,
1732156757.756654,1732156757.758234,46.000000,0.000000,4282.563965,4296.794922,4323.461426,4297.563965,4302.692383,4301.025879,4336.153809,4399.230957,4309.102539,4315.897461,4476.025879,4508.333496,4339.871582,4398.205078,0.000000,1.000000,27.000000,,,,0.000000,2.000000,2.000000,0.000000,4.000000,2.000000,2.000000,0.000000,0.000000,4.000000,4.000000,4.000000,4.000000,4.000000,4.000000,0.000000,,,,,,,,,,,,,,,,,,,,,,,,,,,,
1732156757.764462,1732156757.766042,47.000000,0.000000,4290.897461,4296.666504,4321.282227,4305.512695,4288.717773,4305.256348,4335.384766,4402.307617,4315.128418,4322.179688,4478.974121,4518.205078,4341.282227,4402.948730,0.000000,1.000000,27.000000,,,,0.000000,2.000000,2.000000,0.000000,4.000000,2.000000,2.000000,0.000000,0.000000,4.000000,4.000000,4.000000,4.000000,4.000000,4.000000,0.000000,,,,,,,,,,,,,,,,,,,,,,,,,,,,
1732156757.772270,1732156757.773950,48.000000,0.000000,4294.230957,4296.282227,4321.410156,4310.769043,4294.102539,4304.102539,4334.871582,4400.769043,4320.769043,4326.153809,4480.641113,4523.461426,4343.589844,4406.025879,0.000000,1.000000,27.000000,,,,0.000000,2.000000,2.000000,0.000000,4.000000,2.000000,2.000000,0.000000,0.000000,4.000000,4.000000,4.000000,4.000000,4.000000,4.000000,0.000000,,,,,,,,,,,,,,,,,12.000000,0.000000,0.492601,0.435242,-0.598633,0.457764,0.963497,-0.122085,-0.090343,-36.906513,44.014305,31.492794
1732156757.780079,1732156757.781758,49.000000,0.000000,4295.000000,4298.205078,4321.922852,4306.538574,4308.589844,4298.205078,4335.256348,4397.436035,4319.358887,4327.436035,4478.717773,4518.333496,4342.692383,4402.692383,0.000000,1.000000,27.000000,,,,0.000000,2.000000,2.000000,0.000000,4.000000,2.000000,2.000000,0.000000,0.000000,4.000000,4.000000,4.000000,4.000000,4.000000,4.000000,0.000000,,,,,,,,,,,,,,,,,,,,,,,,,,,,
1732156757.787887,1732156757.789766,50.000000,0.000000,4292.820313,4298.846191,4321.153809,4300.641113,4316.794922,4295.512695,4335.512695,4397.307617,4311.025879,4325.000000,4476.282227,4510.512695,4338.589844,4394.615234,0.000000,1.000000,27.000000,,,,0.000000,2.000000,2.000000,0.000000,4.000000,2.000000,2.000000,0.000000,0.000000,4.000000,4.000000,4.000000,4.000000,4.000000,4.000000,0.000000,,,,,,,,,,,,,,,,,,,,,,,,,,,,
1732156757.795695,1732156757.797575,51.000000,0.000000,4287.179688,4298.205078,4320.769043,4299.615234,4311.153809,4297.179688,4334.487305,4397.436035,4305.128418,4323.461426,4477.563965,4507.563965,4342.307617,4394.358887,0.000000,1.000000,27.000000,,,,0.000000,2.000000,2.000000,0.000000,4.000000,2.000000,2.000000,0.000000,0.000000,4.000000,4.000000,4.000000,4.000000,4.000000,4.000000,0.000000,,,,,,,,,,,,,,,,,,,,,,,,,,,,
1732156757.803503,1732156757.805483,52.000000,0.000000,4285.128418,4296.794922,4321.538574,4301.538574,4298.461426,4300.256348,4333.333496,4396.410156,4305.641113,4321.666504,4479.487305,4510.512695,4351.282227,4398.461426,0.000000,1.000000,27.000000,,,,0.000000,2.000000,2.000000,0.000000,4.000000,2.000000,2.000000,0.000000,0.000000,4.000000,4.000000,4.000000,4.000000,4.000000,4.000000,0.000000,,,,,,,,,,,,,,,,,13.000000,0.000000,0.492414,0.435059,-0.599060,0.457581,0.973263,-0.128434,-0.110365,-37.055943,44.028255,31.659164
1732156757.811312,1732156757.813291,53.000000,0.000000,4288.589844,4297.436035,4321.538574,4303.846191,4293.846191,4303.205078,4333.333496,4397.436035,4308.205078,4322.948730,4482.820313,4516.538574,4353.461426,4396.410156,0.000000,1.000000,27.000000,,,,0.000000,2.000000,2.000000,0.000000,4.000000,2.000000,2.000000,0.000000,0.000000,4.000000,4.000000,4.000000,4.000000,4.000000,4.000000,0.000000,,,,,,,,,,,,,,,,,,,,,,,,,,,,
1732156757.819120,1732156757.821299,54.000000,0.000000,4287.436035,4300.000000,4319.487305,4307.307617,4296.922852,4302.948730,4333.974121,4397.948730,4311.666504,4332.051270,4488.461426,4517.692383,4350.384766,4394.743652,0.000000,1.000000,27.000000,,,,0.000000,2.000000,2.000000,0.000000,4.000000,2.000000,2.000000,0.000000,0.000000,4.000000,4.000000,4.000000,4.000000,4.000000,4.000000,0.000000,,,,,,,,,,,,,,,,,,,,,,,,,,,,
1732156757.826928,1732156757.829107,55.000000,0.000000,4281.410156,4299.358887,4319.358887,4303.846191,4297.820313,4299.487305,4333.974121,4396.153809,4313.846191,4337.820313,4488.974121,4510.256348,4351.794922,4395.128418,0.000000,1.000000,27.000000,,,,0.000000,2.000000,2.000000,0.000000,4.000000,2.000000,2.000000,0.000000,0.000000,4.000000,4.000000,4.000000,4.000000,4.000000,4.000000,0.000000,,,,,,,,,,,,,,,,,,,,,,,,,,,,
1732156757.834736,1732156757.836815,56.000000,0.000000,4280.256348,4296.282227,4320.000000,4295.897461,4295.384766,4296.410156,4333.717773,4396.922852,4314.230957,4334.358887,4486.922852,4506.153809,4356.025879,4395.384766,0.000000,1.000000,27.000000,,,,0.000000,2.000000,2.000000,0.000000,4.000000,2.000000,2.000000,0.000000,0.000000,4.000000,4.000000,4.000000,4.000000,4.000000,4.000000,0.000000,,,,,,,,,,,,,,,,,14.000000,0.000000,0.492354,0.434814,-0.599426,0.457397,0.980100,-0.125504,-0.097668,-37.123646,43.969551,31.793922
1732156757.842545,1732156757.844624,57.000000,0.000000,4281.282227,4294.871582,4318.461426,4295.897461,4294.871582,4295.641113,4333.974121,4398.846191,4313.461426,4332.051270,4488.717773,4510.000000,4356.666504,4396.666504,0.000000,1.000000,27.000000,,,,0.000000,2.000000,2.000000,0.000000,4.000000,2.000000,2.000000,0.000000,0.000000,4.000000,4.000000,4.000000,4.000000,4.000000,4.000000,0.000000,,,,,,,,,,,,,,,,,,,,,,,,,,,,
1732156757.850353,1732156757.852532,58.000000,0.000000,4283.846191,4295.000000,4317.051270,4298.333496,4306.794922,4295.256348,4333.974121,4399.615234,4313.589844,4334.358887,4490.897461,4510.000000,4359.743652,4398.461426,0.000000,1.000000,27.000000,,,,0.000000,2.000000,2.000000,0.000000,4.000000,2.000000,2.000000,0.000000,0.000000,4.000000,4.000000,4.000000,4.000000,4.000000,4.000000,0.000000,,,,,,,,,,,,,,,,,,,,,,,,,,,,
1732156757.858161,1732156757.860340,59.000000,0.000000,4291.025879,4294.358887,4320.512695,4298.333496,4310.256348,4295.769043,4333.717773,4398.461426,4314.487305,4336.410156,4490.641113,4509.871582,4360.641113,4402.307617,0.000000,1.000000,27.000000,,,,0.000000,2.000000,2.000000,0.000000,4.000000,2.000000,2.000000,0.000000,0.000000,4.000000,4.000000,4.000000,4.000000,4.000000,4.000000,0.000000,,,,,,,,,,,,,,,,,,,,,,,,,,,,
1732156757.865969,1732156757.868048,60.000000,0.000000,4296.794922,4296.025879,4321.410156,4298.589844,4288.333496,4297.948730,4334.230957,4397.692383,4313.974121,4335.000000,4492.179688,4512.436035,4358.717773,4408.333496,0.000000,1.000000,27.000000,,,,0.000000,2.000000,2.000000,0.000000,4.000000,2.000000,2.000000,0.000000,0.000000,4.000000,4.000000,4.000000,4.000000,4.000000,4.000000,0.000000,,,,,,,,,,,,,,,,,15.000000,0.000000,0.492283,0.434204,-0.600159,0.457092,0.980100,-0.129410,-0.100598,-37.163486,43.943672,31.684744
1732156757.873778,1732156757.875856,61.000000,0.000000,4295.897461,4299.358887,4316.025879,4298.717773,4271.282227,4299.230957,4335.384766,4399.230957,4313.846191,4335.641113,4493.589844,4513.205078,4363.077148,4411.538574,0.000000,1.000000,27.000000,,,,0.000000,2.000000,2.000000,0.000000,4.000000,2.000000,2.000000,0.000000,0.000000,4.000000,4.000000,4.000000,4.000000,4.000000,4.000000,0.000000,,,,,,,,,,,,,,,,,,,,,,,,,,,,
1732156757.881586,1732156757.883465,62.000000,0.000000,4294.358887,4300.000000,4317.051270,4298.461426,4285.256348,4296.025879,4335.769043,4399.487305,4312.563965,4335.384766,4492.436035,4513.077148,4367.820313,4410.769043,0.000000,1.000000,27.000000,,,,0.000000,2.000000,2.000000,0.000000,4.000000,2.000000,2.000000,0.000000,0.000000,4.000000,4.000000,4.000000,4.000000,4.000000,4.000000,0.000000,,,,,,,,,,,,,,,,,,,,,,,,,,,,
1732156757.889394,1732156757.891273,63.000000,0.000000,4295.897461,4297.563965,4319.358887,4300.641113,4308.589844,4296.666504,4336.282227,4396.538574,4310.256348,4334.487305,4491.282227,4511.282227,4365.512695,4412.820313,0.000000,1.000000,27.000000,,,,0.000000,2.000000,2.000000,0.000000,4.000000,2.000000,2.000000,0.000000,0.000000,4.000000,4.000000,4.000000,4.000000,4.000000,4.000000,0.000000,,,,,,,,,,,,,,,,,,,,,,,,,,,,
1732156757.897202,1732156757.898981,64.000000,0.000000,4296.025879,4295.000000,4315.512695,4299.102539,4306.922852,4300.769043,4336.922852,4396.282227,4309.358887,4337.692383,4488.333496,4509.358887,4363.333496,4411.922852,0.000000,1.000000,27.000000,,,,0.000000,2.000000,2.000000,0.000000,4.000000,2.000000,2.000000,0.000000,0.000000,4.000000,4.000000,4.000000,4.000000,4.000000,4.000000,0.000000,,,,,,,,,,,,,,,,,16.000000,0.000000,0.492451,0.434021,-0.600525,0.456604,0.974240,-0.118178,-0.096691,-37.212425,43.889374,31.676310
1732156757.905011,1732156757.906790,65.000000,0.000000,4292.692383,4295.000000,4314.102539,4293.974121,4294.487305,4295.897461,4335.641113,4398.717773,4308.717773,4332.563965,4486.666504,4505.512695,4367.820313,4405.769043,1596.000000,1.000000,27.000000,,,,0.000000,2.000000,2.000000,0.000000,4.000000,2.000000,2.000000,0.000000,0.000000,4.000000,4.000000,4.000000,4.000000,4.000000,4.000000,0.000000,,,,,,,,,,,,,,,,,,,,,,,,,,,,
1732156757.912819,1732156757.914398,66.000000,0.000000,4284.230957,4292.948730,4320.897461,4294.615234,4287.307617,4289.230957,4334.743652,4397.948730,4309.743652,4327.179688,4491.282227,4507.563965,4371.794922,4406.666504,1407.000000,1.000000,27.000000,,,,0.000000,2.000000,2.000000,0.000000,4.000000,2.000000,2.000000,0.000000,0.000000,4.000000,4.000000,4.000000,4.000000,4.000000,4.000000,0.000000,,,,,,,,,,,,,,,,,,,,,,,,,,,,
1732156757.920627,1732156757.922206,67.000000,0.000000,4281.282227,4289.615234,4321.538574,4297.436035,4286.794922,4294.487305,4335.897461,4397.051270,4312.436035,4336.025879,4495.256348,4520.641113,4372.820313,4412.563965,1414.000000,1.000000,27.000000,,,,0.000000,2.000000,2.000000,0.000000,4.000000,2.000000,2.000000,0.000000,0.000000,4.000000,4.000000,4.000000,4.000000,4.000000,4.000000,0.000000,,,,,,,,,,,,,,,,,,,,,,,,,,,,
1732156757.928435,1732156757.929915,68.000000,0.000000,4287.179688,4289.871582,4316.410156,4295.256348,4294.871582,4297.948730,4336.025879,4397.692383,4312.436035,4342.179688,4496.410156,4523.974121,4376.538574,4413.461426,1404.000000,1.000000,27.000000,,,,0.000000,2.000000,2.000000,0.000000,4.000000,2.000000,2.000000,0.000000,0.000000,4.000000,4.000000,4.000000,4.000000,4.000000,4.000000,0.000000,,,,,,,,,,,,,,,,,17.000000,0.000000,0.492451,0.434021,-0.600525,0.456604,0.980100,-0.113295,-0.091808,-37.237064,43.785393,31.579477
1732156757.936243,1732156757.937723,69.000000,0.000000,4286.410156,4292.692383,4316.794922,4293.077148,4296.153809,4292.436035,4334.615234,4397.820313,4311.410156,4334.615234,4494.615234,4511.794922,4374.102539,4410.641113,1237.000000,1.000000,27.000000,,,,0.000000,2.000000,2.000000,0.000000,4.000000,2.000000,2.000000,0.000000,0.000000,4.000000,4.000000,4.000000,4.000000,4.000000,4.000000,0.000000,,,,,,,,,,,,,,,,,,,,,,,,,,,,
1732156757.944052,1732156757.945331,70.000000,0.000000,4280.256348,4294.743652,4318.717773,4295.128418,4279.102539,4293.333496,4334.615234,4398.077148,4313.077148,4330.897461,4491.025879,4511.153809,4363.717773,4411.410156,0.000000,1.000000,27.000000,,,,0.000000,2.000000,2.000000,0.000000,4.000000,2.000000,2.000000,0.000000,0.000000,4.000000,4.000000,4.000000,4.000000,4.000000,4.000000,0.000000,,,,,,,,,,,,,,,,,,,,,,,,,,,,
1732156757.951860,1732156757.953139,71.000000,0.000000,4281.538574,4296.153809,4318.077148,4297.307617,4277.820313,4296.922852,4335.000000,4398.077148,4312.692383,4332.820313,4489.230957,4517.820313,4361.282227,4414.615234,0.000000,1.000000,27.000000,,,,0.000000,2.000000,2.000000,0.000000,4.000000,2.000000,2.000000,0.000000,0.000000,4.000000,4.000000,4.000000,4.000000,4.000000,4.000000,0.000000,,,,,,,,,,,,,,,,,,,,,,,,,,,,
1732156757.959668,1732156757.960848,72.000000,0.000000,4283.846191,4296.025879,4319.871582,4294.615234,4304.358887,4290.256348,4335.128418,4397.563965,4310.256348,4332.692383,4491.282227,4509.358887,4366.922852,4417.307617,1524.000000,1.000000,27.000000,,,,0.000000,2.000000,2.000000,0.000000,4.000000,2.000000,2.000000,0.000000,0.000000,4.000000,4.000000,4.000000,4.000000,4.000000,4.000000,0.000000,,,,,,,,,,,,,,,,,18.000000,0.000000,0.492576,0.434204,-0.600708,0.456055,0.991820,-0.119155,-0.108412,-37.262020,43.946167,31.409376
1732156757.967476,1732156757.968656,73.000000,0.000000,4283.205078,4293.974121,4320.769043,4293.333496,4302.436035,4287.436035,4334.871582,4397.051270,4312.051270,4337.563965,4493.333496,4504.743652,4367.307617,4417.692383,1654.000000,1.000000,27.000000,,,,0.000000,2.000000,2.000000,0.000000,4.000000,2.000000,2.000000,0.000000,0.000000,4.000000,4.000000,4.000000,4.000000,4.000000,4.000000,0.000000,,,,,,,,,,,,,,,,,,,,,,,,,,,,
1732156757.975285,1732156757.976264,74.000000,0.000000,4286.538574,4293.461426,4318.205078,4297.436035,4276.410156,4295.128418,4333.717773,4397.436035,4314.230957,4339.871582,4492.820313,4511.794922,4365.256348,4416.794922,1534.000000,1.000000,27.000000,,,,0.000000,2.000000,2.000000,0.000000,4.000000,2.000000,2.000000,0.000000,0.000000,4.000000,4.000000,4.000000,4.000000,4.000000,4.000000,0.000000,,,,,,,,,,,,,,,,,,,,,,,,,,,,
1732156757.983093,1732156757.984072,75.000000,0.000000,4289.102539,4294.487305,4317.820313,4298.205078,4284.615234,4296.794922,4333.589844,4398.461426,4311.153809,4334.615234,4491.153809,4510.641113,4367.436035,4416.922852,1578.000000,1.000000,27.000000,,,,0.000000,2.000000,2.000000,0.000000,4.000000,2.000000,2.000000,0.000000,0.000000,4.000000,4.000000,4.000000,4.000000,4.000000,4.000000,0.000000,,,,,,,,,,,,,,,,,,,,,,,,,,,,
1732156757.990901,1732156757.991781,76.000000,0.000000,4289.358887,4296.922852,4319.615234,4294.871582,4306.025879,4291.025879,4334.871582,4397.948730,4308.846191,4333.077148,4490.128418,4507.307617,4367.307617,4416.025879,1703.000000,1.000000,27.000000,,,,0.000000,2.000000,2.000000,0.000000,4.000000,2.000000,2.000000,0.000000,0.000000,4.000000,4.000000,4.000000,4.000000,4.000000,4.000000,0.000000,,,,,,,,,,,,,,,,,19.000000,0.000000,0.492396,0.434448,-0.600586,0.456177,0.968868,-0.104017,-0.092296,-37.385571,43.889729,31.146595
1732156757.998710,1732156757.999589,77.000000,0.000000,4294.358887,4302.820313,4318.974121,4301.153809,4293.717773,4292.051270,4335.000000,4398.077148,4315.512695,4335.256348,4493.333496,4512.692383,4365.128418,4416.282227,1681.000000,1.000000,27.000000,,,,0.000000,2.000000,2.000000,0.000000,4.000000,2.000000,2.000000,0.000000,0.000000,4.000000,4.000000,4.000000,4.000000,4.000000,4.000000,0.000000,,,,,,,,,,,,,,,,,,,,,,,,,,,,
1732156758.006518,1732156758.007597,78.000000,0.000000,4298.717773,4308.974121,4319.487305,4309.230957,4275.512695,4293.333496,4332.820313,4397.948730,4319.487305,4332.820313,4495.769043,4512.948730,4364.743652,4416.025879,1534.000000,1.000000,27.000000,,,,0.000000,2.000000,2.000000,0.000000,4.000000,2.000000,2.000000,0.000000,0.000000,4.000000,4.000000,4.000000,4.000000,4.000000,4.000000,0.000000,1.000000,0.000000,2.000000,2.000000,0.000000,4.000000,2.000000,2.000000,0.000000,0.000000,4.000000,3.000000,4.000000,4.000000,3.000000,3.000000,,,,,,,,,,,,
1732156758.014326,1732156758.015405,79.000000,0.000000,4296.025879,4305.256348,4321.153809,4304.102539,4282.563965,4291.282227,4333.077148,4396.025879,4313.205078,4327.307617,4491.282227,4507.692383,4360.512695,4413.589844,1578.000000,1.000000,27.000000,,,,0.000000,2.000000,2.000000,0.000000,4.000000,2.000000,2.000000,0.000000,0.000000,4.000000,4.000000,4.000000,4.000000,4.000000,4.000000,0.000000,,,,,,,,,,,,,,,,,,,,,,,,,,,,
1732156758.022134,1732156758.023114,80.000000,0.000000,4290.128418,4296.153809,4319.615234,4296.922852,4298.205078,4292.051270,4335.512695,4395.000000,4309.102539,4325.769043,4487.051270,4505.512695,4350.897461,4409.615234,1703.000000,1.000000,27.000000,,,,0.000000,2.000000,2.000000,0.000000,4.000000,2.000000,2.000000,0.000000,0.000000,4.000000,4.000000,4.000000,4.000000,4.000000,4.000000,0.000000,,,,,,,,,,,,,,,,,20.000000,0.000000,0.492188,0.434998,-0.600220,0.456360,0.973263,-0.114272,-0.098157,-37.403980,43.767349,30.923742
1732156758.029942,1732156758.030922,81.000000,0.000000,4291.666504,4302.820313,4319.102539,4299.615234,4303.589844,4290.128418,4334.230957,4396.410156,4310.641113,4323.974121,4484.871582,4505.256348,4345.769043,4404.102539,1681.000000,1.000000,27.000000,,,,0.000000,2.000000,2.000000,0.000000,4.000000,2.000000,2.000000,0.000000,0.000000,4.000000,4.000000,4.000000,4.000000,4.000000,4.000000,0.000000,,,,,,,,,,,,,,,,,,,,,,,,,,,,
1732156758.037751,1732156758.038530,82.000000,0.000000,4296.153809,4315.256348,4320.384766,4305.897461,4290.384766,4287.820313,4331.922852,4398.205078,4311.538574,4323.717773,4486.410156,4505.641113,4354.358887,4402.051270,1534.000000,1.000000,27.000000,,,,0.000000,2.000000,2.000000,0.000000,4.000000,2.000000,2.000000,0.000000,0.000000,4.000000,4.000000,4.000000,4.000000,4.000000,4.000000,0.000000,,,,,,,,,,,,,,,,,,,,,,,,,,,,
1732156758.045559,1732156758.046338,83.000000,0.000000,4289.358887,4306.153809,4321.025879,4308.846191,4279.615234,4293.461426,4336.025879,4398.589844,4311.153809,4324.871582,4486.922852,4507.179688,4359.871582,4404.743652,1578.000000,1.000000,27.000000,,,,0.000000,2.000000,2.000000,0.000000,4.000000,2.000000,2.000000,0.000000,0.000000,4.000000,4.000000,4.000000,4.000000,4.000000,4.000000,0.000000,,,,,,,,,,,,,,,,,,,,,,,,,,,,
1732156758.053367,1732156758.054047,84.000000,0.000000,4278.077148,4295.769043,4320.897461,4308.461426,4287.692383,4298.205078,4337.820313,4398.205078,4310.256348,4316.666504,4480.000000,4504.871582,4349.102539,4401.025879,1703.000000,1.000000,27.000000,,,,0.000000,2.000000,2.000000,0.000000,4.000000,2.000000,2.000000,0.000000,0.000000,4.000000,4.000000,4.000000,4.000000,4.000000,4.000000,0.000000,,,,,,,,,,,,,,,,,21.000000,0.000000,0.492067,0.435303,-0.600098,0.456360,0.973263,-0.114272,-0.098157,-37.295555,43.779884,31.159897
1732156758.061175,1732156758.061855,85.000000,0.000000,4280.641113,4306.410156,4320.512695,4309.358887,4292.179688,4291.538574,4332.692383,4398.205078,4310.256348,4309.230957,4474.615234,4503.589844,4343.077148,4394.230957,1681.000000,1.000000,27.000000,,,,0.000000,2.000000,2.000000,0.000000,4.000000,2.000000,2.000000,0.000000,0.000000,4.000000,4.000000,4.000000,4.000000,4.000000,4.000000,0.000000,,,,,,,,,,,,,,,,,,,,,,,,,,,,
1732156758.068984,1732156758.069863,86.000000,0.000000,4290.512695,4315.128418,4319.871582,4311.538574,4297.820313,4280.128418,4331.922852,4398.974121,4312.179688,4315.897461,4475.897461,4505.641113,4344.743652,4399.743652,1534.000000,1.000000,27.000000,,,,0.000000,2.000000,2.000000,0.000000,4.000000,2.000000,2.000000,0.000000,0.000000,4.000000,4.000000,4.000000,4.000000,4.000000,4.000000,0.000000,,,,,,,,,,,,,,,,,,,,,,,,,,,,
1732156758.076792,1732156758.077671,87.000000,0.000000,4295.384766,4313.589844,4320.769043,4313.333496,4306.666504,4279.615234,4335.897461,4398.461426,4313.846191,4319.743652,4481.153809,4506.153809,4341.666504,4410.128418,1578.000000,1.000000,27.000000,,,,0.000000,2.000000,2.000000,0.000000,4.000000,2.000000,2.000000,0.000000,0.000000,4.000000,4.000000,4.000000,4.000000,4.000000,4.000000,0.000000,,,,,,,,,,,,,,,,,,,,,,,,,,,,
1732156758.084600,1732156758.085579,88.000000,0.000000,4300.128418,4317.179688,4320.641113,4317.179688,4289.358887,4291.538574,4335.897461,4397.307617,4312.436035,4313.333496,4486.282227,4513.461426,4345.000000,4412.307617,1703.000000,1.000000,27.000000,,,,0.000000,2.000000,2.000000,0.000000,4.000000,2.000000,2.000000,0.000000,0.000000,4.000000,4.000000,4.000000,4.000000,4.000000,4.000000,0.000000,,,,,,,,,,,,,,,,,22.000000,0.000000,0.491752,0.435974,-0.599915,0.456299,0.967892,-0.125015,-0.100110,-37.204399,43.843372,31.094517
1732156758.092408,1732156758.093387,89.000000,0.000000,4305.512695,4321.922852,4320.384766,4320.256348,4274.358887,4295.512695,4334.358887,4397.563965,4308.846191,4310.256348,4491.666504,4524.487305,4349.743652,4411.922852,1681.000000,1.000000,27.000000,,,,0.000000,2.000000,2.000000,0.000000,4.000000,2.000000,2.000000,0.000000,0.000000,4.000000,4.000000,4.000000,4.000000,4.000000,4.000000,0.000000,,,,,,,,,,,,,,,,,,,,,,,,,,,,
1732156758.100217,1732156758.101395,90.000000,0.000000,4305.000000,4319.871582,4322.307617,4318.717773,4292.179688,4289.743652,4335.641113,4397.563965,4312.948730,4313.333496,4489.871582,4520.000000,4343.205078,4411.922852,1534.000000,1.000000,27.000000,,,,0.000000,2.000000,2.000000,0.000000,4.000000,2.000000,2.000000,0.000000,0.000000,4.000000,4.000000,4.000000,4.000000,4.000000,4.000000,0.000000,,,,,,,,,,,,,,,,,,,,,,,,,,,,
1732156758.108025,1732156758.109204,91.000000,0.000000,4304.487305,4320.512695,4322.692383,4321.538574,4298.077148,4293.846191,4336.794922,4397.563965,4319.743652,4311.153809,4480.769043,4510.384766,4339.743652,4408.846191,1578.000000,1.000000,27.000000,,,,0.000000,2.000000,2.000000,0.000000,4.000000,2.000000,2.000000,0.000000,0.000000,4.000000,4.000000,4.000000,4.000000,4.000000,4.000000,0.000000,,,,,,,,,,,,,,,,,,,,,,,,,,,,
1732156758.115833,1732156758.117112,92.000000,0.000000,4305.897461,4320.384766,4319.871582,4324.358887,4295.769043,4298.717773,4335.769043,4395.512695,4307.820313,4300.641113,4475.512695,4511.282227,4343.589844,4402.820313,1703.000000,1.000000,27.000000,,,,0.000000,2.000000,2.000000,0.000000,4.000000,2.000000,2.000000,0.000000,0.000000,4.000000,4.000000,4.000000,4.000000,4.000000,4.000000,0.000000,,,,,,,,,,,,,,,,,23.000000,0.000000,0.491554,0.436218,-0.599854,0.456360,0.971310,-0.121109,-0.096691,-37.197231,43.744801,31.108225
1732156758.123641,1732156758.124920,93.000000,0.000000,4300.128418,4320.384766,4318.846191,4318.077148,4309.615234,4294.615234,4333.846191,4393.205078,4294.230957,4291.025879,4473.205078,4508.077148,4340.769043,4397.179688,1681.000000,1.000000,27.000000,,,,0.000000,2.000000,2.000000,0.000000,4.000000,2.000000,2.000000,0.000000,0.000000,4.000000,4.000000,4.000000,4.000000,4.000000,4.000000,0.000000,,,,,,,,,,,,,,,,,,,,,,,,,,,,
1732156758.131450,1732156758.132528,94.000000,0.000000,4293.974121,4319.743652,4320.641113,4314.230957,4302.563965,4293.333496,4333.589844,4395.512695,4302.948730,4292.436035,4472.948730,4500.641113,4340.128418,4399.230957,1534.000000,1.000000,27.000000,,,,0.000000,2.000000,2.000000,0.000000,4.000000,2.000000,2.000000,0.000000,0.000000,4.000000,4.000000,4.000000,4.000000,4.000000,4.000000,0.000000,,,,,,,,,,,,,,,,,,,,,,,,,,,,
1732156758.139258,1732156758.140337,95.000000,0.000000,4293.589844,4313.205078,4319.871582,4316.410156,4276.153809,4297.436035,4335.000000,4399.230957,4314.743652,4301.025879,4476.794922,4506.922852,4345.769043,4404.487305,1578.000000,1.000000,27.000000,,,,0.000000,2.000000,2.000000,0.000000,4.000000,2.000000,2.000000,0.000000,0.000000,4.000000,4.000000,4.000000,4.000000,4.000000,4.000000,0.000000,,,,,,,,,,,,,,,,,,,,,,,,,,,,
1732156758.147066,1732156758.148245,96.000000,0.000000,4289.615234,4308.974121,4320.512695,4314.358887,4282.563965,4296.794922,4335.128418,4398.333496,4311.666504,4304.230957,4480.769043,4514.615234,4342.948730,4401.538574,1703.000000,1.000000,27.000000,,,,0.000000,2.000000,2.000000,0.000000,4.000000,2.000000,2.000000,0.000000,0.000000,4.000000,4.000000,4.000000,4.000000,4.000000,4.000000,0.000000,,,,,,,,,,,,,,,,,24.000000,0.000000,0.491610,0.436218,-0.599854,0.456299,0.968868,-0.128922,-0.096691,-36.888092,43.718288,31.139330
1732156758.154874,1732156758.156053,97.000000,0.000000,4283.846191,4311.538574,4321.153809,4309.871582,4308.333496,4293.333496,4334.358887,4397.692383,4310.256348,4302.692383,4479.615234,4508.974121,4339.615234,4395.256348,1681.000000,1.000000,27.000000,,,,0.000000,2.000000,2.000000,0.000000,4.000000,2.000000,2.000000,0.000000,0.000000,4.000000,4.000000,4.000000,4.000000,4.000000,4.000000,0.000000,,,,,,,,,,,,,,,,,,,,,,,,,,,,
1732156758.162682,1732156758.164061,98.000000,0.000000,4282.692383,4312.820313,4316.538574,4311.410156,4298.205078,4293.589844,4334.743652,4398.974121,4317.051270,4305.641113,4477.179688,4503.205078,4344.487305,4394.871582,1534.000000,1.000000,27.000000,,,,0.000000,2.000000,2.000000,0.000000,4.000000,2.000000,2.000000,0.000000,0.000000,4.000000,4.000000,4.000000,4.000000,4.000000,4.000000,0.000000,,,,,,,,,,,,,,,,,,,,,,,,,,,,
1732156758.170491,1732156758.171869,99.000000,0.000000,4286.922852,4309.487305,4312.820313,4315.384766,4276.922852,4296.922852,4335.769043,4398.589844,4320.641113,4312.436035,4476.666504,4501.922852,4344.358887,4396.153809,1578.000000,1.000000,27.000000,,,,0.000000,2.000000,2.000000,0.000000,4.000000,2.000000,2.000000,0.000000,0.000000,4.000000,4.000000,4.000000,4.000000,4.000000,4.000000,0.000000,,,,,,,,,,,,,,,,,,,,,,,,,,,,
1732156758.178299,1732156758.179777,100.000000,0.000000,4293.333496,4312.563965,4318.333496,4318.717773,4288.205078,4296.922852,4336.153809,4398.333496,4319.487305,4312.563965,4476.282227,4500.769043,4337.948730,4396.922852,1703.000000,1.000000,27.000000,,,,0.000000,2.000000,2.000000,0.000000,4.000000,2.000000,2.000000,0.000000,0.000000,4.000000,4.000000,4.000000,4.000000,4.000000,4.000000,0.000000,,,,,,,,,,,,,,,,,25.000000,0.000000,0.491631,0.436279,-0.599792,0.456299,0.969357,-0.102552,-0.100110,-36.941021,43.771812,31.144524
1732156758.186107,1732156758.187585,101.000000,0.000000,4295.128418,4320.641113,4321.282227,4323.461426,4301.025879,4295.512695,4335.000000,4398.846191,4322.051270,4307.179688,4477.948730,4500.000000,4334.871582,4398.077148,1681.000000,1.000000,27.000000,,,,0.000000,2.000000,2.000000,0.000000,4.000000,2.000000,2.000000,0.000000,0.000000,4.000000,4.000000,4.000000,4.000000,4.000000,4.000000,0.000000,,,,,,,,,,,,,,,,,,,,,,,,,,,,
1732156758.193915,1732156758.195593,102.000000,0.000000,4293.717773,4322.307617,4316.282227,4324.102539,4297.692383,4295.641113,4334.615234,4398.077148,4322.948730,4303.846191,4476.538574,4498.717773,4335.384766,4397.307617,1534.000000,1.000000,27.000000,,,,0.000000,2.000000,2.000000,0.000000,4.000000,2.000000,2.000000,0.000000,0.000000,4.000000,4.000000,4.000000,4.000000,4.000000,4.000000,0.000000,,,,,,,,,,,,,,,,,,,,,,,,,,,,
1732156758.201724,1732156758.203402,103.000000,0.000000,4295.000000,4320.256348,4315.641113,4320.256348,4302.179688,4295.384766,4335.128418,4396.025879,4312.436035,4297.051270,4472.307617,4495.769043,4337.436035,4398.077148,1578.000000,1.000000,27.000000,,,,0.000000,2.000000,2.000000,0.000000,4.000000,2.000000,2.000000,0.000000,0.000000,4.000000,4.000000,4.000000,4.000000,4.000000,4.000000,0.000000,,,,,,,,,,,,,,,,,,,,,,,,,,,,
1732156758.209532,1732156758.211310,104.000000,0.000000,4291.025879,4318.077148,4318.589844,4317.563965,4307.436035,4295.000000,4334.102539,4395.769043,4305.512695,4293.717773,4473.333496,4492.179688,4341.666504,4400.000000,1703.000000,1.000000,27.000000,,,,0.000000,2.000000,2.000000,0.000000,4.000000,2.000000,2.000000,0.000000,0.000000,4.000000,4.000000,4.000000,4.000000,4.000000,4.000000,0.000000,,,,,,,,,,,,,,,,,26.000000,0.000000,0.491365,0.436890,-0.599426,0.456482,0.973752,-0.118667,-0.099133,-37.020561,43.888500,30.983730
1732156758.217340,1732156758.219118,105.000000,0.000000,4281.153809,4312.820313,4318.333496,4313.717773,4296.922852,4293.333496,4333.717773,4396.025879,4312.307617,4302.820313,4476.794922,4489.871582,4344.487305,4399.358887,1681.000000,1.000000,27.000000,,,,0.000000,2.000000,2.000000,0.000000,4.000000,2.000000,2.000000,0.000000,0.000000,4.000000,4.000000,4.000000,4.000000,4.000000,4.000000,0.000000,,,,,,,,,,,,,,,,,,,,,,,,,,,,
1732156758.225149,1732156758.227126,106.000000,0.000000,4279.871582,4307.563965,4319.743652,4310.256348,4284.102539,4290.384766,4335.256348,4396.025879,4312.820313,4309.871582,4475.641113,4494.358887,4342.820313,4396.666504,1534.000000,1.000000,27.000000,,,,0.000000,2.000000,2.000000,0.000000,4.000000,2.000000,2.000000,0.000000,0.000000,4.000000,4.000000,4.000000,4.000000,4.000000,4.000000,0.000000,,,,,,,,,,,,,,,,,,,,,,,,,,,,
1732156758.232957,1732156758.234934,107.000000,0.000000,4282.436035,4310.897461,4321.282227,4314.487305,4278.589844,4292.692383,4334.615234,4396.922852,4308.333496,4307.692383,4474.871582,4499.358887,4344.230957,4399.743652,1578.000000,1.000000,27.000000,,,,0.000000,2.000000,2.000000,0.000000,4.000000,2.000000,2.000000,0.000000,0.000000,4.000000,4.000000,4.000000,4.000000,4.000000,4.000000,0.000000,,,,,,,,,,,,,,,,,,,,,,,,,,,,
1732156758.240765,1732156758.242842,108.000000,0.000000,4281.794922,4312.820313,4317.820313,4318.461426,4283.333496,4297.051270,4333.205078,4397.051270,4315.256348,4310.256348,4477.563965,4495.384766,4345.256348,4405.512695,1703.000000,1.000000,27.000000,,,,0.000000,2.000000,2.000000,0.000000,4.000000,2.000000,2.000000,0.000000,0.000000,4.000000,4.000000,4.000000,4.000000,4.000000,4.000000,0.000000,,,,,,,,,,,,,,,,,27.000000,0.000000,0.491365,0.436890,-0.599426,0.456482,0.966915,-0.123550,-0.096203,-37.114986,43.968021,30.763489
1732156758.248573,1732156758.250650,109.000000,0.000000,4279.871582,4309.743652,4315.897461,4318.333496,4295.769043,4298.077148,4335.256348,4397.051270,4320.897461,4309.615234,4475.256348,4490.897461,4338.461426,4397.307617,1681.000000,1.000000,27.000000,,,,0.000000,2.000000,2.000000,0.000000,4.000000,2.000000,2.000000,0.000000,0.000000,4.000000,4.000000,4.000000,4.000000,4.000000,4.000000,0.000000,,,,,,,,,,,,,,,,,,,,,,,,,,,,
1732156758.256381,1732156758.258259,110.000000,0.000000,4281.410156,4316.153809,4315.128418,4323.205078,4301.538574,4296.153809,4336.153809,4397.948730,4318.205078,4301.794922,4470.512695,4493.205078,4332.307617,4388.333496,1534.000000,1.000000,27.000000,,,,0.000000,2.000000,2.000000,0.000000,4.000000,2.000000,2.000000,0.000000,0.000000,4.000000,4.000000,4.000000,4.000000,4.000000,4.000000,0.000000,,,,,,,,,,,,,,,,,,,,,,,,,,,,
1732156758.264190,1732156758.266067,111.000000,0.000000,4287.563965,4323.589844,4314.871582,4323.846191,4293.589844,4294.102539,4333.846191,4398.077148,4319.743652,4301.282227,4472.820313,4494.871582,4330.512695,4391.666504,1578.000000,1.000000,27.000000,,,,0.000000,2.000000,2.000000,0.000000,4.000000,2.000000,2.000000,0.000000,0.000000,4.000000,4.000000,4.000000,4.000000,4.000000,4.000000,0.000000,,,,,,,,,,,,,,,,,,,,,,,,,,,,
1732156758.271998,1732156758.273775,112.000000,0.000000,4289.871582,4319.871582,4319.487305,4317.820313,4296.025879,4294.102539,4334.487305,4397.820313,4319.487305,4301.794922,4471.666504,4486.666504,4329.871582,4393.333496,1703.000000,1.000000,27.000000,,,,0.000000,2.000000,2.000000,0.000000,4.000000,2.000000,2.000000,0.000000,0.000000,4.000000,4.000000,4.000000,4.000000,4.000000,4.000000,0.000000,,,,,,,,,,,,,,,,,28.000000,0.000000,0.491499,0.436951,-0.599365,0.456360,0.970822,-0.109877,-0.098157,-37.251472,43.942429,30.808426
1732156758.279806,1732156758.281584,113.000000,0.000000,4284.615234,4317.948730,4322.948730,4317.179688,4313.205078,4295.897461,4336.538574,4398.205078,4312.563965,4295.128418,4463.717773,4477.692383,4328.846191,4390.769043,1681.000000,1.000000,27.000000,,,,0.000000,2.000000,2.000000,0.000000,4.000000,2.000000,2.000000,0.000000,0.000000,4.000000,4.000000,4.000000,4.000000,4.000000,4.000000,0.000000,,,,,,,,,,,,,,,,,,,,,,,,,,,,
1732156758.287614,1732156758.289192,114.000000,0.000000,4281.025879,4320.384766,4320.384766,4320.000000,4308.333496,4295.512695,4335.384766,4397.179688,4310.000000,4293.333496,4459.743652,4479.102539,4327.051270,4392.179688,1534.000000,1.000000,27.000000,,,,0.000000,2.000000,2.000000,0.000000,4.000000,2.000000,2.000000,0.000000,0.000000,4.000000,4.000000,4.000000,4.000000,4.000000,4.000000,0.000000,,,,,,,,,,,,,,,,,,,,,,,,,,,,
1732156758.295423,1732156758.297000,115.000000,0.000000,4282.820313,4316.538574,4320.256348,4316.922852,4282.563965,4294.871582,4334.102539,4397.307617,4312.051270,4293.333496,4459.102539,4482.436035,4325.641113,4390.000000,1578.000000,1.000000,27.000000,,,,0.000000,2.000000,2.000000,0.000000,4.000000,2.000000,2.000000,0.000000,0.000000,4.000000,4.000000,4.000000,4.000000,4.000000,4.000000,0.000000,,,,,,,,,,,,,,,,,,,,,,,,,,,,
1732156758.303231,1732156758.304709,116.000000,0.000000,4281.794922,4311.025879,4320.769043,4313.974121,4274.743652,4296.922852,4334.358887,4397.692383,4314.871582,4289.871582,4456.922852,4477.563965,4322.563965,4382.820313,1703.000000,1.000000,27.000000,,,,0.000000,2.000000,2.000000,0.000000,4.000000,2.000000,2.000000,0.000000,0.000000,4.000000,4.000000,4.000000,4.000000,4.000000,4.000000,0.000000,,,,,,,,,,,,,,,,,29.000000,0.000000,0.491447,0.437073,-0.599365,0.456299,0.957148,-0.114760,-0.103528,-36.895359,44.011700,30.893158
1732156758.311039,1732156758.312517,117.000000,0.000000,4278.717773,4311.666504,4318.077148,4312.307617,4293.077148,4298.461426,4334.230957,4397.820313,4323.717773,4293.589844,4454.230957,4474.487305,4319.871582,4381.025879,1681.000000,1.000000,27.000000,,,,0.000000,2.000000,2.000000,0.000000,4.000000,2.000000,2.000000,0.000000,0.000000,4.000000,4.000000,4.000000,4.000000,4.000000,4.000000,0.000000,,,,,,,,,,,,,,,,,,,,,,,,,,,,
1732156758.318847,1732156758.320125,118.000000,0.000000,4278.333496,4313.333496,4318.589844,4311.666504,4306.922852,4296.282227,4335.128418,4398.717773,4324.743652,4293.205078,4450.128418,4477.051270,4322.436035,4382.692383,1534.000000,1.000000,27.000000,,,,0.000000,2.000000,2.000000,0.000000,4.000000,2.000000,2.000000,0.000000,0.000000,4.000000,4.000000,4.000000,4.000000,4.000000,4.000000,0.000000,,,,,,,,,,,,,,,,,,,,,,,,,,,,
1732156758.326656,1732156758.327933,119.000000,0.000000,4280.641113,4317.948730,4321.922852,4316.922852,4297.948730,4293.461426,4335.641113,4396.922852,4312.820313,4283.205078,4447.820313,4476.153809,4326.666504,4386.025879,1578.000000,1.000000,27.000000,,,,0.000000,2.000000,2.000000,0.000000,4.000000,2.000000,2.000000,0.000000,0.000000,4.000000,4.000000,4.000000,4.000000,4.000000,4.000000,0.000000,,,,,,,,,,,,,,,,,,,,,,,,,,,,
1732156758.334464,1732156758.335642,120.000000,0.000000,4286.282227,4322.051270,4319.230957,4321.410156,4278.974121,4295.512695,4334.102539,4395.641113,4312.307617,4282.436035,4455.769043,4476.922852,4327.051270,4391.538574,1703.000000,1.000000,27.000000,,,,0.000000,2.000000,2.000000,0.000000,4.000000,2.000000,2.000000,0.000000,0.000000,4.000000,4.000000,4.000000,4.000000,4.000000,4.000000,0.000000,,,,,,,,,,,,,,,,,30.000000,0.000000,0.491506,0.437134,-0.599365,0.456177,0.964962,-0.112807,-0.096691,-36.788574,43.844479,31.026791
1732156758.342272,1732156758.343450,121.000000,0.000000,4289.102539,4316.538574,4316.282227,4316.794922,4275.000000,4292.179688,4334.487305,4397.820313,4322.307617,4286.922852,4462.307617,4480.256348,4328.461426,4390.769043,1681.000000,1.000000,27.000000,,,,0.000000,2.000000,2.000000,0.000000,4.000000,2.000000,2.000000,0.000000,0.000000,4.000000,4.000000,4.000000,4.000000,4.000000,4.000000,0.000000,,,,,,,,,,,,,,,,,,,,,,,,,,,,
1732156758.350080,1732156758.351058,122.000000,0.000000,4284.487305,4310.769043,4316.666504,4310.512695,4288.333496,4284.102539,4336.282227,4396.025879,4319.102539,4281.666504,4452.948730,4477.692383,4327.307617,4384.358887,1534.000000,1.000000,27.000000,,,,0.000000,2.000000,2.000000,0.000000,4.000000,2.000000,2.000000,0.000000,0.000000,4.000000,4.000000,4.000000,4.000000,4.000000,4.000000,0.000000,,,,,,,,,,,,,,,,,,,,,,,,,,,,
1732156758.357889,1732156758.358867,123.000000,0.000000,4281.794922,4313.077148,4316.410156,4312.436035,4289.230957,4287.692383,4334.743652,4392.563965,4311.025879,4275.384766,4448.205078,4474.358887,4323.205078,4387.179688,1578.000000,1.000000,27.000000,,,,0.000000,2.000000,2.000000,0.000000,4.000000,2.000000,2.000000,0.000000,0.000000,4.000000,4.000000,4.000000,4.000000,4.000000,4.000000,0.000000,,,,,,,,,,,,,,,,,,,,,,,,,,,,
1732156758.365697,1732156758.366575,124.000000,0.000000,4282.179688,4312.436035,4316.025879,4313.974121,4293.974121,4295.769043,4333.205078,4396.282227,4313.461426,4277.820313,4453.333496,4475.512695,4325.769043,4395.256348,1703.000000,1.000000,27.000000,,,,0.000000,2.000000,2.000000,0.000000,4.000000,2.000000,2.000000,0.000000,0.000000,4.000000,4.000000,4.000000,4.000000,4.000000,4.000000,0.000000,,,,,,,,,,,,,,,,,31.000000,0.000000,0.491415,0.437256,-0.599304,0.456238,0.964962,-0.112807,-0.096691,-36.733746,43.842361,30.926701
1732156758.373505,1732156758.374383,125.000000,0.000000,4280.769043,4308.717773,4314.743652,4311.153809,4307.307617,4295.256348,4334.615234,4398.846191,4313.717773,4278.205078,4451.025879,4476.794922,4325.897461,4390.256348,1681.000000,1.000000,27.000000,,,,0.000000,2.000000,2.000000,0.000000,4.000000,2.000000,2.000000,0.000000,0.000000,4.000000,4.000000,4.000000,4.000000,4.000000,4.000000,0.000000,,,,,,,,,,,,,,,,,,,,,,,,,,,,
1732156758.381313,1732156758.381991,126.000000,0.000000,4284.487305,4313.717773,4316.282227,4315.641113,4293.717773,4295.512695,4335.128418,4397.820313,4311.410156,4272.307617,4446.410156,4477.563965,4319.230957,4383.205078,1534.000000,1.000000,27.000000,,,,0.000000,2.000000,2.000000,0.000000,4.000000,2.000000,2.000000,0.000000,0.000000,4.000000,4.000000,4.000000,4.000000,4.000000,4.000000,0.000000,,,,,,,,,,,,,,,,,,,,,,,,,,,,
1732156758.389122,1732156758.389800,127.000000,0.000000,4287.948730,4317.692383,4320.769043,4322.051270,4285.512695,4298.077148,4334.743652,4398.077148,4315.512695,4272.820313,4449.102539,4478.461426,4319.743652,4387.051270,27.000000,1.000000,27.000000,,,,0.000000,2.000000,2.000000,0.000000,4.000000,2.000000,2.000000,0.000000,0.000000,4.000000,4.000000,4.000000,4.000000,4.000000,4.000000,0.000000,,,,,,,,,,,,,,,,,,,,,,,,,,,,
1732156758.396930,1732156758.397508,0.000000,0.000000,4282.563965,4312.948730,4322.820313,4319.487305,4299.615234,4293.974121,4335.641113,4398.205078,4321.538574,4280.128418,4453.717773,4482.563965,4328.461426,4390.512695,0.000000,1.000000,27.000000,,,,0.000000,2.000000,2.000000,0.000000,4.000000,2.000000,2.000000,0.000000,0.000000,4.000000,4.000000,4.000000,4.000000,4.000000,4.000000,0.000000,,,,,,,,,,,,,,,,,0.000000,0.000000,0.491492,0.437317,-0.599243,0.456177,0.983518,-0.109877,-0.105482,-36.897667,43.987312,31.132294
1732156758.404738,1732156758.405316,1.000000,0.000000,4282.436035,4311.794922,4321.410156,4315.384766,4292.563965,4292.436035,4335.897461,4398.974121,4322.948730,4283.974121,4454.230957,4489.358887,4332.051270,4386.666504,1593.000000,1.000000,27.000000,,,,0.000000,2.000000,2.000000,0.000000,4.000000,2.000000,2.000000,0.000000,0.000000,4.000000,4.000000,4.000000,4.000000,4.000000,4.000000,0.000000,,,,,,,,,,,,,,,,,,,,,,,,,,,,
1732156758.412546,1732156758.413324,2.000000,0.000000,4288.333496,4312.307617,4321.922852,4319.743652,4273.717773,4296.282227,4335.769043,4399.102539,4320.641113,4281.666504,4451.538574,4491.025879,4328.846191,4384.871582,1407.000000,1.000000,27.000000,,,,0.000000,2.000000,2.000000,0.000000,4.000000,2.000000,2.000000,0.000000,0.000000,4.000000,4.000000,4.000000,4.000000,4.000000,4.000000,0.000000,,,,,,,,,,,,,,,,,,,,,,,,,,,,
1732156758.420354,1732156758.421132,3.000000,0.000000,4285.384766,4311.538574,4322.563965,4325.384766,4286.922852,4296.666504,4336.410156,4397.820313,4323.333496,4281.538574,4448.077148,4489.230957,4327.948730,4383.974121,1409.000000,1.000000,27.000000,,,,0.000000,2.000000,2.000000,0.000000,4.000000,2.000000,2.000000,0.000000,0.000000,4.000000,4.000000,4.000000,4.000000,4.000000,4.000000,0.000000,,,,,,,,,,,,,,,,,,,,,,,,,,,,
1732156758.428163,1732156758.428841,4.000000,0.000000,4279.358887,4312.436035,4321.666504,4323.205078,4302.051270,4293.717773,4335.000000,4399.230957,4325.512695,4281.666504,4447.436035,4488.974121,4329.358887,4382.179688,1397.000000,1.000000,27.000000,,,,0.000000,2.000000,2.000000,0.000000,4.000000,2.000000,2.000000,0.000000,0.000000,4.000000,4.000000,4.000000,4.000000,4.000000,4.000000,0.000000,,,,,,,,,,,,,,,,,1.000000,0.000000,0.491642,0.437256,-0.599304,0.455994,0.971310,-0.103528,-0.099622,-36.965443,44.176388,31.197159
1732156758.435971,1732156758.436649,5.000000,0.000000,4284.487305,4311.153809,4322.179688,4319.230957,4287.436035,4291.025879,4333.717773,4396.922852,4317.948730,4277.692383,4443.846191,4484.358887,4327.051270,4383.205078,1244.000000,1.000000,27.000000,,,,0.000000,2.000000,2.000000,0.000000,4.000000,2.000000,2.000000,0.000000,0.000000,4.000000,4.000000,4.000000,4.000000,4.000000,4.000000,0.000000,,,,,,,,,,,,,,,,,,,,,,,,,,,,
1732156758.443779,1732156758.444257,6.000000,0.000000,4293.077148,4307.051270,4321.666504,4319.743652,4287.179688,4291.538574,4335.641113,4394.230957,4311.922852,4272.307617,4435.128418,4477.051270,4321.794922,4384.358887,0.000000,1.000000,27.000000,,,,0.000000,2.000000,2.000000,0.000000,4.000000,2.000000,2.000000,0.000000,0.000000,4.000000,4.000000,4.000000,4.000000,4.000000,4.000000,0.000000,,,,,,,,,,,,,,,,,,,,,,,,,,,,
1732156758.451588,1732156758.452066,7.000000,0.000000,4294.230957,4306.794922,4318.846191,4320.128418,4308.333496,4293.589844,4335.769043,4398.077148,4313.717773,4266.794922,4431.410156,4475.384766,4321.282227,4382.820313,0.000000,1.000000,27.000000,,,,0.000000,2.000000,2.000000,0.000000,4.000000,2.000000,2.000000,0.000000,0.000000,4.000000,4.000000,4.000000,4.000000,4.000000,4.000000,0.000000,,,,,,,,,,,,,,,,,,,,,,,,,,,,
1732156758.459396,1732156758.459774,8.000000,0.000000,4292.179688,4306.922852,4316.666504,4318.205078,4305.641113,4293.589844,4333.589844,4400.256348,4310.897461,4264.615234,4428.333496,4478.846191,4323.589844,4383.077148,1519.000000,1.000000,27.000000,,,,0.000000,2.000000,2.000000,0.000000,4.000000,2.000000,2.000000,0.000000,0.000000,4.000000,4.000000,4.000000,4.000000,4.000000,4.000000,0.000000,,,,,,,,,,,,,,,,,2.000000,0.000000,0.491474,0.437317,-0.599304,0.456116,0.971310,-0.103528,-0.099622,-36.902008,44.102875,31.026365
1732156758.467204,1732156758.467582,9.000000,0.000000,4294.102539,4307.820313,4316.282227,4320.512695,4279.358887,4294.102539,4334.358887,4396.410156,4308.717773,4272.051270,4431.282227,4481.538574,4327.948730,4392.051270,1663.000000,1.000000,27.000000,,,,0.000000,2.000000,2.000000,0.000000,4.000000,2.000000,2.000000,0.000000,0.000000,4.000000,4.000000,4.000000,4.000000,4.000000,4.000000,0.000000,,,,,,,,,,,,,,,,,,,,,,,,,,,,
1732156758.475012,1732156758.475590,10.000000,0.000000,4296.025879,4307.948730,4317.948730,4320.000000,4277.179688,4296.153809,4335.897461,4394.871582,4313.846191,4280.897461,4437.820313,4484.743652,4332.692383,4391.666504,1534.000000,1.000000,27.000000,,,,0.000000,2.000000,2.000000,0.000000,4.000000,2.000000,2.000000,0.000000,0.000000,4.000000,4.000000,4.000000,4.000000,4.000000,4.000000,0.000000,,,,,,,,,,,,,,,,,,,,,,,,,,,,
1732156758.482820,1732156758.483398,11.000000,0.000000,4293.717773,4303.205078,4318.077148,4313.077148,4305.000000,4294.743652,4336.153809,4398.333496,4311.025879,4278.077148,4436.025879,4483.205078,4333.974121,4380.256348,1578.000000,1.000000,27.000000,,,,0.000000,2.000000,2.000000,0.000000,4.000000,2.000000,2.000000,0.000000,0.000000,4.000000,4.000000,4.000000,4.000000,4.000000,4.000000,0.000000,,,,,,,,,,,,,,,,,,,,,,,,,,,,
1732156758.490629,1732156758.491306,12.000000,0.000000,4292.307617,4302.563965,4318.589844,4312.563965,4303.974121,4292.307617,4335.897461,4400.256348,4308.846191,4277.051270,4435.769043,4481.794922,4334.487305,4381.666504,1703.000000,1.000000,27.000000,,,,0.000000,2.000000,2.000000,0.000000,4.000000,2.000000,2.000000,0.000000,0.000000,4.000000,4.000000,4.000000,4.000000,4.000000,4.000000,0.000000,,,,,,,,,,,,,,,,,3.000000,0.000000,0.490934,0.437561,-0.599243,0.456543,0.965938,-0.110365,-0.096691,-36.825626,44.273331,30.863022
1732156758.498437,1732156758.499115,13.000000,0.000000,4295.000000,4306.666504,4321.153809,4317.820313,4278.077148,4293.461426,4335.128418,4398.589844,4318.077148,4291.538574,4443.717773,4490.128418,4335.128418,4390.128418,1690.000000,1.000000,27.000000,,,,0.000000,2.000000,2.000000,0.000000,4.000000,2.000000,2.000000,0.000000,0.000000,4.000000,4.000000,4.000000,4.000000,4.000000,4.000000,0.000000,,,,,,,,,,,,,,,,,,,,,,,,,,,,
1732156758.506245,1732156758.507123,14.000000,0.000000,4294.871582,4303.461426,4321.025879,4316.538574,4282.436035,4296.025879,4334.487305,4395.256348,4322.307617,4300.000000,4446.666504,4491.666504,4337.051270,4387.179688,1534.000000,1.000000,27.000000,,,,0.000000,2.000000,2.000000,0.000000,4.000000,2.000000,2.000000,0.000000,0.000000,4.000000,4.000000,4.000000,4.000000,4.000000,4.000000,0.000000,1.000000,0.000000,2.000000,2.000000,0.000000,4.000000,2.000000,2.000000,0.000000,0.000000,4.000000,3.000000,4.000000,4.000000,4.000000,4.000000,,,,,,,,,,,,
1732156758.514053,1732156758.514931,15.000000,0.000000,4287.436035,4297.948730,4319.871582,4310.641113,4300.512695,4297.692383,4335.000000,4396.410156,4314.487305,4288.589844,4437.307617,4478.077148,4334.871582,4378.846191,1578.000000,1.000000,27.000000,,,,0.000000,2.000000,2.000000,0.000000,4.000000,2.000000,2.000000,0.000000,0.000000,4.000000,4.000000,4.000000,4.000000,4.000000,4.000000,0.000000,,,,,,,,,,,,,,,,,,,,,,,,,,,,
1732156758.521862,1732156758.522839,16.000000,0.000000,4280.000000,4297.692383,4317.948730,4309.487305,4297.948730,4298.589844,4335.128418,4398.717773,4307.436035,4277.820313,4430.128418,4469.487305,4329.230957,4371.794922,0.000000,1.000000,27.000000,,,,0.000000,2.000000,2.000000,0.000000,4.000000,2.000000,2.000000,0.000000,0.000000,4.000000,4.000000,4.000000,4.000000,4.000000,4.000000,0.000000,,,,,,,,,,,,,,,,,4.000000,0.000000,0.491262,0.437073,-0.599609,0.456177,0.975705,-0.117202,-0.104505,-36.817093,44.319729,31.094048
1732156758.529670,1732156758.530647,17.000000,0.000000,4280.769043,4296.922852,4313.589844,4310.128418,4302.307617,4297.820313,4335.000000,4397.948730,4307.563965,4278.717773,4429.102539,4473.589844,4327.307617,4368.333496,0.000000,1.000000,27.000000,,,,0.000000,2.000000,2.000000,0.000000,4.000000,2.000000,2.000000,0.000000,0.000000,4.000000,4.000000,4.000000,4.000000,4.000000,4.000000,0.000000,,,,,,,,,,,,,,,,,,,,,,,,,,,,
1732156758.537478,1732156758.538256,18.000000,0.000000,4286.025879,4297.563965,4313.077148,4310.384766,4318.974121,4297.051270,4335.897461,4396.794922,4310.897461,4281.410156,4430.512695,4474.358887,4328.205078,4371.922852,0.000000,1.000000,27.000000,,,,0.000000,2.000000,2.000000,0.000000,4.000000,2.000000,2.000000,0.000000,0.000000,4.000000,4.000000,4.000000,4.000000,4.000000,4.000000,0.000000,,,,,,,,,,,,,,,,,,,,,,,,,,,,
1732156758.545286,1732156758.546064,19.000000,0.000000,4285.769043,4300.128418,4317.820313,4312.179688,4308.205078,4298.461426,4336.153809,4397.436035,4312.563965,4283.717773,4434.230957,4475.512695,4326.153809,4375.512695,0.000000,1.000000,27.000000,,,,0.000000,2.000000,2.000000,0.000000,4.000000,2.000000,2.000000,0.000000,0.000000,4.000000,4.000000,4.000000,4.000000,4.000000,4.000000,0.000000,,,,,,,,,,,,,,,,,,,,,,,,,,,,
1732156758.553095,1732156758.553972,20.000000,0.000000,4282.307617,4299.102539,4318.846191,4313.717773,4284.615234,4299.358887,4335.512695,4398.077148,4312.307617,4292.179688,4441.025879,4486.282227,4326.794922,4378.077148,0.000000,1.000000,27.000000,,,,0.000000,2.000000,2.000000,0.000000,4.000000,2.000000,2.000000,0.000000,0.000000,4.000000,4.000000,4.000000,4.000000,4.000000,4.000000,0.000000,,,,,,,,,,,,,,,,,5.000000,0.000000,0.491208,0.437134,-0.599609,0.456177,0.975217,-0.116713,-0.095226,-36.896843,44.250648,31.266178
1732156758.560903,1732156758.561780,21.000000,0.000000,4281.794922,4295.128418,4319.615234,4309.102539,4291.922852,4297.948730,4335.128418,4397.820313,4315.128418,4293.846191,4443.846191,4490.897461,4333.846191,4382.051270,0.000000,1.000000,27.000000,,,,0.000000,2.000000,2.000000,0.000000,4.000000,2.000000,2.000000,0.000000,0.000000,4.000000,4.000000,4.000000,4.000000,4.000000,4.000000,0.000000,,,,,,,,,,,,,,,,,,,,,,,,,,,,
