title:2one, start timestamp:1732156836.830717, stop timestamp:1732156887.896619, headset type:EPOCX, headset serial:E5020C3A, headset firmware:730, channels:67, sampling rate:eeg_128;mot_32, samples:6541      , version:2.2, 
Timestamp,OriginalTimestamp,EEG.Counter,EEG.Interpolated,EEG.AF3,EEG.F7,EEG.F3,EEG.FC5,EEG.T7,EEG.P7,EEG.O1,EEG.O2,EEG.P8,EEG.T8,EEG.FC6,EEG.F4,EEG.F8,EEG.AF4,EEG.RawCq,EEG.Battery,EEG.BatteryPercent,MarkerIndex,MarkerType,MarkerValueInt,EEG.MarkerHardware,CQ.AF3,CQ.F7,CQ.F3,CQ.FC5,CQ.T7,CQ.P7,CQ.O1,CQ.O2,CQ.P8,CQ.T8,CQ.FC6,CQ.F4,CQ.F8,CQ.AF4,CQ.Overall,EQ.SampleRateQuality,EQ.OVERALL,EQ.AF3,EQ.F7,EQ.F3,EQ.FC5,EQ.T7,EQ.P7,EQ.O1,EQ.O2,EQ.P8,EQ.T8,EQ.FC6,EQ.F4,EQ.F8,EQ.AF4,MOT.CounterMems,MOT.InterpolatedMems,MOT.Q0,MOT.Q1,MOT.Q2,MOT.Q3,MOT.AccX,MOT.AccY,MOT.AccZ,MOT.MagX,MOT.MagY,MOT.MagZ
1732156836.830717,1732156836.832062,61.000000,0.000000,4294.871582,4264.615234,4312.179688,4292.692383,4275.897461,4280.128418,4333.846191,4398.461426,4298.205078,4293.974121,4477.436035,4494.615234,4349.615234,4412.307617,0.000000,1.000000,26.000000,,,,0.000000,2.000000,2.000000,0.000000,4.000000,2.000000,2.000000,0.000000,0.000000,4.000000,4.000000,4.000000,4.000000,4.000000,4.000000,0.000000,,,,,,,,,,,,,,,,,,,,,,,,,,,,
1732156836.838525,1732156836.840070,62.000000,0.000000,4292.948730,4265.769043,4316.666504,4291.538574,4288.205078,4278.974121,4334.102539,4396.922852,4301.410156,4296.153809,4477.563965,4494.615234,4351.282227,4412.051270,0.000000,1.000000,26.000000,,,,0.000000,2.000000,2.000000,0.000000,4.000000,2.000000,2.000000,0.000000,0.000000,4.000000,4.000000,4.000000,4.000000,4.000000,4.000000,0.000000,,,,,,,,,,,,,,,,,,,,,,,,,,,,
1732156836.846334,1732156836.847879,63.000000,0.000000,4292.948730,4266.922852,4313.717773,4293.461426,4290.897461,4280.769043,4333.717773,4396.922852,4302.563965,4293.589844,4476.282227,4491.794922,4348.461426,4411.538574,0.000000,1.000000,26.000000,,,,0.000000,2.000000,2.000000,0.000000,4.000000,2.000000,2.000000,0.000000,0.000000,4.000000,4.000000,4.000000,4.000000,4.000000,4.000000,0.000000,,,,,,,,,,,,,,,,,,,,,,,,,,,,
1732156836.854142,1732156836.855787,64.000000,0.000000,4294.102539,4264.615234,4312.948730,4293.846191,4271.794922,4280.769043,4333.974121,4397.179688,4307.179688,4294.743652,4477.563965,4490.769043,4348.846191,4410.128418,0.000000,1.000000,26.000000,,,,0.000000,2.000000,2.000000,0.000000,4.000000,2.000000,2.000000,0.000000,0.000000,4.000000,4.000000,4.000000,4.000000,4.000000,4.000000,0.000000,,,,,,,,,,,,,,,,,16.000000,0.000000,0.514621,0.466003,-0.570740,0.438477,0.970822,-0.038579,-0.080576,-35.694798,45.411148,31.982962
1732156836.861950,1732156836.863595,65.000000,0.000000,4294.487305,4263.205078,4315.897461,4293.974121,4259.871582,4282.051270,4334.487305,4396.794922,4309.615234,4297.948730,4481.794922,4492.307617,4350.897461,4406.794922,1588.000000,1.000000,26.000000,,,,0.000000,2.000000,2.000000,0.000000,4.000000,2.000000,2.000000,0.000000,0.000000,4.000000,4.000000,4.000000,4.000000,4.000000,4.000000,0.000000,,,,,,,,,,,,,,,,,,,,,,,,,,,,
1732156836.869758,1732156836.871603,66.000000,0.000000,4295.128418,4265.256348,4314.358887,4295.641113,4265.256348,4282.307617,4332.820313,4398.205078,4301.282227,4294.743652,4479.615234,4492.948730,4350.256348,4401.922852,1396.000000,1.000000,26.000000,,,,0.000000,2.000000,2.000000,0.000000,4.000000,2.000000,2.000000,0.000000,0.000000,4.000000,4.000000,4.000000,4.000000,4.000000,4.000000,0.000000,,,,,,,,,,,,,,,,,,,,,,,,,,,,
1732156836.877566,1732156836.879411,67.000000,0.000000,4294.358887,4266.538574,4312.692383,4295.641113,4270.512695,4279.487305,4331.794922,4397.179688,4297.563965,4285.641113,4473.717773,4491.922852,4349.487305,4402.051270,1409.000000,1.000000,26.000000,,,,0.000000,2.000000,2.000000,0.000000,4.000000,2.000000,2.000000,0.000000,0.000000,4.000000,4.000000,4.000000,4.000000,4.000000,4.000000,0.000000,,,,,,,,,,,,,,,,,,,,,,,,,,,,
1732156836.885375,1732156836.887319,68.000000,0.000000,4292.051270,4266.538574,4315.512695,4294.743652,4276.538574,4283.717773,4334.230957,4395.641113,4302.436035,4280.897461,4473.589844,4489.102539,4350.000000,4405.769043,1417.000000,1.000000,26.000000,,,,0.000000,2.000000,2.000000,0.000000,4.000000,2.000000,2.000000,0.000000,0.000000,4.000000,4.000000,4.000000,4.000000,4.000000,4.000000,0.000000,,,,,,,,,,,,,,,,,17.000000,0.000000,0.514986,0.466187,-0.570496,0.438171,0.984984,0.001465,-0.083995,-35.754456,45.501366,32.039532
1732156836.893183,1732156836.895127,69.000000,0.000000,4293.589844,4266.538574,4316.666504,4294.615234,4278.205078,4289.743652,4336.666504,4398.077148,4300.641113,4282.820313,4477.179688,4487.563965,4349.871582,4403.717773,1235.000000,1.000000,26.000000,,,,0.000000,2.000000,2.000000,0.000000,4.000000,2.000000,2.000000,0.000000,0.000000,4.000000,4.000000,4.000000,4.000000,4.000000,4.000000,0.000000,,,,,,,,,,,,,,,,,,,,,,,,,,,,
1732156836.900991,1732156836.903135,70.000000,0.000000,4297.436035,4266.282227,4313.205078,4293.461426,4277.307617,4285.641113,4332.179688,4399.230957,4293.589844,4282.179688,4477.820313,4488.974121,4349.615234,4398.077148,0.000000,1.000000,26.000000,,,,0.000000,2.000000,2.000000,0.000000,4.000000,2.000000,2.000000,0.000000,0.000000,4.000000,4.000000,4.000000,4.000000,4.000000,4.000000,0.000000,,,,,,,,,,,,,,,,,,,,,,,,,,,,
1732156836.908800,1732156836.910944,71.000000,0.000000,4297.307617,4268.461426,4311.666504,4292.820313,4290.641113,4280.128418,4328.974121,4395.897461,4294.871582,4279.487305,4473.974121,4488.974121,4349.615234,4397.307617,0.000000,1.000000,26.000000,,,,0.000000,2.000000,2.000000,0.000000,4.000000,2.000000,2.000000,0.000000,0.000000,4.000000,4.000000,4.000000,4.000000,4.000000,4.000000,0.000000,,,,,,,,,,,,,,,,,,,,,,,,,,,,
1732156836.916608,1732156836.918652,72.000000,0.000000,4296.025879,4273.717773,4314.230957,4295.384766,4291.410156,4287.179688,4333.717773,4396.666504,4305.769043,4282.692383,4475.769043,4488.205078,4349.743652,4398.461426,1528.000000,1.000000,26.000000,,,,0.000000,2.000000,2.000000,0.000000,4.000000,2.000000,2.000000,0.000000,0.000000,4.000000,4.000000,4.000000,4.000000,4.000000,4.000000,0.000000,,,,,,,,,,,,,,,,,18.000000,0.000000,0.515255,0.466309,-0.570435,0.437805,0.984984,0.001465,-0.083995,-35.896107,45.184437,32.158688
1732156836.924416,1732156836.926460,73.000000,0.000000,4296.922852,4275.000000,4313.717773,4297.179688,4277.692383,4297.051270,4336.538574,4398.846191,4310.641113,4285.384766,4484.743652,4491.410156,4350.641113,4397.179688,1659.000000,1.000000,26.000000,,,,0.000000,2.000000,2.000000,0.000000,4.000000,2.000000,2.000000,0.000000,0.000000,4.000000,4.000000,4.000000,4.000000,4.000000,4.000000,0.000000,,,,,,,,,,,,,,,,,,,,,,,,,,,,
1732156836.932224,1732156836.934068,74.000000,0.000000,4298.205078,4271.538574,4309.487305,4295.769043,4273.461426,4294.743652,4332.436035,4396.922852,4300.000000,4280.512695,4486.282227,4493.846191,4348.333496,4397.307617,1524.000000,1.000000,26.000000,,,,0.000000,2.000000,2.000000,0.000000,4.000000,2.000000,2.000000,0.000000,0.000000,4.000000,4.000000,4.000000,4.000000,4.000000,4.000000,0.000000,,,,,,,,,,,,,,,,,,,,,,,,,,,,
1732156836.940032,1732156836.941877,75.000000,0.000000,4293.205078,4272.051270,4310.256348,4293.205078,4277.179688,4288.205078,4331.153809,4395.897461,4291.922852,4277.051270,4477.307617,4484.358887,4344.358887,4396.153809,1573.000000,1.000000,26.000000,,,,0.000000,2.000000,2.000000,0.000000,4.000000,2.000000,2.000000,0.000000,0.000000,4.000000,4.000000,4.000000,4.000000,4.000000,4.000000,0.000000,,,,,,,,,,,,,,,,,,,,,,,,,,,,
1732156836.947841,1732156836.949585,76.000000,0.000000,4285.641113,4276.538574,4312.563965,4292.692383,4289.871582,4284.743652,4333.589844,4397.948730,4297.179688,4279.230957,4471.922852,4476.666504,4342.692383,4390.000000,1693.000000,1.000000,26.000000,,,,0.000000,2.000000,2.000000,0.000000,4.000000,2.000000,2.000000,0.000000,0.000000,4.000000,4.000000,4.000000,4.000000,4.000000,4.000000,0.000000,,,,,,,,,,,,,,,,,19.000000,0.000000,0.515266,0.468201,-0.569763,0.436646,0.989867,0.020022,-0.098645,-35.905846,45.254395,32.028538
1732156836.955649,1732156836.957393,77.000000,0.000000,4286.282227,4277.820313,4311.025879,4295.384766,4289.358887,4283.717773,4333.077148,4398.461426,4299.487305,4281.025879,4471.922852,4481.538574,4343.717773,4389.487305,1688.000000,1.000000,26.000000,,,,0.000000,2.000000,2.000000,0.000000,4.000000,2.000000,2.000000,0.000000,0.000000,4.000000,4.000000,4.000000,4.000000,4.000000,4.000000,0.000000,,,,,,,,,,,,,,,,,,,,,,,,,,,,
1732156836.963457,1732156836.965002,78.000000,0.000000,4292.692383,4276.410156,4309.230957,4297.692383,4268.461426,4289.230957,4331.666504,4397.307617,4296.922852,4280.769043,4473.717773,4482.436035,4347.179688,4394.487305,1524.000000,1.000000,26.000000,,,,0.000000,2.000000,2.000000,0.000000,4.000000,2.000000,2.000000,0.000000,0.000000,4.000000,4.000000,4.000000,4.000000,4.000000,4.000000,0.000000,1.000000,0.000000,2.000000,2.000000,0.000000,4.000000,2.000000,2.000000,0.000000,0.000000,4.000000,4.000000,4.000000,4.000000,4.000000,4.000000,,,,,,,,,,,,
1732156836.971265,1732156836.972810,79.000000,0.000000,4295.128418,4278.333496,4307.307617,4297.179688,4265.128418,4294.487305,4333.846191,4396.153809,4296.025879,4279.743652,4482.563965,4480.384766,4350.897461,4395.769043,1573.000000,1.000000,26.000000,,,,0.000000,2.000000,2.000000,0.000000,4.000000,2.000000,2.000000,0.000000,0.000000,4.000000,4.000000,4.000000,4.000000,4.000000,4.000000,0.000000,,,,,,,,,,,,,,,,,,,,,,,,,,,,
1732156836.979074,1732156836.980718,80.000000,0.000000,4293.589844,4280.128418,4307.948730,4297.179688,4282.820313,4288.333496,4334.871582,4396.410156,4297.436035,4277.563965,4489.871582,4487.563965,4351.025879,4396.282227,1693.000000,1.000000,26.000000,,,,0.000000,2.000000,2.000000,0.000000,4.000000,2.000000,2.000000,0.000000,0.000000,4.000000,4.000000,4.000000,4.000000,4.000000,4.000000,0.000000,,,,,,,,,,,,,,,,,20.000000,0.000000,0.513891,0.469299,-0.570007,0.436768,0.956171,-0.010255,-0.103528,-36.018738,45.206059,31.699781
1732156836.986882,1732156836.988526,81.000000,0.000000,4292.436035,4275.769043,4311.153809,4296.153809,4280.897461,4281.410156,4331.794922,4396.153809,4302.051270,4281.025879,4488.974121,4494.230957,4349.871582,4397.563965,1688.000000,1.000000,26.000000,,,,0.000000,2.000000,2.000000,0.000000,4.000000,2.000000,2.000000,0.000000,0.000000,4.000000,4.000000,4.000000,4.000000,4.000000,4.000000,0.000000,,,,,,,,,,,,,,,,,,,,,,,,,,,,
1732156836.994690,1732156836.996135,82.000000,0.000000,4291.282227,4273.589844,4304.230957,4293.717773,4275.897461,4282.051270,4327.563965,4392.436035,4299.743652,4284.615234,4488.333496,4489.230957,4350.769043,4396.153809,1524.000000,1.000000,26.000000,,,,0.000000,2.000000,2.000000,0.000000,4.000000,2.000000,2.000000,0.000000,0.000000,4.000000,4.000000,4.000000,4.000000,4.000000,4.000000,0.000000,,,,,,,,,,,,,,,,,,,,,,,,,,,,
1732156837.002498,1732156837.003943,83.000000,0.000000,4293.077148,4278.333496,4297.948730,4298.461426,4285.769043,4282.436035,4326.025879,4391.282227,4289.487305,4278.589844,4489.487305,4485.769043,4351.922852,4396.538574,1573.000000,1.000000,26.000000,,,,0.000000,2.000000,2.000000,0.000000,4.000000,2.000000,2.000000,0.000000,0.000000,4.000000,4.000000,4.000000,4.000000,4.000000,4.000000,0.000000,,,,,,,,,,,,,,,,,,,,,,,,,,,,
1732156837.010306,1732156837.011651,84.000000,0.000000,4296.538574,4281.666504,4301.153809,4305.384766,4280.897461,4280.769043,4326.666504,4392.179688,4292.307617,4279.230957,4489.102539,4489.871582,4351.410156,4399.230957,1693.000000,1.000000,26.000000,,,,0.000000,2.000000,2.000000,0.000000,4.000000,2.000000,2.000000,0.000000,0.000000,4.000000,4.000000,4.000000,4.000000,4.000000,4.000000,0.000000,,,,,,,,,,,,,,,,,21.000000,0.000000,0.513022,0.468201,-0.571411,0.437134,0.963008,-0.042486,-0.098645,-36.000175,45.285240,31.623489
1732156837.018115,1732156837.019459,85.000000,0.000000,4296.025879,4278.461426,4300.512695,4300.384766,4280.641113,4282.563965,4327.820313,4390.641113,4302.436035,4294.871582,4487.436035,4490.512695,4350.769043,4398.717773,1688.000000,1.000000,26.000000,,,,0.000000,2.000000,2.000000,0.000000,4.000000,2.000000,2.000000,0.000000,0.000000,4.000000,4.000000,4.000000,4.000000,4.000000,4.000000,0.000000,,,,,,,,,,,,,,,,,,,,,,,,,,,,
1732156837.025923,1732156837.027068,86.000000,0.000000,4293.846191,4275.256348,4293.717773,4294.871582,4296.153809,4282.948730,4328.589844,4388.589844,4300.256348,4294.615234,4488.717773,4488.589844,4351.153809,4396.282227,1524.000000,1.000000,26.000000,,,,0.000000,2.000000,2.000000,0.000000,4.000000,2.000000,2.000000,0.000000,0.000000,4.000000,4.000000,4.000000,4.000000,4.000000,4.000000,0.000000,,,,,,,,,,,,,,,,,,,,,,,,,,,,
1732156837.033731,1732156837.034876,87.000000,0.000000,4291.410156,4276.153809,4296.025879,4298.974121,4286.282227,4280.000000,4327.820313,4387.563965,4293.589844,4280.000000,4488.205078,4489.487305,4350.128418,4396.153809,1573.000000,1.000000,26.000000,,,,0.000000,2.000000,2.000000,0.000000,4.000000,2.000000,2.000000,0.000000,0.000000,4.000000,4.000000,4.000000,4.000000,4.000000,4.000000,0.000000,,,,,,,,,,,,,,,,,,,,,,,,,,,,
1732156837.041540,1732156837.042584,88.000000,0.000000,4292.179688,4278.077148,4300.512695,4301.410156,4262.948730,4278.461426,4322.179688,4387.948730,4298.333496,4284.358887,4479.871582,4486.538574,4345.769043,4396.410156,1693.000000,1.000000,26.000000,,,,0.000000,2.000000,2.000000,0.000000,4.000000,2.000000,2.000000,0.000000,0.000000,4.000000,4.000000,4.000000,4.000000,4.000000,4.000000,0.000000,,,,,,,,,,,,,,,,,22.000000,0.000000,0.512639,0.467163,-0.572510,0.437256,0.976193,-0.038091,-0.086436,-36.000141,45.484379,31.726694
1732156837.049348,1732156837.050392,89.000000,0.000000,4289.487305,4272.307617,4297.307617,4297.051270,4268.077148,4280.128418,4319.615234,4388.333496,4307.563965,4297.179688,4472.179688,4476.666504,4338.974121,4386.538574,1688.000000,1.000000,26.000000,,,,0.000000,2.000000,2.000000,0.000000,4.000000,2.000000,2.000000,0.000000,0.000000,4.000000,4.000000,4.000000,4.000000,4.000000,4.000000,0.000000,,,,,,,,,,,,,,,,,,,,,,,,,,,,
1732156837.057156,1732156837.058400,90.000000,0.000000,4283.333496,4264.871582,4299.230957,4295.512695,4283.717773,4282.436035,4325.769043,4388.077148,4310.256348,4295.512695,4472.948730,4477.692383,4333.333496,4378.974121,1524.000000,1.000000,26.000000,,,,0.000000,2.000000,2.000000,0.000000,4.000000,2.000000,2.000000,0.000000,0.000000,4.000000,4.000000,4.000000,4.000000,4.000000,4.000000,0.000000,,,,,,,,,,,,,,,,,,,,,,,,,,,,
1732156837.064964,1732156837.066209,91.000000,0.000000,4286.538574,4270.128418,4305.000000,4295.512695,4279.615234,4282.692383,4331.282227,4387.436035,4310.256348,4294.358887,4473.717773,4490.512695,4335.897461,4390.897461,1573.000000,1.000000,26.000000,,,,0.000000,2.000000,2.000000,0.000000,4.000000,2.000000,2.000000,0.000000,0.000000,4.000000,4.000000,4.000000,4.000000,4.000000,4.000000,0.000000,,,,,,,,,,,,,,,,,,,,,,,,,,,,
1732156837.072773,1732156837.074117,92.000000,0.000000,4296.538574,4279.230957,4302.436035,4297.692383,4275.384766,4280.128418,4325.641113,4387.948730,4308.333496,4299.743652,4477.051270,4493.077148,4343.077148,4402.179688,1693.000000,1.000000,26.000000,,,,0.000000,2.000000,2.000000,0.000000,4.000000,2.000000,2.000000,0.000000,0.000000,4.000000,4.000000,4.000000,4.000000,4.000000,4.000000,0.000000,,,,,,,,,,,,,,,,,23.000000,0.000000,0.511922,0.461792,-0.577209,0.437622,0.955195,-0.045416,-0.085460,-35.998447,45.247349,31.631954
1732156837.080581,1732156837.081925,93.000000,0.000000,4298.205078,4281.153809,4300.256348,4303.333496,4280.897461,4278.461426,4322.051270,4388.205078,4305.000000,4299.871582,4487.948730,4488.333496,4347.307617,4399.615234,1688.000000,1.000000,26.000000,,,,0.000000,2.000000,2.000000,0.000000,4.000000,2.000000,2.000000,0.000000,0.000000,4.000000,4.000000,4.000000,4.000000,4.000000,4.000000,0.000000,,,,,,,,,,,,,,,,,,,,,,,,,,,,
1732156837.088389,1732156837.089933,94.000000,0.000000,4294.615234,4279.871582,4303.333496,4306.922852,4285.128418,4280.384766,4328.205078,4390.769043,4303.846191,4298.974121,4491.153809,4491.794922,4344.615234,4398.461426,1524.000000,1.000000,26.000000,,,,0.000000,2.000000,2.000000,0.000000,4.000000,2.000000,2.000000,0.000000,0.000000,4.000000,4.000000,4.000000,4.000000,4.000000,4.000000,0.000000,,,,,,,,,,,,,,,,,,,,,,,,,,,,
1732156837.096197,1732156837.097741,95.000000,0.000000,4296.666504,4279.487305,4305.641113,4305.512695,4285.000000,4281.538574,4331.538574,4394.871582,4305.384766,4298.461426,4486.410156,4495.256348,4342.179688,4402.820313,1573.000000,1.000000,26.000000,,,,0.000000,2.000000,2.000000,0.000000,4.000000,2.000000,2.000000,0.000000,0.000000,4.000000,4.000000,4.000000,4.000000,4.000000,4.000000,0.000000,,,,,,,,,,,,,,,,,,,,,,,,,,,,
1732156837.104005,1732156837.105649,96.000000,0.000000,4299.358887,4281.153809,4305.641113,4302.948730,4277.948730,4279.230957,4330.256348,4395.512695,4310.769043,4298.205078,4491.666504,4494.743652,4344.871582,4402.692383,1693.000000,1.000000,26.000000,,,,0.000000,2.000000,2.000000,0.000000,4.000000,2.000000,2.000000,0.000000,0.000000,4.000000,4.000000,4.000000,4.000000,4.000000,4.000000,0.000000,,,,,,,,,,,,,,,,,24.000000,0.000000,0.512122,0.458923,-0.579224,0.437744,0.985960,-0.028812,-0.094250,-36.207077,45.250351,31.625217
1732156837.111814,1732156837.113457,97.000000,0.000000,4298.589844,4283.589844,4308.077148,4307.948730,4290.897461,4280.128418,4332.307617,4393.333496,4310.128418,4301.410156,4488.846191,4494.102539,4337.948730,4397.563965,1688.000000,1.000000,26.000000,,,,0.000000,2.000000,2.000000,0.000000,4.000000,2.000000,2.000000,0.000000,0.000000,4.000000,4.000000,4.000000,4.000000,4.000000,4.000000,0.000000,,,,,,,,,,,,,,,,,,,,,,,,,,,,
1732156837.119622,1732156837.121465,98.000000,0.000000,4295.512695,4280.769043,4310.641113,4310.128418,4309.358887,4282.563965,4335.128418,4389.102539,4300.256348,4298.974121,4475.384766,4492.563965,4328.077148,4398.461426,1524.000000,1.000000,26.000000,,,,0.000000,2.000000,2.000000,0.000000,4.000000,2.000000,2.000000,0.000000,0.000000,4.000000,4.000000,4.000000,4.000000,4.000000,4.000000,0.000000,,,,,,,,,,,,,,,,,,,,,,,,,,,,
1732156837.127430,1732156837.129274,99.000000,0.000000,4294.358887,4278.333496,4311.025879,4300.769043,4286.410156,4281.282227,4334.743652,4387.820313,4292.948730,4292.307617,4482.948730,4490.128418,4338.589844,4407.820313,1573.000000,1.000000,26.000000,,,,0.000000,2.000000,2.000000,0.000000,4.000000,2.000000,2.000000,0.000000,0.000000,4.000000,4.000000,4.000000,4.000000,4.000000,4.000000,0.000000,,,,,,,,,,,,,,,,,,,,,,,,,,,,
1732156837.135239,1732156837.136982,100.000000,0.000000,4298.461426,4277.051270,4310.769043,4294.871582,4256.153809,4280.769043,4333.589844,4393.846191,4296.922852,4294.230957,4496.538574,4490.000000,4358.205078,4415.384766,1693.000000,1.000000,26.000000,,,,0.000000,2.000000,2.000000,0.000000,4.000000,2.000000,2.000000,0.000000,0.000000,4.000000,4.000000,4.000000,4.000000,4.000000,4.000000,0.000000,,,,,,,,,,,,,,,,,25.000000,0.000000,0.512122,0.458923,-0.579224,0.437744,0.985472,-0.035161,-0.095715,-36.316067,45.087784,31.529758
1732156837.143047,1732156837.144790,101.000000,0.000000,4298.846191,4271.538574,4312.948730,4296.794922,4262.307617,4281.025879,4335.128418,4398.589844,4302.307617,4300.769043,4491.410156,4492.307617,4360.256348,4415.128418,1688.000000,1.000000,26.000000,,,,0.000000,2.000000,2.000000,0.000000,4.000000,2.000000,2.000000,0.000000,0.000000,4.000000,4.000000,4.000000,4.000000,4.000000,4.000000,0.000000,,,,,,,,,,,,,,,,,,,,,,,,,,,,
1732156837.150855,1732156837.152798,102.000000,0.000000,4294.230957,4263.461426,4319.743652,4289.615234,4271.922852,4279.358887,4335.641113,4399.358887,4306.666504,4304.871582,4494.615234,4497.820313,4361.538574,4419.358887,1524.000000,1.000000,26.000000,,,,0.000000,2.000000,2.000000,0.000000,4.000000,2.000000,2.000000,0.000000,0.000000,4.000000,4.000000,4.000000,4.000000,4.000000,4.000000,0.000000,,,,,,,,,,,,,,,,,,,,,,,,,,,,
1732156837.158663,1732156837.160606,103.000000,0.000000,4293.717773,4255.128418,4316.410156,4280.641113,4263.974121,4279.743652,4332.948730,4396.410156,4311.922852,4313.333496,4511.025879,4501.666504,4374.487305,4428.846191,1573.000000,1.000000,26.000000,,,,0.000000,2.000000,2.000000,0.000000,4.000000,2.000000,2.000000,0.000000,0.000000,4.000000,4.000000,4.000000,4.000000,4.000000,4.000000,0.000000,,,,,,,,,,,,,,,,,,,,,,,,,,,,
1732156837.166471,1732156837.168515,104.000000,0.000000,4295.512695,4248.077148,4321.794922,4277.820313,4264.102539,4281.282227,4338.461426,4396.282227,4307.051270,4312.692383,4510.769043,4500.128418,4377.563965,4430.512695,1693.000000,1.000000,26.000000,,,,0.000000,2.000000,2.000000,0.000000,4.000000,2.000000,2.000000,0.000000,0.000000,4.000000,4.000000,4.000000,4.000000,4.000000,4.000000,0.000000,,,,,,,,,,,,,,,,,26.000000,0.000000,0.512338,0.455872,-0.580933,0.438416,0.986937,-0.049322,-0.093273,-36.226013,45.107773,31.359104
1732156837.174280,1732156837.176323,105.000000,0.000000,4291.153809,4244.230957,4356.922852,4268.717773,4269.487305,4277.563965,4352.179688,4406.666504,4298.461426,4297.563965,4502.307617,4503.589844,4371.153809,4428.589844,1688.000000,1.000000,26.000000,,,,0.000000,2.000000,2.000000,0.000000,4.000000,2.000000,2.000000,0.000000,0.000000,4.000000,4.000000,4.000000,4.000000,4.000000,4.000000,0.000000,,,,,,,,,,,,,,,,,,,,,,,,,,,,
1732156837.182088,1732156837.184331,106.000000,0.000000,4289.102539,4245.000000,4370.384766,4267.179688,4263.717773,4275.256348,4352.307617,4413.077148,4305.128418,4301.410156,4505.897461,4512.948730,4372.179688,4429.230957,1524.000000,1.000000,26.000000,,,,0.000000,2.000000,2.000000,0.000000,4.000000,2.000000,2.000000,0.000000,0.000000,4.000000,4.000000,4.000000,4.000000,4.000000,4.000000,0.000000,,,,,,,,,,,,,,,,,,,,,,,,,,,,
1732156837.189896,1732156837.192139,107.000000,0.000000,4293.205078,4248.333496,4341.025879,4278.717773,4263.333496,4278.461426,4338.589844,4403.717773,4312.307617,4314.743652,4508.717773,4511.922852,4375.641113,4429.871582,1573.000000,1.000000,26.000000,,,,0.000000,2.000000,2.000000,0.000000,4.000000,2.000000,2.000000,0.000000,0.000000,4.000000,4.000000,4.000000,4.000000,4.000000,4.000000,0.000000,,,,,,,,,,,,,,,,,,,,,,,,,,,,
1732156837.197704,1732156837.200047,108.000000,0.000000,4293.717773,4248.974121,4318.589844,4281.282227,4279.871582,4279.487305,4333.974121,4395.641113,4308.461426,4304.102539,4502.692383,4503.461426,4370.000000,4428.974121,1693.000000,1.000000,26.000000,,,,0.000000,2.000000,2.000000,0.000000,4.000000,2.000000,2.000000,0.000000,0.000000,4.000000,4.000000,4.000000,4.000000,4.000000,4.000000,0.000000,,,,,,,,,,,,,,,,,27.000000,0.000000,0.512250,0.454895,-0.581177,0.439209,0.995239,-0.038091,-0.082041,-36.031403,45.097294,31.267542
1732156837.205513,1732156837.207855,109.000000,0.000000,4291.922852,4252.307617,4318.717773,4277.051270,4284.230957,4280.256348,4336.922852,4400.256348,4309.615234,4295.769043,4502.692383,4503.589844,4364.230957,4428.205078,1688.000000,1.000000,26.000000,,,,0.000000,2.000000,2.000000,0.000000,4.000000,2.000000,2.000000,0.000000,0.000000,4.000000,4.000000,4.000000,4.000000,4.000000,4.000000,0.000000,,,,,,,,,,,,,,,,,,,,,,,,,,,,
1732156837.213321,1732156837.215863,110.000000,0.000000,4295.128418,4255.512695,4314.358887,4279.615234,4267.051270,4282.051270,4335.512695,4400.641113,4308.333496,4306.410156,4507.692383,4508.461426,4367.051270,4428.974121,1524.000000,1.000000,26.000000,,,,0.000000,2.000000,2.000000,0.000000,4.000000,2.000000,2.000000,0.000000,0.000000,4.000000,4.000000,4.000000,4.000000,4.000000,4.000000,0.000000,,,,,,,,,,,,,,,,,,,,,,,,,,,,
1732156837.221129,1732156837.223671,111.000000,0.000000,4299.615234,4255.256348,4310.384766,4281.794922,4259.230957,4280.384766,4333.589844,4395.897461,4296.282227,4306.922852,4499.743652,4509.871582,4368.974121,4430.897461,1573.000000,1.000000,26.000000,,,,0.000000,2.000000,2.000000,0.000000,4.000000,2.000000,2.000000,0.000000,0.000000,4.000000,4.000000,4.000000,4.000000,4.000000,4.000000,0.000000,,,,,,,,,,,,,,,,,,,,,,,,,,,,
1732156837.228937,1732156837.231580,112.000000,0.000000,4298.974121,4256.282227,4312.820313,4283.589844,4261.666504,4280.256348,4333.974121,4397.307617,4297.563965,4303.333496,4496.282227,4508.974121,4367.307617,4432.692383,1693.000000,1.000000,26.000000,,,,0.000000,2.000000,2.000000,0.000000,4.000000,2.000000,2.000000,0.000000,0.000000,4.000000,4.000000,4.000000,4.000000,4.000000,4.000000,0.000000,,,,,,,,,,,,,,,,,28.000000,0.000000,0.511856,0.454590,-0.581116,0.440063,0.974728,-0.051764,-0.089855,-35.893772,44.933807,31.343376
1732156837.236746,1732156837.239388,113.000000,0.000000,4295.512695,4257.307617,4314.487305,4289.871582,4268.461426,4281.025879,4334.871582,4398.974121,4309.871582,4311.410156,4502.051270,4508.461426,4366.922852,4431.282227,1688.000000,1.000000,26.000000,,,,0.000000,2.000000,2.000000,0.000000,4.000000,2.000000,2.000000,0.000000,0.000000,4.000000,4.000000,4.000000,4.000000,4.000000,4.000000,0.000000,,,,,,,,,,,,,,,,,,,,,,,,,,,,
1732156837.244554,1732156837.246996,114.000000,0.000000,4296.025879,4251.282227,4315.128418,4294.102539,4279.358887,4280.384766,4334.743652,4397.051270,4306.410156,4308.846191,4499.102539,4508.589844,4366.666504,4429.871582,1524.000000,1.000000,26.000000,,,,0.000000,2.000000,2.000000,0.000000,4.000000,2.000000,2.000000,0.000000,0.000000,4.000000,4.000000,4.000000,4.000000,4.000000,4.000000,0.000000,,,,,,,,,,,,,,,,,,,,,,,,,,,,
1732156837.252362,1732156837.254804,115.000000,0.000000,4295.128418,4248.333496,4314.358887,4293.461426,4275.000000,4287.436035,4334.487305,4399.102539,4300.512695,4299.743652,4494.743652,4508.333496,4364.743652,4429.871582,1573.000000,1.000000,26.000000,,,,0.000000,2.000000,2.000000,0.000000,4.000000,2.000000,2.000000,0.000000,0.000000,4.000000,4.000000,4.000000,4.000000,4.000000,4.000000,0.000000,,,,,,,,,,,,,,,,,,,,,,,,,,,,
1732156837.260170,1732156837.262513,116.000000,0.000000,4286.794922,4251.282227,4314.230957,4286.153809,4259.871582,4297.436035,4335.256348,4401.666504,4307.436035,4303.974121,4496.153809,4508.333496,4361.538574,4424.871582,1693.000000,1.000000,26.000000,,,,0.000000,2.000000,2.000000,0.000000,4.000000,2.000000,2.000000,0.000000,0.000000,4.000000,4.000000,4.000000,4.000000,4.000000,4.000000,0.000000,,,,,,,,,,,,,,,,,29.000000,0.000000,0.511856,0.454590,-0.581116,0.440063,0.974728,-0.051764,-0.089855,-35.752289,44.696384,31.374802
1732156837.267979,1732156837.270321,117.000000,0.000000,4280.769043,4250.256348,4315.769043,4280.897461,4261.410156,4294.230957,4335.128418,4398.077148,4311.025879,4310.641113,4492.692383,4507.051270,4357.820313,4418.846191,1688.000000,1.000000,26.000000,,,,0.000000,2.000000,2.000000,0.000000,4.000000,2.000000,2.000000,0.000000,0.000000,4.000000,4.000000,4.000000,4.000000,4.000000,4.000000,0.000000,,,,,,,,,,,,,,,,,,,,,,,,,,,,
1732156837.275787,1732156837.277929,118.000000,0.000000,4282.692383,4249.358887,4316.666504,4283.205078,4273.974121,4292.051270,4335.641113,4396.922852,4310.256348,4309.871582,4490.897461,4505.641113,4358.846191,4416.922852,1524.000000,1.000000,26.000000,,,,0.000000,2.000000,2.000000,0.000000,4.000000,2.000000,2.000000,0.000000,0.000000,4.000000,4.000000,4.000000,4.000000,4.000000,4.000000,0.000000,,,,,,,,,,,,,,,,,,,,,,,,,,,,
1732156837.283595,1732156837.285738,119.000000,0.000000,4282.436035,4249.230957,4318.077148,4282.820313,4277.820313,4299.102539,4336.025879,4401.153809,4307.563965,4307.307617,4498.846191,4505.256348,4361.153809,4415.256348,1573.000000,1.000000,26.000000,,,,0.000000,2.000000,2.000000,0.000000,4.000000,2.000000,2.000000,0.000000,0.000000,4.000000,4.000000,4.000000,4.000000,4.000000,4.000000,0.000000,,,,,,,,,,,,,,,,,,,,,,,,,,,,
1732156837.291403,1732156837.293446,120.000000,0.000000,4280.128418,4253.461426,4315.000000,4280.641113,4276.153809,4294.230957,4335.769043,4398.717773,4300.897461,4305.897461,4495.897461,4506.025879,4360.897461,4413.974121,1693.000000,1.000000,26.000000,,,,0.000000,2.000000,2.000000,0.000000,4.000000,2.000000,2.000000,0.000000,0.000000,4.000000,4.000000,4.000000,4.000000,4.000000,4.000000,0.000000,,,,,,,,,,,,,,,,,30.000000,0.000000,0.511741,0.453613,-0.581055,0.441284,0.978635,-0.067391,-0.076670,-35.691021,44.365738,31.533588
1732156837.299212,1732156837.301254,121.000000,0.000000,4279.358887,4257.692383,4322.692383,4280.128418,4280.128418,4278.974121,4337.948730,4398.333496,4296.153809,4302.179688,4487.820313,4508.333496,4358.717773,4414.358887,1688.000000,1.000000,26.000000,,,,0.000000,2.000000,2.000000,0.000000,4.000000,2.000000,2.000000,0.000000,0.000000,4.000000,4.000000,4.000000,4.000000,4.000000,4.000000,0.000000,,,,,,,,,,,,,,,,,,,,,,,,,,,,
1732156837.307020,1732156837.309262,122.000000,0.000000,4277.307617,4252.179688,4346.025879,4279.615234,4284.487305,4276.922852,4342.692383,4408.461426,4295.512695,4297.436035,4494.615234,4508.077148,4357.307617,4412.948730,1524.000000,1.000000,26.000000,,,,0.000000,2.000000,2.000000,0.000000,4.000000,2.000000,2.000000,0.000000,0.000000,4.000000,4.000000,4.000000,4.000000,4.000000,4.000000,0.000000,,,,,,,,,,,,,,,,,,,,,,,,,,,,
1732156837.314828,1732156837.317070,123.000000,0.000000,4280.897461,4255.128418,4346.922852,4287.051270,4272.563965,4288.461426,4340.128418,4411.282227,4301.153809,4298.333496,4505.641113,4508.077148,4361.153809,4416.666504,1573.000000,1.000000,26.000000,,,,0.000000,2.000000,2.000000,0.000000,4.000000,2.000000,2.000000,0.000000,0.000000,4.000000,4.000000,4.000000,4.000000,4.000000,4.000000,0.000000,,,,,,,,,,,,,,,,,,,,,,,,,,,,
1732156837.322636,1732156837.324779,124.000000,0.000000,4291.025879,4266.666504,4326.538574,4297.179688,4260.128418,4292.307617,4336.410156,4401.794922,4312.051270,4308.974121,4507.307617,4515.769043,4368.461426,4424.102539,1693.000000,1.000000,26.000000,,,,0.000000,2.000000,2.000000,0.000000,4.000000,2.000000,2.000000,0.000000,0.000000,4.000000,4.000000,4.000000,4.000000,4.000000,4.000000,0.000000,,,,,,,,,,,,,,,,,31.000000,0.000000,0.511767,0.453308,-0.581177,0.441406,0.977658,-0.051276,-0.094738,-35.881393,44.466248,31.508873
1732156837.330444,1732156837.332587,125.000000,0.000000,4293.333496,4267.179688,4319.102539,4296.282227,4267.051270,4287.307617,4338.077148,4397.179688,4313.974121,4313.717773,4502.692383,4522.436035,4366.794922,4422.692383,1688.000000,1.000000,26.000000,,,,0.000000,2.000000,2.000000,0.000000,4.000000,2.000000,2.000000,0.000000,0.000000,4.000000,4.000000,4.000000,4.000000,4.000000,4.000000,0.000000,,,,,,,,,,,,,,,,,,,,,,,,,,,,
1732156837.338253,1732156837.340195,126.000000,0.000000,4291.153809,4263.461426,4324.358887,4295.256348,4273.589844,4288.974121,4337.692383,4398.974121,4305.769043,4302.436035,4503.846191,4520.128418,4359.615234,4420.769043,1524.000000,1.000000,26.000000,,,,0.000000,2.000000,2.000000,0.000000,4.000000,2.000000,2.000000,0.000000,0.000000,4.000000,4.000000,4.000000,4.000000,4.000000,4.000000,0.000000,,,,,,,,,,,,,,,,,,,,,,,,,,,,
1732156837.346061,1732156837.348003,127.000000,0.000000,4292.948730,4266.794922,4324.487305,4299.487305,4274.230957,4296.025879,4337.307617,4398.589844,4307.692383,4296.410156,4507.948730,4518.205078,4361.025879,4426.025879,26.000000,1.000000,26.000000,,,,0.000000,2.000000,2.000000,0.000000,4.000000,2.000000,2.000000,0.000000,0.000000,4.000000,4.000000,4.000000,4.000000,4.000000,4.000000,0.000000,,,,,,,,,,,,,,,,,,,,,,,,,,,,
1732156837.353869,1732156837.355712,0.000000,0.000000,4293.974121,4266.538574,4320.128418,4292.051270,4276.794922,4295.384766,4337.692383,4400.256348,4314.743652,4304.230957,4507.692383,4521.794922,4367.563965,4429.615234,0.000000,1.000000,26.000000,,,,0.000000,2.000000,2.000000,0.000000,4.000000,2.000000,2.000000,0.000000,0.000000,4.000000,4.000000,4.000000,4.000000,4.000000,4.000000,0.000000,,,,,,,,,,,,,,,,,0.000000,0.000000,0.511830,0.453003,-0.581360,0.441406,0.977658,-0.051276,-0.094738,-36.082260,44.400993,31.692188
1732156837.361678,1732156837.363520,1.000000,0.000000,4294.743652,4263.205078,4320.769043,4282.307617,4273.205078,4285.897461,4334.615234,4403.205078,4311.666504,4305.897461,4505.384766,4525.000000,4368.333496,4429.230957,1591.000000,1.000000,26.000000,,,,0.000000,2.000000,2.000000,0.000000,4.000000,2.000000,2.000000,0.000000,0.000000,4.000000,4.000000,4.000000,4.000000,4.000000,4.000000,0.000000,,,,,,,,,,,,,,,,,,,,,,,,,,,,
1732156837.369486,1732156837.371128,2.000000,0.000000,4292.307617,4265.256348,4325.512695,4285.897461,4262.692383,4280.641113,4333.461426,4401.922852,4308.589844,4297.820313,4505.512695,4520.128418,4366.666504,4427.436035,1396.000000,1.000000,26.000000,,,,0.000000,2.000000,2.000000,0.000000,4.000000,2.000000,2.000000,0.000000,0.000000,4.000000,4.000000,4.000000,4.000000,4.000000,4.000000,0.000000,,,,,,,,,,,,,,,,,,,,,,,,,,,,
1732156837.377294,1732156837.378937,3.000000,0.000000,4285.641113,4267.436035,4322.692383,4290.897461,4267.692383,4282.563965,4335.897461,4399.743652,4310.769043,4295.128418,4503.589844,4508.589844,4366.922852,4420.384766,1412.000000,1.000000,26.000000,,,,0.000000,2.000000,2.000000,0.000000,4.000000,2.000000,2.000000,0.000000,0.000000,4.000000,4.000000,4.000000,4.000000,4.000000,4.000000,0.000000,,,,,,,,,,,,,,,,,,,,,,,,,,,,
1732156837.385102,1732156837.386645,4.000000,0.000000,4285.897461,4268.974121,4312.051270,4291.025879,4283.077148,4282.436035,4334.871582,4398.589844,4308.333496,4296.282227,4494.358887,4502.436035,4366.794922,4417.051270,1411.000000,1.000000,26.000000,,,,0.000000,2.000000,2.000000,0.000000,4.000000,2.000000,2.000000,0.000000,0.000000,4.000000,4.000000,4.000000,4.000000,4.000000,4.000000,0.000000,,,,,,,,,,,,,,,,,1.000000,0.000000,0.510156,0.452759,-0.582092,0.442627,0.976193,-0.063484,-0.090831,-36.174965,44.409805,31.632338
1732156837.392910,1732156837.394453,5.000000,0.000000,4293.589844,4271.153809,4311.282227,4291.666504,4277.307617,4279.487305,4333.589844,4398.205078,4305.000000,4295.128418,4491.153809,4507.563965,4365.512695,4425.000000,1235.000000,1.000000,26.000000,,,,0.000000,2.000000,2.000000,0.000000,4.000000,2.000000,2.000000,0.000000,0.000000,4.000000,4.000000,4.000000,4.000000,4.000000,4.000000,0.000000,,,,,,,,,,,,,,,,,,,,,,,,,,,,
1732156837.400719,1732156837.402461,6.000000,0.000000,4293.077148,4271.282227,4318.205078,4292.307617,4257.179688,4283.461426,4335.641113,4398.846191,4308.717773,4295.769043,4495.512695,4506.538574,4365.000000,4427.692383,0.000000,1.000000,26.000000,,,,0.000000,2.000000,2.000000,0.000000,4.000000,2.000000,2.000000,0.000000,0.000000,4.000000,4.000000,4.000000,4.000000,4.000000,4.000000,0.000000,,,,,,,,,,,,,,,,,,,,,,,,,,,,
1732156837.408527,1732156837.410269,7.000000,0.000000,4287.820313,4272.179688,4317.948730,4291.794922,4259.102539,4292.692383,4335.384766,4399.615234,4312.692383,4296.794922,4493.846191,4501.282227,4367.436035,4418.974121,0.000000,1.000000,26.000000,,,,0.000000,2.000000,2.000000,0.000000,4.000000,2.000000,2.000000,0.000000,0.000000,4.000000,4.000000,4.000000,4.000000,4.000000,4.000000,0.000000,,,,,,,,,,,,,,,,,,,,,,,,,,,,
1732156837.416335,1732156837.418177,8.000000,0.000000,4289.615234,4278.205078,4320.128418,4295.641113,4268.333496,4297.051270,4338.589844,4397.820313,4313.077148,4297.692383,4490.000000,4505.384766,4368.717773,4412.307617,1524.000000,1.000000,26.000000,,,,0.000000,2.000000,2.000000,0.000000,4.000000,2.000000,2.000000,0.000000,0.000000,4.000000,4.000000,4.000000,4.000000,4.000000,4.000000,0.000000,,,,,,,,,,,,,,,,,2.000000,0.000000,0.509684,0.452087,-0.582703,0.443054,0.955683,-0.085948,-0.081065,-36.316723,44.366943,31.567194
1732156837.424143,1732156837.425986,9.000000,0.000000,4292.948730,4281.538574,4323.077148,4299.871582,4263.589844,4297.307617,4342.179688,4397.436035,4312.692383,4297.179688,4490.000000,4503.974121,4362.051270,4413.077148,1666.000000,1.000000,26.000000,,,,0.000000,2.000000,2.000000,0.000000,4.000000,2.000000,2.000000,0.000000,0.000000,4.000000,4.000000,4.000000,4.000000,4.000000,4.000000,0.000000,,,,,,,,,,,,,,,,,,,,,,,,,,,,
1732156837.431952,1732156837.433594,10.000000,0.000000,4293.333496,4277.692383,4322.948730,4294.743652,4274.358887,4289.102539,4338.589844,4399.615234,4305.256348,4295.769043,4489.358887,4497.820313,4358.846191,4414.487305,1524.000000,1.000000,26.000000,,,,0.000000,2.000000,2.000000,0.000000,4.000000,2.000000,2.000000,0.000000,0.000000,4.000000,4.000000,4.000000,4.000000,4.000000,4.000000,0.000000,,,,,,,,,,,,,,,,,,,,,,,,,,,,
1732156837.439760,1732156837.441402,11.000000,0.000000,4294.230957,4277.692383,4321.282227,4292.051270,4285.641113,4282.307617,4334.487305,4399.102539,4296.922852,4293.077148,4485.256348,4501.666504,4365.769043,4413.461426,1573.000000,1.000000,26.000000,,,,0.000000,2.000000,2.000000,0.000000,4.000000,2.000000,2.000000,0.000000,0.000000,4.000000,4.000000,4.000000,4.000000,4.000000,4.000000,0.000000,,,,,,,,,,,,,,,,,,,,,,,,,,,,
1732156837.447568,1732156837.449111,12.000000,0.000000,4295.384766,4281.794922,4320.769043,4299.358887,4268.974121,4288.717773,4334.230957,4398.974121,4296.153809,4288.333496,4480.769043,4507.563965,4366.794922,4413.589844,1693.000000,1.000000,26.000000,,,,0.000000,2.000000,2.000000,0.000000,4.000000,2.000000,2.000000,0.000000,0.000000,4.000000,4.000000,4.000000,4.000000,4.000000,4.000000,0.000000,,,,,,,,,,,,,,,,,3.000000,0.000000,0.509555,0.451599,-0.583008,0.443298,0.968868,-0.092785,-0.084971,-36.224876,44.392223,31.649427
1732156837.455376,1732156837.456919,13.000000,0.000000,4295.641113,4281.282227,4326.282227,4301.025879,4257.179688,4290.256348,4336.153809,4400.384766,4295.384766,4285.769043,4477.820313,4506.025879,4361.666504,4413.589844,1688.000000,1.000000,26.000000,,,,0.000000,2.000000,2.000000,0.000000,4.000000,2.000000,2.000000,0.000000,0.000000,4.000000,4.000000,4.000000,4.000000,4.000000,4.000000,0.000000,,,,,,,,,,,,,,,,,,,,,,,,,,,,
1732156837.463185,1732156837.464527,14.000000,0.000000,4296.153809,4281.282227,4330.000000,4299.743652,4263.205078,4280.384766,4338.077148,4400.000000,4299.743652,4288.846191,4478.717773,4505.897461,4363.589844,4412.307617,1524.000000,1.000000,26.000000,,,,0.000000,2.000000,2.000000,0.000000,4.000000,2.000000,2.000000,0.000000,0.000000,4.000000,4.000000,4.000000,4.000000,4.000000,4.000000,0.000000,1.000000,0.000000,2.000000,2.000000,0.000000,4.000000,2.000000,2.000000,0.000000,0.000000,4.000000,4.000000,4.000000,4.000000,4.000000,4.000000,,,,,,,,,,,,
1732156837.470993,1732156837.472335,15.000000,0.000000,4297.051270,4282.307617,4326.282227,4302.307617,4266.922852,4278.589844,4337.307617,4399.871582,4311.282227,4291.282227,4481.538574,4509.615234,4368.333496,4416.282227,1573.000000,1.000000,26.000000,,,,0.000000,2.000000,2.000000,0.000000,4.000000,2.000000,2.000000,0.000000,0.000000,4.000000,4.000000,4.000000,4.000000,4.000000,4.000000,0.000000,,,,,,,,,,,,,,,,,,,,,,,,,,,,
1732156837.478801,1732156837.480243,16.000000,0.000000,4296.410156,4282.692383,4322.692383,4301.410156,4276.153809,4283.461426,4334.871582,4400.256348,4312.436035,4284.487305,4478.589844,4508.846191,4363.333496,4422.307617,0.000000,1.000000,26.000000,,,,0.000000,2.000000,2.000000,0.000000,4.000000,2.000000,2.000000,0.000000,0.000000,4.000000,4.000000,4.000000,4.000000,4.000000,4.000000,0.000000,,,,,,,,,,,,,,,,,4.000000,0.000000,0.509772,0.450562,-0.583435,0.443542,0.990844,-0.065438,-0.080088,-36.213818,44.571033,31.811037
1732156837.486609,1732156837.488052,17.000000,0.000000,4296.922852,4282.692383,4322.948730,4297.436035,4285.512695,4281.794922,4335.000000,4400.000000,4304.743652,4278.333496,4474.230957,4508.333496,4356.922852,4418.461426,0.000000,1.000000,26.000000,,,,0.000000,2.000000,2.000000,0.000000,4.000000,2.000000,2.000000,0.000000,0.000000,4.000000,4.000000,4.000000,4.000000,4.000000,4.000000,0.000000,,,,,,,,,,,,,,,,,,,,,,,,,,,,
1732156837.494418,1732156837.496060,18.000000,0.000000,4297.051270,4281.025879,4319.871582,4297.307617,4271.153809,4279.487305,4335.384766,4399.743652,4306.922852,4284.487305,4474.871582,4508.846191,4359.487305,4411.282227,0.000000,1.000000,26.000000,,,,0.000000,2.000000,2.000000,0.000000,4.000000,2.000000,2.000000,0.000000,0.000000,4.000000,4.000000,4.000000,4.000000,4.000000,4.000000,0.000000,,,,,,,,,,,,,,,,,,,,,,,,,,,,
1732156837.502226,1732156837.503868,19.000000,0.000000,4295.000000,4279.487305,4317.179688,4297.179688,4257.179688,4282.179688,4332.820313,4399.230957,4313.461426,4294.230957,4473.077148,4507.307617,4364.102539,4416.922852,0.000000,1.000000,26.000000,,,,0.000000,2.000000,2.000000,0.000000,4.000000,2.000000,2.000000,0.000000,0.000000,4.000000,4.000000,4.000000,4.000000,4.000000,4.000000,0.000000,,,,,,,,,,,,,,,,,,,,,,,,,,,,
1732156837.510034,1732156837.511776,20.000000,0.000000,4293.846191,4279.871582,4322.051270,4295.256348,4262.692383,4286.153809,4333.077148,4397.436035,4313.461426,4293.717773,4463.846191,4505.769043,4362.436035,4420.769043,0.000000,1.000000,26.000000,,,,0.000000,2.000000,2.000000,0.000000,4.000000,2.000000,2.000000,0.000000,0.000000,4.000000,4.000000,4.000000,4.000000,4.000000,4.000000,0.000000,,,,,,,,,,,,,,,,,5.000000,0.000000,0.509761,0.449463,-0.584106,0.443787,0.970333,-0.087901,-0.092785,-36.321526,44.599205,31.750273
1732156837.517842,1732156837.519584,21.000000,0.000000,4294.487305,4279.230957,4323.205078,4295.897461,4267.436035,4287.307617,4334.743652,4397.307617,4307.179688,4285.000000,4458.461426,4503.846191,4353.589844,4413.846191,0.000000,1.000000,26.000000,,,,0.000000,2.000000,2.000000,0.000000,4.000000,2.000000,2.000000,0.000000,0.000000,4.000000,4.000000,4.000000,4.000000,4.000000,4.000000,0.000000,,,,,,,,,,,,,,,,,,,,,,,,,,,,
1732156837.525651,1732156837.527592,22.000000,0.000000,4294.230957,4277.436035,4321.282227,4295.000000,4265.256348,4283.077148,4334.743652,4399.871582,4304.487305,4285.384766,4461.282227,4504.615234,4350.512695,4416.794922,0.000000,1.000000,26.000000,,,,0.000000,2.000000,2.000000,0.000000,4.000000,2.000000,2.000000,0.000000,0.000000,4.000000,4.000000,4.000000,4.000000,4.000000,4.000000,0.000000,,,,,,,,,,,,,,,,,,,,,,,,,,,,
1732156837.533459,1732156837.535400,23.000000,0.000000,4296.538574,4279.358887,4321.410156,4296.153809,4266.538574,4281.025879,4335.384766,4401.794922,4307.948730,4290.897461,4463.333496,4507.692383,4357.563965,4427.051270,0.000000,1.000000,26.000000,,,,0.000000,2.000000,2.000000,0.000000,4.000000,2.000000,2.000000,0.000000,0.000000,4.000000,4.000000,4.000000,4.000000,4.000000,4.000000,0.000000,,,,,,,,,,,,,,,,,,,,,,,,,,,,
1732156837.541267,1732156837.543309,24.000000,0.000000,4301.282227,4282.051270,4319.230957,4298.974121,4268.461426,4282.051270,4334.487305,4401.922852,4307.820313,4287.948730,4462.179688,4509.358887,4360.256348,4427.307617,0.000000,1.000000,26.000000,,,,0.000000,2.000000,2.000000,0.000000,4.000000,2.000000,2.000000,0.000000,0.000000,4.000000,4.000000,4.000000,4.000000,4.000000,4.000000,0.000000,,,,,,,,,,,,,,,,,6.000000,0.000000,0.509706,0.448425,-0.584534,0.444336,0.963008,-0.102063,-0.089366,-36.447102,44.717022,31.821054
1732156837.549075,1732156837.551117,25.000000,0.000000,4302.948730,4282.051270,4314.358887,4297.692383,4265.512695,4281.410156,4332.563965,4398.717773,4300.897461,4281.922852,4459.615234,4508.589844,4349.615234,4425.128418,0.000000,1.000000,26.000000,,,,0.000000,2.000000,2.000000,0.000000,4.000000,2.000000,2.000000,0.000000,0.000000,4.000000,4.000000,4.000000,4.000000,4.000000,4.000000,0.000000,,,,,,,,,,,,,,,,,,,,,,,,,,,,
1732156837.556883,1732156837.558725,26.000000,0.000000,4303.205078,4281.025879,4316.410156,4297.563965,4269.487305,4281.410156,4333.974121,4397.692383,4301.282227,4285.256348,4460.384766,4509.743652,4346.153809,4428.589844,0.000000,1.000000,26.000000,,,,0.000000,2.000000,2.000000,0.000000,4.000000,2.000000,2.000000,0.000000,0.000000,4.000000,4.000000,4.000000,4.000000,4.000000,4.000000,0.000000,,,,,,,,,,,,,,,,,,,,,,,,,,,,
1732156837.564692,1732156837.566533,27.000000,0.000000,4303.974121,4281.538574,4319.102539,4301.410156,4271.538574,4281.025879,4334.743652,4398.205078,4310.128418,4295.128418,4464.615234,4511.666504,4360.897461,4431.794922,0.000000,1.000000,26.000000,,,,0.000000,2.000000,2.000000,0.000000,4.000000,2.000000,2.000000,0.000000,0.000000,4.000000,4.000000,4.000000,4.000000,4.000000,4.000000,0.000000,,,,,,,,,,,,,,,,,,,,,,,,,,,,
1732156837.572500,1732156837.574441,28.000000,0.000000,4300.512695,4283.077148,4317.307617,4302.179688,4265.000000,4280.512695,4332.563965,4398.333496,4307.820313,4291.922852,4463.461426,4508.589844,4363.205078,4428.717773,0.000000,1.000000,26.000000,,,,0.000000,2.000000,2.000000,0.000000,4.000000,2.000000,2.000000,0.000000,0.000000,4.000000,4.000000,4.000000,4.000000,4.000000,4.000000,0.000000,,,,,,,,,,,,,,,,,7.000000,0.000000,0.509643,0.447937,-0.584778,0.444580,0.980588,-0.094250,-0.087901,-36.315487,44.672455,31.713387
1732156837.580308,1732156837.582250,29.000000,0.000000,4296.025879,4281.794922,4317.692383,4296.282227,4274.615234,4281.538574,4332.563965,4399.615234,4295.769043,4280.000000,4456.922852,4503.717773,4349.102539,4422.307617,0.000000,1.000000,26.000000,,,,0.000000,2.000000,2.000000,0.000000,4.000000,2.000000,2.000000,0.000000,0.000000,4.000000,4.000000,4.000000,4.000000,4.000000,4.000000,0.000000,,,,,,,,,,,,,,,,,,,,,,,,,,,,
1732156837.588117,1732156837.590258,30.000000,0.000000,4298.589844,4281.922852,4319.871582,4294.871582,4287.692383,4280.256348,4335.512695,4399.871582,4293.846191,4283.077148,4457.436035,4504.230957,4350.000000,4422.051270,0.000000,1.000000,26.000000,,,,0.000000,2.000000,2.000000,0.000000,4.000000,2.000000,2.000000,0.000000,0.000000,4.000000,4.000000,4.000000,4.000000,4.000000,4.000000,0.000000,,,,,,,,,,,,,,,,,,,,,,,,,,,,
1732156837.595925,1732156837.598066,31.000000,0.000000,4306.025879,4283.717773,4318.205078,4300.000000,4270.512695,4275.641113,4335.256348,4397.436035,4300.512695,4295.641113,4463.333496,4508.846191,4364.871582,4429.487305,0.000000,1.000000,26.000000,,,,0.000000,2.000000,2.000000,0.000000,4.000000,2.000000,2.000000,0.000000,0.000000,4.000000,4.000000,4.000000,4.000000,4.000000,4.000000,0.000000,,,,,,,,,,,,,,,,,,,,,,,,,,,,
1732156837.603733,1732156837.605974,32.000000,0.000000,4310.128418,4283.974121,4316.410156,4303.461426,4253.205078,4272.179688,4332.692383,4397.948730,4303.717773,4296.025879,4463.333496,4509.358887,4368.846191,4432.436035,0.000000,1.000000,26.000000,,,,0.000000,2.000000,2.000000,0.000000,4.000000,2.000000,2.000000,0.000000,0.000000,4.000000,4.000000,4.000000,4.000000,4.000000,4.000000,0.000000,,,,,,,,,,,,,,,,,8.000000,0.000000,0.510401,0.447510,-0.584351,0.444702,0.966427,-0.065926,-0.078623,-36.353878,44.433022,31.637844
1732156837.611541,1732156837.613782,33.000000,0.000000,4310.384766,4289.230957,4317.051270,4306.282227,4264.358887,4275.641113,4332.436035,4399.871582,4305.897461,4291.666504,4464.871582,4507.179688,4363.846191,4433.333496,0.000000,1.000000,26.000000,,,,0.000000,2.000000,2.000000,0.000000,4.000000,2.000000,2.000000,0.000000,0.000000,4.000000,4.000000,4.000000,4.000000,4.000000,4.000000,0.000000,,,,,,,,,,,,,,,,,,,,,,,,,,,,
1732156837.619349,1732156837.621590,34.000000,0.000000,4311.794922,4294.358887,4316.794922,4304.615234,4267.692383,4277.051270,4330.897461,4397.948730,4303.717773,4294.871582,4470.128418,4511.282227,4367.692383,4438.589844,0.000000,1.000000,26.000000,,,,0.000000,2.000000,2.000000,0.000000,4.000000,2.000000,2.000000,0.000000,0.000000,4.000000,4.000000,4.000000,4.000000,4.000000,4.000000,0.000000,,,,,,,,,,,,,,,,,,,,,,,,,,,,
1732156837.627158,1732156837.629399,35.000000,0.000000,4320.641113,4294.743652,4317.307617,4306.153809,4261.282227,4259.871582,4329.102539,4395.769043,4294.743652,4294.230957,4475.512695,4517.820313,4380.512695,4446.282227,0.000000,1.000000,26.000000,,,,0.000000,2.000000,2.000000,0.000000,4.000000,2.000000,2.000000,0.000000,0.000000,4.000000,4.000000,4.000000,4.000000,4.000000,4.000000,0.000000,,,,,,,,,,,,,,,,,,,,,,,,,,,,
1732156837.634966,1732156837.637107,36.000000,0.000000,4334.102539,4301.538574,4320.512695,4318.077148,4265.128418,4251.282227,4332.820313,4396.538574,4294.358887,4293.589844,4482.563965,4527.179688,4391.922852,4459.230957,0.000000,1.000000,26.000000,,,,0.000000,2.000000,2.000000,0.000000,4.000000,2.000000,2.000000,0.000000,0.000000,4.000000,4.000000,4.000000,4.000000,4.000000,4.000000,0.000000,,,,,,,,,,,,,,,,,9.000000,0.000000,0.511096,0.447937,-0.583740,0.444275,0.973263,-0.048834,-0.084483,-36.151642,44.550747,31.681654
1732156837.642774,1732156837.644915,37.000000,0.000000,4344.102539,4313.077148,4319.230957,4322.692383,4259.743652,4262.051270,4336.025879,4396.794922,4297.563965,4295.000000,4489.743652,4537.948730,4398.205078,4475.897461,0.000000,1.000000,26.000000,,,,0.000000,2.000000,2.000000,0.000000,4.000000,2.000000,2.000000,0.000000,0.000000,4.000000,4.000000,4.000000,4.000000,4.000000,4.000000,0.000000,,,,,,,,,,,,,,,,,,,,,,,,,,,,
1732156837.650582,1732156837.652524,38.000000,0.000000,4350.256348,4307.436035,4316.538574,4312.436035,4247.948730,4258.077148,4331.666504,4396.153809,4297.051270,4295.897461,4496.410156,4541.794922,4406.794922,4487.179688,0.000000,1.000000,26.000000,,,,0.000000,2.000000,2.000000,0.000000,4.000000,2.000000,2.000000,0.000000,0.000000,4.000000,4.000000,4.000000,4.000000,4.000000,4.000000,0.000000,,,,,,,,,,,,,,,,,,,,,,,,,,,,
1732156837.658391,1732156837.660332,39.000000,0.000000,4355.256348,4297.051270,4318.717773,4306.666504,4248.205078,4251.922852,4330.256348,4397.179688,4298.717773,4298.846191,4499.102539,4538.333496,4414.871582,4492.563965,0.000000,1.000000,26.000000,,,,0.000000,2.000000,2.000000,0.000000,4.000000,2.000000,2.000000,0.000000,0.000000,4.000000,4.000000,4.000000,4.000000,4.000000,4.000000,0.000000,,,,,,,,,,,,,,,,,,,,,,,,,,,,
1732156837.666199,1732156837.668040,40.000000,0.000000,4358.205078,4306.538574,4318.846191,4311.410156,4251.282227,4260.256348,4334.102539,4396.922852,4290.641113,4290.897461,4490.000000,4535.000000,4411.153809,4489.358887,0.000000,1.000000,26.000000,,,,0.000000,2.000000,2.000000,0.000000,4.000000,2.000000,2.000000,0.000000,0.000000,4.000000,4.000000,4.000000,4.000000,4.000000,4.000000,0.000000,,,,,,,,,,,,,,,,,10.000000,0.000000,0.511465,0.447876,-0.583557,0.444153,0.983518,-0.068368,-0.083995,-36.502831,44.762772,31.742140
1732156837.674007,1732156837.675848,41.000000,0.000000,4361.025879,4315.384766,4315.897461,4310.641113,4247.563965,4258.717773,4332.948730,4397.436035,4279.230957,4277.436035,4485.769043,4534.743652,4411.922852,4488.846191,0.000000,1.000000,26.000000,,,,0.000000,2.000000,2.000000,0.000000,4.000000,2.000000,2.000000,0.000000,0.000000,4.000000,4.000000,4.000000,4.000000,4.000000,4.000000,0.000000,,,,,,,,,,,,,,,,,,,,,,,,,,,,
1732156837.681816,1732156837.683457,42.000000,0.000000,4367.179688,4309.615234,4316.282227,4306.922852,4244.102539,4253.589844,4331.794922,4401.410156,4294.102539,4288.589844,4502.307617,4541.282227,4427.820313,4500.000000,0.000000,1.000000,26.000000,,,,0.000000,2.000000,2.000000,0.000000,4.000000,2.000000,2.000000,0.000000,0.000000,4.000000,4.000000,4.000000,4.000000,4.000000,4.000000,0.000000,,,,,,,,,,,,,,,,,,,,,,,,,,,,
1732156837.689624,1732156837.691265,43.000000,0.000000,4373.461426,4311.666504,4318.589844,4309.871582,4243.333496,4258.205078,4334.615234,4401.153809,4305.000000,4302.948730,4506.410156,4546.794922,4433.717773,4507.051270,0.000000,1.000000,26.000000,,,,0.000000,2.000000,2.000000,0.000000,4.000000,2.000000,2.000000,0.000000,0.000000,4.000000,4.000000,4.000000,4.000000,4.000000,4.000000,0.000000,,,,,,,,,,,,,,,,,,,,,,,,,,,,
1732156837.697432,1732156837.698973,44.000000,0.000000,4373.205078,4321.025879,4318.717773,4312.692383,4247.436035,4252.051270,4331.922852,4397.563965,4283.205078,4287.820313,4491.794922,4542.436035,4427.948730,4502.563965,0.000000,1.000000,26.000000,,,,0.000000,2.000000,2.000000,0.000000,4.000000,2.000000,2.000000,0.000000,0.000000,4.000000,4.000000,4.000000,4.000000,4.000000,4.000000,0.000000,,,,,,,,,,,,,,,,,11.000000,0.000000,0.511813,0.447876,-0.583252,0.444153,0.984984,-0.051276,-0.081065,-36.450626,44.489513,31.832800
1732156837.705240,1732156837.706781,45.000000,0.000000,4371.025879,4315.256348,4318.717773,4310.384766,4251.794922,4242.948730,4329.487305,4397.948730,4280.128418,4278.077148,4495.256348,4538.333496,4435.256348,4502.307617,0.000000,1.000000,26.000000,,,,0.000000,2.000000,2.000000,0.000000,4.000000,2.000000,2.000000,0.000000,0.000000,4.000000,4.000000,4.000000,4.000000,4.000000,4.000000,0.000000,,,,,,,,,,,,,,,,,,,,,,,,,,,,
1732156837.713048,1732156837.714390,46.000000,0.000000,4372.179688,4309.230957,4317.436035,4307.948730,4241.410156,4252.436035,4332.307617,4400.128418,4305.128418,4295.000000,4507.436035,4543.461426,4442.948730,4506.666504,0.000000,1.000000,26.000000,,,,0.000000,2.000000,2.000000,0.000000,4.000000,2.000000,2.000000,0.000000,0.000000,4.000000,4.000000,4.000000,4.000000,4.000000,4.000000,0.000000,,,,,,,,,,,,,,,,,,,,,,,,,,,,
1732156837.720857,1732156837.722198,47.000000,0.000000,4374.102539,4321.282227,4315.512695,4311.282227,4228.589844,4254.743652,4332.820313,4398.974121,4305.897461,4299.615234,4507.051270,4548.077148,4438.846191,4505.256348,0.000000,1.000000,26.000000,,,,0.000000,2.000000,2.000000,0.000000,4.000000,2.000000,2.000000,0.000000,0.000000,4.000000,4.000000,4.000000,4.000000,4.000000,4.000000,0.000000,,,,,,,,,,,,,,,,,,,,,,,,,,,,
1732156837.728665,1732156837.730106,48.000000,0.000000,4375.256348,4330.641113,4318.205078,4318.077148,4229.487305,4248.717773,4330.641113,4397.307617,4289.358887,4281.025879,4499.102539,4544.230957,4434.871582,4504.102539,0.000000,1.000000,26.000000,,,,0.000000,2.000000,2.000000,0.000000,4.000000,2.000000,2.000000,0.000000,0.000000,4.000000,4.000000,4.000000,4.000000,4.000000,4.000000,0.000000,,,,,,,,,,,,,,,,,12.000000,0.000000,0.512165,0.448120,-0.582336,0.444702,0.966915,-0.060066,-0.076670,-36.225006,44.301506,31.772902
1732156837.736473,1732156837.737914,49.000000,0.000000,4374.358887,4326.922852,4318.717773,4319.487305,4237.179688,4253.589844,4329.487305,4397.436035,4291.410156,4277.820313,4495.256348,4543.333496,4433.077148,4506.666504,0.000000,1.000000,26.000000,,,,0.000000,2.000000,2.000000,0.000000,4.000000,2.000000,2.000000,0.000000,0.000000,4.000000,4.000000,4.000000,4.000000,4.000000,4.000000,0.000000,,,,,,,,,,,,,,,,,,,,,,,,,,,,
1732156837.744281,1732156837.745523,50.000000,0.000000,4373.205078,4324.487305,4315.769043,4314.102539,4238.333496,4261.410156,4331.538574,4397.179688,4299.615234,4294.102539,4494.487305,4544.615234,4432.436035,4502.307617,0.000000,1.000000,26.000000,,,,0.000000,2.000000,2.000000,0.000000,4.000000,2.000000,2.000000,0.000000,0.000000,4.000000,4.000000,4.000000,4.000000,4.000000,4.000000,0.000000,,,,,,,,,,,,,,,,,,,,,,,,,,,,
1732156837.752090,1732156837.753331,51.000000,0.000000,4374.230957,4327.563965,4315.897461,4312.051270,4247.307617,4263.846191,4331.794922,4397.563965,4298.333496,4292.179688,4492.820313,4538.974121,4431.666504,4493.846191,0.000000,1.000000,26.000000,,,,0.000000,2.000000,2.000000,0.000000,4.000000,2.000000,2.000000,0.000000,0.000000,4.000000,4.000000,4.000000,4.000000,4.000000,4.000000,0.000000,,,,,,,,,,,,,,,,,,,,,,,,,,,,
1732156837.759898,1732156837.761039,52.000000,0.000000,4371.794922,4328.974121,4317.563965,4313.974121,4266.282227,4261.410156,4327.948730,4398.077148,4290.641113,4275.384766,4489.743652,4534.871582,4427.692383,4492.436035,0.000000,1.000000,26.000000,,,,0.000000,2.000000,2.000000,0.000000,4.000000,2.000000,2.000000,0.000000,0.000000,4.000000,4.000000,4.000000,4.000000,4.000000,4.000000,0.000000,,,,,,,,,,,,,,,,,13.000000,0.000000,0.512742,0.448364,-0.581360,0.445068,0.993285,-0.056648,-0.072274,-36.052254,44.182552,31.649384
1732156837.767706,1732156837.768848,53.000000,0.000000,4363.846191,4323.717773,4316.025879,4311.282227,4261.794922,4260.897461,4324.743652,4397.692383,4290.769043,4277.436035,4490.512695,4536.410156,4428.205078,4494.102539,0.000000,1.000000,26.000000,,,,0.000000,2.000000,2.000000,0.000000,4.000000,2.000000,2.000000,0.000000,0.000000,4.000000,4.000000,4.000000,4.000000,4.000000,4.000000,0.000000,,,,,,,,,,,,,,,,,,,,,,,,,,,,
1732156837.775514,1732156837.776456,54.000000,0.000000,4359.230957,4318.589844,4317.051270,4308.846191,4242.948730,4263.974121,4329.230957,4398.333496,4305.000000,4290.384766,4493.077148,4537.948730,4431.153809,4489.487305,0.000000,1.000000,26.000000,,,,0.000000,2.000000,2.000000,0.000000,4.000000,2.000000,2.000000,0.000000,0.000000,4.000000,4.000000,4.000000,4.000000,4.000000,4.000000,0.000000,,,,,,,,,,,,,,,,,,,,,,,,,,,,
1732156837.783322,1732156837.784264,55.000000,0.000000,4357.820313,4316.538574,4321.538574,4308.461426,4245.384766,4267.436035,4332.948730,4399.230957,4307.436035,4285.128418,4489.230957,4537.179688,4425.512695,4486.794922,0.000000,1.000000,26.000000,,,,0.000000,2.000000,2.000000,0.000000,4.000000,2.000000,2.000000,0.000000,0.000000,4.000000,4.000000,4.000000,4.000000,4.000000,4.000000,0.000000,,,,,,,,,,,,,,,,,,,,,,,,,,,,
1732156837.791131,1732156837.791972,56.000000,0.000000,4353.717773,4316.025879,4318.974121,4306.410156,4254.102539,4265.512695,4330.512695,4397.692383,4293.461426,4277.436035,4486.922852,4534.615234,4423.589844,4486.666504,0.000000,1.000000,26.000000,,,,0.000000,2.000000,2.000000,0.000000,4.000000,2.000000,2.000000,0.000000,0.000000,4.000000,4.000000,4.000000,4.000000,4.000000,4.000000,0.000000,,,,,,,,,,,,,,,,,14.000000,0.000000,0.512822,0.448547,-0.581055,0.445190,0.993285,-0.056648,-0.072274,-36.295658,44.337868,31.747667
1732156837.798939,1732156837.799781,57.000000,0.000000,4352.307617,4315.641113,4314.358887,4308.974121,4247.563965,4262.692383,4329.487305,4397.179688,4294.358887,4280.256348,4488.461426,4529.743652,4427.948730,4481.538574,0.000000,1.000000,26.000000,,,,0.000000,2.000000,2.000000,0.000000,4.000000,2.000000,2.000000,0.000000,0.000000,4.000000,4.000000,4.000000,4.000000,4.000000,4.000000,0.000000,,,,,,,,,,,,,,,,,,,,,,,,,,,,
1732156837.806747,1732156837.807389,58.000000,0.000000,4353.205078,4314.743652,4317.563965,4311.666504,4255.384766,4263.461426,4330.512695,4398.717773,4304.743652,4281.153809,4489.230957,4532.820313,4426.025879,4481.282227,0.000000,1.000000,26.000000,,,,0.000000,2.000000,2.000000,0.000000,4.000000,2.000000,2.000000,0.000000,0.000000,4.000000,4.000000,4.000000,4.000000,4.000000,4.000000,0.000000,,,,,,,,,,,,,,,,,,,,,,,,,,,,
1732156837.814556,1732156837.815197,59.000000,0.000000,4354.358887,4315.384766,4319.230957,4310.384766,4269.487305,4262.948730,4330.384766,4398.205078,4303.461426,4285.769043,4490.512695,4539.358887,4427.436035,4488.077148,0.000000,1.000000,26.000000,,,,0.000000,2.000000,2.000000,0.000000,4.000000,2.000000,2.000000,0.000000,0.000000,4.000000,4.000000,4.000000,4.000000,4.000000,4.000000,0.000000,,,,,,,,,,,,,,,,,,,,,,,,,,,,
1732156837.822364,1732156837.823105,60.000000,0.000000,4356.922852,4317.563965,4316.410156,4310.256348,4257.948730,4264.230957,4330.128418,4396.794922,4303.333496,4293.974121,4489.487305,4536.922852,4431.153809,4488.461426,0.000000,1.000000,26.000000,,,,0.000000,2.000000,2.000000,0.000000,4.000000,2.000000,2.000000,0.000000,0.000000,4.000000,4.000000,4.000000,4.000000,4.000000,4.000000,0.000000,,,,,,,,,,,,,,,,,15.000000,0.000000,0.513218,0.449097,-0.580139,0.445374,0.980100,-0.049811,-0.068368,-36.424484,44.323673,31.807278
1732156837.830172,1732156837.830914,61.000000,0.000000,4357.436035,4320.128418,4315.769043,4311.922852,4244.615234,4266.025879,4329.871582,4397.436035,4303.077148,4292.563965,4490.000000,4536.153809,4429.230957,4487.563965,0.000000,1.000000,26.000000,,,,0.000000,2.000000,2.000000,0.000000,4.000000,2.000000,2.000000,0.000000,0.000000,4.000000,4.000000,4.000000,4.000000,4.000000,4.000000,0.000000,,,,,,,,,,,,,,,,,,,,,,,,,,,,
1732156837.837980,1732156837.838922,62.000000,0.000000,4354.102539,4318.974121,4318.846191,4315.384766,4246.153809,4264.743652,4329.743652,4398.333496,4299.487305,4288.461426,4490.512695,4539.871582,4429.102539,4489.230957,0.000000,1.000000,26.000000,,,,0.000000,2.000000,2.000000,0.000000,4.000000,2.000000,2.000000,0.000000,0.000000,4.000000,4.000000,4.000000,4.000000,4.000000,4.000000,0.000000,,,,,,,,,,,,,,,,,,,,,,,,,,,,
1732156837.845788,1732156837.846730,63.000000,0.000000,4345.769043,4313.205078,4318.461426,4311.025879,4263.333496,4265.000000,4330.384766,4398.077148,4306.794922,4287.692383,4482.563965,4531.282227,4421.538574,4481.153809,0.000000,1.000000,26.000000,,,,0.000000,2.000000,2.000000,0.000000,4.000000,2.000000,2.000000,0.000000,0.000000,4.000000,4.000000,4.000000,4.000000,4.000000,4.000000,0.000000,,,,,,,,,,,,,,,,,,,,,,,,,,,,
1732156837.853597,1732156837.854438,64.000000,0.000000,4339.102539,4309.743652,4317.948730,4299.871582,4281.025879,4266.153809,4331.153809,4398.333496,4307.436035,4279.615234,4473.333496,4520.256348,4411.922852,4472.820313,0.000000,1.000000,26.000000,,,,0.000000,2.000000,2.000000,0.000000,4.000000,2.000000,2.000000,0.000000,0.000000,4.000000,4.000000,4.000000,4.000000,4.000000,4.000000,0.000000,,,,,,,,,,,,,,,,,16.000000,0.000000,0.513161,0.449829,-0.579529,0.445496,0.979612,-0.049811,-0.055183,-36.178833,44.287174,31.780561
1732156837.861405,1732156837.862246,65.000000,0.000000,4344.615234,4313.589844,4320.897461,4303.846191,4268.077148,4266.922852,4332.307617,4397.692383,4298.717773,4282.820313,4476.025879,4525.384766,4420.641113,4476.538574,1591.000000,1.000000,26.000000,,,,0.000000,2.000000,2.000000,0.000000,4.000000,2.000000,2.000000,0.000000,0.000000,4.000000,4.000000,4.000000,4.000000,4.000000,4.000000,0.000000,,,,,,,,,,,,,,,,,,,,,,,,,,,,
1732156837.869213,1732156837.869855,66.000000,0.000000,4349.102539,4318.846191,4320.000000,4313.846191,4252.436035,4268.205078,4331.794922,4397.563965,4297.948730,4296.025879,4480.384766,4533.461426,4426.153809,4477.820313,1392.000000,1.000000,26.000000,,,,0.000000,2.000000,2.000000,0.000000,4.000000,2.000000,2.000000,0.000000,0.000000,4.000000,4.000000,4.000000,4.000000,4.000000,4.000000,0.000000,,,,,,,,,,,,,,,,,,,,,,,,,,,,
1732156837.877021,1732156837.877663,67.000000,0.000000,4342.436035,4319.358887,4318.846191,4311.410156,4270.641113,4265.384766,4330.384766,4398.077148,4299.487305,4290.512695,4477.563965,4534.102539,4414.615234,4472.307617,1414.000000,1.000000,26.000000,,,,0.000000,2.000000,2.000000,0.000000,4.000000,2.000000,2.000000,0.000000,0.000000,4.000000,4.000000,4.000000,4.000000,4.000000,4.000000,0.000000,,,,,,,,,,,,,,,,,,,,,,,,,,,,
1732156837.884830,1732156837.885371,68.000000,0.000000,4340.000000,4321.025879,4322.307617,4312.051270,4281.153809,4263.333496,4330.769043,4397.948730,4297.820313,4283.589844,4475.641113,4535.512695,4410.000000,4469.743652,1411.000000,1.000000,26.000000,,,,0.000000,2.000000,2.000000,0.000000,4.000000,2.000000,2.000000,0.000000,0.000000,4.000000,4.000000,4.000000,4.000000,4.000000,4.000000,0.000000,,,,,,,,,,,,,,,,,17.000000,0.000000,0.513236,0.450256,-0.579224,0.445374,0.979123,-0.042486,-0.066903,-36.009853,44.302612,31.683922
1732156837.892638,1732156837.893179,69.000000,0.000000,4347.948730,4326.025879,4322.436035,4322.307617,4261.794922,4270.128418,4331.666504,4397.692383,4301.794922,4294.102539,4478.077148,4535.256348,4417.179688,4472.307617,1252.000000,1.000000,26.000000,,,,0.000000,2.000000,2.000000,0.000000,4.000000,2.000000,2.000000,0.000000,0.000000,4.000000,4.000000,4.000000,4.000000,4.000000,4.000000,0.000000,,,,,,,,,,,,,,,,,,,,,,,,,,,,
1732156837.900446,1732156837.901187,70.000000,0.000000,4348.717773,4328.205078,4319.230957,4322.051270,4255.769043,4273.077148,4329.487305,4397.692383,4304.615234,4298.589844,4478.589844,4531.922852,4416.666504,4471.794922,0.000000,1.000000,26.000000,,,,0.000000,2.000000,2.000000,0.000000,4.000000,2.000000,2.000000,0.000000,0.000000,4.000000,4.000000,4.000000,4.000000,4.000000,4.000000,0.000000,,,,,,,,,,,,,,,,,,,,,,,,,,,,
1732156837.908255,1732156837.908996,71.000000,0.000000,4343.461426,4326.922852,4318.205078,4312.948730,4275.128418,4267.051270,4326.794922,4398.205078,4302.820313,4291.410156,4473.077148,4534.102539,4412.436035,4462.051270,0.000000,1.000000,26.000000,,,,0.000000,2.000000,2.000000,0.000000,4.000000,2.000000,2.000000,0.000000,0.000000,4.000000,4.000000,4.000000,4.000000,4.000000,4.000000,0.000000,,,,,,,,,,,,,,,,,,,,,,,,,,,,
1732156837.916063,1732156837.916904,72.000000,0.000000,4346.025879,4331.922852,4320.384766,4313.205078,4285.256348,4262.307617,4329.102539,4398.333496,4304.358887,4292.179688,4473.077148,4537.179688,4417.692383,4460.769043,1513.000000,1.000000,26.000000,,,,0.000000,2.000000,2.000000,0.000000,4.000000,2.000000,2.000000,0.000000,0.000000,4.000000,4.000000,4.000000,4.000000,4.000000,4.000000,0.000000,,,,,,,,,,,,,,,,,18.000000,0.000000,0.513136,0.451233,-0.578552,0.445374,0.984007,-0.040044,-0.061531,-36.514648,44.371780,31.458977
1732156837.923871,1732156837.924712,73.000000,0.000000,4353.589844,4343.846191,4323.717773,4320.897461,4269.615234,4262.948730,4330.641113,4397.307617,4300.128418,4295.641113,4486.794922,4539.230957,4431.025879,4476.794922,1666.000000,1.000000,26.000000,,,,0.000000,2.000000,2.000000,0.000000,4.000000,2.000000,2.000000,0.000000,0.000000,4.000000,4.000000,4.000000,4.000000,4.000000,4.000000,0.000000,,,,,,,,,,,,,,,,,,,,,,,,,,,,
1732156837.931679,1732156837.932720,74.000000,0.000000,4353.205078,4345.256348,4322.563965,4323.461426,4259.615234,4272.179688,4331.666504,4397.820313,4295.769043,4293.974121,4489.230957,4540.641113,4434.358887,4477.179688,1516.000000,1.000000,26.000000,,,,0.000000,2.000000,2.000000,0.000000,4.000000,2.000000,2.000000,0.000000,0.000000,4.000000,4.000000,4.000000,4.000000,4.000000,4.000000,0.000000,,,,,,,,,,,,,,,,,,,,,,,,,,,,
1732156837.939487,1732156837.940528,75.000000,0.000000,4346.538574,4333.846191,4317.948730,4315.769043,4274.230957,4283.589844,4334.230957,4399.743652,4304.358887,4295.641113,4475.641113,4532.820313,4423.077148,4460.128418,1563.000000,1.000000,26.000000,,,,0.000000,2.000000,2.000000,0.000000,4.000000,2.000000,2.000000,0.000000,0.000000,4.000000,4.000000,4.000000,4.000000,4.000000,4.000000,0.000000,,,,,,,,,,,,,,,,,,,,,,,,,,,,
1732156837.947296,1732156837.948436,76.000000,0.000000,4342.051270,4329.487305,4318.589844,4310.256348,4283.077148,4281.794922,4334.358887,4398.974121,4307.307617,4296.282227,4471.538574,4522.436035,4420.384766,4457.179688,1693.000000,1.000000,26.000000,,,,0.000000,2.000000,2.000000,0.000000,4.000000,2.000000,2.000000,0.000000,0.000000,4.000000,4.000000,4.000000,4.000000,4.000000,4.000000,0.000000,,,,,,,,,,,,,,,,,19.000000,0.000000,0.513090,0.452637,-0.577637,0.445190,0.996704,-0.054694,-0.065926,-36.468533,44.396145,31.520103
1732156837.955104,1732156837.956245,77.000000,0.000000,4337.563965,4334.102539,4321.153809,4313.205078,4278.461426,4277.179688,4330.000000,4397.051270,4299.102539,4294.743652,4476.666504,4521.282227,4426.410156,4460.512695,1678.000000,1.000000,26.000000,,,,0.000000,2.000000,2.000000,0.000000,4.000000,2.000000,2.000000,0.000000,0.000000,4.000000,4.000000,4.000000,4.000000,4.000000,4.000000,0.000000,,,,,,,,,,,,,,,,,,,,,,,,,,,,
1732156837.962912,1732156837.964253,78.000000,0.000000,4337.307617,4335.128418,4318.461426,4318.974121,4281.025879,4276.153809,4326.922852,4398.717773,4296.282227,4297.307617,4477.820313,4523.717773,4428.077148,4458.205078,1516.000000,1.000000,26.000000,,,,0.000000,2.000000,2.000000,0.000000,4.000000,2.000000,2.000000,0.000000,0.000000,4.000000,4.000000,4.000000,4.000000,4.000000,4.000000,0.000000,1.000000,0.000000,2.000000,2.000000,0.000000,4.000000,2.000000,2.000000,0.000000,0.000000,4.000000,4.000000,4.000000,4.000000,4.000000,4.000000,,,,,,,,,,,,
1732156837.970720,1732156837.972061,79.000000,0.000000,4340.769043,4330.384766,4318.589844,4319.871582,4281.410156,4271.282227,4326.282227,4399.743652,4303.461426,4307.051270,4479.743652,4525.256348,4428.846191,4460.256348,1563.000000,1.000000,26.000000,,,,0.000000,2.000000,2.000000,0.000000,4.000000,2.000000,2.000000,0.000000,0.000000,4.000000,4.000000,4.000000,4.000000,4.000000,4.000000,0.000000,,,,,,,,,,,,,,,,,,,,,,,,,,,,
1732156837.978529,1732156837.979969,80.000000,0.000000,4338.077148,4326.410156,4321.922852,4311.538574,4286.538574,4270.128418,4327.948730,4398.589844,4307.179688,4310.641113,4479.487305,4523.205078,4424.230957,4456.282227,1693.000000,1.000000,26.000000,,,,0.000000,2.000000,2.000000,0.000000,4.000000,2.000000,2.000000,0.000000,0.000000,4.000000,4.000000,4.000000,4.000000,4.000000,4.000000,0.000000,,,,,,,,,,,,,,,,,20.000000,0.000000,0.512232,0.453552,-0.577209,0.445801,0.971798,-0.044927,-0.073251,-36.556179,44.499210,31.339617
1732156837.986337,1732156837.987777,81.000000,0.000000,4333.717773,4327.436035,4322.179688,4310.128418,4296.153809,4278.589844,4332.948730,4397.436035,4305.512695,4305.128418,4475.384766,4520.000000,4414.487305,4446.153809,1678.000000,1.000000,26.000000,,,,0.000000,2.000000,2.000000,0.000000,4.000000,2.000000,2.000000,0.000000,0.000000,4.000000,4.000000,4.000000,4.000000,4.000000,4.000000,0.000000,,,,,,,,,,,,,,,,,,,,,,,,,,,,
1732156837.994145,1732156837.995785,82.000000,0.000000,4329.871582,4328.077148,4322.563965,4319.102539,4282.307617,4287.948730,4336.025879,4396.794922,4307.179688,4305.641113,4475.512695,4520.897461,4413.077148,4444.871582,1516.000000,1.000000,26.000000,,,,0.000000,2.000000,2.000000,0.000000,4.000000,2.000000,2.000000,0.000000,0.000000,4.000000,4.000000,4.000000,4.000000,4.000000,4.000000,0.000000,,,,,,,,,,,,,,,,,,,,,,,,,,,,
1732156838.001953,1732156838.003593,83.000000,0.000000,4327.436035,4325.897461,4322.948730,4319.358887,4270.897461,4288.205078,4332.563965,4397.179688,4308.205078,4310.897461,4476.538574,4521.538574,4414.487305,4446.025879,1563.000000,1.000000,26.000000,,,,0.000000,2.000000,2.000000,0.000000,4.000000,2.000000,2.000000,0.000000,0.000000,4.000000,4.000000,4.000000,4.000000,4.000000,4.000000,0.000000,,,,,,,,,,,,,,,,,,,,,,,,,,,,
1732156838.009761,1732156838.011501,84.000000,0.000000,4329.743652,4321.922852,4322.051270,4311.282227,4286.025879,4281.153809,4329.743652,4397.179688,4309.871582,4311.538574,4475.897461,4519.615234,4407.948730,4444.487305,1693.000000,1.000000,26.000000,,,,0.000000,2.000000,2.000000,0.000000,4.000000,2.000000,2.000000,0.000000,0.000000,4.000000,4.000000,4.000000,4.000000,4.000000,4.000000,0.000000,,,,,,,,,,,,,,,,,21.000000,0.000000,0.511794,0.453979,-0.577026,0.446106,0.965450,-0.045904,-0.077646,-36.608837,44.752693,31.180090
1732156838.017570,1732156838.019310,85.000000,0.000000,4334.743652,4319.871582,4322.948730,4313.589844,4287.179688,4276.922852,4333.461426,4396.025879,4311.153809,4311.410156,4477.820313,4522.307617,4404.487305,4446.025879,1678.000000,1.000000,26.000000,,,,0.000000,2.000000,2.000000,0.000000,4.000000,2.000000,2.000000,0.000000,0.000000,4.000000,4.000000,4.000000,4.000000,4.000000,4.000000,0.000000,,,,,,,,,,,,,,,,,,,,,,,,,,,,
1732156838.025378,1732156838.026918,86.000000,0.000000,4334.358887,4321.538574,4322.307617,4323.077148,4272.563965,4278.205078,4336.025879,4395.256348,4308.974121,4310.256348,4478.461426,4525.000000,4402.948730,4446.025879,1516.000000,1.000000,26.000000,,,,0.000000,2.000000,2.000000,0.000000,4.000000,2.000000,2.000000,0.000000,0.000000,4.000000,4.000000,4.000000,4.000000,4.000000,4.000000,0.000000,,,,,,,,,,,,,,,,,,,,,,,,,,,,
1732156838.033186,1732156838.034726,87.000000,0.000000,4335.512695,4325.641113,4321.153809,4326.666504,4273.589844,4280.384766,4334.871582,4395.512695,4307.692383,4312.692383,4480.897461,4521.410156,4400.512695,4443.974121,1563.000000,1.000000,26.000000,,,,0.000000,2.000000,2.000000,0.000000,4.000000,2.000000,2.000000,0.000000,0.000000,4.000000,4.000000,4.000000,4.000000,4.000000,4.000000,0.000000,,,,,,,,,,,,,,,,,,,,,,,,,,,,
1732156838.040995,1732156838.042435,88.000000,0.000000,4336.410156,4325.128418,4319.743652,4326.666504,4288.846191,4282.563965,4333.333496,4395.897461,4301.025879,4309.230957,4480.897461,4518.974121,4398.974121,4443.589844,1693.000000,1.000000,26.000000,,,,0.000000,2.000000,2.000000,0.000000,4.000000,2.000000,2.000000,0.000000,0.000000,4.000000,4.000000,4.000000,4.000000,4.000000,4.000000,0.000000,,,,,,,,,,,,,,,,,22.000000,0.000000,0.511210,0.454407,-0.576782,0.446655,0.981077,-0.052741,-0.078623,-36.538158,44.943016,31.305874
1732156838.048803,1732156838.050243,89.000000,0.000000,4327.948730,4318.205078,4319.871582,4326.794922,4306.794922,4282.179688,4333.974121,4396.538574,4296.794922,4300.897461,4474.871582,4519.358887,4390.256348,4441.794922,1678.000000,1.000000,26.000000,,,,0.000000,2.000000,2.000000,0.000000,4.000000,2.000000,2.000000,0.000000,0.000000,4.000000,4.000000,4.000000,4.000000,4.000000,4.000000,0.000000,,,,,,,,,,,,,,,,,,,,,,,,,,,,
1732156838.056611,1732156838.057851,90.000000,0.000000,4324.358887,4317.051270,4321.153809,4326.153809,4303.846191,4280.641113,4334.487305,4397.051270,4305.000000,4307.563965,4478.333496,4520.769043,4381.153809,4442.820313,1516.000000,1.000000,26.000000,,,,0.000000,2.000000,2.000000,0.000000,4.000000,2.000000,2.000000,0.000000,0.000000,4.000000,4.000000,4.000000,4.000000,4.000000,4.000000,0.000000,,,,,,,,,,,,,,,,,,,,,,,,,,,,
1732156838.064419,1732156838.065659,91.000000,0.000000,4332.051270,4320.000000,4321.922852,4327.563965,4284.102539,4290.256348,4335.384766,4397.307617,4313.205078,4317.948730,4489.615234,4523.461426,4380.256348,4445.512695,1563.000000,1.000000,26.000000,,,,0.000000,2.000000,2.000000,0.000000,4.000000,2.000000,2.000000,0.000000,0.000000,4.000000,4.000000,4.000000,4.000000,4.000000,4.000000,0.000000,,,,,,,,,,,,,,,,,,,,,,,,,,,,
1732156838.072228,1732156838.073368,92.000000,0.000000,4335.769043,4317.563965,4323.461426,4328.717773,4284.102539,4293.846191,4336.153809,4398.205078,4312.948730,4312.692383,4489.743652,4523.846191,4378.717773,4443.846191,1693.000000,1.000000,26.000000,,,,0.000000,2.000000,2.000000,0.000000,4.000000,2.000000,2.000000,0.000000,0.000000,4.000000,4.000000,4.000000,4.000000,4.000000,4.000000,0.000000,,,,,,,,,,,,,,,,,23.000000,0.000000,0.510300,0.454407,-0.577209,0.447144,0.975217,-0.078135,-0.075204,-36.654240,45.297176,31.421091
1732156838.080036,1732156838.081176,93.000000,0.000000,4333.333496,4315.641113,4324.615234,4327.563965,4297.692383,4278.717773,4330.769043,4397.051270,4305.384766,4308.077148,4485.000000,4522.948730,4372.563965,4443.589844,1678.000000,1.000000,26.000000,,,,0.000000,2.000000,2.000000,0.000000,4.000000,2.000000,2.000000,0.000000,0.000000,4.000000,4.000000,4.000000,4.000000,4.000000,4.000000,0.000000,,,,,,,,,,,,,,,,,,,,,,,,,,,,
1732156838.087844,1732156838.088784,94.000000,0.000000,4334.230957,4317.563965,4325.897461,4327.820313,4297.563965,4274.743652,4328.077148,4396.922852,4299.743652,4313.333496,4489.871582,4524.871582,4370.512695,4446.538574,1516.000000,1.000000,26.000000,,,,0.000000,2.000000,2.000000,0.000000,4.000000,2.000000,2.000000,0.000000,0.000000,4.000000,4.000000,4.000000,4.000000,4.000000,4.000000,0.000000,,,,,,,,,,,,,,,,,,,,,,,,,,,,
1732156838.095652,1732156838.096592,95.000000,0.000000,4335.641113,4312.436035,4325.641113,4328.717773,4291.538574,4292.307617,4332.563965,4397.051270,4302.692383,4309.230957,4488.205078,4524.358887,4364.230957,4445.641113,1563.000000,1.000000,26.000000,,,,0.000000,2.000000,2.000000,0.000000,4.000000,2.000000,2.000000,0.000000,0.000000,4.000000,4.000000,4.000000,4.000000,4.000000,4.000000,0.000000,,,,,,,,,,,,,,,,,,,,,,,,,,,,
1732156838.103460,1732156838.104501,96.000000,0.000000,4333.846191,4300.512695,4324.743652,4326.922852,4298.077148,4294.743652,4333.077148,4395.512695,4306.922852,4301.282227,4477.051270,4522.051270,4352.179688,4443.974121,1693.000000,1.000000,26.000000,,,,0.000000,2.000000,2.000000,0.000000,4.000000,2.000000,2.000000,0.000000,0.000000,4.000000,4.000000,4.000000,4.000000,4.000000,4.000000,0.000000,,,,,,,,,,,,,,,,,24.000000,0.000000,0.510056,0.454346,-0.577332,0.447327,0.975217,-0.078135,-0.075204,-36.403271,45.209045,31.467751
1732156838.111269,1732156838.112309,97.000000,0.000000,4333.846191,4295.641113,4323.974121,4325.512695,4311.666504,4280.641113,4328.333496,4397.436035,4303.589844,4305.128418,4478.717773,4523.205078,4350.000000,4445.641113,1678.000000,1.000000,26.000000,,,,0.000000,2.000000,2.000000,0.000000,4.000000,2.000000,2.000000,0.000000,0.000000,4.000000,4.000000,4.000000,4.000000,4.000000,4.000000,0.000000,,,,,,,,,,,,,,,,,,,,,,,,,,,,
1732156838.119077,1732156838.119917,98.000000,0.000000,4335.512695,4298.589844,4323.461426,4329.743652,4306.922852,4284.487305,4330.128418,4399.487305,4308.461426,4311.153809,4489.102539,4523.974121,4353.717773,4446.153809,1516.000000,1.000000,26.000000,,,,0.000000,2.000000,2.000000,0.000000,4.000000,2.000000,2.000000,0.000000,0.000000,4.000000,4.000000,4.000000,4.000000,4.000000,4.000000,0.000000,,,,,,,,,,,,,,,,,,,,,,,,,,,,
1732156838.126885,1732156838.127725,99.000000,0.000000,4335.769043,4298.205078,4322.820313,4335.384766,4286.025879,4297.436035,4333.589844,4396.025879,4318.333496,4315.256348,4491.025879,4521.794922,4350.641113,4444.230957,1563.000000,1.000000,26.000000,,,,0.000000,2.000000,2.000000,0.000000,4.000000,2.000000,2.000000,0.000000,0.000000,4.000000,4.000000,4.000000,4.000000,4.000000,4.000000,0.000000,,,,,,,,,,,,,,,,,,,,,,,,,,,,
1732156838.134694,1732156838.135434,100.000000,0.000000,4335.000000,4294.102539,4321.666504,4334.358887,4293.333496,4294.102539,4329.615234,4393.077148,4305.641113,4307.051270,4482.820313,4521.025879,4340.384766,4441.153809,1693.000000,1.000000,26.000000,,,,0.000000,2.000000,2.000000,0.000000,4.000000,2.000000,2.000000,0.000000,0.000000,4.000000,4.000000,4.000000,4.000000,4.000000,4.000000,0.000000,,,,,,,,,,,,,,,,,25.000000,0.000000,0.509704,0.454346,-0.577454,0.447571,0.989867,-0.057624,-0.084483,-36.409981,44.864326,31.358877
1732156838.142502,1732156838.143242,101.000000,0.000000,4335.128418,4293.974121,4323.461426,4329.487305,4304.358887,4288.205078,4330.641113,4395.000000,4292.307617,4293.974121,4476.025879,4518.589844,4334.358887,4440.512695,1678.000000,1.000000,26.000000,,,,0.000000,2.000000,2.000000,0.000000,4.000000,2.000000,2.000000,0.000000,0.000000,4.000000,4.000000,4.000000,4.000000,4.000000,4.000000,0.000000,,,,,,,,,,,,,,,,,,,,,,,,,,,,
1732156838.150310,1732156838.150850,102.000000,0.000000,4333.974121,4290.897461,4326.666504,4326.410156,4284.871582,4294.615234,4333.717773,4397.692383,4307.563965,4297.563965,4475.769043,4512.051270,4332.051270,4440.769043,1516.000000,1.000000,26.000000,,,,0.000000,2.000000,2.000000,0.000000,4.000000,2.000000,2.000000,0.000000,0.000000,4.000000,4.000000,4.000000,4.000000,4.000000,4.000000,0.000000,,,,,,,,,,,,,,,,,,,,,,,,,,,,
1732156838.158118,1732156838.158659,103.000000,0.000000,4330.000000,4282.948730,4323.077148,4325.897461,4281.922852,4296.153809,4331.410156,4396.538574,4317.307617,4306.922852,4478.589844,4507.692383,4328.974121,4435.000000,1563.000000,1.000000,26.000000,,,,0.000000,2.000000,2.000000,0.000000,4.000000,2.000000,2.000000,0.000000,0.000000,4.000000,4.000000,4.000000,4.000000,4.000000,4.000000,0.000000,,,,,,,,,,,,,,,,,,,,,,,,,,,,
1732156838.165926,1732156838.166367,104.000000,0.000000,4326.538574,4282.307617,4321.922852,4324.743652,4299.358887,4292.051270,4329.358887,4395.769043,4300.512695,4298.589844,4472.692383,4506.410156,4323.205078,4428.333496,1693.000000,1.000000,26.000000,,,,0.000000,2.000000,2.000000,0.000000,4.000000,2.000000,2.000000,0.000000,0.000000,4.000000,4.000000,4.000000,4.000000,4.000000,4.000000,0.000000,,,,,,,,,,,,,,,,,26.000000,0.000000,0.508985,0.454773,-0.577515,0.447876,0.989379,-0.062996,-0.071298,-36.310417,44.808437,31.539024
1732156838.173735,1732156838.174175,105.000000,0.000000,4325.512695,4284.487305,4329.102539,4326.794922,4297.436035,4298.461426,4330.897461,4396.794922,4299.102539,4291.025879,4467.692383,4506.666504,4319.230957,4429.102539,1678.000000,1.000000,26.000000,,,,0.000000,2.000000,2.000000,0.000000,4.000000,2.000000,2.000000,0.000000,0.000000,4.000000,4.000000,4.000000,4.000000,4.000000,4.000000,0.000000,,,,,,,,,,,,,,,,,,,,,,,,,,,,
1732156838.181543,1732156838.181783,106.000000,0.000000,4327.179688,4282.179688,4328.461426,4330.641113,4301.153809,4304.743652,4333.974121,4396.666504,4314.230957,4298.717773,4475.641113,4506.922852,4322.948730,4431.666504,1516.000000,1.000000,26.000000,,,,0.000000,2.000000,2.000000,0.000000,4.000000,2.000000,2.000000,0.000000,0.000000,4.000000,4.000000,4.000000,4.000000,4.000000,4.000000,0.000000,,,,,,,,,,,,,,,,,,,,,,,,,,,,
1732156838.189351,1732156838.189592,107.000000,0.000000,4326.794922,4280.512695,4319.871582,4328.589844,4317.563965,4297.692383,4335.128418,4393.846191,4304.615234,4292.948730,4473.205078,4505.384766,4320.256348,4428.717773,1563.000000,1.000000,26.000000,,,,0.000000,2.000000,2.000000,0.000000,4.000000,2.000000,2.000000,0.000000,0.000000,4.000000,4.000000,4.000000,4.000000,4.000000,4.000000,0.000000,,,,,,,,,,,,,,,,,,,,,,,,,,,,
1732156838.197159,1732156838.197300,108.000000,0.000000,4320.128418,4280.128418,4319.487305,4324.230957,4306.794922,4294.743652,4332.692383,4392.307617,4299.358887,4285.128418,4463.205078,4505.128418,4309.615234,4425.897461,1693.000000,1.000000,26.000000,,,,0.000000,2.000000,2.000000,0.000000,4.000000,2.000000,2.000000,0.000000,0.000000,4.000000,4.000000,4.000000,4.000000,4.000000,4.000000,0.000000,,,,,,,,,,,,,,,,,27.000000,0.000000,0.508667,0.455078,-0.577271,0.448242,0.989379,-0.062996,-0.071298,-36.193104,44.836502,31.511610
1732156838.204968,1732156838.205108,109.000000,0.000000,4315.384766,4278.974121,4324.358887,4327.563965,4284.102539,4303.974121,4330.000000,4394.487305,4311.794922,4295.128418,4468.333496,4505.512695,4310.384766,4426.025879,1678.000000,1.000000,26.000000,,,,0.000000,2.000000,2.000000,0.000000,4.000000,2.000000,2.000000,0.000000,0.000000,4.000000,4.000000,4.000000,4.000000,4.000000,4.000000,0.000000,,,,,,,,,,,,,,,,,,,,,,,,,,,,
1732156838.212776,1732156838.212717,110.000000,0.000000,4318.589844,4280.000000,4323.974121,4331.282227,4298.077148,4305.641113,4333.589844,4397.820313,4306.922852,4299.358887,4476.410156,4505.769043,4318.974121,4428.461426,1516.000000,1.000000,26.000000,,,,0.000000,2.000000,2.000000,0.000000,4.000000,2.000000,2.000000,0.000000,0.000000,4.000000,4.000000,4.000000,4.000000,4.000000,4.000000,0.000000,,,,,,,,,,,,,,,,,,,,,,,,,,,,
1732156838.220584,1732156838.220525,111.000000,0.000000,4321.538574,4280.256348,4324.230957,4328.077148,4319.743652,4302.436035,4336.282227,4399.358887,4301.025879,4292.307617,4468.333496,4506.666504,4315.384766,4429.487305,1563.000000,1.000000,26.000000,,,,0.000000,2.000000,2.000000,0.000000,4.000000,2.000000,2.000000,0.000000,0.000000,4.000000,4.000000,4.000000,4.000000,4.000000,4.000000,0.000000,,,,,,,,,,,,,,,,,,,,,,,,,,,,
1732156838.228392,1732156838.228433,112.000000,0.000000,4318.717773,4279.487305,4324.487305,4327.051270,4306.282227,4305.384766,4332.692383,4393.333496,4311.282227,4292.436035,4461.666504,4503.333496,4308.846191,4423.333496,1693.000000,1.000000,26.000000,,,,0.000000,2.000000,2.000000,0.000000,4.000000,2.000000,2.000000,0.000000,0.000000,4.000000,4.000000,4.000000,4.000000,4.000000,4.000000,0.000000,,,,,,,,,,,,,,,,,28.000000,0.000000,0.507882,0.455627,-0.576721,0.449280,0.981565,-0.072274,-0.083018,-36.029747,45.089233,31.382736
1732156838.236200,1732156838.236241,113.000000,0.000000,4314.871582,4279.102539,4324.615234,4328.461426,4289.743652,4310.897461,4334.615234,4390.769043,4312.307617,4297.051270,4467.563965,4499.102539,4311.282227,4416.794922,1678.000000,1.000000,26.000000,,,,0.000000,2.000000,2.000000,0.000000,4.000000,2.000000,2.000000,0.000000,0.000000,4.000000,4.000000,4.000000,4.000000,4.000000,4.000000,0.000000,,,,,,,,,,,,,,,,,,,,,,,,,,,,
1732156838.244009,1732156838.244249,114.000000,0.000000,4310.128418,4274.487305,4325.000000,4324.743652,4302.051270,4313.846191,4337.948730,4395.897461,4307.563965,4296.410156,4472.820313,4503.205078,4311.922852,4417.179688,1516.000000,1.000000,26.000000,,,,0.000000,2.000000,2.000000,0.000000,4.000000,2.000000,2.000000,0.000000,0.000000,4.000000,4.000000,4.000000,4.000000,4.000000,4.000000,0.000000,,,,,,,,,,,,,,,,,,,,,,,,,,,,
1732156838.251817,1732156838.252057,115.000000,0.000000,4310.128418,4276.410156,4324.487305,4326.282227,4310.000000,4306.666504,4332.307617,4397.692383,4311.794922,4295.000000,4470.897461,4510.128418,4312.307617,4421.538574,1563.000000,1.000000,26.000000,,,,0.000000,2.000000,2.000000,0.000000,4.000000,2.000000,2.000000,0.000000,0.000000,4.000000,4.000000,4.000000,4.000000,4.000000,4.000000,0.000000,,,,,,,,,,,,,,,,,,,,,,,,,,,,
1732156838.259625,1732156838.259766,116.000000,0.000000,4313.077148,4282.692383,4326.538574,4327.436035,4304.358887,4299.358887,4329.102539,4397.563965,4311.538574,4296.794922,4467.307617,4504.487305,4317.051270,4421.538574,1693.000000,1.000000,26.000000,,,,0.000000,2.000000,2.000000,0.000000,4.000000,2.000000,2.000000,0.000000,0.000000,4.000000,4.000000,4.000000,4.000000,4.000000,4.000000,0.000000,,,,,,,,,,,,,,,,,29.000000,0.000000,0.507451,0.456055,-0.576477,0.449646,0.966427,-0.079111,-0.078623,-35.689095,44.977280,31.341684
1732156838.267434,1732156838.267574,117.000000,0.000000,4306.153809,4271.410156,4323.077148,4317.051270,4314.230957,4298.333496,4332.948730,4397.563965,4305.256348,4293.589844,4462.179688,4496.025879,4310.256348,4414.743652,1678.000000,1.000000,26.000000,,,,0.000000,2.000000,2.000000,0.000000,4.000000,2.000000,2.000000,0.000000,0.000000,4.000000,4.000000,4.000000,4.000000,4.000000,4.000000,0.000000,,,,,,,,,,,,,,,,,,,,,,,,,,,,
1732156838.275242,1732156838.275182,118.000000,0.000000,4302.051270,4260.000000,4317.820313,4315.384766,4318.846191,4301.538574,4332.563965,4397.692383,4303.461426,4285.000000,4455.769043,4498.974121,4297.436035,4409.743652,1516.000000,1.000000,26.000000,,,,0.000000,2.000000,2.000000,0.000000,4.000000,2.000000,2.000000,0.000000,0.000000,4.000000,4.000000,4.000000,4.000000,4.000000,4.000000,0.000000,,,,,,,,,,,,,,,,,,,,,,,,,,,,
1732156838.283050,1732156838.282991,119.000000,0.000000,4314.102539,4270.384766,4320.512695,4327.563965,4300.512695,4306.538574,4331.153809,4398.461426,4308.974121,4291.794922,4464.743652,4507.051270,4307.948730,4415.769043,1563.000000,1.000000,26.000000,,,,0.000000,2.000000,2.000000,0.000000,4.000000,2.000000,2.000000,0.000000,0.000000,4.000000,4.000000,4.000000,4.000000,4.000000,4.000000,0.000000,,,,,,,,,,,,,,,,,,,,,,,,,,,,
1732156838.290858,1732156838.290899,120.000000,0.000000,4321.666504,4275.512695,4323.846191,4329.102539,4295.000000,4305.000000,4334.743652,4398.974121,4317.436035,4306.410156,4474.871582,4508.717773,4322.948730,4421.538574,1693.000000,1.000000,26.000000,,,,0.000000,2.000000,2.000000,0.000000,4.000000,2.000000,2.000000,0.000000,0.000000,4.000000,4.000000,4.000000,4.000000,4.000000,4.000000,0.000000,,,,,,,,,,,,,,,,,30.000000,0.000000,0.507273,0.456116,-0.576538,0.449707,0.970333,-0.050787,-0.076181,-35.618168,44.903263,31.325098
1732156838.298667,1732156838.298707,121.000000,0.000000,4313.461426,4264.615234,4324.615234,4320.256348,4302.820313,4304.102539,4336.025879,4397.179688,4318.717773,4302.692383,4465.128418,4504.615234,4313.589844,4416.666504,1678.000000,1.000000,26.000000,,,,0.000000,2.000000,2.000000,0.000000,4.000000,2.000000,2.000000,0.000000,0.000000,4.000000,4.000000,4.000000,4.000000,4.000000,4.000000,0.000000,,,,,,,,,,,,,,,,,,,,,,,,,,,,
1732156838.306475,1732156838.306715,122.000000,0.000000,4308.205078,4263.205078,4325.256348,4320.641113,4313.333496,4311.282227,4333.461426,4398.077148,4310.769043,4291.794922,4456.922852,4504.743652,4301.410156,4410.512695,1516.000000,1.000000,26.000000,,,,0.000000,2.000000,2.000000,0.000000,4.000000,2.000000,2.000000,0.000000,0.000000,4.000000,4.000000,4.000000,4.000000,4.000000,4.000000,0.000000,,,,,,,,,,,,,,,,,,,,,,,,,,,,
1732156838.314283,1732156838.314523,123.000000,0.000000,4312.179688,4268.077148,4321.922852,4323.974121,4322.563965,4310.000000,4334.615234,4400.128418,4303.846191,4291.282227,4462.948730,4506.153809,4307.563965,4410.256348,1563.000000,1.000000,26.000000,,,,0.000000,2.000000,2.000000,0.000000,4.000000,2.000000,2.000000,0.000000,0.000000,4.000000,4.000000,4.000000,4.000000,4.000000,4.000000,0.000000,,,,,,,,,,,,,,,,,,,,,,,,,,,,
1732156838.322091,1732156838.322431,124.000000,0.000000,4308.205078,4264.230957,4320.641113,4321.153809,4312.692383,4302.692383,4336.153809,4398.846191,4310.384766,4298.077148,4464.358887,4507.051270,4311.922852,4406.025879,1693.000000,1.000000,26.000000,,,,0.000000,2.000000,2.000000,0.000000,4.000000,2.000000,2.000000,0.000000,0.000000,4.000000,4.000000,4.000000,4.000000,4.000000,4.000000,0.000000,,,,,,,,,,,,,,,,,31.000000,0.000000,0.507273,0.456116,-0.576538,0.449707,0.969845,-0.047857,-0.091808,-35.817383,44.731644,31.294996
1732156838.329899,1732156838.330239,125.000000,0.000000,4301.025879,4262.179688,4325.897461,4323.077148,4297.051270,4309.102539,4335.256348,4396.922852,4319.743652,4304.102539,4461.282227,4507.948730,4308.461426,4401.922852,1678.000000,1.000000,26.000000,,,,0.000000,2.000000,2.000000,0.000000,4.000000,2.000000,2.000000,0.000000,0.000000,4.000000,4.000000,4.000000,4.000000,4.000000,4.000000,0.000000,,,,,,,,,,,,,,,,,,,,,,,,,,,,
1732156838.337708,1732156838.338247,126.000000,0.000000,4303.846191,4265.897461,4324.871582,4327.307617,4309.102539,4309.487305,4333.846191,4396.410156,4306.666504,4300.897461,4463.974121,4507.307617,4308.717773,4406.282227,1516.000000,1.000000,26.000000,,,,0.000000,2.000000,2.000000,0.000000,4.000000,2.000000,2.000000,0.000000,0.000000,4.000000,4.000000,4.000000,4.000000,4.000000,4.000000,0.000000,,,,,,,,,,,,,,,,,,,,,,,,,,,,
1732156838.345516,1732156838.346056,127.000000,0.000000,4309.743652,4266.025879,4321.922852,4323.974121,4326.410156,4290.897461,4334.871582,4397.820313,4293.205078,4292.820313,4462.820313,4505.897461,4311.282227,4405.897461,26.000000,1.000000,26.000000,,,,0.000000,2.000000,2.000000,0.000000,4.000000,2.000000,2.000000,0.000000,0.000000,4.000000,4.000000,4.000000,4.000000,4.000000,4.000000,0.000000,,,,,,,,,,,,,,,,,,,,,,,,,,,,
1732156838.353324,1732156838.353964,0.000000,0.000000,4309.743652,4264.743652,4324.871582,4318.077148,4321.794922,4289.230957,4335.128418,4398.717773,4299.871582,4293.846191,4459.487305,4503.846191,4309.871582,4400.512695,0.000000,1.000000,26.000000,,,,0.000000,2.000000,2.000000,0.000000,4.000000,2.000000,2.000000,0.000000,0.000000,4.000000,4.000000,4.000000,4.000000,4.000000,4.000000,0.000000,,,,,,,,,,,,,,,,,0.000000,0.000000,0.507229,0.455933,-0.576721,0.449707,0.983518,-0.059578,-0.079600,-35.715412,44.482632,31.497280
1732156838.361133,1732156838.361772,1.000000,0.000000,4309.230957,4265.641113,4323.717773,4320.256348,4325.128418,4303.461426,4333.333496,4398.589844,4305.641113,4299.358887,4463.974121,4504.358887,4308.333496,4405.384766,1589.000000,1.000000,26.000000,,,,0.000000,2.000000,2.000000,0.000000,4.000000,2.000000,2.000000,0.000000,0.000000,4.000000,4.000000,4.000000,4.000000,4.000000,4.000000,0.000000,,,,,,,,,,,,,,,,,,,,,,,,,,,,
1732156838.368941,1732156838.369780,2.000000,0.000000,4310.128418,4266.282227,4319.102539,4318.461426,4332.948730,4303.589844,4334.358887,4399.102539,4305.384766,4304.487305,4472.051270,4507.051270,4316.538574,4413.717773,1387.000000,1.000000,26.000000,,,,0.000000,2.000000,2.000000,0.000000,4.000000,2.000000,2.000000,0.000000,0.000000,4.000000,4.000000,4.000000,4.000000,4.000000,4.000000,0.000000,,,,,,,,,,,,,,,,,,,,,,,,,,,,
1732156838.376749,1732156838.377588,3.000000,0.000000,4306.538574,4265.000000,4319.102539,4309.487305,4336.025879,4300.000000,4336.153809,4398.974121,4311.794922,4309.102539,4474.230957,4508.461426,4318.205078,4412.179688,1407.000000,1.000000,26.000000,,,,0.000000,2.000000,2.000000,0.000000,4.000000,2.000000,2.000000,0.000000,0.000000,4.000000,4.000000,4.000000,4.000000,4.000000,4.000000,0.000000,,,,,,,,,,,,,,,,,,,,,,,,,,,,
1732156838.384557,1732156838.385496,4.000000,0.000000,4306.794922,4265.897461,4324.102539,4312.436035,4343.846191,4308.461426,4335.000000,4398.589844,4316.538574,4309.102539,4471.666504,4507.820313,4311.666504,4409.487305,1414.000000,1.000000,26.000000,,,,0.000000,2.000000,2.000000,0.000000,4.000000,2.000000,2.000000,0.000000,0.000000,4.000000,4.000000,4.000000,4.000000,4.000000,4.000000,0.000000,,,,,,,,,,,,,,,,,1.000000,0.000000,0.506726,0.455383,-0.577026,0.450439,0.974728,-0.051764,-0.082041,-35.914486,44.622597,31.436131
1732156838.392365,1732156838.393304,5.000000,0.000000,4314.358887,4268.205078,4323.846191,4324.871582,4332.820313,4315.384766,4334.487305,4396.666504,4311.794922,4310.000000,4473.461426,4509.230957,4317.692383,4413.205078,1225.000000,1.000000,26.000000,,,,0.000000,2.000000,2.000000,0.000000,4.000000,2.000000,2.000000,0.000000,0.000000,4.000000,4.000000,4.000000,4.000000,4.000000,4.000000,0.000000,,,,,,,,,,,,,,,,,,,,,,,,,,,,
1732156838.400174,1732156838.401312,6.000000,0.000000,4307.820313,4265.641113,4317.051270,4321.538574,4309.230957,4308.717773,4335.256348,4394.487305,4310.641113,4311.666504,4473.717773,4509.871582,4320.641113,4411.666504,0.000000,1.000000,26.000000,,,,0.000000,2.000000,2.000000,0.000000,4.000000,2.000000,2.000000,0.000000,0.000000,4.000000,4.000000,4.000000,4.000000,4.000000,4.000000,0.000000,,,,,,,,,,,,,,,,,,,,,,,,,,,,
1732156838.407982,1732156838.409121,7.000000,0.000000,4296.666504,4263.461426,4315.641113,4311.025879,4307.563965,4306.538574,4335.000000,4395.897461,4316.025879,4310.512695,4469.743652,4505.769043,4312.563965,4410.000000,0.000000,1.000000,26.000000,,,,0.000000,2.000000,2.000000,0.000000,4.000000,2.000000,2.000000,0.000000,0.000000,4.000000,4.000000,4.000000,4.000000,4.000000,4.000000,0.000000,,,,,,,,,,,,,,,,,,,,,,,,,,,,
1732156838.415790,1732156838.417029,8.000000,0.000000,4302.436035,4266.410156,4321.538574,4316.538574,4317.820313,4312.051270,4335.000000,4398.974121,4318.717773,4312.820313,4473.077148,4507.820313,4319.230957,4413.461426,1518.000000,1.000000,26.000000,,,,0.000000,2.000000,2.000000,0.000000,4.000000,2.000000,2.000000,0.000000,0.000000,4.000000,4.000000,4.000000,4.000000,4.000000,4.000000,0.000000,,,,,,,,,,,,,,,,,2.000000,0.000000,0.506696,0.455261,-0.577148,0.450439,0.975217,-0.069344,-0.088390,-35.779064,44.490971,31.359932
1732156838.423598,1732156838.424837,9.000000,0.000000,4309.743652,4268.461426,4323.717773,4320.769043,4313.846191,4306.922852,4335.000000,4398.589844,4310.897461,4312.563965,4477.820313,4514.102539,4328.461426,4414.615234,1656.000000,1.000000,26.000000,,,,0.000000,2.000000,2.000000,0.000000,4.000000,2.000000,2.000000,0.000000,0.000000,4.000000,4.000000,4.000000,4.000000,4.000000,4.000000,0.000000,,,,,,,,,,,,,,,,,,,,,,,,,,,,
1732156838.431407,1732156838.432845,10.000000,0.000000,4302.692383,4264.230957,4318.717773,4310.512695,4308.205078,4294.358887,4333.974121,4397.307617,4298.974121,4304.871582,4475.128418,4510.897461,4319.743652,4411.153809,1514.000000,1.000000,26.000000,,,,0.000000,2.000000,2.000000,0.000000,4.000000,2.000000,2.000000,0.000000,0.000000,4.000000,4.000000,4.000000,4.000000,4.000000,4.000000,0.000000,,,,,,,,,,,,,,,,,,,,,,,,,,,,
1732156838.439215,1732156838.440653,11.000000,0.000000,4300.000000,4265.128418,4316.410156,4310.641113,4306.025879,4294.230957,4333.717773,4397.692383,4299.743652,4300.769043,4472.820313,4505.384766,4319.230957,4410.000000,1566.000000,1.000000,26.000000,,,,0.000000,2.000000,2.000000,0.000000,4.000000,2.000000,2.000000,0.000000,0.000000,4.000000,4.000000,4.000000,4.000000,4.000000,4.000000,0.000000,,,,,,,,,,,,,,,,,,,,,,,,,,,,
1732156838.447023,1732156838.448561,12.000000,0.000000,4305.897461,4273.077148,4320.512695,4322.051270,4310.384766,4307.307617,4334.358887,4397.820313,4301.282227,4300.641113,4474.615234,4506.922852,4326.025879,4412.179688,1691.000000,1.000000,26.000000,,,,0.000000,2.000000,2.000000,0.000000,4.000000,2.000000,2.000000,0.000000,0.000000,4.000000,4.000000,4.000000,4.000000,4.000000,4.000000,0.000000,,,,,,,,,,,,,,,,,3.000000,0.000000,0.506738,0.454956,-0.577209,0.450623,0.973752,-0.062508,-0.074228,-35.821045,44.271019,31.196545
1732156838.454831,1732156838.456369,13.000000,0.000000,4306.666504,4274.487305,4324.871582,4323.717773,4328.717773,4307.948730,4335.897461,4397.948730,4296.922852,4297.307617,4473.461426,4507.692383,4320.897461,4411.922852,1678.000000,1.000000,26.000000,,,,0.000000,2.000000,2.000000,0.000000,4.000000,2.000000,2.000000,0.000000,0.000000,4.000000,4.000000,4.000000,4.000000,4.000000,4.000000,0.000000,,,,,,,,,,,,,,,,,,,,,,,,,,,,
1732156838.462640,1732156838.463978,14.000000,0.000000,4302.436035,4269.487305,4323.717773,4320.512695,4321.410156,4300.384766,4336.666504,4399.230957,4302.436035,4297.948730,4471.538574,4504.743652,4320.256348,4411.666504,1514.000000,1.000000,26.000000,,,,0.000000,2.000000,2.000000,0.000000,4.000000,2.000000,2.000000,0.000000,0.000000,4.000000,4.000000,4.000000,4.000000,4.000000,4.000000,0.000000,1.000000,0.000000,2.000000,2.000000,0.000000,4.000000,2.000000,2.000000,0.000000,0.000000,4.000000,3.000000,4.000000,4.000000,4.000000,4.000000,,,,,,,,,,,,
1732156838.470448,1732156838.471786,15.000000,0.000000,4299.743652,4270.384766,4323.077148,4321.666504,4293.589844,4307.563965,4335.769043,4399.487305,4313.205078,4306.666504,4473.461426,4507.051270,4326.666504,4412.051270,1566.000000,1.000000,26.000000,,,,0.000000,2.000000,2.000000,0.000000,4.000000,2.000000,2.000000,0.000000,0.000000,4.000000,4.000000,4.000000,4.000000,4.000000,4.000000,0.000000,,,,,,,,,,,,,,,,,,,,,,,,,,,,
1732156838.478256,1732156838.479494,16.000000,0.000000,4302.307617,4275.000000,4322.820313,4323.077148,4294.230957,4314.743652,4336.153809,4398.333496,4314.615234,4312.948730,4475.000000,4511.282227,4327.051270,4413.077148,0.000000,1.000000,26.000000,,,,0.000000,2.000000,2.000000,0.000000,4.000000,2.000000,2.000000,0.000000,0.000000,4.000000,4.000000,4.000000,4.000000,4.000000,4.000000,0.000000,,,,,,,,,,,,,,,,,4.000000,0.000000,0.506699,0.455017,-0.577148,0.450684,0.975217,-0.043951,-0.065438,-35.861713,44.256191,31.432535
1732156838.486064,1732156838.487303,17.000000,0.000000,4303.717773,4272.692383,4318.846191,4320.128418,4308.589844,4305.769043,4336.282227,4398.333496,4312.051270,4309.615234,4475.897461,4508.974121,4326.282227,4415.512695,0.000000,1.000000,26.000000,,,,0.000000,2.000000,2.000000,0.000000,4.000000,2.000000,2.000000,0.000000,0.000000,4.000000,4.000000,4.000000,4.000000,4.000000,4.000000,0.000000,,,,,,,,,,,,,,,,,,,,,,,,,,,,
1732156838.493873,1732156838.494911,18.000000,0.000000,4298.589844,4269.487305,4318.461426,4315.512695,4303.461426,4302.563965,4335.384766,4399.487305,4313.589844,4302.692383,4472.436035,4506.922852,4323.589844,4413.846191,0.000000,1.000000,26.000000,,,,0.000000,2.000000,2.000000,0.000000,4.000000,2.000000,2.000000,0.000000,0.000000,4.000000,4.000000,4.000000,4.000000,4.000000,4.000000,0.000000,,,,,,,,,,,,,,,,,,,,,,,,,,,,
1732156838.501681,1732156838.502719,19.000000,0.000000,4295.384766,4268.461426,4320.000000,4312.948730,4307.820313,4310.641113,4334.615234,4398.974121,4309.615234,4296.025879,4462.692383,4507.307617,4314.102539,4407.692383,0.000000,1.000000,26.000000,,,,0.000000,2.000000,2.000000,0.000000,4.000000,2.000000,2.000000,0.000000,0.000000,4.000000,4.000000,4.000000,4.000000,4.000000,4.000000,0.000000,,,,,,,,,,,,,,,,,,,,,,,,,,,,
1732156838.509489,1732156838.510627,20.000000,0.000000,4295.000000,4266.538574,4318.846191,4310.128418,4319.871582,4310.256348,4334.871582,4398.846191,4311.153809,4293.589844,4457.948730,4501.666504,4310.128418,4402.692383,0.000000,1.000000,26.000000,,,,0.000000,2.000000,2.000000,0.000000,4.000000,2.000000,2.000000,0.000000,0.000000,4.000000,4.000000,4.000000,4.000000,4.000000,4.000000,0.000000,,,,,,,,,,,,,,,,,5.000000,0.000000,0.506862,0.454895,-0.577148,0.450623,0.971310,-0.071786,-0.065926,-36.031319,44.115849,31.465353
1732156838.517297,1732156838.518436,21.000000,0.000000,4292.692383,4264.487305,4317.563965,4308.077148,4305.128418,4305.769043,4334.358887,4398.333496,4317.179688,4299.871582,4458.333496,4495.897461,4310.256348,4399.230957,0.000000,1.000000,26.000000,,,,0.000000,2.000000,2.000000,0.000000,4.000000,2.000000,2.000000,0.000000,0.000000,4.000000,4.000000,4.000000,4.000000,4.000000,4.000000,0.000000,,,,,,,,,,,,,,,,,,,,,,,,,,,,
1732156838.525106,1732156838.526044,22.000000,0.000000,4291.538574,4266.538574,4317.436035,4310.128418,4287.948730,4309.102539,4334.615234,4398.205078,4316.922852,4305.512695,4458.461426,4500.769043,4308.846191,4396.153809,0.000000,1.000000,26.000000,,,,0.000000,2.000000,2.000000,0.000000,4.000000,2.000000,2.000000,0.000000,0.000000,4.000000,4.000000,4.000000,4.000000,4.000000,4.000000,0.000000,,,,,,,,,,,,,,,,,,,,,,,,,,,,
1732156838.532914,1732156838.533852,23.000000,0.000000,4293.717773,4274.871582,4316.282227,4313.717773,4300.256348,4311.410156,4335.384766,4398.717773,4311.410156,4301.282227,4464.743652,4507.051270,4315.000000,4400.512695,0.000000,1.000000,26.000000,,,,0.000000,2.000000,2.000000,0.000000,4.000000,2.000000,2.000000,0.000000,0.000000,4.000000,4.000000,4.000000,4.000000,4.000000,4.000000,0.000000,,,,,,,,,,,,,,,,,,,,,,,,,,,,
1732156838.540722,1732156838.541760,24.000000,0.000000,4292.179688,4280.512695,4316.025879,4311.794922,4320.512695,4304.102539,4334.615234,4398.461426,4303.333496,4293.974121,4470.000000,4506.794922,4319.487305,4405.512695,0.000000,1.000000,26.000000,,,,0.000000,2.000000,2.000000,0.000000,4.000000,2.000000,2.000000,0.000000,0.000000,4.000000,4.000000,4.000000,4.000000,4.000000,4.000000,0.000000,,,,,,,,,,,,,,,,,6.000000,0.000000,0.506729,0.455017,-0.577026,0.450806,0.982542,-0.060066,-0.066903,-35.898701,44.252171,31.250269
1732156838.548530,1732156838.549568,25.000000,0.000000,4288.846191,4280.897461,4315.641113,4312.179688,4314.487305,4298.974121,4334.487305,4398.077148,4305.641113,4296.153809,4464.871582,4505.641113,4313.333496,4400.897461,0.000000,1.000000,26.000000,,,,0.000000,2.000000,2.000000,0.000000,4.000000,2.000000,2.000000,0.000000,0.000000,4.000000,4.000000,4.000000,4.000000,4.000000,4.000000,0.000000,,,,,,,,,,,,,,,,,,,,,,,,,,,,
1732156838.556338,1732156838.557177,26.000000,0.000000,4289.230957,4279.358887,4317.307617,4314.871582,4294.230957,4299.743652,4334.871582,4399.487305,4316.410156,4303.846191,4461.794922,4506.282227,4312.692383,4397.179688,0.000000,1.000000,26.000000,,,,0.000000,2.000000,2.000000,0.000000,4.000000,2.000000,2.000000,0.000000,0.000000,4.000000,4.000000,4.000000,4.000000,4.000000,4.000000,0.000000,,,,,,,,,,,,,,,,,,,,,,,,,,,,
1732156838.564147,1732156838.564985,27.000000,0.000000,4291.794922,4279.615234,4320.000000,4314.358887,4291.666504,4298.589844,4335.512695,4399.615234,4316.794922,4305.384766,4465.128418,4505.641113,4322.436035,4400.512695,0.000000,1.000000,26.000000,,,,0.000000,2.000000,2.000000,0.000000,4.000000,2.000000,2.000000,0.000000,0.000000,4.000000,4.000000,4.000000,4.000000,4.000000,4.000000,0.000000,,,,,,,,,,,,,,,,,,,,,,,,,,,,
1732156838.571955,1732156838.572693,28.000000,0.000000,4291.922852,4278.077148,4318.846191,4314.102539,4304.102539,4296.538574,4335.384766,4398.205078,4305.512695,4297.563965,4463.205078,4506.282227,4321.666504,4400.384766,0.000000,1.000000,26.000000,,,,0.000000,2.000000,2.000000,0.000000,4.000000,2.000000,2.000000,0.000000,0.000000,4.000000,4.000000,4.000000,4.000000,4.000000,4.000000,0.000000,,,,,,,,,,,,,,,,,7.000000,0.000000,0.507051,0.454651,-0.577271,0.450500,0.969845,-0.057136,-0.077646,-35.862949,44.465927,31.467718
1732156838.579763,1732156838.580502,29.000000,0.000000,4290.512695,4276.282227,4317.820313,4313.205078,4305.769043,4298.974121,4335.384766,4398.589844,4303.589844,4291.410156,4457.948730,4505.897461,4310.256348,4396.794922,0.000000,1.000000,26.000000,,,,0.000000,2.000000,2.000000,0.000000,4.000000,2.000000,2.000000,0.000000,0.000000,4.000000,4.000000,4.000000,4.000000,4.000000,4.000000,0.000000,,,,,,,,,,,,,,,,,,,,,,,,,,,,
1732156838.587572,1732156838.588110,30.000000,0.000000,4297.051270,4278.077148,4320.256348,4313.974121,4297.563965,4301.538574,4335.256348,4399.871582,4313.461426,4294.358887,4458.205078,4504.871582,4311.666504,4398.589844,0.000000,1.000000,26.000000,,,,0.000000,2.000000,2.000000,0.000000,4.000000,2.000000,2.000000,0.000000,0.000000,4.000000,4.000000,4.000000,4.000000,4.000000,4.000000,0.000000,,,,,,,,,,,,,,,,,,,,,,,,,,,,
1732156838.595380,1732156838.595918,31.000000,0.000000,4299.102539,4278.846191,4319.230957,4314.871582,4309.230957,4297.563965,4334.743652,4399.743652,4311.922852,4294.615234,4459.615234,4505.897461,4320.641113,4399.743652,0.000000,1.000000,26.000000,,,,0.000000,2.000000,2.000000,0.000000,4.000000,2.000000,2.000000,0.000000,0.000000,4.000000,4.000000,4.000000,4.000000,4.000000,4.000000,0.000000,,,,,,,,,,,,,,,,,,,,,,,,,,,,
1732156838.603188,1732156838.603627,32.000000,0.000000,4288.077148,4277.307617,4316.282227,4312.948730,4317.948730,4295.512695,4335.384766,4397.563965,4298.461426,4291.410156,4458.717773,4504.487305,4317.436035,4396.282227,0.000000,1.000000,26.000000,,,,0.000000,2.000000,2.000000,0.000000,4.000000,2.000000,2.000000,0.000000,0.000000,4.000000,4.000000,4.000000,4.000000,4.000000,4.000000,0.000000,,,,,,,,,,,,,,,,,8.000000,0.000000,0.506957,0.454712,-0.577209,0.450623,0.983030,-0.050299,-0.084483,-35.800655,44.655731,31.377186
1732156838.610996,1732156838.611435,33.000000,0.000000,4282.436035,4277.307617,4315.769043,4310.512695,4299.615234,4299.871582,4337.948730,4396.282227,4294.743652,4293.846191,4458.333496,4503.846191,4309.615234,4395.769043,0.000000,1.000000,26.000000,,,,0.000000,2.000000,2.000000,0.000000,4.000000,2.000000,2.000000,0.000000,0.000000,4.000000,4.000000,4.000000,4.000000,4.000000,4.000000,0.000000,,,,,,,,,,,,,,,,,,,,,,,,,,,,
1732156838.618804,1732156838.619043,34.000000,0.000000,4285.256348,4278.077148,4317.436035,4310.512695,4287.436035,4301.410156,4338.461426,4397.436035,4305.641113,4296.410156,4459.358887,4505.256348,4313.461426,4395.512695,0.000000,1.000000,26.000000,,,,0.000000,2.000000,2.000000,0.000000,4.000000,2.000000,2.000000,0.000000,0.000000,4.000000,4.000000,4.000000,4.000000,4.000000,4.000000,0.000000,,,,,,,,,,,,,,,,,,,,,,,,,,,,
1732156838.626613,1732156838.626851,35.000000,0.000000,4284.487305,4276.794922,4317.820313,4310.769043,4293.846191,4297.436035,4338.077148,4398.077148,4312.692383,4296.538574,4460.256348,4501.410156,4320.512695,4394.358887,0.000000,1.000000,26.000000,,,,0.000000,2.000000,2.000000,0.000000,4.000000,2.000000,2.000000,0.000000,0.000000,4.000000,4.000000,4.000000,4.000000,4.000000,4.000000,0.000000,,,,,,,,,,,,,,,,,,,,,,,,,,,,
1732156838.634421,1732156838.634759,36.000000,0.000000,4283.846191,4276.282227,4315.256348,4310.512695,4299.102539,4297.692383,4337.948730,4398.077148,4316.153809,4299.487305,4460.769043,4498.205078,4319.358887,4396.153809,0.000000,1.000000,26.000000,,,,0.000000,2.000000,2.000000,0.000000,4.000000,2.000000,2.000000,0.000000,0.000000,4.000000,4.000000,4.000000,4.000000,4.000000,4.000000,0.000000,,,,,,,,,,,,,,,,,9.000000,0.000000,0.506903,0.454712,-0.577209,0.450684,0.991332,-0.059089,-0.083018,-35.788532,44.416145,31.488853
1732156838.642229,1732156838.642568,37.000000,0.000000,4290.256348,4279.615234,4315.384766,4311.922852,4306.794922,4298.333496,4335.256348,4397.436035,4319.487305,4301.153809,4462.051270,4498.077148,4317.563965,4393.846191,0.000000,1.000000,26.000000,,,,0.000000,2.000000,2.000000,0.000000,4.000000,2.000000,2.000000,0.000000,0.000000,4.000000,4.000000,4.000000,4.000000,4.000000,4.000000,0.000000,,,,,,,,,,,,,,,,,,,,,,,,,,,,
1732156838.650037,1732156838.650576,38.000000,0.000000,4296.794922,4282.563965,4321.153809,4310.641113,4310.897461,4295.641113,4332.948730,4397.820313,4313.717773,4296.538574,4461.282227,4500.512695,4318.846191,4389.615234,0.000000,1.000000,26.000000,,,,0.000000,2.000000,2.000000,0.000000,4.000000,2.000000,2.000000,0.000000,0.000000,4.000000,4.000000,4.000000,4.000000,4.000000,4.000000,0.000000,,,,,,,,,,,,,,,,,,,,,,,,,,,,
1732156838.657846,1732156838.658384,39.000000,0.000000,4295.897461,4281.666504,4320.128418,4308.846191,4293.846191,4298.461426,4334.230957,4398.846191,4310.512695,4293.333496,4459.230957,4500.128418,4316.410156,4391.666504,0.000000,1.000000,26.000000,,,,0.000000,2.000000,2.000000,0.000000,4.000000,2.000000,2.000000,0.000000,0.000000,4.000000,4.000000,4.000000,4.000000,4.000000,4.000000,0.000000,,,,,,,,,,,,,,,,,,,,,,,,,,,,
1732156838.665654,1732156838.666292,40.000000,0.000000,4290.000000,4280.641113,4315.641113,4309.358887,4285.128418,4302.563965,4336.025879,4398.974121,4310.000000,4294.230957,4460.641113,4495.641113,4314.615234,4393.461426,0.000000,1.000000,26.000000,,,,0.000000,2.000000,2.000000,0.000000,4.000000,2.000000,2.000000,0.000000,0.000000,4.000000,4.000000,4.000000,4.000000,4.000000,4.000000,0.000000,,,,,,,,,,,,,,,,,10.000000,0.000000,0.506824,0.454834,-0.577087,0.450806,0.983030,-0.066903,-0.076181,-35.998711,44.488743,31.395971
1732156838.673462,1732156838.674100,41.000000,0.000000,4289.487305,4281.794922,4316.666504,4309.871582,4307.820313,4297.692383,4336.153809,4397.307617,4301.153809,4293.974121,4460.384766,4490.384766,4319.615234,4392.307617,0.000000,1.000000,26.000000,,,,0.000000,2.000000,2.000000,0.000000,4.000000,2.000000,2.000000,0.000000,0.000000,4.000000,4.000000,4.000000,4.000000,4.000000,4.000000,0.000000,,,,,,,,,,,,,,,,,,,,,,,,,,,,
1732156838.681270,1732156838.682108,42.000000,0.000000,4295.128418,4283.461426,4316.666504,4310.512695,4319.358887,4297.436035,4336.153809,4397.820313,4302.563965,4296.538574,4461.538574,4496.282227,4323.717773,4394.102539,0.000000,1.000000,26.000000,,,,0.000000,2.000000,2.000000,0.000000,4.000000,2.000000,2.000000,0.000000,0.000000,4.000000,4.000000,4.000000,4.000000,4.000000,4.000000,0.000000,,,,,,,,,,,,,,,,,,,,,,,,,,,,
1732156838.689079,1732156838.689916,43.000000,0.000000,4293.974121,4282.051270,4314.743652,4313.077148,4301.282227,4302.307617,4335.641113,4399.743652,4315.769043,4304.615234,4469.358887,4506.794922,4325.000000,4396.922852,0.000000,1.000000,26.000000,,,,0.000000,2.000000,2.000000,0.000000,4.000000,2.000000,2.000000,0.000000,0.000000,4.000000,4.000000,4.000000,4.000000,4.000000,4.000000,0.000000,,,,,,,,,,,,,,,,,,,,,,,,,,,,
1732156838.696887,1732156838.697825,44.000000,0.000000,4293.589844,4281.794922,4316.922852,4315.000000,4287.179688,4298.846191,4335.641113,4397.692383,4311.666504,4304.871582,4469.615234,4504.743652,4325.641113,4395.384766,0.000000,1.000000,26.000000,,,,0.000000,2.000000,2.000000,0.000000,4.000000,2.000000,2.000000,0.000000,0.000000,4.000000,4.000000,4.000000,4.000000,4.000000,4.000000,0.000000,,,,,,,,,,,,,,,,,11.000000,0.000000,0.506770,0.454834,-0.577087,0.450867,0.969357,-0.054206,-0.068856,-36.182289,44.510883,31.270737
1732156838.704695,1732156838.705633,45.000000,0.000000,4294.358887,4281.922852,4317.820313,4310.000000,4295.000000,4294.743652,4336.153809,4395.769043,4303.846191,4297.820313,4460.000000,4500.000000,4323.205078,4390.641113,0.000000,1.000000,26.000000,,,,0.000000,2.000000,2.000000,0.000000,4.000000,2.000000,2.000000,0.000000,0.000000,4.000000,4.000000,4.000000,4.000000,4.000000,4.000000,0.000000,,,,,,,,,,,,,,,,,,,,,,,,,,,,
1732156838.712503,1732156838.713641,46.000000,0.000000,4286.666504,4278.589844,4315.897461,4308.333496,4297.436035,4295.897461,4334.743652,4398.205078,4309.487305,4299.358887,4459.615234,4497.563965,4318.077148,4383.974121,0.000000,1.000000,26.000000,,,,0.000000,2.000000,2.000000,0.000000,4.000000,2.000000,2.000000,0.000000,0.000000,4.000000,4.000000,4.000000,4.000000,4.000000,4.000000,0.000000,,,,,,,,,,,,,,,,,,,,,,,,,,,,
1732156838.720312,1732156838.721449,47.000000,0.000000,4279.487305,4276.282227,4316.666504,4310.512695,4289.102539,4294.358887,4333.461426,4399.102539,4306.153809,4305.128418,4466.538574,4498.974121,4317.820313,4382.948730,0.000000,1.000000,26.000000,,,,0.000000,2.000000,2.000000,0.000000,4.000000,2.000000,2.000000,0.000000,0.000000,4.000000,4.000000,4.000000,4.000000,4.000000,4.000000,0.000000,,,,,,,,,,,,,,,,,,,,,,,,,,,,
1732156838.728120,1732156838.729357,48.000000,0.000000,4282.948730,4277.948730,4317.179688,4305.000000,4301.666504,4290.512695,4333.846191,4397.436035,4295.641113,4301.025879,4464.871582,4499.871582,4323.333496,4387.692383,0.000000,1.000000,26.000000,,,,0.000000,2.000000,2.000000,0.000000,4.000000,2.000000,2.000000,0.000000,0.000000,4.000000,4.000000,4.000000,4.000000,4.000000,4.000000,0.000000,,,,,,,,,,,,,,,,,12.000000,0.000000,0.506527,0.455017,-0.576965,0.451111,0.971798,-0.060554,-0.083506,-36.197655,44.495480,31.169296
1732156838.735928,1732156838.737165,49.000000,0.000000,4286.410156,4278.846191,4316.922852,4303.846191,4309.615234,4292.436035,4334.871582,4397.692383,4298.846191,4293.461426,4459.743652,4498.461426,4327.051270,4389.743652,0.000000,1.000000,26.000000,,,,0.000000,2.000000,2.000000,0.000000,4.000000,2.000000,2.000000,0.000000,0.000000,4.000000,4.000000,4.000000,4.000000,4.000000,4.000000,0.000000,,,,,,,,,,,,,,,,,,,,,,,,,,,,
1732156838.743736,1732156838.745173,50.000000,0.000000,4283.717773,4275.769043,4316.538574,4310.512695,4291.153809,4298.589844,4337.179688,4397.563965,4306.666504,4294.487305,4458.974121,4501.025879,4326.025879,4390.384766,0.000000,1.000000,26.000000,,,,0.000000,2.000000,2.000000,0.000000,4.000000,2.000000,2.000000,0.000000,0.000000,4.000000,4.000000,4.000000,4.000000,4.000000,4.000000,0.000000,,,,,,,,,,,,,,,,,,,,,,,,,,,,
1732156838.751545,1732156838.752981,51.000000,0.000000,4279.615234,4276.538574,4314.487305,4309.743652,4278.333496,4301.153809,4337.948730,4397.820313,4311.666504,4302.179688,4465.128418,4504.615234,4325.000000,4392.563965,0.000000,1.000000,26.000000,,,,0.000000,2.000000,2.000000,0.000000,4.000000,2.000000,2.000000,0.000000,0.000000,4.000000,4.000000,4.000000,4.000000,4.000000,4.000000,0.000000,,,,,,,,,,,,,,,,,,,,,,,,,,,,
1732156838.759353,1732156838.760890,52.000000,0.000000,4281.794922,4277.692383,4315.512695,4306.922852,4288.974121,4298.333496,4335.641113,4398.974121,4313.589844,4305.512695,4471.153809,4506.794922,4328.077148,4395.897461,0.000000,1.000000,26.000000,,,,0.000000,2.000000,2.000000,0.000000,4.000000,2.000000,2.000000,0.000000,0.000000,4.000000,4.000000,4.000000,4.000000,4.000000,4.000000,0.000000,,,,,,,,,,,,,,,,,13.000000,0.000000,0.506537,0.454895,-0.577148,0.450989,0.971798,-0.060554,-0.083506,-36.413433,44.591339,31.517130
1732156838.767161,1732156838.768698,53.000000,0.000000,4287.436035,4272.436035,4318.333496,4307.436035,4306.282227,4294.615234,4334.102539,4397.820313,4302.563965,4298.846191,4467.051270,4505.641113,4329.102539,4398.461426,0.000000,1.000000,26.000000,,,,0.000000,2.000000,2.000000,0.000000,4.000000,2.000000,2.000000,0.000000,0.000000,4.000000,4.000000,4.000000,4.000000,4.000000,4.000000,0.000000,,,,,,,,,,,,,,,,,,,,,,,,,,,,
1732156838.774969,1732156838.776706,54.000000,0.000000,4283.974121,4267.948730,4317.436035,4303.205078,4301.025879,4295.128418,4335.641113,4397.051270,4294.230957,4292.563965,4460.256348,4506.025879,4325.128418,4396.025879,0.000000,1.000000,26.000000,,,,0.000000,2.000000,2.000000,0.000000,4.000000,2.000000,2.000000,0.000000,0.000000,4.000000,4.000000,4.000000,4.000000,4.000000,4.000000,0.000000,,,,,,,,,,,,,,,,,,,,,,,,,,,,
1732156838.782777,1732156838.784514,55.000000,0.000000,4280.897461,4269.230957,4315.897461,4298.846191,4283.333496,4296.922852,4335.256348,4396.922852,4304.358887,4295.384766,4461.410156,4506.025879,4325.256348,4394.102539,0.000000,1.000000,26.000000,,,,0.000000,2.000000,2.000000,0.000000,4.000000,2.000000,2.000000,0.000000,0.000000,4.000000,4.000000,4.000000,4.000000,4.000000,4.000000,0.000000,,,,,,,,,,,,,,,,,,,,,,,,,,,,
1732156838.790586,1732156838.792222,56.000000,0.000000,4286.538574,4275.384766,4315.641113,4306.153809,4283.974121,4297.051270,4334.230957,4396.666504,4314.358887,4298.717773,4468.717773,4507.692383,4327.820313,4398.205078,0.000000,1.000000,26.000000,,,,0.000000,2.000000,2.000000,0.000000,4.000000,2.000000,2.000000,0.000000,0.000000,4.000000,4.000000,4.000000,4.000000,4.000000,4.000000,0.000000,,,,,,,,,,,,,,,,,14.000000,0.000000,0.506149,0.455017,-0.577393,0.450989,0.971798,-0.069344,-0.082530,-36.339882,44.638985,31.482208
1732156838.798394,1732156838.800031,57.000000,0.000000,4284.615234,4279.487305,4314.358887,4310.897461,4297.307617,4297.179688,4335.512695,4398.205078,4313.333496,4296.922852,4472.307617,4507.692383,4327.436035,4399.487305,0.000000,1.000000,26.000000,,,,0.000000,2.000000,2.000000,0.000000,4.000000,2.000000,2.000000,0.000000,0.000000,4.000000,4.000000,4.000000,4.000000,4.000000,4.000000,0.000000,,,,,,,,,,,,,,,,,,,,,,,,,,,,
1732156838.806202,1732156838.807639,58.000000,0.000000,4281.025879,4278.077148,4314.487305,4305.769043,4299.358887,4296.922852,4335.897461,4398.589844,4304.743652,4295.641113,4467.436035,4505.000000,4326.794922,4395.897461,0.000000,1.000000,26.000000,,,,0.000000,2.000000,2.000000,0.000000,4.000000,2.000000,2.000000,0.000000,0.000000,4.000000,4.000000,4.000000,4.000000,4.000000,4.000000,0.000000,,,,,,,,,,,,,,,,,,,,,,,,,,,,
1732156838.814011,1732156838.815447,59.000000,0.000000,4286.666504,4276.666504,4316.922852,4303.974121,4293.333496,4297.179688,4335.512695,4397.179688,4296.922852,4293.461426,4460.384766,4505.128418,4327.820313,4397.563965,0.000000,1.000000,26.000000,,,,0.000000,2.000000,2.000000,0.000000,4.000000,2.000000,2.000000,0.000000,0.000000,4.000000,4.000000,4.000000,4.000000,4.000000,4.000000,0.000000,,,,,,,,,,,,,,,,,,,,,,,,,,,,
1732156838.821819,1732156838.823155,60.000000,0.000000,4287.307617,4278.717773,4317.563965,4306.794922,4295.256348,4298.077148,4336.282227,4398.461426,4300.897461,4289.743652,4461.153809,4504.743652,4325.769043,4400.256348,0.000000,1.000000,26.000000,,,,0.000000,2.000000,2.000000,0.000000,4.000000,2.000000,2.000000,0.000000,0.000000,4.000000,4.000000,4.000000,4.000000,4.000000,4.000000,0.000000,,,,,,,,,,,,,,,,,15.000000,0.000000,0.505722,0.455017,-0.577576,0.451233,0.975705,-0.071298,-0.083018,-36.320305,44.757576,31.370588
1732156838.829627,1732156838.830964,61.000000,0.000000,4279.615234,4278.077148,4317.051270,4305.384766,4307.563965,4299.230957,4336.538574,4399.358887,4310.512695,4290.128418,4462.436035,4500.897461,4325.512695,4396.922852,0.000000,1.000000,26.000000,,,,0.000000,2.000000,2.000000,0.000000,4.000000,2.000000,2.000000,0.000000,0.000000,4.000000,4.000000,4.000000,4.000000,4.000000,4.000000,0.000000,,,,,,,,,,,,,,,,,,,,,,,,,,,,
1732156838.837435,1732156838.838572,62.000000,0.000000,4281.666504,4274.743652,4317.820313,4301.282227,4310.384766,4297.436035,4335.512695,4397.179688,4311.282227,4296.025879,4462.436035,4497.436035,4332.179688,4396.282227,0.000000,1.000000,26.000000,,,,0.000000,2.000000,2.000000,0.000000,4.000000,2.000000,2.000000,0.000000,0.000000,4.000000,4.000000,4.000000,4.000000,4.000000,4.000000,0.000000,,,,,,,,,,,,,,,,,,,,,,,,,,,,
1732156838.845243,1732156838.846380,63.000000,0.000000,4286.922852,4278.205078,4316.025879,4305.641113,4288.205078,4294.871582,4334.871582,4396.922852,4310.128418,4297.948730,4467.179688,4501.922852,4332.436035,4399.487305,0.000000,1.000000,26.000000,,,,0.000000,2.000000,2.000000,0.000000,4.000000,2.000000,2.000000,0.000000,0.000000,4.000000,4.000000,4.000000,4.000000,4.000000,4.000000,0.000000,,,,,,,,,,,,,,,,,,,,,,,,,,,,
1732156838.853052,1732156838.854089,64.000000,0.000000,4286.922852,4282.563965,4314.871582,4311.282227,4273.461426,4295.128418,4335.256348,4398.077148,4311.282227,4292.307617,4466.666504,4507.948730,4328.205078,4398.077148,0.000000,1.000000,26.000000,,,,0.000000,2.000000,2.000000,0.000000,4.000000,2.000000,2.000000,0.000000,0.000000,4.000000,4.000000,4.000000,4.000000,4.000000,4.000000,0.000000,,,,,,,,,,,,,,,,,16.000000,0.000000,0.505643,0.455139,-0.577454,0.451355,0.986449,-0.051276,-0.075204,-36.272778,44.770306,31.300177
1732156838.860860,1732156838.861897,65.000000,0.000000,4288.974121,4281.666504,4315.897461,4309.871582,4284.743652,4298.589844,4335.512695,4397.948730,4307.948730,4293.846191,4463.589844,4503.333496,4331.794922,4396.538574,1589.000000,1.000000,26.000000,,,,0.000000,2.000000,2.000000,0.000000,4.000000,2.000000,2.000000,0.000000,0.000000,4.000000,4.000000,4.000000,4.000000,4.000000,4.000000,0.000000,,,,,,,,,,,,,,,,,,,,,,,,,,,,
