title:3one, start timestamp:1732156900.733420, stop timestamp:1732156959.482636, headset type:EPOCX, headset serial:E5020C3A, headset firmware:730, channels:67, sampling rate:eeg_128;mot_32, samples:7525      , version:2.2, 
Timestamp,OriginalTimestamp,EEG.Counter,EEG.Interpolated,EEG.AF3,EEG.F7,EEG.F3,EEG.FC5,EEG.T7,EEG.P7,EEG.O1,EEG.O2,EEG.P8,EEG.T8,EEG.FC6,EEG.F4,EEG.F8,EEG.AF4,EEG.RawCq,EEG.Battery,EEG.BatteryPercent,MarkerIndex,MarkerType,MarkerValueInt,EEG.MarkerHardware,CQ.AF3,CQ.F7,CQ.F3,CQ.FC5,CQ.T7,CQ.P7,CQ.O1,CQ.O2,CQ.P8,CQ.T8,CQ.FC6,CQ.F4,CQ.F8,CQ.AF4,CQ.Overall,EQ.SampleRateQuality,EQ.OVERALL,EQ.AF3,EQ.F7,EQ.F3,EQ.FC5,EQ.T7,EQ.P7,EQ.O1,EQ.O2,EQ.P8,EQ.T8,EQ.FC6,EQ.F4,EQ.F8,EQ.AF4,MOT.CounterMems,MOT.InterpolatedMems,MOT.Q0,MOT.Q1,MOT.Q2,MOT.Q3,MOT.AccX,MOT.AccY,MOT.AccZ,MOT.MagX,MOT.MagY,MOT.MagZ
1732156900.733420,1732156900.735841,53.000000,0.000000,4282.563965,4249.743652,4311.922852,4275.897461,4271.410156,4281.410156,4334.230957,4395.384766,4304.743652,4298.589844,4488.205078,4498.077148,4366.922852,4421.666504,0.000000,1.000000,26.000000,,,,0.000000,2.000000,2.000000,0.000000,4.000000,2.000000,2.000000,0.000000,0.000000,4.000000,4.000000,4.000000,4.000000,4.000000,4.000000,0.000000,,,,,,,,,,,,,,,,,,,,,,,,,,,,
1732156900.741229,1732156900.743449,54.000000,0.000000,4283.461426,4249.871582,4311.538574,4276.410156,4287.436035,4280.512695,4335.256348,4394.615234,4299.358887,4293.589844,4487.307617,4503.333496,4370.256348,4423.333496,0.000000,1.000000,26.000000,,,,0.000000,2.000000,2.000000,0.000000,4.000000,2.000000,2.000000,0.000000,0.000000,4.000000,4.000000,4.000000,4.000000,4.000000,4.000000,0.000000,,,,,,,,,,,,,,,,,,,,,,,,,,,,
1732156900.749037,1732156900.751257,55.000000,0.000000,4286.153809,4250.384766,4316.922852,4278.077148,4292.436035,4279.487305,4331.153809,4396.153809,4300.000000,4295.256348,4486.153809,4507.179688,4371.025879,4426.794922,0.000000,1.000000,26.000000,,,,0.000000,2.000000,2.000000,0.000000,4.000000,2.000000,2.000000,0.000000,0.000000,4.000000,4.000000,4.000000,4.000000,4.000000,4.000000,0.000000,,,,,,,,,,,,,,,,,,,,,,,,,,,,
1732156900.756845,1732156900.758966,56.000000,0.000000,4292.051270,4250.897461,4317.051270,4280.000000,4268.461426,4280.641113,4329.615234,4396.538574,4305.897461,4304.487305,4491.153809,4505.512695,4375.256348,4427.179688,0.000000,1.000000,26.000000,,,,0.000000,2.000000,2.000000,0.000000,4.000000,2.000000,2.000000,0.000000,0.000000,4.000000,4.000000,4.000000,4.000000,4.000000,4.000000,0.000000,,,,,,,,,,,,,,,,,14.000000,0.000000,0.519137,0.478821,-0.555847,0.438477,0.958125,0.022464,-0.075204,-35.288803,45.833981,31.003675
1732156900.764653,1732156900.766774,57.000000,0.000000,4293.974121,4250.256348,4312.179688,4280.897461,4259.358887,4281.666504,4335.256348,4396.153809,4305.641113,4307.948730,4496.025879,4505.641113,4379.358887,4427.820313,0.000000,1.000000,26.000000,,,,0.000000,2.000000,2.000000,0.000000,4.000000,2.000000,2.000000,0.000000,0.000000,4.000000,4.000000,4.000000,4.000000,4.000000,4.000000,0.000000,,,,,,,,,,,,,,,,,,,,,,,,,,,,
1732156900.772462,1732156900.774382,58.000000,0.000000,4286.922852,4249.358887,4309.487305,4278.205078,4274.102539,4282.563965,4337.307617,4396.410156,4306.794922,4307.692383,4494.358887,4506.282227,4376.538574,4425.384766,0.000000,1.000000,26.000000,,,,0.000000,2.000000,2.000000,0.000000,4.000000,2.000000,2.000000,0.000000,0.000000,4.000000,4.000000,4.000000,4.000000,4.000000,4.000000,0.000000,,,,,,,,,,,,,,,,,,,,,,,,,,,,
1732156900.780270,1732156900.782191,59.000000,0.000000,4279.743652,4249.615234,4309.487305,4277.179688,4281.794922,4283.077148,4334.358887,4396.538574,4311.025879,4305.512695,4490.769043,4504.487305,4372.436035,4420.128418,0.000000,1.000000,26.000000,,,,0.000000,2.000000,2.000000,0.000000,4.000000,2.000000,2.000000,0.000000,0.000000,4.000000,4.000000,4.000000,4.000000,4.000000,4.000000,0.000000,,,,,,,,,,,,,,,,,,,,,,,,,,,,
1732156900.788078,1732156900.789899,60.000000,0.000000,4279.358887,4251.410156,4311.282227,4279.871582,4277.948730,4282.307617,4334.358887,4396.410156,4309.487305,4303.974121,4491.794922,4503.846191,4372.563965,4417.563965,0.000000,1.000000,26.000000,,,,0.000000,2.000000,2.000000,0.000000,4.000000,2.000000,2.000000,0.000000,0.000000,4.000000,4.000000,4.000000,4.000000,4.000000,4.000000,0.000000,,,,,,,,,,,,,,,,,15.000000,0.000000,0.519584,0.478943,-0.555420,0.438354,0.982053,0.017580,-0.074716,-35.355598,45.622192,31.017977
1732156900.795886,1732156900.797707,61.000000,0.000000,4279.230957,4248.717773,4312.307617,4277.948730,4279.871582,4282.307617,4332.692383,4396.410156,4308.717773,4309.871582,4492.948730,4503.717773,4372.948730,4413.717773,0.000000,1.000000,26.000000,,,,0.000000,2.000000,2.000000,0.000000,4.000000,2.000000,2.000000,0.000000,0.000000,4.000000,4.000000,4.000000,4.000000,4.000000,4.000000,0.000000,,,,,,,,,,,,,,,,,,,,,,,,,,,,
1732156900.803695,1732156900.805316,62.000000,0.000000,4278.846191,4248.846191,4310.769043,4278.589844,4281.153809,4283.717773,4330.897461,4396.410156,4312.820313,4312.692383,4489.487305,4504.358887,4372.948730,4413.846191,0.000000,1.000000,26.000000,,,,0.000000,2.000000,2.000000,0.000000,4.000000,2.000000,2.000000,0.000000,0.000000,4.000000,4.000000,4.000000,4.000000,4.000000,4.000000,0.000000,,,,,,,,,,,,,,,,,,,,,,,,,,,,
1732156900.811503,1732156900.813124,63.000000,0.000000,4283.333496,4256.666504,4312.563965,4286.025879,4276.025879,4282.436035,4332.436035,4396.410156,4307.692383,4302.051270,4487.436035,4505.512695,4369.230957,4421.538574,0.000000,1.000000,26.000000,,,,0.000000,2.000000,2.000000,0.000000,4.000000,2.000000,2.000000,0.000000,0.000000,4.000000,4.000000,4.000000,4.000000,4.000000,4.000000,0.000000,,,,,,,,,,,,,,,,,,,,,,,,,,,,
1732156900.819311,1732156900.820832,64.000000,0.000000,4284.358887,4259.358887,4314.871582,4287.820313,4282.563965,4280.000000,4331.282227,4396.410156,4293.333496,4290.897461,4489.743652,4506.025879,4367.179688,4428.077148,0.000000,1.000000,26.000000,,,,0.000000,2.000000,2.000000,0.000000,4.000000,2.000000,2.000000,0.000000,0.000000,4.000000,4.000000,4.000000,4.000000,4.000000,4.000000,0.000000,,,,,,,,,,,,,,,,,16.000000,0.000000,0.519584,0.478943,-0.555420,0.438354,0.984007,0.033207,-0.073739,-35.349701,45.465641,31.089561
1732156900.827119,1732156900.828640,65.000000,0.000000,4282.692383,4251.410156,4311.410156,4280.128418,4288.589844,4280.512695,4330.384766,4396.410156,4293.717773,4292.436035,4491.410156,4504.743652,4377.436035,4428.461426,1589.000000,1.000000,26.000000,,,,0.000000,2.000000,2.000000,0.000000,4.000000,2.000000,2.000000,0.000000,0.000000,4.000000,4.000000,4.000000,4.000000,4.000000,4.000000,0.000000,,,,,,,,,,,,,,,,,,,,,,,,,,,,
1732156900.834928,1732156900.836648,66.000000,0.000000,4285.256348,4246.922852,4310.256348,4279.871582,4270.897461,4281.666504,4335.128418,4396.538574,4307.820313,4296.153809,4489.358887,4503.077148,4382.307617,4427.563965,1394.000000,1.000000,26.000000,,,,0.000000,2.000000,2.000000,0.000000,4.000000,2.000000,2.000000,0.000000,0.000000,4.000000,4.000000,4.000000,4.000000,4.000000,4.000000,0.000000,,,,,,,,,,,,,,,,,,,,,,,,,,,,
1732156900.842736,1732156900.844456,67.000000,0.000000,4290.000000,4255.769043,4312.307617,4289.615234,4260.000000,4282.307617,4336.153809,4396.922852,4307.820313,4295.641113,4490.000000,4506.282227,4375.000000,4429.743652,1411.000000,1.000000,26.000000,,,,0.000000,2.000000,2.000000,0.000000,4.000000,2.000000,2.000000,0.000000,0.000000,4.000000,4.000000,4.000000,4.000000,4.000000,4.000000,0.000000,,,,,,,,,,,,,,,,,,,,,,,,,,,,
1732156900.850544,1732156900.852365,68.000000,0.000000,4291.410156,4264.615234,4308.333496,4295.128418,4278.717773,4282.692383,4330.641113,4395.897461,4295.512695,4293.077148,4492.948730,4508.205078,4373.205078,4429.743652,1409.000000,1.000000,26.000000,,,,0.000000,2.000000,2.000000,0.000000,4.000000,2.000000,2.000000,0.000000,0.000000,4.000000,4.000000,4.000000,4.000000,4.000000,4.000000,0.000000,,,,,,,,,,,,,,,,,17.000000,0.000000,0.520828,0.480591,-0.553406,0.437622,0.979612,0.072274,-0.076670,-35.518257,45.610504,31.030878
1732156900.858352,1732156900.860173,69.000000,0.000000,4286.410156,4262.436035,4307.051270,4291.794922,4282.307617,4281.922852,4329.358887,4396.922852,4295.769043,4292.436035,4489.230957,4501.538574,4374.871582,4423.717773,1240.000000,1.000000,26.000000,,,,0.000000,2.000000,2.000000,0.000000,4.000000,2.000000,2.000000,0.000000,0.000000,4.000000,4.000000,4.000000,4.000000,4.000000,4.000000,0.000000,,,,,,,,,,,,,,,,,,,,,,,,,,,,
1732156900.866161,1732156900.867781,70.000000,0.000000,4282.051270,4258.333496,4311.025879,4288.333496,4272.692383,4280.897461,4329.358887,4397.692383,4303.077148,4294.487305,4486.538574,4497.948730,4372.051270,4419.230957,0.000000,1.000000,26.000000,,,,0.000000,2.000000,2.000000,0.000000,4.000000,2.000000,2.000000,0.000000,0.000000,4.000000,4.000000,4.000000,4.000000,4.000000,4.000000,0.000000,,,,,,,,,,,,,,,,,,,,,,,,,,,,
1732156900.873969,1732156900.875589,71.000000,0.000000,4282.436035,4262.051270,4304.102539,4291.538574,4290.512695,4280.512695,4326.410156,4393.205078,4300.256348,4295.000000,4490.000000,4503.205078,4367.692383,4419.487305,0.000000,1.000000,26.000000,,,,0.000000,2.000000,2.000000,0.000000,4.000000,2.000000,2.000000,0.000000,0.000000,4.000000,4.000000,4.000000,4.000000,4.000000,4.000000,0.000000,,,,,,,,,,,,,,,,,,,,,,,,,,,,
1732156900.881777,1732156900.883298,72.000000,0.000000,4286.794922,4265.512695,4296.282227,4294.871582,4293.077148,4281.410156,4326.410156,4390.512695,4296.410156,4293.333496,4484.615234,4505.897461,4365.384766,4419.102539,1521.000000,1.000000,26.000000,,,,0.000000,2.000000,2.000000,0.000000,4.000000,2.000000,2.000000,0.000000,0.000000,4.000000,4.000000,4.000000,4.000000,4.000000,4.000000,0.000000,,,,,,,,,,,,,,,,,18.000000,0.000000,0.520166,0.482788,-0.552307,0.437378,0.982542,0.029300,-0.067391,-35.559788,45.619507,31.055012
1732156900.889585,1732156900.891106,73.000000,0.000000,4292.820313,4262.948730,4297.179688,4293.717773,4265.128418,4282.179688,4327.179688,4391.282227,4299.102539,4292.563965,4479.615234,4505.256348,4369.743652,4422.436035,1671.000000,1.000000,26.000000,,,,0.000000,2.000000,2.000000,0.000000,4.000000,2.000000,2.000000,0.000000,0.000000,4.000000,4.000000,4.000000,4.000000,4.000000,4.000000,0.000000,,,,,,,,,,,,,,,,,,,,,,,,,,,,
1732156900.897394,1732156900.898714,74.000000,0.000000,4295.256348,4265.769043,4297.436035,4292.307617,4262.436035,4282.948730,4325.256348,4389.487305,4298.077148,4293.974121,4488.205078,4505.897461,4374.358887,4428.974121,1536.000000,1.000000,26.000000,,,,0.000000,2.000000,2.000000,0.000000,4.000000,2.000000,2.000000,0.000000,0.000000,4.000000,4.000000,4.000000,4.000000,4.000000,4.000000,0.000000,,,,,,,,,,,,,,,,,,,,,,,,,,,,
1732156900.905202,1732156900.906523,75.000000,0.000000,4294.102539,4268.461426,4291.282227,4291.666504,4279.358887,4281.025879,4324.358887,4386.922852,4300.769043,4296.794922,4494.358887,4505.512695,4370.512695,4428.333496,1569.000000,1.000000,26.000000,,,,0.000000,2.000000,2.000000,0.000000,4.000000,2.000000,2.000000,0.000000,0.000000,4.000000,4.000000,4.000000,4.000000,4.000000,4.000000,0.000000,,,,,,,,,,,,,,,,,,,,,,,,,,,,
1732156900.913010,1732156900.914431,76.000000,0.000000,4293.077148,4265.384766,4283.974121,4292.307617,4278.461426,4280.000000,4323.974121,4389.230957,4304.230957,4297.307617,4490.384766,4505.769043,4366.666504,4426.282227,1710.000000,1.000000,26.000000,,,,0.000000,2.000000,2.000000,0.000000,4.000000,2.000000,2.000000,0.000000,0.000000,4.000000,4.000000,4.000000,4.000000,4.000000,4.000000,0.000000,,,,,,,,,,,,,,,,,19.000000,0.000000,0.518665,0.483276,-0.552856,0.437927,0.948846,-0.004883,-0.076181,-35.448429,45.696800,30.894560
1732156900.920818,1732156900.922239,77.000000,0.000000,4294.487305,4269.358887,4279.230957,4295.128418,4280.128418,4284.102539,4318.717773,4387.563965,4299.871582,4294.358887,4488.077148,4502.436035,4367.179688,4425.512695,1685.000000,1.000000,26.000000,,,,0.000000,2.000000,2.000000,0.000000,4.000000,2.000000,2.000000,0.000000,0.000000,4.000000,4.000000,4.000000,4.000000,4.000000,4.000000,0.000000,,,,,,,,,,,,,,,,,,,,,,,,,,,,
1732156900.928626,1732156900.930247,78.000000,0.000000,4293.461426,4272.820313,4278.077148,4296.794922,4287.179688,4283.846191,4317.179688,4382.436035,4297.948730,4293.333496,4491.282227,4493.717773,4366.794922,4417.820313,1536.000000,1.000000,26.000000,,,,0.000000,2.000000,2.000000,0.000000,4.000000,2.000000,2.000000,0.000000,0.000000,4.000000,4.000000,4.000000,4.000000,4.000000,4.000000,0.000000,1.000000,0.000000,2.000000,2.000000,0.000000,4.000000,2.000000,1.000000,0.000000,0.000000,4.000000,4.000000,4.000000,4.000000,4.000000,4.000000,,,,,,,,,,,,
1732156900.936435,1732156900.938055,79.000000,0.000000,4291.025879,4267.820313,4277.436035,4297.563965,4278.333496,4284.230957,4320.641113,4381.794922,4305.256348,4297.179688,4488.077148,4490.384766,4366.666504,4411.922852,1569.000000,1.000000,26.000000,,,,0.000000,2.000000,2.000000,0.000000,4.000000,2.000000,2.000000,0.000000,0.000000,4.000000,4.000000,4.000000,4.000000,4.000000,4.000000,0.000000,,,,,,,,,,,,,,,,,,,,,,,,,,,,
1732156900.944243,1732156900.945963,80.000000,0.000000,4292.307617,4270.769043,4275.769043,4299.871582,4287.179688,4287.179688,4320.128418,4382.692383,4308.205078,4296.922852,4478.717773,4491.538574,4366.922852,4413.717773,1710.000000,1.000000,26.000000,,,,0.000000,2.000000,2.000000,0.000000,4.000000,2.000000,2.000000,0.000000,0.000000,4.000000,4.000000,4.000000,4.000000,4.000000,4.000000,0.000000,,,,,,,,,,,,,,,,,20.000000,0.000000,0.518665,0.483276,-0.552856,0.437927,0.948846,-0.004883,-0.076181,-35.388226,45.774410,30.749594
1732156900.952051,1732156900.953771,81.000000,0.000000,4292.307617,4277.948730,4276.410156,4298.461426,4304.358887,4285.000000,4318.717773,4382.563965,4302.563965,4294.358887,4478.974121,4490.256348,4364.871582,4415.512695,1685.000000,1.000000,26.000000,,,,0.000000,2.000000,2.000000,0.000000,4.000000,2.000000,2.000000,0.000000,0.000000,4.000000,4.000000,4.000000,4.000000,4.000000,4.000000,0.000000,,,,,,,,,,,,,,,,,,,,,,,,,,,,
1732156900.959859,1732156900.961779,82.000000,0.000000,4288.461426,4271.666504,4281.410156,4294.871582,4284.743652,4283.589844,4323.461426,4383.589844,4303.846191,4298.205078,4487.692383,4490.897461,4364.615234,4415.512695,1536.000000,1.000000,26.000000,,,,0.000000,2.000000,2.000000,0.000000,4.000000,2.000000,2.000000,0.000000,0.000000,4.000000,4.000000,4.000000,4.000000,4.000000,4.000000,0.000000,,,,,,,,,,,,,,,,,,,,,,,,,,,,
1732156900.967668,1732156900.969588,83.000000,0.000000,4288.717773,4265.000000,4288.461426,4293.974121,4261.922852,4285.641113,4326.410156,4386.410156,4312.820313,4301.410156,4489.230957,4492.179688,4364.230957,4415.512695,1569.000000,1.000000,26.000000,,,,0.000000,2.000000,2.000000,0.000000,4.000000,2.000000,2.000000,0.000000,0.000000,4.000000,4.000000,4.000000,4.000000,4.000000,4.000000,0.000000,,,,,,,,,,,,,,,,,,,,,,,,,,,,
1732156900.975476,1732156900.977296,84.000000,0.000000,4295.000000,4267.051270,4293.846191,4294.230957,4268.974121,4282.948730,4323.333496,4386.794922,4309.743652,4298.333496,4486.538574,4490.641113,4364.743652,4415.128418,1710.000000,1.000000,26.000000,,,,0.000000,2.000000,2.000000,0.000000,4.000000,2.000000,2.000000,0.000000,0.000000,4.000000,4.000000,4.000000,4.000000,4.000000,4.000000,0.000000,,,,,,,,,,,,,,,,,21.000000,0.000000,0.517966,0.480225,-0.555969,0.438171,0.957148,-0.023929,-0.073251,-35.497799,45.773937,30.645504
1732156900.983284,1732156900.985104,85.000000,0.000000,4297.563965,4268.589844,4296.410156,4295.256348,4276.410156,4279.743652,4323.205078,4386.410156,4297.179688,4295.000000,4486.025879,4496.410156,4365.000000,4415.128418,1685.000000,1.000000,26.000000,,,,0.000000,2.000000,2.000000,0.000000,4.000000,2.000000,2.000000,0.000000,0.000000,4.000000,4.000000,4.000000,4.000000,4.000000,4.000000,0.000000,,,,,,,,,,,,,,,,,,,,,,,,,,,,
1732156900.991092,1732156900.992713,86.000000,0.000000,4296.025879,4268.846191,4299.358887,4297.051270,4276.410156,4282.307617,4326.666504,4389.358887,4296.538574,4294.102539,4476.794922,4501.410156,4358.077148,4416.153809,1536.000000,1.000000,26.000000,,,,0.000000,2.000000,2.000000,0.000000,4.000000,2.000000,2.000000,0.000000,0.000000,4.000000,4.000000,4.000000,4.000000,4.000000,4.000000,0.000000,,,,,,,,,,,,,,,,,,,,,,,,,,,,
1732156900.998901,1732156901.000521,87.000000,0.000000,4296.538574,4268.589844,4301.282227,4295.897461,4279.487305,4282.179688,4327.436035,4390.256348,4306.282227,4295.000000,4471.410156,4498.589844,4355.897461,4418.974121,1569.000000,1.000000,26.000000,,,,0.000000,2.000000,2.000000,0.000000,4.000000,2.000000,2.000000,0.000000,0.000000,4.000000,4.000000,4.000000,4.000000,4.000000,4.000000,0.000000,,,,,,,,,,,,,,,,,,,,,,,,,,,,
1732156901.006709,1732156901.008429,88.000000,0.000000,4296.538574,4267.307617,4299.487305,4292.179688,4271.153809,4280.000000,4326.538574,4386.922852,4303.077148,4296.153809,4483.333496,4499.230957,4363.333496,4423.974121,1710.000000,1.000000,26.000000,,,,0.000000,2.000000,2.000000,0.000000,4.000000,2.000000,2.000000,0.000000,0.000000,4.000000,4.000000,4.000000,4.000000,4.000000,4.000000,0.000000,,,,,,,,,,,,,,,,,22.000000,0.000000,0.518320,0.477539,-0.558044,0.438049,0.984984,0.023929,-0.075693,-35.516548,45.681889,30.914524
1732156901.014517,1732156901.016237,89.000000,0.000000,4298.333496,4268.717773,4302.179688,4291.025879,4262.436035,4274.743652,4325.897461,4389.871582,4295.128418,4293.461426,4489.230957,4505.769043,4367.563965,4434.358887,1685.000000,1.000000,26.000000,,,,0.000000,2.000000,2.000000,0.000000,4.000000,2.000000,2.000000,0.000000,0.000000,4.000000,4.000000,4.000000,4.000000,4.000000,4.000000,0.000000,,,,,,,,,,,,,,,,,,,,,,,,,,,,
1732156901.022325,1732156901.024245,90.000000,0.000000,4307.307617,4269.487305,4306.410156,4291.538574,4267.179688,4268.205078,4325.256348,4394.102539,4299.871582,4292.563965,4486.538574,4509.358887,4372.051270,4443.461426,1536.000000,1.000000,26.000000,,,,0.000000,2.000000,2.000000,0.000000,4.000000,2.000000,2.000000,0.000000,0.000000,4.000000,4.000000,4.000000,4.000000,4.000000,4.000000,0.000000,,,,,,,,,,,,,,,,,,,,,,,,,,,,
1732156901.030134,1732156901.032053,91.000000,0.000000,4314.615234,4267.948730,4307.307617,4287.563965,4267.051270,4268.589844,4326.666504,4388.846191,4305.128418,4296.410156,4489.743652,4506.666504,4378.846191,4445.512695,1569.000000,1.000000,26.000000,,,,0.000000,2.000000,2.000000,0.000000,4.000000,2.000000,2.000000,0.000000,0.000000,4.000000,4.000000,4.000000,4.000000,4.000000,4.000000,0.000000,,,,,,,,,,,,,,,,,,,,,,,,,,,,
1732156901.037942,1732156901.039961,92.000000,0.000000,4316.282227,4270.384766,4307.307617,4282.307617,4261.794922,4268.333496,4328.333496,4385.769043,4298.589844,4295.256348,4494.487305,4503.461426,4385.384766,4451.153809,1710.000000,1.000000,26.000000,,,,0.000000,2.000000,2.000000,0.000000,4.000000,2.000000,2.000000,0.000000,0.000000,4.000000,4.000000,4.000000,4.000000,4.000000,4.000000,0.000000,,,,,,,,,,,,,,,,,23.000000,0.000000,0.518699,0.476135,-0.559082,0.437805,0.984984,0.023929,-0.075693,-35.576736,45.520664,30.804098
1732156901.045750,1732156901.047770,93.000000,0.000000,4320.512695,4269.487305,4310.512695,4281.153809,4258.461426,4265.512695,4326.794922,4393.589844,4291.666504,4291.025879,4498.974121,4510.128418,4393.077148,4461.153809,1685.000000,1.000000,26.000000,,,,0.000000,2.000000,2.000000,0.000000,4.000000,2.000000,2.000000,0.000000,0.000000,4.000000,4.000000,4.000000,4.000000,4.000000,4.000000,0.000000,,,,,,,,,,,,,,,,,,,,,,,,,,,,
1732156901.053558,1732156901.055778,94.000000,0.000000,4328.974121,4265.641113,4314.487305,4281.282227,4252.179688,4264.743652,4327.948730,4398.589844,4294.102539,4292.307617,4503.717773,4516.666504,4398.974121,4466.282227,1536.000000,1.000000,26.000000,,,,0.000000,2.000000,2.000000,0.000000,4.000000,2.000000,2.000000,0.000000,0.000000,4.000000,4.000000,4.000000,4.000000,4.000000,4.000000,0.000000,,,,,,,,,,,,,,,,,,,,,,,,,,,,
1732156901.061367,1732156901.063586,95.000000,0.000000,4333.717773,4267.051270,4314.102539,4279.871582,4247.051270,4264.102539,4330.769043,4397.051270,4297.051270,4294.358887,4504.871582,4510.512695,4397.051270,4469.230957,1569.000000,1.000000,26.000000,,,,0.000000,2.000000,2.000000,0.000000,4.000000,2.000000,2.000000,0.000000,0.000000,4.000000,4.000000,4.000000,4.000000,4.000000,4.000000,0.000000,,,,,,,,,,,,,,,,,,,,,,,,,,,,
1732156901.069175,1732156901.071494,96.000000,0.000000,4334.871582,4268.589844,4314.615234,4279.743652,4247.436035,4261.538574,4330.769043,4398.205078,4294.487305,4291.922852,4499.487305,4509.615234,4396.666504,4473.974121,1710.000000,1.000000,26.000000,,,,0.000000,2.000000,2.000000,0.000000,4.000000,2.000000,2.000000,0.000000,0.000000,4.000000,4.000000,4.000000,4.000000,4.000000,4.000000,0.000000,,,,,,,,,,,,,,,,,24.000000,0.000000,0.519660,0.472961,-0.560547,0.438232,0.968868,0.036626,-0.062019,-35.562157,45.588406,31.007986
1732156901.076983,1732156901.079302,97.000000,0.000000,4334.871582,4266.410156,4320.641113,4279.487305,4247.436035,4260.769043,4332.051270,4398.461426,4292.436035,4291.153809,4497.051270,4521.153809,4404.871582,4477.051270,1685.000000,1.000000,26.000000,,,,0.000000,2.000000,2.000000,0.000000,4.000000,2.000000,2.000000,0.000000,0.000000,4.000000,4.000000,4.000000,4.000000,4.000000,4.000000,0.000000,,,,,,,,,,,,,,,,,,,,,,,,,,,,
1732156901.084791,1732156901.086911,98.000000,0.000000,4335.641113,4265.512695,4326.153809,4279.871582,4242.820313,4261.538574,4335.384766,4397.436035,4295.641113,4295.512695,4504.358887,4526.025879,4411.410156,4482.692383,1536.000000,1.000000,26.000000,,,,0.000000,2.000000,2.000000,0.000000,4.000000,2.000000,2.000000,0.000000,0.000000,4.000000,4.000000,4.000000,4.000000,4.000000,4.000000,0.000000,,,,,,,,,,,,,,,,,,,,,,,,,,,,
1732156901.092600,1732156901.094719,99.000000,0.000000,4342.563965,4273.461426,4325.641113,4283.974121,4243.205078,4261.666504,4335.128418,4400.000000,4297.692383,4295.897461,4512.051270,4521.410156,4414.102539,4489.871582,1569.000000,1.000000,26.000000,,,,0.000000,2.000000,2.000000,0.000000,4.000000,2.000000,2.000000,0.000000,0.000000,4.000000,4.000000,4.000000,4.000000,4.000000,4.000000,0.000000,,,,,,,,,,,,,,,,,,,,,,,,,,,,
1732156901.100408,1732156901.102427,100.000000,0.000000,4349.743652,4281.025879,4323.077148,4288.205078,4249.358887,4262.820313,4332.820313,4400.769043,4292.179688,4286.794922,4511.538574,4523.205078,4416.410156,4490.641113,1710.000000,1.000000,26.000000,,,,0.000000,2.000000,2.000000,0.000000,4.000000,2.000000,2.000000,0.000000,0.000000,4.000000,4.000000,4.000000,4.000000,4.000000,4.000000,0.000000,,,,,,,,,,,,,,,,,25.000000,0.000000,0.520075,0.472534,-0.559998,0.438904,1.005494,0.022952,-0.066903,-35.617016,45.626606,31.073135
1732156901.108216,1732156901.110235,101.000000,0.000000,4351.153809,4281.666504,4323.461426,4293.717773,4250.641113,4263.077148,4332.948730,4397.307617,4286.410156,4283.717773,4507.948730,4533.205078,4417.436035,4490.384766,1685.000000,1.000000,26.000000,,,,0.000000,2.000000,2.000000,0.000000,4.000000,2.000000,2.000000,0.000000,0.000000,4.000000,4.000000,4.000000,4.000000,4.000000,4.000000,0.000000,,,,,,,,,,,,,,,,,,,,,,,,,,,,
1732156901.116024,1732156901.117844,102.000000,0.000000,4351.282227,4278.205078,4325.000000,4296.282227,4249.102539,4260.256348,4334.615234,4397.563965,4285.000000,4288.974121,4510.512695,4539.871582,4416.666504,4493.077148,1536.000000,1.000000,26.000000,,,,0.000000,2.000000,2.000000,0.000000,4.000000,2.000000,2.000000,0.000000,0.000000,4.000000,4.000000,4.000000,4.000000,4.000000,4.000000,0.000000,,,,,,,,,,,,,,,,,,,,,,,,,,,,
1732156901.123833,1732156901.125652,103.000000,0.000000,4353.333496,4277.179688,4324.358887,4295.256348,4250.384766,4258.974121,4335.769043,4400.000000,4285.641113,4284.358887,4511.794922,4539.230957,4414.230957,4494.230957,1569.000000,1.000000,26.000000,,,,0.000000,2.000000,2.000000,0.000000,4.000000,2.000000,2.000000,0.000000,0.000000,4.000000,4.000000,4.000000,4.000000,4.000000,4.000000,0.000000,,,,,,,,,,,,,,,,,,,,,,,,,,,,
1732156901.131641,1732156901.133360,104.000000,0.000000,4350.384766,4279.230957,4323.205078,4293.333496,4244.743652,4257.692383,4334.487305,4398.205078,4287.692383,4279.102539,4505.256348,4536.410156,4414.871582,4493.077148,1710.000000,1.000000,26.000000,,,,0.000000,2.000000,2.000000,0.000000,4.000000,2.000000,2.000000,0.000000,0.000000,4.000000,4.000000,4.000000,4.000000,4.000000,4.000000,0.000000,,,,,,,,,,,,,,,,,26.000000,0.000000,0.520187,0.472473,-0.559753,0.439148,1.005005,0.019534,-0.070321,-35.689781,45.349220,31.217573
1732156901.139449,1732156901.141168,105.000000,0.000000,4343.461426,4275.128418,4323.333496,4290.000000,4245.897461,4253.461426,4334.871582,4397.563965,4288.461426,4289.358887,4506.922852,4537.179688,4412.820313,4494.358887,1685.000000,1.000000,26.000000,,,,0.000000,2.000000,2.000000,0.000000,4.000000,2.000000,2.000000,0.000000,0.000000,4.000000,4.000000,4.000000,4.000000,4.000000,4.000000,0.000000,,,,,,,,,,,,,,,,,,,,,,,,,,,,
1732156901.147257,1732156901.148777,106.000000,0.000000,4345.384766,4273.205078,4323.589844,4290.000000,4262.563965,4248.717773,4336.153809,4398.974121,4287.051270,4294.102539,4516.153809,4535.769043,4406.666504,4501.410156,1536.000000,1.000000,26.000000,,,,0.000000,2.000000,2.000000,0.000000,4.000000,2.000000,2.000000,0.000000,0.000000,4.000000,4.000000,4.000000,4.000000,4.000000,4.000000,0.000000,,,,,,,,,,,,,,,,,,,,,,,,,,,,
1732156901.155065,1732156901.156585,107.000000,0.000000,4352.051270,4279.358887,4322.179688,4293.974121,4260.769043,4250.256348,4331.282227,4398.589844,4291.538574,4291.153809,4515.641113,4536.025879,4405.256348,4507.948730,1569.000000,1.000000,26.000000,,,,0.000000,2.000000,2.000000,0.000000,4.000000,2.000000,2.000000,0.000000,0.000000,4.000000,4.000000,4.000000,4.000000,4.000000,4.000000,0.000000,,,,,,,,,,,,,,,,,,,,,,,,,,,,
1732156901.162874,1732156901.164293,108.000000,0.000000,4351.410156,4282.948730,4324.230957,4295.641113,4236.666504,4257.692383,4326.538574,4398.077148,4295.769043,4290.897461,4511.922852,4535.769043,4404.230957,4502.820313,1710.000000,1.000000,26.000000,,,,0.000000,2.000000,2.000000,0.000000,4.000000,2.000000,2.000000,0.000000,0.000000,4.000000,4.000000,4.000000,4.000000,4.000000,4.000000,0.000000,,,,,,,,,,,,,,,,,27.000000,0.000000,0.519493,0.473267,-0.558960,0.440125,1.010377,-0.010255,-0.066903,-35.527058,45.662868,31.207901
1732156901.170682,1732156901.172102,109.000000,0.000000,4347.563965,4279.102539,4327.563965,4292.948730,4232.051270,4261.794922,4330.641113,4398.461426,4295.512695,4288.333496,4518.461426,4534.487305,4399.487305,4493.461426,1685.000000,1.000000,26.000000,,,,0.000000,2.000000,2.000000,0.000000,4.000000,2.000000,2.000000,0.000000,0.000000,4.000000,4.000000,4.000000,4.000000,4.000000,4.000000,0.000000,,,,,,,,,,,,,,,,,,,,,,,,,,,,
1732156901.178490,1732156901.179710,110.000000,0.000000,4349.871582,4277.692383,4326.410156,4291.922852,4248.077148,4260.128418,4335.897461,4398.589844,4293.077148,4287.051270,4520.384766,4538.589844,4399.615234,4492.692383,1536.000000,1.000000,26.000000,,,,0.000000,2.000000,2.000000,0.000000,4.000000,2.000000,2.000000,0.000000,0.000000,4.000000,4.000000,4.000000,4.000000,4.000000,4.000000,0.000000,,,,,,,,,,,,,,,,,,,,,,,,,,,,
1732156901.186298,1732156901.187518,111.000000,0.000000,4352.436035,4284.102539,4325.641113,4295.897461,4248.333496,4260.000000,4334.743652,4397.307617,4286.538574,4287.436035,4509.102539,4533.205078,4403.333496,4495.897461,1569.000000,1.000000,26.000000,,,,0.000000,2.000000,2.000000,0.000000,4.000000,2.000000,2.000000,0.000000,0.000000,4.000000,4.000000,4.000000,4.000000,4.000000,4.000000,0.000000,,,,,,,,,,,,,,,,,,,,,,,,,,,,
1732156901.194107,1732156901.195226,112.000000,0.000000,4348.717773,4282.179688,4328.461426,4293.205078,4243.589844,4263.077148,4334.102539,4399.230957,4286.922852,4284.102539,4500.641113,4526.666504,4396.282227,4491.922852,1710.000000,1.000000,26.000000,,,,0.000000,2.000000,2.000000,0.000000,4.000000,2.000000,2.000000,0.000000,0.000000,4.000000,4.000000,4.000000,4.000000,4.000000,4.000000,0.000000,,,,,,,,,,,,,,,,,28.000000,0.000000,0.517051,0.474487,-0.559082,0.441528,0.946405,-0.033207,-0.079600,-35.430248,45.565254,31.426733
1732156901.201915,1732156901.203035,113.000000,0.000000,4342.307617,4270.769043,4329.487305,4282.820313,4259.615234,4265.000000,4335.897461,4402.692383,4295.000000,4283.077148,4503.461426,4530.897461,4388.205078,4486.666504,1685.000000,1.000000,26.000000,,,,0.000000,2.000000,2.000000,0.000000,4.000000,2.000000,2.000000,0.000000,0.000000,4.000000,4.000000,4.000000,4.000000,4.000000,4.000000,0.000000,,,,,,,,,,,,,,,,,,,,,,,,,,,,
1732156901.209723,1732156901.210643,114.000000,0.000000,4340.384766,4271.666504,4327.948730,4283.077148,4261.666504,4262.307617,4335.769043,4402.948730,4296.153809,4289.743652,4509.487305,4529.487305,4394.743652,4488.333496,1536.000000,1.000000,26.000000,,,,0.000000,2.000000,2.000000,0.000000,4.000000,2.000000,2.000000,0.000000,0.000000,4.000000,4.000000,4.000000,4.000000,4.000000,4.000000,0.000000,,,,,,,,,,,,,,,,,,,,,,,,,,,,
1732156901.217532,1732156901.218451,115.000000,0.000000,4347.563965,4282.692383,4329.102539,4294.743652,4236.410156,4255.641113,4335.384766,4400.512695,4291.025879,4294.102539,4509.871582,4523.589844,4401.153809,4491.153809,1569.000000,1.000000,26.000000,,,,0.000000,2.000000,2.000000,0.000000,4.000000,2.000000,2.000000,0.000000,0.000000,4.000000,4.000000,4.000000,4.000000,4.000000,4.000000,0.000000,,,,,,,,,,,,,,,,,,,,,,,,,,,,
1732156901.225340,1732156901.226160,116.000000,0.000000,4351.794922,4283.717773,4331.794922,4297.948730,4231.282227,4254.871582,4336.282227,4399.487305,4293.846191,4297.563965,4507.179688,4531.282227,4398.461426,4491.410156,1710.000000,1.000000,26.000000,,,,0.000000,2.000000,2.000000,0.000000,4.000000,2.000000,2.000000,0.000000,0.000000,4.000000,4.000000,4.000000,4.000000,4.000000,4.000000,0.000000,,,,,,,,,,,,,,,,,29.000000,0.000000,0.516272,0.474548,-0.559509,0.441833,0.953730,-0.043462,-0.073251,-35.395168,45.442856,31.593987
1732156901.233148,1732156901.233968,117.000000,0.000000,4345.769043,4278.974121,4333.077148,4294.102539,4249.743652,4261.025879,4335.512695,4401.794922,4297.692383,4297.820313,4512.948730,4540.384766,4398.846191,4490.512695,1685.000000,1.000000,26.000000,,,,0.000000,2.000000,2.000000,0.000000,4.000000,2.000000,2.000000,0.000000,0.000000,4.000000,4.000000,4.000000,4.000000,4.000000,4.000000,0.000000,,,,,,,,,,,,,,,,,,,,,,,,,,,,
1732156901.240956,1732156901.241576,118.000000,0.000000,4340.641113,4280.897461,4332.307617,4295.000000,4250.000000,4260.897461,4333.717773,4405.384766,4291.538574,4291.410156,4509.615234,4530.384766,4399.615234,4485.641113,1536.000000,1.000000,26.000000,,,,0.000000,2.000000,2.000000,0.000000,4.000000,2.000000,2.000000,0.000000,0.000000,4.000000,4.000000,4.000000,4.000000,4.000000,4.000000,0.000000,,,,,,,,,,,,,,,,,,,,,,,,,,,,
1732156901.248764,1732156901.249384,119.000000,0.000000,4340.769043,4281.282227,4331.538574,4295.512695,4244.358887,4259.102539,4335.128418,4406.153809,4286.410156,4291.538574,4494.102539,4520.897461,4390.384766,4475.384766,1569.000000,1.000000,26.000000,,,,0.000000,2.000000,2.000000,0.000000,4.000000,2.000000,2.000000,0.000000,0.000000,4.000000,4.000000,4.000000,4.000000,4.000000,4.000000,0.000000,,,,,,,,,,,,,,,,,,,,,,,,,,,,
1732156901.256573,1732156901.257293,120.000000,0.000000,4341.922852,4278.461426,4333.333496,4293.205078,4255.897461,4263.589844,4336.666504,4402.051270,4289.358887,4297.179688,4496.025879,4522.051270,4387.307617,4471.538574,1710.000000,1.000000,26.000000,,,,0.000000,2.000000,2.000000,0.000000,4.000000,2.000000,2.000000,0.000000,0.000000,4.000000,4.000000,4.000000,4.000000,4.000000,4.000000,0.000000,,,,,,,,,,,,,,,,,30.000000,0.000000,0.516185,0.474426,-0.559692,0.441833,0.954706,-0.029789,-0.069833,-35.606754,45.538715,31.729464
1732156901.264381,1732156901.265101,121.000000,0.000000,4339.743652,4279.487305,4338.077148,4292.307617,4262.692383,4266.153809,4336.794922,4401.922852,4295.512695,4295.128418,4511.666504,4524.358887,4394.487305,4475.769043,1685.000000,1.000000,26.000000,,,,0.000000,2.000000,2.000000,0.000000,4.000000,2.000000,2.000000,0.000000,0.000000,4.000000,4.000000,4.000000,4.000000,4.000000,4.000000,0.000000,,,,,,,,,,,,,,,,,,,,,,,,,,,,
1732156901.272189,1732156901.272709,122.000000,0.000000,4335.000000,4279.487305,4338.333496,4295.000000,4261.794922,4264.230957,4336.794922,4405.512695,4295.512695,4285.512695,4504.102539,4523.846191,4390.256348,4472.179688,1536.000000,1.000000,26.000000,,,,0.000000,2.000000,2.000000,0.000000,4.000000,2.000000,2.000000,0.000000,0.000000,4.000000,4.000000,4.000000,4.000000,4.000000,4.000000,0.000000,,,,,,,,,,,,,,,,,,,,,,,,,,,,
1732156901.279997,1732156901.280517,123.000000,0.000000,4333.846191,4279.230957,4336.025879,4298.846191,4263.717773,4265.000000,4335.897461,4400.769043,4294.487305,4285.000000,4490.641113,4522.051270,4384.358887,4468.589844,1569.000000,1.000000,26.000000,,,,0.000000,2.000000,2.000000,0.000000,4.000000,2.000000,2.000000,0.000000,0.000000,4.000000,4.000000,4.000000,4.000000,4.000000,4.000000,0.000000,,,,,,,,,,,,,,,,,,,,,,,,,,,,
1732156901.287806,1732156901.288226,124.000000,0.000000,4336.538574,4279.230957,4336.794922,4295.897461,4259.871582,4266.153809,4334.743652,4396.025879,4295.897461,4289.358887,4500.384766,4522.692383,4390.512695,4470.512695,1710.000000,1.000000,26.000000,,,,0.000000,2.000000,2.000000,0.000000,4.000000,2.000000,2.000000,0.000000,0.000000,4.000000,4.000000,4.000000,4.000000,4.000000,4.000000,0.000000,,,,,,,,,,,,,,,,,31.000000,0.000000,0.516640,0.473206,-0.561218,0.440674,0.970822,0.002930,-0.077158,-35.686470,45.519691,31.782532
1732156901.295614,1732156901.296034,125.000000,0.000000,4336.025879,4279.230957,4335.897461,4293.589844,4262.051270,4259.487305,4334.230957,4399.230957,4295.512695,4283.974121,4503.333496,4521.538574,4390.128418,4466.538574,1685.000000,1.000000,26.000000,,,,0.000000,2.000000,2.000000,0.000000,4.000000,2.000000,2.000000,0.000000,0.000000,4.000000,4.000000,4.000000,4.000000,4.000000,4.000000,0.000000,,,,,,,,,,,,,,,,,,,,,,,,,,,,
1732156901.303422,1732156901.303642,126.000000,0.000000,4334.615234,4279.743652,4332.692383,4295.512695,4270.128418,4252.307617,4334.615234,4402.948730,4293.974121,4281.153809,4487.179688,4520.641113,4383.461426,4460.897461,1536.000000,1.000000,26.000000,,,,0.000000,2.000000,2.000000,0.000000,4.000000,2.000000,2.000000,0.000000,0.000000,4.000000,4.000000,4.000000,4.000000,4.000000,4.000000,0.000000,,,,,,,,,,,,,,,,,,,,,,,,,,,,
1732156901.311230,1732156901.311451,127.000000,0.000000,4335.256348,4278.974121,4329.615234,4295.641113,4257.692383,4258.846191,4333.589844,4402.692383,4297.436035,4289.615234,4489.230957,4520.256348,4387.307617,4463.077148,26.000000,1.000000,26.000000,,,,0.000000,2.000000,2.000000,0.000000,4.000000,2.000000,2.000000,0.000000,0.000000,4.000000,4.000000,4.000000,4.000000,4.000000,4.000000,0.000000,,,,,,,,,,,,,,,,,,,,,,,,,,,,
1732156901.319039,1732156901.319159,0.000000,0.000000,4335.000000,4278.974121,4328.974121,4295.512695,4242.179688,4267.692383,4333.461426,4401.794922,4302.563965,4292.307617,4505.897461,4519.871582,4391.282227,4464.743652,0.000000,1.000000,26.000000,,,,0.000000,2.000000,2.000000,0.000000,4.000000,2.000000,2.000000,0.000000,0.000000,4.000000,4.000000,4.000000,4.000000,4.000000,4.000000,0.000000,,,,,,,,,,,,,,,,,0.000000,0.000000,0.516812,0.472473,-0.562012,0.440247,0.976682,0.023440,-0.079111,-35.841042,45.587616,31.800518
1732156901.326847,1732156901.326967,1.000000,0.000000,4334.871582,4281.282227,4328.333496,4297.051270,4254.615234,4265.384766,4333.461426,4399.871582,4298.717773,4281.922852,4503.077148,4520.897461,4387.563965,4461.025879,1589.000000,1.000000,26.000000,,,,0.000000,2.000000,2.000000,0.000000,4.000000,2.000000,2.000000,0.000000,0.000000,4.000000,4.000000,4.000000,4.000000,4.000000,4.000000,0.000000,,,,,,,,,,,,,,,,,,,,,,,,,,,,
1732156901.334655,1732156901.334975,2.000000,0.000000,4335.000000,4283.333496,4327.692383,4297.692383,4266.794922,4265.384766,4330.512695,4397.179688,4290.897461,4277.820313,4489.743652,4521.666504,4388.461426,4460.384766,1391.000000,1.000000,26.000000,,,,0.000000,2.000000,2.000000,0.000000,4.000000,2.000000,2.000000,0.000000,0.000000,4.000000,4.000000,4.000000,4.000000,4.000000,4.000000,0.000000,,,,,,,,,,,,,,,,,,,,,,,,,,,,
1732156901.342463,1732156901.342783,3.000000,0.000000,4334.358887,4280.384766,4327.307617,4295.384766,4262.307617,4270.256348,4328.205078,4398.077148,4293.077148,4286.922852,4491.282227,4520.384766,4390.000000,4459.230957,1411.000000,1.000000,26.000000,,,,0.000000,2.000000,2.000000,0.000000,4.000000,2.000000,2.000000,0.000000,0.000000,4.000000,4.000000,4.000000,4.000000,4.000000,4.000000,0.000000,,,,,,,,,,,,,,,,,,,,,,,,,,,,
1732156901.350272,1732156901.350691,4.000000,0.000000,4335.256348,4279.743652,4327.179688,4296.794922,4262.948730,4267.948730,4328.461426,4399.487305,4299.743652,4295.384766,4500.256348,4520.128418,4389.230957,4458.077148,1409.000000,1.000000,26.000000,,,,0.000000,2.000000,2.000000,0.000000,4.000000,2.000000,2.000000,0.000000,0.000000,4.000000,4.000000,4.000000,4.000000,4.000000,4.000000,0.000000,,,,,,,,,,,,,,,,,1.000000,0.000000,0.516815,0.472107,-0.562317,0.440247,0.982542,0.008302,-0.093761,-35.776241,45.317638,31.553419
1732156901.358080,1732156901.358500,5.000000,0.000000,4336.666504,4286.410156,4326.538574,4301.922852,4263.589844,4264.487305,4328.077148,4398.077148,4298.717773,4295.384766,4507.563965,4525.512695,4391.282227,4460.769043,1240.000000,1.000000,26.000000,,,,0.000000,2.000000,2.000000,0.000000,4.000000,2.000000,2.000000,0.000000,0.000000,4.000000,4.000000,4.000000,4.000000,4.000000,4.000000,0.000000,,,,,,,,,,,,,,,,,,,,,,,,,,,,
1732156901.365888,1732156901.366508,6.000000,0.000000,4334.871582,4287.179688,4325.256348,4301.153809,4264.487305,4264.230957,4328.077148,4397.307617,4295.256348,4293.846191,4501.666504,4525.384766,4389.871582,4459.615234,0.000000,1.000000,26.000000,,,,0.000000,2.000000,2.000000,0.000000,4.000000,2.000000,2.000000,0.000000,0.000000,4.000000,4.000000,4.000000,4.000000,4.000000,4.000000,0.000000,,,,,,,,,,,,,,,,,,,,,,,,,,,,
1732156901.373696,1732156901.374316,7.000000,0.000000,4332.307617,4282.051270,4328.717773,4296.410156,4268.846191,4262.948730,4330.128418,4398.205078,4298.974121,4294.358887,4492.563965,4521.282227,4387.948730,4456.025879,0.000000,1.000000,26.000000,,,,0.000000,2.000000,2.000000,0.000000,4.000000,2.000000,2.000000,0.000000,0.000000,4.000000,4.000000,4.000000,4.000000,4.000000,4.000000,0.000000,,,,,,,,,,,,,,,,,,,,,,,,,,,,
1732156901.381505,1732156901.382024,8.000000,0.000000,4333.974121,4281.410156,4328.717773,4297.051270,4258.717773,4267.051270,4329.230957,4398.205078,4302.436035,4297.307617,4498.717773,4522.307617,4388.461426,4456.794922,1523.000000,1.000000,26.000000,,,,0.000000,2.000000,2.000000,0.000000,4.000000,2.000000,2.000000,0.000000,0.000000,4.000000,4.000000,4.000000,4.000000,4.000000,4.000000,0.000000,,,,,,,,,,,,,,,,,2.000000,0.000000,0.516295,0.471436,-0.562927,0.440796,0.974728,-0.004395,-0.101575,-35.737091,45.278954,31.488270
1732156901.389313,1732156901.389832,9.000000,0.000000,4336.282227,4281.794922,4322.179688,4299.358887,4250.769043,4275.769043,4329.358887,4397.051270,4299.230957,4299.487305,4504.743652,4521.282227,4385.128418,4454.871582,1675.000000,1.000000,26.000000,,,,0.000000,2.000000,2.000000,0.000000,4.000000,2.000000,2.000000,0.000000,0.000000,4.000000,4.000000,4.000000,4.000000,4.000000,4.000000,0.000000,,,,,,,,,,,,,,,,,,,,,,,,,,,,
1732156901.397121,1732156901.397840,10.000000,0.000000,4335.128418,4278.205078,4320.512695,4296.025879,4258.846191,4277.948730,4334.230957,4397.948730,4295.897461,4294.743652,4495.128418,4514.743652,4380.769043,4445.256348,1526.000000,1.000000,26.000000,,,,0.000000,2.000000,2.000000,0.000000,4.000000,2.000000,2.000000,0.000000,0.000000,4.000000,4.000000,4.000000,4.000000,4.000000,4.000000,0.000000,,,,,,,,,,,,,,,,,,,,,,,,,,,,
1732156901.404929,1732156901.405649,11.000000,0.000000,4334.743652,4278.077148,4323.974121,4297.692383,4264.230957,4277.820313,4335.897461,4399.743652,4297.948730,4289.743652,4485.897461,4517.692383,4380.512695,4442.436035,1568.000000,1.000000,26.000000,,,,0.000000,2.000000,2.000000,0.000000,4.000000,2.000000,2.000000,0.000000,0.000000,4.000000,4.000000,4.000000,4.000000,4.000000,4.000000,0.000000,,,,,,,,,,,,,,,,,,,,,,,,,,,,
1732156901.412737,1732156901.413557,12.000000,0.000000,4335.128418,4279.615234,4324.615234,4305.000000,4263.846191,4280.384766,4334.743652,4398.846191,4299.358887,4293.717773,4493.333496,4527.051270,4380.641113,4446.794922,1686.000000,1.000000,26.000000,,,,0.000000,2.000000,2.000000,0.000000,4.000000,2.000000,2.000000,0.000000,0.000000,4.000000,4.000000,4.000000,4.000000,4.000000,4.000000,0.000000,,,,,,,,,,,,,,,,,3.000000,0.000000,0.514783,0.470215,-0.563416,0.443237,0.968380,-0.026370,-0.094738,-35.638710,45.180950,31.418831
1732156901.420546,1732156901.421365,13.000000,0.000000,4333.333496,4278.205078,4322.948730,4301.410156,4267.692383,4279.230957,4335.384766,4398.589844,4296.666504,4295.769043,4500.641113,4517.948730,4379.871582,4444.358887,1680.000000,1.000000,26.000000,,,,0.000000,2.000000,2.000000,0.000000,4.000000,2.000000,2.000000,0.000000,0.000000,4.000000,4.000000,4.000000,4.000000,4.000000,4.000000,0.000000,,,,,,,,,,,,,,,,,,,,,,,,,,,,
1732156901.428354,1732156901.429373,14.000000,0.000000,4333.717773,4280.512695,4324.102539,4295.000000,4267.051270,4277.051270,4334.615234,4400.128418,4296.282227,4291.794922,4496.922852,4507.692383,4382.692383,4441.282227,1526.000000,1.000000,26.000000,,,,0.000000,2.000000,2.000000,0.000000,4.000000,2.000000,2.000000,0.000000,0.000000,4.000000,4.000000,4.000000,4.000000,4.000000,4.000000,0.000000,1.000000,0.000000,2.000000,2.000000,0.000000,4.000000,2.000000,2.000000,0.000000,0.000000,4.000000,4.000000,4.000000,4.000000,4.000000,4.000000,,,,,,,,,,,,
1732156901.436162,1732156901.437181,15.000000,0.000000,4333.589844,4282.307617,4323.974121,4300.512695,4262.307617,4276.153809,4332.948730,4399.743652,4297.051270,4290.384766,4494.615234,4512.436035,4382.436035,4444.102539,1568.000000,1.000000,26.000000,,,,0.000000,2.000000,2.000000,0.000000,4.000000,2.000000,2.000000,0.000000,0.000000,4.000000,4.000000,4.000000,4.000000,4.000000,4.000000,0.000000,,,,,,,,,,,,,,,,,,,,,,,,,,,,
1732156901.443971,1732156901.445089,16.000000,0.000000,4329.487305,4280.384766,4325.000000,4302.948730,4277.307617,4273.846191,4333.333496,4398.077148,4294.743652,4289.102539,4491.794922,4515.512695,4380.384766,4446.153809,0.000000,1.000000,26.000000,,,,0.000000,2.000000,2.000000,0.000000,4.000000,2.000000,2.000000,0.000000,0.000000,4.000000,4.000000,4.000000,4.000000,4.000000,4.000000,0.000000,,,,,,,,,,,,,,,,,4.000000,0.000000,0.514956,0.469238,-0.563110,0.444458,0.979612,-0.045904,-0.059089,-35.654022,45.296570,31.430920
1732156901.451779,1732156901.452897,17.000000,0.000000,4326.922852,4281.538574,4327.820313,4298.461426,4291.666504,4273.974121,4335.256348,4398.333496,4297.948730,4289.615234,4491.538574,4515.000000,4380.897461,4444.743652,0.000000,1.000000,26.000000,,,,0.000000,2.000000,2.000000,0.000000,4.000000,2.000000,2.000000,0.000000,0.000000,4.000000,4.000000,4.000000,4.000000,4.000000,4.000000,0.000000,,,,,,,,,,,,,,,,,,,,,,,,,,,,
1732156901.459587,1732156901.460905,18.000000,0.000000,4324.871582,4282.179688,4325.769043,4304.487305,4275.641113,4278.589844,4333.846191,4399.615234,4309.230957,4293.846191,4501.410156,4519.102539,4382.051270,4443.205078,0.000000,1.000000,26.000000,,,,0.000000,2.000000,2.000000,0.000000,4.000000,2.000000,2.000000,0.000000,0.000000,4.000000,4.000000,4.000000,4.000000,4.000000,4.000000,0.000000,,,,,,,,,,,,,,,,,,,,,,,,,,,,
1732156901.467395,1732156901.468714,19.000000,0.000000,4323.333496,4280.641113,4323.461426,4312.436035,4260.384766,4280.769043,4329.615234,4398.974121,4307.820313,4288.846191,4501.794922,4524.102539,4380.897461,4445.897461,0.000000,1.000000,26.000000,,,,0.000000,2.000000,2.000000,0.000000,4.000000,2.000000,2.000000,0.000000,0.000000,4.000000,4.000000,4.000000,4.000000,4.000000,4.000000,0.000000,,,,,,,,,,,,,,,,,,,,,,,,,,,,
1732156901.475203,1732156901.476622,20.000000,0.000000,4322.307617,4284.487305,4324.358887,4310.256348,4273.717773,4280.256348,4329.102539,4397.692383,4295.128418,4279.615234,4490.256348,4518.333496,4378.461426,4447.436035,0.000000,1.000000,26.000000,,,,0.000000,2.000000,2.000000,0.000000,4.000000,2.000000,2.000000,0.000000,0.000000,4.000000,4.000000,4.000000,4.000000,4.000000,4.000000,0.000000,,,,,,,,,,,,,,,,,5.000000,0.000000,0.515400,0.468750,-0.563110,0.444458,0.979612,-0.045904,-0.059089,-35.434757,45.145222,31.634045
1732156901.483012,1732156901.484430,21.000000,0.000000,4320.128418,4287.820313,4324.487305,4308.589844,4283.589844,4279.871582,4334.615234,4399.871582,4295.769043,4282.948730,4495.897461,4513.846191,4380.128418,4442.051270,0.000000,1.000000,26.000000,,,,0.000000,2.000000,2.000000,0.000000,4.000000,2.000000,2.000000,0.000000,0.000000,4.000000,4.000000,4.000000,4.000000,4.000000,4.000000,0.000000,,,,,,,,,,,,,,,,,,,,,,,,,,,,
1732156901.490820,1732156901.492038,22.000000,0.000000,4321.410156,4283.205078,4323.974121,4310.641113,4276.794922,4279.102539,4334.358887,4401.153809,4304.230957,4291.410156,4510.000000,4518.589844,4384.615234,4439.487305,0.000000,1.000000,26.000000,,,,0.000000,2.000000,2.000000,0.000000,4.000000,2.000000,2.000000,0.000000,0.000000,4.000000,4.000000,4.000000,4.000000,4.000000,4.000000,0.000000,,,,,,,,,,,,,,,,,,,,,,,,,,,,
1732156901.498628,1732156901.499847,23.000000,0.000000,4324.230957,4280.256348,4324.871582,4309.487305,4278.077148,4278.461426,4327.692383,4399.102539,4306.410156,4293.205078,4506.538574,4522.563965,4385.000000,4443.717773,0.000000,1.000000,26.000000,,,,0.000000,2.000000,2.000000,0.000000,4.000000,2.000000,2.000000,0.000000,0.000000,4.000000,4.000000,4.000000,4.000000,4.000000,4.000000,0.000000,,,,,,,,,,,,,,,,,,,,,,,,,,,,
1732156901.506436,1732156901.507555,24.000000,0.000000,4321.025879,4283.461426,4325.128418,4310.000000,4280.256348,4277.563965,4327.948730,4397.436035,4307.948730,4294.102539,4502.436035,4522.692383,4381.794922,4446.025879,0.000000,1.000000,26.000000,,,,0.000000,2.000000,2.000000,0.000000,4.000000,2.000000,2.000000,0.000000,0.000000,4.000000,4.000000,4.000000,4.000000,4.000000,4.000000,0.000000,,,,,,,,,,,,,,,,,6.000000,0.000000,0.516414,0.467590,-0.563049,0.444580,0.991820,0.000000,-0.066903,-35.550488,45.170963,31.588577
1732156901.514245,1732156901.515363,25.000000,0.000000,4316.666504,4282.436035,4323.846191,4310.897461,4278.461426,4277.436035,4334.615234,4400.897461,4310.000000,4293.717773,4504.743652,4522.179688,4380.512695,4444.230957,0.000000,1.000000,26.000000,,,,0.000000,2.000000,2.000000,0.000000,4.000000,2.000000,2.000000,0.000000,0.000000,4.000000,4.000000,4.000000,4.000000,4.000000,4.000000,0.000000,,,,,,,,,,,,,,,,,,,,,,,,,,,,
1732156901.522053,1732156901.522971,26.000000,0.000000,4319.871582,4280.000000,4324.230957,4311.282227,4282.563965,4278.717773,4336.025879,4402.307617,4309.487305,4288.717773,4503.974121,4523.333496,4379.871582,4440.128418,0.000000,1.000000,26.000000,,,,0.000000,2.000000,2.000000,0.000000,4.000000,2.000000,2.000000,0.000000,0.000000,4.000000,4.000000,4.000000,4.000000,4.000000,4.000000,0.000000,,,,,,,,,,,,,,,,,,,,,,,,,,,,
1732156901.529861,1732156901.530780,27.000000,0.000000,4325.897461,4284.102539,4325.256348,4312.307617,4279.487305,4279.743652,4330.128418,4398.077148,4311.153809,4291.666504,4504.487305,4522.563965,4376.538574,4436.153809,0.000000,1.000000,26.000000,,,,0.000000,2.000000,2.000000,0.000000,4.000000,2.000000,2.000000,0.000000,0.000000,4.000000,4.000000,4.000000,4.000000,4.000000,4.000000,0.000000,,,,,,,,,,,,,,,,,,,,,,,,,,,,
1732156901.537669,1732156901.538488,28.000000,0.000000,4328.846191,4285.641113,4324.358887,4311.282227,4280.641113,4279.871582,4327.179688,4396.410156,4314.871582,4297.820313,4498.589844,4525.128418,4370.897461,4434.871582,0.000000,1.000000,26.000000,,,,0.000000,2.000000,2.000000,0.000000,4.000000,2.000000,2.000000,0.000000,0.000000,4.000000,4.000000,4.000000,4.000000,4.000000,4.000000,0.000000,,,,,,,,,,,,,,,,,7.000000,0.000000,0.516912,0.467407,-0.562744,0.444580,0.989867,0.001953,-0.058113,-35.332561,45.338482,31.435080
1732156901.545478,1732156901.546296,29.000000,0.000000,4324.102539,4280.128418,4323.717773,4313.589844,4296.153809,4278.333496,4332.436035,4399.102539,4312.436035,4288.077148,4487.948730,4523.333496,4365.384766,4430.769043,0.000000,1.000000,26.000000,,,,0.000000,2.000000,2.000000,0.000000,4.000000,2.000000,2.000000,0.000000,0.000000,4.000000,4.000000,4.000000,4.000000,4.000000,4.000000,0.000000,,,,,,,,,,,,,,,,,,,,,,,,,,,,
1732156901.553286,1732156901.553905,30.000000,0.000000,4317.051270,4279.743652,4322.563965,4319.358887,4293.333496,4283.717773,4337.179688,4399.230957,4307.692383,4278.717773,4489.230957,4510.897461,4364.615234,4424.230957,0.000000,1.000000,26.000000,,,,0.000000,2.000000,2.000000,0.000000,4.000000,2.000000,2.000000,0.000000,0.000000,4.000000,4.000000,4.000000,4.000000,4.000000,4.000000,0.000000,,,,,,,,,,,,,,,,,,,,,,,,,,,,
1732156901.561094,1732156901.561713,31.000000,0.000000,4320.512695,4289.743652,4321.153809,4320.128418,4274.230957,4291.922852,4333.205078,4398.589844,4310.384766,4287.692383,4494.230957,4509.358887,4365.897461,4425.641113,0.000000,1.000000,26.000000,,,,0.000000,2.000000,2.000000,0.000000,4.000000,2.000000,2.000000,0.000000,0.000000,4.000000,4.000000,4.000000,4.000000,4.000000,4.000000,0.000000,,,,,,,,,,,,,,,,,,,,,,,,,,,,
1732156901.568902,1732156901.569421,32.000000,0.000000,4322.820313,4296.153809,4322.051270,4317.820313,4274.487305,4289.102539,4328.589844,4400.256348,4310.512695,4292.179688,4491.666504,4518.461426,4362.563965,4429.487305,0.000000,1.000000,26.000000,,,,0.000000,2.000000,2.000000,0.000000,4.000000,2.000000,2.000000,0.000000,0.000000,4.000000,4.000000,4.000000,4.000000,4.000000,4.000000,0.000000,,,,,,,,,,,,,,,,,8.000000,0.000000,0.517125,0.467407,-0.562500,0.444641,0.975217,-0.006348,-0.063973,-35.697708,45.150837,31.445749
1732156901.576711,1732156901.577229,33.000000,0.000000,4317.948730,4294.102539,4323.717773,4320.256348,4284.230957,4281.410156,4332.563965,4401.282227,4298.717773,4281.410156,4488.205078,4526.025879,4356.025879,4427.307617,0.000000,1.000000,26.000000,,,,0.000000,2.000000,2.000000,0.000000,4.000000,2.000000,2.000000,0.000000,0.000000,4.000000,4.000000,4.000000,4.000000,4.000000,4.000000,0.000000,,,,,,,,,,,,,,,,,,,,,,,,,,,,
1732156901.584519,1732156901.584838,34.000000,0.000000,4320.384766,4292.948730,4324.102539,4323.333496,4281.666504,4285.384766,4335.641113,4401.794922,4294.743652,4278.077148,4493.717773,4526.538574,4358.461426,4428.077148,0.000000,1.000000,26.000000,,,,0.000000,2.000000,2.000000,0.000000,4.000000,2.000000,2.000000,0.000000,0.000000,4.000000,4.000000,4.000000,4.000000,4.000000,4.000000,0.000000,,,,,,,,,,,,,,,,,,,,,,,,,,,,
1732156901.592327,1732156901.592646,35.000000,0.000000,4329.615234,4295.897461,4323.333496,4324.743652,4280.512695,4294.487305,4333.974121,4400.384766,4309.230957,4285.128418,4496.538574,4528.717773,4363.461426,4432.307617,0.000000,1.000000,26.000000,,,,0.000000,2.000000,2.000000,0.000000,4.000000,2.000000,2.000000,0.000000,0.000000,4.000000,4.000000,4.000000,4.000000,4.000000,4.000000,0.000000,,,,,,,,,,,,,,,,,,,,,,,,,,,,
1732156901.600135,1732156901.600354,36.000000,0.000000,4327.051270,4296.794922,4323.846191,4325.897461,4283.974121,4293.589844,4333.461426,4396.922852,4313.846191,4285.769043,4490.512695,4532.820313,4358.589844,4431.794922,0.000000,1.000000,26.000000,,,,0.000000,2.000000,2.000000,0.000000,4.000000,2.000000,2.000000,0.000000,0.000000,4.000000,4.000000,4.000000,4.000000,4.000000,4.000000,0.000000,,,,,,,,,,,,,,,,,9.000000,0.000000,0.517523,0.467468,-0.561890,0.444885,0.983030,-0.010255,-0.053229,-35.913475,45.122177,31.519390
1732156901.607944,1732156901.608162,37.000000,0.000000,4316.153809,4293.589844,4324.615234,4321.153809,4281.794922,4288.589844,4334.102539,4398.077148,4302.948730,4282.307617,4488.717773,4530.128418,4353.461426,4427.948730,0.000000,1.000000,26.000000,,,,0.000000,2.000000,2.000000,0.000000,4.000000,2.000000,2.000000,0.000000,0.000000,4.000000,4.000000,4.000000,4.000000,4.000000,4.000000,0.000000,,,,,,,,,,,,,,,,,,,,,,,,,,,,
1732156901.615752,1732156901.615771,38.000000,0.000000,4316.410156,4293.589844,4325.256348,4317.948730,4284.743652,4289.871582,4333.846191,4400.641113,4305.000000,4281.410156,4492.563965,4529.358887,4356.025879,4427.563965,0.000000,1.000000,26.000000,,,,0.000000,2.000000,2.000000,0.000000,4.000000,2.000000,2.000000,0.000000,0.000000,4.000000,4.000000,4.000000,4.000000,4.000000,4.000000,0.000000,,,,,,,,,,,,,,,,,,,,,,,,,,,,
1732156901.623560,1732156901.623579,39.000000,0.000000,4321.410156,4297.692383,4323.461426,4322.692383,4287.948730,4292.436035,4335.128418,4398.846191,4313.589844,4281.922852,4490.000000,4530.512695,4358.717773,4429.871582,0.000000,1.000000,26.000000,,,,0.000000,2.000000,2.000000,0.000000,4.000000,2.000000,2.000000,0.000000,0.000000,4.000000,4.000000,4.000000,4.000000,4.000000,4.000000,0.000000,,,,,,,,,,,,,,,,,,,,,,,,,,,,
1732156901.631368,1732156901.631287,40.000000,0.000000,4317.948730,4298.589844,4321.538574,4322.179688,4283.846191,4288.589844,4334.615234,4396.794922,4303.717773,4280.897461,4485.128418,4525.897461,4357.436035,4430.769043,0.000000,1.000000,26.000000,,,,0.000000,2.000000,2.000000,0.000000,4.000000,2.000000,2.000000,0.000000,0.000000,4.000000,4.000000,4.000000,4.000000,4.000000,4.000000,0.000000,,,,,,,,,,,,,,,,,10.000000,0.000000,0.518207,0.467224,-0.561462,0.444885,0.972775,-0.009767,-0.040532,-35.779915,44.968964,31.362371
1732156901.639176,1732156901.639096,41.000000,0.000000,4310.384766,4295.512695,4321.410156,4313.974121,4293.205078,4280.384766,4328.846191,4397.563965,4294.230957,4281.153809,4487.179688,4521.282227,4356.538574,4430.000000,0.000000,1.000000,26.000000,,,,0.000000,2.000000,2.000000,0.000000,4.000000,2.000000,2.000000,0.000000,0.000000,4.000000,4.000000,4.000000,4.000000,4.000000,4.000000,0.000000,,,,,,,,,,,,,,,,,,,,,,,,,,,,
1732156901.646985,1732156901.647104,42.000000,0.000000,4309.487305,4294.871582,4321.153809,4310.000000,4296.922852,4278.077148,4326.282227,4398.461426,4305.641113,4288.333496,4492.051270,4523.717773,4357.563965,4428.333496,0.000000,1.000000,26.000000,,,,0.000000,2.000000,2.000000,0.000000,4.000000,2.000000,2.000000,0.000000,0.000000,4.000000,4.000000,4.000000,4.000000,4.000000,4.000000,0.000000,,,,,,,,,,,,,,,,,,,,,,,,,,,,
1732156901.654793,1732156901.654912,43.000000,0.000000,4316.922852,4296.282227,4319.871582,4313.846191,4273.717773,4282.563965,4331.025879,4398.974121,4315.769043,4294.871582,4491.410156,4523.974121,4358.077148,4428.077148,0.000000,1.000000,26.000000,,,,0.000000,2.000000,2.000000,0.000000,4.000000,2.000000,2.000000,0.000000,0.000000,4.000000,4.000000,4.000000,4.000000,4.000000,4.000000,0.000000,,,,,,,,,,,,,,,,,,,,,,,,,,,,
1732156901.662601,1732156901.662820,44.000000,0.000000,4320.641113,4295.256348,4319.487305,4318.589844,4262.436035,4285.897461,4331.794922,4398.589844,4311.538574,4295.256348,4484.871582,4526.666504,4357.820313,4429.743652,0.000000,1.000000,26.000000,,,,0.000000,2.000000,2.000000,0.000000,4.000000,2.000000,2.000000,0.000000,0.000000,4.000000,4.000000,4.000000,4.000000,4.000000,4.000000,0.000000,,,,,,,,,,,,,,,,,11.000000,0.000000,0.518218,0.467285,-0.561401,0.444885,0.964962,-0.005372,-0.062019,-35.486732,44.834862,31.208521
1732156901.670410,1732156901.670628,45.000000,0.000000,4314.615234,4292.820313,4320.512695,4318.717773,4279.102539,4282.692383,4329.102539,4398.846191,4309.871582,4295.641113,4485.256348,4534.743652,4357.307617,4428.205078,0.000000,1.000000,26.000000,,,,0.000000,2.000000,2.000000,0.000000,4.000000,2.000000,2.000000,0.000000,0.000000,4.000000,4.000000,4.000000,4.000000,4.000000,4.000000,0.000000,,,,,,,,,,,,,,,,,,,,,,,,,,,,
1732156901.678218,1732156901.678636,46.000000,0.000000,4308.717773,4290.769043,4322.820313,4316.666504,4284.871582,4280.769043,4331.282227,4398.717773,4313.333496,4294.871582,4488.589844,4529.230957,4355.256348,4426.922852,0.000000,1.000000,26.000000,,,,0.000000,2.000000,2.000000,0.000000,4.000000,2.000000,2.000000,0.000000,0.000000,4.000000,4.000000,4.000000,4.000000,4.000000,4.000000,0.000000,,,,,,,,,,,,,,,,,,,,,,,,,,,,
1732156901.686026,1732156901.686444,47.000000,0.000000,4312.307617,4292.948730,4323.077148,4319.230957,4276.025879,4281.666504,4334.743652,4397.563965,4306.922852,4287.051270,4483.589844,4522.563965,4351.538574,4425.769043,0.000000,1.000000,26.000000,,,,0.000000,2.000000,2.000000,0.000000,4.000000,2.000000,2.000000,0.000000,0.000000,4.000000,4.000000,4.000000,4.000000,4.000000,4.000000,0.000000,,,,,,,,,,,,,,,,,,,,,,,,,,,,
1732156901.693834,1732156901.694153,48.000000,0.000000,4314.230957,4290.641113,4321.666504,4320.384766,4282.051270,4281.666504,4333.077148,4398.205078,4297.692383,4278.333496,4474.743652,4525.897461,4346.410156,4421.025879,0.000000,1.000000,26.000000,,,,0.000000,2.000000,2.000000,0.000000,4.000000,2.000000,2.000000,0.000000,0.000000,4.000000,4.000000,4.000000,4.000000,4.000000,4.000000,0.000000,,,,,,,,,,,,,,,,,12.000000,0.000000,0.518218,0.467285,-0.561401,0.444885,0.975217,-0.005372,-0.048834,-35.324253,44.771236,31.053902
1732156901.701642,1732156901.701961,49.000000,0.000000,4310.128418,4284.102539,4321.794922,4315.256348,4284.743652,4284.358887,4334.230957,4400.256348,4298.846191,4276.538574,4474.358887,4527.563965,4343.333496,4419.743652,0.000000,1.000000,26.000000,,,,0.000000,2.000000,2.000000,0.000000,4.000000,2.000000,2.000000,0.000000,0.000000,4.000000,4.000000,4.000000,4.000000,4.000000,4.000000,0.000000,,,,,,,,,,,,,,,,,,,,,,,,,,,,
1732156901.709451,1732156901.709569,50.000000,0.000000,4315.128418,4288.077148,4322.051270,4314.358887,4279.102539,4285.000000,4334.615234,4398.846191,4304.102539,4281.922852,4484.743652,4523.205078,4348.077148,4426.922852,0.000000,1.000000,26.000000,,,,0.000000,2.000000,2.000000,0.000000,4.000000,2.000000,2.000000,0.000000,0.000000,4.000000,4.000000,4.000000,4.000000,4.000000,4.000000,0.000000,,,,,,,,,,,,,,,,,,,,,,,,,,,,
1732156901.717259,1732156901.717377,51.000000,0.000000,4321.538574,4296.666504,4322.179688,4319.615234,4293.461426,4278.846191,4325.512695,4396.153809,4307.563965,4284.871582,4484.871582,4521.922852,4351.153809,4430.512695,0.000000,1.000000,26.000000,,,,0.000000,2.000000,2.000000,0.000000,4.000000,2.000000,2.000000,0.000000,0.000000,4.000000,4.000000,4.000000,4.000000,4.000000,4.000000,0.000000,,,,,,,,,,,,,,,,,,,,,,,,,,,,
1732156901.725067,1732156901.725286,52.000000,0.000000,4319.358887,4296.666504,4322.436035,4323.974121,4302.563965,4280.000000,4323.846191,4396.153809,4309.615234,4284.487305,4477.051270,4524.102539,4347.307617,4425.512695,0.000000,1.000000,26.000000,,,,0.000000,2.000000,2.000000,0.000000,4.000000,2.000000,2.000000,0.000000,0.000000,4.000000,4.000000,4.000000,4.000000,4.000000,4.000000,0.000000,,,,,,,,,,,,,,,,,13.000000,0.000000,0.518068,0.466736,-0.561707,0.445251,0.977658,-0.023440,-0.059578,-35.375977,44.841370,31.233662
1732156901.732875,1732156901.733094,53.000000,0.000000,4317.820313,4294.743652,4322.948730,4323.589844,4286.025879,4291.538574,4333.846191,4398.077148,4309.230957,4291.025879,4483.077148,4526.153809,4348.333496,4424.615234,0.000000,1.000000,26.000000,,,,0.000000,2.000000,2.000000,0.000000,4.000000,2.000000,2.000000,0.000000,0.000000,4.000000,4.000000,4.000000,4.000000,4.000000,4.000000,0.000000,,,,,,,,,,,,,,,,,,,,,,,,,,,,
1732156901.740684,1732156901.741102,54.000000,0.000000,4317.692383,4296.666504,4322.307617,4318.846191,4273.205078,4296.025879,4335.128418,4399.615234,4308.717773,4297.948730,4489.487305,4523.974121,4352.692383,4423.846191,0.000000,1.000000,26.000000,,,,0.000000,2.000000,2.000000,0.000000,4.000000,2.000000,2.000000,0.000000,0.000000,4.000000,4.000000,4.000000,4.000000,4.000000,4.000000,0.000000,,,,,,,,,,,,,,,,,,,,,,,,,,,,
1732156901.748492,1732156901.748910,55.000000,0.000000,4313.205078,4295.897461,4322.051270,4317.692383,4280.384766,4291.410156,4331.153809,4399.230957,4312.563965,4295.000000,4479.615234,4520.384766,4349.871582,4417.692383,0.000000,1.000000,26.000000,,,,0.000000,2.000000,2.000000,0.000000,4.000000,2.000000,2.000000,0.000000,0.000000,4.000000,4.000000,4.000000,4.000000,4.000000,4.000000,0.000000,,,,,,,,,,,,,,,,,,,,,,,,,,,,
1732156901.756300,1732156901.756818,56.000000,0.000000,4309.743652,4294.358887,4321.922852,4323.717773,4288.589844,4290.769043,4333.333496,4399.615234,4313.974121,4286.666504,4472.563965,4521.282227,4347.436035,4413.333496,0.000000,1.000000,26.000000,,,,0.000000,2.000000,2.000000,0.000000,4.000000,2.000000,2.000000,0.000000,0.000000,4.000000,4.000000,4.000000,4.000000,4.000000,4.000000,0.000000,,,,,,,,,,,,,,,,,14.000000,0.000000,0.517679,0.466187,-0.562134,0.445740,0.973752,-0.014650,-0.062019,-35.479542,44.943176,31.395931
1732156901.764108,1732156901.764626,57.000000,0.000000,4310.000000,4295.512695,4320.384766,4327.179688,4294.102539,4293.077148,4332.307617,4400.128418,4310.897461,4281.282227,4476.538574,4519.615234,4348.846191,4413.846191,0.000000,1.000000,26.000000,,,,0.000000,2.000000,2.000000,0.000000,4.000000,2.000000,2.000000,0.000000,0.000000,4.000000,4.000000,4.000000,4.000000,4.000000,4.000000,0.000000,,,,,,,,,,,,,,,,,,,,,,,,,,,,
1732156901.771917,1732156901.772634,58.000000,0.000000,4309.871582,4295.256348,4320.512695,4326.282227,4294.871582,4295.897461,4329.871582,4398.333496,4312.307617,4282.179688,4474.102539,4518.717773,4348.077148,4417.948730,0.000000,1.000000,26.000000,,,,0.000000,2.000000,2.000000,0.000000,4.000000,2.000000,2.000000,0.000000,0.000000,4.000000,4.000000,4.000000,4.000000,4.000000,4.000000,0.000000,,,,,,,,,,,,,,,,,,,,,,,,,,,,
1732156901.779725,1732156901.780443,59.000000,0.000000,4310.769043,4296.282227,4325.000000,4325.641113,4296.794922,4293.333496,4333.974121,4397.692383,4314.102539,4284.615234,4471.153809,4522.179688,4349.615234,4420.000000,0.000000,1.000000,26.000000,,,,0.000000,2.000000,2.000000,0.000000,4.000000,2.000000,2.000000,0.000000,0.000000,4.000000,4.000000,4.000000,4.000000,4.000000,4.000000,0.000000,,,,,,,,,,,,,,,,,,,,,,,,,,,,
1732156901.787533,1732156901.788351,60.000000,0.000000,4310.256348,4296.282227,4326.538574,4322.563965,4313.077148,4286.282227,4335.769043,4398.589844,4312.307617,4285.384766,4473.717773,4523.461426,4351.538574,4418.589844,0.000000,1.000000,26.000000,,,,0.000000,2.000000,2.000000,0.000000,4.000000,2.000000,2.000000,0.000000,0.000000,4.000000,4.000000,4.000000,4.000000,4.000000,4.000000,0.000000,,,,,,,,,,,,,,,,,15.000000,0.000000,0.517584,0.465881,-0.562378,0.445862,0.973752,-0.014650,-0.062019,-35.420097,45.207306,31.479038
1732156901.795341,1732156901.796159,61.000000,0.000000,4310.897461,4295.512695,4321.538574,4322.051270,4306.025879,4286.410156,4332.820313,4398.461426,4310.897461,4288.846191,4477.307617,4522.307617,4350.641113,4418.717773,0.000000,1.000000,26.000000,,,,0.000000,2.000000,2.000000,0.000000,4.000000,2.000000,2.000000,0.000000,0.000000,4.000000,4.000000,4.000000,4.000000,4.000000,4.000000,0.000000,,,,,,,,,,,,,,,,,,,,,,,,,,,,
1732156901.803150,1732156901.804167,62.000000,0.000000,4311.794922,4296.538574,4317.563965,4325.000000,4275.641113,4293.077148,4333.333496,4398.846191,4314.871582,4298.333496,4479.230957,4523.077148,4350.897461,4420.897461,0.000000,1.000000,26.000000,,,,0.000000,2.000000,2.000000,0.000000,4.000000,2.000000,2.000000,0.000000,0.000000,4.000000,4.000000,4.000000,4.000000,4.000000,4.000000,0.000000,,,,,,,,,,,,,,,,,,,,,,,,,,,,
1732156901.810958,1732156901.811975,63.000000,0.000000,4305.000000,4296.922852,4319.615234,4319.102539,4282.692383,4288.589844,4334.230957,4402.563965,4316.282227,4295.897461,4474.358887,4525.256348,4351.025879,4416.282227,0.000000,1.000000,26.000000,,,,0.000000,2.000000,2.000000,0.000000,4.000000,2.000000,2.000000,0.000000,0.000000,4.000000,4.000000,4.000000,4.000000,4.000000,4.000000,0.000000,,,,,,,,,,,,,,,,,,,,,,,,,,,,
1732156901.818766,1732156901.819883,64.000000,0.000000,4300.384766,4295.897461,4322.307617,4312.179688,4304.487305,4279.871582,4330.384766,4402.563965,4309.102539,4285.384766,4473.077148,4516.922852,4349.230957,4410.000000,0.000000,1.000000,26.000000,,,,0.000000,2.000000,2.000000,0.000000,4.000000,2.000000,2.000000,0.000000,0.000000,4.000000,4.000000,4.000000,4.000000,4.000000,4.000000,0.000000,,,,,,,,,,,,,,,,,16.000000,0.000000,0.517497,0.465698,-0.562561,0.445923,0.983518,-0.025394,-0.066903,-35.351944,45.242916,31.638021
1732156901.826574,1732156901.827691,65.000000,0.000000,4301.282227,4295.128418,4320.256348,4315.000000,4289.102539,4285.641113,4327.692383,4398.461426,4306.666504,4287.692383,4475.641113,4507.436035,4348.589844,4412.820313,1588.000000,1.000000,26.000000,,,,0.000000,2.000000,2.000000,0.000000,4.000000,2.000000,2.000000,0.000000,0.000000,4.000000,4.000000,4.000000,4.000000,4.000000,4.000000,0.000000,,,,,,,,,,,,,,,,,,,,,,,,,,,,
1732156901.834383,1732156901.835699,66.000000,0.000000,4300.128418,4296.666504,4319.358887,4317.307617,4272.307617,4292.692383,4328.717773,4397.436035,4312.179688,4291.282227,4472.051270,4516.410156,4348.974121,4416.794922,1391.000000,1.000000,26.000000,,,,0.000000,2.000000,2.000000,0.000000,4.000000,2.000000,2.000000,0.000000,0.000000,4.000000,4.000000,4.000000,4.000000,4.000000,4.000000,0.000000,,,,,,,,,,,,,,,,,,,,,,,,,,,,
1732156901.842191,1732156901.843508,67.000000,0.000000,4300.128418,4299.487305,4322.179688,4315.512695,4284.230957,4288.461426,4328.717773,4399.102539,4314.871582,4285.769043,4471.538574,4522.692383,4348.077148,4416.282227,1409.000000,1.000000,26.000000,,,,0.000000,2.000000,2.000000,0.000000,4.000000,2.000000,2.000000,0.000000,0.000000,4.000000,4.000000,4.000000,4.000000,4.000000,4.000000,0.000000,,,,,,,,,,,,,,,,,,,,,,,,,,,,
1732156901.849999,1732156901.851416,68.000000,0.000000,4305.769043,4298.461426,4323.205078,4317.820313,4293.205078,4288.205078,4327.436035,4399.358887,4313.333496,4287.820313,4476.794922,4514.102539,4348.974121,4415.769043,1406.000000,1.000000,26.000000,,,,0.000000,2.000000,2.000000,0.000000,4.000000,2.000000,2.000000,0.000000,0.000000,4.000000,4.000000,4.000000,4.000000,4.000000,4.000000,0.000000,,,,,,,,,,,,,,,,,17.000000,0.000000,0.517368,0.465149,-0.562988,0.446106,0.975705,-0.014650,-0.071786,-35.370075,45.148430,31.526796
1732156901.857807,1732156901.859224,69.000000,0.000000,4309.487305,4294.871582,4320.000000,4320.512695,4292.179688,4294.230957,4330.641113,4397.051270,4313.077148,4292.307617,4476.666504,4513.333496,4349.743652,4414.743652,1240.000000,1.000000,26.000000,,,,0.000000,2.000000,2.000000,0.000000,4.000000,2.000000,2.000000,0.000000,0.000000,4.000000,4.000000,4.000000,4.000000,4.000000,4.000000,0.000000,,,,,,,,,,,,,,,,,,,,,,,,,,,,
1732156901.865615,1732156901.866832,70.000000,0.000000,4309.358887,4298.205078,4319.615234,4319.230957,4296.538574,4292.820313,4335.512695,4396.282227,4314.743652,4286.282227,4469.615234,4522.179688,4348.974121,4417.948730,0.000000,1.000000,26.000000,,,,0.000000,2.000000,2.000000,0.000000,4.000000,2.000000,2.000000,0.000000,0.000000,4.000000,4.000000,4.000000,4.000000,4.000000,4.000000,0.000000,,,,,,,,,,,,,,,,,,,,,,,,,,,,
1732156901.873424,1732156901.874641,71.000000,0.000000,4311.025879,4303.077148,4320.769043,4320.641113,4299.615234,4288.846191,4335.128418,4398.717773,4313.846191,4282.436035,4466.282227,4521.922852,4349.615234,4425.128418,0.000000,1.000000,26.000000,,,,0.000000,2.000000,2.000000,0.000000,4.000000,2.000000,2.000000,0.000000,0.000000,4.000000,4.000000,4.000000,4.000000,4.000000,4.000000,0.000000,,,,,,,,,,,,,,,,,,,,,,,,,,,,
1732156901.881232,1732156901.882349,72.000000,0.000000,4313.333496,4303.333496,4320.641113,4324.615234,4291.538574,4289.871582,4332.179688,4399.102539,4310.897461,4286.153809,4471.666504,4520.000000,4350.384766,4430.128418,1523.000000,1.000000,26.000000,,,,0.000000,2.000000,2.000000,0.000000,4.000000,2.000000,2.000000,0.000000,0.000000,4.000000,4.000000,4.000000,4.000000,4.000000,4.000000,0.000000,,,,,,,,,,,,,,,,,18.000000,0.000000,0.517220,0.465271,-0.562927,0.446228,0.975705,-0.014650,-0.071786,-35.439762,45.090229,31.381706
1732156901.889040,1732156901.890157,73.000000,0.000000,4314.487305,4307.563965,4320.897461,4326.538574,4293.589844,4283.589844,4327.948730,4396.666504,4311.153809,4288.589844,4472.307617,4523.589844,4353.205078,4430.128418,1663.000000,1.000000,26.000000,,,,0.000000,2.000000,2.000000,0.000000,4.000000,2.000000,2.000000,0.000000,0.000000,4.000000,4.000000,4.000000,4.000000,4.000000,4.000000,0.000000,,,,,,,,,,,,,,,,,,,,,,,,,,,,
1732156901.896849,1732156901.897765,74.000000,0.000000,4313.846191,4312.307617,4319.871582,4324.615234,4309.615234,4277.179688,4326.025879,4396.410156,4312.051270,4292.307617,4467.307617,4523.846191,4356.282227,4430.512695,1516.000000,1.000000,26.000000,,,,0.000000,2.000000,2.000000,0.000000,4.000000,2.000000,2.000000,0.000000,0.000000,4.000000,4.000000,4.000000,4.000000,4.000000,4.000000,0.000000,,,,,,,,,,,,,,,,,,,,,,,,,,,,
1732156901.904657,1732156901.905574,75.000000,0.000000,4314.743652,4309.743652,4318.589844,4324.743652,4302.692383,4288.205078,4330.128418,4398.205078,4308.974121,4290.256348,4469.487305,4520.641113,4353.461426,4431.282227,1568.000000,1.000000,26.000000,,,,0.000000,2.000000,2.000000,0.000000,4.000000,2.000000,2.000000,0.000000,0.000000,4.000000,4.000000,4.000000,4.000000,4.000000,4.000000,0.000000,,,,,,,,,,,,,,,,,,,,,,,,,,,,
1732156901.912465,1732156901.913282,76.000000,0.000000,4313.717773,4303.589844,4321.282227,4323.974121,4278.589844,4292.692383,4332.307617,4398.077148,4307.948730,4288.333496,4477.563965,4516.282227,4350.256348,4430.384766,1691.000000,1.000000,26.000000,,,,0.000000,2.000000,2.000000,0.000000,4.000000,2.000000,2.000000,0.000000,0.000000,4.000000,4.000000,4.000000,4.000000,4.000000,4.000000,0.000000,,,,,,,,,,,,,,,,,19.000000,0.000000,0.516535,0.465698,-0.562622,0.446960,0.974240,-0.030765,-0.064949,-35.419540,44.978085,31.024181
1732156901.920273,1732156901.921090,77.000000,0.000000,4307.820313,4298.077148,4322.179688,4315.897461,4278.077148,4282.179688,4331.153809,4396.538574,4311.025879,4294.102539,4478.846191,4516.922852,4353.077148,4430.897461,1678.000000,1.000000,26.000000,,,,0.000000,2.000000,2.000000,0.000000,4.000000,2.000000,2.000000,0.000000,0.000000,4.000000,4.000000,4.000000,4.000000,4.000000,4.000000,0.000000,,,,,,,,,,,,,,,,,,,,,,,,,,,,
1732156901.928081,1732156901.928699,78.000000,0.000000,4306.025879,4295.897461,4320.128418,4313.205078,4290.128418,4286.538574,4330.256348,4397.820313,4310.000000,4291.153809,4469.358887,4522.051270,4351.153809,4430.256348,1516.000000,1.000000,26.000000,,,,0.000000,2.000000,2.000000,0.000000,4.000000,2.000000,2.000000,0.000000,0.000000,4.000000,4.000000,4.000000,4.000000,4.000000,4.000000,0.000000,1.000000,0.000000,2.000000,2.000000,0.000000,4.000000,2.000000,2.000000,0.000000,0.000000,4.000000,4.000000,4.000000,4.000000,4.000000,4.000000,,,,,,,,,,,,
1732156901.935890,1732156901.936507,79.000000,0.000000,4305.897461,4297.051270,4320.641113,4319.102539,4292.820313,4297.051270,4330.384766,4400.512695,4308.077148,4280.641113,4461.025879,4518.205078,4344.102539,4426.666504,1568.000000,1.000000,26.000000,,,,0.000000,2.000000,2.000000,0.000000,4.000000,2.000000,2.000000,0.000000,0.000000,4.000000,4.000000,4.000000,4.000000,4.000000,4.000000,0.000000,,,,,,,,,,,,,,,,,,,,,,,,,,,,
1732156901.943698,1732156901.944215,80.000000,0.000000,4299.358887,4296.025879,4322.051270,4319.871582,4293.589844,4295.512695,4333.589844,4399.615234,4308.333496,4282.563965,4460.641113,4505.512695,4342.692383,4425.384766,1691.000000,1.000000,26.000000,,,,0.000000,2.000000,2.000000,0.000000,4.000000,2.000000,2.000000,0.000000,0.000000,4.000000,4.000000,4.000000,4.000000,4.000000,4.000000,0.000000,,,,,,,,,,,,,,,,,20.000000,0.000000,0.516302,0.465515,-0.562744,0.447266,0.974240,-0.033696,-0.064949,-35.459827,44.868916,31.091253
1732156901.951506,1732156901.952023,81.000000,0.000000,4295.897461,4293.589844,4319.102539,4316.794922,4296.153809,4298.974121,4336.538574,4397.051270,4311.410156,4290.000000,4460.641113,4504.871582,4341.794922,4425.512695,1678.000000,1.000000,26.000000,,,,0.000000,2.000000,2.000000,0.000000,4.000000,2.000000,2.000000,0.000000,0.000000,4.000000,4.000000,4.000000,4.000000,4.000000,4.000000,0.000000,,,,,,,,,,,,,,,,,,,,,,,,,,,,
1732156901.959314,1732156901.959632,82.000000,0.000000,4302.307617,4295.000000,4317.563965,4318.333496,4306.666504,4305.128418,4334.230957,4397.307617,4316.666504,4292.948730,4459.743652,4517.692383,4342.948730,4421.025879,1516.000000,1.000000,26.000000,,,,0.000000,2.000000,2.000000,0.000000,4.000000,2.000000,2.000000,0.000000,0.000000,4.000000,4.000000,4.000000,4.000000,4.000000,4.000000,0.000000,,,,,,,,,,,,,,,,,,,,,,,,,,,,
1732156901.967123,1732156901.967440,83.000000,0.000000,4304.487305,4296.153809,4320.512695,4320.000000,4318.974121,4297.563965,4334.871582,4397.692383,4316.922852,4294.358887,4468.077148,4522.563965,4349.487305,4418.205078,1568.000000,1.000000,26.000000,,,,0.000000,2.000000,2.000000,0.000000,4.000000,2.000000,2.000000,0.000000,0.000000,4.000000,4.000000,4.000000,4.000000,4.000000,4.000000,0.000000,,,,,,,,,,,,,,,,,,,,,,,,,,,,
1732156901.974931,1732156901.975148,84.000000,0.000000,4297.563965,4296.794922,4321.153809,4320.384766,4301.282227,4291.794922,4337.436035,4396.282227,4313.589844,4295.769043,4478.461426,4519.615234,4351.922852,4423.077148,1691.000000,1.000000,26.000000,,,,0.000000,2.000000,2.000000,0.000000,4.000000,2.000000,2.000000,0.000000,0.000000,4.000000,4.000000,4.000000,4.000000,4.000000,4.000000,0.000000,,,,,,,,,,,,,,,,,21.000000,0.000000,0.516344,0.465454,-0.562805,0.447205,0.981565,-0.032230,-0.060066,-35.457458,44.852154,31.328915
1732156901.982739,1732156901.982956,85.000000,0.000000,4295.641113,4298.077148,4321.282227,4321.025879,4277.692383,4293.205078,4332.051270,4396.666504,4312.692383,4294.230957,4474.230957,4520.769043,4347.820313,4428.461426,1678.000000,1.000000,26.000000,,,,0.000000,2.000000,2.000000,0.000000,4.000000,2.000000,2.000000,0.000000,0.000000,4.000000,4.000000,4.000000,4.000000,4.000000,4.000000,0.000000,,,,,,,,,,,,,,,,,,,,,,,,,,,,
1732156901.990548,1732156901.990565,86.000000,0.000000,4303.333496,4297.179688,4319.230957,4320.256348,4285.256348,4291.282227,4329.487305,4398.589844,4312.436035,4294.358887,4470.000000,4524.102539,4347.948730,4428.846191,1516.000000,1.000000,26.000000,,,,0.000000,2.000000,2.000000,0.000000,4.000000,2.000000,2.000000,0.000000,0.000000,4.000000,4.000000,4.000000,4.000000,4.000000,4.000000,0.000000,,,,,,,,,,,,,,,,,,,,,,,,,,,,
1732156901.998356,1732156901.998373,87.000000,0.000000,4305.897461,4295.897461,4316.025879,4318.974121,4297.051270,4287.948730,4331.282227,4398.461426,4310.769043,4297.051270,4477.307617,4525.512695,4353.333496,4422.820313,1568.000000,1.000000,26.000000,,,,0.000000,2.000000,2.000000,0.000000,4.000000,2.000000,2.000000,0.000000,0.000000,4.000000,4.000000,4.000000,4.000000,4.000000,4.000000,0.000000,,,,,,,,,,,,,,,,,,,,,,,,,,,,
1732156902.006164,1732156902.006081,88.000000,0.000000,4298.205078,4294.743652,4319.615234,4316.282227,4292.563965,4283.333496,4330.641113,4397.692383,4309.743652,4294.230957,4475.641113,4518.333496,4349.871582,4413.974121,1691.000000,1.000000,26.000000,,,,0.000000,2.000000,2.000000,0.000000,4.000000,2.000000,2.000000,0.000000,0.000000,4.000000,4.000000,4.000000,4.000000,4.000000,4.000000,0.000000,,,,,,,,,,,,,,,,,22.000000,0.000000,0.516321,0.465332,-0.562927,0.447205,0.978147,-0.023440,-0.076181,-35.687210,44.785244,31.456421
1732156902.013972,1732156902.013890,89.000000,0.000000,4294.871582,4293.333496,4325.897461,4316.282227,4290.128418,4279.871582,4331.153809,4398.077148,4308.589844,4288.846191,4459.743652,4509.871582,4339.102539,4411.410156,1678.000000,1.000000,26.000000,,,,0.000000,2.000000,2.000000,0.000000,4.000000,2.000000,2.000000,0.000000,0.000000,4.000000,4.000000,4.000000,4.000000,4.000000,4.000000,0.000000,,,,,,,,,,,,,,,,,,,,,,,,,,,,
1732156902.021780,1732156902.021498,90.000000,0.000000,4302.179688,4293.974121,4322.820313,4320.000000,4296.666504,4284.743652,4334.102539,4398.205078,4300.897461,4292.948730,4457.563965,4511.666504,4341.410156,4414.615234,1516.000000,1.000000,26.000000,,,,0.000000,2.000000,2.000000,0.000000,4.000000,2.000000,2.000000,0.000000,0.000000,4.000000,4.000000,4.000000,4.000000,4.000000,4.000000,0.000000,,,,,,,,,,,,,,,,,,,,,,,,,,,,
1732156902.029589,1732156902.029306,91.000000,0.000000,4305.769043,4295.769043,4315.769043,4319.615234,4295.000000,4291.538574,4334.487305,4396.922852,4298.077148,4295.512695,4467.692383,4512.563965,4350.897461,4415.256348,1568.000000,1.000000,26.000000,,,,0.000000,2.000000,2.000000,0.000000,4.000000,2.000000,2.000000,0.000000,0.000000,4.000000,4.000000,4.000000,4.000000,4.000000,4.000000,0.000000,,,,,,,,,,,,,,,,,,,,,,,,,,,,
1732156902.037397,1732156902.037015,92.000000,0.000000,4301.153809,4294.743652,4317.948730,4315.897461,4291.025879,4293.461426,4334.358887,4397.179688,4303.461426,4289.358887,4466.666504,4503.717773,4345.769043,4413.333496,1691.000000,1.000000,26.000000,,,,0.000000,2.000000,2.000000,0.000000,4.000000,2.000000,2.000000,0.000000,0.000000,4.000000,4.000000,4.000000,4.000000,4.000000,4.000000,0.000000,,,,,,,,,,,,,,,,,23.000000,0.000000,0.516236,0.465515,-0.562805,0.447266,0.979612,-0.016115,-0.056159,-35.621639,44.946049,31.508036
1732156902.045205,1732156902.044823,93.000000,0.000000,4301.794922,4292.820313,4318.461426,4318.077148,4309.102539,4296.025879,4334.358887,4398.461426,4305.384766,4289.230957,4461.153809,4502.307617,4337.436035,4412.692383,1678.000000,1.000000,26.000000,,,,0.000000,2.000000,2.000000,0.000000,4.000000,2.000000,2.000000,0.000000,0.000000,4.000000,4.000000,4.000000,4.000000,4.000000,4.000000,0.000000,,,,,,,,,,,,,,,,,,,,,,,,,,,,
1732156902.053013,1732156902.052831,94.000000,0.000000,4306.794922,4295.000000,4315.641113,4324.230957,4315.769043,4296.666504,4332.692383,4398.333496,4304.487305,4294.743652,4461.538574,4507.179688,4342.820313,4413.333496,1516.000000,1.000000,26.000000,,,,0.000000,2.000000,2.000000,0.000000,4.000000,2.000000,2.000000,0.000000,0.000000,4.000000,4.000000,4.000000,4.000000,4.000000,4.000000,0.000000,,,,,,,,,,,,,,,,,,,,,,,,,,,,
1732156902.060822,1732156902.060639,95.000000,0.000000,4303.717773,4295.897461,4317.948730,4321.794922,4287.948730,4294.102539,4333.077148,4397.563965,4308.846191,4296.282227,4458.846191,4504.615234,4347.179688,4413.333496,1568.000000,1.000000,26.000000,,,,0.000000,2.000000,2.000000,0.000000,4.000000,2.000000,2.000000,0.000000,0.000000,4.000000,4.000000,4.000000,4.000000,4.000000,4.000000,0.000000,,,,,,,,,,,,,,,,,,,,,,,,,,,,
1732156902.068630,1732156902.068547,96.000000,0.000000,4295.384766,4292.692383,4321.666504,4314.487305,4273.205078,4291.410156,4333.846191,4397.179688,4313.717773,4295.897461,4458.974121,4503.974121,4344.487305,4411.410156,1691.000000,1.000000,26.000000,,,,0.000000,2.000000,2.000000,0.000000,4.000000,2.000000,2.000000,0.000000,0.000000,4.000000,4.000000,4.000000,4.000000,4.000000,4.000000,0.000000,,,,,,,,,,,,,,,,,24.000000,0.000000,0.516383,0.465454,-0.562866,0.447083,0.975705,-0.014162,-0.049811,-35.661861,44.849632,31.613174
1732156902.076438,1732156902.076355,97.000000,0.000000,4293.205078,4292.307617,4322.820313,4316.666504,4286.794922,4290.769043,4334.871582,4397.948730,4311.922852,4295.256348,4460.641113,4507.692383,4345.512695,4412.820313,1678.000000,1.000000,26.000000,,,,0.000000,2.000000,2.000000,0.000000,4.000000,2.000000,2.000000,0.000000,0.000000,4.000000,4.000000,4.000000,4.000000,4.000000,4.000000,0.000000,,,,,,,,,,,,,,,,,,,,,,,,,,,,
1732156902.084246,1732156902.084363,98.000000,0.000000,4294.615234,4295.256348,4321.538574,4322.051270,4302.820313,4293.846191,4336.025879,4398.461426,4305.128418,4289.743652,4450.897461,4503.333496,4343.974121,4413.846191,1516.000000,1.000000,26.000000,,,,0.000000,2.000000,2.000000,0.000000,4.000000,2.000000,2.000000,0.000000,0.000000,4.000000,4.000000,4.000000,4.000000,4.000000,4.000000,0.000000,,,,,,,,,,,,,,,,,,,,,,,,,,,,
1732156902.092054,1732156902.092171,99.000000,0.000000,4293.974121,4295.897461,4318.846191,4318.717773,4313.846191,4296.025879,4333.717773,4397.179688,4301.282227,4282.563965,4442.179688,4494.230957,4335.769043,4404.230957,1568.000000,1.000000,26.000000,,,,0.000000,2.000000,2.000000,0.000000,4.000000,2.000000,2.000000,0.000000,0.000000,4.000000,4.000000,4.000000,4.000000,4.000000,4.000000,0.000000,,,,,,,,,,,,,,,,,,,,,,,,,,,,
1732156902.099863,1732156902.099880,100.000000,0.000000,4293.717773,4295.000000,4319.102539,4315.897461,4308.974121,4295.512695,4332.692383,4397.179688,4301.922852,4280.512695,4445.000000,4489.487305,4332.179688,4397.948730,1691.000000,1.000000,26.000000,,,,0.000000,2.000000,2.000000,0.000000,4.000000,2.000000,2.000000,0.000000,0.000000,4.000000,4.000000,4.000000,4.000000,4.000000,4.000000,0.000000,,,,,,,,,,,,,,,,,25.000000,0.000000,0.516438,0.465393,-0.562866,0.447083,0.982542,-0.033207,-0.056648,-35.649441,44.771538,31.653337
1732156902.107671,1732156902.107688,101.000000,0.000000,4294.358887,4297.179688,4321.410156,4321.025879,4291.922852,4297.820313,4333.589844,4398.333496,4303.205078,4286.282227,4449.871582,4490.512695,4335.000000,4407.820313,1678.000000,1.000000,26.000000,,,,0.000000,2.000000,2.000000,0.000000,4.000000,2.000000,2.000000,0.000000,0.000000,4.000000,4.000000,4.000000,4.000000,4.000000,4.000000,0.000000,,,,,,,,,,,,,,,,,,,,,,,,,,,,
1732156902.115479,1732156902.115296,102.000000,0.000000,4294.102539,4297.820313,4321.153809,4323.077148,4292.820313,4302.692383,4332.948730,4396.538574,4305.641113,4295.128418,4454.871582,4495.897461,4339.102539,4415.128418,1516.000000,1.000000,26.000000,,,,0.000000,2.000000,2.000000,0.000000,4.000000,2.000000,2.000000,0.000000,0.000000,4.000000,4.000000,4.000000,4.000000,4.000000,4.000000,0.000000,,,,,,,,,,,,,,,,,,,,,,,,,,,,
1732156902.123288,1732156902.123105,103.000000,0.000000,4294.487305,4295.512695,4319.358887,4318.846191,4302.948730,4297.563965,4331.025879,4397.051270,4307.948730,4298.846191,4457.563965,4501.538574,4342.563965,4410.256348,1568.000000,1.000000,26.000000,,,,0.000000,2.000000,2.000000,0.000000,4.000000,2.000000,2.000000,0.000000,0.000000,4.000000,4.000000,4.000000,4.000000,4.000000,4.000000,0.000000,,,,,,,,,,,,,,,,,,,,,,,,,,,,
1732156902.131096,1732156902.131013,104.000000,0.000000,4296.410156,4295.000000,4320.641113,4316.282227,4298.205078,4286.025879,4329.743652,4398.717773,4304.358887,4298.974121,4456.410156,4503.461426,4342.436035,4410.769043,1691.000000,1.000000,26.000000,,,,0.000000,2.000000,2.000000,0.000000,4.000000,2.000000,2.000000,0.000000,0.000000,4.000000,4.000000,4.000000,4.000000,4.000000,4.000000,0.000000,,,,,,,,,,,,,,,,,26.000000,0.000000,0.516509,0.465210,-0.563049,0.446960,0.987425,-0.029789,-0.061531,-35.557713,44.656612,31.687538
1732156902.138904,1732156902.138821,105.000000,0.000000,4296.922852,4295.897461,4319.487305,4316.794922,4292.179688,4287.820313,4331.538574,4395.384766,4305.897461,4299.358887,4458.205078,4503.589844,4342.307617,4413.717773,1678.000000,1.000000,26.000000,,,,0.000000,2.000000,2.000000,0.000000,4.000000,2.000000,2.000000,0.000000,0.000000,4.000000,4.000000,4.000000,4.000000,4.000000,4.000000,0.000000,,,,,,,,,,,,,,,,,,,,,,,,,,,,
1732156902.146712,1732156902.146829,106.000000,0.000000,4295.384766,4295.128418,4317.436035,4315.897461,4304.102539,4294.102539,4331.025879,4393.974121,4311.410156,4299.230957,4457.563965,4506.538574,4342.436035,4405.641113,1516.000000,1.000000,26.000000,,,,0.000000,2.000000,2.000000,0.000000,4.000000,2.000000,2.000000,0.000000,0.000000,4.000000,4.000000,4.000000,4.000000,4.000000,4.000000,0.000000,,,,,,,,,,,,,,,,,,,,,,,,,,,,
1732156902.154521,1732156902.154637,107.000000,0.000000,4294.743652,4294.102539,4318.974121,4315.512695,4317.307617,4291.025879,4329.102539,4395.512695,4305.769043,4297.948730,4448.461426,4503.846191,4335.512695,4400.384766,1568.000000,1.000000,26.000000,,,,0.000000,2.000000,2.000000,0.000000,4.000000,2.000000,2.000000,0.000000,0.000000,4.000000,4.000000,4.000000,4.000000,4.000000,4.000000,0.000000,,,,,,,,,,,,,,,,,,,,,,,,,,,,
1732156902.162329,1732156902.162545,108.000000,0.000000,4294.102539,4292.436035,4318.461426,4315.256348,4304.743652,4289.230957,4331.538574,4395.128418,4301.025879,4296.282227,4449.487305,4495.641113,4327.820313,4404.230957,1691.000000,1.000000,26.000000,,,,0.000000,2.000000,2.000000,0.000000,4.000000,2.000000,2.000000,0.000000,0.000000,4.000000,4.000000,4.000000,4.000000,4.000000,4.000000,0.000000,,,,,,,,,,,,,,,,,27.000000,0.000000,0.516592,0.465515,-0.562866,0.446777,0.969357,-0.020022,-0.064461,-35.673416,44.815189,31.630239
1732156902.170137,1732156902.170353,109.000000,0.000000,4292.692383,4291.282227,4315.512695,4312.563965,4287.307617,4295.641113,4335.256348,4396.153809,4306.282227,4295.128418,4458.461426,4490.897461,4332.692383,4405.000000,1678.000000,1.000000,26.000000,,,,0.000000,2.000000,2.000000,0.000000,4.000000,2.000000,2.000000,0.000000,0.000000,4.000000,4.000000,4.000000,4.000000,4.000000,4.000000,0.000000,,,,,,,,,,,,,,,,,,,,,,,,,,,,
1732156902.177945,1732156902.178361,110.000000,0.000000,4294.102539,4291.025879,4314.102539,4310.000000,4296.666504,4299.743652,4333.974121,4398.333496,4307.563965,4295.384766,4457.051270,4492.948730,4336.153809,4404.102539,1516.000000,1.000000,26.000000,,,,0.000000,2.000000,2.000000,0.000000,4.000000,2.000000,2.000000,0.000000,0.000000,4.000000,4.000000,4.000000,4.000000,4.000000,4.000000,0.000000,,,,,,,,,,,,,,,,,,,,,,,,,,,,
1732156902.185753,1732156902.186170,111.000000,0.000000,4297.692383,4290.769043,4316.153809,4312.051270,4299.102539,4297.436035,4332.436035,4396.282227,4303.846191,4295.769043,4453.333496,4496.410156,4330.512695,4406.922852,1568.000000,1.000000,26.000000,,,,0.000000,2.000000,2.000000,0.000000,4.000000,2.000000,2.000000,0.000000,0.000000,4.000000,4.000000,4.000000,4.000000,4.000000,4.000000,0.000000,,,,,,,,,,,,,,,,,,,,,,,,,,,,
1732156902.193562,1732156902.194078,112.000000,0.000000,4296.538574,4290.641113,4315.256348,4312.436035,4292.307617,4295.512695,4334.358887,4395.128418,4304.743652,4294.358887,4457.307617,4496.538574,4330.384766,4406.410156,1691.000000,1.000000,26.000000,,,,0.000000,2.000000,2.000000,0.000000,4.000000,2.000000,2.000000,0.000000,0.000000,4.000000,4.000000,4.000000,4.000000,4.000000,4.000000,0.000000,,,,,,,,,,,,,,,,,28.000000,0.000000,0.516578,0.466003,-0.562378,0.446899,0.983030,-0.002442,-0.064949,-35.683800,44.996967,31.512159
1732156902.201370,1732156902.201886,113.000000,0.000000,4296.922852,4293.974121,4315.769043,4312.307617,4308.333496,4293.461426,4330.641113,4397.948730,4309.102539,4294.102539,4459.487305,4501.025879,4335.641113,4403.589844,1678.000000,1.000000,26.000000,,,,0.000000,2.000000,2.000000,0.000000,4.000000,2.000000,2.000000,0.000000,0.000000,4.000000,4.000000,4.000000,4.000000,4.000000,4.000000,0.000000,,,,,,,,,,,,,,,,,,,,,,,,,,,,
1732156902.209178,1732156902.209894,114.000000,0.000000,4302.436035,4296.538574,4317.820313,4317.051270,4311.794922,4294.358887,4327.307617,4397.820313,4312.436035,4297.179688,4458.846191,4506.922852,4335.384766,4405.769043,1516.000000,1.000000,26.000000,,,,0.000000,2.000000,2.000000,0.000000,4.000000,2.000000,2.000000,0.000000,0.000000,4.000000,4.000000,4.000000,4.000000,4.000000,4.000000,0.000000,,,,,,,,,,,,,,,,,,,,,,,,,,,,
1732156902.216987,1732156902.217702,115.000000,0.000000,4302.051270,4291.282227,4316.282227,4317.563965,4291.538574,4298.974121,4330.256348,4397.051270,4312.820313,4299.487305,4458.461426,4504.871582,4334.102539,4403.974121,1568.000000,1.000000,26.000000,,,,0.000000,2.000000,2.000000,0.000000,4.000000,2.000000,2.000000,0.000000,0.000000,4.000000,4.000000,4.000000,4.000000,4.000000,4.000000,0.000000,,,,,,,,,,,,,,,,,,,,,,,,,,,,
1732156902.224795,1732156902.225610,116.000000,0.000000,4295.641113,4287.307617,4316.538574,4314.615234,4292.051270,4298.333496,4333.846191,4396.025879,4307.948730,4298.077148,4449.358887,4502.820313,4333.077148,4401.153809,1691.000000,1.000000,26.000000,,,,0.000000,2.000000,2.000000,0.000000,4.000000,2.000000,2.000000,0.000000,0.000000,4.000000,4.000000,4.000000,4.000000,4.000000,4.000000,0.000000,,,,,,,,,,,,,,,,,29.000000,0.000000,0.516523,0.466064,-0.562378,0.446899,0.968380,-0.018069,-0.069344,-35.775543,44.902546,31.604849
1732156902.232603,1732156902.233419,117.000000,0.000000,4295.384766,4292.692383,4322.051270,4318.717773,4302.307617,4297.307617,4336.922852,4396.410156,4305.128418,4296.538574,4445.256348,4506.410156,4334.358887,4407.051270,1678.000000,1.000000,26.000000,,,,0.000000,2.000000,2.000000,0.000000,4.000000,2.000000,2.000000,0.000000,0.000000,4.000000,4.000000,4.000000,4.000000,4.000000,4.000000,0.000000,,,,,,,,,,,,,,,,,,,,,,,,,,,,
1732156902.240411,1732156902.241427,118.000000,0.000000,4299.230957,4296.282227,4322.307617,4321.153809,4304.615234,4302.307617,4335.384766,4398.589844,4310.384766,4298.846191,4458.717773,4505.128418,4339.358887,4409.358887,1516.000000,1.000000,26.000000,,,,0.000000,2.000000,2.000000,0.000000,4.000000,2.000000,2.000000,0.000000,0.000000,4.000000,4.000000,4.000000,4.000000,4.000000,4.000000,0.000000,,,,,,,,,,,,,,,,,,,,,,,,,,,,
1732156902.248219,1732156902.249235,119.000000,0.000000,4297.948730,4290.897461,4315.384766,4313.205078,4314.102539,4301.666504,4329.871582,4397.820313,4311.282227,4298.717773,4460.256348,4493.077148,4338.205078,4401.794922,1568.000000,1.000000,26.000000,,,,0.000000,2.000000,2.000000,0.000000,4.000000,2.000000,2.000000,0.000000,0.000000,4.000000,4.000000,4.000000,4.000000,4.000000,4.000000,0.000000,,,,,,,,,,,,,,,,,,,,,,,,,,,,
1732156902.256028,1732156902.256943,120.000000,0.000000,4297.051270,4288.974121,4313.461426,4311.153809,4311.153809,4295.000000,4330.512695,4394.871582,4306.282227,4293.077148,4444.871582,4488.077148,4331.282227,4398.333496,1691.000000,1.000000,26.000000,,,,0.000000,2.000000,2.000000,0.000000,4.000000,2.000000,2.000000,0.000000,0.000000,4.000000,4.000000,4.000000,4.000000,4.000000,4.000000,0.000000,,,,,,,,,,,,,,,,,30.000000,0.000000,0.516468,0.466125,-0.562378,0.446899,0.982053,-0.025882,-0.074716,-35.779858,45.121063,31.656595
1732156902.263836,1732156902.264751,121.000000,0.000000,4301.922852,4291.794922,4316.410156,4317.948730,4290.769043,4295.256348,4333.974121,4396.410156,4311.922852,4293.461426,4447.436035,4499.358887,4329.487305,4399.487305,1678.000000,1.000000,26.000000,,,,0.000000,2.000000,2.000000,0.000000,4.000000,2.000000,2.000000,0.000000,0.000000,4.000000,4.000000,4.000000,4.000000,4.000000,4.000000,0.000000,,,,,,,,,,,,,,,,,,,,,,,,,,,,
1732156902.271644,1732156902.272360,122.000000,0.000000,4305.769043,4292.563965,4314.615234,4316.282227,4291.025879,4298.717773,4330.384766,4398.077148,4308.205078,4295.641113,4455.641113,4503.205078,4328.974121,4398.717773,1516.000000,1.000000,26.000000,,,,0.000000,2.000000,2.000000,0.000000,4.000000,2.000000,2.000000,0.000000,0.000000,4.000000,4.000000,4.000000,4.000000,4.000000,4.000000,0.000000,,,,,,,,,,,,,,,,,,,,,,,,,,,,
1732156902.279452,1732156902.280168,123.000000,0.000000,4307.179688,4291.282227,4315.769043,4309.871582,4299.102539,4296.153809,4325.641113,4395.000000,4295.000000,4291.922852,4450.256348,4495.256348,4326.538574,4401.282227,1568.000000,1.000000,26.000000,,,,0.000000,2.000000,2.000000,0.000000,4.000000,2.000000,2.000000,0.000000,0.000000,4.000000,4.000000,4.000000,4.000000,4.000000,4.000000,0.000000,,,,,,,,,,,,,,,,,,,,,,,,,,,,
1732156902.287261,1732156902.287876,124.000000,0.000000,4306.025879,4287.948730,4321.922852,4312.948730,4294.102539,4294.358887,4330.128418,4394.358887,4303.974121,4291.922852,4447.563965,4495.000000,4327.563965,4403.205078,1691.000000,1.000000,26.000000,,,,0.000000,2.000000,2.000000,0.000000,4.000000,2.000000,2.000000,0.000000,0.000000,4.000000,4.000000,4.000000,4.000000,4.000000,4.000000,0.000000,,,,,,,,,,,,,,,,,31.000000,0.000000,0.516493,0.466187,-0.562256,0.446960,0.979612,-0.020022,-0.064461,-35.850018,45.314728,31.548508
1732156902.295069,1732156902.295684,125.000000,0.000000,4304.487305,4283.589844,4322.179688,4317.948730,4303.333496,4295.384766,4333.717773,4397.563965,4310.384766,4289.871582,4446.538574,4501.794922,4325.769043,4402.820313,1678.000000,1.000000,26.000000,,,,0.000000,2.000000,2.000000,0.000000,4.000000,2.000000,2.000000,0.000000,0.000000,4.000000,4.000000,4.000000,4.000000,4.000000,4.000000,0.000000,,,,,,,,,,,,,,,,,,,,,,,,,,,,
1732156902.302877,1732156902.303293,126.000000,0.000000,4306.666504,4281.538574,4317.051270,4314.871582,4316.025879,4295.384766,4331.538574,4396.794922,4297.307617,4285.000000,4446.538574,4503.846191,4324.358887,4405.512695,1516.000000,1.000000,26.000000,,,,0.000000,2.000000,2.000000,0.000000,4.000000,2.000000,2.000000,0.000000,0.000000,4.000000,4.000000,4.000000,4.000000,4.000000,4.000000,0.000000,,,,,,,,,,,,,,,,,,,,,,,,,,,,
1732156902.310685,1732156902.311101,127.000000,0.000000,4306.666504,4283.333496,4313.589844,4312.436035,4301.666504,4296.538574,4333.461426,4395.512695,4300.641113,4290.641113,4456.794922,4504.358887,4332.436035,4408.205078,26.000000,1.000000,26.000000,,,,0.000000,2.000000,2.000000,0.000000,4.000000,2.000000,2.000000,0.000000,0.000000,4.000000,4.000000,4.000000,4.000000,4.000000,4.000000,0.000000,,,,,,,,,,,,,,,,,,,,,,,,,,,,
1732156902.318494,1732156902.318809,0.000000,0.000000,4300.000000,4283.461426,4315.512695,4312.051270,4287.563965,4297.563965,4335.769043,4398.846191,4313.974121,4297.436035,4463.077148,4506.025879,4335.000000,4407.820313,0.000000,1.000000,26.000000,,,,0.000000,2.000000,2.000000,0.000000,4.000000,2.000000,2.000000,0.000000,0.000000,4.000000,4.000000,4.000000,4.000000,4.000000,4.000000,0.000000,,,,,,,,,,,,,,,,,0.000000,0.000000,0.516504,0.466248,-0.562195,0.446960,0.968868,-0.003418,-0.074228,-35.863514,45.148262,31.459291
1732156902.326302,1732156902.326618,1.000000,0.000000,4295.897461,4280.769043,4317.436035,4309.615234,4293.846191,4297.563965,4335.256348,4399.230957,4310.256348,4293.205078,4458.333496,4505.512695,4333.461426,4407.051270,1588.000000,1.000000,26.000000,,,,0.000000,2.000000,2.000000,0.000000,4.000000,2.000000,2.000000,0.000000,0.000000,4.000000,4.000000,4.000000,4.000000,4.000000,4.000000,0.000000,,,,,,,,,,,,,,,,,,,,,,,,,,,,
1732156902.334110,1732156902.334226,2.000000,0.000000,4297.948730,4282.179688,4313.717773,4308.974121,4297.820313,4297.563965,4336.666504,4395.897461,4307.563965,4291.282227,4458.205078,4507.307617,4334.102539,4406.153809,1391.000000,1.000000,26.000000,,,,0.000000,2.000000,2.000000,0.000000,4.000000,2.000000,2.000000,0.000000,0.000000,4.000000,4.000000,4.000000,4.000000,4.000000,4.000000,0.000000,,,,,,,,,,,,,,,,,,,,,,,,,,,,
1732156902.341918,1732156902.342034,3.000000,0.000000,4297.948730,4284.487305,4312.692383,4311.794922,4295.897461,4297.307617,4337.820313,4395.128418,4311.666504,4295.128418,4460.641113,4503.589844,4332.820313,4400.128418,1409.000000,1.000000,26.000000,,,,0.000000,2.000000,2.000000,0.000000,4.000000,2.000000,2.000000,0.000000,0.000000,4.000000,4.000000,4.000000,4.000000,4.000000,4.000000,0.000000,,,,,,,,,,,,,,,,,,,,,,,,,,,,
1732156902.349727,1732156902.349742,4.000000,0.000000,4295.000000,4283.589844,4318.717773,4309.358887,4299.230957,4297.051270,4333.589844,4397.307617,4310.384766,4293.974121,4453.333496,4499.358887,4329.487305,4395.897461,1404.000000,1.000000,26.000000,,,,0.000000,2.000000,2.000000,0.000000,4.000000,2.000000,2.000000,0.000000,0.000000,4.000000,4.000000,4.000000,4.000000,4.000000,4.000000,0.000000,,,,,,,,,,,,,,,,,1.000000,0.000000,0.516515,0.466309,-0.562134,0.446960,0.975217,-0.021975,-0.062508,-36.089447,44.995090,31.472027
1732156902.357535,1732156902.357551,5.000000,0.000000,4295.000000,4281.282227,4321.282227,4305.897461,4296.922852,4297.307617,4332.948730,4397.307617,4311.538574,4292.948730,4447.179688,4504.230957,4328.461426,4397.692383,1240.000000,1.000000,26.000000,,,,0.000000,2.000000,2.000000,0.000000,4.000000,2.000000,2.000000,0.000000,0.000000,4.000000,4.000000,4.000000,4.000000,4.000000,4.000000,0.000000,,,,,,,,,,,,,,,,,,,,,,,,,,,,
1732156902.365343,1732156902.365159,6.000000,0.000000,4296.538574,4283.461426,4319.487305,4308.461426,4299.871582,4296.282227,4336.922852,4396.538574,4310.384766,4293.589844,4451.410156,4506.025879,4331.666504,4399.358887,0.000000,1.000000,26.000000,,,,0.000000,2.000000,2.000000,0.000000,4.000000,2.000000,2.000000,0.000000,0.000000,4.000000,4.000000,4.000000,4.000000,4.000000,4.000000,0.000000,,,,,,,,,,,,,,,,,,,,,,,,,,,,
1732156902.373151,1732156902.372967,7.000000,0.000000,4297.051270,4288.205078,4319.743652,4312.436035,4312.820313,4295.384766,4334.871582,4396.922852,4306.666504,4293.333496,4459.230957,4501.025879,4334.743652,4396.153809,0.000000,1.000000,26.000000,,,,0.000000,2.000000,2.000000,0.000000,4.000000,2.000000,2.000000,0.000000,0.000000,4.000000,4.000000,4.000000,4.000000,4.000000,4.000000,0.000000,,,,,,,,,,,,,,,,,,,,,,,,,,,,
1732156902.380960,1732156902.380676,8.000000,0.000000,4295.128418,4288.846191,4320.641113,4311.153809,4304.230957,4297.948730,4332.692383,4397.307617,4310.000000,4293.717773,4460.641113,4497.179688,4333.589844,4391.153809,1523.000000,1.000000,26.000000,,,,0.000000,2.000000,2.000000,0.000000,4.000000,2.000000,2.000000,0.000000,0.000000,4.000000,4.000000,4.000000,4.000000,4.000000,4.000000,0.000000,,,,,,,,,,,,,,,,,2.000000,0.000000,0.516472,0.466431,-0.562073,0.446960,0.981077,-0.029300,-0.072274,-36.055786,44.979359,31.479008
1732156902.388768,1732156902.388484,9.000000,0.000000,4293.589844,4285.256348,4318.077148,4310.000000,4285.641113,4302.948730,4335.000000,4397.051270,4314.358887,4294.487305,4453.846191,4493.589844,4327.051270,4386.410156,1663.000000,1.000000,26.000000,,,,0.000000,2.000000,2.000000,0.000000,4.000000,2.000000,2.000000,0.000000,0.000000,4.000000,4.000000,4.000000,4.000000,4.000000,4.000000,0.000000,,,,,,,,,,,,,,,,,,,,,,,,,,,,
1732156902.396576,1732156902.396092,10.000000,0.000000,4294.743652,4284.487305,4315.769043,4314.487305,4291.153809,4304.102539,4335.128418,4396.025879,4311.666504,4293.846191,4452.436035,4492.179688,4325.897461,4383.717773,1518.000000,1.000000,26.000000,,,,0.000000,2.000000,2.000000,0.000000,4.000000,2.000000,2.000000,0.000000,0.000000,4.000000,4.000000,4.000000,4.000000,4.000000,4.000000,0.000000,,,,,,,,,,,,,,,,,,,,,,,,,,,,
1732156902.404384,1732156902.403900,11.000000,0.000000,4295.641113,4283.333496,4315.512695,4316.025879,4300.512695,4298.974121,4332.307617,4395.256348,4307.179688,4289.358887,4453.461426,4495.897461,4331.282227,4389.487305,1568.000000,1.000000,26.000000,,,,0.000000,2.000000,2.000000,0.000000,4.000000,2.000000,2.000000,0.000000,0.000000,4.000000,4.000000,4.000000,4.000000,4.000000,4.000000,0.000000,,,,,,,,,,,,,,,,,,,,,,,,,,,,
1732156902.412192,1732156902.411609,12.000000,0.000000,4296.410156,4280.897461,4317.948730,4312.948730,4294.358887,4296.282227,4332.307617,4396.410156,4310.769043,4288.333496,4448.077148,4502.563965,4331.410156,4394.615234,1693.000000,1.000000,26.000000,,,,0.000000,2.000000,2.000000,0.000000,4.000000,2.000000,2.000000,0.000000,0.000000,4.000000,4.000000,4.000000,4.000000,4.000000,4.000000,0.000000,,,,,,,,,,,,,,,,,3.000000,0.000000,0.516272,0.466431,-0.562256,0.446960,0.975217,-0.030277,-0.073251,-35.961853,44.899948,31.617996
1732156902.420001,1732156902.419417,13.000000,0.000000,4298.077148,4283.846191,4319.487305,4312.563965,4302.820313,4298.077148,4334.743652,4397.948730,4312.179688,4290.769043,4446.410156,4502.948730,4328.461426,4393.846191,1681.000000,1.000000,26.000000,,,,0.000000,2.000000,2.000000,0.000000,4.000000,2.000000,2.000000,0.000000,0.000000,4.000000,4.000000,4.000000,4.000000,4.000000,4.000000,0.000000,,,,,,,,,,,,,,,,,,,,,,,,,,,,
1732156902.427809,1732156902.427425,14.000000,0.000000,4296.922852,4285.512695,4317.179688,4315.000000,4317.563965,4296.410156,4333.974121,4397.948730,4305.256348,4286.538574,4454.743652,4498.333496,4327.179688,4390.897461,1518.000000,1.000000,26.000000,,,,0.000000,2.000000,2.000000,0.000000,4.000000,2.000000,2.000000,0.000000,0.000000,4.000000,4.000000,4.000000,4.000000,4.000000,4.000000,0.000000,1.000000,0.000000,2.000000,2.000000,0.000000,4.000000,2.000000,2.000000,0.000000,0.000000,4.000000,4.000000,4.000000,4.000000,3.000000,3.000000,,,,,,,,,,,,
1732156902.435617,1732156902.435233,15.000000,0.000000,4298.333496,4284.102539,4314.487305,4318.974121,4304.615234,4293.974121,4333.077148,4398.717773,4304.615234,4284.230957,4460.769043,4499.487305,4327.692383,4387.820313,1568.000000,1.000000,26.000000,,,,0.000000,2.000000,2.000000,0.000000,4.000000,2.000000,2.000000,0.000000,0.000000,4.000000,4.000000,4.000000,4.000000,4.000000,4.000000,0.000000,,,,,,,,,,,,,,,,,,,,,,,,,,,,
1732156902.443426,1732156902.442941,16.000000,0.000000,4302.820313,4287.563965,4315.128418,4320.000000,4288.077148,4295.769043,4333.333496,4399.358887,4308.846191,4290.769043,4457.051270,4505.641113,4328.333496,4391.025879,0.000000,1.000000,26.000000,,,,0.000000,2.000000,2.000000,0.000000,4.000000,2.000000,2.000000,0.000000,0.000000,4.000000,4.000000,4.000000,4.000000,4.000000,4.000000,0.000000,,,,,,,,,,,,,,,,,4.000000,0.000000,0.516130,0.466309,-0.562439,0.447021,0.975217,-0.030277,-0.073251,-35.969101,45.235622,31.817244
1732156902.451234,1732156902.450750,17.000000,0.000000,4301.282227,4286.025879,4319.358887,4315.641113,4293.205078,4297.563965,4334.487305,4397.948730,4306.282227,4290.641113,4457.436035,4508.589844,4328.589844,4398.077148,0.000000,1.000000,26.000000,,,,0.000000,2.000000,2.000000,0.000000,4.000000,2.000000,2.000000,0.000000,0.000000,4.000000,4.000000,4.000000,4.000000,4.000000,4.000000,0.000000,,,,,,,,,,,,,,,,,,,,,,,,,,,,
1732156902.459042,1732156902.458358,18.000000,0.000000,4295.512695,4281.025879,4320.512695,4313.846191,4298.717773,4297.692383,4335.000000,4397.179688,4302.051270,4282.051270,4455.897461,4503.333496,4326.410156,4397.436035,0.000000,1.000000,26.000000,,,,0.000000,2.000000,2.000000,0.000000,4.000000,2.000000,2.000000,0.000000,0.000000,4.000000,4.000000,4.000000,4.000000,4.000000,4.000000,0.000000,,,,,,,,,,,,,,,,,,,,,,,,,,,,
1732156902.466850,1732156902.466166,19.000000,0.000000,4295.128418,4281.410156,4318.077148,4315.384766,4297.436035,4298.461426,4333.333496,4398.077148,4305.512695,4280.384766,4450.384766,4493.333496,4320.641113,4389.615234,0.000000,1.000000,26.000000,,,,0.000000,2.000000,2.000000,0.000000,4.000000,2.000000,2.000000,0.000000,0.000000,4.000000,4.000000,4.000000,4.000000,4.000000,4.000000,0.000000,,,,,,,,,,,,,,,,,,,,,,,,,,,,
1732156902.474658,1732156902.474074,20.000000,0.000000,4293.717773,4282.051270,4318.333496,4311.282227,4301.922852,4298.077148,4332.820313,4398.077148,4305.384766,4282.820313,4450.512695,4490.769043,4320.256348,4386.794922,0.000000,1.000000,26.000000,,,,0.000000,2.000000,2.000000,0.000000,4.000000,2.000000,2.000000,0.000000,0.000000,4.000000,4.000000,4.000000,4.000000,4.000000,4.000000,0.000000,,,,,,,,,,,,,,,,,5.000000,0.000000,0.515666,0.465881,-0.562927,0.447388,0.966915,-0.021487,-0.064949,-35.764973,45.275856,31.810301
1732156902.482467,1732156902.481883,21.000000,0.000000,4291.025879,4279.615234,4322.051270,4308.589844,4302.948730,4297.820313,4335.384766,4397.948730,4303.589844,4282.179688,4446.538574,4504.615234,4324.743652,4391.794922,0.000000,1.000000,26.000000,,,,0.000000,2.000000,2.000000,0.000000,4.000000,2.000000,2.000000,0.000000,0.000000,4.000000,4.000000,4.000000,4.000000,4.000000,4.000000,0.000000,,,,,,,,,,,,,,,,,,,,,,,,,,,,
1732156902.490275,1732156902.489891,22.000000,0.000000,4294.743652,4280.897461,4320.769043,4311.794922,4305.641113,4295.897461,4334.871582,4398.077148,4307.179688,4281.538574,4444.871582,4508.846191,4327.179688,4395.256348,0.000000,1.000000,26.000000,,,,0.000000,2.000000,2.000000,0.000000,4.000000,2.000000,2.000000,0.000000,0.000000,4.000000,4.000000,4.000000,4.000000,4.000000,4.000000,0.000000,,,,,,,,,,,,,,,,,,,,,,,,,,,,
1732156902.498083,1732156902.497699,23.000000,0.000000,4294.615234,4282.820313,4316.153809,4312.820313,4312.820313,4292.948730,4331.282227,4397.436035,4304.871582,4285.000000,4455.128418,4495.128418,4326.922852,4393.846191,0.000000,1.000000,26.000000,,,,0.000000,2.000000,2.000000,0.000000,4.000000,2.000000,2.000000,0.000000,0.000000,4.000000,4.000000,4.000000,4.000000,4.000000,4.000000,0.000000,,,,,,,,,,,,,,,,,,,,,,,,,,,,
1732156902.505891,1732156902.505607,24.000000,0.000000,4288.846191,4282.179688,4315.769043,4311.794922,4302.179688,4293.077148,4331.794922,4397.436035,4298.077148,4294.102539,4462.436035,4496.025879,4327.051270,4392.692383,0.000000,1.000000,26.000000,,,,0.000000,2.000000,2.000000,0.000000,4.000000,2.000000,2.000000,0.000000,0.000000,4.000000,4.000000,4.000000,4.000000,4.000000,4.000000,0.000000,,,,,,,,,,,,,,,,,6.000000,0.000000,0.515482,0.465820,-0.563049,0.447510,0.970333,-0.021975,-0.067391,-35.691292,45.211777,31.658010
1732156902.513700,1732156902.513415,25.000000,0.000000,4291.025879,4282.307617,4318.846191,4310.512695,4285.000000,4293.717773,4333.333496,4397.692383,4295.384766,4294.615234,4457.948730,4507.307617,4325.769043,4397.436035,0.000000,1.000000,26.000000,,,,0.000000,2.000000,2.000000,0.000000,4.000000,2.000000,2.000000,0.000000,0.000000,4.000000,4.000000,4.000000,4.000000,4.000000,4.000000,0.000000,,,,,,,,,,,,,,,,,,,,,,,,,,,,
1732156902.521508,1732156902.521423,26.000000,0.000000,4295.384766,4282.948730,4318.717773,4308.205078,4284.615234,4294.230957,4334.487305,4397.307617,4300.384766,4290.384766,4456.025879,4504.871582,4321.410156,4398.974121,0.000000,1.000000,26.000000,,,,0.000000,2.000000,2.000000,0.000000,4.000000,2.000000,2.000000,0.000000,0.000000,4.000000,4.000000,4.000000,4.000000,4.000000,4.000000,0.000000,,,,,,,,,,,,,,,,,,,,,,,,,,,,
1732156902.529316,1732156902.529231,27.000000,0.000000,4293.974121,4282.179688,4316.922852,4308.717773,4297.307617,4294.871582,4333.333496,4397.692383,4305.384766,4290.897461,4456.794922,4493.846191,4317.436035,4392.051270,0.000000,1.000000,26.000000,,,,0.000000,2.000000,2.000000,0.000000,4.000000,2.000000,2.000000,0.000000,0.000000,4.000000,4.000000,4.000000,4.000000,4.000000,4.000000,0.000000,,,,,,,,,,,,,,,,,,,,,,,,,,,,
1732156902.537125,1732156902.537139,28.000000,0.000000,4293.589844,4282.692383,4317.563965,4309.487305,4309.871582,4296.922852,4330.512695,4397.692383,4302.820313,4287.563965,4455.128418,4487.563965,4317.436035,4389.358887,0.000000,1.000000,26.000000,,,,0.000000,2.000000,2.000000,0.000000,4.000000,2.000000,2.000000,0.000000,0.000000,4.000000,4.000000,4.000000,4.000000,4.000000,4.000000,0.000000,,,,,,,,,,,,,,,,,7.000000,0.000000,0.515282,0.465881,-0.562988,0.447754,0.978147,-0.033207,-0.062508,-35.821613,45.046539,31.424656
1732156902.544933,1732156902.544948,29.000000,0.000000,4295.384766,4287.307617,4317.307617,4309.230957,4308.717773,4301.153809,4332.948730,4397.051270,4297.051270,4284.743652,4458.077148,4491.025879,4320.256348,4394.487305,0.000000,1.000000,26.000000,,,,0.000000,2.000000,2.000000,0.000000,4.000000,2.000000,2.000000,0.000000,0.000000,4.000000,4.000000,4.000000,4.000000,4.000000,4.000000,0.000000,,,,,,,,,,,,,,,,,,,,,,,,,,,,
1732156902.552741,1732156902.552956,30.000000,0.000000,4296.282227,4293.205078,4316.538574,4312.948730,4296.538574,4300.769043,4335.897461,4396.794922,4296.666504,4290.128418,4458.077148,4499.743652,4317.820313,4398.077148,0.000000,1.000000,26.000000,,,,0.000000,2.000000,2.000000,0.000000,4.000000,2.000000,2.000000,0.000000,0.000000,4.000000,4.000000,4.000000,4.000000,4.000000,4.000000,0.000000,,,,,,,,,,,,,,,,,,,,,,,,,,,,
1732156902.560549,1732156902.560764,31.000000,0.000000,4297.692383,4293.974121,4313.333496,4316.410156,4289.743652,4296.025879,4333.974121,4397.051270,4302.179688,4293.333496,4453.974121,4499.230957,4312.051270,4395.000000,0.000000,1.000000,26.000000,,,,0.000000,2.000000,2.000000,0.000000,4.000000,2.000000,2.000000,0.000000,0.000000,4.000000,4.000000,4.000000,4.000000,4.000000,4.000000,0.000000,,,,,,,,,,,,,,,,,,,,,,,,,,,,
1732156902.568357,1732156902.568672,32.000000,0.000000,4296.794922,4286.153809,4312.307617,4311.794922,4298.717773,4294.487305,4333.461426,4397.820313,4301.538574,4291.666504,4457.948730,4491.025879,4315.000000,4393.846191,0.000000,1.000000,26.000000,,,,0.000000,2.000000,2.000000,0.000000,4.000000,2.000000,2.000000,0.000000,0.000000,4.000000,4.000000,4.000000,4.000000,4.000000,4.000000,0.000000,,,,,,,,,,,,,,,,,8.000000,0.000000,0.515187,0.465942,-0.562927,0.447876,0.977658,-0.031742,-0.067879,-35.475506,44.942696,31.312304
1732156902.576166,1732156902.576480,33.000000,0.000000,4293.461426,4279.358887,4315.897461,4307.179688,4311.666504,4295.512695,4335.384766,4398.205078,4296.666504,4287.307617,4461.538574,4491.922852,4316.025879,4398.205078,0.000000,1.000000,26.000000,,,,0.000000,2.000000,2.000000,0.000000,4.000000,2.000000,2.000000,0.000000,0.000000,4.000000,4.000000,4.000000,4.000000,4.000000,4.000000,0.000000,,,,,,,,,,,,,,,,,,,,,,,,,,,,
1732156902.583974,1732156902.584488,34.000000,0.000000,4295.641113,4286.282227,4316.922852,4311.410156,4305.000000,4295.256348,4334.487305,4396.794922,4296.025879,4281.025879,4456.282227,4497.563965,4311.282227,4397.563965,0.000000,1.000000,26.000000,,,,0.000000,2.000000,2.000000,0.000000,4.000000,2.000000,2.000000,0.000000,0.000000,4.000000,4.000000,4.000000,4.000000,4.000000,4.000000,0.000000,,,,,,,,,,,,,,,,,,,,,,,,,,,,
1732156902.591782,1732156902.592296,35.000000,0.000000,4296.025879,4291.666504,4313.846191,4312.563965,4287.820313,4297.692383,4334.102539,4397.307617,4301.153809,4287.307617,4455.256348,4495.256348,4314.358887,4391.282227,0.000000,1.000000,26.000000,,,,0.000000,2.000000,2.000000,0.000000,4.000000,2.000000,2.000000,0.000000,0.000000,4.000000,4.000000,4.000000,4.000000,4.000000,4.000000,0.000000,,,,,,,,,,,,,,,,,,,,,,,,,,,,
1732156902.599590,1732156902.600205,36.000000,0.000000,4288.333496,4284.102539,4314.230957,4304.871582,4289.615234,4302.307617,4335.769043,4398.077148,4302.948730,4298.333496,4458.717773,4490.000000,4318.974121,4388.077148,0.000000,1.000000,26.000000,,,,0.000000,2.000000,2.000000,0.000000,4.000000,2.000000,2.000000,0.000000,0.000000,4.000000,4.000000,4.000000,4.000000,4.000000,4.000000,0.000000,,,,,,,,,,,,,,,,,9.000000,0.000000,0.515051,0.466064,-0.562805,0.448059,0.982542,-0.027347,-0.077158,-35.558495,45.153584,31.502966
1732156902.607399,1732156902.608013,37.000000,0.000000,4285.512695,4281.666504,4316.153809,4304.871582,4305.512695,4303.461426,4334.871582,4394.102539,4298.205078,4290.128418,4453.974121,4488.717773,4314.230957,4387.436035,0.000000,1.000000,26.000000,,,,0.000000,2.000000,2.000000,0.000000,4.000000,2.000000,2.000000,0.000000,0.000000,4.000000,4.000000,4.000000,4.000000,4.000000,4.000000,0.000000,,,,,,,,,,,,,,,,,,,,,,,,,,,,
1732156902.615207,1732156902.616021,38.000000,0.000000,4290.256348,4285.256348,4313.846191,4311.538574,4305.384766,4300.128418,4332.436035,4393.461426,4295.897461,4282.051270,4446.538574,4488.205078,4310.000000,4382.436035,0.000000,1.000000,26.000000,,,,0.000000,2.000000,2.000000,0.000000,4.000000,2.000000,2.000000,0.000000,0.000000,4.000000,4.000000,4.000000,4.000000,4.000000,4.000000,0.000000,,,,,,,,,,,,,,,,,,,,,,,,,,,,
1732156902.623015,1732156902.623829,39.000000,0.000000,4292.179688,4281.538574,4312.179688,4311.538574,4298.461426,4295.641113,4333.205078,4397.948730,4298.205078,4289.615234,4448.717773,4488.589844,4312.179688,4381.153809,0.000000,1.000000,26.000000,,,,0.000000,2.000000,2.000000,0.000000,4.000000,2.000000,2.000000,0.000000,0.000000,4.000000,4.000000,4.000000,4.000000,4.000000,4.000000,0.000000,,,,,,,,,,,,,,,,,,,,,,,,,,,,
1732156902.630823,1732156902.631737,40.000000,0.000000,4290.128418,4278.974121,4315.512695,4306.794922,4305.897461,4294.358887,4335.000000,4398.974121,4299.230957,4288.589844,4455.000000,4489.487305,4312.948730,4383.846191,0.000000,1.000000,26.000000,,,,0.000000,2.000000,2.000000,0.000000,4.000000,2.000000,2.000000,0.000000,0.000000,4.000000,4.000000,4.000000,4.000000,4.000000,4.000000,0.000000,,,,,,,,,,,,,,,,,10.000000,0.000000,0.515026,0.466003,-0.562927,0.447998,0.992309,-0.011720,-0.067879,-35.655712,44.986069,31.732403
1732156902.638631,1732156902.639545,41.000000,0.000000,4290.641113,4280.897461,4318.333496,4308.589844,4316.538574,4293.461426,4333.589844,4396.794922,4296.153809,4278.846191,4456.538574,4487.563965,4311.538574,4381.153809,0.000000,1.000000,26.000000,,,,0.000000,2.000000,2.000000,0.000000,4.000000,2.000000,2.000000,0.000000,0.000000,4.000000,4.000000,4.000000,4.000000,4.000000,4.000000,0.000000,,,,,,,,,,,,,,,,,,,,,,,,,,,,
1732156902.646440,1732156902.647553,42.000000,0.000000,4293.333496,4281.922852,4316.794922,4314.743652,4309.743652,4294.230957,4333.461426,4397.179688,4296.410156,4287.563965,4456.922852,4490.641113,4311.153809,4384.487305,0.000000,1.000000,26.000000,,,,0.000000,2.000000,2.000000,0.000000,4.000000,2.000000,2.000000,0.000000,0.000000,4.000000,4.000000,4.000000,4.000000,4.000000,4.000000,0.000000,,,,,,,,,,,,,,,,,,,,,,,,,,,,
1732156902.654248,1732156902.655361,43.000000,0.000000,4296.025879,4282.436035,4312.692383,4315.128418,4291.153809,4296.922852,4335.000000,4395.769043,4297.692383,4296.538574,4457.563965,4500.000000,4313.974121,4395.384766,0.000000,1.000000,26.000000,,,,0.000000,2.000000,2.000000,0.000000,4.000000,2.000000,2.000000,0.000000,0.000000,4.000000,4.000000,4.000000,4.000000,4.000000,4.000000,0.000000,,,,,,,,,,,,,,,,,,,,,,,,,,,,
1732156902.662056,1732156902.663270,44.000000,0.000000,4295.769043,4281.538574,4312.948730,4311.282227,4292.051270,4296.922852,4332.436035,4395.000000,4296.666504,4286.025879,4457.563965,4496.922852,4314.487305,4392.820313,0.000000,1.000000,26.000000,,,,0.000000,2.000000,2.000000,0.000000,4.000000,2.000000,2.000000,0.000000,0.000000,4.000000,4.000000,4.000000,4.000000,4.000000,4.000000,0.000000,,,,,,,,,,,,,,,,,11.000000,0.000000,0.515026,0.466003,-0.562927,0.447998,0.981077,-0.029789,-0.059578,-35.689461,45.030384,31.723246
1732156902.669865,1732156902.671078,45.000000,0.000000,4293.205078,4280.000000,4316.025879,4310.897461,4306.666504,4296.666504,4330.512695,4397.820313,4299.102539,4283.461426,4457.948730,4485.769043,4309.487305,4380.128418,0.000000,1.000000,26.000000,,,,0.000000,2.000000,2.000000,0.000000,4.000000,2.000000,2.000000,0.000000,0.000000,4.000000,4.000000,4.000000,4.000000,4.000000,4.000000,0.000000,,,,,,,,,,,,,,,,,,,,,,,,,,,,
1732156902.677673,1732156902.679086,46.000000,0.000000,4294.871582,4281.410156,4315.769043,4313.077148,4306.922852,4297.179688,4332.692383,4396.410156,4302.692383,4296.794922,4458.589844,4485.641113,4312.436035,4382.692383,0.000000,1.000000,26.000000,,,,0.000000,2.000000,2.000000,0.000000,4.000000,2.000000,2.000000,0.000000,0.000000,4.000000,4.000000,4.000000,4.000000,4.000000,4.000000,0.000000,,,,,,,,,,,,,,,,,,,,,,,,,,,,
1732156902.685481,1732156902.686894,47.000000,0.000000,4296.025879,4281.922852,4314.102539,4310.256348,4296.025879,4295.897461,4333.974121,4394.615234,4303.717773,4298.846191,4458.717773,4490.512695,4318.717773,4393.846191,0.000000,1.000000,26.000000,,,,0.000000,2.000000,2.000000,0.000000,4.000000,2.000000,2.000000,0.000000,0.000000,4.000000,4.000000,4.000000,4.000000,4.000000,4.000000,0.000000,,,,,,,,,,,,,,,,,,,,,,,,,,,,
1732156902.693289,1732156902.694602,48.000000,0.000000,4291.282227,4280.897461,4312.820313,4306.794922,4298.205078,4296.153809,4334.743652,4398.974121,4303.333496,4287.307617,4457.179688,4489.615234,4315.128418,4390.128418,0.000000,1.000000,26.000000,,,,0.000000,2.000000,2.000000,0.000000,4.000000,2.000000,2.000000,0.000000,0.000000,4.000000,4.000000,4.000000,4.000000,4.000000,4.000000,0.000000,,,,,,,,,,,,,,,,,12.000000,0.000000,0.514917,0.466064,-0.562927,0.448059,0.972287,-0.042974,-0.067391,-35.568462,45.104610,31.717497
1732156902.701098,1732156902.702411,49.000000,0.000000,4286.153809,4278.974121,4314.487305,4307.948730,4315.128418,4298.205078,4335.384766,4400.256348,4301.922852,4279.615234,4449.102539,4487.820313,4306.666504,4379.871582,0.000000,1.000000,26.000000,,,,0.000000,2.000000,2.000000,0.000000,4.000000,2.000000,2.000000,0.000000,0.000000,4.000000,4.000000,4.000000,4.000000,4.000000,4.000000,0.000000,,,,,,,,,,,,,,,,,,,,,,,,,,,,
1732156902.708906,1732156902.710019,50.000000,0.000000,4286.666504,4276.794922,4318.461426,4310.384766,4314.358887,4298.717773,4334.615234,4395.256348,4296.922852,4278.205078,4442.563965,4488.333496,4305.000000,4379.615234,0.000000,1.000000,26.000000,,,,0.000000,2.000000,2.000000,0.000000,4.000000,2.000000,2.000000,0.000000,0.000000,4.000000,4.000000,4.000000,4.000000,4.000000,4.000000,0.000000,,,,,,,,,,,,,,,,,,,,,,,,,,,,
1732156902.716714,1732156902.717827,51.000000,0.000000,4291.666504,4278.461426,4318.461426,4312.179688,4295.769043,4298.974121,4334.230957,4395.128418,4295.769043,4282.692383,4449.871582,4492.051270,4309.102539,4382.820313,0.000000,1.000000,26.000000,,,,0.000000,2.000000,2.000000,0.000000,4.000000,2.000000,2.000000,0.000000,0.000000,4.000000,4.000000,4.000000,4.000000,4.000000,4.000000,0.000000,,,,,,,,,,,,,,,,,,,,,,,,,,,,
1732156902.724522,1732156902.725535,52.000000,0.000000,4294.743652,4281.153809,4313.333496,4311.538574,4291.410156,4296.282227,4333.333496,4398.589844,4305.769043,4289.615234,4456.666504,4496.410156,4313.974121,4381.153809,0.000000,1.000000,26.000000,,,,0.000000,2.000000,2.000000,0.000000,4.000000,2.000000,2.000000,0.000000,0.000000,4.000000,4.000000,4.000000,4.000000,4.000000,4.000000,0.000000,,,,,,,,,,,,,,,,,13.000000,0.000000,0.514936,0.465881,-0.563110,0.447998,0.988402,-0.027835,-0.079600,-35.633789,45.163067,31.669504
1732156902.732330,1732156902.733344,53.000000,0.000000,4295.128418,4281.153809,4312.948730,4310.128418,4297.563965,4292.563965,4334.615234,4398.589844,4312.179688,4296.025879,4458.205078,4494.102539,4320.769043,4380.769043,0.000000,1.000000,26.000000,,,,0.000000,2.000000,2.000000,0.000000,4.000000,2.000000,2.000000,0.000000,0.000000,4.000000,4.000000,4.000000,4.000000,4.000000,4.000000,0.000000,,,,,,,,,,,,,,,,,,,,,,,,,,,,
1732156902.740139,1732156902.740952,54.000000,0.000000,4296.153809,4281.538574,4315.256348,4310.256348,4298.846191,4293.205078,4334.743652,4396.282227,4304.871582,4296.153809,4459.743652,4489.871582,4318.333496,4382.307617,0.000000,1.000000,26.000000,,,,0.000000,2.000000,2.000000,0.000000,4.000000,2.000000,2.000000,0.000000,0.000000,4.000000,4.000000,4.000000,4.000000,4.000000,4.000000,0.000000,,,,,,,,,,,,,,,,,,,,,,,,,,,,
1732156902.747947,1732156902.748760,55.000000,0.000000,4290.384766,4281.794922,4312.948730,4307.820313,4293.077148,4292.820313,4330.512695,4395.000000,4293.846191,4285.769043,4459.230957,4491.282227,4312.051270,4384.743652,0.000000,1.000000,26.000000,,,,0.000000,2.000000,2.000000,0.000000,4.000000,2.000000,2.000000,0.000000,0.000000,4.000000,4.000000,4.000000,4.000000,4.000000,4.000000,0.000000,,,,,,,,,,,,,,,,,,,,,,,,,,,,
1732156902.755755,1732156902.756668,56.000000,0.000000,4280.000000,4278.077148,4311.410156,4298.589844,4294.615234,4290.769043,4329.871582,4397.436035,4292.179688,4280.897461,4457.563965,4491.538574,4315.769043,4384.615234,0.000000,1.000000,26.000000,,,,0.000000,2.000000,2.000000,0.000000,4.000000,2.000000,2.000000,0.000000,0.000000,4.000000,4.000000,4.000000,4.000000,4.000000,4.000000,0.000000,,,,,,,,,,,,,,,,,14.000000,0.000000,0.514761,0.465942,-0.563171,0.448059,0.972287,-0.025394,-0.074228,-35.671703,45.145416,31.593966
1732156902.763564,1732156902.764477,57.000000,0.000000,4282.307617,4274.743652,4313.205078,4293.974121,4307.692383,4289.743652,4335.000000,4398.974121,4297.051270,4283.077148,4457.563965,4490.256348,4316.410156,4381.538574,0.000000,1.000000,26.000000,,,,0.000000,2.000000,2.000000,0.000000,4.000000,2.000000,2.000000,0.000000,0.000000,4.000000,4.000000,4.000000,4.000000,4.000000,4.000000,0.000000,,,,,,,,,,,,,,,,,,,,,,,,,,,,
