title:4one, start timestamp:1732156969.695868, stop timestamp:1732157014.515182, headset type:EPOCX, headset serial:E5020C3A, headset firmware:730, channels:67, sampling rate:eeg_128;mot_32, samples:5741      , version:2.2, 
Timestamp,OriginalTimestamp,EEG.Counter,EEG.Interpolated,EEG.AF3,EEG.F7,EEG.F3,EEG.FC5,EEG.T7,EEG.P7,EEG.O1,EEG.O2,EEG.P8,EEG.T8,EEG.FC6,EEG.F4,EEG.F8,EEG.AF4,EEG.RawCq,EEG.Battery,EEG.BatteryPercent,MarkerIndex,MarkerType,MarkerValueInt,EEG.MarkerHardware,CQ.AF3,CQ.F7,CQ.F3,CQ.FC5,CQ.T7,CQ.P7,CQ.O1,CQ.O2,CQ.P8,CQ.T8,CQ.FC6,CQ.F4,CQ.F8,CQ.AF4,CQ.Overall,EQ.SampleRateQuality,EQ.OVERALL,EQ.AF3,EQ.F7,EQ.F3,EQ.FC5,EQ.T7,EQ.P7,EQ.O1,EQ.O2,EQ.P8,EQ.T8,EQ.FC6,EQ.F4,EQ.F8,EQ.AF4,MOT.CounterMems,MOT.InterpolatedMems,MOT.Q0,MOT.Q1,MOT.Q2,MOT.Q3,MOT.AccX,MOT.AccY,MOT.AccZ,MOT.MagX,MOT.MagY,MOT.MagZ
1732156969.695868,1732156969.696541,53.000000,0.000000,4295.384766,4275.769043,4316.666504,4297.051270,4293.077148,4278.205078,4329.615234,4398.333496,4294.871582,4294.230957,4475.769043,4502.563965,4346.282227,4415.256348,0.000000,1.000000,26.000000,,,,0.000000,2.000000,2.000000,0.000000,4.000000,2.000000,2.000000,0.000000,0.000000,4.000000,4.000000,4.000000,4.000000,4.000000,4.000000,0.000000,,,,,,,,,,,,,,,,,,,,,,,,,,,,
1732156969.703676,1732156969.704549,54.000000,0.000000,4294.743652,4273.974121,4317.563965,4298.205078,4291.410156,4280.769043,4331.410156,4396.794922,4297.307617,4295.000000,4471.410156,4494.871582,4347.948730,4410.128418,0.000000,1.000000,26.000000,,,,0.000000,2.000000,2.000000,0.000000,4.000000,2.000000,2.000000,0.000000,0.000000,4.000000,4.000000,4.000000,4.000000,4.000000,4.000000,0.000000,,,,,,,,,,,,,,,,,,,,,,,,,,,,
1732156969.711485,1732156969.712357,55.000000,0.000000,4290.897461,4267.820313,4313.589844,4296.922852,4294.230957,4282.563965,4335.384766,4397.563965,4299.871582,4297.436035,4473.077148,4496.922852,4335.641113,4403.974121,0.000000,1.000000,26.000000,,,,0.000000,2.000000,2.000000,0.000000,4.000000,2.000000,2.000000,0.000000,0.000000,4.000000,4.000000,4.000000,4.000000,4.000000,4.000000,0.000000,,,,,,,,,,,,,,,,,,,,,,,,,,,,
1732156969.719293,1732156969.720265,56.000000,0.000000,4289.871582,4264.230957,4315.128418,4294.871582,4294.743652,4282.820313,4334.743652,4398.333496,4297.051270,4295.641113,4475.641113,4507.307617,4335.769043,4407.563965,0.000000,1.000000,26.000000,,,,0.000000,2.000000,2.000000,0.000000,4.000000,2.000000,2.000000,0.000000,0.000000,4.000000,4.000000,4.000000,4.000000,4.000000,4.000000,0.000000,,,,,,,,,,,,,,,,,14.000000,0.000000,0.522574,0.483093,-0.550537,0.436401,0.972775,-0.006348,-0.093273,-34.721680,45.798050,31.220884
1732156969.727101,1732156969.728073,57.000000,0.000000,4293.846191,4265.512695,4318.589844,4294.358887,4292.563965,4282.436035,4330.128418,4396.410156,4297.051270,4297.307617,4474.871582,4505.128418,4356.666504,4416.794922,0.000000,1.000000,26.000000,,,,0.000000,2.000000,2.000000,0.000000,4.000000,2.000000,2.000000,0.000000,0.000000,4.000000,4.000000,4.000000,4.000000,4.000000,4.000000,0.000000,,,,,,,,,,,,,,,,,,,,,,,,,,,,
1732156969.734909,1732156969.736081,58.000000,0.000000,4296.153809,4265.256348,4316.410156,4290.256348,4292.307617,4282.820313,4331.282227,4396.153809,4304.487305,4306.410156,4477.948730,4502.820313,4365.641113,4421.666504,0.000000,1.000000,26.000000,,,,0.000000,2.000000,2.000000,0.000000,4.000000,2.000000,2.000000,0.000000,0.000000,4.000000,4.000000,4.000000,4.000000,4.000000,4.000000,0.000000,,,,,,,,,,,,,,,,,,,,,,,,,,,,
1732156969.742717,1732156969.743890,59.000000,0.000000,4294.102539,4261.922852,4312.179688,4282.948730,4282.692383,4281.922852,4335.000000,4398.589844,4304.743652,4308.846191,4487.179688,4509.102539,4365.384766,4419.102539,0.000000,1.000000,26.000000,,,,0.000000,2.000000,2.000000,0.000000,4.000000,2.000000,2.000000,0.000000,0.000000,4.000000,4.000000,4.000000,4.000000,4.000000,4.000000,0.000000,,,,,,,,,,,,,,,,,,,,,,,,,,,,
1732156969.750526,1732156969.751598,60.000000,0.000000,4293.461426,4258.589844,4309.487305,4279.487305,4277.436035,4280.384766,4333.846191,4397.051270,4297.051270,4307.820313,4494.487305,4505.128418,4378.077148,4420.000000,0.000000,1.000000,26.000000,,,,0.000000,2.000000,2.000000,0.000000,4.000000,2.000000,2.000000,0.000000,0.000000,4.000000,4.000000,4.000000,4.000000,4.000000,4.000000,0.000000,,,,,,,,,,,,,,,,,15.000000,0.000000,0.522966,0.482849,-0.550476,0.436279,0.956660,0.022952,-0.065926,-34.679562,45.709755,31.147249
1732156969.758334,1732156969.759406,61.000000,0.000000,4296.282227,4255.256348,4312.307617,4280.897461,4295.000000,4280.641113,4333.846191,4395.000000,4295.769043,4307.820313,4492.179688,4498.589844,4384.615234,4424.615234,0.000000,1.000000,26.000000,,,,0.000000,2.000000,2.000000,0.000000,4.000000,2.000000,2.000000,0.000000,0.000000,4.000000,4.000000,4.000000,4.000000,4.000000,4.000000,0.000000,,,,,,,,,,,,,,,,,,,,,,,,,,,,
1732156969.766142,1732156969.767414,62.000000,0.000000,4297.179688,4248.589844,4315.641113,4279.230957,4294.871582,4281.666504,4337.436035,4397.307617,4297.948730,4304.102539,4489.230957,4501.153809,4375.769043,4427.692383,0.000000,1.000000,26.000000,,,,0.000000,2.000000,2.000000,0.000000,4.000000,2.000000,2.000000,0.000000,0.000000,4.000000,4.000000,4.000000,4.000000,4.000000,4.000000,0.000000,,,,,,,,,,,,,,,,,,,,,,,,,,,,
1732156969.773950,1732156969.775222,63.000000,0.000000,4298.205078,4248.974121,4313.974121,4281.153809,4271.922852,4283.077148,4334.230957,4398.846191,4296.410156,4300.769043,4490.000000,4509.358887,4371.794922,4429.615234,0.000000,1.000000,26.000000,,,,0.000000,2.000000,2.000000,0.000000,4.000000,2.000000,2.000000,0.000000,0.000000,4.000000,4.000000,4.000000,4.000000,4.000000,4.000000,0.000000,,,,,,,,,,,,,,,,,,,,,,,,,,,,
1732156969.781759,1732156969.783130,64.000000,0.000000,4302.820313,4257.179688,4311.922852,4286.410156,4271.025879,4282.692383,4330.769043,4396.282227,4296.282227,4304.102539,4492.307617,4515.128418,4376.410156,4431.410156,0.000000,1.000000,26.000000,,,,0.000000,2.000000,2.000000,0.000000,4.000000,2.000000,2.000000,0.000000,0.000000,4.000000,4.000000,4.000000,4.000000,4.000000,4.000000,0.000000,,,,,,,,,,,,,,,,,16.000000,0.000000,0.524237,0.482300,-0.550232,0.435669,0.984007,0.043462,-0.068856,-34.860443,45.891567,31.394272
1732156969.789567,1732156969.790939,65.000000,0.000000,4305.769043,4259.358887,4311.794922,4286.922852,4281.025879,4281.794922,4332.948730,4396.282227,4298.846191,4306.538574,4494.358887,4513.846191,4382.179688,4431.153809,1596.000000,1.000000,26.000000,,,,0.000000,2.000000,2.000000,0.000000,4.000000,2.000000,2.000000,0.000000,0.000000,4.000000,4.000000,4.000000,4.000000,4.000000,4.000000,0.000000,,,,,,,,,,,,,,,,,,,,,,,,,,,,
1732156969.797375,1732156969.798947,66.000000,0.000000,4302.436035,4260.128418,4313.205078,4288.846191,4284.487305,4284.615234,4332.179688,4398.077148,4297.692383,4301.410156,4491.025879,4515.641113,4380.769043,4431.410156,1387.000000,1.000000,26.000000,,,,0.000000,2.000000,2.000000,0.000000,4.000000,2.000000,2.000000,0.000000,0.000000,4.000000,4.000000,4.000000,4.000000,4.000000,4.000000,0.000000,,,,,,,,,,,,,,,,,,,,,,,,,,,,
1732156969.805184,1732156969.806755,67.000000,0.000000,4299.102539,4261.666504,4314.615234,4289.615234,4295.384766,4285.128418,4331.410156,4396.922852,4295.256348,4296.538574,4489.102539,4523.589844,4374.358887,4437.307617,1411.000000,1.000000,26.000000,,,,0.000000,2.000000,2.000000,0.000000,4.000000,2.000000,2.000000,0.000000,0.000000,4.000000,4.000000,4.000000,4.000000,4.000000,4.000000,0.000000,,,,,,,,,,,,,,,,,,,,,,,,,,,,
1732156969.812992,1732156969.814663,68.000000,0.000000,4298.333496,4255.384766,4312.051270,4282.820313,4293.461426,4281.922852,4335.384766,4397.179688,4297.820313,4294.358887,4493.589844,4519.871582,4372.820313,4436.922852,1412.000000,1.000000,26.000000,,,,0.000000,2.000000,2.000000,0.000000,4.000000,2.000000,2.000000,0.000000,0.000000,4.000000,4.000000,4.000000,4.000000,4.000000,4.000000,0.000000,,,,,,,,,,,,,,,,,17.000000,0.000000,0.527187,0.482239,-0.548767,0.434021,0.973752,0.074228,-0.062996,-34.973625,45.988834,31.461027
1732156969.820800,1732156969.822471,69.000000,0.000000,4295.897461,4247.051270,4312.051270,4280.128418,4272.948730,4281.538574,4334.743652,4398.846191,4303.589844,4294.615234,4494.743652,4511.025879,4374.487305,4431.282227,1234.000000,1.000000,26.000000,,,,0.000000,2.000000,2.000000,0.000000,4.000000,2.000000,2.000000,0.000000,0.000000,4.000000,4.000000,4.000000,4.000000,4.000000,4.000000,0.000000,,,,,,,,,,,,,,,,,,,,,,,,,,,,
1732156969.828608,1732156969.830479,70.000000,0.000000,4295.384766,4251.410156,4313.333496,4283.461426,4273.974121,4283.077148,4331.153809,4398.461426,4306.153809,4295.641113,4490.897461,4515.384766,4371.410156,4434.358887,0.000000,1.000000,26.000000,,,,0.000000,2.000000,2.000000,0.000000,4.000000,2.000000,2.000000,0.000000,0.000000,4.000000,4.000000,4.000000,4.000000,4.000000,4.000000,0.000000,,,,,,,,,,,,,,,,,,,,,,,,,,,,
1732156969.836416,1732156969.838287,71.000000,0.000000,4298.846191,4258.717773,4306.538574,4281.794922,4287.051270,4281.922852,4330.384766,4399.871582,4310.000000,4297.692383,4488.846191,4524.487305,4373.077148,4439.487305,0.000000,1.000000,26.000000,,,,0.000000,2.000000,2.000000,0.000000,4.000000,2.000000,2.000000,0.000000,0.000000,4.000000,4.000000,4.000000,4.000000,4.000000,4.000000,0.000000,,,,,,,,,,,,,,,,,,,,,,,,,,,,
1732156969.844225,1732156969.846196,72.000000,0.000000,4299.230957,4257.820313,4298.333496,4282.563965,4284.230957,4283.333496,4328.589844,4399.487305,4311.666504,4301.410156,4489.871582,4519.615234,4378.846191,4435.769043,1523.000000,1.000000,26.000000,,,,0.000000,2.000000,2.000000,0.000000,4.000000,2.000000,2.000000,0.000000,0.000000,4.000000,4.000000,4.000000,4.000000,4.000000,4.000000,0.000000,,,,,,,,,,,,,,,,,18.000000,0.000000,0.527527,0.482544,-0.548462,0.433655,0.973752,0.074228,-0.062996,-35.103638,45.785957,31.413431
1732156969.852033,1732156969.854004,73.000000,0.000000,4295.769043,4259.230957,4298.333496,4291.538574,4284.743652,4289.358887,4326.410156,4392.692383,4304.487305,4297.692383,4490.000000,4508.846191,4375.641113,4429.230957,1668.000000,1.000000,26.000000,,,,0.000000,2.000000,2.000000,0.000000,4.000000,2.000000,2.000000,0.000000,0.000000,4.000000,4.000000,4.000000,4.000000,4.000000,4.000000,0.000000,,,,,,,,,,,,,,,,,,,,,,,,,,,,
1732156969.859841,1732156969.861612,74.000000,0.000000,4294.743652,4262.436035,4295.128418,4293.846191,4293.077148,4296.410156,4323.717773,4387.563965,4300.641113,4293.846191,4484.871582,4513.333496,4370.000000,4429.102539,1526.000000,1.000000,26.000000,,,,0.000000,2.000000,2.000000,0.000000,4.000000,2.000000,2.000000,0.000000,0.000000,4.000000,4.000000,4.000000,4.000000,4.000000,4.000000,0.000000,,,,,,,,,,,,,,,,,,,,,,,,,,,,
1732156969.867649,1732156969.869420,75.000000,0.000000,4296.410156,4261.153809,4285.512695,4293.205078,4289.743652,4295.897461,4318.974121,4389.487305,4310.769043,4304.615234,4481.794922,4519.487305,4372.051270,4431.025879,1566.000000,1.000000,26.000000,,,,0.000000,2.000000,2.000000,0.000000,4.000000,2.000000,2.000000,0.000000,0.000000,4.000000,4.000000,4.000000,4.000000,4.000000,4.000000,0.000000,,,,,,,,,,,,,,,,,,,,,,,,,,,,
1732156969.875458,1732156969.877328,76.000000,0.000000,4294.102539,4259.871582,4278.846191,4294.358887,4290.512695,4285.512695,4317.307617,4387.692383,4316.282227,4311.922852,4486.538574,4509.615234,4374.743652,4427.307617,1688.000000,1.000000,26.000000,,,,0.000000,2.000000,2.000000,0.000000,4.000000,2.000000,2.000000,0.000000,0.000000,4.000000,4.000000,4.000000,4.000000,4.000000,4.000000,0.000000,,,,,,,,,,,,,,,,,19.000000,0.000000,0.527696,0.482910,-0.548218,0.433350,0.958613,0.066903,-0.080088,-35.152279,46.041626,31.469879
1732156969.883266,1732156969.885137,77.000000,0.000000,4292.820313,4261.922852,4270.897461,4294.358887,4301.538574,4281.153809,4319.358887,4382.179688,4302.820313,4300.512695,4490.128418,4504.358887,4374.230957,4425.256348,1670.000000,1.000000,26.000000,,,,0.000000,2.000000,2.000000,0.000000,4.000000,2.000000,2.000000,0.000000,0.000000,4.000000,4.000000,4.000000,4.000000,4.000000,4.000000,0.000000,,,,,,,,,,,,,,,,,,,,,,,,,,,,
1732156969.891074,1732156969.892745,78.000000,0.000000,4299.230957,4264.487305,4267.179688,4297.179688,4295.384766,4288.589844,4317.179688,4381.794922,4295.769043,4295.769043,4489.102539,4513.461426,4374.230957,4432.307617,1526.000000,1.000000,26.000000,,,,0.000000,2.000000,2.000000,0.000000,4.000000,2.000000,2.000000,0.000000,0.000000,4.000000,4.000000,4.000000,4.000000,4.000000,4.000000,0.000000,1.000000,0.000000,2.000000,2.000000,0.000000,4.000000,2.000000,2.000000,0.000000,0.000000,4.000000,4.000000,4.000000,4.000000,4.000000,4.000000,,,,,,,,,,,,
1732156969.898882,1732156969.900553,79.000000,0.000000,4305.128418,4268.717773,4269.102539,4304.871582,4279.358887,4294.615234,4312.563965,4381.922852,4307.051270,4304.743652,4488.974121,4512.948730,4374.230957,4435.641113,1566.000000,1.000000,26.000000,,,,0.000000,2.000000,2.000000,0.000000,4.000000,2.000000,2.000000,0.000000,0.000000,4.000000,4.000000,4.000000,4.000000,4.000000,4.000000,0.000000,,,,,,,,,,,,,,,,,,,,,,,,,,,,
1732156969.906690,1732156969.908262,80.000000,0.000000,4304.230957,4272.948730,4265.000000,4305.641113,4281.410156,4291.153809,4311.282227,4382.179688,4311.282227,4305.769043,4488.717773,4504.615234,4374.487305,4428.846191,1688.000000,1.000000,26.000000,,,,0.000000,2.000000,2.000000,0.000000,4.000000,2.000000,2.000000,0.000000,0.000000,4.000000,4.000000,4.000000,4.000000,4.000000,4.000000,0.000000,,,,,,,,,,,,,,,,,20.000000,0.000000,0.526702,0.483276,-0.548706,0.433533,0.946405,0.020999,-0.081553,-35.025013,46.098717,31.482269
1732156969.914499,1732156969.916070,81.000000,0.000000,4302.179688,4269.487305,4259.487305,4298.589844,4285.897461,4284.615234,4312.563965,4383.974121,4305.512695,4301.153809,4487.179688,4506.538574,4373.205078,4427.051270,1670.000000,1.000000,26.000000,,,,0.000000,2.000000,2.000000,0.000000,4.000000,2.000000,2.000000,0.000000,0.000000,4.000000,4.000000,4.000000,4.000000,4.000000,4.000000,0.000000,,,,,,,,,,,,,,,,,,,,,,,,,,,,
1732156969.922307,1732156969.923678,82.000000,0.000000,4302.563965,4265.384766,4266.025879,4295.512695,4280.128418,4286.410156,4316.282227,4383.717773,4306.794922,4302.820313,4488.461426,4507.692383,4370.512695,4429.743652,1526.000000,1.000000,26.000000,,,,0.000000,2.000000,2.000000,0.000000,4.000000,2.000000,2.000000,0.000000,0.000000,4.000000,4.000000,4.000000,4.000000,4.000000,4.000000,0.000000,,,,,,,,,,,,,,,,,,,,,,,,,,,,
1732156969.930115,1732156969.931486,83.000000,0.000000,4303.589844,4266.410156,4275.512695,4297.051270,4279.230957,4294.102539,4318.077148,4382.179688,4310.384766,4305.128418,4487.948730,4506.282227,4367.948730,4427.820313,1566.000000,1.000000,26.000000,,,,0.000000,2.000000,2.000000,0.000000,4.000000,2.000000,2.000000,0.000000,0.000000,4.000000,4.000000,4.000000,4.000000,4.000000,4.000000,0.000000,,,,,,,,,,,,,,,,,,,,,,,,,,,,
1732156969.937924,1732156969.939195,84.000000,0.000000,4304.102539,4267.436035,4281.153809,4297.436035,4283.589844,4291.025879,4319.487305,4382.948730,4307.436035,4308.846191,4488.077148,4506.025879,4367.051270,4427.563965,1688.000000,1.000000,26.000000,,,,0.000000,2.000000,2.000000,0.000000,4.000000,2.000000,2.000000,0.000000,0.000000,4.000000,4.000000,4.000000,4.000000,4.000000,4.000000,0.000000,,,,,,,,,,,,,,,,,21.000000,0.000000,0.525862,0.481506,-0.550293,0.434509,0.970333,-0.002930,-0.081553,-35.061928,45.873295,31.645638
1732156969.945732,1732156969.947003,85.000000,0.000000,4304.743652,4265.769043,4288.846191,4297.820313,4279.743652,4280.000000,4322.820313,4384.615234,4311.538574,4312.948730,4489.487305,4506.282227,4367.692383,4430.897461,1670.000000,1.000000,26.000000,,,,0.000000,2.000000,2.000000,0.000000,4.000000,2.000000,2.000000,0.000000,0.000000,4.000000,4.000000,4.000000,4.000000,4.000000,4.000000,0.000000,,,,,,,,,,,,,,,,,,,,,,,,,,,,
1732156969.953540,1732156969.954611,86.000000,0.000000,4302.820313,4264.615234,4297.948730,4296.538574,4273.846191,4278.846191,4325.000000,4389.230957,4310.000000,4306.794922,4482.179688,4507.436035,4366.922852,4431.025879,1526.000000,1.000000,26.000000,,,,0.000000,2.000000,2.000000,0.000000,4.000000,2.000000,2.000000,0.000000,0.000000,4.000000,4.000000,4.000000,4.000000,4.000000,4.000000,0.000000,,,,,,,,,,,,,,,,,,,,,,,,,,,,
1732156969.961348,1732156969.962420,87.000000,0.000000,4299.743652,4263.717773,4307.307617,4294.615234,4288.077148,4282.051270,4327.179688,4394.871582,4299.743652,4297.436035,4473.974121,4507.948730,4365.897461,4428.974121,1566.000000,1.000000,26.000000,,,,0.000000,2.000000,2.000000,0.000000,4.000000,2.000000,2.000000,0.000000,0.000000,4.000000,4.000000,4.000000,4.000000,4.000000,4.000000,0.000000,,,,,,,,,,,,,,,,,,,,,,,,,,,,
1732156969.969157,1732156969.970128,88.000000,0.000000,4296.794922,4263.077148,4314.102539,4290.897461,4297.948730,4280.769043,4332.307617,4397.179688,4300.128418,4294.615234,4476.538574,4506.153809,4366.794922,4427.948730,1688.000000,1.000000,26.000000,,,,0.000000,2.000000,2.000000,0.000000,4.000000,2.000000,2.000000,0.000000,0.000000,4.000000,4.000000,4.000000,4.000000,4.000000,4.000000,0.000000,,,,,,,,,,,,,,,,,22.000000,0.000000,0.525957,0.480469,-0.550964,0.434692,0.970333,-0.002930,-0.081553,-35.493496,45.644035,31.522966
1732156969.976965,1732156969.977936,89.000000,0.000000,4296.794922,4264.230957,4315.897461,4291.410156,4276.410156,4278.974121,4334.487305,4397.563965,4305.000000,4296.025879,4478.717773,4510.512695,4366.282227,4427.436035,1670.000000,1.000000,26.000000,,,,0.000000,2.000000,2.000000,0.000000,4.000000,2.000000,2.000000,0.000000,0.000000,4.000000,4.000000,4.000000,4.000000,4.000000,4.000000,0.000000,,,,,,,,,,,,,,,,,,,,,,,,,,,,
1732156969.984773,1732156969.985544,90.000000,0.000000,4298.333496,4265.512695,4316.410156,4295.641113,4265.000000,4281.666504,4333.333496,4395.512695,4302.948730,4296.538574,4475.256348,4517.820313,4365.769043,4428.974121,1526.000000,1.000000,26.000000,,,,0.000000,2.000000,2.000000,0.000000,4.000000,2.000000,2.000000,0.000000,0.000000,4.000000,4.000000,4.000000,4.000000,4.000000,4.000000,0.000000,,,,,,,,,,,,,,,,,,,,,,,,,,,,
1732156969.992581,1732156969.993353,91.000000,0.000000,4295.897461,4262.948730,4319.487305,4290.256348,4279.358887,4282.692383,4333.717773,4394.358887,4297.436035,4295.512695,4476.666504,4512.179688,4366.666504,4424.871582,1566.000000,1.000000,26.000000,,,,0.000000,2.000000,2.000000,0.000000,4.000000,2.000000,2.000000,0.000000,0.000000,4.000000,4.000000,4.000000,4.000000,4.000000,4.000000,0.000000,,,,,,,,,,,,,,,,,,,,,,,,,,,,
1732156970.000389,1732156970.001061,92.000000,0.000000,4293.461426,4260.128418,4323.333496,4284.230957,4281.282227,4280.897461,4333.974121,4396.153809,4294.358887,4296.282227,4477.436035,4502.820313,4365.769043,4417.436035,1688.000000,1.000000,26.000000,,,,0.000000,2.000000,2.000000,0.000000,4.000000,2.000000,2.000000,0.000000,0.000000,4.000000,4.000000,4.000000,4.000000,4.000000,4.000000,0.000000,,,,,,,,,,,,,,,,,23.000000,0.000000,0.527028,0.475159,-0.554199,0.435120,0.987914,-0.007325,-0.074716,-35.411396,45.725002,31.623604
1732156970.008198,1732156970.008869,93.000000,0.000000,4295.384766,4263.589844,4325.000000,4291.282227,4276.025879,4285.384766,4335.256348,4399.102539,4299.871582,4297.692383,4476.666504,4509.743652,4365.512695,4420.897461,1670.000000,1.000000,26.000000,,,,0.000000,2.000000,2.000000,0.000000,4.000000,2.000000,2.000000,0.000000,0.000000,4.000000,4.000000,4.000000,4.000000,4.000000,4.000000,0.000000,,,,,,,,,,,,,,,,,,,,,,,,,,,,
1732156970.016006,1732156970.016877,94.000000,0.000000,4297.179688,4266.282227,4324.102539,4295.769043,4282.692383,4293.333496,4338.589844,4400.512695,4312.179688,4298.077148,4483.461426,4521.153809,4369.230957,4429.615234,1526.000000,1.000000,26.000000,,,,0.000000,2.000000,2.000000,0.000000,4.000000,2.000000,2.000000,0.000000,0.000000,4.000000,4.000000,4.000000,4.000000,4.000000,4.000000,0.000000,,,,,,,,,,,,,,,,,,,,,,,,,,,,
1732156970.023814,1732156970.024685,95.000000,0.000000,4297.307617,4264.871582,4323.717773,4288.333496,4284.743652,4290.000000,4337.051270,4399.615234,4310.897461,4297.307617,4483.846191,4522.820313,4365.512695,4430.512695,1566.000000,1.000000,26.000000,,,,0.000000,2.000000,2.000000,0.000000,4.000000,2.000000,2.000000,0.000000,0.000000,4.000000,4.000000,4.000000,4.000000,4.000000,4.000000,0.000000,,,,,,,,,,,,,,,,,,,,,,,,,,,,
1732156970.031623,1732156970.032594,96.000000,0.000000,4299.743652,4265.128418,4324.871582,4287.948730,4278.717773,4280.384766,4334.230957,4397.563965,4297.436035,4295.384766,4482.051270,4521.153809,4359.743652,4427.692383,1688.000000,1.000000,26.000000,,,,0.000000,2.000000,2.000000,0.000000,4.000000,2.000000,2.000000,0.000000,0.000000,4.000000,4.000000,4.000000,4.000000,4.000000,4.000000,0.000000,,,,,,,,,,,,,,,,,24.000000,0.000000,0.528878,0.471924,-0.555725,0.434448,0.987425,0.026370,-0.064949,-35.419899,45.612251,31.868452
1732156970.039431,1732156970.040402,97.000000,0.000000,4306.153809,4266.410156,4326.025879,4295.512695,4276.666504,4279.487305,4336.153809,4397.948730,4294.871582,4294.871582,4487.051270,4523.974121,4363.846191,4433.333496,1670.000000,1.000000,26.000000,,,,0.000000,2.000000,2.000000,0.000000,4.000000,2.000000,2.000000,0.000000,0.000000,4.000000,4.000000,4.000000,4.000000,4.000000,4.000000,0.000000,,,,,,,,,,,,,,,,,,,,,,,,,,,,
1732156970.047239,1732156970.048010,98.000000,0.000000,4311.025879,4269.102539,4326.025879,4297.307617,4289.230957,4281.794922,4335.512695,4400.000000,4300.512695,4294.230957,4483.077148,4527.051270,4367.563965,4439.102539,1526.000000,1.000000,26.000000,,,,0.000000,2.000000,2.000000,0.000000,4.000000,2.000000,2.000000,0.000000,0.000000,4.000000,4.000000,4.000000,4.000000,4.000000,4.000000,0.000000,,,,,,,,,,,,,,,,,,,,,,,,,,,,
1732156970.055047,1732156970.055818,99.000000,0.000000,4310.641113,4270.000000,4326.153809,4295.897461,4295.641113,4279.487305,4332.179688,4398.205078,4305.641113,4295.769043,4477.563965,4523.333496,4363.974121,4438.205078,1566.000000,1.000000,26.000000,,,,0.000000,2.000000,2.000000,0.000000,4.000000,2.000000,2.000000,0.000000,0.000000,4.000000,4.000000,4.000000,4.000000,4.000000,4.000000,0.000000,,,,,,,,,,,,,,,,,,,,,,,,,,,,
1732156970.062855,1732156970.063527,100.000000,0.000000,4308.589844,4269.230957,4325.897461,4295.769043,4271.666504,4278.077148,4330.641113,4398.589844,4312.436035,4302.051270,4486.922852,4518.846191,4364.358887,4438.205078,1688.000000,1.000000,26.000000,,,,0.000000,2.000000,2.000000,0.000000,4.000000,2.000000,2.000000,0.000000,0.000000,4.000000,4.000000,4.000000,4.000000,4.000000,4.000000,0.000000,,,,,,,,,,,,,,,,,25.000000,0.000000,0.528878,0.471924,-0.555725,0.434448,0.960566,0.046392,-0.066414,-35.501785,45.520924,31.991779
1732156970.070664,1732156970.071335,101.000000,0.000000,4310.384766,4274.743652,4326.282227,4300.512695,4256.922852,4280.897461,4331.025879,4399.743652,4313.333496,4302.051270,4494.230957,4522.307617,4368.205078,4443.717773,1670.000000,1.000000,26.000000,,,,0.000000,2.000000,2.000000,0.000000,4.000000,2.000000,2.000000,0.000000,0.000000,4.000000,4.000000,4.000000,4.000000,4.000000,4.000000,0.000000,,,,,,,,,,,,,,,,,,,,,,,,,,,,
1732156970.078472,1732156970.078943,102.000000,0.000000,4313.205078,4281.282227,4326.538574,4305.641113,4274.615234,4283.589844,4332.563965,4397.051270,4304.358887,4295.128418,4488.589844,4526.410156,4362.436035,4446.538574,1526.000000,1.000000,26.000000,,,,0.000000,2.000000,2.000000,0.000000,4.000000,2.000000,2.000000,0.000000,0.000000,4.000000,4.000000,4.000000,4.000000,4.000000,4.000000,0.000000,,,,,,,,,,,,,,,,,,,,,,,,,,,,
1732156970.086280,1732156970.086752,103.000000,0.000000,4312.948730,4279.102539,4326.410156,4302.948730,4279.743652,4283.461426,4336.410156,4400.000000,4299.358887,4293.205078,4484.871582,4523.205078,4356.794922,4441.153809,1566.000000,1.000000,26.000000,,,,0.000000,2.000000,2.000000,0.000000,4.000000,2.000000,2.000000,0.000000,0.000000,4.000000,4.000000,4.000000,4.000000,4.000000,4.000000,0.000000,,,,,,,,,,,,,,,,,,,,,,,,,,,,
1732156970.094088,1732156970.094660,104.000000,0.000000,4313.589844,4275.897461,4328.846191,4296.666504,4265.897461,4282.436035,4337.179688,4404.230957,4299.615234,4294.615234,4485.000000,4521.153809,4360.384766,4438.333496,1688.000000,1.000000,26.000000,,,,0.000000,2.000000,2.000000,0.000000,4.000000,2.000000,2.000000,0.000000,0.000000,4.000000,4.000000,4.000000,4.000000,4.000000,4.000000,0.000000,,,,,,,,,,,,,,,,,26.000000,0.000000,0.529885,0.471497,-0.555176,0.434387,0.974728,0.061043,-0.064949,-35.438110,45.421947,31.803341
1732156970.101897,1732156970.102468,105.000000,0.000000,4316.666504,4278.461426,4333.589844,4295.256348,4264.358887,4281.282227,4335.000000,4400.256348,4298.205078,4291.666504,4487.179688,4525.000000,4363.846191,4442.820313,1670.000000,1.000000,26.000000,,,,0.000000,2.000000,2.000000,0.000000,4.000000,2.000000,2.000000,0.000000,0.000000,4.000000,4.000000,4.000000,4.000000,4.000000,4.000000,0.000000,,,,,,,,,,,,,,,,,,,,,,,,,,,,
1732156970.109705,1732156970.110476,106.000000,0.000000,4323.717773,4281.153809,4338.589844,4296.666504,4266.794922,4279.358887,4338.589844,4401.538574,4296.666504,4293.974121,4491.794922,4530.641113,4368.589844,4446.794922,1526.000000,1.000000,26.000000,,,,0.000000,2.000000,2.000000,0.000000,4.000000,2.000000,2.000000,0.000000,0.000000,4.000000,4.000000,4.000000,4.000000,4.000000,4.000000,0.000000,,,,,,,,,,,,,,,,,,,,,,,,,,,,
1732156970.117513,1732156970.118284,107.000000,0.000000,4329.102539,4279.487305,4340.769043,4296.153809,4264.230957,4278.846191,4343.333496,4409.743652,4298.589844,4294.743652,4488.589844,4536.410156,4372.692383,4444.230957,1566.000000,1.000000,26.000000,,,,0.000000,2.000000,2.000000,0.000000,4.000000,2.000000,2.000000,0.000000,0.000000,4.000000,4.000000,4.000000,4.000000,4.000000,4.000000,0.000000,,,,,,,,,,,,,,,,,,,,,,,,,,,,
1732156970.125322,1732156970.126192,108.000000,0.000000,4327.948730,4282.051270,4343.333496,4296.794922,4266.538574,4279.743652,4341.922852,4406.666504,4297.179688,4286.153809,4486.410156,4536.794922,4371.538574,4445.384766,1688.000000,1.000000,26.000000,,,,0.000000,2.000000,2.000000,0.000000,4.000000,2.000000,2.000000,0.000000,0.000000,4.000000,4.000000,4.000000,4.000000,4.000000,4.000000,0.000000,,,,,,,,,,,,,,,,,27.000000,0.000000,0.530616,0.471680,-0.552979,0.436096,1.009401,0.021487,-0.042486,-35.479870,45.338444,31.932373
1732156970.133130,1732156970.134000,109.000000,0.000000,4330.384766,4291.538574,4346.025879,4300.641113,4268.589844,4275.000000,4341.025879,4403.589844,4294.358887,4283.589844,4492.948730,4535.512695,4375.384766,4456.666504,1670.000000,1.000000,26.000000,,,,0.000000,2.000000,2.000000,0.000000,4.000000,2.000000,2.000000,0.000000,0.000000,4.000000,4.000000,4.000000,4.000000,4.000000,4.000000,0.000000,,,,,,,,,,,,,,,,,,,,,,,,,,,,
1732156970.140938,1732156970.142008,110.000000,0.000000,4335.512695,4290.512695,4343.205078,4302.179688,4263.205078,4269.487305,4342.051270,4411.282227,4301.538574,4286.153809,4496.666504,4538.717773,4383.717773,4463.205078,1526.000000,1.000000,26.000000,,,,0.000000,2.000000,2.000000,0.000000,4.000000,2.000000,2.000000,0.000000,0.000000,4.000000,4.000000,4.000000,4.000000,4.000000,4.000000,0.000000,,,,,,,,,,,,,,,,,,,,,,,,,,,,
1732156970.148746,1732156970.149817,111.000000,0.000000,4333.846191,4282.307617,4335.128418,4300.000000,4270.256348,4272.051270,4337.563965,4410.000000,4304.230957,4282.563965,4491.153809,4532.820313,4377.563965,4458.333496,1566.000000,1.000000,26.000000,,,,0.000000,2.000000,2.000000,0.000000,4.000000,2.000000,2.000000,0.000000,0.000000,4.000000,4.000000,4.000000,4.000000,4.000000,4.000000,0.000000,,,,,,,,,,,,,,,,,,,,,,,,,,,,
1732156970.156554,1732156970.157725,112.000000,0.000000,4331.922852,4287.179688,4331.025879,4296.153809,4287.051270,4272.051270,4333.333496,4402.436035,4297.820313,4277.820313,4485.256348,4523.846191,4367.051270,4455.641113,1688.000000,1.000000,26.000000,,,,0.000000,2.000000,2.000000,0.000000,4.000000,2.000000,2.000000,0.000000,0.000000,4.000000,4.000000,4.000000,4.000000,4.000000,4.000000,0.000000,,,,,,,,,,,,,,,,,28.000000,0.000000,0.530360,0.471558,-0.553040,0.436462,1.010377,0.022464,-0.050787,-35.575363,45.427475,31.855223
1732156970.164363,1732156970.165533,113.000000,0.000000,4338.461426,4296.538574,4334.358887,4297.051270,4274.102539,4266.410156,4338.846191,4403.461426,4296.410156,4278.077148,4487.179688,4531.794922,4374.358887,4463.589844,1670.000000,1.000000,26.000000,,,,0.000000,2.000000,2.000000,0.000000,4.000000,2.000000,2.000000,0.000000,0.000000,4.000000,4.000000,4.000000,4.000000,4.000000,4.000000,0.000000,,,,,,,,,,,,,,,,,,,,,,,,,,,,
1732156970.172171,1732156970.173541,114.000000,0.000000,4346.153809,4294.743652,4337.948730,4300.769043,4246.794922,4265.512695,4341.666504,4403.589844,4291.794922,4277.436035,4495.128418,4541.025879,4385.897461,4471.922852,1526.000000,1.000000,26.000000,,,,0.000000,2.000000,2.000000,0.000000,4.000000,2.000000,2.000000,0.000000,0.000000,4.000000,4.000000,4.000000,4.000000,4.000000,4.000000,0.000000,,,,,,,,,,,,,,,,,,,,,,,,,,,,
1732156970.179979,1732156970.181349,115.000000,0.000000,4349.615234,4291.025879,4337.820313,4299.615234,4245.384766,4264.358887,4336.922852,4403.205078,4281.666504,4276.666504,4498.461426,4540.000000,4387.436035,4474.615234,1566.000000,1.000000,26.000000,,,,0.000000,2.000000,2.000000,0.000000,4.000000,2.000000,2.000000,0.000000,0.000000,4.000000,4.000000,4.000000,4.000000,4.000000,4.000000,0.000000,,,,,,,,,,,,,,,,,,,,,,,,,,,,
1732156970.187787,1732156970.189257,116.000000,0.000000,4351.666504,4293.077148,4338.974121,4295.897461,4254.230957,4261.538574,4337.436035,4405.384766,4285.641113,4278.974121,4493.205078,4542.436035,4387.948730,4475.641113,1688.000000,1.000000,26.000000,,,,0.000000,2.000000,2.000000,0.000000,4.000000,2.000000,2.000000,0.000000,0.000000,4.000000,4.000000,4.000000,4.000000,4.000000,4.000000,0.000000,,,,,,,,,,,,,,,,,29.000000,0.000000,0.530360,0.471558,-0.553040,0.436462,1.006471,0.006837,-0.047369,-35.847710,45.454586,31.747730
1732156970.195596,1732156970.197065,117.000000,0.000000,4352.692383,4295.000000,4340.384766,4296.666504,4248.974121,4260.769043,4341.794922,4405.128418,4296.794922,4281.538574,4496.153809,4543.333496,4393.974121,4475.897461,1670.000000,1.000000,26.000000,,,,0.000000,2.000000,2.000000,0.000000,4.000000,2.000000,2.000000,0.000000,0.000000,4.000000,4.000000,4.000000,4.000000,4.000000,4.000000,0.000000,,,,,,,,,,,,,,,,,,,,,,,,,,,,
1732156970.203404,1732156970.205073,118.000000,0.000000,4353.077148,4292.820313,4337.051270,4296.025879,4246.282227,4256.410156,4338.974121,4404.743652,4294.871582,4282.692383,4507.692383,4539.615234,4399.487305,4476.794922,1526.000000,1.000000,26.000000,,,,0.000000,2.000000,2.000000,0.000000,4.000000,2.000000,2.000000,0.000000,0.000000,4.000000,4.000000,4.000000,4.000000,4.000000,4.000000,0.000000,,,,,,,,,,,,,,,,,,,,,,,,,,,,
1732156970.211212,1732156970.212882,119.000000,0.000000,4355.512695,4289.871582,4332.307617,4295.897461,4249.743652,4250.641113,4334.230957,4406.410156,4291.794922,4281.666504,4507.820313,4540.897461,4397.051270,4483.461426,1566.000000,1.000000,26.000000,,,,0.000000,2.000000,2.000000,0.000000,4.000000,2.000000,2.000000,0.000000,0.000000,4.000000,4.000000,4.000000,4.000000,4.000000,4.000000,0.000000,,,,,,,,,,,,,,,,,,,,,,,,,,,,
1732156970.219020,1732156970.220790,120.000000,0.000000,4359.358887,4294.615234,4328.333496,4302.436035,4248.077148,4249.230957,4335.897461,4404.230957,4294.358887,4283.589844,4503.846191,4542.563965,4395.128418,4489.230957,1688.000000,1.000000,26.000000,,,,0.000000,2.000000,2.000000,0.000000,4.000000,2.000000,2.000000,0.000000,0.000000,4.000000,4.000000,4.000000,4.000000,4.000000,4.000000,0.000000,,,,,,,,,,,,,,,,,30.000000,0.000000,0.528563,0.471863,-0.554016,0.437073,0.946405,0.048346,-0.069344,-35.886646,45.328217,31.653996
1732156970.226828,1732156970.228598,121.000000,0.000000,4358.589844,4298.589844,4326.794922,4303.974121,4246.922852,4250.128418,4336.922852,4402.307617,4294.871582,4287.051270,4505.256348,4544.743652,4398.461426,4488.974121,1670.000000,1.000000,26.000000,,,,0.000000,2.000000,2.000000,0.000000,4.000000,2.000000,2.000000,0.000000,0.000000,4.000000,4.000000,4.000000,4.000000,4.000000,4.000000,0.000000,,,,,,,,,,,,,,,,,,,,,,,,,,,,
1732156970.234637,1732156970.236606,122.000000,0.000000,4353.589844,4293.717773,4327.436035,4298.846191,4249.230957,4255.897461,4335.641113,4405.512695,4296.538574,4290.000000,4505.769043,4546.025879,4399.487305,4487.179688,1526.000000,1.000000,26.000000,,,,0.000000,2.000000,2.000000,0.000000,4.000000,2.000000,2.000000,0.000000,0.000000,4.000000,4.000000,4.000000,4.000000,4.000000,4.000000,0.000000,,,,,,,,,,,,,,,,,,,,,,,,,,,,
1732156970.242445,1732156970.244414,123.000000,0.000000,4350.769043,4292.307617,4328.461426,4300.128418,4250.384766,4261.666504,4335.897461,4405.641113,4297.948730,4295.769043,4505.641113,4540.512695,4397.179688,4487.436035,1566.000000,1.000000,26.000000,,,,0.000000,2.000000,2.000000,0.000000,4.000000,2.000000,2.000000,0.000000,0.000000,4.000000,4.000000,4.000000,4.000000,4.000000,4.000000,0.000000,,,,,,,,,,,,,,,,,,,,,,,,,,,,
1732156970.250253,1732156970.252322,124.000000,0.000000,4351.922852,4297.692383,4327.820313,4307.563965,4249.871582,4260.641113,4334.871582,4400.897461,4295.769043,4295.769043,4501.538574,4536.922852,4396.282227,4490.000000,1688.000000,1.000000,26.000000,,,,0.000000,2.000000,2.000000,0.000000,4.000000,2.000000,2.000000,0.000000,0.000000,4.000000,4.000000,4.000000,4.000000,4.000000,4.000000,0.000000,,,,,,,,,,,,,,,,,31.000000,0.000000,0.527746,0.472351,-0.554138,0.437378,0.964962,0.017092,-0.067391,-35.979851,45.510853,31.626402
1732156970.258062,1732156970.260130,125.000000,0.000000,4351.666504,4297.948730,4325.641113,4310.000000,4249.871582,4259.871582,4333.205078,4396.794922,4291.410156,4285.128418,4496.922852,4536.922852,4396.153809,4486.410156,1670.000000,1.000000,26.000000,,,,0.000000,2.000000,2.000000,0.000000,4.000000,2.000000,2.000000,0.000000,0.000000,4.000000,4.000000,4.000000,4.000000,4.000000,4.000000,0.000000,,,,,,,,,,,,,,,,,,,,,,,,,,,,
1732156970.265870,1732156970.267739,126.000000,0.000000,4346.794922,4293.717773,4324.487305,4307.692383,4251.410156,4262.179688,4335.000000,4396.666504,4288.974121,4281.153809,4503.974121,4533.589844,4396.025879,4475.256348,1526.000000,1.000000,26.000000,,,,0.000000,2.000000,2.000000,0.000000,4.000000,2.000000,2.000000,0.000000,0.000000,4.000000,4.000000,4.000000,4.000000,4.000000,4.000000,0.000000,,,,,,,,,,,,,,,,,,,,,,,,,,,,
1732156970.273678,1732156970.275547,127.000000,0.000000,4345.128418,4296.282227,4326.410156,4308.461426,4251.922852,4261.410156,4336.282227,4401.025879,4293.333496,4291.538574,4511.282227,4532.820313,4398.333496,4476.666504,26.000000,1.000000,26.000000,,,,0.000000,2.000000,2.000000,0.000000,4.000000,2.000000,2.000000,0.000000,0.000000,4.000000,4.000000,4.000000,4.000000,4.000000,4.000000,0.000000,,,,,,,,,,,,,,,,,,,,,,,,,,,,
1732156970.281486,1732156970.283255,0.000000,0.000000,4348.974121,4298.974121,4329.358887,4310.512695,4250.641113,4261.153809,4334.487305,4403.461426,4296.282227,4298.846191,4507.051270,4538.205078,4399.358887,4490.512695,0.000000,1.000000,26.000000,,,,0.000000,2.000000,2.000000,0.000000,4.000000,2.000000,2.000000,0.000000,0.000000,4.000000,4.000000,4.000000,4.000000,4.000000,4.000000,0.000000,,,,,,,,,,,,,,,,,0.000000,0.000000,0.526107,0.471680,-0.554626,0.439453,0.987914,-0.000488,-0.058601,-36.138680,45.643791,31.567387
1732156970.289295,1732156970.291064,1.000000,0.000000,4350.256348,4295.256348,4330.512695,4311.025879,4248.717773,4262.692383,4334.358887,4402.692383,4292.563965,4291.922852,4503.205078,4537.179688,4396.666504,4489.102539,1596.000000,1.000000,26.000000,,,,0.000000,2.000000,2.000000,0.000000,4.000000,2.000000,2.000000,0.000000,0.000000,4.000000,4.000000,4.000000,4.000000,4.000000,4.000000,0.000000,,,,,,,,,,,,,,,,,,,,,,,,,,,,
1732156970.297103,1732156970.298672,2.000000,0.000000,4350.256348,4295.256348,4329.743652,4311.538574,4248.974121,4263.589844,4335.256348,4402.692383,4292.307617,4287.179688,4507.563965,4534.487305,4398.077148,4476.666504,1387.000000,1.000000,26.000000,,,,0.000000,2.000000,2.000000,0.000000,4.000000,2.000000,2.000000,0.000000,0.000000,4.000000,4.000000,4.000000,4.000000,4.000000,4.000000,0.000000,,,,,,,,,,,,,,,,,,,,,,,,,,,,
1732156970.304911,1732156970.306480,3.000000,0.000000,4349.871582,4298.589844,4329.743652,4312.051270,4250.641113,4265.128418,4334.230957,4406.153809,4295.384766,4289.487305,4503.077148,4537.563965,4396.666504,4475.384766,1411.000000,1.000000,26.000000,,,,0.000000,2.000000,2.000000,0.000000,4.000000,2.000000,2.000000,0.000000,0.000000,4.000000,4.000000,4.000000,4.000000,4.000000,4.000000,0.000000,,,,,,,,,,,,,,,,,,,,,,,,,,,,
1732156970.312719,1732156970.314189,4.000000,0.000000,4345.256348,4294.102539,4330.641113,4307.436035,4250.897461,4264.615234,4333.333496,4404.230957,4292.820313,4285.897461,4494.358887,4538.205078,4388.589844,4477.820313,1412.000000,1.000000,26.000000,,,,0.000000,2.000000,2.000000,0.000000,4.000000,2.000000,2.000000,0.000000,0.000000,4.000000,4.000000,4.000000,4.000000,4.000000,4.000000,0.000000,,,,,,,,,,,,,,,,,1.000000,0.000000,0.526107,0.471680,-0.554626,0.439453,0.987914,-0.000488,-0.058601,-36.162331,45.646473,31.534582
1732156970.320527,1732156970.321997,5.000000,0.000000,4345.641113,4288.461426,4328.846191,4305.769043,4248.974121,4264.487305,4334.102539,4400.000000,4291.666504,4284.487305,4498.717773,4533.333496,4389.487305,4475.769043,1234.000000,1.000000,26.000000,,,,0.000000,2.000000,2.000000,0.000000,4.000000,2.000000,2.000000,0.000000,0.000000,4.000000,4.000000,4.000000,4.000000,4.000000,4.000000,0.000000,,,,,,,,,,,,,,,,,,,,,,,,,,,,
1732156970.328336,1732156970.329605,6.000000,0.000000,4352.948730,4292.307617,4326.153809,4310.000000,4248.333496,4264.743652,4335.512695,4402.307617,4296.025879,4295.384766,4509.230957,4535.000000,4398.333496,4474.358887,0.000000,1.000000,26.000000,,,,0.000000,2.000000,2.000000,0.000000,4.000000,2.000000,2.000000,0.000000,0.000000,4.000000,4.000000,4.000000,4.000000,4.000000,4.000000,0.000000,,,,,,,,,,,,,,,,,,,,,,,,,,,,
1732156970.336144,1732156970.337413,7.000000,0.000000,4350.384766,4294.102539,4325.000000,4311.538574,4257.692383,4264.615234,4334.487305,4402.563965,4296.794922,4300.256348,4507.948730,4539.230957,4396.538574,4473.589844,0.000000,1.000000,26.000000,,,,0.000000,2.000000,2.000000,0.000000,4.000000,2.000000,2.000000,0.000000,0.000000,4.000000,4.000000,4.000000,4.000000,4.000000,4.000000,0.000000,,,,,,,,,,,,,,,,,,,,,,,,,,,,
1732156970.343952,1732156970.345122,8.000000,0.000000,4344.487305,4293.461426,4325.641113,4310.128418,4270.512695,4264.358887,4333.205078,4397.307617,4294.871582,4293.589844,4501.538574,4535.641113,4390.512695,4472.179688,1523.000000,1.000000,26.000000,,,,0.000000,2.000000,2.000000,0.000000,4.000000,2.000000,2.000000,0.000000,0.000000,4.000000,4.000000,4.000000,4.000000,4.000000,4.000000,0.000000,,,,,,,,,,,,,,,,,2.000000,0.000000,0.523345,0.469604,-0.557007,0.441956,0.975217,-0.029300,-0.071786,-36.213154,45.695309,31.676346
1732156970.351761,1732156970.352930,9.000000,0.000000,4348.717773,4292.820313,4326.282227,4309.487305,4262.307617,4263.589844,4332.307617,4397.436035,4295.384766,4296.538574,4504.102539,4533.205078,4391.410156,4472.436035,1668.000000,1.000000,26.000000,,,,0.000000,2.000000,2.000000,0.000000,4.000000,2.000000,2.000000,0.000000,0.000000,4.000000,4.000000,4.000000,4.000000,4.000000,4.000000,0.000000,,,,,,,,,,,,,,,,,,,,,,,,,,,,
1732156970.359569,1732156970.360538,10.000000,0.000000,4351.922852,4288.461426,4325.512695,4310.000000,4245.897461,4264.871582,4333.333496,4403.589844,4294.487305,4301.794922,4505.384766,4536.794922,4388.589844,4472.436035,1526.000000,1.000000,26.000000,,,,0.000000,2.000000,2.000000,0.000000,4.000000,2.000000,2.000000,0.000000,0.000000,4.000000,4.000000,4.000000,4.000000,4.000000,4.000000,0.000000,,,,,,,,,,,,,,,,,,,,,,,,,,,,
1732156970.367377,1732156970.368347,11.000000,0.000000,4349.487305,4285.000000,4323.461426,4311.410156,4245.769043,4264.487305,4334.615234,4402.692383,4295.641113,4301.025879,4501.922852,4537.692383,4385.128418,4472.179688,1566.000000,1.000000,26.000000,,,,0.000000,2.000000,2.000000,0.000000,4.000000,2.000000,2.000000,0.000000,0.000000,4.000000,4.000000,4.000000,4.000000,4.000000,4.000000,0.000000,,,,,,,,,,,,,,,,,,,,,,,,,,,,
1732156970.375185,1732156970.376055,12.000000,0.000000,4350.000000,4285.897461,4324.615234,4308.717773,4251.282227,4262.563965,4333.077148,4397.436035,4299.615234,4303.333496,4503.077148,4536.410156,4386.922852,4473.461426,1688.000000,1.000000,26.000000,,,,0.000000,2.000000,2.000000,0.000000,4.000000,2.000000,2.000000,0.000000,0.000000,4.000000,4.000000,4.000000,4.000000,4.000000,4.000000,0.000000,,,,,,,,,,,,,,,,,3.000000,0.000000,0.521695,0.468567,-0.558167,0.443542,0.972775,-0.030765,-0.060066,-36.082653,45.739868,31.646173
1732156970.382993,1732156970.383863,13.000000,0.000000,4351.410156,4287.692383,4326.794922,4305.128418,4256.538574,4268.589844,4332.563965,4396.922852,4295.512695,4300.641113,4506.410156,4535.128418,4385.128418,4474.615234,1671.000000,1.000000,26.000000,,,,0.000000,2.000000,2.000000,0.000000,4.000000,2.000000,2.000000,0.000000,0.000000,4.000000,4.000000,4.000000,4.000000,4.000000,4.000000,0.000000,,,,,,,,,,,,,,,,,,,,,,,,,,,,
1732156970.390802,1732156970.391471,14.000000,0.000000,4349.871582,4285.000000,4323.333496,4308.333496,4261.410156,4278.846191,4336.025879,4399.102539,4294.871582,4299.102539,4506.025879,4534.871582,4380.641113,4474.358887,1526.000000,1.000000,26.000000,,,,0.000000,2.000000,2.000000,0.000000,4.000000,2.000000,2.000000,0.000000,0.000000,4.000000,4.000000,4.000000,4.000000,4.000000,4.000000,0.000000,1.000000,0.000000,2.000000,2.000000,0.000000,4.000000,2.000000,2.000000,0.000000,0.000000,4.000000,4.000000,4.000000,4.000000,4.000000,4.000000,,,,,,,,,,,,
1732156970.398610,1732156970.399280,15.000000,0.000000,4349.615234,4282.948730,4321.025879,4310.512695,4264.102539,4280.641113,4335.000000,4398.333496,4305.769043,4307.948730,4503.333496,4536.922852,4380.384766,4467.692383,1566.000000,1.000000,26.000000,,,,0.000000,2.000000,2.000000,0.000000,4.000000,2.000000,2.000000,0.000000,0.000000,4.000000,4.000000,4.000000,4.000000,4.000000,4.000000,0.000000,,,,,,,,,,,,,,,,,,,,,,,,,,,,
1732156970.406418,1732156970.406988,16.000000,0.000000,4350.000000,4285.000000,4326.025879,4307.820313,4274.615234,4276.666504,4329.615234,4397.436035,4307.051270,4309.102539,4503.846191,4537.307617,4382.051270,4462.820313,0.000000,1.000000,26.000000,,,,0.000000,2.000000,2.000000,0.000000,4.000000,2.000000,2.000000,0.000000,0.000000,4.000000,4.000000,4.000000,4.000000,4.000000,4.000000,0.000000,,,,,,,,,,,,,,,,,4.000000,0.000000,0.521152,0.467834,-0.558899,0.444031,0.972775,-0.030765,-0.060066,-35.778618,45.620960,31.663401
1732156970.414226,1732156970.414796,17.000000,0.000000,4348.846191,4288.205078,4327.051270,4309.487305,4277.820313,4277.820313,4332.948730,4399.615234,4296.282227,4296.794922,4505.897461,4536.410156,4382.179688,4469.615234,0.000000,1.000000,26.000000,,,,0.000000,2.000000,2.000000,0.000000,4.000000,2.000000,2.000000,0.000000,0.000000,4.000000,4.000000,4.000000,4.000000,4.000000,4.000000,0.000000,,,,,,,,,,,,,,,,,,,,,,,,,,,,
1732156970.422035,1732156970.422804,18.000000,0.000000,4349.487305,4290.897461,4325.384766,4313.333496,4261.282227,4279.871582,4335.769043,4399.102539,4292.692383,4295.000000,4505.128418,4541.410156,4383.717773,4477.179688,0.000000,1.000000,26.000000,,,,0.000000,2.000000,2.000000,0.000000,4.000000,2.000000,2.000000,0.000000,0.000000,4.000000,4.000000,4.000000,4.000000,4.000000,4.000000,0.000000,,,,,,,,,,,,,,,,,,,,,,,,,,,,
1732156970.429843,1732156970.430612,19.000000,0.000000,4351.538574,4293.974121,4324.230957,4312.820313,4258.589844,4278.846191,4329.871582,4397.436035,4295.384766,4298.846191,4502.948730,4536.410156,4384.102539,4473.974121,0.000000,1.000000,26.000000,,,,0.000000,2.000000,2.000000,0.000000,4.000000,2.000000,2.000000,0.000000,0.000000,4.000000,4.000000,4.000000,4.000000,4.000000,4.000000,0.000000,,,,,,,,,,,,,,,,,,,,,,,,,,,,
1732156970.437651,1732156970.438520,20.000000,0.000000,4349.871582,4296.794922,4321.153809,4312.563965,4268.589844,4279.487305,4328.974121,4398.461426,4298.461426,4295.512695,4504.487305,4526.922852,4382.820313,4466.794922,0.000000,1.000000,26.000000,,,,0.000000,2.000000,2.000000,0.000000,4.000000,2.000000,2.000000,0.000000,0.000000,4.000000,4.000000,4.000000,4.000000,4.000000,4.000000,0.000000,,,,,,,,,,,,,,,,,5.000000,0.000000,0.519325,0.465637,-0.560730,0.446167,0.992309,-0.032719,-0.070321,-36.097347,45.562977,31.689020
1732156970.445459,1732156970.446329,21.000000,0.000000,4348.205078,4292.307617,4326.922852,4312.051270,4260.384766,4280.897461,4336.922852,4400.000000,4303.461426,4298.205078,4511.282227,4528.461426,4381.666504,4464.743652,0.000000,1.000000,26.000000,,,,0.000000,2.000000,2.000000,0.000000,4.000000,2.000000,2.000000,0.000000,0.000000,4.000000,4.000000,4.000000,4.000000,4.000000,4.000000,0.000000,,,,,,,,,,,,,,,,,,,,,,,,,,,,
1732156970.453268,1732156970.454337,22.000000,0.000000,4346.922852,4292.307617,4328.717773,4310.256348,4267.692383,4279.230957,4336.025879,4398.333496,4303.589844,4305.384766,4512.051270,4531.025879,4381.153809,4463.461426,0.000000,1.000000,26.000000,,,,0.000000,2.000000,2.000000,0.000000,4.000000,2.000000,2.000000,0.000000,0.000000,4.000000,4.000000,4.000000,4.000000,4.000000,4.000000,0.000000,,,,,,,,,,,,,,,,,,,,,,,,,,,,
1732156970.461076,1732156970.462145,23.000000,0.000000,4345.000000,4298.589844,4322.051270,4313.461426,4285.000000,4275.641113,4330.128418,4397.051270,4303.846191,4306.153809,4507.307617,4531.153809,4378.974121,4461.410156,0.000000,1.000000,26.000000,,,,0.000000,2.000000,2.000000,0.000000,4.000000,2.000000,2.000000,0.000000,0.000000,4.000000,4.000000,4.000000,4.000000,4.000000,4.000000,0.000000,,,,,,,,,,,,,,,,,,,,,,,,,,,,
1732156970.468884,1732156970.470053,24.000000,0.000000,4341.538574,4290.897461,4345.641113,4312.307617,4263.461426,4275.897461,4341.538574,4404.230957,4307.948730,4301.794922,4507.436035,4537.051270,4375.384766,4459.487305,0.000000,1.000000,26.000000,,,,0.000000,2.000000,2.000000,0.000000,4.000000,2.000000,2.000000,0.000000,0.000000,4.000000,4.000000,4.000000,4.000000,4.000000,4.000000,0.000000,,,,,,,,,,,,,,,,,6.000000,0.000000,0.518947,0.464783,-0.561157,0.446960,0.978147,-0.037114,-0.060554,-36.122185,45.582676,31.476440
1732156970.476692,1732156970.477861,25.000000,0.000000,4340.641113,4279.743652,4378.589844,4307.948730,4244.487305,4278.974121,4352.563965,4412.051270,4302.051270,4296.153809,4502.820313,4541.025879,4372.051270,4460.000000,0.000000,1.000000,26.000000,,,,0.000000,2.000000,2.000000,0.000000,4.000000,2.000000,2.000000,0.000000,0.000000,4.000000,4.000000,4.000000,4.000000,4.000000,4.000000,0.000000,,,,,,,,,,,,,,,,,,,,,,,,,,,,
1732156970.484501,1732156970.485470,26.000000,0.000000,4346.410156,4288.974121,4357.948730,4314.358887,4259.615234,4279.230957,4340.641113,4406.410156,4295.641113,4295.512695,4494.487305,4537.307617,4372.179688,4462.563965,0.000000,1.000000,26.000000,,,,0.000000,2.000000,2.000000,0.000000,4.000000,2.000000,2.000000,0.000000,0.000000,4.000000,4.000000,4.000000,4.000000,4.000000,4.000000,0.000000,,,,,,,,,,,,,,,,,,,,,,,,,,,,
1732156970.492309,1732156970.493278,27.000000,0.000000,4348.717773,4300.128418,4320.000000,4320.128418,4272.051270,4278.333496,4328.846191,4396.666504,4303.589844,4300.512695,4498.846191,4538.077148,4378.205078,4462.051270,0.000000,1.000000,26.000000,,,,0.000000,2.000000,2.000000,0.000000,4.000000,2.000000,2.000000,0.000000,0.000000,4.000000,4.000000,4.000000,4.000000,4.000000,4.000000,0.000000,,,,,,,,,,,,,,,,,,,,,,,,,,,,
1732156970.500117,1732156970.501186,28.000000,0.000000,4343.846191,4294.230957,4320.897461,4316.922852,4269.230957,4280.641113,4334.487305,4397.563965,4312.307617,4302.948730,4507.307617,4540.256348,4380.769043,4460.641113,0.000000,1.000000,26.000000,,,,0.000000,2.000000,2.000000,0.000000,4.000000,2.000000,2.000000,0.000000,0.000000,4.000000,4.000000,4.000000,4.000000,4.000000,4.000000,0.000000,,,,,,,,,,,,,,,,,7.000000,0.000000,0.518850,0.464539,-0.561157,0.447327,0.990844,-0.038579,-0.056159,-35.845634,45.566967,31.544250
1732156970.507925,1732156970.508994,29.000000,0.000000,4342.307617,4294.230957,4326.282227,4315.256348,4266.666504,4282.051270,4335.641113,4399.487305,4310.641113,4303.077148,4507.051270,4538.846191,4376.282227,4461.538574,0.000000,1.000000,26.000000,,,,0.000000,2.000000,2.000000,0.000000,4.000000,2.000000,2.000000,0.000000,0.000000,4.000000,4.000000,4.000000,4.000000,4.000000,4.000000,0.000000,,,,,,,,,,,,,,,,,,,,,,,,,,,,
1732156970.515734,1732156970.517002,30.000000,0.000000,4344.102539,4296.666504,4318.974121,4315.384766,4269.743652,4279.230957,4326.025879,4396.410156,4306.666504,4303.717773,4506.025879,4539.487305,4372.820313,4463.205078,0.000000,1.000000,26.000000,,,,0.000000,2.000000,2.000000,0.000000,4.000000,2.000000,2.000000,0.000000,0.000000,4.000000,4.000000,4.000000,4.000000,4.000000,4.000000,0.000000,,,,,,,,,,,,,,,,,,,,,,,,,,,,
1732156970.523542,1732156970.524810,31.000000,0.000000,4340.769043,4285.000000,4321.153809,4309.615234,4281.794922,4278.846191,4324.743652,4398.974121,4307.179688,4299.487305,4506.153809,4538.846191,4372.948730,4459.743652,0.000000,1.000000,26.000000,,,,0.000000,2.000000,2.000000,0.000000,4.000000,2.000000,2.000000,0.000000,0.000000,4.000000,4.000000,4.000000,4.000000,4.000000,4.000000,0.000000,,,,,,,,,,,,,,,,,,,,,,,,,,,,
1732156970.531350,1732156970.532718,32.000000,0.000000,4336.794922,4283.974121,4323.589844,4309.102539,4284.358887,4281.794922,4331.538574,4402.820313,4307.051270,4293.974121,4505.000000,4537.948730,4366.153809,4455.512695,0.000000,1.000000,26.000000,,,,0.000000,2.000000,2.000000,0.000000,4.000000,2.000000,2.000000,0.000000,0.000000,4.000000,4.000000,4.000000,4.000000,4.000000,4.000000,0.000000,,,,,,,,,,,,,,,,,8.000000,0.000000,0.518638,0.464172,-0.561218,0.447876,0.987914,-0.043462,-0.044439,-35.494965,45.427578,31.789175
1732156970.539158,1732156970.540527,33.000000,0.000000,4339.230957,4297.692383,4321.410156,4316.153809,4266.410156,4281.922852,4332.820313,4399.358887,4307.820313,4293.589844,4504.102539,4537.820313,4356.666504,4456.025879,0.000000,1.000000,26.000000,,,,0.000000,2.000000,2.000000,0.000000,4.000000,2.000000,2.000000,0.000000,0.000000,4.000000,4.000000,4.000000,4.000000,4.000000,4.000000,0.000000,,,,,,,,,,,,,,,,,,,,,,,,,,,,
1732156970.546966,1732156970.548535,34.000000,0.000000,4338.717773,4300.000000,4321.153809,4316.794922,4258.974121,4280.128418,4330.256348,4397.307617,4311.794922,4297.051270,4496.922852,4534.358887,4360.000000,4453.589844,0.000000,1.000000,26.000000,,,,0.000000,2.000000,2.000000,0.000000,4.000000,2.000000,2.000000,0.000000,0.000000,4.000000,4.000000,4.000000,4.000000,4.000000,4.000000,0.000000,,,,,,,,,,,,,,,,,,,,,,,,,,,,
1732156970.554775,1732156970.556343,35.000000,0.000000,4336.282227,4292.563965,4319.230957,4310.897461,4268.205078,4280.641113,4330.769043,4399.230957,4307.436035,4293.974121,4491.794922,4529.230957,4365.384766,4446.410156,0.000000,1.000000,26.000000,,,,0.000000,2.000000,2.000000,0.000000,4.000000,2.000000,2.000000,0.000000,0.000000,4.000000,4.000000,4.000000,4.000000,4.000000,4.000000,0.000000,,,,,,,,,,,,,,,,,,,,,,,,,,,,
1732156970.562583,1732156970.564251,36.000000,0.000000,4333.461426,4294.615234,4317.051270,4309.743652,4274.487305,4282.179688,4334.102539,4398.846191,4295.256348,4283.333496,4493.974121,4530.641113,4361.025879,4440.897461,0.000000,1.000000,26.000000,,,,0.000000,2.000000,2.000000,0.000000,4.000000,2.000000,2.000000,0.000000,0.000000,4.000000,4.000000,4.000000,4.000000,4.000000,4.000000,0.000000,,,,,,,,,,,,,,,,,9.000000,0.000000,0.518569,0.464294,-0.561035,0.448059,0.992309,-0.023440,-0.055671,-35.282589,45.083004,31.760899
1732156970.570391,1732156970.572059,37.000000,0.000000,4332.692383,4302.179688,4316.794922,4317.179688,4277.436035,4282.820313,4332.820313,4397.436035,4294.871582,4283.205078,4495.000000,4536.666504,4356.410156,4443.461426,0.000000,1.000000,26.000000,,,,0.000000,2.000000,2.000000,0.000000,4.000000,2.000000,2.000000,0.000000,0.000000,4.000000,4.000000,4.000000,4.000000,4.000000,4.000000,0.000000,,,,,,,,,,,,,,,,,,,,,,,,,,,,
1732156970.578200,1732156970.580067,38.000000,0.000000,4339.358887,4301.666504,4318.461426,4321.538574,4277.948730,4281.922852,4329.487305,4399.102539,4307.179688,4293.589844,4497.563965,4539.230957,4358.974121,4450.384766,0.000000,1.000000,26.000000,,,,0.000000,2.000000,2.000000,0.000000,4.000000,2.000000,2.000000,0.000000,0.000000,4.000000,4.000000,4.000000,4.000000,4.000000,4.000000,0.000000,,,,,,,,,,,,,,,,,,,,,,,,,,,,
1732156970.586008,1732156970.587875,39.000000,0.000000,4345.897461,4297.692383,4319.230957,4316.153809,4276.282227,4280.897461,4332.179688,4400.256348,4309.487305,4294.615234,4500.641113,4539.871582,4360.384766,4450.769043,0.000000,1.000000,26.000000,,,,0.000000,2.000000,2.000000,0.000000,4.000000,2.000000,2.000000,0.000000,0.000000,4.000000,4.000000,4.000000,4.000000,4.000000,4.000000,0.000000,,,,,,,,,,,,,,,,,,,,,,,,,,,,
1732156970.593816,1732156970.595784,40.000000,0.000000,4343.077148,4297.436035,4319.871582,4311.282227,4275.512695,4280.769043,4335.384766,4399.102539,4302.948730,4291.282227,4496.025879,4541.153809,4356.922852,4445.641113,0.000000,1.000000,26.000000,,,,0.000000,2.000000,2.000000,0.000000,4.000000,2.000000,2.000000,0.000000,0.000000,4.000000,4.000000,4.000000,4.000000,4.000000,4.000000,0.000000,,,,,,,,,,,,,,,,,10.000000,0.000000,0.518554,0.464783,-0.560547,0.448181,0.958125,-0.031742,-0.061043,-35.192230,44.923901,31.731329
1732156970.601624,1732156970.603592,41.000000,0.000000,4339.102539,4298.589844,4318.205078,4314.615234,4276.410156,4279.871582,4334.743652,4398.077148,4303.846191,4294.487305,4488.717773,4543.077148,4351.794922,4445.641113,0.000000,1.000000,26.000000,,,,0.000000,2.000000,2.000000,0.000000,4.000000,2.000000,2.000000,0.000000,0.000000,4.000000,4.000000,4.000000,4.000000,4.000000,4.000000,0.000000,,,,,,,,,,,,,,,,,,,,,,,,,,,,
1732156970.609432,1732156970.611600,42.000000,0.000000,4341.666504,4296.025879,4316.538574,4319.743652,4281.153809,4282.948730,4333.717773,4397.563965,4308.461426,4293.077148,4488.717773,4541.538574,4349.615234,4448.333496,0.000000,1.000000,26.000000,,,,0.000000,2.000000,2.000000,0.000000,4.000000,2.000000,2.000000,0.000000,0.000000,4.000000,4.000000,4.000000,4.000000,4.000000,4.000000,0.000000,,,,,,,,,,,,,,,,,,,,,,,,,,,,
1732156970.617241,1732156970.619408,43.000000,0.000000,4340.641113,4296.025879,4320.128418,4320.641113,4283.589844,4291.410156,4334.615234,4398.589844,4310.256348,4293.077148,4492.948730,4537.820313,4353.717773,4446.153809,0.000000,1.000000,26.000000,,,,0.000000,2.000000,2.000000,0.000000,4.000000,2.000000,2.000000,0.000000,0.000000,4.000000,4.000000,4.000000,4.000000,4.000000,4.000000,0.000000,,,,,,,,,,,,,,,,,,,,,,,,,,,,
1732156970.625049,1732156970.627316,44.000000,0.000000,4334.358887,4295.512695,4324.487305,4318.461426,4279.615234,4296.666504,4334.871582,4399.102539,4312.820313,4296.794922,4493.974121,4538.974121,4354.230957,4444.615234,0.000000,1.000000,26.000000,,,,0.000000,2.000000,2.000000,0.000000,4.000000,2.000000,2.000000,0.000000,0.000000,4.000000,4.000000,4.000000,4.000000,4.000000,4.000000,0.000000,,,,,,,,,,,,,,,,,11.000000,0.000000,0.518672,0.464783,-0.560486,0.448120,0.968380,-0.036137,-0.058113,-35.350704,44.896694,31.947376
1732156970.632857,1732156970.635124,45.000000,0.000000,4333.717773,4295.384766,4323.589844,4316.922852,4290.128418,4295.512695,4333.461426,4398.333496,4309.102539,4287.692383,4484.230957,4533.846191,4347.948730,4440.641113,0.000000,1.000000,26.000000,,,,0.000000,2.000000,2.000000,0.000000,4.000000,2.000000,2.000000,0.000000,0.000000,4.000000,4.000000,4.000000,4.000000,4.000000,4.000000,0.000000,,,,,,,,,,,,,,,,,,,,,,,,,,,,
1732156970.640665,1732156970.642733,46.000000,0.000000,4336.025879,4301.282227,4319.871582,4323.205078,4304.358887,4292.436035,4333.077148,4397.563965,4297.820313,4279.871582,4479.102539,4523.846191,4347.051270,4435.128418,0.000000,1.000000,26.000000,,,,0.000000,2.000000,2.000000,0.000000,4.000000,2.000000,2.000000,0.000000,0.000000,4.000000,4.000000,4.000000,4.000000,4.000000,4.000000,0.000000,,,,,,,,,,,,,,,,,,,,,,,,,,,,
1732156970.648474,1732156970.650541,47.000000,0.000000,4335.384766,4302.563965,4319.871582,4326.025879,4291.538574,4291.794922,4332.692383,4397.820313,4301.538574,4289.102539,4487.820313,4528.846191,4351.538574,4437.692383,0.000000,1.000000,26.000000,,,,0.000000,2.000000,2.000000,0.000000,4.000000,2.000000,2.000000,0.000000,0.000000,4.000000,4.000000,4.000000,4.000000,4.000000,4.000000,0.000000,,,,,,,,,,,,,,,,,,,,,,,,,,,,
1732156970.656282,1732156970.658249,48.000000,0.000000,4334.871582,4296.666504,4321.153809,4316.666504,4272.563965,4294.615234,4330.641113,4398.077148,4319.743652,4299.358887,4489.743652,4540.641113,4350.769043,4442.948730,0.000000,1.000000,26.000000,,,,0.000000,2.000000,2.000000,0.000000,4.000000,2.000000,2.000000,0.000000,0.000000,4.000000,4.000000,4.000000,4.000000,4.000000,4.000000,0.000000,,,,,,,,,,,,,,,,,12.000000,0.000000,0.519015,0.464783,-0.560364,0.447876,0.996215,-0.020510,-0.072763,-35.489071,45.059654,32.024040
1732156970.664090,1732156970.666057,49.000000,0.000000,4334.615234,4293.974121,4318.077148,4311.025879,4276.794922,4295.128418,4330.128418,4397.436035,4321.410156,4297.948730,4486.282227,4540.000000,4347.436035,4442.307617,0.000000,1.000000,26.000000,,,,0.000000,2.000000,2.000000,0.000000,4.000000,2.000000,2.000000,0.000000,0.000000,4.000000,4.000000,4.000000,4.000000,4.000000,4.000000,0.000000,,,,,,,,,,,,,,,,,,,,,,,,,,,,
1732156970.671898,1732156970.673666,50.000000,0.000000,4334.358887,4298.846191,4315.897461,4318.077148,4284.743652,4289.871582,4331.025879,4397.692383,4311.666504,4295.769043,4491.922852,4538.205078,4350.897461,4441.282227,0.000000,1.000000,26.000000,,,,0.000000,2.000000,2.000000,0.000000,4.000000,2.000000,2.000000,0.000000,0.000000,4.000000,4.000000,4.000000,4.000000,4.000000,4.000000,0.000000,,,,,,,,,,,,,,,,,,,,,,,,,,,,
1732156970.679707,1732156970.681474,51.000000,0.000000,4337.307617,4303.974121,4316.794922,4322.179688,4280.769043,4288.717773,4331.282227,4398.589844,4310.512695,4297.692383,4496.794922,4537.563965,4351.025879,4445.128418,0.000000,1.000000,26.000000,,,,0.000000,2.000000,2.000000,0.000000,4.000000,2.000000,2.000000,0.000000,0.000000,4.000000,4.000000,4.000000,4.000000,4.000000,4.000000,0.000000,,,,,,,,,,,,,,,,,,,,,,,,,,,,
1732156970.687515,1732156970.689182,52.000000,0.000000,4335.128418,4299.743652,4318.461426,4318.077148,4280.128418,4294.615234,4330.512695,4398.333496,4311.922852,4293.974121,4490.128418,4529.743652,4344.487305,4442.307617,0.000000,1.000000,26.000000,,,,0.000000,2.000000,2.000000,0.000000,4.000000,2.000000,2.000000,0.000000,0.000000,4.000000,4.000000,4.000000,4.000000,4.000000,4.000000,0.000000,,,,,,,,,,,,,,,,,13.000000,0.000000,0.518898,0.464722,-0.560425,0.447998,0.979612,-0.038579,-0.056648,-35.681149,45.023319,32.012806
1732156970.695323,1732156970.696991,53.000000,0.000000,4329.615234,4295.256348,4319.358887,4313.333496,4285.256348,4295.897461,4331.282227,4398.205078,4309.871582,4289.743652,4486.282227,4523.717773,4345.000000,4434.871582,0.000000,1.000000,26.000000,,,,0.000000,2.000000,2.000000,0.000000,4.000000,2.000000,2.000000,0.000000,0.000000,4.000000,4.000000,4.000000,4.000000,4.000000,4.000000,0.000000,,,,,,,,,,,,,,,,,,,,,,,,,,,,
1732156970.703131,1732156970.704599,54.000000,0.000000,4332.307617,4299.743652,4318.589844,4312.436035,4283.717773,4293.717773,4333.077148,4400.641113,4309.743652,4291.666504,4490.128418,4522.563965,4350.256348,4434.358887,0.000000,1.000000,26.000000,,,,0.000000,2.000000,2.000000,0.000000,4.000000,2.000000,2.000000,0.000000,0.000000,4.000000,4.000000,4.000000,4.000000,4.000000,4.000000,0.000000,,,,,,,,,,,,,,,,,,,,,,,,,,,,
1732156970.710940,1732156970.712407,55.000000,0.000000,4333.846191,4302.307617,4319.871582,4315.384766,4283.717773,4295.384766,4334.102539,4401.410156,4311.922852,4295.512695,4490.256348,4528.461426,4347.563965,4436.282227,0.000000,1.000000,26.000000,,,,0.000000,2.000000,2.000000,0.000000,4.000000,2.000000,2.000000,0.000000,0.000000,4.000000,4.000000,4.000000,4.000000,4.000000,4.000000,0.000000,,,,,,,,,,,,,,,,,,,,,,,,,,,,
1732156970.718748,1732156970.720115,56.000000,0.000000,4326.666504,4295.769043,4321.538574,4314.358887,4293.461426,4291.153809,4334.358887,4398.077148,4312.948730,4295.128418,4488.205078,4534.615234,4342.436035,4432.307617,0.000000,1.000000,26.000000,,,,0.000000,2.000000,2.000000,0.000000,4.000000,2.000000,2.000000,0.000000,0.000000,4.000000,4.000000,4.000000,4.000000,4.000000,4.000000,0.000000,,,,,,,,,,,,,,,,,14.000000,0.000000,0.518898,0.464722,-0.560425,0.447998,0.977658,-0.020510,-0.057624,-35.731731,45.128891,31.868706
1732156970.726556,1732156970.727924,57.000000,0.000000,4323.589844,4294.102539,4318.589844,4309.743652,4292.563965,4284.743652,4332.820313,4395.641113,4311.410156,4294.230957,4489.102539,4526.410156,4341.794922,4429.871582,0.000000,1.000000,26.000000,,,,0.000000,2.000000,2.000000,0.000000,4.000000,2.000000,2.000000,0.000000,0.000000,4.000000,4.000000,4.000000,4.000000,4.000000,4.000000,0.000000,,,,,,,,,,,,,,,,,,,,,,,,,,,,
1732156970.734364,1732156970.735532,58.000000,0.000000,4327.820313,4298.461426,4318.205078,4313.589844,4277.051270,4291.282227,4333.717773,4396.153809,4312.436035,4295.769043,4492.948730,4521.922852,4342.563965,4435.512695,0.000000,1.000000,26.000000,,,,0.000000,2.000000,2.000000,0.000000,4.000000,2.000000,2.000000,0.000000,0.000000,4.000000,4.000000,4.000000,4.000000,4.000000,4.000000,0.000000,,,,,,,,,,,,,,,,,,,,,,,,,,,,
1732156970.742173,1732156970.743340,59.000000,0.000000,4327.051270,4298.846191,4323.333496,4321.025879,4273.846191,4297.692383,4335.384766,4398.205078,4318.717773,4296.666504,4492.692383,4529.230957,4342.307617,4436.282227,0.000000,1.000000,26.000000,,,,0.000000,2.000000,2.000000,0.000000,4.000000,2.000000,2.000000,0.000000,0.000000,4.000000,4.000000,4.000000,4.000000,4.000000,4.000000,0.000000,,,,,,,,,,,,,,,,,,,,,,,,,,,,
1732156970.749981,1732156970.751049,60.000000,0.000000,4320.128418,4297.307617,4322.051270,4318.461426,4281.410156,4292.820313,4335.000000,4396.794922,4318.717773,4296.410156,4482.307617,4527.948730,4335.769043,4427.436035,0.000000,1.000000,26.000000,,,,0.000000,2.000000,2.000000,0.000000,4.000000,2.000000,2.000000,0.000000,0.000000,4.000000,4.000000,4.000000,4.000000,4.000000,4.000000,0.000000,,,,,,,,,,,,,,,,,15.000000,0.000000,0.518348,0.464600,-0.560791,0.448303,0.998657,-0.017580,-0.075693,-35.699368,45.179401,31.895319
1732156970.757789,1732156970.758857,61.000000,0.000000,4315.897461,4296.666504,4315.256348,4311.794922,4280.384766,4291.922852,4333.589844,4394.871582,4315.000000,4296.538574,4475.000000,4520.128418,4330.641113,4418.205078,0.000000,1.000000,26.000000,,,,0.000000,2.000000,2.000000,0.000000,4.000000,2.000000,2.000000,0.000000,0.000000,4.000000,4.000000,4.000000,4.000000,4.000000,4.000000,0.000000,,,,,,,,,,,,,,,,,,,,,,,,,,,,
1732156970.765597,1732156970.766465,62.000000,0.000000,4320.769043,4295.897461,4315.512695,4312.692383,4278.974121,4297.948730,4334.358887,4398.717773,4318.846191,4297.307617,4480.897461,4519.615234,4337.436035,4415.897461,0.000000,1.000000,26.000000,,,,0.000000,2.000000,2.000000,0.000000,4.000000,2.000000,2.000000,0.000000,0.000000,4.000000,4.000000,4.000000,4.000000,4.000000,4.000000,0.000000,,,,,,,,,,,,,,,,,,,,,,,,,,,,
1732156970.773405,1732156970.774273,63.000000,0.000000,4329.230957,4296.666504,4317.692383,4322.051270,4283.205078,4298.589844,4335.000000,4400.384766,4319.615234,4297.820313,4481.153809,4521.025879,4340.641113,4422.179688,0.000000,1.000000,26.000000,,,,0.000000,2.000000,2.000000,0.000000,4.000000,2.000000,2.000000,0.000000,0.000000,4.000000,4.000000,4.000000,4.000000,4.000000,4.000000,0.000000,,,,,,,,,,,,,,,,,,,,,,,,,,,,
1732156970.781214,1732156970.781982,64.000000,0.000000,4329.487305,4297.820313,4315.256348,4327.051270,4285.128418,4296.410156,4334.102539,4394.871582,4312.948730,4296.282227,4472.820313,4522.179688,4338.333496,4427.820313,0.000000,1.000000,26.000000,,,,0.000000,2.000000,2.000000,0.000000,4.000000,2.000000,2.000000,0.000000,0.000000,4.000000,4.000000,4.000000,4.000000,4.000000,4.000000,0.000000,,,,,,,,,,,,,,,,,16.000000,0.000000,0.517952,0.465027,-0.560608,0.448547,0.980588,-0.017092,-0.072763,-35.623154,45.220314,31.750208
1732156970.789022,1732156970.789790,65.000000,0.000000,4326.794922,4298.077148,4315.769043,4321.153809,4281.666504,4294.615234,4333.717773,4394.230957,4313.333496,4296.153809,4480.384766,4524.871582,4343.077148,4428.333496,1596.000000,1.000000,26.000000,,,,0.000000,2.000000,2.000000,0.000000,4.000000,2.000000,2.000000,0.000000,0.000000,4.000000,4.000000,4.000000,4.000000,4.000000,4.000000,0.000000,,,,,,,,,,,,,,,,,,,,,,,,,,,,
1732156970.796830,1732156970.797798,66.000000,0.000000,4325.128418,4296.666504,4319.102539,4318.589844,4277.692383,4291.153809,4331.666504,4399.743652,4316.666504,4296.922852,4493.589844,4525.256348,4346.794922,4427.948730,1387.000000,1.000000,26.000000,,,,0.000000,2.000000,2.000000,0.000000,4.000000,2.000000,2.000000,0.000000,0.000000,4.000000,4.000000,4.000000,4.000000,4.000000,4.000000,0.000000,,,,,,,,,,,,,,,,,,,,,,,,,,,,
1732156970.804639,1732156970.805606,67.000000,0.000000,4321.025879,4295.512695,4318.717773,4319.230957,4290.512695,4289.358887,4327.436035,4400.128418,4313.333496,4296.538574,4486.666504,4523.077148,4340.641113,4421.794922,1411.000000,1.000000,26.000000,,,,0.000000,2.000000,2.000000,0.000000,4.000000,2.000000,2.000000,0.000000,0.000000,4.000000,4.000000,4.000000,4.000000,4.000000,4.000000,0.000000,,,,,,,,,,,,,,,,,,,,,,,,,,,,
1732156970.812447,1732156970.813514,68.000000,0.000000,4318.333496,4295.769043,4316.666504,4314.230957,4298.333496,4291.282227,4329.358887,4398.077148,4312.436035,4296.538574,4476.025879,4522.307617,4338.846191,4412.307617,1412.000000,1.000000,26.000000,,,,0.000000,2.000000,2.000000,0.000000,4.000000,2.000000,2.000000,0.000000,0.000000,4.000000,4.000000,4.000000,4.000000,4.000000,4.000000,0.000000,,,,,,,,,,,,,,,,,17.000000,0.000000,0.517474,0.465881,-0.560242,0.448669,0.975217,-0.034672,-0.072274,-35.491421,45.228455,31.562670
1732156970.820255,1732156970.821322,69.000000,0.000000,4318.846191,4297.436035,4317.436035,4314.743652,4281.538574,4294.230957,4335.384766,4399.743652,4319.102539,4297.307617,4479.230957,4525.000000,4346.153809,4416.282227,1234.000000,1.000000,26.000000,,,,0.000000,2.000000,2.000000,0.000000,4.000000,2.000000,2.000000,0.000000,0.000000,4.000000,4.000000,4.000000,4.000000,4.000000,4.000000,0.000000,,,,,,,,,,,,,,,,,,,,,,,,,,,,
1732156970.828063,1732156970.829330,70.000000,0.000000,4317.179688,4297.820313,4318.589844,4320.512695,4272.948730,4295.512695,4334.615234,4400.256348,4322.948730,4298.974121,4481.282227,4527.948730,4343.589844,4426.538574,0.000000,1.000000,26.000000,,,,0.000000,2.000000,2.000000,0.000000,4.000000,2.000000,2.000000,0.000000,0.000000,4.000000,4.000000,4.000000,4.000000,4.000000,4.000000,0.000000,,,,,,,,,,,,,,,,,,,,,,,,,,,,
1732156970.835872,1732156970.837139,71.000000,0.000000,4310.000000,4294.743652,4318.205078,4316.410156,4282.692383,4298.974121,4332.436035,4398.974121,4318.461426,4297.179688,4474.102539,4519.743652,4330.769043,4416.922852,0.000000,1.000000,26.000000,,,,0.000000,2.000000,2.000000,0.000000,4.000000,2.000000,2.000000,0.000000,0.000000,4.000000,4.000000,4.000000,4.000000,4.000000,4.000000,0.000000,,,,,,,,,,,,,,,,,,,,,,,,,,,,
1732156970.843680,1732156970.845047,72.000000,0.000000,4303.077148,4292.692383,4316.922852,4309.743652,4283.077148,4304.487305,4335.128418,4398.974121,4311.410156,4289.358887,4470.384766,4505.641113,4322.436035,4400.769043,1523.000000,1.000000,26.000000,,,,0.000000,2.000000,2.000000,0.000000,4.000000,2.000000,2.000000,0.000000,0.000000,4.000000,4.000000,4.000000,4.000000,4.000000,4.000000,0.000000,,,,,,,,,,,,,,,,,18.000000,0.000000,0.517320,0.466125,-0.560181,0.448669,0.975217,-0.034672,-0.072274,-35.334717,45.185047,31.677429
1732156970.851488,1732156970.852855,73.000000,0.000000,4306.153809,4294.615234,4317.051270,4313.205078,4280.128418,4303.974121,4335.512695,4399.102539,4310.641113,4288.333496,4474.487305,4504.230957,4326.794922,4404.230957,1668.000000,1.000000,26.000000,,,,0.000000,2.000000,2.000000,0.000000,4.000000,2.000000,2.000000,0.000000,0.000000,4.000000,4.000000,4.000000,4.000000,4.000000,4.000000,0.000000,,,,,,,,,,,,,,,,,,,,,,,,,,,,
1732156970.859296,1732156970.860463,74.000000,0.000000,4313.333496,4296.282227,4318.205078,4314.358887,4286.922852,4299.743652,4333.846191,4398.461426,4314.102539,4294.743652,4476.410156,4512.563965,4334.487305,4413.589844,1529.000000,1.000000,26.000000,,,,0.000000,2.000000,2.000000,0.000000,4.000000,2.000000,2.000000,0.000000,0.000000,4.000000,4.000000,4.000000,4.000000,4.000000,4.000000,0.000000,,,,,,,,,,,,,,,,,,,,,,,,,,,,
1732156970.867104,1732156970.868272,75.000000,0.000000,4308.974121,4295.256348,4317.948730,4311.282227,4288.589844,4297.436035,4334.230957,4397.948730,4314.102539,4296.922852,4475.512695,4512.692383,4336.282227,4412.692383,1566.000000,1.000000,26.000000,,,,0.000000,2.000000,2.000000,0.000000,4.000000,2.000000,2.000000,0.000000,0.000000,4.000000,4.000000,4.000000,4.000000,4.000000,4.000000,0.000000,,,,,,,,,,,,,,,,,,,,,,,,,,,,
1732156970.874913,1732156970.876180,76.000000,0.000000,4303.333496,4294.358887,4315.769043,4309.615234,4283.205078,4295.128418,4333.589844,4397.692383,4311.922852,4295.256348,4476.410156,4511.794922,4335.384766,4410.897461,1688.000000,1.000000,26.000000,,,,0.000000,2.000000,2.000000,0.000000,4.000000,2.000000,2.000000,0.000000,0.000000,4.000000,4.000000,4.000000,4.000000,4.000000,4.000000,0.000000,,,,,,,,,,,,,,,,,19.000000,0.000000,0.516635,0.467163,-0.559753,0.448914,0.965938,-0.021487,-0.074228,-35.582790,45.326557,31.538717
1732156970.882721,1732156970.883988,77.000000,0.000000,4310.000000,4295.000000,4316.666504,4309.615234,4278.717773,4294.615234,4332.563965,4397.948730,4312.820313,4295.641113,4474.487305,4517.948730,4335.256348,4414.102539,1675.000000,1.000000,26.000000,,,,0.000000,2.000000,2.000000,0.000000,4.000000,2.000000,2.000000,0.000000,0.000000,4.000000,4.000000,4.000000,4.000000,4.000000,4.000000,0.000000,,,,,,,,,,,,,,,,,,,,,,,,,,,,
1732156970.890529,1732156970.891996,78.000000,0.000000,4310.769043,4294.743652,4318.205078,4310.512695,4287.307617,4297.179688,4334.358887,4399.615234,4313.589844,4295.256348,4471.666504,4514.871582,4334.615234,4408.461426,1529.000000,1.000000,26.000000,,,,0.000000,2.000000,2.000000,0.000000,4.000000,2.000000,2.000000,0.000000,0.000000,4.000000,4.000000,4.000000,4.000000,4.000000,4.000000,0.000000,1.000000,0.000000,2.000000,2.000000,0.000000,4.000000,2.000000,2.000000,0.000000,0.000000,4.000000,4.000000,4.000000,4.000000,4.000000,4.000000,,,,,,,,,,,,
1732156970.898337,1732156970.899804,79.000000,0.000000,4302.948730,4294.487305,4315.897461,4310.512695,4302.179688,4295.769043,4334.615234,4398.461426,4313.077148,4292.692383,4474.615234,4503.077148,4332.820313,4396.922852,1566.000000,1.000000,26.000000,,,,0.000000,2.000000,2.000000,0.000000,4.000000,2.000000,2.000000,0.000000,0.000000,4.000000,4.000000,4.000000,4.000000,4.000000,4.000000,0.000000,,,,,,,,,,,,,,,,,,,,,,,,,,,,
1732156970.906146,1732156970.907712,80.000000,0.000000,4304.102539,4295.128418,4315.769043,4311.282227,4290.256348,4293.461426,4333.333496,4397.179688,4313.846191,4293.846191,4477.051270,4502.820313,4333.974121,4399.230957,1688.000000,1.000000,26.000000,,,,0.000000,2.000000,2.000000,0.000000,4.000000,2.000000,2.000000,0.000000,0.000000,4.000000,4.000000,4.000000,4.000000,4.000000,4.000000,0.000000,,,,,,,,,,,,,,,,,20.000000,0.000000,0.516209,0.467896,-0.559387,0.449097,0.971798,-0.023929,-0.060066,-35.463726,45.179512,31.521360
1732156970.913954,1732156970.915520,81.000000,0.000000,4304.615234,4294.871582,4316.666504,4312.692383,4270.641113,4295.769043,4334.230957,4399.743652,4313.077148,4293.846191,4472.820313,4510.512695,4335.256348,4406.282227,1675.000000,1.000000,26.000000,,,,0.000000,2.000000,2.000000,0.000000,4.000000,2.000000,2.000000,0.000000,0.000000,4.000000,4.000000,4.000000,4.000000,4.000000,4.000000,0.000000,,,,,,,,,,,,,,,,,,,,,,,,,,,,
1732156970.921762,1732156970.923528,82.000000,0.000000,4299.871582,4295.000000,4315.641113,4311.666504,4282.436035,4297.692383,4335.128418,4400.512695,4312.692383,4292.820313,4471.025879,4509.487305,4333.717773,4403.333496,1529.000000,1.000000,26.000000,,,,0.000000,2.000000,2.000000,0.000000,4.000000,2.000000,2.000000,0.000000,0.000000,4.000000,4.000000,4.000000,4.000000,4.000000,4.000000,0.000000,,,,,,,,,,,,,,,,,,,,,,,,,,,,
1732156970.929570,1732156970.931337,83.000000,0.000000,4302.692383,4296.410156,4315.897461,4310.769043,4291.153809,4296.153809,4333.717773,4397.820313,4316.153809,4295.641113,4475.000000,4506.153809,4335.384766,4398.974121,1566.000000,1.000000,26.000000,,,,0.000000,2.000000,2.000000,0.000000,4.000000,2.000000,2.000000,0.000000,0.000000,4.000000,4.000000,4.000000,4.000000,4.000000,4.000000,0.000000,,,,,,,,,,,,,,,,,,,,,,,,,,,,
1732156970.937379,1732156970.939245,84.000000,0.000000,4303.846191,4298.077148,4317.436035,4311.922852,4281.410156,4295.256348,4333.846191,4398.333496,4317.051270,4297.051270,4469.358887,4506.794922,4336.538574,4399.487305,1688.000000,1.000000,26.000000,,,,0.000000,2.000000,2.000000,0.000000,4.000000,2.000000,2.000000,0.000000,0.000000,4.000000,4.000000,4.000000,4.000000,4.000000,4.000000,0.000000,,,,,,,,,,,,,,,,,21.000000,0.000000,0.516035,0.468262,-0.559143,0.449219,0.983030,-0.023440,-0.072274,-35.397285,45.300404,31.357302
1732156970.945187,1732156970.947053,85.000000,0.000000,4298.205078,4297.563965,4317.307617,4311.666504,4293.589844,4295.512695,4335.512695,4400.128418,4312.563965,4293.205078,4462.179688,4506.922852,4333.846191,4397.307617,1675.000000,1.000000,26.000000,,,,0.000000,2.000000,2.000000,0.000000,4.000000,2.000000,2.000000,0.000000,0.000000,4.000000,4.000000,4.000000,4.000000,4.000000,4.000000,0.000000,,,,,,,,,,,,,,,,,,,,,,,,,,,,
1732156970.952995,1732156970.955061,86.000000,0.000000,4299.871582,4296.153809,4317.307617,4310.384766,4304.230957,4295.769043,4336.666504,4398.846191,4310.128418,4292.692383,4470.769043,4506.538574,4335.384766,4402.820313,1529.000000,1.000000,26.000000,,,,0.000000,2.000000,2.000000,0.000000,4.000000,2.000000,2.000000,0.000000,0.000000,4.000000,4.000000,4.000000,4.000000,4.000000,4.000000,0.000000,,,,,,,,,,,,,,,,,,,,,,,,,,,,
1732156970.960803,1732156970.962869,87.000000,0.000000,4305.128418,4299.871582,4318.717773,4314.358887,4286.666504,4297.692383,4336.153809,4398.846191,4312.307617,4295.641113,4481.538574,4508.461426,4339.102539,4413.589844,1566.000000,1.000000,26.000000,,,,0.000000,2.000000,2.000000,0.000000,4.000000,2.000000,2.000000,0.000000,0.000000,4.000000,4.000000,4.000000,4.000000,4.000000,4.000000,0.000000,,,,,,,,,,,,,,,,,,,,,,,,,,,,
1732156970.968612,1732156970.970777,88.000000,0.000000,4304.230957,4303.846191,4317.307617,4318.846191,4274.358887,4298.461426,4336.282227,4399.358887,4312.820313,4293.589844,4475.897461,4508.846191,4336.282227,4408.974121,1688.000000,1.000000,26.000000,,,,0.000000,2.000000,2.000000,0.000000,4.000000,2.000000,2.000000,0.000000,0.000000,4.000000,4.000000,4.000000,4.000000,4.000000,4.000000,0.000000,,,,,,,,,,,,,,,,,22.000000,0.000000,0.516020,0.468323,-0.559204,0.449097,0.979612,-0.022464,-0.068368,-35.290134,45.464993,31.479414
1732156970.976420,1732156970.978586,89.000000,0.000000,4304.615234,4301.410156,4317.948730,4316.153809,4279.487305,4295.256348,4336.922852,4397.307617,4308.717773,4291.794922,4472.179688,4507.692383,4332.692383,4401.282227,1675.000000,1.000000,26.000000,,,,0.000000,2.000000,2.000000,0.000000,4.000000,2.000000,2.000000,0.000000,0.000000,4.000000,4.000000,4.000000,4.000000,4.000000,4.000000,0.000000,,,,,,,,,,,,,,,,,,,,,,,,,,,,
1732156970.984228,1732156970.986594,90.000000,0.000000,4302.948730,4295.128418,4320.384766,4311.922852,4288.205078,4297.051270,4335.128418,4397.563965,4310.384766,4295.512695,4478.077148,4509.487305,4335.897461,4404.615234,1529.000000,1.000000,26.000000,,,,0.000000,2.000000,2.000000,0.000000,4.000000,2.000000,2.000000,0.000000,0.000000,4.000000,4.000000,4.000000,4.000000,4.000000,4.000000,0.000000,,,,,,,,,,,,,,,,,,,,,,,,,,,,
1732156970.992036,1732156970.994402,91.000000,0.000000,4298.333496,4293.333496,4319.615234,4312.179688,4296.538574,4303.333496,4336.794922,4400.256348,4317.948730,4297.179688,4470.384766,4511.666504,4336.025879,4402.307617,1566.000000,1.000000,26.000000,,,,0.000000,2.000000,2.000000,0.000000,4.000000,2.000000,2.000000,0.000000,0.000000,4.000000,4.000000,4.000000,4.000000,4.000000,4.000000,0.000000,,,,,,,,,,,,,,,,,,,,,,,,,,,,
1732156970.999845,1732156971.002110,92.000000,0.000000,4299.102539,4299.358887,4317.820313,4312.307617,4293.077148,4300.769043,4338.333496,4398.974121,4317.948730,4296.153809,4461.794922,4508.205078,4335.256348,4393.333496,1688.000000,1.000000,26.000000,,,,0.000000,2.000000,2.000000,0.000000,4.000000,2.000000,2.000000,0.000000,0.000000,4.000000,4.000000,4.000000,4.000000,4.000000,4.000000,0.000000,,,,,,,,,,,,,,,,,23.000000,0.000000,0.515875,0.468323,-0.559387,0.449036,0.978635,-0.017092,-0.056648,-35.415009,45.428310,31.456659
1732156971.007653,1732156971.009918,93.000000,0.000000,4302.307617,4302.692383,4318.461426,4310.769043,4293.461426,4292.051270,4330.128418,4396.153809,4308.461426,4294.230957,4469.230957,4502.563965,4340.384766,4395.384766,1675.000000,1.000000,26.000000,,,,0.000000,2.000000,2.000000,0.000000,4.000000,2.000000,2.000000,0.000000,0.000000,4.000000,4.000000,4.000000,4.000000,4.000000,4.000000,0.000000,,,,,,,,,,,,,,,,,,,,,,,,,,,,
1732156971.015461,1732156971.017527,94.000000,0.000000,4303.846191,4297.436035,4319.230957,4311.410156,4306.538574,4293.077148,4327.563965,4398.461426,4309.871582,4296.282227,4475.256348,4504.230957,4338.333496,4398.717773,1529.000000,1.000000,26.000000,,,,0.000000,2.000000,2.000000,0.000000,4.000000,2.000000,2.000000,0.000000,0.000000,4.000000,4.000000,4.000000,4.000000,4.000000,4.000000,0.000000,,,,,,,,,,,,,,,,,,,,,,,,,,,,
1732156971.023269,1732156971.025335,95.000000,0.000000,4302.692383,4293.333496,4318.846191,4312.820313,4297.436035,4298.333496,4337.051270,4400.384766,4318.589844,4302.948730,4471.922852,4506.153809,4333.717773,4396.025879,1566.000000,1.000000,26.000000,,,,0.000000,2.000000,2.000000,0.000000,4.000000,2.000000,2.000000,0.000000,0.000000,4.000000,4.000000,4.000000,4.000000,4.000000,4.000000,0.000000,,,,,,,,,,,,,,,,,,,,,,,,,,,,
1732156971.031078,1732156971.033043,96.000000,0.000000,4298.717773,4297.820313,4318.974121,4312.563965,4276.922852,4296.922852,4335.512695,4397.179688,4316.794922,4302.179688,4468.717773,4497.051270,4333.461426,4396.025879,1688.000000,1.000000,26.000000,,,,0.000000,2.000000,2.000000,0.000000,4.000000,2.000000,2.000000,0.000000,0.000000,4.000000,4.000000,4.000000,4.000000,4.000000,4.000000,0.000000,,,,,,,,,,,,,,,,,24.000000,0.000000,0.515875,0.468323,-0.559387,0.449036,0.980100,-0.030765,-0.059578,-35.471157,45.368599,31.648228
1732156971.038886,1732156971.040851,97.000000,0.000000,4297.179688,4297.692383,4319.743652,4311.538574,4281.153809,4294.102539,4325.128418,4394.358887,4308.974121,4295.256348,4463.461426,4493.717773,4331.538574,4398.077148,1675.000000,1.000000,26.000000,,,,0.000000,2.000000,2.000000,0.000000,4.000000,2.000000,2.000000,0.000000,0.000000,4.000000,4.000000,4.000000,4.000000,4.000000,4.000000,0.000000,,,,,,,,,,,,,,,,,,,,,,,,,,,,
1732156971.046694,1732156971.048460,98.000000,0.000000,4299.358887,4293.077148,4317.051270,4311.282227,4291.153809,4296.025879,4329.743652,4396.794922,4306.025879,4292.948730,4457.051270,4500.384766,4331.794922,4399.230957,1529.000000,1.000000,26.000000,,,,0.000000,2.000000,2.000000,0.000000,4.000000,2.000000,2.000000,0.000000,0.000000,4.000000,4.000000,4.000000,4.000000,4.000000,4.000000,0.000000,,,,,,,,,,,,,,,,,,,,,,,,,,,,
1732156971.054502,1732156971.056268,99.000000,0.000000,4297.948730,4294.102539,4314.358887,4311.153809,4293.846191,4297.948730,4335.641113,4399.743652,4306.025879,4292.692383,4465.769043,4496.153809,4331.666504,4399.358887,1566.000000,1.000000,26.000000,,,,0.000000,2.000000,2.000000,0.000000,4.000000,2.000000,2.000000,0.000000,0.000000,4.000000,4.000000,4.000000,4.000000,4.000000,4.000000,0.000000,,,,,,,,,,,,,,,,,,,,,,,,,,,,
1732156971.062311,1732156971.063976,100.000000,0.000000,4293.717773,4296.025879,4315.641113,4311.282227,4294.615234,4296.410156,4331.282227,4397.948730,4303.717773,4292.307617,4472.820313,4487.692383,4328.205078,4399.230957,1688.000000,1.000000,26.000000,,,,0.000000,2.000000,2.000000,0.000000,4.000000,2.000000,2.000000,0.000000,0.000000,4.000000,4.000000,4.000000,4.000000,4.000000,4.000000,0.000000,,,,,,,,,,,,,,,,,25.000000,0.000000,0.515676,0.468323,-0.559570,0.449036,0.958613,-0.019534,-0.063973,-35.729969,45.393566,31.683397
1732156971.070119,1732156971.071785,101.000000,0.000000,4295.256348,4296.410156,4316.922852,4309.487305,4293.717773,4295.641113,4331.794922,4397.436035,4301.282227,4292.948730,4464.615234,4493.589844,4329.230957,4399.358887,1675.000000,1.000000,26.000000,,,,0.000000,2.000000,2.000000,0.000000,4.000000,2.000000,2.000000,0.000000,0.000000,4.000000,4.000000,4.000000,4.000000,4.000000,4.000000,0.000000,,,,,,,,,,,,,,,,,,,,,,,,,,,,
1732156971.077927,1732156971.079393,102.000000,0.000000,4298.205078,4294.615234,4315.384766,4304.487305,4305.384766,4295.000000,4336.794922,4399.487305,4305.000000,4293.846191,4463.333496,4495.769043,4334.230957,4397.820313,1529.000000,1.000000,26.000000,,,,0.000000,2.000000,2.000000,0.000000,4.000000,2.000000,2.000000,0.000000,0.000000,4.000000,4.000000,4.000000,4.000000,4.000000,4.000000,0.000000,,,,,,,,,,,,,,,,,,,,,,,,,,,,
1732156971.085735,1732156971.087201,103.000000,0.000000,4297.948730,4292.948730,4317.051270,4303.461426,4312.307617,4293.589844,4336.025879,4398.077148,4312.563965,4295.256348,4471.282227,4491.538574,4330.769043,4396.282227,1566.000000,1.000000,26.000000,,,,0.000000,2.000000,2.000000,0.000000,4.000000,2.000000,2.000000,0.000000,0.000000,4.000000,4.000000,4.000000,4.000000,4.000000,4.000000,0.000000,,,,,,,,,,,,,,,,,,,,,,,,,,,,
1732156971.093543,1732156971.094909,104.000000,0.000000,4295.256348,4292.563965,4318.974121,4308.461426,4290.641113,4295.128418,4333.333496,4396.025879,4314.487305,4297.563965,4472.692383,4501.153809,4330.128418,4399.871582,1688.000000,1.000000,26.000000,,,,0.000000,2.000000,2.000000,0.000000,4.000000,2.000000,2.000000,0.000000,0.000000,4.000000,4.000000,4.000000,4.000000,4.000000,4.000000,0.000000,,,,,,,,,,,,,,,,,26.000000,0.000000,0.515247,0.468079,-0.559875,0.449402,0.961543,-0.029300,-0.071786,-35.662941,45.212120,31.721886
1732156971.101352,1732156971.102718,105.000000,0.000000,4297.563965,4291.666504,4317.179688,4310.384766,4273.333496,4296.794922,4333.589844,4398.205078,4313.333496,4297.692383,4472.692383,4509.615234,4339.358887,4401.794922,1675.000000,1.000000,26.000000,,,,0.000000,2.000000,2.000000,0.000000,4.000000,2.000000,2.000000,0.000000,0.000000,4.000000,4.000000,4.000000,4.000000,4.000000,4.000000,0.000000,,,,,,,,,,,,,,,,,,,,,,,,,,,,
1732156971.109160,1732156971.110326,106.000000,0.000000,4307.948730,4294.230957,4315.512695,4308.974121,4292.436035,4294.358887,4334.358887,4400.512695,4315.256348,4297.820313,4477.307617,4504.358887,4342.436035,4397.179688,1529.000000,1.000000,26.000000,,,,0.000000,2.000000,2.000000,0.000000,4.000000,2.000000,2.000000,0.000000,0.000000,4.000000,4.000000,4.000000,4.000000,4.000000,4.000000,0.000000,,,,,,,,,,,,,,,,,,,,,,,,,,,,
1732156971.116968,1732156971.118134,107.000000,0.000000,4309.487305,4296.153809,4316.025879,4310.256348,4311.666504,4292.820313,4334.615234,4399.358887,4315.384766,4297.820313,4477.179688,4501.282227,4336.922852,4398.974121,1566.000000,1.000000,26.000000,,,,0.000000,2.000000,2.000000,0.000000,4.000000,2.000000,2.000000,0.000000,0.000000,4.000000,4.000000,4.000000,4.000000,4.000000,4.000000,0.000000,,,,,,,,,,,,,,,,,,,,,,,,,,,,
1732156971.124776,1732156971.126042,108.000000,0.000000,4298.205078,4289.230957,4317.436035,4309.102539,4295.512695,4296.410156,4335.128418,4399.102539,4312.563965,4296.410156,4474.230957,4506.282227,4331.794922,4405.641113,1688.000000,1.000000,26.000000,,,,0.000000,2.000000,2.000000,0.000000,4.000000,2.000000,2.000000,0.000000,0.000000,4.000000,4.000000,4.000000,4.000000,4.000000,4.000000,0.000000,,,,,,,,,,,,,,,,,27.000000,0.000000,0.514875,0.467712,-0.560181,0.449829,0.977658,-0.032230,-0.063973,-35.725315,45.006817,31.966394
1732156971.132585,1732156971.133851,109.000000,0.000000,4293.589844,4284.743652,4316.922852,4306.538574,4277.948730,4298.717773,4335.384766,4399.230957,4309.871582,4295.256348,4476.538574,4507.179688,4336.794922,4402.692383,1675.000000,1.000000,26.000000,,,,0.000000,2.000000,2.000000,0.000000,4.000000,2.000000,2.000000,0.000000,0.000000,4.000000,4.000000,4.000000,4.000000,4.000000,4.000000,0.000000,,,,,,,,,,,,,,,,,,,,,,,,,,,,
1732156971.140393,1732156971.141859,110.000000,0.000000,4301.282227,4292.307617,4315.641113,4310.000000,4285.641113,4297.820313,4335.897461,4398.461426,4308.589844,4294.487305,4476.025879,4503.717773,4345.000000,4402.436035,1529.000000,1.000000,26.000000,,,,0.000000,2.000000,2.000000,0.000000,4.000000,2.000000,2.000000,0.000000,0.000000,4.000000,4.000000,4.000000,4.000000,4.000000,4.000000,0.000000,,,,,,,,,,,,,,,,,,,,,,,,,,,,
1732156971.148201,1732156971.149667,111.000000,0.000000,4305.641113,4296.025879,4315.384766,4310.384766,4301.282227,4297.436035,4335.641113,4398.205078,4311.794922,4295.897461,4472.563965,4505.256348,4342.051270,4408.589844,1566.000000,1.000000,26.000000,,,,0.000000,2.000000,2.000000,0.000000,4.000000,2.000000,2.000000,0.000000,0.000000,4.000000,4.000000,4.000000,4.000000,4.000000,4.000000,0.000000,,,,,,,,,,,,,,,,,,,,,,,,,,,,
1732156971.156010,1732156971.157375,112.000000,0.000000,4302.436035,4291.410156,4316.794922,4303.974121,4298.333496,4297.307617,4335.641113,4397.948730,4320.384766,4298.589844,4475.128418,4506.794922,4339.358887,4408.077148,1688.000000,1.000000,26.000000,,,,0.000000,2.000000,2.000000,0.000000,4.000000,2.000000,2.000000,0.000000,0.000000,4.000000,4.000000,4.000000,4.000000,4.000000,4.000000,0.000000,,,,,,,,,,,,,,,,,28.000000,0.000000,0.514736,0.467529,-0.560364,0.449951,0.977658,-0.032230,-0.063973,-35.682507,45.100521,31.941113
1732156971.163818,1732156971.165183,113.000000,0.000000,4302.563965,4292.307617,4316.538574,4304.743652,4290.641113,4296.794922,4336.666504,4397.692383,4322.692383,4297.820313,4479.102539,4502.436035,4342.307617,4405.128418,1675.000000,1.000000,26.000000,,,,0.000000,2.000000,2.000000,0.000000,4.000000,2.000000,2.000000,0.000000,0.000000,4.000000,4.000000,4.000000,4.000000,4.000000,4.000000,0.000000,,,,,,,,,,,,,,,,,,,,,,,,,,,,
1732156971.171626,1732156971.172792,114.000000,0.000000,4305.000000,4296.025879,4316.666504,4311.153809,4307.051270,4294.871582,4335.128418,4398.205078,4314.487305,4295.000000,4475.769043,4497.820313,4341.025879,4407.692383,1529.000000,1.000000,26.000000,,,,0.000000,2.000000,2.000000,0.000000,4.000000,2.000000,2.000000,0.000000,0.000000,4.000000,4.000000,4.000000,4.000000,4.000000,4.000000,0.000000,,,,,,,,,,,,,,,,,,,,,,,,,,,,
1732156971.179434,1732156971.180600,115.000000,0.000000,4301.666504,4295.641113,4317.563965,4311.410156,4319.615234,4295.256348,4332.307617,4397.948730,4307.820313,4293.333496,4471.666504,4494.230957,4335.256348,4403.846191,1566.000000,1.000000,26.000000,,,,0.000000,2.000000,2.000000,0.000000,4.000000,2.000000,2.000000,0.000000,0.000000,4.000000,4.000000,4.000000,4.000000,4.000000,4.000000,0.000000,,,,,,,,,,,,,,,,,,,,,,,,,,,,
1732156971.187242,1732156971.188308,116.000000,0.000000,4299.487305,4294.358887,4316.025879,4306.538574,4300.897461,4297.179688,4332.948730,4396.153809,4310.769043,4294.358887,4472.436035,4492.948730,4334.615234,4397.563965,1688.000000,1.000000,26.000000,,,,0.000000,2.000000,2.000000,0.000000,4.000000,2.000000,2.000000,0.000000,0.000000,4.000000,4.000000,4.000000,4.000000,4.000000,4.000000,0.000000,,,,,,,,,,,,,,,,,29.000000,0.000000,0.514798,0.467285,-0.560608,0.449829,0.991820,-0.040532,-0.057136,-35.786163,44.986423,32.038967
1732156971.195051,1732156971.196116,117.000000,0.000000,4302.307617,4292.948730,4315.641113,4304.615234,4284.358887,4295.256348,4334.743652,4396.282227,4317.563965,4296.922852,4472.948730,4501.153809,4337.051270,4403.205078,1675.000000,1.000000,26.000000,,,,0.000000,2.000000,2.000000,0.000000,4.000000,2.000000,2.000000,0.000000,0.000000,4.000000,4.000000,4.000000,4.000000,4.000000,4.000000,0.000000,,,,,,,,,,,,,,,,,,,,,,,,,,,,
1732156971.202859,1732156971.204124,118.000000,0.000000,4301.025879,4292.563965,4316.794922,4310.000000,4292.820313,4298.205078,4335.256348,4398.333496,4318.717773,4298.717773,4475.256348,4510.769043,4337.179688,4406.922852,1529.000000,1.000000,26.000000,,,,0.000000,2.000000,2.000000,0.000000,4.000000,2.000000,2.000000,0.000000,0.000000,4.000000,4.000000,4.000000,4.000000,4.000000,4.000000,0.000000,,,,,,,,,,,,,,,,,,,,,,,,,,,,
1732156971.210667,1732156971.211933,119.000000,0.000000,4295.641113,4292.692383,4317.179688,4311.538574,4300.000000,4304.230957,4335.641113,4397.692383,4314.615234,4298.205078,4480.256348,4508.077148,4335.000000,4401.282227,1566.000000,1.000000,26.000000,,,,0.000000,2.000000,2.000000,0.000000,4.000000,2.000000,2.000000,0.000000,0.000000,4.000000,4.000000,4.000000,4.000000,4.000000,4.000000,0.000000,,,,,,,,,,,,,,,,,,,,,,,,,,,,
1732156971.218475,1732156971.219841,120.000000,0.000000,4294.230957,4290.897461,4315.128418,4303.461426,4305.256348,4301.282227,4335.256348,4397.563965,4310.128418,4294.743652,4479.358887,4502.179688,4333.717773,4400.384766,1688.000000,1.000000,26.000000,,,,0.000000,2.000000,2.000000,0.000000,4.000000,2.000000,2.000000,0.000000,0.000000,4.000000,4.000000,4.000000,4.000000,4.000000,4.000000,0.000000,,,,,,,,,,,,,,,,,30.000000,0.000000,0.515131,0.466125,-0.561707,0.449280,0.972287,-0.020510,-0.063484,-35.945126,44.894001,32.031563
1732156971.226284,1732156971.227649,121.000000,0.000000,4296.282227,4292.307617,4316.153809,4300.897461,4308.077148,4295.641113,4336.025879,4399.871582,4314.871582,4293.846191,4476.794922,4506.153809,4336.025879,4407.820313,1675.000000,1.000000,26.000000,,,,0.000000,2.000000,2.000000,0.000000,4.000000,2.000000,2.000000,0.000000,0.000000,4.000000,4.000000,4.000000,4.000000,4.000000,4.000000,0.000000,,,,,,,,,,,,,,,,,,,,,,,,,,,,
1732156971.234092,1732156971.235657,122.000000,0.000000,4297.563965,4295.000000,4317.436035,4307.051270,4288.461426,4296.282227,4336.538574,4398.589844,4325.512695,4296.794922,4478.205078,4508.205078,4335.769043,4411.025879,1529.000000,1.000000,26.000000,,,,0.000000,2.000000,2.000000,0.000000,4.000000,2.000000,2.000000,0.000000,0.000000,4.000000,4.000000,4.000000,4.000000,4.000000,4.000000,0.000000,,,,,,,,,,,,,,,,,,,,,,,,,,,,
1732156971.241900,1732156971.243465,123.000000,0.000000,4297.948730,4291.282227,4315.769043,4307.051270,4272.307617,4295.384766,4333.589844,4396.922852,4322.948730,4297.307617,4477.307617,4505.128418,4333.974121,4406.282227,1566.000000,1.000000,26.000000,,,,0.000000,2.000000,2.000000,0.000000,4.000000,2.000000,2.000000,0.000000,0.000000,4.000000,4.000000,4.000000,4.000000,4.000000,4.000000,0.000000,,,,,,,,,,,,,,,,,,,,,,,,,,,,
1732156971.249708,1732156971.251373,124.000000,0.000000,4296.410156,4287.179688,4315.384766,4304.358887,4290.769043,4292.692383,4332.563965,4398.333496,4311.282227,4294.102539,4474.358887,4501.025879,4335.897461,4399.871582,1688.000000,1.000000,26.000000,,,,0.000000,2.000000,2.000000,0.000000,4.000000,2.000000,2.000000,0.000000,0.000000,4.000000,4.000000,4.000000,4.000000,4.000000,4.000000,0.000000,,,,,,,,,,,,,,,,,31.000000,0.000000,0.515229,0.466003,-0.561768,0.449219,0.972287,-0.020510,-0.063484,-35.940552,44.919144,31.958900
1732156971.257517,1732156971.259182,125.000000,0.000000,4295.641113,4290.512695,4316.666504,4306.410156,4308.717773,4294.230957,4333.589844,4398.589844,4308.461426,4290.512695,4473.589844,4497.051270,4335.128418,4394.871582,1675.000000,1.000000,26.000000,,,,0.000000,2.000000,2.000000,0.000000,4.000000,2.000000,2.000000,0.000000,0.000000,4.000000,4.000000,4.000000,4.000000,4.000000,4.000000,0.000000,,,,,,,,,,,,,,,,,,,,,,,,,,,,
1732156971.265325,1732156971.266790,126.000000,0.000000,4295.384766,4295.000000,4316.666504,4309.102539,4293.461426,4295.000000,4333.589844,4398.077148,4313.589844,4290.641113,4475.000000,4496.794922,4333.589844,4395.128418,1529.000000,1.000000,26.000000,,,,0.000000,2.000000,2.000000,0.000000,4.000000,2.000000,2.000000,0.000000,0.000000,4.000000,4.000000,4.000000,4.000000,4.000000,4.000000,0.000000,,,,,,,,,,,,,,,,,,,,,,,,,,,,
1732156971.273133,1732156971.274598,127.000000,0.000000,4294.102539,4290.641113,4316.538574,4308.974121,4275.384766,4296.410156,4333.333496,4397.692383,4313.333496,4294.358887,4476.025879,4499.615234,4335.000000,4397.820313,26.000000,1.000000,26.000000,,,,0.000000,2.000000,2.000000,0.000000,4.000000,2.000000,2.000000,0.000000,0.000000,4.000000,4.000000,4.000000,4.000000,4.000000,4.000000,0.000000,,,,,,,,,,,,,,,,,,,,,,,,,,,,
1732156971.280941,1732156971.282306,0.000000,0.000000,4293.974121,4286.666504,4317.307617,4307.179688,4283.205078,4298.589844,4333.461426,4396.666504,4310.128418,4296.410156,4475.128418,4503.205078,4335.641113,4398.333496,0.000000,1.000000,26.000000,,,,0.000000,2.000000,2.000000,0.000000,4.000000,2.000000,2.000000,0.000000,0.000000,4.000000,4.000000,4.000000,4.000000,4.000000,4.000000,0.000000,,,,,,,,,,,,,,,,,0.000000,0.000000,0.515257,0.465942,-0.561890,0.449097,0.982542,-0.018069,-0.060554,-35.983513,44.744507,31.745043
1732156971.288750,1732156971.290115,1.000000,0.000000,4295.641113,4290.897461,4316.410156,4307.692383,4296.794922,4296.794922,4334.487305,4397.051270,4313.077148,4294.230957,4477.051270,4506.538574,4338.846191,4398.589844,1596.000000,1.000000,26.000000,,,,0.000000,2.000000,2.000000,0.000000,4.000000,2.000000,2.000000,0.000000,0.000000,4.000000,4.000000,4.000000,4.000000,4.000000,4.000000,0.000000,,,,,,,,,,,,,,,,,,,,,,,,,,,,
1732156971.296558,1732156971.298123,2.000000,0.000000,4297.436035,4295.512695,4315.641113,4312.436035,4296.538574,4295.512695,4336.153809,4397.948730,4317.051270,4293.333496,4478.205078,4511.410156,4341.282227,4400.641113,1392.000000,1.000000,26.000000,,,,0.000000,2.000000,2.000000,0.000000,4.000000,2.000000,2.000000,0.000000,0.000000,4.000000,4.000000,4.000000,4.000000,4.000000,4.000000,0.000000,,,,,,,,,,,,,,,,,,,,,,,,,,,,
1732156971.304366,1732156971.305931,3.000000,0.000000,4296.153809,4292.692383,4316.282227,4311.666504,4294.358887,4294.358887,4335.641113,4397.948730,4314.358887,4294.358887,4476.410156,4511.666504,4336.282227,4401.282227,1412.000000,1.000000,26.000000,,,,0.000000,2.000000,2.000000,0.000000,4.000000,2.000000,2.000000,0.000000,0.000000,4.000000,4.000000,4.000000,4.000000,4.000000,4.000000,0.000000,,,,,,,,,,,,,,,,,,,,,,,,,,,,
1732156971.312174,1732156971.313839,4.000000,0.000000,4295.512695,4287.307617,4315.641113,4306.282227,4291.794922,4295.000000,4334.487305,4400.256348,4310.384766,4294.615234,4476.666504,4506.922852,4333.461426,4401.025879,1407.000000,1.000000,26.000000,,,,0.000000,2.000000,2.000000,0.000000,4.000000,2.000000,2.000000,0.000000,0.000000,4.000000,4.000000,4.000000,4.000000,4.000000,4.000000,0.000000,,,,,,,,,,,,,,,,,1.000000,0.000000,0.515135,0.466003,-0.561951,0.449097,0.981565,-0.030765,-0.075693,-35.771645,44.731384,31.768484
1732156971.319983,1732156971.321647,5.000000,0.000000,4297.179688,4288.846191,4315.384766,4307.179688,4300.128418,4296.794922,4334.487305,4401.666504,4312.436035,4294.358887,4477.179688,4506.666504,4336.025879,4401.666504,1234.000000,1.000000,26.000000,,,,0.000000,2.000000,2.000000,0.000000,4.000000,2.000000,2.000000,0.000000,0.000000,4.000000,4.000000,4.000000,4.000000,4.000000,4.000000,0.000000,,,,,,,,,,,,,,,,,,,,,,,,,,,,
1732156971.327791,1732156971.329655,6.000000,0.000000,4297.563965,4292.179688,4316.025879,4310.256348,4312.692383,4289.230957,4333.333496,4398.205078,4312.948730,4294.230957,4475.897461,4506.538574,4334.102539,4404.102539,0.000000,1.000000,26.000000,,,,0.000000,2.000000,2.000000,0.000000,4.000000,2.000000,2.000000,0.000000,0.000000,4.000000,4.000000,4.000000,4.000000,4.000000,4.000000,0.000000,,,,,,,,,,,,,,,,,,,,,,,,,,,,
1732156971.335599,1732156971.337463,7.000000,0.000000,4301.153809,4294.487305,4316.153809,4311.666504,4295.769043,4278.717773,4332.436035,4397.436035,4309.743652,4291.794922,4474.358887,4505.000000,4334.358887,4409.871582,0.000000,1.000000,26.000000,,,,0.000000,2.000000,2.000000,0.000000,4.000000,2.000000,2.000000,0.000000,0.000000,4.000000,4.000000,4.000000,4.000000,4.000000,4.000000,0.000000,,,,,,,,,,,,,,,,,,,,,,,,,,,,
1732156971.343407,1732156971.345372,8.000000,0.000000,4304.230957,4292.179688,4315.512695,4307.307617,4273.589844,4282.820313,4333.461426,4399.487305,4309.615234,4286.153809,4471.025879,4512.307617,4335.000000,4413.974121,1523.000000,1.000000,26.000000,,,,0.000000,2.000000,2.000000,0.000000,4.000000,2.000000,2.000000,0.000000,0.000000,4.000000,4.000000,4.000000,4.000000,4.000000,4.000000,0.000000,,,,,,,,,,,,,,,,,2.000000,0.000000,0.515210,0.465759,-0.562134,0.449036,0.981565,-0.026859,-0.065926,-35.568367,44.917419,31.907473
1732156971.351215,1732156971.353180,9.000000,0.000000,4300.000000,4289.615234,4312.948730,4299.102539,4275.256348,4294.230957,4333.846191,4398.205078,4311.025879,4287.307617,4477.436035,4518.205078,4334.230957,4416.410156,1668.000000,1.000000,26.000000,,,,0.000000,2.000000,2.000000,0.000000,4.000000,2.000000,2.000000,0.000000,0.000000,4.000000,4.000000,4.000000,4.000000,4.000000,4.000000,0.000000,,,,,,,,,,,,,,,,,,,,,,,,,,,,
1732156971.359024,1732156971.361188,10.000000,0.000000,4297.436035,4289.615234,4313.589844,4296.410156,4290.512695,4296.410156,4333.846191,4395.256348,4310.769043,4294.487305,4488.974121,4509.102539,4339.102539,4418.589844,1523.000000,1.000000,26.000000,,,,0.000000,2.000000,2.000000,0.000000,4.000000,2.000000,2.000000,0.000000,0.000000,4.000000,4.000000,4.000000,4.000000,4.000000,4.000000,0.000000,,,,,,,,,,,,,,,,,,,,,,,,,,,,
1732156971.366832,1732156971.368996,11.000000,0.000000,4298.846191,4284.743652,4318.461426,4298.333496,4302.948730,4293.205078,4334.102539,4395.769043,4310.000000,4293.717773,4483.846191,4502.692383,4342.179688,4416.922852,1568.000000,1.000000,26.000000,,,,0.000000,2.000000,2.000000,0.000000,4.000000,2.000000,2.000000,0.000000,0.000000,4.000000,4.000000,4.000000,4.000000,4.000000,4.000000,0.000000,,,,,,,,,,,,,,,,,,,,,,,,,,,,
1732156971.374640,1732156971.376904,12.000000,0.000000,4298.205078,4280.256348,4320.384766,4298.461426,4296.025879,4292.948730,4333.077148,4397.179688,4311.025879,4292.179688,4474.358887,4508.974121,4338.974121,4414.615234,1688.000000,1.000000,26.000000,,,,0.000000,2.000000,2.000000,0.000000,4.000000,2.000000,2.000000,0.000000,0.000000,4.000000,4.000000,4.000000,4.000000,4.000000,4.000000,0.000000,,,,,,,,,,,,,,,,,3.000000,0.000000,0.515210,0.465759,-0.562134,0.449036,0.984495,-0.049322,-0.061043,-35.492043,44.774776,31.798386
1732156971.382449,1732156971.384712,13.000000,0.000000,4300.384766,4285.641113,4316.538574,4296.922852,4277.948730,4294.102539,4333.461426,4395.897461,4314.487305,4299.743652,4477.948730,4510.641113,4336.410156,4413.846191,1681.000000,1.000000,26.000000,,,,0.000000,2.000000,2.000000,0.000000,4.000000,2.000000,2.000000,0.000000,0.000000,4.000000,4.000000,4.000000,4.000000,4.000000,4.000000,0.000000,,,,,,,,,,,,,,,,,,,,,,,,,,,,
1732156971.390257,1732156971.392321,14.000000,0.000000,4303.589844,4289.487305,4314.358887,4297.948730,4279.871582,4295.000000,4334.230957,4395.641113,4312.820313,4296.538574,4478.333496,4504.871582,4335.384766,4410.897461,1523.000000,1.000000,26.000000,,,,0.000000,2.000000,2.000000,0.000000,4.000000,2.000000,2.000000,0.000000,0.000000,4.000000,4.000000,4.000000,4.000000,4.000000,4.000000,0.000000,1.000000,0.000000,2.000000,2.000000,0.000000,4.000000,2.000000,2.000000,0.000000,0.000000,4.000000,4.000000,4.000000,4.000000,4.000000,4.000000,,,,,,,,,,,,
1732156971.398065,1732156971.400129,15.000000,0.000000,4298.846191,4282.948730,4316.538574,4298.205078,4289.358887,4295.128418,4333.717773,4396.538574,4310.897461,4282.948730,4470.897461,4506.410156,4333.461426,4410.128418,1568.000000,1.000000,26.000000,,,,0.000000,2.000000,2.000000,0.000000,4.000000,2.000000,2.000000,0.000000,0.000000,4.000000,4.000000,4.000000,4.000000,4.000000,4.000000,0.000000,,,,,,,,,,,,,,,,,,,,,,,,,,,,
1732156971.405873,1732156971.407837,16.000000,0.000000,4295.384766,4279.743652,4317.820313,4298.974121,4288.717773,4294.871582,4334.487305,4399.230957,4315.000000,4288.077148,4471.282227,4509.871582,4333.205078,4408.461426,0.000000,1.000000,26.000000,,,,0.000000,2.000000,2.000000,0.000000,4.000000,2.000000,2.000000,0.000000,0.000000,4.000000,4.000000,4.000000,4.000000,4.000000,4.000000,0.000000,,,,,,,,,,,,,,,,,4.000000,0.000000,0.515177,0.465515,-0.562317,0.449097,0.979123,-0.023440,-0.064461,-35.783554,45.162571,31.776693
1732156971.413681,1732156971.415645,17.000000,0.000000,4297.179688,4281.922852,4316.410156,4299.230957,4301.282227,4293.589844,4335.897461,4399.743652,4316.153809,4296.538574,4475.256348,4505.384766,4332.820313,4397.436035,0.000000,1.000000,26.000000,,,,0.000000,2.000000,2.000000,0.000000,4.000000,2.000000,2.000000,0.000000,0.000000,4.000000,4.000000,4.000000,4.000000,4.000000,4.000000,0.000000,,,,,,,,,,,,,,,,,,,,,,,,,,,,
1732156971.421490,1732156971.423254,18.000000,0.000000,4298.205078,4281.666504,4315.256348,4298.846191,4304.230957,4295.256348,4334.743652,4393.205078,4308.205078,4287.948730,4475.256348,4499.615234,4333.846191,4393.846191,0.000000,1.000000,26.000000,,,,0.000000,2.000000,2.000000,0.000000,4.000000,2.000000,2.000000,0.000000,0.000000,4.000000,4.000000,4.000000,4.000000,4.000000,4.000000,0.000000,,,,,,,,,,,,,,,,,,,,,,,,,,,,
1732156971.429298,1732156971.431062,19.000000,0.000000,4299.358887,4281.410156,4316.666504,4299.102539,4282.692383,4300.000000,4335.256348,4390.000000,4303.717773,4278.077148,4473.974121,4502.563965,4339.871582,4406.538574,0.000000,1.000000,26.000000,,,,0.000000,2.000000,2.000000,0.000000,4.000000,2.000000,2.000000,0.000000,0.000000,4.000000,4.000000,4.000000,4.000000,4.000000,4.000000,0.000000,,,,,,,,,,,,,,,,,,,,,,,,,,,,
1732156971.437106,1732156971.438970,20.000000,0.000000,4302.179688,4282.563965,4317.307617,4298.974121,4274.487305,4294.871582,4335.000000,4397.179688,4305.641113,4281.153809,4474.743652,4506.282227,4344.230957,4413.846191,0.000000,1.000000,26.000000,,,,0.000000,2.000000,2.000000,0.000000,4.000000,2.000000,2.000000,0.000000,0.000000,4.000000,4.000000,4.000000,4.000000,4.000000,4.000000,0.000000,,,,,,,,,,,,,,,,,5.000000,0.000000,0.514840,0.465637,-0.562378,0.449280,0.979123,-0.043951,-0.072274,-35.839680,45.233349,31.689121
1732156971.444914,1732156971.446778,21.000000,0.000000,4306.538574,4282.563965,4314.743652,4298.589844,4282.820313,4283.974121,4330.897461,4399.487305,4305.256348,4290.256348,4477.051270,4505.641113,4342.307617,4411.666504,0.000000,1.000000,26.000000,,,,0.000000,2.000000,2.000000,0.000000,4.000000,2.000000,2.000000,0.000000,0.000000,4.000000,4.000000,4.000000,4.000000,4.000000,4.000000,0.000000,,,,,,,,,,,,,,,,,,,,,,,,,,,,
1732156971.452723,1732156971.454786,22.000000,0.000000,4308.205078,4282.436035,4313.974121,4298.589844,4282.948730,4287.948730,4332.179688,4392.051270,4306.410156,4295.769043,4473.461426,4508.205078,4338.589844,4411.410156,0.000000,1.000000,26.000000,,,,0.000000,2.000000,2.000000,0.000000,4.000000,2.000000,2.000000,0.000000,0.000000,4.000000,4.000000,4.000000,4.000000,4.000000,4.000000,0.000000,,,,,,,,,,,,,,,,,,,,,,,,,,,,
1732156971.460531,1732156971.462595,23.000000,0.000000,4303.333496,4282.948730,4315.000000,4300.128418,4283.846191,4293.717773,4336.025879,4392.820313,4311.794922,4295.512695,4474.358887,4508.717773,4341.025879,4413.589844,0.000000,1.000000,26.000000,,,,0.000000,2.000000,2.000000,0.000000,4.000000,2.000000,2.000000,0.000000,0.000000,4.000000,4.000000,4.000000,4.000000,4.000000,4.000000,0.000000,,,,,,,,,,,,,,,,,,,,,,,,,,,,
1732156971.468339,1732156971.470303,24.000000,0.000000,4298.589844,4282.179688,4316.025879,4297.179688,4302.307617,4283.333496,4334.743652,4399.871582,4312.948730,4292.948730,4484.615234,4504.230957,4344.230957,4414.487305,0.000000,1.000000,26.000000,,,,0.000000,2.000000,2.000000,0.000000,4.000000,2.000000,2.000000,0.000000,0.000000,4.000000,4.000000,4.000000,4.000000,4.000000,4.000000,0.000000,,,,,,,,,,,,,,,,,6.000000,0.000000,0.514787,0.465637,-0.562378,0.449341,0.964962,-0.029300,-0.062996,-35.860142,45.065678,31.576521
1732156971.476147,1732156971.478111,25.000000,0.000000,4300.512695,4282.307617,4316.666504,4298.333496,4306.025879,4277.948730,4334.230957,4399.871582,4310.128418,4295.128418,4492.179688,4509.871582,4342.436035,4415.256348,0.000000,1.000000,26.000000,,,,0.000000,2.000000,2.000000,0.000000,4.000000,2.000000,2.000000,0.000000,0.000000,4.000000,4.000000,4.000000,4.000000,4.000000,4.000000,0.000000,,,,,,,,,,,,,,,,,,,,,,,,,,,,
1732156971.483956,1732156971.485719,26.000000,0.000000,4304.230957,4283.589844,4316.153809,4307.692383,4283.846191,4290.384766,4335.897461,4397.436035,4311.538574,4296.410156,4487.563965,4517.563965,4341.025879,4415.641113,0.000000,1.000000,26.000000,,,,0.000000,2.000000,2.000000,0.000000,4.000000,2.000000,2.000000,0.000000,0.000000,4.000000,4.000000,4.000000,4.000000,4.000000,4.000000,0.000000,,,,,,,,,,,,,,,,,,,,,,,,,,,,
1732156971.491764,1732156971.493528,27.000000,0.000000,4305.128418,4281.153809,4315.897461,4307.051270,4274.102539,4296.153809,4334.230957,4397.179688,4312.307617,4293.974121,4480.641113,4511.794922,4343.077148,4414.743652,0.000000,1.000000,26.000000,,,,0.000000,2.000000,2.000000,0.000000,4.000000,2.000000,2.000000,0.000000,0.000000,4.000000,4.000000,4.000000,4.000000,4.000000,4.000000,0.000000,,,,,,,,,,,,,,,,,,,,,,,,,,,,
1732156971.499572,1732156971.501236,28.000000,0.000000,4300.641113,4276.410156,4315.897461,4299.743652,4289.871582,4290.769043,4332.563965,4399.102539,4307.948730,4293.717773,4478.717773,4502.436035,4341.922852,4414.230957,0.000000,1.000000,26.000000,,,,0.000000,2.000000,2.000000,0.000000,4.000000,2.000000,2.000000,0.000000,0.000000,4.000000,4.000000,4.000000,4.000000,4.000000,4.000000,0.000000,,,,,,,,,,,,,,,,,7.000000,0.000000,0.514656,0.465576,-0.562500,0.449402,0.982053,-0.031742,-0.072763,-35.791714,44.989864,31.466982
1732156971.507380,1732156971.509044,29.000000,0.000000,4298.589844,4277.948730,4315.512695,4306.153809,4296.025879,4292.051270,4334.743652,4398.846191,4308.333496,4293.717773,4473.205078,4505.000000,4338.333496,4413.205078,0.000000,1.000000,26.000000,,,,0.000000,2.000000,2.000000,0.000000,4.000000,2.000000,2.000000,0.000000,0.000000,4.000000,4.000000,4.000000,4.000000,4.000000,4.000000,0.000000,,,,,,,,,,,,,,,,,,,,,,,,,,,,
1732156971.515189,1732156971.516653,30.000000,0.000000,4302.820313,4284.743652,4313.077148,4312.692383,4291.153809,4294.871582,4335.000000,4397.179688,4311.282227,4294.102539,4474.871582,4508.974121,4342.692383,4412.307617,0.000000,1.000000,26.000000,,,,0.000000,2.000000,2.000000,0.000000,4.000000,2.000000,2.000000,0.000000,0.000000,4.000000,4.000000,4.000000,4.000000,4.000000,4.000000,0.000000,,,,,,,,,,,,,,,,,,,,,,,,,,,,
1732156971.522997,1732156971.524461,31.000000,0.000000,4302.179688,4278.846191,4313.846191,4301.153809,4303.333496,4289.615234,4333.717773,4397.179688,4311.410156,4294.871582,4488.077148,4510.769043,4349.230957,4413.589844,0.000000,1.000000,26.000000,,,,0.000000,2.000000,2.000000,0.000000,4.000000,2.000000,2.000000,0.000000,0.000000,4.000000,4.000000,4.000000,4.000000,4.000000,4.000000,0.000000,,,,,,,,,,,,,,,,,,,,,,,,,,,,
1732156971.530805,1732156971.532169,32.000000,0.000000,4296.666504,4267.179688,4316.666504,4292.436035,4305.384766,4287.436035,4334.102539,4398.205078,4310.897461,4295.641113,4490.128418,4512.436035,4347.179688,4412.436035,0.000000,1.000000,26.000000,,,,0.000000,2.000000,2.000000,0.000000,4.000000,2.000000,2.000000,0.000000,0.000000,4.000000,4.000000,4.000000,4.000000,4.000000,4.000000,0.000000,,,,,,,,,,,,,,,,,8.000000,0.000000,0.514522,0.465576,-0.562622,0.449402,0.971310,-0.025882,-0.064461,-35.929623,45.063457,31.501589
1732156971.538613,1732156971.539977,33.000000,0.000000,4293.717773,4266.538574,4313.846191,4296.922852,4284.487305,4293.461426,4335.641113,4397.820313,4313.205078,4296.282227,4478.974121,4507.563965,4336.538574,4405.512695,0.000000,1.000000,26.000000,,,,0.000000,2.000000,2.000000,0.000000,4.000000,2.000000,2.000000,0.000000,0.000000,4.000000,4.000000,4.000000,4.000000,4.000000,4.000000,0.000000,,,,,,,,,,,,,,,,,,,,,,,,,,,,
1732156971.546422,1732156971.547985,34.000000,0.000000,4293.205078,4268.205078,4315.256348,4296.922852,4277.692383,4300.000000,4334.871582,4397.692383,4314.615234,4295.769043,4474.871582,4503.846191,4332.307617,4399.487305,0.000000,1.000000,26.000000,,,,0.000000,2.000000,2.000000,0.000000,4.000000,2.000000,2.000000,0.000000,0.000000,4.000000,4.000000,4.000000,4.000000,4.000000,4.000000,0.000000,,,,,,,,,,,,,,,,,,,,,,,,,,,,
1732156971.554230,1732156971.555794,35.000000,0.000000,4294.871582,4269.615234,4320.384766,4295.128418,4297.051270,4295.128418,4334.358887,4398.461426,4312.051270,4290.512695,4472.948730,4505.384766,4336.794922,4400.897461,0.000000,1.000000,26.000000,,,,0.000000,2.000000,2.000000,0.000000,4.000000,2.000000,2.000000,0.000000,0.000000,4.000000,4.000000,4.000000,4.000000,4.000000,4.000000,0.000000,,,,,,,,,,,,,,,,,,,,,,,,,,,,
1732156971.562038,1732156971.563702,36.000000,0.000000,4296.282227,4277.179688,4317.307617,4301.538574,4305.897461,4284.102539,4335.897461,4397.820313,4309.102539,4290.256348,4469.102539,4507.051270,4340.512695,4406.666504,0.000000,1.000000,26.000000,,,,0.000000,2.000000,2.000000,0.000000,4.000000,2.000000,2.000000,0.000000,0.000000,4.000000,4.000000,4.000000,4.000000,4.000000,4.000000,0.000000,,,,,,,,,,,,,,,,,9.000000,0.000000,0.514282,0.465576,-0.562744,0.449524,0.970333,-0.034672,-0.070321,-35.934662,45.104736,31.519621
1732156971.569846,1732156971.571510,37.000000,0.000000,4297.051270,4281.153809,4311.282227,4305.641113,4290.128418,4286.025879,4336.025879,4398.589844,4311.153809,4295.256348,4475.769043,4506.153809,4341.282227,4411.153809,0.000000,1.000000,26.000000,,,,0.000000,2.000000,2.000000,0.000000,4.000000,2.000000,2.000000,0.000000,0.000000,4.000000,4.000000,4.000000,4.000000,4.000000,4.000000,0.000000,,,,,,,,,,,,,,,,,,,,,,,,,,,,
1732156971.577654,1732156971.579118,38.000000,0.000000,4301.666504,4278.333496,4314.102539,4305.256348,4279.743652,4295.769043,4334.871582,4399.487305,4311.282227,4288.077148,4477.948730,4506.282227,4341.794922,4411.153809,0.000000,1.000000,26.000000,,,,0.000000,2.000000,2.000000,0.000000,4.000000,2.000000,2.000000,0.000000,0.000000,4.000000,4.000000,4.000000,4.000000,4.000000,4.000000,0.000000,,,,,,,,,,,,,,,,,,,,,,,,,,,,
1732156971.585463,1732156971.586927,39.000000,0.000000,4304.871582,4279.615234,4317.307617,4307.179688,4281.025879,4294.358887,4334.615234,4398.589844,4306.025879,4277.948730,4471.666504,4510.256348,4341.025879,4411.538574,0.000000,1.000000,26.000000,,,,0.000000,2.000000,2.000000,0.000000,4.000000,2.000000,2.000000,0.000000,0.000000,4.000000,4.000000,4.000000,4.000000,4.000000,4.000000,0.000000,,,,,,,,,,,,,,,,,,,,,,,,,,,,
1732156971.593271,1732156971.594835,40.000000,0.000000,4299.743652,4277.179688,4316.922852,4304.615234,4293.077148,4287.051270,4334.743652,4398.077148,4306.410156,4283.461426,4474.230957,4510.897461,4339.230957,4413.846191,0.000000,1.000000,26.000000,,,,0.000000,2.000000,2.000000,0.000000,4.000000,2.000000,2.000000,0.000000,0.000000,4.000000,4.000000,4.000000,4.000000,4.000000,4.000000,0.000000,,,,,,,,,,,,,,,,,10.000000,0.000000,0.514366,0.465454,-0.562866,0.449402,0.966427,-0.032230,-0.073739,-35.947075,45.084835,31.737558
1732156971.601079,1732156971.602643,41.000000,0.000000,4296.538574,4270.384766,4318.717773,4298.846191,4308.717773,4288.461426,4335.000000,4396.666504,4311.794922,4293.333496,4480.128418,4506.922852,4344.102539,4413.846191,0.000000,1.000000,26.000000,,,,0.000000,2.000000,2.000000,0.000000,4.000000,2.000000,2.000000,0.000000,0.000000,4.000000,4.000000,4.000000,4.000000,4.000000,4.000000,0.000000,,,,,,,,,,,,,,,,,,,,,,,,,,,,
1732156971.608888,1732156971.610251,42.000000,0.000000,4298.205078,4274.358887,4317.820313,4298.846191,4299.871582,4290.897461,4335.128418,4397.563965,4316.794922,4296.282227,4477.820313,4512.307617,4350.897461,4413.077148,0.000000,1.000000,26.000000,,,,0.000000,2.000000,2.000000,0.000000,4.000000,2.000000,2.000000,0.000000,0.000000,4.000000,4.000000,4.000000,4.000000,4.000000,4.000000,0.000000,,,,,,,,,,,,,,,,,,,,,,,,,,,,
1732156971.616696,1732156971.618059,43.000000,0.000000,4298.077148,4280.384766,4313.461426,4303.077148,4280.384766,4286.922852,4334.358887,4399.487305,4318.461426,4297.948730,4477.051270,4519.487305,4350.256348,4415.000000,0.000000,1.000000,26.000000,,,,0.000000,2.000000,2.000000,0.000000,4.000000,2.000000,2.000000,0.000000,0.000000,4.000000,4.000000,4.000000,4.000000,4.000000,4.000000,0.000000,,,,,,,,,,,,,,,,,,,,,,,,,,,,
1732156971.624504,1732156971.625968,44.000000,0.000000,4297.307617,4280.384766,4313.974121,4303.077148,4281.666504,4285.769043,4333.974121,4398.717773,4313.205078,4295.000000,4480.128418,4511.922852,4344.871582,4412.563965,0.000000,1.000000,26.000000,,,,0.000000,2.000000,2.000000,0.000000,4.000000,2.000000,2.000000,0.000000,0.000000,4.000000,4.000000,4.000000,4.000000,4.000000,4.000000,0.000000,,,,,,,,,,,,,,,,,11.000000,0.000000,0.514188,0.465576,-0.562927,0.449402,0.970333,-0.024417,-0.071786,-35.858799,45.270382,31.849089
1732156971.632312,1732156971.633776,45.000000,0.000000,4298.205078,4279.487305,4315.769043,4299.487305,4300.384766,4290.512695,4335.512695,4397.563965,4307.948730,4288.589844,4478.974121,4504.615234,4342.948730,4407.051270,0.000000,1.000000,26.000000,,,,0.000000,2.000000,2.000000,0.000000,4.000000,2.000000,2.000000,0.000000,0.000000,4.000000,4.000000,4.000000,4.000000,4.000000,4.000000,0.000000,,,,,,,,,,,,,,,,,,,,,,,,,,,,
1732156971.640120,1732156971.641784,46.000000,0.000000,4296.410156,4280.384766,4316.025879,4297.307617,4309.487305,4295.769043,4336.666504,4397.820313,4310.512695,4290.769043,4474.102539,4506.282227,4345.000000,4403.846191,0.000000,1.000000,26.000000,,,,0.000000,2.000000,2.000000,0.000000,4.000000,2.000000,2.000000,0.000000,0.000000,4.000000,4.000000,4.000000,4.000000,4.000000,4.000000,0.000000,,,,,,,,,,,,,,,,,,,,,,,,,,,,
1732156971.647929,1732156971.649592,47.000000,0.000000,4291.538574,4279.358887,4315.384766,4297.820313,4302.948730,4296.153809,4335.641113,4397.307617,4313.589844,4295.000000,4472.563965,4504.102539,4339.871582,4400.000000,0.000000,1.000000,26.000000,,,,0.000000,2.000000,2.000000,0.000000,4.000000,2.000000,2.000000,0.000000,0.000000,4.000000,4.000000,4.000000,4.000000,4.000000,4.000000,0.000000,,,,,,,,,,,,,,,,,,,,,,,,,,,,
1732156971.655737,1732156971.657500,48.000000,0.000000,4290.000000,4278.205078,4316.282227,4299.615234,4291.922852,4295.641113,4334.743652,4396.410156,4310.384766,4288.077148,4475.000000,4503.974121,4335.897461,4398.333496,0.000000,1.000000,26.000000,,,,0.000000,2.000000,2.000000,0.000000,4.000000,2.000000,2.000000,0.000000,0.000000,4.000000,4.000000,4.000000,4.000000,4.000000,4.000000,0.000000,,,,,,,,,,,,,,,,,12.000000,0.000000,0.514085,0.465454,-0.563171,0.449341,0.983030,-0.029300,-0.062019,-35.920628,45.037342,31.906096
1732156971.663545,1732156971.665308,49.000000,0.000000,4293.846191,4280.641113,4316.666504,4302.307617,4291.410156,4296.282227,4335.256348,4396.410156,4305.256348,4278.717773,4472.179688,4506.922852,4340.769043,4400.512695,0.000000,1.000000,26.000000,,,,0.000000,2.000000,2.000000,0.000000,4.000000,2.000000,2.000000,0.000000,0.000000,4.000000,4.000000,4.000000,4.000000,4.000000,4.000000,0.000000,,,,,,,,,,,,,,,,,,,,,,,,,,,,
1732156971.671353,1732156971.673316,50.000000,0.000000,4296.153809,4281.410156,4315.000000,4305.000000,4300.512695,4294.743652,4334.743652,4396.538574,4301.794922,4282.436035,4468.974121,4499.230957,4343.974121,4398.461426,0.000000,1.000000,26.000000,,,,0.000000,2.000000,2.000000,0.000000,4.000000,2.000000,2.000000,0.000000,0.000000,4.000000,4.000000,4.000000,4.000000,4.000000,4.000000,0.000000,,,,,,,,,,,,,,,,,,,,,,,,,,,,
1732156971.679162,1732156971.681124,51.000000,0.000000,4295.769043,4279.230957,4312.948730,4300.128418,4294.615234,4292.692383,4334.102539,4397.820313,4305.128418,4292.307617,4475.128418,4492.307617,4342.051270,4394.615234,0.000000,1.000000,26.000000,,,,0.000000,2.000000,2.000000,0.000000,4.000000,2.000000,2.000000,0.000000,0.000000,4.000000,4.000000,4.000000,4.000000,4.000000,4.000000,0.000000,,,,,,,,,,,,,,,,,,,,,,,,,,,,
1732156971.686970,1732156971.688833,52.000000,0.000000,4295.000000,4277.563965,4314.871582,4296.153809,4293.461426,4292.948730,4334.615234,4397.948730,4309.871582,4292.692383,4480.512695,4500.000000,4341.410156,4395.000000,0.000000,1.000000,26.000000,,,,0.000000,2.000000,2.000000,0.000000,4.000000,2.000000,2.000000,0.000000,0.000000,4.000000,4.000000,4.000000,4.000000,4.000000,4.000000,0.000000,,,,,,,,,,,,,,,,,13.000000,0.000000,0.514062,0.465332,-0.563293,0.449341,0.985472,-0.028812,-0.070809,-35.785706,44.983582,31.755604
1732156971.694778,1732156971.696641,53.000000,0.000000,4294.102539,4278.589844,4317.820313,4298.589844,4310.512695,4293.589844,4335.000000,4398.205078,4312.307617,4293.717773,4477.179688,4507.051270,4341.794922,4396.025879,0.000000,1.000000,26.000000,,,,0.000000,2.000000,2.000000,0.000000,4.000000,2.000000,2.000000,0.000000,0.000000,4.000000,4.000000,4.000000,4.000000,4.000000,4.000000,0.000000,,,,,,,,,,,,,,,,,,,,,,,,,,,,
1732156971.702587,1732156971.704649,54.000000,0.000000,4294.743652,4279.230957,4316.666504,4298.205078,4303.846191,4294.358887,4334.871582,4401.153809,4315.897461,4300.641113,4475.897461,4503.717773,4341.794922,4396.922852,0.000000,1.000000,26.000000,,,,0.000000,2.000000,2.000000,0.000000,4.000000,2.000000,2.000000,0.000000,0.000000,4.000000,4.000000,4.000000,4.000000,4.000000,4.000000,0.000000,,,,,,,,,,,,,,,,,,,,,,,,,,,,
1732156971.710395,1732156971.712457,55.000000,0.000000,4294.102539,4276.538574,4316.410156,4295.384766,4281.666504,4294.743652,4334.743652,4400.512695,4313.589844,4301.025879,4476.153809,4499.358887,4343.333496,4398.589844,0.000000,1.000000,26.000000,,,,0.000000,2.000000,2.000000,0.000000,4.000000,2.000000,2.000000,0.000000,0.000000,4.000000,4.000000,4.000000,4.000000,4.000000,4.000000,0.000000,,,,,,,,,,,,,,,,,,,,,,,,,,,,
1732156971.718203,1732156971.720365,56.000000,0.000000,4290.769043,4275.128418,4318.461426,4295.512695,4282.436035,4295.769043,4334.871582,4397.307617,4311.794922,4296.538574,4474.615234,4501.410156,4346.025879,4398.717773,0.000000,1.000000,26.000000,,,,0.000000,2.000000,2.000000,0.000000,4.000000,2.000000,2.000000,0.000000,0.000000,4.000000,4.000000,4.000000,4.000000,4.000000,4.000000,0.000000,,,,,,,,,,,,,,,,,14.000000,0.000000,0.513953,0.465393,-0.563293,0.449402,0.974240,-0.031742,-0.078623,-35.903088,44.891701,31.738707
1732156971.726011,1732156971.728174,57.000000,0.000000,4288.077148,4272.307617,4315.256348,4298.205078,4295.384766,4296.410156,4335.641113,4397.179688,4313.205078,4297.563965,4478.205078,4503.589844,4351.282227,4399.102539,0.000000,1.000000,26.000000,,,,0.000000,2.000000,2.000000,0.000000,4.000000,2.000000,2.000000,0.000000,0.000000,4.000000,4.000000,4.000000,4.000000,4.000000,4.000000,0.000000,,,,,,,,,,,,,,,,,,,,,,,,,,,,
