title:one2, start timestamp:1732081346.043956, stop timestamp:1732081374.528432, headset type:EPOCX, headset serial:E5020C3A, headset firmware:730, channels:67, sampling rate:eeg_128;mot_32, samples:3649      , version:2.2, 
Timestamp,OriginalTimestamp,EEG.Counter,EEG.Interpolated,EEG.AF3,EEG.F7,EEG.F3,EEG.FC5,EEG.T7,EEG.P7,EEG.O1,EEG.O2,EEG.P8,EEG.T8,EEG.FC6,EEG.F4,EEG.F8,EEG.AF4,EEG.RawCq,EEG.Battery,EEG.BatteryPercent,MarkerIndex,MarkerType,MarkerValueInt,EEG.MarkerHardware,CQ.AF3,CQ.F7,CQ.F3,CQ.FC5,CQ.T7,CQ.P7,CQ.O1,CQ.O2,CQ.P8,CQ.T8,CQ.FC6,CQ.F4,CQ.F8,CQ.AF4,CQ.Overall,EQ.SampleRateQuality,EQ.OVERALL,EQ.AF3,EQ.F7,EQ.F3,EQ.FC5,EQ.T7,EQ.P7,EQ.O1,EQ.O2,EQ.P8,EQ.T8,EQ.FC6,EQ.F4,EQ.F8,EQ.AF4,MOT.CounterMems,MOT.InterpolatedMems,MOT.Q0,MOT.Q1,MOT.Q2,MOT.Q3,MOT.AccX,MOT.AccY,MOT.AccZ,MOT.MagX,MOT.MagY,MOT.MagZ
1732081346.043956,1732081346.045952,57.000000,0.000000,4355.897461,4342.820313,4352.436035,4361.538574,4359.230957,4381.922852,4318.333496,4401.025879,4394.871582,4369.102539,4487.179688,4524.230957,4400.641113,4432.307617,0.000000,0.000000,14.000000,,,,0.000000,2.000000,2.000000,0.000000,2.000000,2.000000,2.000000,0.000000,2.000000,4.000000,4.000000,4.000000,4.000000,2.000000,4.000000,16.666666,,,,,,,,,,,,,,,,,,,,,,,,,,,,
1732081346.051764,1732081346.053560,58.000000,0.000000,4358.717773,4345.128418,4357.179688,4358.333496,4357.051270,4377.307617,4317.820313,4398.077148,4392.820313,4366.025879,4488.717773,4526.153809,4404.871582,4437.307617,0.000000,0.000000,14.000000,,,,0.000000,2.000000,2.000000,0.000000,2.000000,2.000000,2.000000,0.000000,2.000000,4.000000,4.000000,4.000000,4.000000,2.000000,4.000000,16.666666,,,,,,,,,,,,,,,,,,,,,,,,,,,,
1732081346.059573,1732081346.061368,59.000000,0.000000,4360.897461,4346.282227,4357.436035,4355.769043,4364.230957,4371.794922,4317.820313,4396.153809,4391.153809,4362.307617,4486.153809,4523.846191,4404.615234,4443.589844,0.000000,0.000000,14.000000,,,,0.000000,2.000000,2.000000,0.000000,2.000000,2.000000,2.000000,0.000000,2.000000,4.000000,4.000000,4.000000,4.000000,2.000000,4.000000,16.666666,,,,,,,,,,,,,,,,,,,,,,,,,,,,
1732081346.067381,1732081346.069077,60.000000,0.000000,4359.230957,4341.666504,4353.077148,4356.666504,4358.077148,4375.256348,4319.358887,4396.922852,4391.538574,4365.641113,4487.436035,4523.589844,4405.641113,4443.846191,0.000000,0.000000,14.000000,,,,0.000000,2.000000,2.000000,0.000000,2.000000,2.000000,2.000000,0.000000,2.000000,4.000000,4.000000,4.000000,4.000000,2.000000,4.000000,16.666666,,,,,,,,,,,,,,,,,15.000000,0.000000,0.618473,0.399780,-0.603210,0.306274,0.964473,0.130387,-0.041997,-76.219193,64.266335,27.277225
1732081346.075189,1732081346.076885,61.000000,0.000000,4358.846191,4343.077148,4356.538574,4362.179688,4343.846191,4377.051270,4324.102539,4396.794922,4393.461426,4368.077148,4489.358887,4527.692383,4405.512695,4440.256348,0.000000,0.000000,14.000000,,,,0.000000,2.000000,2.000000,0.000000,2.000000,2.000000,2.000000,0.000000,2.000000,4.000000,4.000000,4.000000,4.000000,2.000000,4.000000,16.666666,,,,,,,,,,,,,,,,,,,,,,,,,,,,
1732081346.082997,1732081346.084493,62.000000,0.000000,4359.358887,4350.128418,4356.282227,4365.384766,4351.410156,4374.743652,4320.000000,4396.282227,4392.179688,4366.025879,4487.820313,4523.589844,4401.538574,4438.589844,0.000000,0.000000,14.000000,,,,0.000000,2.000000,2.000000,0.000000,2.000000,2.000000,2.000000,0.000000,2.000000,4.000000,4.000000,4.000000,4.000000,2.000000,4.000000,16.666666,,,,,,,,,,,,,,,,,,,,,,,,,,,,
1732081346.090806,1732081346.092301,63.000000,0.000000,4356.794922,4347.820313,4355.128418,4360.000000,4365.897461,4375.512695,4317.051270,4397.051270,4390.256348,4363.717773,4482.820313,4513.333496,4398.846191,4435.769043,0.000000,0.000000,14.000000,,,,0.000000,2.000000,2.000000,0.000000,2.000000,2.000000,2.000000,0.000000,2.000000,4.000000,4.000000,4.000000,4.000000,2.000000,4.000000,16.666666,,,,,,,,,,,,,,,,,,,,,,,,,,,,
1732081346.098614,1732081346.100010,64.000000,0.000000,4354.871582,4343.589844,4354.743652,4356.410156,4363.205078,4376.538574,4318.205078,4396.922852,4393.077148,4366.666504,4482.563965,4510.897461,4400.128418,4435.000000,1.000000,0.000000,14.000000,,,,0.000000,2.000000,2.000000,0.000000,2.000000,2.000000,2.000000,0.000000,2.000000,4.000000,4.000000,4.000000,4.000000,2.000000,4.000000,16.666666,,,,,,,,,,,,,,,,,16.000000,0.000000,0.618602,0.399536,-0.603333,0.306091,0.971310,0.124527,-0.049322,-76.190880,64.305733,27.207886
1732081346.106422,1732081346.107818,65.000000,0.000000,4356.282227,4346.538574,4357.563965,4358.974121,4351.538574,4376.922852,4320.512695,4395.641113,4397.692383,4373.846191,4487.179688,4519.615234,4400.384766,4434.487305,1285.000000,0.000000,14.000000,,,,0.000000,2.000000,2.000000,0.000000,2.000000,2.000000,2.000000,0.000000,2.000000,4.000000,4.000000,4.000000,4.000000,2.000000,4.000000,16.666666,,,,,,,,,,,,,,,,,,,,,,,,,,,,
1732081346.114230,1732081346.115426,66.000000,0.000000,4357.820313,4350.641113,4352.948730,4359.615234,4345.641113,4379.743652,4317.563965,4396.282227,4397.948730,4377.692383,4488.589844,4522.436035,4399.871582,4434.102539,1209.000000,0.000000,14.000000,,,,0.000000,2.000000,2.000000,0.000000,2.000000,2.000000,2.000000,0.000000,2.000000,4.000000,4.000000,4.000000,4.000000,2.000000,4.000000,16.666666,,,,,,,,,,,,,,,,,,,,,,,,,,,,
1732081346.122038,1732081346.123235,67.000000,0.000000,4355.000000,4350.128418,4351.538574,4353.974121,4352.820313,4380.000000,4318.846191,4398.717773,4394.358887,4373.974121,4487.051270,4516.282227,4399.358887,4435.512695,1158.000000,0.000000,14.000000,,,,0.000000,2.000000,2.000000,0.000000,2.000000,2.000000,2.000000,0.000000,2.000000,4.000000,4.000000,4.000000,4.000000,2.000000,4.000000,16.666666,,,,,,,,,,,,,,,,,,,,,,,,,,,,
1732081346.129847,1732081346.130943,68.000000,0.000000,4349.871582,4347.436035,4350.512695,4352.948730,4365.128418,4377.563965,4320.000000,4396.282227,4392.820313,4370.000000,4484.871582,4513.846191,4395.897461,4432.692383,1182.000000,0.000000,14.000000,,,,0.000000,2.000000,2.000000,0.000000,2.000000,2.000000,2.000000,0.000000,2.000000,4.000000,4.000000,4.000000,4.000000,2.000000,4.000000,16.666666,,,,,,,,,,,,,,,,,17.000000,0.000000,0.618602,0.399536,-0.603333,0.306091,0.963985,0.129899,-0.038091,-76.167946,64.307640,27.421722
1732081346.137655,1732081346.138751,69.000000,0.000000,4348.077148,4344.358887,4351.153809,4357.948730,4361.666504,4376.282227,4317.436035,4394.358887,4389.871582,4370.512695,4482.179688,4514.615234,4393.974121,4428.717773,1057.000000,0.000000,14.000000,,,,0.000000,2.000000,2.000000,0.000000,2.000000,2.000000,2.000000,0.000000,2.000000,4.000000,4.000000,4.000000,4.000000,2.000000,4.000000,16.666666,,,,,,,,,,,,,,,,,,,,,,,,,,,,
1732081346.145463,1732081346.146359,70.000000,0.000000,4350.384766,4346.410156,4352.948730,4363.205078,4350.769043,4376.153809,4314.871582,4396.410156,4388.846191,4371.922852,4483.077148,4516.410156,4395.256348,4431.922852,183.000000,0.000000,14.000000,,,,0.000000,2.000000,2.000000,0.000000,2.000000,2.000000,2.000000,0.000000,2.000000,4.000000,4.000000,4.000000,4.000000,2.000000,4.000000,16.666666,,,,,,,,,,,,,,,,,,,,,,,,,,,,
1732081346.153272,1732081346.154167,71.000000,0.000000,4349.615234,4351.025879,4353.846191,4364.743652,4350.128418,4377.307617,4315.769043,4395.897461,4393.461426,4374.487305,4485.769043,4516.922852,4393.589844,4436.153809,1184.000000,0.000000,14.000000,,,,0.000000,2.000000,2.000000,0.000000,2.000000,2.000000,2.000000,0.000000,2.000000,4.000000,4.000000,4.000000,4.000000,2.000000,4.000000,16.666666,,,,,,,,,,,,,,,,,,,,,,,,,,,,
1732081346.161080,1732081346.161875,72.000000,0.000000,4350.000000,4350.897461,4353.846191,4362.436035,4358.205078,4378.077148,4316.153809,4393.717773,4394.230957,4376.153809,4484.743652,4515.897461,4390.769043,4433.589844,1330.000000,0.000000,14.000000,,,,0.000000,2.000000,2.000000,0.000000,2.000000,2.000000,2.000000,0.000000,2.000000,4.000000,4.000000,4.000000,4.000000,2.000000,4.000000,16.666666,,,,,,,,,,,,,,,,,18.000000,0.000000,0.618482,0.399719,-0.603210,0.306335,0.983030,0.123550,-0.043951,-76.054367,64.255859,27.333261
1732081346.168888,1732081346.169683,73.000000,0.000000,4353.589844,4350.000000,4355.384766,4361.794922,4353.461426,4376.282227,4317.820313,4397.179688,4392.692383,4377.563965,4484.358887,4514.230957,4391.153809,4431.794922,1462.000000,0.000000,14.000000,,,,0.000000,2.000000,2.000000,0.000000,2.000000,2.000000,2.000000,0.000000,2.000000,4.000000,4.000000,4.000000,4.000000,2.000000,4.000000,16.666666,,,,,,,,,,,,,,,,,,,,,,,,,,,,
1732081346.176696,1732081346.177291,74.000000,0.000000,4351.282227,4348.717773,4357.051270,4362.692383,4350.128418,4375.641113,4319.871582,4400.000000,4393.846191,4378.333496,4484.871582,4517.692383,4391.922852,4432.436035,1361.000000,0.000000,14.000000,,,,0.000000,2.000000,2.000000,0.000000,2.000000,2.000000,2.000000,0.000000,2.000000,4.000000,4.000000,4.000000,4.000000,2.000000,4.000000,16.666666,,,,,,,,,,,,,,,,,,,,,,,,,,,,
1732081346.184505,1732081346.185099,75.000000,0.000000,4346.666504,4348.077148,4354.871582,4360.641113,4362.179688,4373.589844,4314.102539,4394.743652,4391.538574,4374.615234,4480.000000,4518.205078,4388.077148,4431.666504,1486.000000,0.000000,14.000000,,,,0.000000,2.000000,2.000000,0.000000,2.000000,2.000000,2.000000,0.000000,2.000000,4.000000,4.000000,4.000000,4.000000,2.000000,4.000000,16.666666,,,,,,,,,,,,,,,,,,,,,,,,,,,,
1732081346.192313,1732081346.193007,76.000000,0.000000,4347.948730,4350.641113,4354.615234,4358.077148,4357.692383,4369.743652,4311.153809,4392.051270,4387.307617,4370.512695,4477.820313,4512.820313,4387.179688,4434.871582,1720.000000,0.000000,14.000000,,,,0.000000,2.000000,2.000000,0.000000,2.000000,2.000000,2.000000,0.000000,2.000000,4.000000,4.000000,4.000000,4.000000,2.000000,4.000000,16.666666,,,,,,,,,,,,,,,,,19.000000,0.000000,0.618609,0.399658,-0.603027,0.306519,0.974240,0.133317,-0.046881,-76.057373,63.997246,27.153275
1732081346.200121,1732081346.200815,77.000000,0.000000,4349.102539,4349.102539,4352.051270,4357.307617,4342.820313,4371.922852,4311.922852,4393.461426,4389.615234,4374.743652,4482.563965,4512.692383,4391.794922,4437.179688,1638.000000,0.000000,14.000000,,,,0.000000,2.000000,2.000000,0.000000,2.000000,2.000000,2.000000,0.000000,2.000000,4.000000,4.000000,4.000000,4.000000,2.000000,4.000000,16.666666,,,,,,,,,,,,,,,,,,,,,,,,,,,,
1732081346.207929,1732081346.208823,78.000000,0.000000,4343.461426,4343.974121,4352.692383,4356.153809,4347.436035,4377.179688,4313.846191,4393.333496,4389.743652,4378.205078,4482.179688,4513.974121,4392.692383,4433.846191,1361.000000,0.000000,14.000000,,,,0.000000,2.000000,2.000000,0.000000,2.000000,2.000000,2.000000,0.000000,2.000000,4.000000,4.000000,4.000000,4.000000,2.000000,4.000000,16.666666,1.000000,0.000000,2.000000,2.000000,0.000000,2.000000,2.000000,1.000000,0.000000,0.000000,0.000000,3.000000,1.000000,1.000000,2.000000,4.000000,,,,,,,,,,,,
1732081346.215737,1732081346.216631,79.000000,0.000000,4340.384766,4344.743652,4351.410156,4357.948730,4356.922852,4375.256348,4311.666504,4388.974121,4385.384766,4376.282227,4478.205078,4508.846191,4387.948730,4433.333496,1486.000000,0.000000,14.000000,,,,0.000000,2.000000,2.000000,0.000000,2.000000,2.000000,2.000000,0.000000,2.000000,4.000000,4.000000,4.000000,4.000000,2.000000,4.000000,16.666666,,,,,,,,,,,,,,,,,,,,,,,,,,,,
1732081346.223546,1732081346.224540,80.000000,0.000000,4341.282227,4345.897461,4353.589844,4360.128418,4350.512695,4369.230957,4315.000000,4384.102539,4385.641113,4375.128418,4478.077148,4507.436035,4384.871582,4435.641113,1720.000000,0.000000,14.000000,,,,0.000000,2.000000,2.000000,0.000000,2.000000,2.000000,2.000000,0.000000,2.000000,4.000000,4.000000,4.000000,4.000000,2.000000,4.000000,16.666666,,,,,,,,,,,,,,,,,20.000000,0.000000,0.618699,0.399475,-0.603149,0.306335,0.971310,0.120620,-0.045904,-76.104805,63.956100,27.125820
1732081346.231354,1732081346.232348,81.000000,0.000000,4343.205078,4341.282227,4352.436035,4358.717773,4355.128418,4370.384766,4316.153809,4386.794922,4387.948730,4378.077148,4481.794922,4508.077148,4387.436035,4435.000000,1638.000000,0.000000,14.000000,,,,0.000000,2.000000,2.000000,0.000000,2.000000,2.000000,2.000000,0.000000,2.000000,4.000000,4.000000,4.000000,4.000000,2.000000,4.000000,16.666666,,,,,,,,,,,,,,,,,,,,,,,,,,,,
1732081346.239162,1732081346.240356,82.000000,0.000000,4342.820313,4340.512695,4352.563965,4353.077148,4361.153809,4372.820313,4316.794922,4393.589844,4387.820313,4381.025879,4483.333496,4506.025879,4388.205078,4430.897461,1361.000000,0.000000,14.000000,,,,0.000000,2.000000,2.000000,0.000000,2.000000,2.000000,2.000000,0.000000,2.000000,4.000000,4.000000,4.000000,4.000000,2.000000,4.000000,16.666666,,,,,,,,,,,,,,,,,,,,,,,,,,,,
1732081346.246971,1732081346.248164,83.000000,0.000000,4341.538574,4344.615234,4351.410156,4349.871582,4348.589844,4373.974121,4316.922852,4395.897461,4390.128418,4383.846191,4484.743652,4507.436035,4387.563965,4432.563965,1486.000000,0.000000,14.000000,,,,0.000000,2.000000,2.000000,0.000000,2.000000,2.000000,2.000000,0.000000,2.000000,4.000000,4.000000,4.000000,4.000000,2.000000,4.000000,16.666666,,,,,,,,,,,,,,,,,,,,,,,,,,,,
1732081346.254779,1732081346.256072,84.000000,0.000000,4345.512695,4344.230957,4356.153809,4353.717773,4343.461426,4376.666504,4315.897461,4392.820313,4389.743652,4386.410156,4485.128418,4513.589844,4390.128418,4439.871582,1720.000000,0.000000,14.000000,,,,0.000000,2.000000,2.000000,0.000000,2.000000,2.000000,2.000000,0.000000,2.000000,4.000000,4.000000,4.000000,4.000000,2.000000,4.000000,16.666666,,,,,,,,,,,,,,,,,21.000000,0.000000,0.618699,0.399475,-0.603149,0.306335,0.981077,0.114272,-0.045416,-76.278229,63.877773,27.163580
1732081346.262587,1732081346.263880,85.000000,0.000000,4353.205078,4344.487305,4356.410156,4362.563965,4353.077148,4374.358887,4311.922852,4390.128418,4384.615234,4385.897461,4482.692383,4510.897461,4387.820313,4441.666504,1638.000000,0.000000,14.000000,,,,0.000000,2.000000,2.000000,0.000000,2.000000,2.000000,2.000000,0.000000,2.000000,4.000000,4.000000,4.000000,4.000000,2.000000,4.000000,16.666666,,,,,,,,,,,,,,,,,,,,,,,,,,,,
1732081346.270395,1732081346.271888,86.000000,0.000000,4355.000000,4347.436035,4354.358887,4367.051270,4364.358887,4367.820313,4309.615234,4385.384766,4381.025879,4380.769043,4480.256348,4504.615234,4380.769043,4435.000000,1361.000000,0.000000,14.000000,,,,0.000000,2.000000,2.000000,0.000000,2.000000,2.000000,2.000000,0.000000,2.000000,4.000000,4.000000,4.000000,4.000000,2.000000,4.000000,16.666666,,,,,,,,,,,,,,,,,,,,,,,,,,,,
1732081346.278203,1732081346.279697,87.000000,0.000000,4349.615234,4347.692383,4355.769043,4364.358887,4365.000000,4369.487305,4310.512695,4384.487305,4383.717773,4379.487305,4480.256348,4505.256348,4383.717773,4431.538574,1486.000000,0.000000,14.000000,,,,0.000000,2.000000,2.000000,0.000000,2.000000,2.000000,2.000000,0.000000,2.000000,4.000000,4.000000,4.000000,4.000000,2.000000,4.000000,16.666666,,,,,,,,,,,,,,,,,,,,,,,,,,,,
1732081346.286012,1732081346.287605,88.000000,0.000000,4347.948730,4347.051270,4356.922852,4359.743652,4350.128418,4377.436035,4312.436035,4391.922852,4388.077148,4383.974121,4481.794922,4509.230957,4393.205078,4435.384766,1720.000000,0.000000,14.000000,,,,0.000000,2.000000,2.000000,0.000000,2.000000,2.000000,2.000000,0.000000,2.000000,4.000000,4.000000,4.000000,4.000000,2.000000,4.000000,16.666666,,,,,,,,,,,,,,,,,22.000000,0.000000,0.618668,0.399475,-0.603088,0.306519,0.987425,0.109388,-0.050299,-76.253693,64.059334,27.105833
1732081346.293820,1732081346.295413,89.000000,0.000000,4351.025879,4348.461426,4356.025879,4355.512695,4346.282227,4376.025879,4314.871582,4393.077148,4387.692383,4386.794922,4480.897461,4507.436035,4392.179688,4436.538574,1638.000000,0.000000,14.000000,,,,0.000000,2.000000,2.000000,0.000000,2.000000,2.000000,2.000000,0.000000,2.000000,4.000000,4.000000,4.000000,4.000000,2.000000,4.000000,16.666666,,,,,,,,,,,,,,,,,,,,,,,,,,,,
1732081346.301628,1732081346.303421,90.000000,0.000000,4351.922852,4349.615234,4353.846191,4353.717773,4363.333496,4368.974121,4311.410156,4386.025879,4386.153809,4386.025879,4479.358887,4502.948730,4386.922852,4436.153809,1361.000000,0.000000,14.000000,,,,0.000000,2.000000,2.000000,0.000000,2.000000,2.000000,2.000000,0.000000,2.000000,4.000000,4.000000,4.000000,4.000000,2.000000,4.000000,16.666666,,,,,,,,,,,,,,,,,,,,,,,,,,,,
1732081346.309436,1732081346.311229,91.000000,0.000000,4351.538574,4348.589844,4356.153809,4356.025879,4358.974121,4370.128418,4311.538574,4387.948730,4387.563965,4385.000000,4480.641113,4509.102539,4390.256348,4436.922852,1486.000000,0.000000,14.000000,,,,0.000000,2.000000,2.000000,0.000000,2.000000,2.000000,2.000000,0.000000,2.000000,4.000000,4.000000,4.000000,4.000000,2.000000,4.000000,16.666666,,,,,,,,,,,,,,,,,,,,,,,,,,,,
1732081346.317245,1732081346.319137,92.000000,0.000000,4352.051270,4347.179688,4355.384766,4357.820313,4338.077148,4374.743652,4315.000000,4395.512695,4388.589844,4384.743652,4481.922852,4514.102539,4393.717773,4436.922852,1720.000000,0.000000,14.000000,,,,0.000000,2.000000,2.000000,0.000000,2.000000,2.000000,2.000000,0.000000,2.000000,4.000000,4.000000,4.000000,4.000000,2.000000,4.000000,16.666666,,,,,,,,,,,,,,,,,23.000000,0.000000,0.618647,0.399414,-0.603088,0.306641,0.983030,0.118667,-0.041021,-76.323830,64.071388,26.997391
1732081346.325053,1732081346.326945,93.000000,0.000000,4350.128418,4347.436035,4355.384766,4355.512695,4341.794922,4370.897461,4316.666504,4394.615234,4385.000000,4381.282227,4478.974121,4509.358887,4389.358887,4437.307617,1638.000000,0.000000,14.000000,,,,0.000000,2.000000,2.000000,0.000000,2.000000,2.000000,2.000000,0.000000,2.000000,4.000000,4.000000,4.000000,4.000000,2.000000,4.000000,16.666666,,,,,,,,,,,,,,,,,,,,,,,,,,,,
1732081346.332861,1732081346.334953,94.000000,0.000000,4348.974121,4348.974121,4353.205078,4354.102539,4355.000000,4367.436035,4314.102539,4393.077148,4382.820313,4379.358887,4477.563965,4508.717773,4387.820313,4437.179688,1361.000000,0.000000,14.000000,,,,0.000000,2.000000,2.000000,0.000000,2.000000,2.000000,2.000000,0.000000,2.000000,4.000000,4.000000,4.000000,4.000000,2.000000,4.000000,16.666666,,,,,,,,,,,,,,,,,,,,,,,,,,,,
1732081346.340670,1732081346.342762,95.000000,0.000000,4349.487305,4348.461426,4353.333496,4355.384766,4351.282227,4369.743652,4316.794922,4394.871582,4384.102539,4378.846191,4475.769043,4512.051270,4390.769043,4435.384766,1486.000000,0.000000,14.000000,,,,0.000000,2.000000,2.000000,0.000000,2.000000,2.000000,2.000000,0.000000,2.000000,4.000000,4.000000,4.000000,4.000000,2.000000,4.000000,16.666666,,,,,,,,,,,,,,,,,,,,,,,,,,,,
1732081346.348478,1732081346.350670,96.000000,0.000000,4347.692383,4348.077148,4350.897461,4356.794922,4343.333496,4372.307617,4316.410156,4392.948730,4385.256348,4378.846191,4472.948730,4506.282227,4389.871582,4436.794922,1720.000000,0.000000,14.000000,,,,0.000000,2.000000,2.000000,0.000000,2.000000,2.000000,2.000000,0.000000,2.000000,4.000000,4.000000,4.000000,4.000000,2.000000,4.000000,16.666666,,,,,,,,,,,,,,,,,24.000000,0.000000,0.618656,0.399353,-0.603088,0.306702,0.983030,0.118667,-0.041021,-76.448967,64.066162,27.062887
1732081346.356286,1732081346.358478,97.000000,0.000000,4343.589844,4346.282227,4353.077148,4355.512695,4353.589844,4371.282227,4313.589844,4389.871582,4383.589844,4377.436035,4473.717773,4503.589844,4388.846191,4439.487305,1638.000000,0.000000,14.000000,,,,0.000000,2.000000,2.000000,0.000000,2.000000,2.000000,2.000000,0.000000,2.000000,4.000000,4.000000,4.000000,4.000000,2.000000,4.000000,16.666666,,,,,,,,,,,,,,,,,,,,,,,,,,,,
1732081346.364094,1732081346.366486,98.000000,0.000000,4343.974121,4345.512695,4355.128418,4357.563965,4363.461426,4367.179688,4311.153809,4389.230957,4383.717773,4375.384766,4474.102539,4509.487305,4391.410156,4440.512695,1361.000000,0.000000,14.000000,,,,0.000000,2.000000,2.000000,0.000000,2.000000,2.000000,2.000000,0.000000,2.000000,4.000000,4.000000,4.000000,4.000000,2.000000,4.000000,16.666666,,,,,,,,,,,,,,,,,,,,,,,,,,,,
1732081346.371902,1732081346.374294,99.000000,0.000000,4345.512695,4346.282227,4357.307617,4360.128418,4348.333496,4366.794922,4314.230957,4387.436035,4385.641113,4377.179688,4472.307617,4511.410156,4390.256348,4438.461426,1486.000000,0.000000,14.000000,,,,0.000000,2.000000,2.000000,0.000000,2.000000,2.000000,2.000000,0.000000,2.000000,4.000000,4.000000,4.000000,4.000000,2.000000,4.000000,16.666666,,,,,,,,,,,,,,,,,,,,,,,,,,,,
1732081346.379711,1732081346.382102,100.000000,0.000000,4344.487305,4347.948730,4354.615234,4359.102539,4338.077148,4371.666504,4313.333496,4387.436035,4385.256348,4380.897461,4473.333496,4508.077148,4389.358887,4436.025879,1720.000000,0.000000,14.000000,,,,0.000000,2.000000,2.000000,0.000000,2.000000,2.000000,2.000000,0.000000,2.000000,4.000000,4.000000,4.000000,4.000000,2.000000,4.000000,16.666666,,,,,,,,,,,,,,,,,25.000000,0.000000,0.618665,0.399292,-0.603088,0.306763,0.982542,0.120620,-0.040044,-76.430328,64.165260,27.055939
1732081346.387519,1732081346.389911,101.000000,0.000000,4342.307617,4347.948730,4353.589844,4357.051270,4351.794922,4372.692383,4310.897461,4386.538574,4379.743652,4376.538574,4472.692383,4504.871582,4391.794922,4435.256348,1638.000000,0.000000,14.000000,,,,0.000000,2.000000,2.000000,0.000000,2.000000,2.000000,2.000000,0.000000,2.000000,4.000000,4.000000,4.000000,4.000000,2.000000,4.000000,16.666666,,,,,,,,,,,,,,,,,,,,,,,,,,,,
1732081346.395327,1732081346.397519,102.000000,0.000000,4339.487305,4344.743652,4354.230957,4356.282227,4351.538574,4368.717773,4310.769043,4384.102539,4376.153809,4367.820313,4468.717773,4502.436035,4387.820313,4433.717773,1361.000000,0.000000,14.000000,,,,0.000000,2.000000,2.000000,0.000000,2.000000,2.000000,2.000000,0.000000,2.000000,4.000000,4.000000,4.000000,4.000000,2.000000,4.000000,16.666666,,,,,,,,,,,,,,,,,,,,,,,,,,,,
1732081346.403135,1732081346.405327,103.000000,0.000000,4336.922852,4342.820313,4356.922852,4356.538574,4338.461426,4369.230957,4312.436035,4385.384766,4379.615234,4368.333496,4466.025879,4501.922852,4381.153809,4430.769043,1486.000000,0.000000,14.000000,,,,0.000000,2.000000,2.000000,0.000000,2.000000,2.000000,2.000000,0.000000,2.000000,4.000000,4.000000,4.000000,4.000000,2.000000,4.000000,16.666666,,,,,,,,,,,,,,,,,,,,,,,,,,,,
1732081346.410944,1732081346.413035,104.000000,0.000000,4341.410156,4343.717773,4356.922852,4356.025879,4353.077148,4368.846191,4311.282227,4386.410156,4381.794922,4372.051270,4467.179688,4502.820313,4382.307617,4428.974121,1720.000000,0.000000,14.000000,,,,0.000000,2.000000,2.000000,0.000000,2.000000,2.000000,2.000000,0.000000,2.000000,4.000000,4.000000,4.000000,4.000000,2.000000,4.000000,16.666666,,,,,,,,,,,,,,,,,26.000000,0.000000,0.618486,0.398926,-0.603577,0.306641,0.975217,0.128434,-0.049811,-76.323570,64.100525,27.180311
1732081346.418752,1732081346.420844,105.000000,0.000000,4350.769043,4343.974121,4353.846191,4354.358887,4361.666504,4361.666504,4307.820313,4385.512695,4380.769043,4370.769043,4469.871582,4502.948730,4390.128418,4437.307617,1638.000000,0.000000,14.000000,,,,0.000000,2.000000,2.000000,0.000000,2.000000,2.000000,2.000000,0.000000,2.000000,4.000000,4.000000,4.000000,4.000000,2.000000,4.000000,16.666666,,,,,,,,,,,,,,,,,,,,,,,,,,,,
1732081346.426560,1732081346.428452,106.000000,0.000000,4352.948730,4343.589844,4359.615234,4352.820313,4340.769043,4361.666504,4310.897461,4383.589844,4378.077148,4369.102539,4472.051270,4505.256348,4395.256348,4446.538574,1361.000000,0.000000,14.000000,,,,0.000000,2.000000,2.000000,0.000000,2.000000,2.000000,2.000000,0.000000,2.000000,4.000000,4.000000,4.000000,4.000000,2.000000,4.000000,16.666666,,,,,,,,,,,,,,,,,,,,,,,,,,,,
1732081346.434368,1732081346.436260,107.000000,0.000000,4348.077148,4347.436035,4355.384766,4353.846191,4334.230957,4367.692383,4311.410156,4383.077148,4377.436035,4369.230957,4471.410156,4505.384766,4393.333496,4443.846191,1486.000000,0.000000,14.000000,,,,0.000000,2.000000,2.000000,0.000000,2.000000,2.000000,2.000000,0.000000,2.000000,4.000000,4.000000,4.000000,4.000000,2.000000,4.000000,16.666666,,,,,,,,,,,,,,,,,,,,,,,,,,,,
1732081346.442177,1732081346.443969,108.000000,0.000000,4343.589844,4345.897461,4349.230957,4353.077148,4344.102539,4366.282227,4312.436035,4387.820313,4380.641113,4368.717773,4468.717773,4505.256348,4389.102539,4436.282227,1720.000000,0.000000,14.000000,,,,0.000000,2.000000,2.000000,0.000000,2.000000,2.000000,2.000000,0.000000,2.000000,4.000000,4.000000,4.000000,4.000000,2.000000,4.000000,16.666666,,,,,,,,,,,,,,,,,27.000000,0.000000,0.618469,0.398865,-0.603882,0.306152,0.998169,0.129899,-0.057136,-76.357086,64.051422,27.431051
1732081346.449985,1732081346.451777,109.000000,0.000000,4343.717773,4342.179688,4350.256348,4353.333496,4344.358887,4366.153809,4312.820313,4394.230957,4387.436035,4372.563965,4470.897461,4506.410156,4390.512695,4437.692383,1638.000000,0.000000,14.000000,,,,0.000000,2.000000,2.000000,0.000000,2.000000,2.000000,2.000000,0.000000,2.000000,4.000000,4.000000,4.000000,4.000000,2.000000,4.000000,16.666666,,,,,,,,,,,,,,,,,,,,,,,,,,,,
1732081346.457793,1732081346.459385,110.000000,0.000000,4346.794922,4346.666504,4357.820313,4357.436035,4338.974121,4369.743652,4315.769043,4392.436035,4388.846191,4374.743652,4474.743652,4505.128418,4395.128418,4439.743652,1361.000000,0.000000,14.000000,,,,0.000000,2.000000,2.000000,0.000000,2.000000,2.000000,2.000000,0.000000,2.000000,4.000000,4.000000,4.000000,4.000000,2.000000,4.000000,16.666666,,,,,,,,,,,,,,,,,,,,,,,,,,,,
1732081346.465601,1732081346.467193,111.000000,0.000000,4344.871582,4346.794922,4353.461426,4357.436035,4342.948730,4370.384766,4315.000000,4387.563965,4386.410156,4375.384766,4474.615234,4502.563965,4393.589844,4435.641113,1486.000000,0.000000,14.000000,,,,0.000000,2.000000,2.000000,0.000000,2.000000,2.000000,2.000000,0.000000,2.000000,4.000000,4.000000,4.000000,4.000000,2.000000,4.000000,16.666666,,,,,,,,,,,,,,,,,,,,,,,,,,,,
1732081346.473410,1732081346.474902,112.000000,0.000000,4336.025879,4340.384766,4352.179688,4352.692383,4343.974121,4370.128418,4315.897461,4388.589844,4386.922852,4376.922852,4470.256348,4506.410156,4385.897461,4431.922852,1720.000000,0.000000,14.000000,,,,0.000000,2.000000,2.000000,0.000000,2.000000,2.000000,2.000000,0.000000,2.000000,4.000000,4.000000,4.000000,4.000000,2.000000,4.000000,16.666666,,,,,,,,,,,,,,,,,28.000000,0.000000,0.618482,0.398987,-0.603943,0.305847,0.998169,0.129899,-0.057136,-76.822578,64.154991,27.310818
1732081346.481218,1732081346.482710,113.000000,0.000000,4339.487305,4345.128418,4354.102539,4355.769043,4339.487305,4370.128418,4313.717773,4388.717773,4385.897461,4373.461426,4469.230957,4508.461426,4384.743652,4434.102539,1638.000000,0.000000,14.000000,,,,0.000000,2.000000,2.000000,0.000000,2.000000,2.000000,2.000000,0.000000,2.000000,4.000000,4.000000,4.000000,4.000000,2.000000,4.000000,16.666666,,,,,,,,,,,,,,,,,,,,,,,,,,,,
1732081346.489026,1732081346.490318,114.000000,0.000000,4352.563965,4353.077148,4354.743652,4358.846191,4347.692383,4363.205078,4310.384766,4385.384766,4381.538574,4367.692383,4474.230957,4505.897461,4392.692383,4441.025879,1361.000000,0.000000,14.000000,,,,0.000000,2.000000,2.000000,0.000000,2.000000,2.000000,2.000000,0.000000,2.000000,4.000000,4.000000,4.000000,4.000000,2.000000,4.000000,16.666666,,,,,,,,,,,,,,,,,,,,,,,,,,,,
1732081346.496834,1732081346.498127,115.000000,0.000000,4355.897461,4350.769043,4355.512695,4353.974121,4354.487305,4359.487305,4311.153809,4382.948730,4377.948730,4367.051270,4473.846191,4507.179688,4395.128418,4444.615234,1486.000000,0.000000,14.000000,,,,0.000000,2.000000,2.000000,0.000000,2.000000,2.000000,2.000000,0.000000,2.000000,4.000000,4.000000,4.000000,4.000000,2.000000,4.000000,16.666666,,,,,,,,,,,,,,,,,,,,,,,,,,,,
1732081346.504643,1732081346.505835,116.000000,0.000000,4355.641113,4347.307617,4354.615234,4353.205078,4339.871582,4364.615234,4316.410156,4384.487305,4377.051270,4368.077148,4470.769043,4511.538574,4392.563965,4443.974121,1720.000000,0.000000,14.000000,,,,0.000000,2.000000,2.000000,0.000000,2.000000,2.000000,2.000000,0.000000,2.000000,4.000000,4.000000,4.000000,4.000000,2.000000,4.000000,16.666666,,,,,,,,,,,,,,,,,29.000000,0.000000,0.619209,0.399719,-0.603577,0.304138,0.945916,0.125015,-0.045416,-76.894623,64.137207,27.433430
1732081346.512451,1732081346.513643,117.000000,0.000000,4363.846191,4350.769043,4353.974121,4360.128418,4327.563965,4365.512695,4315.769043,4387.307617,4377.948730,4366.666504,4472.563965,4513.077148,4395.641113,4447.307617,1638.000000,0.000000,14.000000,,,,0.000000,2.000000,2.000000,0.000000,2.000000,2.000000,2.000000,0.000000,2.000000,4.000000,4.000000,4.000000,4.000000,2.000000,4.000000,16.666666,,,,,,,,,,,,,,,,,,,,,,,,,,,,
1732081346.520259,1732081346.521651,118.000000,0.000000,4367.436035,4351.025879,4355.128418,4359.102539,4334.871582,4361.666504,4311.794922,4387.307617,4378.077148,4361.794922,4471.922852,4511.025879,4395.641113,4451.282227,1361.000000,0.000000,14.000000,,,,0.000000,2.000000,2.000000,0.000000,2.000000,2.000000,2.000000,0.000000,2.000000,4.000000,4.000000,4.000000,4.000000,2.000000,4.000000,16.666666,,,,,,,,,,,,,,,,,,,,,,,,,,,,
1732081346.528067,1732081346.529459,119.000000,0.000000,4360.384766,4347.179688,4356.153809,4353.205078,4335.384766,4360.512695,4311.666504,4387.948730,4377.179688,4356.538574,4467.563965,4509.358887,4387.051270,4447.436035,1486.000000,0.000000,14.000000,,,,0.000000,2.000000,2.000000,0.000000,2.000000,2.000000,2.000000,0.000000,2.000000,4.000000,4.000000,4.000000,4.000000,2.000000,4.000000,16.666666,,,,,,,,,,,,,,,,,,,,,,,,,,,,
1732081346.535875,1732081346.537167,120.000000,0.000000,4358.846191,4347.820313,4355.000000,4352.948730,4331.666504,4361.794922,4311.666504,4388.589844,4376.922852,4355.769043,4466.153809,4507.820313,4383.589844,4445.641113,1720.000000,0.000000,14.000000,,,,0.000000,2.000000,2.000000,0.000000,2.000000,2.000000,2.000000,0.000000,2.000000,4.000000,4.000000,4.000000,4.000000,2.000000,4.000000,16.666666,,,,,,,,,,,,,,,,,30.000000,0.000000,0.620519,0.399719,-0.602722,0.303162,0.980100,0.150409,-0.046392,-76.736305,64.156136,27.532745
1732081346.543684,1732081346.544975,121.000000,0.000000,4360.256348,4350.384766,4355.769043,4353.077148,4340.897461,4362.692383,4314.615234,4388.333496,4375.000000,4353.717773,4466.153809,4506.153809,4383.589844,4447.436035,1638.000000,0.000000,14.000000,,,,0.000000,2.000000,2.000000,0.000000,2.000000,2.000000,2.000000,0.000000,2.000000,4.000000,4.000000,4.000000,4.000000,2.000000,4.000000,16.666666,,,,,,,,,,,,,,,,,,,,,,,,,,,,
1732081346.551492,1732081346.552583,122.000000,0.000000,4358.717773,4351.025879,4355.769043,4356.538574,4341.794922,4366.410156,4316.025879,4389.615234,4374.487305,4349.102539,4466.538574,4503.846191,4382.692383,4442.051270,1361.000000,0.000000,14.000000,,,,0.000000,2.000000,2.000000,0.000000,2.000000,2.000000,2.000000,0.000000,2.000000,4.000000,4.000000,4.000000,4.000000,2.000000,4.000000,16.666666,,,,,,,,,,,,,,,,,,,,,,,,,,,,
1732081346.559300,1732081346.560391,123.000000,0.000000,4358.589844,4350.769043,4356.538574,4360.128418,4343.205078,4368.717773,4314.871582,4392.179688,4376.922852,4347.948730,4467.436035,4504.615234,4383.205078,4435.512695,1486.000000,0.000000,14.000000,,,,0.000000,2.000000,2.000000,0.000000,2.000000,2.000000,2.000000,0.000000,2.000000,4.000000,4.000000,4.000000,4.000000,2.000000,4.000000,16.666666,,,,,,,,,,,,,,,,,,,,,,,,,,,,
1732081346.567109,1732081346.568099,124.000000,0.000000,4358.717773,4351.153809,4355.000000,4356.153809,4357.051270,4365.256348,4310.512695,4389.102539,4376.922852,4349.615234,4471.025879,4506.794922,4384.871582,4439.358887,1720.000000,0.000000,14.000000,,,,0.000000,2.000000,2.000000,0.000000,2.000000,2.000000,2.000000,0.000000,2.000000,4.000000,4.000000,4.000000,4.000000,2.000000,4.000000,16.666666,,,,,,,,,,,,,,,,,31.000000,0.000000,0.621032,0.399658,-0.602295,0.303040,0.995239,0.147479,-0.049322,-76.596413,64.379807,27.336523
1732081346.574917,1732081346.575907,125.000000,0.000000,4354.230957,4348.205078,4356.153809,4352.307617,4351.282227,4363.846191,4313.589844,4383.846191,4376.922852,4350.897461,4473.717773,4507.436035,4385.769043,4444.358887,1638.000000,0.000000,14.000000,,,,0.000000,2.000000,2.000000,0.000000,2.000000,2.000000,2.000000,0.000000,2.000000,4.000000,4.000000,4.000000,4.000000,2.000000,4.000000,16.666666,,,,,,,,,,,,,,,,,,,,,,,,,,,,
1732081346.582725,1732081346.583515,126.000000,0.000000,4351.025879,4346.153809,4354.102539,4355.897461,4336.410156,4368.974121,4316.794922,4390.641113,4381.153809,4357.179688,4477.307617,4506.538574,4385.897461,4441.410156,1361.000000,0.000000,14.000000,,,,0.000000,2.000000,2.000000,0.000000,2.000000,2.000000,2.000000,0.000000,2.000000,4.000000,4.000000,4.000000,4.000000,2.000000,4.000000,16.666666,,,,,,,,,,,,,,,,,,,,,,,,,,,,
1732081346.590533,1732081346.591323,127.000000,0.000000,4355.256348,4348.077148,4358.846191,4356.666504,4339.743652,4371.538574,4319.102539,4396.794922,4382.820313,4360.641113,4477.948730,4505.641113,4384.871582,4440.641113,14.000000,0.000000,14.000000,,,,0.000000,2.000000,2.000000,0.000000,2.000000,2.000000,2.000000,0.000000,2.000000,4.000000,4.000000,4.000000,4.000000,2.000000,4.000000,16.666666,,,,,,,,,,,,,,,,,,,,,,,,,,,,
1732081346.598342,1732081346.599031,0.000000,0.000000,4357.948730,4347.948730,4364.615234,4352.307617,4342.820313,4369.102539,4316.282227,4390.897461,4380.897461,4358.205078,4474.358887,4505.512695,4384.230957,4441.794922,1.000000,0.000000,14.000000,,,,0.000000,2.000000,2.000000,0.000000,2.000000,2.000000,2.000000,0.000000,2.000000,4.000000,4.000000,4.000000,4.000000,2.000000,4.000000,16.666666,,,,,,,,,,,,,,,,,0.000000,0.000000,0.621382,0.399109,-0.601868,0.303894,0.982053,0.129899,-0.038579,-76.578094,64.402641,27.304251
1732081346.606150,1732081346.606839,1.000000,0.000000,4357.692383,4344.102539,4368.333496,4350.128418,4334.230957,4365.512695,4315.769043,4386.410156,4377.948730,4358.974121,4475.769043,4510.256348,4382.563965,4437.436035,1279.000000,0.000000,14.000000,,,,0.000000,2.000000,2.000000,0.000000,2.000000,2.000000,2.000000,0.000000,2.000000,4.000000,4.000000,4.000000,4.000000,2.000000,4.000000,16.666666,,,,,,,,,,,,,,,,,,,,,,,,,,,,
1732081346.613958,1732081346.614847,2.000000,0.000000,4361.538574,4340.384766,4368.717773,4352.179688,4335.641113,4363.461426,4321.025879,4390.769043,4375.128418,4358.717773,4476.794922,4514.230957,4380.256348,4436.666504,1205.000000,0.000000,14.000000,,,,0.000000,2.000000,2.000000,0.000000,2.000000,2.000000,2.000000,0.000000,2.000000,4.000000,4.000000,4.000000,4.000000,2.000000,4.000000,16.666666,,,,,,,,,,,,,,,,,,,,,,,,,,,,
1732081346.621766,1732081346.622655,3.000000,0.000000,4365.000000,4341.410156,4368.974121,4354.102539,4337.563965,4363.717773,4324.358887,4393.461426,4373.205078,4352.692383,4470.641113,4509.871582,4379.615234,4438.205078,1158.000000,0.000000,14.000000,,,,0.000000,2.000000,2.000000,0.000000,2.000000,2.000000,2.000000,0.000000,2.000000,4.000000,4.000000,4.000000,4.000000,2.000000,4.000000,16.666666,,,,,,,,,,,,,,,,,,,,,,,,,,,,
1732081346.629574,1732081346.630564,4.000000,0.000000,4364.615234,4344.743652,4366.282227,4354.487305,4331.922852,4365.897461,4321.282227,4390.384766,4374.358887,4350.000000,4465.769043,4503.974121,4378.974121,4432.051270,1185.000000,0.000000,14.000000,,,,0.000000,2.000000,2.000000,0.000000,2.000000,2.000000,2.000000,0.000000,2.000000,4.000000,4.000000,4.000000,4.000000,2.000000,4.000000,16.666666,,,,,,,,,,,,,,,,,1.000000,0.000000,0.620745,0.398560,-0.601807,0.306030,0.961055,0.122574,-0.011232,-76.338257,64.487808,27.239777
1732081346.637383,1732081346.638372,5.000000,0.000000,4364.743652,4344.487305,4362.563965,4353.589844,4343.333496,4364.615234,4318.717773,4388.589844,4376.666504,4352.436035,4467.436035,4500.897461,4379.487305,4427.179688,1057.000000,0.000000,14.000000,,,,0.000000,2.000000,2.000000,0.000000,2.000000,2.000000,2.000000,0.000000,2.000000,4.000000,4.000000,4.000000,4.000000,2.000000,4.000000,16.666666,,,,,,,,,,,,,,,,,,,,,,,,,,,,
1732081346.645191,1732081346.646380,6.000000,0.000000,4369.487305,4342.692383,4361.922852,4352.307617,4351.538574,4362.692383,4318.589844,4387.307617,4379.102539,4351.538574,4470.128418,4499.487305,4383.205078,4434.615234,182.000000,0.000000,14.000000,,,,0.000000,2.000000,2.000000,0.000000,2.000000,2.000000,2.000000,0.000000,2.000000,4.000000,4.000000,4.000000,4.000000,2.000000,4.000000,16.666666,,,,,,,,,,,,,,,,,,,,,,,,,,,,
1732081346.652999,1732081346.654188,7.000000,0.000000,4373.846191,4344.358887,4358.717773,4352.179688,4334.102539,4364.871582,4317.563965,4387.179688,4379.102539,4347.820313,4472.179688,4499.358887,4384.487305,4439.743652,1184.000000,0.000000,14.000000,,,,0.000000,2.000000,2.000000,0.000000,2.000000,2.000000,2.000000,0.000000,2.000000,4.000000,4.000000,4.000000,4.000000,2.000000,4.000000,16.666666,,,,,,,,,,,,,,,,,,,,,,,,,,,,
1732081346.660807,1732081346.662096,8.000000,0.000000,4374.743652,4343.205078,4358.846191,4355.384766,4326.282227,4365.384766,4317.692383,4387.307617,4375.256348,4347.692383,4473.717773,4502.820313,4384.358887,4436.538574,1334.000000,0.000000,14.000000,,,,0.000000,2.000000,2.000000,0.000000,2.000000,2.000000,2.000000,0.000000,2.000000,4.000000,4.000000,4.000000,4.000000,2.000000,4.000000,16.666666,,,,,,,,,,,,,,,,,2.000000,0.000000,0.620272,0.398132,-0.602173,0.306824,0.977658,0.100110,-0.041021,-76.183983,64.550125,27.452553
1732081346.668616,1732081346.669904,9.000000,0.000000,4373.846191,4340.641113,4359.102539,4359.102539,4342.820313,4361.794922,4316.025879,4386.282227,4373.846191,4350.512695,4473.717773,4503.333496,4390.897461,4439.230957,1466.000000,0.000000,14.000000,,,,0.000000,2.000000,2.000000,0.000000,2.000000,2.000000,2.000000,0.000000,2.000000,4.000000,4.000000,4.000000,4.000000,2.000000,4.000000,16.666666,,,,,,,,,,,,,,,,,,,,,,,,,,,,
1732081346.676424,1732081346.677512,10.000000,0.000000,4373.077148,4342.563965,4357.820313,4359.615234,4343.974121,4361.794922,4315.641113,4386.666504,4377.820313,4353.589844,4477.820313,4502.307617,4397.563965,4446.794922,1359.000000,0.000000,14.000000,,,,0.000000,2.000000,2.000000,0.000000,2.000000,2.000000,2.000000,0.000000,2.000000,4.000000,4.000000,4.000000,4.000000,2.000000,4.000000,16.666666,,,,,,,,,,,,,,,,,,,,,,,,,,,,
1732081346.684232,1732081346.685320,11.000000,0.000000,4374.102539,4345.641113,4353.974121,4358.974121,4337.307617,4366.025879,4313.461426,4386.794922,4381.153809,4355.128418,4481.538574,4499.743652,4397.179688,4447.563965,1486.000000,0.000000,14.000000,,,,0.000000,2.000000,2.000000,0.000000,2.000000,2.000000,2.000000,0.000000,2.000000,4.000000,4.000000,4.000000,4.000000,2.000000,4.000000,16.666666,,,,,,,,,,,,,,,,,,,,,,,,,,,,
1732081346.692040,1732081346.693229,12.000000,0.000000,4371.666504,4344.487305,4354.230957,4355.769043,4352.563965,4364.358887,4312.436035,4383.974121,4376.794922,4352.948730,4476.794922,4496.282227,4394.615234,4441.025879,1720.000000,0.000000,14.000000,,,,0.000000,2.000000,2.000000,0.000000,2.000000,2.000000,2.000000,0.000000,2.000000,4.000000,4.000000,4.000000,4.000000,2.000000,4.000000,16.666666,,,,,,,,,,,,,,,,,3.000000,0.000000,0.619860,0.397888,-0.602478,0.307373,0.981077,0.107923,-0.043462,-76.242363,64.497269,27.386566
1732081346.699849,1732081346.701037,13.000000,0.000000,4370.769043,4344.743652,4354.102539,4355.384766,4359.230957,4360.641113,4312.948730,4380.897461,4373.846191,4351.794922,4475.641113,4496.666504,4394.358887,4440.000000,1639.000000,0.000000,14.000000,,,,0.000000,2.000000,2.000000,0.000000,2.000000,2.000000,2.000000,0.000000,2.000000,4.000000,4.000000,4.000000,4.000000,2.000000,4.000000,16.666666,,,,,,,,,,,,,,,,,,,,,,,,,,,,
1732081346.707657,1732081346.709045,14.000000,0.000000,4372.436035,4348.205078,4355.641113,4361.153809,4343.077148,4364.743652,4316.794922,4381.666504,4376.666504,4352.692383,4477.179688,4500.641113,4393.077148,4441.666504,1359.000000,0.000000,14.000000,,,,0.000000,2.000000,2.000000,0.000000,2.000000,2.000000,2.000000,0.000000,2.000000,4.000000,4.000000,4.000000,4.000000,2.000000,4.000000,16.666666,1.000000,0.000000,2.000000,2.000000,0.000000,2.000000,1.000000,2.000000,0.000000,0.000000,1.000000,3.000000,4.000000,4.000000,2.000000,3.000000,,,,,,,,,,,,
1732081346.715465,1732081346.716853,15.000000,0.000000,4372.820313,4349.615234,4355.128418,4364.615234,4338.333496,4366.794922,4313.846191,4385.641113,4378.205078,4355.000000,4476.153809,4501.282227,4390.512695,4440.256348,1486.000000,0.000000,14.000000,,,,0.000000,2.000000,2.000000,0.000000,2.000000,2.000000,2.000000,0.000000,2.000000,4.000000,4.000000,4.000000,4.000000,2.000000,4.000000,16.666666,,,,,,,,,,,,,,,,,,,,,,,,,,,,
1732081346.723273,1732081346.724761,16.000000,0.000000,4371.538574,4347.820313,4356.153809,4360.384766,4346.666504,4363.589844,4310.897461,4385.769043,4378.205078,4356.410156,4475.897461,4499.487305,4390.000000,4440.769043,0.000000,0.000000,14.000000,,,,0.000000,2.000000,2.000000,0.000000,2.000000,2.000000,2.000000,0.000000,2.000000,4.000000,4.000000,4.000000,4.000000,2.000000,4.000000,16.666666,,,,,,,,,,,,,,,,,4.000000,0.000000,0.618310,0.398132,-0.602722,0.309692,0.982053,0.106458,-0.044439,-76.312981,64.281120,27.351452
1732081346.731082,1732081346.732569,17.000000,0.000000,4370.897461,4348.077148,4354.487305,4355.641113,4347.051270,4361.153809,4312.820313,4384.871582,4377.692383,4355.384766,4475.256348,4497.307617,4391.282227,4440.769043,0.000000,0.000000,14.000000,,,,0.000000,2.000000,2.000000,0.000000,2.000000,2.000000,2.000000,0.000000,2.000000,4.000000,4.000000,4.000000,4.000000,2.000000,4.000000,16.666666,,,,,,,,,,,,,,,,,,,,,,,,,,,,
1732081346.738890,1732081346.740577,18.000000,0.000000,4371.538574,4348.846191,4352.820313,4354.615234,4341.025879,4360.000000,4314.230957,4384.743652,4376.922852,4353.077148,4473.333496,4496.410156,4391.922852,4437.692383,0.000000,0.000000,14.000000,,,,0.000000,2.000000,2.000000,0.000000,2.000000,2.000000,2.000000,0.000000,2.000000,4.000000,4.000000,4.000000,4.000000,2.000000,4.000000,16.666666,,,,,,,,,,,,,,,,,,,,,,,,,,,,
1732081346.746698,1732081346.748385,19.000000,0.000000,4370.897461,4347.179688,4353.974121,4354.487305,4335.641113,4359.487305,4310.384766,4383.333496,4378.077148,4351.410156,4471.922852,4497.692383,4391.922852,4437.179688,0.000000,0.000000,14.000000,,,,0.000000,2.000000,2.000000,0.000000,2.000000,2.000000,2.000000,0.000000,2.000000,4.000000,4.000000,4.000000,4.000000,2.000000,4.000000,16.666666,,,,,,,,,,,,,,,,,,,,,,,,,,,,
1732081346.754506,1732081346.756294,20.000000,0.000000,4366.794922,4343.974121,4356.282227,4352.820313,4343.974121,4358.333496,4312.051270,4381.282227,4375.128418,4348.589844,4474.102539,4498.461426,4391.666504,4436.922852,0.000000,0.000000,14.000000,,,,0.000000,2.000000,2.000000,0.000000,2.000000,2.000000,2.000000,0.000000,2.000000,4.000000,4.000000,4.000000,4.000000,2.000000,4.000000,16.666666,,,,,,,,,,,,,,,,,5.000000,0.000000,0.617415,0.398621,-0.602783,0.310730,1.001099,0.078135,-0.043951,-76.466850,64.354370,27.501343
1732081346.762315,1732081346.764102,21.000000,0.000000,4363.205078,4343.974121,4355.897461,4351.794922,4357.563965,4358.205078,4317.436035,4380.384766,4371.410156,4345.769043,4475.769043,4498.846191,4391.410156,4434.487305,0.000000,0.000000,14.000000,,,,0.000000,2.000000,2.000000,0.000000,2.000000,2.000000,2.000000,0.000000,2.000000,4.000000,4.000000,4.000000,4.000000,2.000000,4.000000,16.666666,,,,,,,,,,,,,,,,,,,,,,,,,,,,
1732081346.770123,1732081346.772110,22.000000,0.000000,4363.846191,4347.179688,4355.512695,4354.743652,4345.769043,4361.153809,4315.128418,4381.922852,4376.922852,4350.128418,4476.538574,4501.153809,4394.102539,4436.282227,0.000000,0.000000,14.000000,,,,0.000000,2.000000,2.000000,0.000000,2.000000,2.000000,2.000000,0.000000,2.000000,4.000000,4.000000,4.000000,4.000000,2.000000,4.000000,16.666666,,,,,,,,,,,,,,,,,,,,,,,,,,,,
1732081346.777931,1732081346.779918,23.000000,0.000000,4365.769043,4347.307617,4356.666504,4360.384766,4330.384766,4363.717773,4312.692383,4382.948730,4380.000000,4353.974121,4480.256348,4502.179688,4396.282227,4437.948730,0.000000,0.000000,14.000000,,,,0.000000,2.000000,2.000000,0.000000,2.000000,2.000000,2.000000,0.000000,2.000000,4.000000,4.000000,4.000000,4.000000,2.000000,4.000000,16.666666,,,,,,,,,,,,,,,,,,,,,,,,,,,,
1732081346.785739,1732081346.787626,24.000000,0.000000,4364.615234,4342.820313,4354.102539,4360.128418,4340.769043,4361.666504,4315.512695,4381.794922,4373.717773,4349.102539,4478.333496,4499.743652,4394.487305,4436.538574,0.000000,0.000000,14.000000,,,,0.000000,2.000000,2.000000,0.000000,2.000000,2.000000,2.000000,0.000000,2.000000,4.000000,4.000000,4.000000,4.000000,2.000000,4.000000,16.666666,,,,,,,,,,,,,,,,,6.000000,0.000000,0.617415,0.398621,-0.602783,0.310730,0.995239,0.083995,-0.049322,-76.441483,64.413712,27.817755
1732081346.793548,1732081346.795435,25.000000,0.000000,4362.307617,4341.538574,4353.205078,4353.846191,4348.205078,4361.538574,4315.512695,4380.384766,4372.563965,4346.153809,4476.410156,4501.666504,4391.794922,4440.769043,0.000000,0.000000,14.000000,,,,0.000000,2.000000,2.000000,0.000000,2.000000,2.000000,2.000000,0.000000,2.000000,4.000000,4.000000,4.000000,4.000000,2.000000,4.000000,16.666666,,,,,,,,,,,,,,,,,,,,,,,,,,,,
1732081346.801356,1732081346.803443,26.000000,0.000000,4363.461426,4344.871582,4351.922852,4353.205078,4338.589844,4365.897461,4312.692383,4382.307617,4380.769043,4355.897461,4481.794922,4504.871582,4393.846191,4445.384766,0.000000,0.000000,14.000000,,,,0.000000,2.000000,2.000000,0.000000,2.000000,2.000000,2.000000,0.000000,2.000000,4.000000,4.000000,4.000000,4.000000,2.000000,4.000000,16.666666,,,,,,,,,,,,,,,,,,,,,,,,,,,,
1732081346.809164,1732081346.811251,27.000000,0.000000,4364.102539,4344.743652,4350.256348,4355.512695,4344.230957,4365.000000,4315.000000,4383.077148,4383.846191,4363.589844,4485.769043,4503.205078,4398.077148,4441.410156,0.000000,0.000000,14.000000,,,,0.000000,2.000000,2.000000,0.000000,2.000000,2.000000,2.000000,0.000000,2.000000,4.000000,4.000000,4.000000,4.000000,2.000000,4.000000,16.666666,,,,,,,,,,,,,,,,,,,,,,,,,,,,
1732081346.816972,1732081346.818959,28.000000,0.000000,4359.871582,4342.820313,4348.077148,4351.538574,4355.641113,4360.000000,4313.205078,4381.666504,4380.641113,4361.153809,4483.333496,4499.102539,4398.333496,4438.077148,0.000000,0.000000,14.000000,,,,0.000000,2.000000,2.000000,0.000000,2.000000,2.000000,2.000000,0.000000,2.000000,4.000000,4.000000,4.000000,4.000000,2.000000,4.000000,16.666666,,,,,,,,,,,,,,,,,7.000000,0.000000,0.615535,0.398193,-0.603882,0.312866,0.965938,0.066414,-0.048834,-76.617599,64.160103,27.744047
1732081346.824781,1732081346.826767,29.000000,0.000000,4356.410156,4341.922852,4348.589844,4348.589844,4343.589844,4360.641113,4314.358887,4382.948730,4383.077148,4359.102539,4483.589844,4498.333496,4398.461426,4439.743652,0.000000,0.000000,14.000000,,,,0.000000,2.000000,2.000000,0.000000,2.000000,2.000000,2.000000,0.000000,2.000000,4.000000,4.000000,4.000000,4.000000,2.000000,4.000000,16.666666,,,,,,,,,,,,,,,,,,,,,,,,,,,,
1732081346.832589,1732081346.834675,30.000000,0.000000,4359.871582,4341.922852,4347.179688,4350.641113,4330.512695,4363.589844,4318.974121,4385.384766,4390.769043,4363.846191,4487.051270,4500.641113,4404.358887,4442.307617,0.000000,0.000000,14.000000,,,,0.000000,2.000000,2.000000,0.000000,2.000000,2.000000,2.000000,0.000000,2.000000,4.000000,4.000000,4.000000,4.000000,2.000000,4.000000,16.666666,,,,,,,,,,,,,,,,,,,,,,,,,,,,
1732081346.840397,1732081346.842484,31.000000,0.000000,4358.205078,4337.948730,4347.307617,4343.717773,4333.461426,4362.179688,4320.384766,4385.512695,4390.256348,4363.846191,4483.589844,4501.282227,4403.974121,4437.948730,0.000000,0.000000,14.000000,,,,0.000000,2.000000,2.000000,0.000000,2.000000,2.000000,2.000000,0.000000,2.000000,4.000000,4.000000,4.000000,4.000000,2.000000,4.000000,16.666666,,,,,,,,,,,,,,,,,,,,,,,,,,,,
1732081346.848205,1732081346.850192,32.000000,0.000000,4353.846191,4336.922852,4344.487305,4338.461426,4337.820313,4360.641113,4313.077148,4382.307617,4382.307617,4355.512695,4476.666504,4495.128418,4396.794922,4430.769043,0.000000,0.000000,14.000000,,,,0.000000,2.000000,2.000000,0.000000,2.000000,2.000000,2.000000,0.000000,2.000000,4.000000,4.000000,4.000000,4.000000,2.000000,4.000000,16.666666,,,,,,,,,,,,,,,,,8.000000,0.000000,0.615044,0.398132,-0.603821,0.314026,0.963497,0.090831,-0.024417,-76.843590,64.088020,27.601013
1732081346.856014,1732081346.858000,33.000000,0.000000,4357.179688,4338.974121,4344.871582,4342.692383,4334.743652,4359.871582,4313.333496,4380.512695,4379.743652,4350.897461,4475.000000,4492.436035,4395.000000,4432.179688,0.000000,0.000000,14.000000,,,,0.000000,2.000000,2.000000,0.000000,2.000000,2.000000,2.000000,0.000000,2.000000,4.000000,4.000000,4.000000,4.000000,2.000000,4.000000,16.666666,,,,,,,,,,,,,,,,,,,,,,,,,,,,
1732081346.863822,1732081346.866008,34.000000,0.000000,4354.230957,4330.512695,4346.410156,4340.512695,4336.410156,4358.205078,4315.769043,4385.512695,4384.743652,4354.743652,4481.666504,4499.871582,4393.974121,4437.179688,0.000000,0.000000,14.000000,,,,0.000000,2.000000,2.000000,0.000000,2.000000,2.000000,2.000000,0.000000,2.000000,4.000000,4.000000,4.000000,4.000000,2.000000,4.000000,16.666666,,,,,,,,,,,,,,,,,,,,,,,,,,,,
1732081346.871630,1732081346.873816,35.000000,0.000000,4350.256348,4324.358887,4345.769043,4336.153809,4335.384766,4357.820313,4316.410156,4388.589844,4386.538574,4355.384766,4485.769043,4503.974121,4390.769043,4437.436035,0.000000,0.000000,14.000000,,,,0.000000,2.000000,2.000000,0.000000,2.000000,2.000000,2.000000,0.000000,2.000000,4.000000,4.000000,4.000000,4.000000,2.000000,4.000000,16.666666,,,,,,,,,,,,,,,,,,,,,,,,,,,,
1732081346.879438,1732081346.881525,36.000000,0.000000,4362.179688,4337.307617,4341.666504,4344.102539,4330.256348,4358.589844,4314.615234,4383.846191,4380.897461,4351.025879,4479.743652,4501.538574,4394.743652,4437.948730,0.000000,0.000000,14.000000,,,,0.000000,2.000000,2.000000,0.000000,2.000000,2.000000,2.000000,0.000000,2.000000,4.000000,4.000000,4.000000,4.000000,2.000000,4.000000,16.666666,,,,,,,,,,,,,,,,,9.000000,0.000000,0.616238,0.399170,-0.603088,0.311768,0.984007,0.126480,-0.052741,-76.836639,63.999626,27.471821
1732081346.887246,1732081346.889333,37.000000,0.000000,4371.153809,4349.358887,4344.487305,4352.820313,4332.051270,4354.358887,4312.051270,4378.077148,4375.256348,4348.846191,4476.410156,4500.769043,4398.974121,4438.846191,0.000000,0.000000,14.000000,,,,0.000000,2.000000,2.000000,0.000000,2.000000,2.000000,2.000000,0.000000,2.000000,4.000000,4.000000,4.000000,4.000000,2.000000,4.000000,16.666666,,,,,,,,,,,,,,,,,,,,,,,,,,,,
1732081346.895055,1732081346.896941,38.000000,0.000000,4368.333496,4350.384766,4347.563965,4354.615234,4332.051270,4347.948730,4310.769043,4373.846191,4375.256348,4346.538574,4477.692383,4498.333496,4394.743652,4434.358887,0.000000,0.000000,14.000000,,,,0.000000,2.000000,2.000000,0.000000,2.000000,2.000000,2.000000,0.000000,2.000000,4.000000,4.000000,4.000000,4.000000,2.000000,4.000000,16.666666,,,,,,,,,,,,,,,,,,,,,,,,,,,,
1732081346.902863,1732081346.904749,39.000000,0.000000,4369.743652,4357.051270,4345.512695,4359.358887,4329.871582,4350.128418,4312.948730,4370.897461,4373.077148,4342.051270,4473.717773,4494.871582,4387.692383,4428.077148,0.000000,0.000000,14.000000,,,,0.000000,2.000000,2.000000,0.000000,2.000000,2.000000,2.000000,0.000000,2.000000,4.000000,4.000000,4.000000,4.000000,2.000000,4.000000,16.666666,,,,,,,,,,,,,,,,,,,,,,,,,,,,
1732081346.910671,1732081346.912458,40.000000,0.000000,4371.666504,4365.128418,4346.794922,4368.077148,4337.051270,4355.256348,4314.102539,4374.743652,4370.641113,4341.153809,4462.179688,4491.666504,4380.000000,4423.846191,0.000000,0.000000,14.000000,,,,0.000000,2.000000,2.000000,0.000000,2.000000,2.000000,2.000000,0.000000,2.000000,4.000000,4.000000,4.000000,4.000000,2.000000,4.000000,16.666666,,,,,,,,,,,,,,,,,10.000000,0.000000,0.616482,0.399963,-0.602722,0.310974,0.984007,0.126480,-0.052741,-76.677681,64.094696,27.287174
1732081346.918480,1732081346.920266,41.000000,0.000000,4367.179688,4364.230957,4351.538574,4372.179688,4345.897461,4356.153809,4310.384766,4377.948730,4372.948730,4343.846191,4458.846191,4489.230957,4377.563965,4423.205078,0.000000,0.000000,14.000000,,,,0.000000,2.000000,2.000000,0.000000,2.000000,2.000000,2.000000,0.000000,2.000000,4.000000,4.000000,4.000000,4.000000,2.000000,4.000000,16.666666,,,,,,,,,,,,,,,,,,,,,,,,,,,,
1732081346.926288,1732081346.927874,42.000000,0.000000,4366.410156,4364.230957,4351.794922,4371.794922,4340.256348,4359.487305,4313.077148,4376.794922,4373.461426,4344.615234,4464.487305,4490.641113,4382.692383,4423.333496,0.000000,0.000000,14.000000,,,,0.000000,2.000000,2.000000,0.000000,2.000000,2.000000,2.000000,0.000000,2.000000,4.000000,4.000000,4.000000,4.000000,2.000000,4.000000,16.666666,,,,,,,,,,,,,,,,,,,,,,,,,,,,
1732081346.934096,1732081346.935682,43.000000,0.000000,4365.769043,4366.025879,4347.820313,4371.282227,4342.436035,4365.128418,4314.102539,4375.641113,4371.666504,4343.846191,4464.102539,4490.769043,4384.102539,4420.128418,0.000000,0.000000,14.000000,,,,0.000000,2.000000,2.000000,0.000000,2.000000,2.000000,2.000000,0.000000,2.000000,4.000000,4.000000,4.000000,4.000000,2.000000,4.000000,16.666666,,,,,,,,,,,,,,,,,,,,,,,,,,,,
1732081346.941904,1732081346.943590,44.000000,0.000000,4362.820313,4367.307617,4350.769043,4371.282227,4357.692383,4361.282227,4310.769043,4376.025879,4369.102539,4341.153809,4456.794922,4484.871582,4376.794922,4415.256348,0.000000,0.000000,14.000000,,,,0.000000,2.000000,2.000000,0.000000,2.000000,2.000000,2.000000,0.000000,2.000000,4.000000,4.000000,4.000000,4.000000,2.000000,4.000000,16.666666,,,,,,,,,,,,,,,,,11.000000,0.000000,0.617393,0.403564,-0.600891,0.308044,0.969845,0.150897,-0.041021,-76.713921,64.243370,27.254278
1732081346.949712,1732081346.951398,45.000000,0.000000,4363.974121,4370.769043,4352.307617,4371.282227,4353.205078,4359.487305,4309.487305,4376.922852,4366.922852,4337.820313,4452.948730,4481.538574,4373.333496,4412.179688,0.000000,0.000000,14.000000,,,,0.000000,2.000000,2.000000,0.000000,2.000000,2.000000,2.000000,0.000000,2.000000,4.000000,4.000000,4.000000,4.000000,2.000000,4.000000,16.666666,,,,,,,,,,,,,,,,,,,,,,,,,,,,
1732081346.957521,1732081346.959406,46.000000,0.000000,4364.230957,4372.948730,4351.153809,4371.794922,4338.461426,4367.179688,4314.615234,4377.692383,4367.051270,4334.358887,4453.846191,4485.256348,4373.461426,4408.846191,0.000000,0.000000,14.000000,,,,0.000000,2.000000,2.000000,0.000000,2.000000,2.000000,2.000000,0.000000,2.000000,4.000000,4.000000,4.000000,4.000000,2.000000,4.000000,16.666666,,,,,,,,,,,,,,,,,,,,,,,,,,,,
1732081346.965329,1732081346.967215,47.000000,0.000000,4362.436035,4370.128418,4349.743652,4375.000000,4343.333496,4366.410156,4313.077148,4373.461426,4366.153809,4330.641113,4452.436035,4484.487305,4370.512695,4408.974121,0.000000,0.000000,14.000000,,,,0.000000,2.000000,2.000000,0.000000,2.000000,2.000000,2.000000,0.000000,2.000000,4.000000,4.000000,4.000000,4.000000,2.000000,4.000000,16.666666,,,,,,,,,,,,,,,,,,,,,,,,,,,,
1732081346.973137,1732081346.974923,48.000000,0.000000,4360.128418,4366.538574,4351.794922,4375.769043,4350.384766,4361.794922,4311.922852,4371.410156,4361.794922,4329.743652,4450.384766,4483.205078,4368.974121,4409.230957,0.000000,0.000000,14.000000,,,,0.000000,2.000000,2.000000,0.000000,2.000000,2.000000,2.000000,0.000000,2.000000,4.000000,4.000000,4.000000,4.000000,2.000000,4.000000,16.666666,,,,,,,,,,,,,,,,,12.000000,0.000000,0.617679,0.405273,-0.599915,0.307129,0.968380,0.129410,-0.050787,-76.703278,64.298798,27.167631
1732081346.980945,1732081346.982731,49.000000,0.000000,4360.512695,4367.948730,4351.410156,4374.487305,4344.102539,4367.051270,4315.256348,4377.436035,4362.563965,4331.025879,4452.179688,4484.230957,4370.641113,4407.692383,0.000000,0.000000,14.000000,,,,0.000000,2.000000,2.000000,0.000000,2.000000,2.000000,2.000000,0.000000,2.000000,4.000000,4.000000,4.000000,4.000000,2.000000,4.000000,16.666666,,,,,,,,,,,,,,,,,,,,,,,,,,,,
1732081346.988754,1732081346.990339,50.000000,0.000000,4361.025879,4368.461426,4352.692383,4375.128418,4342.179688,4368.333496,4318.461426,4379.487305,4366.538574,4329.615234,4454.615234,4483.589844,4370.256348,4412.307617,0.000000,0.000000,14.000000,,,,0.000000,2.000000,2.000000,0.000000,2.000000,2.000000,2.000000,0.000000,2.000000,4.000000,4.000000,4.000000,4.000000,2.000000,4.000000,16.666666,,,,,,,,,,,,,,,,,,,,,,,,,,,,
1732081346.996562,1732081346.998147,51.000000,0.000000,4358.205078,4365.384766,4351.153809,4374.358887,4344.230957,4361.922852,4317.563965,4377.820313,4364.358887,4331.794922,4455.641113,4483.205078,4371.922852,4415.897461,0.000000,0.000000,14.000000,,,,0.000000,2.000000,2.000000,0.000000,2.000000,2.000000,2.000000,0.000000,2.000000,4.000000,4.000000,4.000000,4.000000,2.000000,4.000000,16.666666,,,,,,,,,,,,,,,,,,,,,,,,,,,,
1732081347.004370,1732081347.005855,52.000000,0.000000,4351.025879,4361.538574,4348.589844,4367.436035,4340.769043,4361.922852,4316.794922,4378.461426,4361.153809,4332.820313,4451.410156,4481.922852,4372.051270,4411.025879,0.000000,0.000000,14.000000,,,,0.000000,2.000000,2.000000,0.000000,2.000000,2.000000,2.000000,0.000000,2.000000,4.000000,4.000000,4.000000,4.000000,2.000000,4.000000,16.666666,,,,,,,,,,,,,,,,,13.000000,0.000000,0.617927,0.405762,-0.599548,0.306702,0.976682,0.140154,-0.042486,-76.579651,64.397026,27.010782
1732081347.012179,1732081347.013663,53.000000,0.000000,4345.512695,4358.974121,4347.563965,4364.102539,4339.102539,4368.846191,4316.282227,4380.256348,4365.000000,4326.794922,4450.641113,4478.333496,4365.384766,4404.358887,0.000000,0.000000,14.000000,,,,0.000000,2.000000,2.000000,0.000000,2.000000,2.000000,2.000000,0.000000,2.000000,4.000000,4.000000,4.000000,4.000000,2.000000,4.000000,16.666666,,,,,,,,,,,,,,,,,,,,,,,,,,,,
1732081347.019987,1732081347.021671,54.000000,0.000000,4345.641113,4358.205078,4349.615234,4368.205078,4347.820313,4372.179688,4317.563965,4382.051270,4368.205078,4327.179688,4451.794922,4477.563965,4363.333496,4401.282227,0.000000,0.000000,14.000000,,,,0.000000,2.000000,2.000000,0.000000,2.000000,2.000000,2.000000,0.000000,2.000000,4.000000,4.000000,4.000000,4.000000,2.000000,4.000000,16.666666,,,,,,,,,,,,,,,,,,,,,,,,,,,,
1732081347.027795,1732081347.029479,55.000000,0.000000,4347.307617,4359.615234,4348.846191,4369.615234,4358.846191,4368.717773,4320.897461,4381.922852,4368.205078,4333.846191,4451.410156,4481.025879,4371.794922,4404.102539,0.000000,0.000000,14.000000,,,,0.000000,2.000000,2.000000,0.000000,2.000000,2.000000,2.000000,0.000000,2.000000,4.000000,4.000000,4.000000,4.000000,2.000000,4.000000,16.666666,,,,,,,,,,,,,,,,,,,,,,,,,,,,
1732081347.035603,1732081347.037387,56.000000,0.000000,4347.307617,4359.102539,4350.256348,4369.102539,4353.846191,4367.051270,4322.307617,4381.922852,4371.410156,4333.461426,4451.666504,4484.358887,4376.153809,4409.230957,0.000000,0.000000,14.000000,,,,0.000000,2.000000,2.000000,0.000000,2.000000,2.000000,2.000000,0.000000,2.000000,4.000000,4.000000,4.000000,4.000000,2.000000,4.000000,16.666666,,,,,,,,,,,,,,,,,14.000000,0.000000,0.618586,0.406311,-0.599182,0.305359,0.984007,0.133317,-0.049811,-76.406181,64.163261,27.293734
1732081347.043411,1732081347.045195,57.000000,0.000000,4343.974121,4357.436035,4352.820313,4372.051270,4345.384766,4374.102539,4323.974121,4383.717773,4373.077148,4331.538574,4451.153809,4485.641113,4368.974121,4410.128418,0.000000,0.000000,14.000000,,,,0.000000,2.000000,2.000000,0.000000,2.000000,2.000000,2.000000,0.000000,2.000000,4.000000,4.000000,4.000000,4.000000,2.000000,4.000000,16.666666,,,,,,,,,,,,,,,,,,,,,,,,,,,,
1732081347.051220,1732081347.053203,58.000000,0.000000,4347.051270,4361.282227,4350.000000,4371.538574,4345.128418,4377.179688,4324.230957,4381.153809,4367.948730,4333.077148,4450.769043,4482.948730,4366.025879,4408.333496,0.000000,0.000000,14.000000,,,,0.000000,2.000000,2.000000,0.000000,2.000000,2.000000,2.000000,0.000000,2.000000,4.000000,4.000000,4.000000,4.000000,2.000000,4.000000,16.666666,,,,,,,,,,,,,,,,,,,,,,,,,,,,
1732081347.059028,1732081347.061012,59.000000,0.000000,4348.589844,4360.769043,4349.487305,4366.666504,4347.436035,4370.512695,4323.205078,4377.051270,4364.102539,4328.974121,4449.230957,4480.897461,4367.436035,4404.871582,0.000000,0.000000,14.000000,,,,0.000000,2.000000,2.000000,0.000000,2.000000,2.000000,2.000000,0.000000,2.000000,4.000000,4.000000,4.000000,4.000000,2.000000,4.000000,16.666666,,,,,,,,,,,,,,,,,,,,,,,,,,,,
1732081347.066836,1732081347.068920,60.000000,0.000000,4340.384766,4353.846191,4352.563965,4365.641113,4355.512695,4366.794922,4319.230957,4380.384766,4366.410156,4326.666504,4448.461426,4481.410156,4363.461426,4402.051270,0.000000,0.000000,14.000000,,,,0.000000,2.000000,2.000000,0.000000,2.000000,2.000000,2.000000,0.000000,2.000000,4.000000,4.000000,4.000000,4.000000,2.000000,4.000000,16.666666,,,,,,,,,,,,,,,,,15.000000,0.000000,0.619934,0.407166,-0.598633,0.302551,0.987914,0.164571,-0.052252,-76.232346,64.273903,27.244591
1732081347.074644,1732081347.076728,61.000000,0.000000,4336.666504,4353.205078,4353.461426,4365.512695,4354.230957,4365.256348,4318.333496,4378.205078,4365.256348,4331.025879,4451.025879,4481.538574,4368.461426,4405.641113,0.000000,0.000000,14.000000,,,,0.000000,2.000000,2.000000,0.000000,2.000000,2.000000,2.000000,0.000000,2.000000,4.000000,4.000000,4.000000,4.000000,2.000000,4.000000,16.666666,,,,,,,,,,,,,,,,,,,,,,,,,,,,
1732081347.082453,1732081347.084736,62.000000,0.000000,4339.871582,4355.769043,4348.974121,4361.538574,4337.307617,4361.922852,4318.974121,4369.102539,4363.717773,4333.205078,4456.410156,4481.922852,4384.230957,4410.000000,0.000000,0.000000,14.000000,,,,0.000000,2.000000,2.000000,0.000000,2.000000,2.000000,2.000000,0.000000,2.000000,4.000000,4.000000,4.000000,4.000000,2.000000,4.000000,16.666666,,,,,,,,,,,,,,,,,,,,,,,,,,,,
1732081347.090261,1732081347.092544,63.000000,0.000000,4337.820313,4346.794922,4350.384766,4354.743652,4333.589844,4361.538574,4322.692383,4372.820313,4369.102539,4337.436035,4462.948730,4485.897461,4392.948730,4411.410156,0.000000,0.000000,14.000000,,,,0.000000,2.000000,2.000000,0.000000,2.000000,2.000000,2.000000,0.000000,2.000000,4.000000,4.000000,4.000000,4.000000,2.000000,4.000000,16.666666,,,,,,,,,,,,,,,,,,,,,,,,,,,,
1732081347.098069,1732081347.100452,64.000000,0.000000,4330.641113,4336.666504,4349.743652,4351.410156,4342.179688,4361.538574,4322.436035,4380.512695,4372.436035,4346.794922,4471.410156,4487.563965,4397.563965,4415.384766,6.000000,0.000000,14.000000,,,,0.000000,2.000000,2.000000,0.000000,2.000000,2.000000,2.000000,0.000000,2.000000,4.000000,4.000000,4.000000,4.000000,2.000000,4.000000,16.666666,,,,,,,,,,,,,,,,,16.000000,0.000000,0.619934,0.407166,-0.598633,0.302551,0.983030,0.162129,-0.047369,-76.106529,64.468529,27.114784
1732081347.105877,1732081347.108260,65.000000,0.000000,4326.922852,4336.666504,4350.384766,4349.743652,4337.563965,4359.230957,4322.820313,4377.948730,4367.179688,4347.179688,4473.846191,4488.717773,4401.410156,4418.717773,1284.000000,0.000000,14.000000,,,,0.000000,2.000000,2.000000,0.000000,2.000000,2.000000,2.000000,0.000000,2.000000,4.000000,4.000000,4.000000,4.000000,2.000000,4.000000,16.666666,,,,,,,,,,,,,,,,,,,,,,,,,,,,
1732081347.113686,1732081347.116268,66.000000,0.000000,4327.820313,4337.051270,4349.871582,4348.461426,4335.641113,4359.358887,4323.333496,4372.436035,4363.974121,4340.128418,4467.948730,4490.000000,4396.538574,4419.102539,1207.000000,0.000000,14.000000,,,,0.000000,2.000000,2.000000,0.000000,2.000000,2.000000,2.000000,0.000000,2.000000,4.000000,4.000000,4.000000,4.000000,2.000000,4.000000,16.666666,,,,,,,,,,,,,,,,,,,,,,,,,,,,
1732081347.121494,1732081347.124077,67.000000,0.000000,4329.871582,4336.666504,4350.128418,4349.358887,4336.410156,4359.871582,4324.615234,4373.461426,4369.743652,4343.077148,4467.436035,4491.410156,4395.512695,4420.128418,1158.000000,0.000000,14.000000,,,,0.000000,2.000000,2.000000,0.000000,2.000000,2.000000,2.000000,0.000000,2.000000,4.000000,4.000000,4.000000,4.000000,2.000000,4.000000,16.666666,,,,,,,,,,,,,,,,,,,,,,,,,,,,
1732081347.129302,1732081347.131985,68.000000,0.000000,4331.410156,4340.897461,4346.922852,4351.410156,4338.589844,4358.461426,4324.102539,4376.666504,4374.358887,4353.077148,4471.538574,4492.307617,4401.282227,4422.563965,1184.000000,0.000000,14.000000,,,,0.000000,2.000000,2.000000,0.000000,2.000000,2.000000,2.000000,0.000000,2.000000,4.000000,4.000000,4.000000,4.000000,2.000000,4.000000,16.666666,,,,,,,,,,,,,,,,,17.000000,0.000000,0.620290,0.407349,-0.598694,0.301453,0.984007,0.163594,-0.064461,-75.896294,64.601173,27.251308
1732081347.137110,1732081347.139793,69.000000,0.000000,4329.615234,4343.077148,4346.922852,4350.000000,4349.102539,4357.948730,4325.512695,4376.025879,4371.922852,4352.051270,4467.692383,4490.384766,4399.230957,4421.666504,1057.000000,0.000000,14.000000,,,,0.000000,2.000000,2.000000,0.000000,2.000000,2.000000,2.000000,0.000000,2.000000,4.000000,4.000000,4.000000,4.000000,2.000000,4.000000,16.666666,,,,,,,,,,,,,,,,,,,,,,,,,,,,
1732081347.144919,1732081347.147401,70.000000,0.000000,4327.563965,4339.230957,4348.077148,4344.871582,4341.922852,4360.384766,4326.282227,4375.000000,4369.743652,4343.846191,4463.461426,4487.436035,4396.922852,4418.461426,192.000000,0.000000,14.000000,,,,0.000000,2.000000,2.000000,0.000000,2.000000,2.000000,2.000000,0.000000,2.000000,4.000000,4.000000,4.000000,4.000000,2.000000,4.000000,16.666666,,,,,,,,,,,,,,,,,,,,,,,,,,,,
1732081347.152727,1732081347.155210,71.000000,0.000000,4323.974121,4335.256348,4347.692383,4342.692383,4324.615234,4360.000000,4323.333496,4378.333496,4372.179688,4346.410156,4465.641113,4488.205078,4394.487305,4417.692383,1185.000000,0.000000,14.000000,,,,0.000000,2.000000,2.000000,0.000000,2.000000,2.000000,2.000000,0.000000,2.000000,4.000000,4.000000,4.000000,4.000000,2.000000,4.000000,16.666666,,,,,,,,,,,,,,,,,,,,,,,,,,,,
1732081347.160535,1732081347.162918,72.000000,0.000000,4323.077148,4331.666504,4346.538574,4344.230957,4323.589844,4357.820313,4323.589844,4382.307617,4375.641113,4353.461426,4466.025879,4488.589844,4387.436035,4417.563965,1334.000000,0.000000,14.000000,,,,0.000000,2.000000,2.000000,0.000000,2.000000,2.000000,2.000000,0.000000,2.000000,4.000000,4.000000,4.000000,4.000000,2.000000,4.000000,16.666666,,,,,,,,,,,,,,,,,18.000000,0.000000,0.619644,0.407837,-0.598938,0.301636,0.946405,0.142107,-0.047369,-75.922661,64.856956,27.276894
1732081347.168343,1732081347.170726,73.000000,0.000000,4322.948730,4329.102539,4347.051270,4340.128418,4333.589844,4357.051270,4326.794922,4378.974121,4369.743652,4345.256348,4463.205078,4485.897461,4386.153809,4413.717773,1469.000000,0.000000,14.000000,,,,0.000000,2.000000,2.000000,0.000000,2.000000,2.000000,2.000000,0.000000,2.000000,4.000000,4.000000,4.000000,4.000000,2.000000,4.000000,16.666666,,,,,,,,,,,,,,,,,,,,,,,,,,,,
1732081347.176152,1732081347.178335,74.000000,0.000000,4318.333496,4329.871582,4349.615234,4333.077148,4342.820313,4356.922852,4328.461426,4374.230957,4361.922852,4332.307617,4459.615234,4485.897461,4387.179688,4410.000000,1359.000000,0.000000,14.000000,,,,0.000000,2.000000,2.000000,0.000000,2.000000,2.000000,2.000000,0.000000,2.000000,4.000000,4.000000,4.000000,4.000000,2.000000,4.000000,16.666666,,,,,,,,,,,,,,,,,,,,,,,,,,,,
1732081347.183960,1732081347.186143,75.000000,0.000000,4316.282227,4329.487305,4348.333496,4334.743652,4341.282227,4359.358887,4324.871582,4377.948730,4366.153809,4332.179688,4454.871582,4485.512695,4379.743652,4412.692383,1499.000000,0.000000,14.000000,,,,0.000000,2.000000,2.000000,0.000000,2.000000,2.000000,2.000000,0.000000,2.000000,4.000000,4.000000,4.000000,4.000000,2.000000,4.000000,16.666666,,,,,,,,,,,,,,,,,,,,,,,,,,,,
1732081347.191768,1732081347.193851,76.000000,0.000000,4318.846191,4328.333496,4348.205078,4339.358887,4330.769043,4364.487305,4326.794922,4382.692383,4373.589844,4333.589844,4448.461426,4483.077148,4374.230957,4412.948730,1723.000000,0.000000,14.000000,,,,0.000000,2.000000,2.000000,0.000000,2.000000,2.000000,2.000000,0.000000,2.000000,4.000000,4.000000,4.000000,4.000000,2.000000,4.000000,16.666666,,,,,,,,,,,,,,,,,19.000000,0.000000,0.620114,0.408020,-0.598572,0.301147,0.963497,0.132829,-0.044439,-75.779022,64.969131,27.225950
1732081347.199576,1732081347.201659,77.000000,0.000000,4322.563965,4332.692383,4348.589844,4339.871582,4332.051270,4365.256348,4327.179688,4382.692383,4375.256348,4334.487305,4450.641113,4484.358887,4381.666504,4415.128418,1646.000000,0.000000,14.000000,,,,0.000000,2.000000,2.000000,0.000000,2.000000,2.000000,2.000000,0.000000,2.000000,4.000000,4.000000,4.000000,4.000000,2.000000,4.000000,16.666666,,,,,,,,,,,,,,,,,,,,,,,,,,,,
1732081347.207384,1732081347.209268,78.000000,0.000000,4323.846191,4336.410156,4350.897461,4342.179688,4341.794922,4359.487305,4325.512695,4382.436035,4373.077148,4340.256348,4460.897461,4493.717773,4392.563965,4426.410156,1359.000000,0.000000,14.000000,,,,0.000000,2.000000,2.000000,0.000000,2.000000,2.000000,2.000000,0.000000,2.000000,4.000000,4.000000,4.000000,4.000000,2.000000,4.000000,16.666666,1.000000,8.333333,2.000000,2.000000,0.000000,2.000000,2.000000,2.000000,0.000000,1.000000,3.000000,3.000000,4.000000,4.000000,2.000000,4.000000,,,,,,,,,,,,
1732081347.215193,1732081347.217076,79.000000,0.000000,4324.102539,4334.102539,4349.102539,4346.538574,4335.512695,4358.333496,4325.512695,4380.256348,4371.538574,4342.436035,4464.743652,4500.641113,4394.871582,4429.871582,1499.000000,0.000000,14.000000,,,,0.000000,2.000000,2.000000,0.000000,2.000000,2.000000,2.000000,0.000000,2.000000,4.000000,4.000000,4.000000,4.000000,2.000000,4.000000,16.666666,,,,,,,,,,,,,,,,,,,,,,,,,,,,
1732081347.223001,1732081347.224784,80.000000,0.000000,4324.358887,4333.589844,4348.589844,4343.589844,4334.615234,4359.615234,4328.974121,4376.922852,4372.179688,4339.230957,4460.256348,4495.256348,4391.282227,4421.153809,1723.000000,0.000000,14.000000,,,,0.000000,2.000000,2.000000,0.000000,2.000000,2.000000,2.000000,0.000000,2.000000,4.000000,4.000000,4.000000,4.000000,2.000000,4.000000,16.666666,,,,,,,,,,,,,,,,,20.000000,0.000000,0.620354,0.407837,-0.598694,0.300659,0.963497,0.132829,-0.044439,-75.757675,64.784996,27.309687
1732081347.230809,1732081347.232592,81.000000,0.000000,4323.589844,4337.563965,4347.179688,4339.743652,4348.205078,4356.153809,4326.282227,4377.820313,4371.922852,4341.025879,4457.051270,4487.051270,4390.384766,4419.230957,1646.000000,0.000000,14.000000,,,,0.000000,2.000000,2.000000,0.000000,2.000000,2.000000,2.000000,0.000000,2.000000,4.000000,4.000000,4.000000,4.000000,2.000000,4.000000,16.666666,,,,,,,,,,,,,,,,,,,,,,,,,,,,
1732081347.238618,1732081347.240201,82.000000,0.000000,4322.948730,4336.666504,4347.563965,4341.282227,4346.794922,4353.205078,4326.666504,4378.717773,4366.025879,4341.153809,4455.256348,4485.384766,4390.897461,4423.333496,1359.000000,0.000000,14.000000,,,,0.000000,2.000000,2.000000,0.000000,2.000000,2.000000,2.000000,0.000000,2.000000,4.000000,4.000000,4.000000,4.000000,2.000000,4.000000,16.666666,,,,,,,,,,,,,,,,,,,,,,,,,,,,
1732081347.246426,1732081347.248009,83.000000,0.000000,4325.128418,4333.077148,4347.051270,4344.871582,4332.563965,4355.000000,4330.256348,4375.897461,4366.025879,4338.846191,4452.948730,4485.641113,4390.897461,4420.256348,1499.000000,0.000000,14.000000,,,,0.000000,2.000000,2.000000,0.000000,2.000000,2.000000,2.000000,0.000000,2.000000,4.000000,4.000000,4.000000,4.000000,2.000000,4.000000,16.666666,,,,,,,,,,,,,,,,,,,,,,,,,,,,
1732081347.254234,1732081347.255717,84.000000,0.000000,4325.897461,4332.307617,4348.974121,4345.384766,4331.282227,4360.128418,4328.077148,4375.641113,4376.666504,4343.589844,4453.461426,4485.512695,4390.000000,4416.025879,1723.000000,0.000000,14.000000,,,,0.000000,2.000000,2.000000,0.000000,2.000000,2.000000,2.000000,0.000000,2.000000,4.000000,4.000000,4.000000,4.000000,2.000000,4.000000,16.666666,,,,,,,,,,,,,,,,,21.000000,0.000000,0.620662,0.407593,-0.598816,0.300110,0.987914,0.150409,-0.042486,-75.782051,64.635849,27.205847
1732081347.262042,1732081347.263526,85.000000,0.000000,4325.000000,4335.641113,4347.692383,4342.820313,4350.256348,4357.820313,4321.538574,4375.384766,4375.769043,4346.538574,4454.230957,4482.820313,4388.077148,4418.205078,1646.000000,0.000000,14.000000,,,,0.000000,2.000000,2.000000,0.000000,2.000000,2.000000,2.000000,0.000000,2.000000,4.000000,4.000000,4.000000,4.000000,2.000000,4.000000,16.666666,,,,,,,,,,,,,,,,,,,,,,,,,,,,
1732081347.269851,1732081347.271534,86.000000,0.000000,4328.846191,4337.051270,4346.410156,4342.307617,4352.820313,4353.974121,4324.871582,4371.282227,4366.922852,4344.358887,4451.922852,4478.205078,4387.307617,4416.666504,1359.000000,0.000000,14.000000,,,,0.000000,2.000000,2.000000,0.000000,2.000000,2.000000,2.000000,0.000000,2.000000,4.000000,4.000000,4.000000,4.000000,2.000000,4.000000,16.666666,,,,,,,,,,,,,,,,,,,,,,,,,,,,
1732081347.277659,1732081347.279342,87.000000,0.000000,4330.769043,4338.974121,4346.410156,4347.436035,4335.897461,4358.077148,4330.256348,4371.282227,4370.128418,4344.487305,4453.333496,4478.589844,4386.538574,4410.897461,1499.000000,0.000000,14.000000,,,,0.000000,2.000000,2.000000,0.000000,2.000000,2.000000,2.000000,0.000000,2.000000,4.000000,4.000000,4.000000,4.000000,2.000000,4.000000,16.666666,,,,,,,,,,,,,,,,,,,,,,,,,,,,
1732081347.285467,1732081347.287050,88.000000,0.000000,4326.922852,4342.948730,4348.077148,4351.282227,4336.410156,4360.641113,4325.384766,4371.538574,4376.153809,4346.794922,4456.794922,4480.256348,4386.025879,4411.922852,1723.000000,0.000000,14.000000,,,,0.000000,2.000000,2.000000,0.000000,2.000000,2.000000,2.000000,0.000000,2.000000,4.000000,4.000000,4.000000,4.000000,2.000000,4.000000,16.666666,,,,,,,,,,,,,,,,,22.000000,0.000000,0.620558,0.407349,-0.599487,0.299316,0.977658,0.164083,-0.057136,-75.836792,64.845039,27.061735
1732081347.293275,1732081347.294858,89.000000,0.000000,4326.282227,4342.307617,4351.410156,4348.077148,4344.487305,4358.333496,4324.871582,4371.538574,4372.563965,4345.769043,4456.794922,4480.769043,4384.615234,4415.000000,1646.000000,0.000000,14.000000,,,,0.000000,2.000000,2.000000,0.000000,2.000000,2.000000,2.000000,0.000000,2.000000,4.000000,4.000000,4.000000,4.000000,2.000000,4.000000,16.666666,,,,,,,,,,,,,,,,,,,,,,,,,,,,
1732081347.301083,1732081347.302466,90.000000,0.000000,4327.307617,4338.974121,4348.846191,4345.897461,4340.256348,4356.666504,4329.230957,4372.179688,4366.538574,4341.922852,4454.743652,4482.307617,4384.615234,4414.743652,1359.000000,0.000000,14.000000,,,,0.000000,2.000000,2.000000,0.000000,2.000000,2.000000,2.000000,0.000000,2.000000,4.000000,4.000000,4.000000,4.000000,2.000000,4.000000,16.666666,,,,,,,,,,,,,,,,,,,,,,,,,,,,
1732081347.308892,1732081347.310274,91.000000,0.000000,4326.666504,4338.333496,4346.153809,4347.563965,4343.717773,4354.487305,4329.230957,4368.589844,4363.846191,4338.333496,4452.948730,4481.282227,4383.589844,4413.461426,1499.000000,0.000000,14.000000,,,,0.000000,2.000000,2.000000,0.000000,2.000000,2.000000,2.000000,0.000000,2.000000,4.000000,4.000000,4.000000,4.000000,2.000000,4.000000,16.666666,,,,,,,,,,,,,,,,,,,,,,,,,,,,
1732081347.316700,1732081347.317982,92.000000,0.000000,4327.820313,4338.205078,4347.436035,4346.410156,4350.128418,4351.794922,4323.974121,4369.743652,4364.102539,4336.922852,4452.307617,4477.948730,4382.436035,4414.358887,1723.000000,0.000000,14.000000,,,,0.000000,2.000000,2.000000,0.000000,2.000000,2.000000,2.000000,0.000000,2.000000,4.000000,4.000000,4.000000,4.000000,2.000000,4.000000,16.666666,,,,,,,,,,,,,,,,,23.000000,0.000000,0.620242,0.407471,-0.599670,0.299438,0.977658,0.164083,-0.057136,-75.902802,64.952812,27.000006
1732081347.324508,1732081347.325790,93.000000,0.000000,4326.025879,4334.102539,4350.384766,4340.512695,4337.563965,4352.820313,4325.512695,4373.717773,4366.538574,4338.077148,4453.589844,4481.282227,4382.051270,4414.102539,1646.000000,0.000000,14.000000,,,,0.000000,2.000000,2.000000,0.000000,2.000000,2.000000,2.000000,0.000000,2.000000,4.000000,4.000000,4.000000,4.000000,2.000000,4.000000,16.666666,,,,,,,,,,,,,,,,,,,,,,,,,,,,
1732081347.332317,1732081347.333398,94.000000,0.000000,4321.153809,4333.846191,4346.794922,4339.358887,4331.025879,4356.153809,4329.615234,4373.846191,4370.641113,4341.666504,4455.128418,4483.717773,4383.589844,4414.102539,1359.000000,0.000000,14.000000,,,,0.000000,2.000000,2.000000,0.000000,2.000000,2.000000,2.000000,0.000000,2.000000,4.000000,4.000000,4.000000,4.000000,2.000000,4.000000,16.666666,,,,,,,,,,,,,,,,,,,,,,,,,,,,
1732081347.340125,1732081347.341206,95.000000,0.000000,4320.769043,4337.436035,4346.666504,4342.948730,4339.230957,4356.410156,4332.948730,4373.974121,4372.820313,4343.974121,4452.820313,4481.153809,4383.974121,4416.666504,1499.000000,0.000000,14.000000,,,,0.000000,2.000000,2.000000,0.000000,2.000000,2.000000,2.000000,0.000000,2.000000,4.000000,4.000000,4.000000,4.000000,2.000000,4.000000,16.666666,,,,,,,,,,,,,,,,,,,,,,,,,,,,
1732081347.347933,1732081347.348914,96.000000,0.000000,4323.461426,4335.769043,4345.512695,4342.563965,4345.641113,4354.358887,4326.282227,4375.512695,4368.974121,4339.743652,4451.538574,4480.256348,4381.282227,4416.666504,1723.000000,0.000000,14.000000,,,,0.000000,2.000000,2.000000,0.000000,2.000000,2.000000,2.000000,0.000000,2.000000,4.000000,4.000000,4.000000,4.000000,2.000000,4.000000,16.666666,,,,,,,,,,,,,,,,,24.000000,0.000000,0.619104,0.407898,-0.599976,0.300598,0.975705,0.132829,-0.062508,-75.889603,65.056778,26.778337
1732081347.355741,1732081347.356722,97.000000,0.000000,4320.769043,4331.025879,4345.384766,4338.846191,4340.641113,4351.922852,4321.538574,4372.179688,4363.974121,4335.897461,4451.922852,4482.179688,4377.948730,4415.000000,1646.000000,0.000000,14.000000,,,,0.000000,2.000000,2.000000,0.000000,2.000000,2.000000,2.000000,0.000000,2.000000,4.000000,4.000000,4.000000,4.000000,2.000000,4.000000,16.666666,,,,,,,,,,,,,,,,,,,,,,,,,,,,
1732081347.363549,1732081347.364730,98.000000,0.000000,4322.051270,4331.922852,4345.128418,4340.128418,4326.794922,4352.436035,4325.384766,4369.615234,4366.025879,4338.846191,4451.666504,4482.179688,4377.692383,4415.384766,1359.000000,0.000000,14.000000,,,,0.000000,2.000000,2.000000,0.000000,2.000000,2.000000,2.000000,0.000000,2.000000,4.000000,4.000000,4.000000,4.000000,2.000000,4.000000,16.666666,,,,,,,,,,,,,,,,,,,,,,,,,,,,
1732081347.371358,1732081347.372538,99.000000,0.000000,4329.358887,4334.487305,4345.384766,4343.461426,4323.589844,4352.692383,4328.461426,4372.563965,4367.179688,4340.000000,4451.282227,4482.436035,4380.897461,4415.641113,1499.000000,0.000000,14.000000,,,,0.000000,2.000000,2.000000,0.000000,2.000000,2.000000,2.000000,0.000000,2.000000,4.000000,4.000000,4.000000,4.000000,2.000000,4.000000,16.666666,,,,,,,,,,,,,,,,,,,,,,,,,,,,
1732081347.379166,1732081347.380446,100.000000,0.000000,4330.000000,4332.563965,4344.102539,4340.000000,4337.051270,4350.512695,4323.461426,4372.948730,4363.205078,4336.922852,4451.153809,4483.077148,4382.436035,4416.153809,1723.000000,0.000000,14.000000,,,,0.000000,2.000000,2.000000,0.000000,2.000000,2.000000,2.000000,0.000000,2.000000,4.000000,4.000000,4.000000,4.000000,2.000000,4.000000,16.666666,,,,,,,,,,,,,,,,,25.000000,0.000000,0.617537,0.408020,-0.600525,0.302551,0.963008,0.132340,-0.055183,-75.795578,65.119324,26.903788
1732081347.386974,1732081347.388255,101.000000,0.000000,4327.051270,4331.538574,4346.025879,4334.615234,4334.487305,4349.743652,4321.282227,4370.128418,4363.333496,4335.256348,4451.153809,4481.922852,4380.897461,4416.538574,1646.000000,0.000000,14.000000,,,,0.000000,2.000000,2.000000,0.000000,2.000000,2.000000,2.000000,0.000000,2.000000,4.000000,4.000000,4.000000,4.000000,2.000000,4.000000,16.666666,,,,,,,,,,,,,,,,,,,,,,,,,,,,
1732081347.394782,1732081347.396263,102.000000,0.000000,4328.846191,4332.179688,4347.563965,4333.589844,4326.666504,4350.384766,4322.307617,4370.256348,4365.256348,4336.025879,4452.179688,4477.692383,4379.102539,4414.871582,1359.000000,0.000000,14.000000,,,,0.000000,2.000000,2.000000,0.000000,2.000000,2.000000,2.000000,0.000000,2.000000,4.000000,4.000000,4.000000,4.000000,2.000000,4.000000,16.666666,,,,,,,,,,,,,,,,,,,,,,,,,,,,
1732081347.402591,1732081347.404071,103.000000,0.000000,4332.948730,4331.922852,4344.743652,4333.589844,4343.333496,4348.974121,4321.666504,4369.743652,4362.692383,4335.128418,4451.282227,4473.333496,4380.769043,4413.846191,1499.000000,0.000000,14.000000,,,,0.000000,2.000000,2.000000,0.000000,2.000000,2.000000,2.000000,0.000000,2.000000,4.000000,4.000000,4.000000,4.000000,2.000000,4.000000,16.666666,,,,,,,,,,,,,,,,,,,,,,,,,,,,
1732081347.410399,1732081347.411979,104.000000,0.000000,4339.358887,4330.384766,4342.820313,4336.153809,4345.128418,4345.512695,4325.000000,4366.282227,4361.794922,4335.769043,4449.487305,4476.794922,4383.333496,4415.769043,1723.000000,0.000000,14.000000,,,,0.000000,2.000000,2.000000,0.000000,2.000000,2.000000,2.000000,0.000000,2.000000,4.000000,4.000000,4.000000,4.000000,2.000000,4.000000,16.666666,,,,,,,,,,,,,,,,,26.000000,0.000000,0.617306,0.408142,-0.600403,0.303101,0.942010,0.165059,-0.051276,-75.594421,65.183319,26.963734
1732081347.418207,1732081347.419787,105.000000,0.000000,4344.487305,4329.615234,4344.615234,4339.871582,4324.358887,4346.794922,4327.051270,4366.025879,4365.641113,4336.282227,4451.153809,4479.487305,4381.794922,4417.820313,1646.000000,0.000000,14.000000,,,,0.000000,2.000000,2.000000,0.000000,2.000000,2.000000,2.000000,0.000000,2.000000,4.000000,4.000000,4.000000,4.000000,2.000000,4.000000,16.666666,,,,,,,,,,,,,,,,,,,,,,,,,,,,
1732081347.426016,1732081347.427395,106.000000,0.000000,4343.974121,4330.512695,4347.307617,4338.846191,4321.410156,4351.153809,4326.666504,4367.820313,4363.846191,4333.333496,4451.282227,4475.384766,4380.512695,4416.410156,1359.000000,0.000000,14.000000,,,,0.000000,2.000000,2.000000,0.000000,2.000000,2.000000,2.000000,0.000000,2.000000,4.000000,4.000000,4.000000,4.000000,2.000000,4.000000,16.666666,,,,,,,,,,,,,,,,,,,,,,,,,,,,
1732081347.433824,1732081347.435203,107.000000,0.000000,4347.436035,4331.922852,4345.897461,4335.769043,4332.307617,4352.820313,4325.769043,4367.307617,4360.384766,4331.025879,4450.256348,4470.897461,4380.641113,4414.230957,1499.000000,0.000000,14.000000,,,,0.000000,2.000000,2.000000,0.000000,2.000000,2.000000,2.000000,0.000000,2.000000,4.000000,4.000000,4.000000,4.000000,2.000000,4.000000,16.666666,,,,,,,,,,,,,,,,,,,,,,,,,,,,
1732081347.441632,1732081347.443111,108.000000,0.000000,4350.641113,4327.948730,4346.538574,4336.410156,4330.769043,4352.051270,4328.205078,4365.769043,4361.538574,4328.846191,4450.128418,4471.410156,4380.000000,4413.205078,1723.000000,0.000000,14.000000,,,,0.000000,2.000000,2.000000,0.000000,2.000000,2.000000,2.000000,0.000000,2.000000,4.000000,4.000000,4.000000,4.000000,2.000000,4.000000,16.666666,,,,,,,,,,,,,,,,,27.000000,0.000000,0.617522,0.408264,-0.600159,0.302979,0.918081,0.189476,-0.069833,-75.798149,64.831825,27.128958
1732081347.449440,1732081347.450920,109.000000,0.000000,4344.615234,4325.000000,4346.538574,4336.666504,4328.589844,4349.102539,4326.538574,4367.179688,4362.179688,4327.436035,4447.307617,4468.974121,4378.589844,4411.666504,1646.000000,0.000000,14.000000,,,,0.000000,2.000000,2.000000,0.000000,2.000000,2.000000,2.000000,0.000000,2.000000,4.000000,4.000000,4.000000,4.000000,2.000000,4.000000,16.666666,,,,,,,,,,,,,,,,,,,,,,,,,,,,
1732081347.457248,1732081347.458928,110.000000,0.000000,4339.871582,4328.333496,4346.666504,4334.615234,4327.948730,4346.922852,4325.769043,4366.922852,4357.307617,4325.000000,4444.615234,4465.769043,4377.051270,4407.692383,1359.000000,0.000000,14.000000,,,,0.000000,2.000000,2.000000,0.000000,2.000000,2.000000,2.000000,0.000000,2.000000,4.000000,4.000000,4.000000,4.000000,2.000000,4.000000,16.666666,,,,,,,,,,,,,,,,,,,,,,,,,,,,
1732081347.465057,1732081347.466736,111.000000,0.000000,4343.333496,4330.128418,4342.436035,4334.230957,4326.282227,4347.563965,4323.205078,4365.256348,4356.794922,4323.974121,4448.077148,4468.205078,4375.769043,4408.077148,1499.000000,0.000000,14.000000,,,,0.000000,2.000000,2.000000,0.000000,2.000000,2.000000,2.000000,0.000000,2.000000,4.000000,4.000000,4.000000,4.000000,2.000000,4.000000,16.666666,,,,,,,,,,,,,,,,,,,,,,,,,,,,
1732081347.472865,1732081347.474644,112.000000,0.000000,4345.769043,4326.666504,4342.307617,4333.846191,4334.230957,4345.256348,4323.846191,4366.922852,4359.871582,4324.358887,4450.000000,4469.487305,4378.461426,4414.102539,1723.000000,0.000000,14.000000,,,,0.000000,2.000000,2.000000,0.000000,2.000000,2.000000,2.000000,0.000000,2.000000,4.000000,4.000000,4.000000,4.000000,2.000000,4.000000,16.666666,,,,,,,,,,,,,,,,,28.000000,0.000000,0.618335,0.410034,-0.598328,0.302551,0.934196,0.225125,-0.065438,-75.993164,64.532112,26.972790
1732081347.480673,1732081347.482452,113.000000,0.000000,4345.256348,4325.769043,4344.230957,4333.077148,4330.769043,4342.307617,4326.025879,4368.717773,4357.563965,4327.692383,4450.000000,4468.333496,4386.282227,4414.358887,1646.000000,0.000000,14.000000,,,,0.000000,2.000000,2.000000,0.000000,2.000000,2.000000,2.000000,0.000000,2.000000,4.000000,4.000000,4.000000,4.000000,2.000000,4.000000,16.666666,,,,,,,,,,,,,,,,,,,,,,,,,,,,
1732081347.488481,1732081347.490460,114.000000,0.000000,4341.410156,4325.000000,4348.333496,4329.358887,4313.589844,4347.179688,4326.922852,4369.102539,4354.871582,4329.102539,4453.589844,4474.871582,4388.333496,4411.025879,1359.000000,0.000000,14.000000,,,,0.000000,2.000000,2.000000,0.000000,2.000000,2.000000,2.000000,0.000000,2.000000,4.000000,4.000000,4.000000,4.000000,2.000000,4.000000,16.666666,,,,,,,,,,,,,,,,,,,,,,,,,,,,
1732081347.496290,1732081347.498268,115.000000,0.000000,4338.846191,4323.974121,4348.333496,4327.179688,4311.410156,4350.769043,4325.641113,4367.692383,4356.538574,4324.871582,4454.615234,4482.820313,4387.436035,4415.128418,1499.000000,0.000000,14.000000,,,,0.000000,2.000000,2.000000,0.000000,2.000000,2.000000,2.000000,0.000000,2.000000,4.000000,4.000000,4.000000,4.000000,2.000000,4.000000,16.666666,,,,,,,,,,,,,,,,,,,,,,,,,,,,
1732081347.504098,1732081347.506177,116.000000,0.000000,4343.333496,4327.179688,4349.487305,4331.794922,4317.820313,4346.410156,4331.410156,4366.922852,4356.666504,4325.256348,4454.102539,4485.769043,4390.000000,4418.974121,1723.000000,0.000000,14.000000,,,,0.000000,2.000000,2.000000,0.000000,2.000000,2.000000,2.000000,0.000000,2.000000,4.000000,4.000000,4.000000,4.000000,2.000000,4.000000,16.666666,,,,,,,,,,,,,,,,,29.000000,0.000000,0.618689,0.417297,-0.593445,0.301514,0.999634,0.165548,-0.093273,-75.857796,64.692673,26.876293
1732081347.511906,1732081347.513985,117.000000,0.000000,4350.000000,4330.641113,4355.641113,4335.897461,4314.358887,4345.897461,4337.692383,4369.358887,4357.051270,4329.358887,4457.563965,4485.512695,4394.230957,4418.974121,1646.000000,0.000000,14.000000,,,,0.000000,2.000000,2.000000,0.000000,2.000000,2.000000,2.000000,0.000000,2.000000,4.000000,4.000000,4.000000,4.000000,2.000000,4.000000,16.666666,,,,,,,,,,,,,,,,,,,,,,,,,,,,
1732081347.519714,1732081347.521993,118.000000,0.000000,4351.025879,4330.641113,4359.743652,4334.871582,4309.230957,4346.666504,4334.102539,4371.282227,4358.461426,4328.974121,4457.820313,4483.077148,4395.128418,4418.846191,1359.000000,0.000000,14.000000,,,,0.000000,2.000000,2.000000,0.000000,2.000000,2.000000,2.000000,0.000000,2.000000,4.000000,4.000000,4.000000,4.000000,2.000000,4.000000,16.666666,,,,,,,,,,,,,,,,,,,,,,,,,,,,
1732081347.527523,1732081347.529801,119.000000,0.000000,4347.051270,4329.487305,4358.974121,4331.153809,4307.436035,4344.743652,4334.102539,4371.794922,4357.307617,4327.692383,4454.358887,4482.820313,4393.077148,4418.205078,1499.000000,0.000000,14.000000,,,,0.000000,2.000000,2.000000,0.000000,2.000000,2.000000,2.000000,0.000000,2.000000,4.000000,4.000000,4.000000,4.000000,2.000000,4.000000,16.666666,,,,,,,,,,,,,,,,,,,,,,,,,,,,
1732081347.535331,1732081347.537509,120.000000,0.000000,4346.153809,4328.589844,4353.717773,4330.769043,4307.820313,4346.153809,4336.666504,4371.666504,4358.205078,4333.974121,4453.846191,4483.461426,4392.820313,4417.692383,1723.000000,0.000000,14.000000,,,,0.000000,2.000000,2.000000,0.000000,2.000000,2.000000,2.000000,0.000000,2.000000,4.000000,4.000000,4.000000,4.000000,2.000000,4.000000,16.666666,,,,,,,,,,,,,,,,,30.000000,0.000000,0.618273,0.418213,-0.593079,0.301819,0.997680,0.098645,-0.072274,-75.853149,64.816063,26.791464
1732081347.543139,1732081347.545317,121.000000,0.000000,4347.436035,4327.948730,4354.487305,4333.461426,4312.948730,4350.512695,4336.666504,4371.922852,4361.153809,4336.410156,4452.692383,4480.897461,4386.666504,4415.256348,1646.000000,0.000000,14.000000,,,,0.000000,2.000000,2.000000,0.000000,2.000000,2.000000,2.000000,0.000000,2.000000,4.000000,4.000000,4.000000,4.000000,2.000000,4.000000,16.666666,,,,,,,,,,,,,,,,,,,,,,,,,,,,
1732081347.550947,1732081347.552926,122.000000,0.000000,4342.820313,4326.025879,4350.384766,4335.384766,4314.487305,4350.128418,4333.717773,4369.871582,4360.512695,4329.358887,4450.000000,4474.871582,4378.846191,4411.666504,1359.000000,0.000000,14.000000,,,,0.000000,2.000000,2.000000,0.000000,2.000000,2.000000,2.000000,0.000000,2.000000,4.000000,4.000000,4.000000,4.000000,2.000000,4.000000,16.666666,,,,,,,,,,,,,,,,,,,,,,,,,,,,
1732081347.558756,1732081347.560734,123.000000,0.000000,4338.974121,4321.666504,4349.358887,4334.487305,4311.410156,4344.487305,4335.000000,4366.794922,4358.974121,4330.256348,4452.307617,4476.794922,4382.307617,4414.230957,1499.000000,0.000000,14.000000,,,,0.000000,2.000000,2.000000,0.000000,2.000000,2.000000,2.000000,0.000000,2.000000,4.000000,4.000000,4.000000,4.000000,2.000000,4.000000,16.666666,,,,,,,,,,,,,,,,,,,,,,,,,,,,
1732081347.566564,1732081347.568442,124.000000,0.000000,4342.179688,4318.974121,4351.025879,4336.410156,4312.820313,4345.641113,4333.846191,4367.692383,4361.666504,4337.051270,4457.563965,4478.205078,4385.256348,4417.179688,1723.000000,0.000000,14.000000,,,,0.000000,2.000000,2.000000,0.000000,2.000000,2.000000,2.000000,0.000000,2.000000,4.000000,4.000000,4.000000,4.000000,2.000000,4.000000,16.666666,,,,,,,,,,,,,,,,,31.000000,0.000000,0.617232,0.416870,-0.594421,0.303162,1.005494,0.050299,-0.056648,-75.596054,65.104347,26.609419
1732081347.574372,1732081347.576251,125.000000,0.000000,4340.641113,4316.538574,4352.051270,4335.769043,4319.487305,4351.153809,4335.256348,4368.077148,4365.000000,4332.820313,4453.974121,4471.153809,4375.769043,4413.077148,1646.000000,0.000000,14.000000,,,,0.000000,2.000000,2.000000,0.000000,2.000000,2.000000,2.000000,0.000000,2.000000,4.000000,4.000000,4.000000,4.000000,2.000000,4.000000,16.666666,,,,,,,,,,,,,,,,,,,,,,,,,,,,
1732081347.582180,1732081347.583859,126.000000,0.000000,4336.410156,4312.692383,4348.461426,4332.051270,4321.922852,4350.384766,4337.179688,4367.307617,4369.358887,4330.000000,4451.153809,4472.051270,4373.461426,4414.230957,1359.000000,0.000000,14.000000,,,,0.000000,2.000000,2.000000,0.000000,2.000000,2.000000,2.000000,0.000000,2.000000,4.000000,4.000000,4.000000,4.000000,2.000000,4.000000,16.666666,,,,,,,,,,,,,,,,,,,,,,,,,,,,
1732081347.589989,1732081347.591667,127.000000,0.000000,4338.077148,4312.820313,4352.179688,4331.538574,4318.974121,4342.692383,4335.384766,4366.282227,4370.128418,4336.153809,4453.205078,4481.538574,4384.102539,4422.948730,14.000000,0.000000,14.000000,,,,0.000000,2.000000,2.000000,0.000000,2.000000,2.000000,2.000000,0.000000,2.000000,4.000000,4.000000,4.000000,4.000000,2.000000,4.000000,16.666666,,,,,,,,,,,,,,,,,,,,,,,,,,,,
1732081347.597797,1732081347.599376,0.000000,0.000000,4341.153809,4315.000000,4354.615234,4335.769043,4319.871582,4338.461426,4329.871582,4366.025879,4366.666504,4338.974121,4455.641113,4485.000000,4384.871582,4427.179688,3.000000,0.000000,14.000000,,,,0.000000,2.000000,2.000000,0.000000,2.000000,2.000000,2.000000,0.000000,2.000000,4.000000,4.000000,4.000000,4.000000,2.000000,4.000000,16.666666,,,,,,,,,,,,,,,,,0.000000,0.000000,0.616499,0.404724,-0.601685,0.306763,0.972287,0.050299,-0.051764,-75.471138,64.837852,26.683630
1732081347.605605,1732081347.607184,1.000000,0.000000,4342.051270,4317.436035,4350.769043,4339.615234,4323.717773,4342.563965,4329.743652,4367.051270,4365.512695,4336.025879,4458.461426,4484.102539,4379.230957,4427.051270,1287.000000,0.000000,14.000000,,,,0.000000,2.000000,2.000000,0.000000,2.000000,2.000000,2.000000,0.000000,2.000000,4.000000,4.000000,4.000000,4.000000,2.000000,4.000000,16.666666,,,,,,,,,,,,,,,,,,,,,,,,,,,,
1732081347.613413,1732081347.614792,2.000000,0.000000,4345.256348,4321.538574,4348.077148,4340.769043,4323.461426,4343.333496,4332.948730,4366.922852,4364.871582,4333.333496,4459.487305,4484.743652,4383.717773,4429.743652,1212.000000,0.000000,14.000000,,,,0.000000,2.000000,2.000000,0.000000,2.000000,2.000000,2.000000,0.000000,2.000000,4.000000,4.000000,4.000000,4.000000,2.000000,4.000000,16.666666,,,,,,,,,,,,,,,,,,,,,,,,,,,,
1732081347.621221,1732081347.622600,3.000000,0.000000,4349.487305,4320.256348,4350.000000,4336.922852,4319.230957,4338.333496,4333.717773,4367.563965,4361.666504,4330.897461,4459.743652,4482.820313,4391.538574,4437.436035,1162.000000,0.000000,14.000000,,,,0.000000,2.000000,2.000000,0.000000,2.000000,2.000000,2.000000,0.000000,2.000000,4.000000,4.000000,4.000000,4.000000,2.000000,4.000000,16.666666,,,,,,,,,,,,,,,,,,,,,,,,,,,,
1732081347.629030,1732081347.630309,4.000000,0.000000,4355.000000,4314.358887,4352.820313,4333.077148,4312.692383,4336.153809,4332.051270,4367.051270,4360.897461,4331.410156,4463.717773,4487.436035,4396.282227,4447.307617,1189.000000,0.000000,14.000000,,,,0.000000,2.000000,2.000000,0.000000,2.000000,2.000000,2.000000,0.000000,2.000000,4.000000,4.000000,4.000000,4.000000,2.000000,4.000000,16.666666,,,,,,,,,,,,,,,,,1.000000,0.000000,0.617052,0.392639,-0.608154,0.308594,0.935661,0.082041,-0.044439,-75.628288,64.608665,26.710407
1732081347.636838,1732081347.638117,5.000000,0.000000,4362.179688,4314.487305,4350.000000,4334.871582,4310.256348,4336.025879,4329.487305,4365.769043,4362.307617,4332.820313,4466.666504,4494.230957,4397.820313,4450.384766,1057.000000,0.000000,14.000000,,,,0.000000,2.000000,2.000000,0.000000,2.000000,2.000000,2.000000,0.000000,2.000000,4.000000,4.000000,4.000000,4.000000,2.000000,4.000000,16.666666,,,,,,,,,,,,,,,,,,,,,,,,,,,,
1732081347.644646,1732081347.645725,6.000000,0.000000,4367.179688,4316.153809,4350.128418,4333.205078,4311.282227,4331.282227,4328.205078,4364.358887,4357.563965,4328.461426,4463.589844,4489.743652,4396.922852,4451.538574,188.000000,0.000000,14.000000,,,,0.000000,2.000000,2.000000,0.000000,2.000000,2.000000,2.000000,0.000000,2.000000,4.000000,4.000000,4.000000,4.000000,2.000000,4.000000,16.666666,,,,,,,,,,,,,,,,,,,,,,,,,,,,
1732081347.652455,1732081347.653534,7.000000,0.000000,4375.000000,4316.794922,4348.461426,4328.974121,4310.641113,4327.179688,4328.974121,4365.512695,4352.948730,4326.538574,4468.717773,4490.256348,4400.897461,4457.948730,1185.000000,0.000000,14.000000,,,,0.000000,2.000000,2.000000,0.000000,2.000000,2.000000,2.000000,0.000000,2.000000,4.000000,4.000000,4.000000,4.000000,2.000000,4.000000,16.666666,,,,,,,,,,,,,,,,,,,,,,,,,,,,
1732081347.660263,1732081347.661442,8.000000,0.000000,4386.410156,4321.538574,4349.358887,4327.307617,4308.461426,4328.589844,4333.205078,4367.820313,4356.666504,4327.436035,4475.384766,4500.128418,4410.512695,4462.820313,1339.000000,0.000000,14.000000,,,,0.000000,2.000000,2.000000,0.000000,2.000000,2.000000,2.000000,0.000000,2.000000,4.000000,4.000000,4.000000,4.000000,2.000000,4.000000,16.666666,,,,,,,,,,,,,,,,,2.000000,0.000000,0.617453,0.389099,-0.609741,0.309143,0.937126,0.097180,-0.059578,-75.698914,64.429680,26.892096
1732081347.668071,1732081347.669250,9.000000,0.000000,4395.256348,4324.230957,4346.794922,4329.487305,4310.256348,4328.077148,4331.922852,4367.051270,4359.871582,4328.846191,4475.512695,4500.897461,4415.897461,4469.743652,1471.000000,0.000000,14.000000,,,,0.000000,2.000000,2.000000,0.000000,2.000000,2.000000,2.000000,0.000000,2.000000,4.000000,4.000000,4.000000,4.000000,2.000000,4.000000,16.666666,,,,,,,,,,,,,,,,,,,,,,,,,,,,
1732081347.675879,1732081347.676858,10.000000,0.000000,4398.589844,4322.820313,4347.948730,4328.461426,4312.563965,4325.384766,4332.051270,4367.051270,4354.743652,4327.948730,4476.922852,4501.410156,4412.563965,4475.641113,1359.000000,0.000000,14.000000,,,,0.000000,2.000000,2.000000,0.000000,2.000000,2.000000,2.000000,0.000000,2.000000,4.000000,4.000000,4.000000,4.000000,2.000000,4.000000,16.666666,,,,,,,,,,,,,,,,,,,,,,,,,,,,
1732081347.683688,1732081347.684666,11.000000,0.000000,4405.384766,4326.538574,4347.307617,4326.025879,4310.769043,4325.384766,4331.410156,4364.871582,4350.384766,4324.743652,4476.666504,4508.205078,4416.282227,4473.846191,1491.000000,0.000000,14.000000,,,,0.000000,2.000000,2.000000,0.000000,2.000000,2.000000,2.000000,0.000000,2.000000,4.000000,4.000000,4.000000,4.000000,2.000000,4.000000,16.666666,,,,,,,,,,,,,,,,,,,,,,,,,,,,
1732081347.691496,1732081347.692374,12.000000,0.000000,4418.717773,4332.307617,4350.897461,4328.589844,4305.384766,4321.538574,4328.077148,4360.128418,4351.153809,4323.333496,4477.563965,4511.153809,4426.794922,4479.102539,1723.000000,0.000000,14.000000,,,,0.000000,2.000000,2.000000,0.000000,2.000000,2.000000,2.000000,0.000000,2.000000,4.000000,4.000000,4.000000,4.000000,2.000000,4.000000,16.666666,,,,,,,,,,,,,,,,,3.000000,0.000000,0.618316,0.383362,-0.611877,0.310364,0.952753,0.093273,-0.065926,-76.079453,63.998043,27.077599
1732081347.699304,1732081347.700182,13.000000,0.000000,4429.230957,4333.846191,4352.051270,4331.538574,4304.358887,4316.794922,4326.794922,4360.512695,4351.153809,4325.769043,4487.051270,4513.333496,4431.153809,4492.307617,1644.000000,0.000000,14.000000,,,,0.000000,2.000000,2.000000,0.000000,2.000000,2.000000,2.000000,0.000000,2.000000,4.000000,4.000000,4.000000,4.000000,2.000000,4.000000,16.666666,,,,,,,,,,,,,,,,,,,,,,,,,,,,
1732081347.707112,1732081347.707790,14.000000,0.000000,4428.974121,4332.179688,4353.461426,4327.820313,4307.179688,4319.358887,4330.897461,4366.794922,4354.615234,4328.717773,4493.461426,4518.205078,4431.282227,4492.307617,1359.000000,0.000000,14.000000,,,,0.000000,2.000000,2.000000,0.000000,2.000000,2.000000,2.000000,0.000000,2.000000,4.000000,4.000000,4.000000,4.000000,2.000000,4.000000,16.666666,1.000000,16.666666,2.000000,2.000000,0.000000,2.000000,2.000000,2.000000,0.000000,2.000000,4.000000,4.000000,4.000000,4.000000,2.000000,4.000000,,,,,,,,,,,,
1732081347.714920,1732081347.715598,15.000000,0.000000,4430.641113,4332.179688,4353.974121,4326.666504,4306.153809,4321.282227,4330.000000,4366.153809,4357.948730,4328.461426,4491.153809,4517.051270,4431.410156,4491.922852,1491.000000,0.000000,14.000000,,,,0.000000,2.000000,2.000000,0.000000,2.000000,2.000000,2.000000,0.000000,2.000000,4.000000,4.000000,4.000000,4.000000,2.000000,4.000000,16.666666,,,,,,,,,,,,,,,,,,,,,,,,,,,,
1732081347.722729,1732081347.723306,16.000000,0.000000,4439.358887,4336.282227,4352.307617,4335.128418,4304.871582,4318.461426,4329.615234,4359.743652,4352.948730,4323.974121,4488.974121,4514.102539,4431.153809,4504.487305,0.000000,0.000000,14.000000,,,,0.000000,2.000000,2.000000,0.000000,2.000000,2.000000,2.000000,0.000000,2.000000,4.000000,4.000000,4.000000,4.000000,2.000000,4.000000,16.666666,,,,,,,,,,,,,,,,,4.000000,0.000000,0.620196,0.377136,-0.611755,0.314453,0.963497,0.110365,-0.051764,-76.387688,63.565083,27.311188
1732081347.730537,1732081347.731114,17.000000,0.000000,4443.333496,4341.666504,4351.666504,4340.769043,4307.820313,4317.436035,4330.000000,4359.487305,4349.743652,4320.897461,4488.205078,4514.358887,4433.589844,4510.000000,0.000000,0.000000,14.000000,,,,0.000000,2.000000,2.000000,0.000000,2.000000,2.000000,2.000000,0.000000,2.000000,4.000000,4.000000,4.000000,4.000000,2.000000,4.000000,16.666666,,,,,,,,,,,,,,,,,,,,,,,,,,,,
1732081347.738345,1732081347.738722,18.000000,0.000000,4441.794922,4338.589844,4350.256348,4335.256348,4309.358887,4316.538574,4328.205078,4359.871582,4350.384766,4322.820313,4488.333496,4514.743652,4437.051270,4507.436035,0.000000,0.000000,14.000000,,,,0.000000,2.000000,2.000000,0.000000,2.000000,2.000000,2.000000,0.000000,2.000000,4.000000,4.000000,4.000000,4.000000,2.000000,4.000000,16.666666,,,,,,,,,,,,,,,,,,,,,,,,,,,,
1732081347.746153,1732081347.746530,19.000000,0.000000,4441.666504,4330.897461,4351.153809,4329.871582,4307.820313,4315.000000,4327.820313,4359.230957,4349.102539,4325.641113,4493.846191,4519.358887,4435.000000,4509.871582,0.000000,0.000000,14.000000,,,,0.000000,2.000000,2.000000,0.000000,2.000000,2.000000,2.000000,0.000000,2.000000,4.000000,4.000000,4.000000,4.000000,2.000000,4.000000,16.666666,,,,,,,,,,,,,,,,,,,,,,,,,,,,
1732081347.753962,1732081347.754238,20.000000,0.000000,4444.743652,4332.436035,4350.128418,4331.025879,4306.538574,4318.205078,4331.153809,4364.871582,4350.128418,4326.153809,4497.820313,4524.871582,4431.282227,4510.897461,0.000000,0.000000,14.000000,,,,0.000000,2.000000,2.000000,0.000000,2.000000,2.000000,2.000000,0.000000,2.000000,4.000000,4.000000,4.000000,4.000000,2.000000,4.000000,16.666666,,,,,,,,,,,,,,,,,5.000000,0.000000,0.620646,0.376709,-0.610901,0.315735,0.968868,0.101087,-0.034184,-76.557358,63.284382,27.575396
1732081347.761770,1732081347.762046,21.000000,0.000000,4448.589844,4337.563965,4350.769043,4333.205078,4305.512695,4321.153809,4330.128418,4366.666504,4352.563965,4326.538574,4494.358887,4522.948730,4432.563965,4510.769043,0.000000,0.000000,14.000000,,,,0.000000,2.000000,2.000000,0.000000,2.000000,2.000000,2.000000,0.000000,2.000000,4.000000,4.000000,4.000000,4.000000,2.000000,4.000000,16.666666,,,,,,,,,,,,,,,,,,,,,,,,,,,,
1732081347.769578,1732081347.770054,22.000000,0.000000,4450.000000,4340.000000,4349.743652,4331.794922,4307.051270,4320.000000,4328.333496,4359.615234,4350.641113,4327.563965,4492.051270,4517.563965,4433.846191,4512.436035,0.000000,0.000000,14.000000,,,,0.000000,2.000000,2.000000,0.000000,2.000000,2.000000,2.000000,0.000000,2.000000,4.000000,4.000000,4.000000,4.000000,2.000000,4.000000,16.666666,,,,,,,,,,,,,,,,,,,,,,,,,,,,
1732081347.777386,1732081347.777863,23.000000,0.000000,4448.974121,4340.512695,4349.743652,4328.846191,4311.666504,4318.846191,4329.102539,4359.487305,4347.563965,4327.563965,4494.102539,4516.666504,4435.641113,4511.025879,0.000000,0.000000,14.000000,,,,0.000000,2.000000,2.000000,0.000000,2.000000,2.000000,2.000000,0.000000,2.000000,4.000000,4.000000,4.000000,4.000000,2.000000,4.000000,16.666666,,,,,,,,,,,,,,,,,,,,,,,,,,,,
1732081347.785195,1732081347.785771,24.000000,0.000000,4448.333496,4341.282227,4347.563965,4330.641113,4310.384766,4319.743652,4327.820313,4366.538574,4349.358887,4328.589844,4493.974121,4516.153809,4435.384766,4509.102539,0.000000,0.000000,14.000000,,,,0.000000,2.000000,2.000000,0.000000,2.000000,2.000000,2.000000,0.000000,2.000000,4.000000,4.000000,4.000000,4.000000,2.000000,4.000000,16.666666,,,,,,,,,,,,,,,,,6.000000,0.000000,0.621697,0.377014,-0.608276,0.318359,0.984007,0.097668,-0.021975,-76.778130,62.885349,27.816071
1732081347.793003,1732081347.793579,25.000000,0.000000,4446.922852,4341.538574,4347.563965,4333.974121,4310.000000,4320.384766,4327.307617,4368.589844,4351.153809,4328.589844,4491.282227,4515.128418,4431.922852,4507.307617,0.000000,0.000000,14.000000,,,,0.000000,2.000000,2.000000,0.000000,2.000000,2.000000,2.000000,0.000000,2.000000,4.000000,4.000000,4.000000,4.000000,2.000000,4.000000,16.666666,,,,,,,,,,,,,,,,,,,,,,,,,,,,
1732081347.800811,1732081347.801187,26.000000,0.000000,4444.487305,4341.282227,4346.666504,4331.153809,4322.692383,4317.563965,4323.717773,4364.487305,4348.205078,4328.205078,4492.563965,4513.589844,4433.974121,4505.897461,0.000000,0.000000,14.000000,,,,0.000000,2.000000,2.000000,0.000000,2.000000,2.000000,2.000000,0.000000,2.000000,4.000000,4.000000,4.000000,4.000000,2.000000,4.000000,16.666666,,,,,,,,,,,,,,,,,,,,,,,,,,,,
1732081347.808619,1732081347.808995,27.000000,0.000000,4445.128418,4338.846191,4344.358887,4328.589844,4324.487305,4315.769043,4321.922852,4361.666504,4346.922852,4328.717773,4492.179688,4508.846191,4435.384766,4506.153809,0.000000,0.000000,14.000000,,,,0.000000,2.000000,2.000000,0.000000,2.000000,2.000000,2.000000,0.000000,2.000000,4.000000,4.000000,4.000000,4.000000,2.000000,4.000000,16.666666,,,,,,,,,,,,,,,,,,,,,,,,,,,,
1732081347.816428,1732081347.816703,28.000000,0.000000,4444.230957,4338.846191,4343.205078,4332.692383,4308.717773,4322.948730,4325.000000,4361.538574,4351.410156,4328.333496,4489.743652,4508.205078,4429.102539,4507.179688,0.000000,0.000000,14.000000,,,,0.000000,2.000000,2.000000,0.000000,2.000000,2.000000,2.000000,0.000000,2.000000,4.000000,4.000000,4.000000,4.000000,2.000000,4.000000,16.666666,,,,,,,,,,,,,,,,,7.000000,0.000000,0.624175,0.378784,-0.601868,0.323547,1.012819,0.069833,0.016604,-77.136955,62.780468,28.104351
1732081347.824236,1732081347.824511,29.000000,0.000000,4441.282227,4343.461426,4345.769043,4336.410156,4310.897461,4328.461426,4328.077148,4362.051270,4356.282227,4328.846191,4491.025879,4514.615234,4427.948730,4507.179688,0.000000,0.000000,14.000000,,,,0.000000,2.000000,2.000000,0.000000,2.000000,2.000000,2.000000,0.000000,2.000000,4.000000,4.000000,4.000000,4.000000,2.000000,4.000000,16.666666,,,,,,,,,,,,,,,,,,,,,,,,,,,,
1732081347.832044,1732081347.832519,30.000000,0.000000,4441.025879,4342.692383,4348.589844,4335.897461,4325.769043,4324.871582,4322.948730,4363.846191,4357.692383,4332.948730,4493.333496,4517.436035,4432.307617,4507.307617,0.000000,0.000000,14.000000,,,,0.000000,2.000000,2.000000,0.000000,2.000000,2.000000,2.000000,0.000000,2.000000,4.000000,4.000000,4.000000,4.000000,2.000000,4.000000,16.666666,,,,,,,,,,,,,,,,,,,,,,,,,,,,
1732081347.839852,1732081347.840327,31.000000,0.000000,4439.102539,4337.051270,4348.077148,4337.307617,4322.436035,4323.461426,4323.717773,4365.128418,4356.410156,4337.051270,4492.692383,4516.922852,4427.436035,4506.794922,0.000000,0.000000,14.000000,,,,0.000000,2.000000,2.000000,0.000000,2.000000,2.000000,2.000000,0.000000,2.000000,4.000000,4.000000,4.000000,4.000000,2.000000,4.000000,16.666666,,,,,,,,,,,,,,,,,,,,,,,,,,,,
1732081347.847661,1732081347.848235,32.000000,0.000000,4436.410156,4337.179688,4344.615234,4340.512695,4316.666504,4326.922852,4327.436035,4365.641113,4353.461426,4335.897461,4491.794922,4522.051270,4421.666504,4506.538574,0.000000,0.000000,14.000000,,,,0.000000,2.000000,2.000000,0.000000,2.000000,2.000000,2.000000,0.000000,2.000000,4.000000,4.000000,4.000000,4.000000,2.000000,4.000000,16.666666,,,,,,,,,,,,,,,,,8.000000,0.000000,0.625662,0.379089,-0.599304,0.325073,0.992797,0.062996,0.032719,-77.344261,62.578846,28.371191
1732081347.855469,1732081347.856044,33.000000,0.000000,4436.282227,4339.358887,4346.282227,4342.820313,4322.179688,4327.051270,4326.666504,4367.051270,4351.922852,4335.128418,4492.307617,4524.358887,4424.871582,4507.563965,0.000000,0.000000,14.000000,,,,0.000000,2.000000,2.000000,0.000000,2.000000,2.000000,2.000000,0.000000,2.000000,4.000000,4.000000,4.000000,4.000000,2.000000,4.000000,16.666666,,,,,,,,,,,,,,,,,,,,,,,,,,,,
1732081347.863277,1732081347.864052,34.000000,0.000000,4437.436035,4339.102539,4350.641113,4344.743652,4321.538574,4322.179688,4323.333496,4365.769043,4355.000000,4337.948730,4492.436035,4517.307617,4425.769043,4505.384766,0.000000,0.000000,14.000000,,,,0.000000,2.000000,2.000000,0.000000,2.000000,2.000000,2.000000,0.000000,2.000000,4.000000,4.000000,4.000000,4.000000,2.000000,4.000000,16.666666,,,,,,,,,,,,,,,,,,,,,,,,,,,,
1732081347.871085,1732081347.871860,35.000000,0.000000,4435.641113,4340.128418,4350.384766,4342.820313,4317.051270,4319.487305,4324.871582,4360.000000,4355.769043,4339.230957,4493.333496,4515.384766,4425.512695,4504.615234,0.000000,0.000000,14.000000,,,,0.000000,2.000000,2.000000,0.000000,2.000000,2.000000,2.000000,0.000000,2.000000,4.000000,4.000000,4.000000,4.000000,2.000000,4.000000,16.666666,,,,,,,,,,,,,,,,,,,,,,,,,,,,
1732081347.878894,1732081347.879768,36.000000,0.000000,4431.153809,4340.256348,4348.846191,4342.179688,4316.410156,4323.846191,4327.051270,4359.102539,4353.077148,4337.692383,4492.436035,4517.436035,4428.846191,4505.769043,0.000000,0.000000,14.000000,,,,0.000000,2.000000,2.000000,0.000000,2.000000,2.000000,2.000000,0.000000,2.000000,4.000000,4.000000,4.000000,4.000000,2.000000,4.000000,16.666666,,,,,,,,,,,,,,,,,9.000000,0.000000,0.626385,0.379211,-0.598206,0.325562,0.992797,0.062996,0.032719,-77.532188,62.848866,28.775663
1732081347.886702,1732081347.887576,37.000000,0.000000,4427.307617,4334.743652,4352.307617,4345.641113,4317.436035,4327.436035,4326.282227,4363.974121,4353.205078,4335.256348,4490.000000,4511.410156,4425.128418,4501.410156,0.000000,0.000000,14.000000,,,,0.000000,2.000000,2.000000,0.000000,2.000000,2.000000,2.000000,0.000000,2.000000,4.000000,4.000000,4.000000,4.000000,2.000000,4.000000,16.666666,,,,,,,,,,,,,,,,,,,,,,,,,,,,
1732081347.894510,1732081347.895584,38.000000,0.000000,4426.922852,4331.794922,4352.179688,4347.692383,4318.333496,4326.025879,4326.922852,4365.384766,4353.717773,4334.358887,4489.743652,4507.820313,4418.205078,4499.487305,0.000000,0.000000,14.000000,,,,0.000000,2.000000,2.000000,0.000000,2.000000,2.000000,2.000000,0.000000,2.000000,4.000000,4.000000,4.000000,4.000000,2.000000,4.000000,16.666666,,,,,,,,,,,,,,,,,,,,,,,,,,,,
1732081347.902318,1732081347.903392,39.000000,0.000000,4427.307617,4335.897461,4349.871582,4347.179688,4319.615234,4325.897461,4327.307617,4363.717773,4352.563965,4334.358887,4489.358887,4508.461426,4418.846191,4498.717773,0.000000,0.000000,14.000000,,,,0.000000,2.000000,2.000000,0.000000,2.000000,2.000000,2.000000,0.000000,2.000000,4.000000,4.000000,4.000000,4.000000,2.000000,4.000000,16.666666,,,,,,,,,,,,,,,,,,,,,,,,,,,,
1732081347.910127,1732081347.911300,40.000000,0.000000,4425.897461,4339.230957,4349.358887,4347.563965,4314.871582,4326.794922,4327.692383,4362.692383,4352.948730,4334.358887,4489.615234,4507.692383,4419.230957,4493.589844,0.000000,0.000000,14.000000,,,,0.000000,2.000000,2.000000,0.000000,2.000000,2.000000,2.000000,0.000000,2.000000,4.000000,4.000000,4.000000,4.000000,2.000000,4.000000,16.666666,,,,,,,,,,,,,,,,,10.000000,0.000000,0.628273,0.381104,-0.595215,0.325195,0.980588,0.107923,0.015139,-77.641075,62.607578,28.904955
1732081347.917935,1732081347.919109,41.000000,0.000000,4423.077148,4338.717773,4351.410156,4348.077148,4312.563965,4328.205078,4328.077148,4364.230957,4353.205078,4334.487305,4488.589844,4508.077148,4416.025879,4488.846191,0.000000,0.000000,14.000000,,,,0.000000,2.000000,2.000000,0.000000,2.000000,2.000000,2.000000,0.000000,2.000000,4.000000,4.000000,4.000000,4.000000,2.000000,4.000000,16.666666,,,,,,,,,,,,,,,,,,,,,,,,,,,,
1732081347.925743,1732081347.927117,42.000000,0.000000,4416.922852,4333.846191,4352.307617,4344.615234,4327.563965,4328.205078,4328.717773,4366.666504,4348.717773,4332.051270,4485.256348,4510.897461,4413.846191,4485.897461,0.000000,0.000000,14.000000,,,,0.000000,2.000000,2.000000,0.000000,2.000000,2.000000,2.000000,0.000000,2.000000,4.000000,4.000000,4.000000,4.000000,2.000000,4.000000,16.666666,,,,,,,,,,,,,,,,,,,,,,,,,,,,
1732081347.933551,1732081347.934925,43.000000,0.000000,4411.153809,4332.179688,4353.461426,4343.589844,4334.358887,4326.794922,4327.307617,4363.717773,4349.487305,4329.743652,4481.025879,4509.358887,4413.077148,4478.974121,0.000000,0.000000,14.000000,,,,0.000000,2.000000,2.000000,0.000000,2.000000,2.000000,2.000000,0.000000,2.000000,4.000000,4.000000,4.000000,4.000000,2.000000,4.000000,16.666666,,,,,,,,,,,,,,,,,,,,,,,,,,,,
1732081347.941360,1732081347.942633,44.000000,0.000000,4410.000000,4335.384766,4355.000000,4346.282227,4315.897461,4328.846191,4330.256348,4360.512695,4353.846191,4331.538574,4480.769043,4507.307617,4414.230957,4476.922852,0.000000,0.000000,14.000000,,,,0.000000,2.000000,2.000000,0.000000,2.000000,2.000000,2.000000,0.000000,2.000000,4.000000,4.000000,4.000000,4.000000,2.000000,4.000000,16.666666,,,,,,,,,,,,,,,,,11.000000,0.000000,0.629184,0.382568,-0.594177,0.323608,0.957636,0.124527,-0.011232,-77.452599,62.463806,29.078012
1732081347.949168,1732081347.950441,45.000000,0.000000,4407.948730,4335.641113,4353.717773,4343.333496,4308.333496,4330.128418,4331.410156,4364.871582,4352.692383,4335.384766,4487.051270,4507.179688,4415.641113,4481.794922,0.000000,0.000000,14.000000,,,,0.000000,2.000000,2.000000,0.000000,2.000000,2.000000,2.000000,0.000000,2.000000,4.000000,4.000000,4.000000,4.000000,2.000000,4.000000,16.666666,,,,,,,,,,,,,,,,,,,,,,,,,,,,
1732081347.956976,1732081347.958050,46.000000,0.000000,4404.743652,4332.563965,4355.384766,4337.563965,4321.538574,4328.846191,4331.538574,4368.205078,4352.820313,4337.563965,4489.743652,4510.000000,4415.384766,4480.897461,0.000000,0.000000,14.000000,,,,0.000000,2.000000,2.000000,0.000000,2.000000,2.000000,2.000000,0.000000,2.000000,4.000000,4.000000,4.000000,4.000000,2.000000,4.000000,16.666666,,,,,,,,,,,,,,,,,,,,,,,,,,,,
1732081347.964784,1732081347.965858,47.000000,0.000000,4404.102539,4333.077148,4354.230957,4338.205078,4327.436035,4331.666504,4331.538574,4366.922852,4355.512695,4337.051270,4483.077148,4512.307617,4412.948730,4476.410156,0.000000,0.000000,14.000000,,,,0.000000,2.000000,2.000000,0.000000,2.000000,2.000000,2.000000,0.000000,2.000000,4.000000,4.000000,4.000000,4.000000,2.000000,4.000000,16.666666,,,,,,,,,,,,,,,,,,,,,,,,,,,,
1732081347.972592,1732081347.973566,48.000000,0.000000,4401.153809,4335.128418,4350.256348,4340.256348,4318.974121,4336.538574,4332.820313,4365.000000,4352.436035,4330.256348,4475.641113,4508.333496,4409.871582,4470.000000,0.000000,0.000000,14.000000,,,,0.000000,2.000000,2.000000,0.000000,2.000000,2.000000,2.000000,0.000000,2.000000,4.000000,4.000000,4.000000,4.000000,2.000000,4.000000,16.666666,,,,,,,,,,,,,,,,,12.000000,0.000000,0.629083,0.383423,-0.593567,0.323914,0.988890,0.099133,0.000977,-77.448273,62.137348,29.253191
1732081347.980401,1732081347.981375,49.000000,0.000000,4393.846191,4332.436035,4348.077148,4337.179688,4318.717773,4334.871582,4332.051270,4364.871582,4351.538574,4327.692383,4475.000000,4505.128418,4407.436035,4462.820313,0.000000,0.000000,14.000000,,,,0.000000,2.000000,2.000000,0.000000,2.000000,2.000000,2.000000,0.000000,2.000000,4.000000,4.000000,4.000000,4.000000,2.000000,4.000000,16.666666,,,,,,,,,,,,,,,,,,,,,,,,,,,,
1732081347.988209,1732081347.988983,50.000000,0.000000,4388.333496,4330.769043,4351.666504,4332.692383,4330.641113,4332.563965,4334.743652,4366.666504,4356.410156,4331.025879,4475.641113,4505.256348,4403.717773,4460.384766,0.000000,0.000000,14.000000,,,,0.000000,2.000000,2.000000,0.000000,2.000000,2.000000,2.000000,0.000000,2.000000,4.000000,4.000000,4.000000,4.000000,2.000000,4.000000,16.666666,,,,,,,,,,,,,,,,,,,,,,,,,,,,
1732081347.996017,1732081347.996791,51.000000,0.000000,4389.358887,4331.922852,4353.846191,4338.077148,4333.589844,4338.461426,4334.871582,4368.589844,4356.153809,4330.256348,4473.974121,4501.153809,4397.563965,4461.025879,0.000000,0.000000,14.000000,,,,0.000000,2.000000,2.000000,0.000000,2.000000,2.000000,2.000000,0.000000,2.000000,4.000000,4.000000,4.000000,4.000000,2.000000,4.000000,16.666666,,,,,,,,,,,,,,,,,,,,,,,,,,,,
1732081348.003826,1732081348.004499,52.000000,0.000000,4391.410156,4334.743652,4352.948730,4348.717773,4323.461426,4346.153809,4331.794922,4368.205078,4353.589844,4327.051270,4473.589844,4499.102539,4394.102539,4461.153809,0.000000,0.000000,14.000000,,,,0.000000,2.000000,2.000000,0.000000,2.000000,2.000000,2.000000,0.000000,2.000000,4.000000,4.000000,4.000000,4.000000,2.000000,4.000000,16.666666,,,,,,,,,,,,,,,,,13.000000,0.000000,0.629083,0.383423,-0.593567,0.323914,0.988890,0.099133,0.000977,-77.459770,61.887920,29.440084
1732081348.011634,1732081348.012308,53.000000,0.000000,4391.666504,4336.153809,4351.922852,4350.512695,4320.769043,4340.769043,4330.000000,4367.179688,4357.563965,4329.615234,4473.974121,4500.512695,4396.410156,4462.179688,0.000000,0.000000,14.000000,,,,0.000000,2.000000,2.000000,0.000000,2.000000,2.000000,2.000000,0.000000,2.000000,4.000000,4.000000,4.000000,4.000000,2.000000,4.000000,16.666666,,,,,,,,,,,,,,,,,,,,,,,,,,,,
1732081348.019442,1732081348.019916,54.000000,0.000000,4392.563965,4335.512695,4353.717773,4346.922852,4325.128418,4331.922852,4332.051270,4365.384766,4358.717773,4330.897461,4475.641113,4500.000000,4397.948730,4463.717773,0.000000,0.000000,14.000000,,,,0.000000,2.000000,2.000000,0.000000,2.000000,2.000000,2.000000,0.000000,2.000000,4.000000,4.000000,4.000000,4.000000,2.000000,4.000000,16.666666,,,,,,,,,,,,,,,,,,,,,,,,,,,,
1732081348.027250,1732081348.027724,55.000000,0.000000,4391.794922,4339.871582,4354.615234,4348.205078,4321.922852,4338.974121,4335.897461,4366.666504,4358.974121,4331.410156,4476.025879,4499.358887,4397.563965,4462.692383,0.000000,0.000000,14.000000,,,,0.000000,2.000000,2.000000,0.000000,2.000000,2.000000,2.000000,0.000000,2.000000,4.000000,4.000000,4.000000,4.000000,2.000000,4.000000,16.666666,,,,,,,,,,,,,,,,,,,,,,,,,,,,
1732081348.035058,1732081348.035432,56.000000,0.000000,4388.205078,4338.974121,4353.077148,4347.051270,4321.282227,4343.846191,4333.333496,4370.641113,4362.307617,4338.589844,4476.922852,4503.077148,4399.871582,4461.794922,0.000000,0.000000,14.000000,,,,0.000000,2.000000,2.000000,0.000000,2.000000,2.000000,2.000000,0.000000,2.000000,4.000000,4.000000,4.000000,4.000000,2.000000,4.000000,16.666666,,,,,,,,,,,,,,,,,14.000000,0.000000,0.628377,0.381348,-0.594849,0.325378,0.959101,0.060554,0.011232,-77.397415,62.017548,29.249802
1732081348.042867,1732081348.043240,57.000000,0.000000,4383.717773,4333.461426,4351.922852,4342.692383,4327.307617,4336.025879,4330.256348,4368.589844,4357.820313,4337.692383,4477.307617,4504.358887,4401.794922,4462.436035,0.000000,0.000000,14.000000,,,,0.000000,2.000000,2.000000,0.000000,2.000000,2.000000,2.000000,0.000000,2.000000,4.000000,4.000000,4.000000,4.000000,2.000000,4.000000,16.666666,,,,,,,,,,,,,,,,,,,,,,,,,,,,
1732081348.050675,1732081348.050848,58.000000,0.000000,4382.692383,4336.410156,4351.794922,4345.256348,4322.563965,4335.384766,4331.025879,4362.051270,4351.153809,4329.615234,4472.948730,4498.717773,4400.769043,4462.563965,0.000000,0.000000,14.000000,,,,0.000000,2.000000,2.000000,0.000000,2.000000,2.000000,2.000000,0.000000,2.000000,4.000000,4.000000,4.000000,4.000000,2.000000,4.000000,16.666666,,,,,,,,,,,,,,,,,,,,,,,,,,,,
1732081348.058483,1732081348.058656,59.000000,0.000000,4380.256348,4341.025879,4352.436035,4342.820313,4325.769043,4342.051270,4332.948730,4359.615234,4353.717773,4324.743652,4463.205078,4491.025879,4391.410156,4454.102539,0.000000,0.000000,14.000000,,,,0.000000,2.000000,2.000000,0.000000,2.000000,2.000000,2.000000,0.000000,2.000000,4.000000,4.000000,4.000000,4.000000,2.000000,4.000000,16.666666,,,,,,,,,,,,,,,,,,,,,,,,,,,,
1732081348.066291,1732081348.066364,60.000000,0.000000,4377.948730,4339.871582,4351.666504,4337.051270,4343.205078,4340.128418,4328.717773,4356.922852,4355.384766,4323.461426,4457.307617,4491.410156,4385.512695,4448.333496,0.000000,0.000000,14.000000,,,,0.000000,2.000000,2.000000,0.000000,2.000000,2.000000,2.000000,0.000000,2.000000,4.000000,4.000000,4.000000,4.000000,2.000000,4.000000,16.666666,,,,,,,,,,,,,,,,,15.000000,0.000000,0.628954,0.379517,-0.595276,0.325623,0.942986,0.050299,0.027347,-77.508568,62.144215,29.357340
1732081348.074100,1732081348.074172,61.000000,0.000000,4381.538574,4341.538574,4352.692383,4342.563965,4340.897461,4336.666504,4330.256348,4359.102539,4351.538574,4327.948730,4466.794922,4502.051270,4393.717773,4457.692383,0.000000,0.000000,14.000000,,,,0.000000,2.000000,2.000000,0.000000,2.000000,2.000000,2.000000,0.000000,2.000000,4.000000,4.000000,4.000000,4.000000,2.000000,4.000000,16.666666,,,,,,,,,,,,,,,,,,,,,,,,,,,,
