title:one3, start timestamp:1732082789.636178, stop timestamp:1732082845.512112, headset type:EPOCX, headset serial:E5020C3A, headset firmware:730, channels:55, sampling rate:eeg_128, samples:7157      , version:2.2, 
Timestamp,OriginalTimestamp,EEG.Counter,EEG.Interpolated,EEG.AF3,EEG.F7,EEG.F3,EEG.FC5,EEG.T7,EEG.P7,EEG.O1,EEG.O2,EEG.P8,EEG.T8,EEG.FC6,EEG.F4,EEG.F8,EEG.AF4,EEG.RawCq,EEG.Battery,EEG.BatteryPercent,MarkerIndex,MarkerType,MarkerValueInt,EEG.MarkerHardware,CQ.AF3,CQ.F7,CQ.F3,CQ.FC5,CQ.T7,CQ.P7,CQ.O1,CQ.O2,CQ.P8,CQ.T8,CQ.FC6,CQ.F4,CQ.F8,CQ.AF4,CQ.Overall,EQ.SampleRateQuality,EQ.OVERALL,EQ.AF3,EQ.F7,EQ.F3,EQ.FC5,EQ.T7,EQ.P7,EQ.O1,EQ.O2,EQ.P8,EQ.T8,EQ.FC6,EQ.F4,EQ.F8,EQ.AF4
1732082789.636178,1732082789.638195,105.000000,0.000000,4345.641113,4302.563965,4321.922852,4323.717773,4292.563965,4297.179688,4163.717773,4342.179688,4330.000000,4311.025879,4449.871582,4495.256348,4349.615234,4410.256348,1656.000000,0.000000,8.000000,,,,0.000000,2.000000,2.000000,0.000000,2.000000,2.000000,2.000000,0.000000,2.000000,4.000000,4.000000,4.000000,4.000000,2.000000,4.000000,16.666666,,,,,,,,,,,,,,,,
1732082789.643986,1732082789.645803,106.000000,0.000000,4342.692383,4309.743652,4324.358887,4325.769043,4294.487305,4297.307617,4162.307617,4343.205078,4327.179688,4311.922852,4443.077148,4490.512695,4349.230957,4407.179688,1367.000000,0.000000,8.000000,,,,0.000000,2.000000,2.000000,0.000000,2.000000,2.000000,2.000000,0.000000,2.000000,4.000000,4.000000,4.000000,4.000000,2.000000,4.000000,16.666666,,,,,,,,,,,,,,,,
1732082789.651794,1732082789.653611,107.000000,0.000000,4337.179688,4311.410156,4325.897461,4326.025879,4295.512695,4299.871582,4162.051270,4339.615234,4323.974121,4306.666504,4436.025879,4488.333496,4340.897461,4401.794922,1509.000000,0.000000,8.000000,,,,0.000000,2.000000,2.000000,0.000000,2.000000,2.000000,2.000000,0.000000,2.000000,4.000000,4.000000,4.000000,4.000000,2.000000,4.000000,16.666666,,,,,,,,,,,,,,,,
1732082789.659603,1732082789.661320,108.000000,0.000000,4338.333496,4308.205078,4321.922852,4327.179688,4298.461426,4303.205078,4158.717773,4336.794922,4325.128418,4304.871582,4433.717773,4493.333496,4339.615234,4402.307617,1738.000000,0.000000,8.000000,,,,0.000000,2.000000,2.000000,0.000000,2.000000,2.000000,2.000000,0.000000,2.000000,4.000000,4.000000,4.000000,4.000000,2.000000,4.000000,16.666666,,,,,,,,,,,,,,,,
1732082789.667411,1732082789.669128,109.000000,0.000000,4342.820313,4308.333496,4325.128418,4324.615234,4296.922852,4302.179688,4160.128418,4336.538574,4324.358887,4306.153809,4433.205078,4495.384766,4346.282227,4406.666504,1656.000000,0.000000,8.000000,,,,0.000000,2.000000,2.000000,0.000000,2.000000,2.000000,2.000000,0.000000,2.000000,4.000000,4.000000,4.000000,4.000000,2.000000,4.000000,16.666666,,,,,,,,,,,,,,,,
1732082789.675219,1732082789.677136,110.000000,0.000000,4342.051270,4311.025879,4323.205078,4324.102539,4295.769043,4301.794922,4159.102539,4334.615234,4320.256348,4306.666504,4434.871582,4493.077148,4346.666504,4406.922852,1367.000000,0.000000,8.000000,,,,0.000000,2.000000,2.000000,0.000000,2.000000,2.000000,2.000000,0.000000,2.000000,4.000000,4.000000,4.000000,4.000000,2.000000,4.000000,16.666666,,,,,,,,,,,,,,,,
1732082789.683027,1732082789.684944,111.000000,0.000000,4337.307617,4311.153809,4322.820313,4325.000000,4296.922852,4303.077148,4157.436035,4334.615234,4321.153809,4308.717773,4436.025879,4496.410156,4343.077148,4405.256348,1509.000000,0.000000,8.000000,,,,0.000000,2.000000,2.000000,0.000000,2.000000,2.000000,2.000000,0.000000,2.000000,4.000000,4.000000,4.000000,4.000000,2.000000,4.000000,16.666666,,,,,,,,,,,,,,,,
1732082789.690836,1732082789.692852,112.000000,0.000000,4336.153809,4309.230957,4321.794922,4324.871582,4294.358887,4300.000000,4156.922852,4340.000000,4330.256348,4312.563965,4435.641113,4497.692383,4343.333496,4408.077148,1738.000000,0.000000,8.000000,,,,0.000000,2.000000,2.000000,0.000000,2.000000,2.000000,2.000000,0.000000,2.000000,4.000000,4.000000,4.000000,4.000000,2.000000,4.000000,16.666666,,,,,,,,,,,,,,,,
1732082789.698644,1732082789.700660,113.000000,0.000000,4333.333496,4306.153809,4323.717773,4321.794922,4293.205078,4297.051270,4158.589844,4344.102539,4333.333496,4313.974121,4436.282227,4493.205078,4346.794922,4407.436035,1656.000000,0.000000,8.000000,,,,0.000000,2.000000,2.000000,0.000000,2.000000,2.000000,2.000000,0.000000,2.000000,4.000000,4.000000,4.000000,4.000000,2.000000,4.000000,16.666666,,,,,,,,,,,,,,,,
1732082789.706452,1732082789.708668,114.000000,0.000000,4323.589844,4305.256348,4322.179688,4318.077148,4293.717773,4301.153809,4155.000000,4342.436035,4328.333496,4314.102539,4437.307617,4489.358887,4346.922852,4400.512695,1367.000000,0.000000,8.000000,,,,0.000000,2.000000,2.000000,0.000000,2.000000,2.000000,2.000000,0.000000,2.000000,4.000000,4.000000,4.000000,4.000000,2.000000,4.000000,16.666666,,,,,,,,,,,,,,,,
1732082789.714260,1732082789.716476,115.000000,0.000000,4318.077148,4306.794922,4319.358887,4318.333496,4295.256348,4305.128418,4154.358887,4341.282227,4327.307617,4310.384766,4434.102539,4488.333496,4340.256348,4397.436035,1509.000000,0.000000,8.000000,,,,0.000000,2.000000,2.000000,0.000000,2.000000,2.000000,2.000000,0.000000,2.000000,4.000000,4.000000,4.000000,4.000000,2.000000,4.000000,16.666666,,,,,,,,,,,,,,,,
1732082789.722069,1732082789.724385,116.000000,0.000000,4320.256348,4307.307617,4321.153809,4320.769043,4307.820313,4306.025879,4159.358887,4344.743652,4329.487305,4303.846191,4433.589844,4489.487305,4338.205078,4399.102539,1738.000000,0.000000,8.000000,,,,0.000000,2.000000,2.000000,0.000000,2.000000,2.000000,2.000000,0.000000,2.000000,4.000000,4.000000,4.000000,4.000000,2.000000,4.000000,16.666666,,,,,,,,,,,,,,,,
1732082789.729877,1732082789.732193,117.000000,0.000000,4319.743652,4303.717773,4323.077148,4319.358887,4312.820313,4309.743652,4162.948730,4349.871582,4329.871582,4307.820313,4437.436035,4490.641113,4346.538574,4398.077148,1656.000000,0.000000,8.000000,,,,0.000000,2.000000,2.000000,0.000000,2.000000,2.000000,2.000000,0.000000,2.000000,4.000000,4.000000,4.000000,4.000000,2.000000,4.000000,16.666666,,,,,,,,,,,,,,,,
1732082789.737685,1732082789.740201,118.000000,0.000000,4313.717773,4298.974121,4322.692383,4314.871582,4298.717773,4314.487305,4163.077148,4353.205078,4333.589844,4314.358887,4438.205078,4489.615234,4349.487305,4396.282227,1367.000000,0.000000,8.000000,,,,0.000000,2.000000,2.000000,0.000000,2.000000,2.000000,2.000000,0.000000,2.000000,4.000000,4.000000,4.000000,4.000000,2.000000,4.000000,16.666666,,,,,,,,,,,,,,,,
1732082789.745494,1732082789.748009,119.000000,0.000000,4312.436035,4302.692383,4326.025879,4319.230957,4296.282227,4315.512695,4160.384766,4352.307617,4336.538574,4311.282227,4435.897461,4483.077148,4344.743652,4394.102539,1509.000000,0.000000,8.000000,,,,0.000000,2.000000,2.000000,0.000000,2.000000,2.000000,2.000000,0.000000,2.000000,4.000000,4.000000,4.000000,4.000000,2.000000,4.000000,16.666666,,,,,,,,,,,,,,,,
1732082789.753302,1732082789.755917,120.000000,0.000000,4316.538574,4308.974121,4333.205078,4325.128418,4305.769043,4313.077148,4161.282227,4350.256348,4334.487305,4310.000000,4438.717773,4481.922852,4345.512695,4393.461426,1738.000000,0.000000,8.000000,,,,0.000000,2.000000,2.000000,0.000000,2.000000,2.000000,2.000000,0.000000,2.000000,4.000000,4.000000,4.000000,4.000000,2.000000,4.000000,16.666666,,,,,,,,,,,,,,,,
1732082789.761110,1732082789.763725,121.000000,0.000000,4323.077148,4307.436035,4331.282227,4324.615234,4301.282227,4311.666504,4162.307617,4349.615234,4338.333496,4319.230957,4447.179688,4496.538574,4353.974121,4403.974121,1656.000000,0.000000,8.000000,,,,0.000000,2.000000,2.000000,0.000000,2.000000,2.000000,2.000000,0.000000,2.000000,4.000000,4.000000,4.000000,4.000000,2.000000,4.000000,16.666666,,,,,,,,,,,,,,,,
1732082789.768918,1732082789.771733,122.000000,0.000000,4329.743652,4305.512695,4333.333496,4321.794922,4295.641113,4311.410156,4164.615234,4352.948730,4344.487305,4326.410156,4451.666504,4510.512695,4357.179688,4412.436035,1367.000000,0.000000,8.000000,,,,0.000000,2.000000,2.000000,0.000000,2.000000,2.000000,2.000000,0.000000,2.000000,4.000000,4.000000,4.000000,4.000000,2.000000,4.000000,16.666666,,,,,,,,,,,,,,,,
1732082789.776727,1732082789.779542,123.000000,0.000000,4331.025879,4309.487305,4335.000000,4324.743652,4300.512695,4310.641113,4162.051270,4357.307617,4342.692383,4326.666504,4449.871582,4508.205078,4352.563965,4408.589844,1509.000000,0.000000,8.000000,,,,0.000000,2.000000,2.000000,0.000000,2.000000,2.000000,2.000000,0.000000,2.000000,4.000000,4.000000,4.000000,4.000000,2.000000,4.000000,16.666666,,,,,,,,,,,,,,,,
1732082789.784535,1732082789.787450,124.000000,0.000000,4330.128418,4313.717773,4336.410156,4330.897461,4297.820313,4311.282227,4160.769043,4354.230957,4340.769043,4327.307617,4447.307617,4506.922852,4351.025879,4406.410156,1738.000000,0.000000,8.000000,,,,0.000000,2.000000,2.000000,0.000000,2.000000,2.000000,2.000000,0.000000,2.000000,4.000000,4.000000,4.000000,4.000000,2.000000,4.000000,16.666666,,,,,,,,,,,,,,,,
1732082789.792343,1732082789.795258,125.000000,0.000000,4334.102539,4315.512695,4331.538574,4332.436035,4303.333496,4312.051270,4157.307617,4349.230957,4343.333496,4326.538574,4445.641113,4511.025879,4353.333496,4408.974121,1656.000000,0.000000,8.000000,,,,0.000000,2.000000,2.000000,0.000000,2.000000,2.000000,2.000000,0.000000,2.000000,4.000000,4.000000,4.000000,4.000000,2.000000,4.000000,16.666666,,,,,,,,,,,,,,,,
1732082789.800151,1732082789.803166,126.000000,0.000000,4335.897461,4310.769043,4330.384766,4328.205078,4319.487305,4308.205078,4152.436035,4351.538574,4340.641113,4319.743652,4442.051270,4512.307617,4348.461426,4406.282227,1367.000000,0.000000,8.000000,,,,0.000000,2.000000,2.000000,0.000000,2.000000,2.000000,2.000000,0.000000,2.000000,4.000000,4.000000,4.000000,4.000000,2.000000,4.000000,16.666666,,,,,,,,,,,,,,,,
1732082789.807960,1732082789.810974,127.000000,0.000000,4332.820313,4305.128418,4327.948730,4327.436035,4315.128418,4308.205078,4151.410156,4353.974121,4336.153809,4318.205078,4439.871582,4508.974121,4342.307617,4402.948730,8.000000,0.000000,8.000000,,,,0.000000,2.000000,2.000000,0.000000,2.000000,2.000000,2.000000,0.000000,2.000000,4.000000,4.000000,4.000000,4.000000,2.000000,4.000000,16.666666,,,,,,,,,,,,,,,,
1732082789.815768,1732082789.818682,0.000000,0.000000,4326.282227,4304.871582,4328.974121,4327.436035,4301.794922,4314.487305,4155.641113,4351.922852,4337.820313,4318.974121,4434.871582,4500.512695,4341.410156,4399.358887,0.000000,0.000000,8.000000,,,,0.000000,2.000000,2.000000,0.000000,2.000000,2.000000,2.000000,0.000000,2.000000,4.000000,4.000000,4.000000,4.000000,2.000000,4.000000,16.666666,,,,,,,,,,,,,,,,
1732082789.823576,1732082789.826491,1.000000,0.000000,4322.051270,4305.128418,4327.692383,4325.641113,4304.871582,4316.282227,4154.743652,4354.230957,4341.410156,4317.051270,4432.820313,4494.358887,4339.230957,4392.307617,1304.000000,0.000000,8.000000,,,,0.000000,2.000000,2.000000,0.000000,2.000000,2.000000,2.000000,0.000000,2.000000,4.000000,4.000000,4.000000,4.000000,2.000000,4.000000,16.666666,,,,,,,,,,,,,,,,
1732082789.831384,1732082789.834099,2.000000,0.000000,4325.000000,4304.743652,4328.205078,4325.000000,4308.461426,4310.256348,4153.974121,4359.102539,4343.461426,4319.615234,4438.461426,4499.358887,4338.717773,4393.205078,1229.000000,0.000000,8.000000,,,,0.000000,2.000000,2.000000,0.000000,2.000000,2.000000,2.000000,0.000000,2.000000,4.000000,4.000000,4.000000,4.000000,2.000000,4.000000,16.666666,,,,,,,,,,,,,,,,
1732082789.839193,1732082789.841907,3.000000,0.000000,4327.307617,4305.512695,4327.307617,4322.436035,4299.615234,4309.615234,4156.922852,4357.692383,4343.461426,4324.487305,4440.128418,4502.948730,4343.846191,4400.512695,1184.000000,0.000000,8.000000,,,,0.000000,2.000000,2.000000,0.000000,2.000000,2.000000,2.000000,0.000000,2.000000,4.000000,4.000000,4.000000,4.000000,2.000000,4.000000,16.666666,,,,,,,,,,,,,,,,
1732082789.847001,1732082789.849616,4.000000,0.000000,4322.820313,4303.205078,4324.871582,4321.153809,4297.563965,4316.282227,4158.589844,4355.256348,4344.230957,4326.282227,4440.769043,4501.153809,4349.358887,4403.333496,1205.000000,0.000000,8.000000,,,,0.000000,2.000000,2.000000,0.000000,2.000000,2.000000,2.000000,0.000000,2.000000,4.000000,4.000000,4.000000,4.000000,2.000000,4.000000,16.666666,,,,,,,,,,,,,,,,
1732082789.854809,1732082789.857424,5.000000,0.000000,4318.974121,4303.974121,4331.538574,4325.128418,4303.717773,4314.230957,4160.897461,4356.794922,4344.871582,4332.179688,4447.948730,4508.077148,4356.025879,4404.871582,1072.000000,0.000000,8.000000,,,,0.000000,2.000000,2.000000,0.000000,2.000000,2.000000,2.000000,0.000000,2.000000,4.000000,4.000000,4.000000,4.000000,2.000000,4.000000,16.666666,,,,,,,,,,,,,,,,
1732082789.862617,1732082789.865032,6.000000,0.000000,4318.333496,4310.641113,4335.641113,4326.025879,4303.846191,4307.820313,4162.948730,4356.666504,4344.358887,4336.282227,4452.179688,4512.179688,4361.282227,4410.512695,90.000000,0.000000,8.000000,,,,0.000000,2.000000,2.000000,0.000000,2.000000,2.000000,2.000000,0.000000,2.000000,4.000000,4.000000,4.000000,4.000000,2.000000,4.000000,16.666666,,,,,,,,,,,,,,,,
1732082789.870426,1732082789.872840,7.000000,0.000000,4316.666504,4309.102539,4340.384766,4323.205078,4298.717773,4308.333496,4166.025879,4351.922852,4341.538574,4326.794922,4445.769043,4505.512695,4359.358887,4412.436035,1190.000000,0.000000,8.000000,,,,0.000000,2.000000,2.000000,0.000000,2.000000,2.000000,2.000000,0.000000,2.000000,4.000000,4.000000,4.000000,4.000000,2.000000,4.000000,16.666666,,,,,,,,,,,,,,,,
1732082789.878234,1732082789.880549,8.000000,0.000000,4316.153809,4303.717773,4339.487305,4326.538574,4297.307617,4311.538574,4167.563965,4349.358887,4340.384766,4320.641113,4444.358887,4497.436035,4360.000000,4408.974121,1356.000000,0.000000,8.000000,,,,0.000000,2.000000,2.000000,0.000000,2.000000,2.000000,2.000000,0.000000,2.000000,4.000000,4.000000,4.000000,4.000000,2.000000,4.000000,16.666666,,,,,,,,,,,,,,,,
1732082789.886042,1732082789.888357,9.000000,0.000000,4317.307617,4303.589844,4342.563965,4329.615234,4299.615234,4312.563965,4170.128418,4356.282227,4343.077148,4327.436035,4450.641113,4501.025879,4363.077148,4409.743652,1494.000000,0.000000,8.000000,,,,0.000000,2.000000,2.000000,0.000000,2.000000,2.000000,2.000000,0.000000,2.000000,4.000000,4.000000,4.000000,4.000000,2.000000,4.000000,16.666666,,,,,,,,,,,,,,,,
1732082789.893850,1732082789.895965,10.000000,0.000000,4319.615234,4303.461426,4340.000000,4325.512695,4305.641113,4314.487305,4167.307617,4363.077148,4345.897461,4331.794922,4452.820313,4501.025879,4358.717773,4411.794922,1367.000000,0.000000,8.000000,,,,0.000000,2.000000,2.000000,0.000000,2.000000,2.000000,2.000000,0.000000,2.000000,4.000000,4.000000,4.000000,4.000000,2.000000,4.000000,16.666666,,,,,,,,,,,,,,,,
1732082789.901659,1732082789.903774,11.000000,0.000000,4323.333496,4302.179688,4343.461426,4323.077148,4313.846191,4314.102539,4168.846191,4361.025879,4342.948730,4324.230957,4443.974121,4490.641113,4352.948730,4406.794922,1509.000000,0.000000,8.000000,,,,0.000000,2.000000,2.000000,0.000000,2.000000,2.000000,2.000000,0.000000,2.000000,4.000000,4.000000,4.000000,4.000000,2.000000,4.000000,16.666666,,,,,,,,,,,,,,,,
1732082789.909467,1732082789.911682,12.000000,0.000000,4331.282227,4304.102539,4341.153809,4327.948730,4311.922852,4313.717773,4170.000000,4358.333496,4339.102539,4325.384766,4440.000000,4489.487305,4357.692383,4404.743652,1731.000000,0.000000,8.000000,,,,0.000000,2.000000,2.000000,0.000000,2.000000,2.000000,2.000000,0.000000,2.000000,4.000000,4.000000,4.000000,4.000000,2.000000,4.000000,16.666666,,,,,,,,,,,,,,,,
1732082789.917275,1732082789.919490,13.000000,0.000000,4336.922852,4301.282227,4336.666504,4326.922852,4299.358887,4315.384766,4166.794922,4354.358887,4341.538574,4338.077148,4446.025879,4497.692383,4360.128418,4407.307617,1649.000000,0.000000,8.000000,,,,0.000000,2.000000,2.000000,0.000000,2.000000,2.000000,2.000000,0.000000,2.000000,4.000000,4.000000,4.000000,4.000000,2.000000,4.000000,16.666666,,,,,,,,,,,,,,,,
1732082789.925084,1732082789.927098,14.000000,0.000000,4330.641113,4293.846191,4333.461426,4319.358887,4300.512695,4315.641113,4162.307617,4350.512695,4343.974121,4339.487305,4444.743652,4496.666504,4351.922852,4401.538574,1367.000000,0.000000,8.000000,,,,0.000000,2.000000,2.000000,0.000000,2.000000,2.000000,2.000000,0.000000,2.000000,4.000000,4.000000,4.000000,4.000000,2.000000,4.000000,16.666666,1.000000,16.666666,2.000000,2.000000,0.000000,2.000000,2.000000,2.000000,0.000000,2.000000,4.000000,3.000000,4.000000,4.000000,2.000000,4.000000
1732082789.932892,1732082789.934907,15.000000,0.000000,4323.461426,4292.179688,4334.871582,4314.615234,4311.153809,4316.410156,4162.820313,4354.358887,4340.641113,4332.948730,4438.461426,4493.461426,4348.589844,4395.256348,1509.000000,0.000000,8.000000,,,,0.000000,2.000000,2.000000,0.000000,2.000000,2.000000,2.000000,0.000000,2.000000,4.000000,4.000000,4.000000,4.000000,2.000000,4.000000,16.666666,,,,,,,,,,,,,,,,
1732082789.940700,1732082789.942615,16.000000,0.000000,4330.897461,4299.102539,4333.077148,4317.436035,4311.666504,4315.256348,4159.615234,4352.948730,4341.538574,4337.820313,4442.948730,4499.615234,4355.512695,4402.436035,0.000000,0.000000,8.000000,,,,0.000000,2.000000,2.000000,0.000000,2.000000,2.000000,2.000000,0.000000,2.000000,4.000000,4.000000,4.000000,4.000000,2.000000,4.000000,16.666666,,,,,,,,,,,,,,,,
1732082789.948508,1732082789.950423,17.000000,0.000000,4335.256348,4302.436035,4329.743652,4319.871582,4312.051270,4311.025879,4157.563965,4346.153809,4344.358887,4341.666504,4448.077148,4499.871582,4355.256348,4403.974121,0.000000,0.000000,8.000000,,,,0.000000,2.000000,2.000000,0.000000,2.000000,2.000000,2.000000,0.000000,2.000000,4.000000,4.000000,4.000000,4.000000,2.000000,4.000000,16.666666,,,,,,,,,,,,,,,,
1732082789.956317,1732082789.958031,18.000000,0.000000,4331.922852,4299.743652,4329.615234,4321.153809,4320.897461,4313.205078,4157.820313,4346.922852,4342.563965,4332.051270,4444.871582,4496.410156,4348.461426,4397.948730,0.000000,0.000000,8.000000,,,,0.000000,2.000000,2.000000,0.000000,2.000000,2.000000,2.000000,0.000000,2.000000,4.000000,4.000000,4.000000,4.000000,2.000000,4.000000,16.666666,,,,,,,,,,,,,,,,
1732082789.964125,1732082789.965840,19.000000,0.000000,4336.282227,4300.512695,4328.333496,4323.589844,4323.077148,4314.743652,4150.512695,4351.282227,4345.384766,4333.333496,4446.794922,4501.794922,4352.948730,4403.846191,0.000000,0.000000,8.000000,,,,0.000000,2.000000,2.000000,0.000000,2.000000,2.000000,2.000000,0.000000,2.000000,4.000000,4.000000,4.000000,4.000000,2.000000,4.000000,16.666666,,,,,,,,,,,,,,,,
1732082789.971933,1732082789.973548,20.000000,0.000000,4335.384766,4301.794922,4330.512695,4323.846191,4320.128418,4316.538574,4150.769043,4359.615234,4351.282227,4341.025879,4447.692383,4503.333496,4358.205078,4405.641113,0.000000,0.000000,8.000000,,,,0.000000,2.000000,2.000000,0.000000,2.000000,2.000000,2.000000,0.000000,2.000000,4.000000,4.000000,4.000000,4.000000,2.000000,4.000000,16.666666,,,,,,,,,,,,,,,,
1732082789.979741,1732082789.981356,21.000000,0.000000,4327.179688,4302.563965,4316.922852,4325.512695,4325.512695,4324.615234,4151.538574,4364.743652,4349.230957,4334.230957,4443.461426,4494.871582,4354.743652,4396.794922,0.000000,0.000000,8.000000,,,,0.000000,2.000000,2.000000,0.000000,2.000000,2.000000,2.000000,0.000000,2.000000,4.000000,4.000000,4.000000,4.000000,2.000000,4.000000,16.666666,,,,,,,,,,,,,,,,
1732082789.987550,1732082789.988965,22.000000,0.000000,4332.692383,4305.128418,4297.179688,4327.051270,4335.384766,4317.692383,4132.948730,4351.922852,4345.769043,4332.307617,4446.410156,4492.563965,4356.538574,4402.179688,0.000000,0.000000,8.000000,,,,0.000000,2.000000,2.000000,0.000000,2.000000,2.000000,2.000000,0.000000,2.000000,4.000000,4.000000,4.000000,4.000000,2.000000,4.000000,16.666666,,,,,,,,,,,,,,,,
1732082789.995358,1732082789.996773,23.000000,0.000000,4340.897461,4307.820313,4285.128418,4331.282227,4329.743652,4303.589844,4115.384766,4343.077148,4351.025879,4343.461426,4452.820313,4494.358887,4365.384766,4413.717773,0.000000,0.000000,8.000000,,,,0.000000,2.000000,2.000000,0.000000,2.000000,2.000000,2.000000,0.000000,2.000000,4.000000,4.000000,4.000000,4.000000,2.000000,4.000000,16.666666,,,,,,,,,,,,,,,,
1732082790.003166,1732082790.004681,24.000000,0.000000,4334.487305,4308.077148,4298.974121,4332.563965,4325.384766,4307.563965,4126.538574,4353.205078,4352.051270,4340.897461,4450.769043,4492.692383,4363.333496,4409.743652,0.000000,0.000000,8.000000,,,,0.000000,2.000000,2.000000,0.000000,2.000000,2.000000,2.000000,0.000000,2.000000,4.000000,4.000000,4.000000,4.000000,2.000000,4.000000,16.666666,,,,,,,,,,,,,,,,
1732082790.010975,1732082790.012489,25.000000,0.000000,4332.051270,4307.051270,4304.230957,4330.897461,4346.538574,4312.436035,4135.769043,4352.820313,4346.922852,4330.512695,4447.051270,4488.846191,4357.820313,4405.512695,0.000000,0.000000,8.000000,,,,0.000000,2.000000,2.000000,0.000000,2.000000,2.000000,2.000000,0.000000,2.000000,4.000000,4.000000,4.000000,4.000000,2.000000,4.000000,16.666666,,,,,,,,,,,,,,,,
1732082790.018783,1732082790.020497,26.000000,0.000000,4336.666504,4302.948730,4301.794922,4329.358887,4354.230957,4310.128418,4135.000000,4349.358887,4348.589844,4331.666504,4447.563965,4489.102539,4357.948730,4404.615234,0.000000,0.000000,8.000000,,,,0.000000,2.000000,2.000000,0.000000,2.000000,2.000000,2.000000,0.000000,2.000000,4.000000,4.000000,4.000000,4.000000,2.000000,4.000000,16.666666,,,,,,,,,,,,,,,,
1732082790.026591,1732082790.028305,27.000000,0.000000,4336.025879,4305.769043,4303.077148,4329.358887,4333.974121,4316.282227,4139.102539,4361.538574,4354.230957,4333.461426,4452.179688,4491.666504,4358.589844,4401.282227,0.000000,0.000000,8.000000,,,,0.000000,2.000000,2.000000,0.000000,2.000000,2.000000,2.000000,0.000000,2.000000,4.000000,4.000000,4.000000,4.000000,2.000000,4.000000,16.666666,,,,,,,,,,,,,,,,
1732082790.034399,1732082790.036213,28.000000,0.000000,4332.948730,4312.051270,4315.641113,4327.820313,4324.102539,4312.820313,4147.051270,4362.307617,4350.512695,4330.897461,4458.974121,4499.871582,4362.692383,4404.102539,0.000000,0.000000,8.000000,,,,0.000000,2.000000,2.000000,0.000000,2.000000,2.000000,2.000000,0.000000,2.000000,4.000000,4.000000,4.000000,4.000000,2.000000,4.000000,16.666666,,,,,,,,,,,,,,,,
1732082790.042207,1732082790.044022,29.000000,0.000000,4338.717773,4315.897461,4317.692383,4330.256348,4334.102539,4300.128418,4144.871582,4347.051270,4343.974121,4332.692383,4460.000000,4507.948730,4372.436035,4410.000000,0.000000,0.000000,8.000000,,,,0.000000,2.000000,2.000000,0.000000,2.000000,2.000000,2.000000,0.000000,2.000000,4.000000,4.000000,4.000000,4.000000,2.000000,4.000000,16.666666,,,,,,,,,,,,,,,,
1732082790.050016,1732082790.051630,30.000000,0.000000,4346.666504,4318.717773,4307.948730,4334.743652,4337.179688,4301.282227,4140.128418,4343.205078,4344.358887,4331.282227,4458.333496,4507.820313,4373.461426,4410.512695,0.000000,0.000000,8.000000,,,,0.000000,2.000000,2.000000,0.000000,2.000000,2.000000,2.000000,0.000000,2.000000,4.000000,4.000000,4.000000,4.000000,2.000000,4.000000,16.666666,,,,,,,,,,,,,,,,
1732082790.057824,1732082790.059438,31.000000,0.000000,4342.051270,4318.205078,4298.717773,4331.153809,4332.179688,4308.461426,4138.205078,4349.615234,4345.256348,4324.230957,4457.179688,4501.666504,4361.666504,4405.897461,0.000000,0.000000,8.000000,,,,0.000000,2.000000,2.000000,0.000000,2.000000,2.000000,2.000000,0.000000,2.000000,4.000000,4.000000,4.000000,4.000000,2.000000,4.000000,16.666666,,,,,,,,,,,,,,,,
1732082790.065632,1732082790.067147,32.000000,0.000000,4326.922852,4312.436035,4293.077148,4325.256348,4333.589844,4310.769043,4138.846191,4350.769043,4343.333496,4317.179688,4446.025879,4492.179688,4352.051270,4395.000000,0.000000,0.000000,8.000000,,,,0.000000,2.000000,2.000000,0.000000,2.000000,2.000000,2.000000,0.000000,2.000000,4.000000,4.000000,4.000000,4.000000,2.000000,4.000000,16.666666,,,,,,,,,,,,,,,,
1732082790.073440,1732082790.074955,33.000000,0.000000,4320.897461,4311.794922,4291.666504,4325.000000,4337.948730,4315.769043,4135.641113,4349.615234,4345.384766,4318.589844,4436.922852,4490.641113,4352.307617,4388.846191,0.000000,0.000000,8.000000,,,,0.000000,2.000000,2.000000,0.000000,2.000000,2.000000,2.000000,0.000000,2.000000,4.000000,4.000000,4.000000,4.000000,2.000000,4.000000,16.666666,,,,,,,,,,,,,,,,
1732082790.081249,1732082790.082963,34.000000,0.000000,4328.846191,4315.641113,4288.846191,4327.436035,4339.487305,4319.615234,4132.692383,4351.794922,4347.563965,4328.461426,4445.512695,4493.077148,4354.615234,4396.922852,0.000000,0.000000,8.000000,,,,0.000000,2.000000,2.000000,0.000000,2.000000,2.000000,2.000000,0.000000,2.000000,4.000000,4.000000,4.000000,4.000000,2.000000,4.000000,16.666666,,,,,,,,,,,,,,,,
1732082790.089057,1732082790.090771,35.000000,0.000000,4330.512695,4313.589844,4288.205078,4327.692383,4338.205078,4314.615234,4132.436035,4351.538574,4345.384766,4332.692383,4450.128418,4487.948730,4351.153809,4400.384766,0.000000,0.000000,8.000000,,,,0.000000,2.000000,2.000000,0.000000,2.000000,2.000000,2.000000,0.000000,2.000000,4.000000,4.000000,4.000000,4.000000,2.000000,4.000000,16.666666,,,,,,,,,,,,,,,,
1732082790.096865,1732082790.098679,36.000000,0.000000,4320.000000,4311.794922,4286.922852,4327.307617,4348.205078,4310.256348,4131.794922,4345.897461,4342.051270,4327.307617,4441.282227,4479.871582,4347.948730,4393.717773,0.000000,0.000000,8.000000,,,,0.000000,2.000000,2.000000,0.000000,2.000000,2.000000,2.000000,0.000000,2.000000,4.000000,4.000000,4.000000,4.000000,2.000000,4.000000,16.666666,,,,,,,,,,,,,,,,
1732082790.104674,1732082790.106487,37.000000,0.000000,4316.153809,4312.820313,4294.615234,4328.205078,4352.948730,4312.179688,4134.358887,4344.102539,4341.410156,4327.179688,4444.615234,4482.820313,4354.358887,4394.615234,0.000000,0.000000,8.000000,,,,0.000000,2.000000,2.000000,0.000000,2.000000,2.000000,2.000000,0.000000,2.000000,4.000000,4.000000,4.000000,4.000000,2.000000,4.000000,16.666666,,,,,,,,,,,,,,,,
1732082790.112482,1732082790.114495,38.000000,0.000000,4324.230957,4314.871582,4305.256348,4330.641113,4336.666504,4315.512695,4140.769043,4349.358887,4344.230957,4335.897461,4457.051270,4493.974121,4364.615234,4407.692383,0.000000,0.000000,8.000000,,,,0.000000,2.000000,2.000000,0.000000,2.000000,2.000000,2.000000,0.000000,2.000000,4.000000,4.000000,4.000000,4.000000,2.000000,4.000000,16.666666,,,,,,,,,,,,,,,,
1732082790.120290,1732082790.122304,39.000000,0.000000,4329.102539,4314.358887,4312.436035,4330.641113,4326.794922,4313.461426,4147.692383,4351.922852,4342.307617,4335.897461,4456.153809,4497.692383,4363.077148,4415.512695,0.000000,0.000000,8.000000,,,,0.000000,2.000000,2.000000,0.000000,2.000000,2.000000,2.000000,0.000000,2.000000,4.000000,4.000000,4.000000,4.000000,2.000000,4.000000,16.666666,,,,,,,,,,,,,,,,
1732082790.128098,1732082790.130212,40.000000,0.000000,4329.615234,4314.358887,4312.820313,4330.769043,4333.461426,4313.205078,4149.871582,4350.769043,4338.589844,4327.307617,4450.512695,4498.333496,4355.384766,4413.589844,0.000000,0.000000,8.000000,,,,0.000000,2.000000,2.000000,0.000000,2.000000,2.000000,2.000000,0.000000,2.000000,4.000000,4.000000,4.000000,4.000000,2.000000,4.000000,16.666666,,,,,,,,,,,,,,,,
1732082790.135907,1732082790.138020,41.000000,0.000000,4337.692383,4313.333496,4318.461426,4330.384766,4332.563965,4309.230957,4152.436035,4348.589844,4338.974121,4325.128418,4452.436035,4500.769043,4358.461426,4415.641113,0.000000,0.000000,8.000000,,,,0.000000,2.000000,2.000000,0.000000,2.000000,2.000000,2.000000,0.000000,2.000000,4.000000,4.000000,4.000000,4.000000,2.000000,4.000000,16.666666,,,,,,,,,,,,,,,,
1732082790.143715,1732082790.146028,42.000000,0.000000,4351.025879,4308.974121,4320.512695,4326.538574,4323.461426,4302.692383,4153.333496,4345.384766,4339.615234,4328.205078,4456.922852,4500.769043,4365.897461,4423.974121,0.000000,0.000000,8.000000,,,,0.000000,2.000000,2.000000,0.000000,2.000000,2.000000,2.000000,0.000000,2.000000,4.000000,4.000000,4.000000,4.000000,2.000000,4.000000,16.666666,,,,,,,,,,,,,,,,
1732082790.151523,1732082790.153836,43.000000,0.000000,4361.794922,4311.025879,4319.102539,4328.205078,4318.333496,4304.102539,4154.487305,4342.307617,4334.871582,4321.538574,4457.563965,4500.000000,4366.025879,4429.871582,0.000000,0.000000,8.000000,,,,0.000000,2.000000,2.000000,0.000000,2.000000,2.000000,2.000000,0.000000,2.000000,4.000000,4.000000,4.000000,4.000000,2.000000,4.000000,16.666666,,,,,,,,,,,,,,,,
1732082790.159331,1732082790.161544,44.000000,0.000000,4371.794922,4317.051270,4318.333496,4333.333496,4314.230957,4301.666504,4153.461426,4342.307617,4330.256348,4317.051270,4460.769043,4506.410156,4368.717773,4441.153809,0.000000,0.000000,8.000000,,,,0.000000,2.000000,2.000000,0.000000,2.000000,2.000000,2.000000,0.000000,2.000000,4.000000,4.000000,4.000000,4.000000,2.000000,4.000000,16.666666,,,,,,,,,,,,,,,,
1732082790.167140,1732082790.169353,45.000000,0.000000,4382.948730,4316.410156,4317.563965,4330.641113,4307.436035,4292.948730,4152.948730,4342.051270,4328.974121,4321.794922,4465.128418,4515.897461,4373.974121,4455.641113,0.000000,0.000000,8.000000,,,,0.000000,2.000000,2.000000,0.000000,2.000000,2.000000,2.000000,0.000000,2.000000,4.000000,4.000000,4.000000,4.000000,2.000000,4.000000,16.666666,,,,,,,,,,,,,,,,
1732082790.174948,1732082790.176961,46.000000,0.000000,4393.205078,4316.666504,4316.282227,4327.307617,4304.487305,4293.077148,4151.922852,4338.717773,4326.538574,4318.077148,4461.794922,4513.205078,4370.000000,4458.077148,0.000000,0.000000,8.000000,,,,0.000000,2.000000,2.000000,0.000000,2.000000,2.000000,2.000000,0.000000,2.000000,4.000000,4.000000,4.000000,4.000000,2.000000,4.000000,16.666666,,,,,,,,,,,,,,,,
1732082790.182756,1732082790.184769,47.000000,0.000000,4401.282227,4319.487305,4318.974121,4328.205078,4311.410156,4291.025879,4152.948730,4336.153809,4322.948730,4308.205078,4458.974121,4511.153809,4367.436035,4457.436035,0.000000,0.000000,8.000000,,,,0.000000,2.000000,2.000000,0.000000,2.000000,2.000000,2.000000,0.000000,2.000000,4.000000,4.000000,4.000000,4.000000,2.000000,4.000000,16.666666,,,,,,,,,,,,,,,,
1732082790.190565,1732082790.192478,48.000000,0.000000,4406.410156,4313.846191,4317.692383,4326.538574,4309.358887,4280.384766,4154.230957,4336.282227,4321.794922,4307.179688,4466.153809,4520.128418,4376.410156,4465.641113,0.000000,0.000000,8.000000,,,,0.000000,2.000000,2.000000,0.000000,2.000000,2.000000,2.000000,0.000000,2.000000,4.000000,4.000000,4.000000,4.000000,2.000000,4.000000,16.666666,,,,,,,,,,,,,,,,
1732082790.198373,1732082790.200286,49.000000,0.000000,4408.974121,4311.025879,4318.589844,4324.743652,4290.641113,4281.153809,4158.846191,4337.820313,4324.230957,4310.000000,4472.179688,4523.461426,4380.384766,4474.487305,0.000000,0.000000,8.000000,,,,0.000000,2.000000,2.000000,0.000000,2.000000,2.000000,2.000000,0.000000,2.000000,4.000000,4.000000,4.000000,4.000000,2.000000,4.000000,16.666666,,,,,,,,,,,,,,,,
1732082790.206181,1732082790.207894,50.000000,0.000000,4408.846191,4314.743652,4325.000000,4324.615234,4283.589844,4286.153809,4160.641113,4339.487305,4326.666504,4310.128418,4471.410156,4519.358887,4380.384766,4476.922852,0.000000,0.000000,8.000000,,,,0.000000,2.000000,2.000000,0.000000,2.000000,2.000000,2.000000,0.000000,2.000000,4.000000,4.000000,4.000000,4.000000,2.000000,4.000000,16.666666,,,,,,,,,,,,,,,,
1732082790.213989,1732082790.215702,51.000000,0.000000,4401.025879,4306.538574,4327.179688,4317.436035,4296.025879,4279.102539,4161.025879,4340.512695,4327.307617,4314.743652,4470.384766,4522.692383,4381.410156,4471.666504,0.000000,0.000000,8.000000,,,,0.000000,2.000000,2.000000,0.000000,2.000000,2.000000,2.000000,0.000000,2.000000,4.000000,4.000000,4.000000,4.000000,2.000000,4.000000,16.666666,,,,,,,,,,,,,,,,
1732082790.221798,1732082790.223411,52.000000,0.000000,4390.897461,4298.717773,4327.307617,4313.205078,4294.871582,4280.384766,4166.410156,4341.410156,4326.153809,4315.897461,4470.000000,4530.897461,4378.077148,4466.410156,0.000000,0.000000,8.000000,,,,0.000000,2.000000,2.000000,0.000000,2.000000,2.000000,2.000000,0.000000,2.000000,4.000000,4.000000,4.000000,4.000000,2.000000,4.000000,16.666666,,,,,,,,,,,,,,,,
1732082790.229606,1732082790.231219,53.000000,0.000000,4393.205078,4306.794922,4332.307617,4318.461426,4288.333496,4294.358887,4170.641113,4345.128418,4323.077148,4309.358887,4466.025879,4526.538574,4372.948730,4467.948730,0.000000,0.000000,8.000000,,,,0.000000,2.000000,2.000000,0.000000,2.000000,2.000000,2.000000,0.000000,2.000000,4.000000,4.000000,4.000000,4.000000,2.000000,4.000000,16.666666,,,,,,,,,,,,,,,,
1732082790.237414,1732082790.238827,54.000000,0.000000,4399.487305,4311.922852,4334.230957,4322.563965,4304.230957,4293.205078,4167.948730,4343.077148,4323.461426,4308.461426,4464.615234,4522.307617,4371.410156,4467.179688,0.000000,0.000000,8.000000,,,,0.000000,2.000000,2.000000,0.000000,2.000000,2.000000,2.000000,0.000000,2.000000,4.000000,4.000000,4.000000,4.000000,2.000000,4.000000,16.666666,,,,,,,,,,,,,,,,
1732082790.245222,1732082790.246635,55.000000,0.000000,4398.974121,4307.051270,4332.563965,4321.410156,4305.000000,4277.051270,4164.487305,4336.410156,4325.000000,4312.307617,4464.358887,4523.205078,4370.256348,4461.538574,0.000000,0.000000,8.000000,,,,0.000000,2.000000,2.000000,0.000000,2.000000,2.000000,2.000000,0.000000,2.000000,4.000000,4.000000,4.000000,4.000000,2.000000,4.000000,16.666666,,,,,,,,,,,,,,,,
1732082790.253031,1732082790.254344,56.000000,0.000000,4396.922852,4299.230957,4334.487305,4318.333496,4284.358887,4283.461426,4172.051270,4355.897461,4329.230957,4310.897461,4466.410156,4523.333496,4367.436035,4461.666504,0.000000,0.000000,8.000000,,,,0.000000,2.000000,2.000000,0.000000,2.000000,2.000000,2.000000,0.000000,2.000000,4.000000,4.000000,4.000000,4.000000,2.000000,4.000000,16.666666,,,,,,,,,,,,,,,,
1732082790.260839,1732082790.262152,57.000000,0.000000,4403.333496,4294.358887,4335.512695,4319.487305,4284.743652,4299.871582,4176.794922,4376.282227,4331.794922,4310.256348,4469.230957,4524.743652,4368.589844,4465.256348,0.000000,0.000000,8.000000,,,,0.000000,2.000000,2.000000,0.000000,2.000000,2.000000,2.000000,0.000000,2.000000,4.000000,4.000000,4.000000,4.000000,2.000000,4.000000,16.666666,,,,,,,,,,,,,,,,
1732082790.268647,1732082790.269760,58.000000,0.000000,4411.538574,4297.051270,4338.461426,4323.333496,4296.282227,4283.717773,4168.846191,4343.461426,4323.717773,4315.000000,4465.000000,4519.743652,4368.077148,4465.769043,0.000000,0.000000,8.000000,,,,0.000000,2.000000,2.000000,0.000000,2.000000,2.000000,2.000000,0.000000,2.000000,4.000000,4.000000,4.000000,4.000000,2.000000,4.000000,16.666666,,,,,,,,,,,,,,,,
1732082790.276455,1732082790.277569,59.000000,0.000000,4413.846191,4300.641113,4338.846191,4324.743652,4294.358887,4263.589844,4160.769043,4303.461426,4315.128418,4314.743652,4464.230957,4508.461426,4371.025879,4468.717773,0.000000,0.000000,8.000000,,,,0.000000,2.000000,2.000000,0.000000,2.000000,2.000000,2.000000,0.000000,2.000000,4.000000,4.000000,4.000000,4.000000,2.000000,4.000000,16.666666,,,,,,,,,,,,,,,,
1732082790.284264,1732082790.285277,60.000000,0.000000,4411.410156,4298.974121,4337.179688,4321.153809,4288.205078,4272.563965,4169.230957,4312.563965,4317.307617,4309.871582,4472.307617,4508.846191,4383.846191,4468.974121,0.000000,0.000000,8.000000,,,,0.000000,2.000000,2.000000,0.000000,2.000000,2.000000,2.000000,0.000000,2.000000,4.000000,4.000000,4.000000,4.000000,2.000000,4.000000,16.666666,,,,,,,,,,,,,,,,
1732082790.292072,1732082790.293085,61.000000,0.000000,4408.846191,4301.025879,4332.436035,4320.512695,4294.615234,4280.512695,4175.128418,4333.974121,4322.307617,4307.563965,4473.846191,4516.922852,4385.128418,4461.410156,0.000000,0.000000,8.000000,,,,0.000000,2.000000,2.000000,0.000000,2.000000,2.000000,2.000000,0.000000,2.000000,4.000000,4.000000,4.000000,4.000000,2.000000,4.000000,16.666666,,,,,,,,,,,,,,,,
1732082790.299880,1732082790.300694,62.000000,0.000000,4402.948730,4305.512695,4330.897461,4325.128418,4300.384766,4279.615234,4172.307617,4334.102539,4322.563965,4308.717773,4467.436035,4513.333496,4374.358887,4458.846191,0.000000,0.000000,8.000000,,,,0.000000,2.000000,2.000000,0.000000,2.000000,2.000000,2.000000,0.000000,2.000000,4.000000,4.000000,4.000000,4.000000,2.000000,4.000000,16.666666,,,,,,,,,,,,,,,,
1732082790.307688,1732082790.308502,63.000000,0.000000,4395.641113,4304.615234,4327.948730,4328.205078,4302.436035,4284.743652,4170.769043,4330.384766,4326.666504,4315.128418,4468.974121,4501.922852,4374.487305,4461.025879,0.000000,0.000000,8.000000,,,,0.000000,2.000000,2.000000,0.000000,2.000000,2.000000,2.000000,0.000000,2.000000,4.000000,4.000000,4.000000,4.000000,2.000000,4.000000,16.666666,,,,,,,,,,,,,,,,
1732082790.315497,1732082790.316410,64.000000,0.000000,4390.000000,4303.589844,4325.897461,4326.666504,4317.307617,4286.666504,4170.256348,4338.205078,4330.897461,4317.307617,4469.102539,4498.974121,4375.384766,4452.179688,0.000000,0.000000,8.000000,,,,0.000000,2.000000,2.000000,0.000000,2.000000,2.000000,2.000000,0.000000,2.000000,4.000000,4.000000,4.000000,4.000000,2.000000,4.000000,16.666666,,,,,,,,,,,,,,,,
1732082790.323305,1732082790.324218,65.000000,0.000000,4380.384766,4305.769043,4322.692383,4322.563965,4328.974121,4287.051270,4167.051270,4352.179688,4331.410156,4310.384766,4459.102539,4499.358887,4362.051270,4438.205078,1309.000000,0.000000,8.000000,,,,0.000000,2.000000,2.000000,0.000000,2.000000,2.000000,2.000000,0.000000,2.000000,4.000000,4.000000,4.000000,4.000000,2.000000,4.000000,16.666666,,,,,,,,,,,,,,,,
1732082790.331113,1732082790.332226,66.000000,0.000000,4368.461426,4301.282227,4323.333496,4320.256348,4315.512695,4292.563965,4167.051270,4349.102539,4330.641113,4306.410156,4457.436035,4498.205078,4361.025879,4433.717773,1230.000000,0.000000,8.000000,,,,0.000000,2.000000,2.000000,0.000000,2.000000,2.000000,2.000000,0.000000,2.000000,4.000000,4.000000,4.000000,4.000000,2.000000,4.000000,16.666666,,,,,,,,,,,,,,,,
1732082790.338921,1732082790.340034,67.000000,0.000000,4363.846191,4295.897461,4326.410156,4322.948730,4306.794922,4290.128418,4164.871582,4328.333496,4329.487305,4310.384766,4461.794922,4493.846191,4373.974121,4431.922852,1189.000000,0.000000,8.000000,,,,0.000000,2.000000,2.000000,0.000000,2.000000,2.000000,2.000000,0.000000,2.000000,4.000000,4.000000,4.000000,4.000000,2.000000,4.000000,16.666666,,,,,,,,,,,,,,,,
1732082790.346730,1732082790.347743,68.000000,0.000000,4356.794922,4296.025879,4328.846191,4325.256348,4323.333496,4285.128418,4162.820313,4324.743652,4329.102539,4312.051270,4461.666504,4493.461426,4371.666504,4425.000000,1212.000000,0.000000,8.000000,,,,0.000000,2.000000,2.000000,0.000000,2.000000,2.000000,2.000000,0.000000,2.000000,4.000000,4.000000,4.000000,4.000000,2.000000,4.000000,16.666666,,,,,,,,,,,,,,,,
1732082790.354538,1732082790.355551,69.000000,0.000000,4346.794922,4299.615234,4330.897461,4323.846191,4331.538574,4288.974121,4166.666504,4334.871582,4327.820313,4310.641113,4459.230957,4498.205078,4365.384766,4420.256348,1075.000000,0.000000,8.000000,,,,0.000000,2.000000,2.000000,0.000000,2.000000,2.000000,2.000000,0.000000,2.000000,4.000000,4.000000,4.000000,4.000000,2.000000,4.000000,16.666666,,,,,,,,,,,,,,,,
1732082790.362346,1732082790.363159,70.000000,0.000000,4343.077148,4302.436035,4334.102539,4323.846191,4327.307617,4295.512695,4171.025879,4337.692383,4329.102539,4313.717773,4460.128418,4501.666504,4367.563965,4416.282227,78.000000,0.000000,8.000000,,,,0.000000,2.000000,2.000000,0.000000,2.000000,2.000000,2.000000,0.000000,2.000000,4.000000,4.000000,4.000000,4.000000,2.000000,4.000000,16.666666,,,,,,,,,,,,,,,,
1732082790.370155,1732082790.370967,71.000000,0.000000,4342.051270,4304.615234,4338.974121,4328.077148,4332.436035,4296.410156,4172.692383,4337.820313,4331.153809,4314.358887,4459.615234,4497.692383,4366.025879,4412.307617,1162.000000,0.000000,8.000000,,,,0.000000,2.000000,2.000000,0.000000,2.000000,2.000000,2.000000,0.000000,2.000000,4.000000,4.000000,4.000000,4.000000,2.000000,4.000000,16.666666,,,,,,,,,,,,,,,,
1732082790.377963,1732082790.378676,72.000000,0.000000,4336.666504,4305.897461,4339.102539,4326.410156,4331.666504,4294.487305,4171.538574,4340.000000,4330.256348,4311.794922,4456.410156,4496.025879,4360.641113,4409.358887,1339.000000,0.000000,8.000000,,,,0.000000,2.000000,2.000000,0.000000,2.000000,2.000000,2.000000,0.000000,2.000000,4.000000,4.000000,4.000000,4.000000,2.000000,4.000000,16.666666,,,,,,,,,,,,,,,,
1732082790.385771,1732082790.386484,73.000000,0.000000,4327.051270,4302.436035,4339.743652,4318.974121,4328.077148,4292.948730,4175.256348,4341.282227,4330.897461,4312.563965,4453.077148,4501.025879,4360.897461,4404.743652,1492.000000,0.000000,8.000000,,,,0.000000,2.000000,2.000000,0.000000,2.000000,2.000000,2.000000,0.000000,2.000000,4.000000,4.000000,4.000000,4.000000,2.000000,4.000000,16.666666,,,,,,,,,,,,,,,,
1732082790.393579,1732082790.394092,74.000000,0.000000,4321.153809,4299.615234,4340.897461,4317.436035,4329.487305,4295.000000,4181.666504,4338.974121,4335.384766,4316.025879,4454.102539,4502.692383,4364.358887,4405.512695,1371.000000,0.000000,8.000000,,,,0.000000,2.000000,2.000000,0.000000,2.000000,2.000000,2.000000,0.000000,2.000000,4.000000,4.000000,4.000000,4.000000,2.000000,4.000000,16.666666,,,,,,,,,,,,,,,,
1732082790.401388,1732082790.401901,75.000000,0.000000,4319.487305,4300.384766,4341.025879,4318.205078,4328.077148,4297.948730,4182.948730,4335.128418,4335.128418,4315.641113,4457.307617,4500.128418,4362.948730,4405.769043,1508.000000,0.000000,8.000000,,,,0.000000,2.000000,2.000000,0.000000,2.000000,2.000000,2.000000,0.000000,2.000000,4.000000,4.000000,4.000000,4.000000,2.000000,4.000000,16.666666,,,,,,,,,,,,,,,,
1732082790.409196,1732082790.409809,76.000000,0.000000,4314.871582,4300.256348,4334.743652,4316.410156,4336.538574,4297.948730,4176.410156,4338.205078,4330.641113,4312.051270,4456.282227,4498.846191,4360.128418,4401.538574,1731.000000,0.000000,8.000000,,,,0.000000,2.000000,2.000000,0.000000,2.000000,2.000000,2.000000,0.000000,2.000000,4.000000,4.000000,4.000000,4.000000,2.000000,4.000000,16.666666,,,,,,,,,,,,,,,,
1732082790.417004,1732082790.417617,77.000000,0.000000,4309.743652,4301.025879,4333.333496,4315.128418,4339.487305,4297.820313,4179.230957,4344.487305,4332.948730,4312.051270,4455.512695,4500.769043,4360.641113,4398.974121,1649.000000,0.000000,8.000000,,,,0.000000,2.000000,2.000000,0.000000,2.000000,2.000000,2.000000,0.000000,2.000000,4.000000,4.000000,4.000000,4.000000,2.000000,4.000000,16.666666,,,,,,,,,,,,,,,,
1732082790.424812,1732082790.425625,78.000000,0.000000,4309.743652,4305.512695,4333.077148,4320.000000,4327.051270,4299.102539,4183.717773,4341.794922,4338.717773,4316.025879,4458.717773,4502.307617,4362.051270,4399.615234,1371.000000,0.000000,8.000000,,,,0.000000,2.000000,2.000000,0.000000,2.000000,2.000000,2.000000,0.000000,2.000000,4.000000,4.000000,4.000000,4.000000,2.000000,4.000000,16.666666,1.000000,16.666666,2.000000,2.000000,0.000000,2.000000,2.000000,2.000000,0.000000,2.000000,4.000000,4.000000,4.000000,4.000000,2.000000,4.000000
1732082790.432621,1732082790.433433,79.000000,0.000000,4307.563965,4304.487305,4334.230957,4319.102539,4320.128418,4299.615234,4184.615234,4343.333496,4339.358887,4317.436035,4455.769043,4501.922852,4359.871582,4397.692383,1508.000000,0.000000,8.000000,,,,0.000000,2.000000,2.000000,0.000000,2.000000,2.000000,2.000000,0.000000,2.000000,4.000000,4.000000,4.000000,4.000000,2.000000,4.000000,16.666666,,,,,,,,,,,,,,,,
1732082790.440429,1732082790.441341,80.000000,0.000000,4305.512695,4296.922852,4331.666504,4311.025879,4322.307617,4300.000000,4182.307617,4351.025879,4336.025879,4317.692383,4450.769043,4497.179688,4356.666504,4397.692383,1731.000000,0.000000,8.000000,,,,0.000000,2.000000,2.000000,0.000000,2.000000,2.000000,2.000000,0.000000,2.000000,4.000000,4.000000,4.000000,4.000000,2.000000,4.000000,16.666666,,,,,,,,,,,,,,,,
1732082790.448237,1732082790.449149,81.000000,0.000000,4307.179688,4299.102539,4327.051270,4313.205078,4316.922852,4301.025879,4179.871582,4342.692383,4332.436035,4318.077148,4453.717773,4494.871582,4357.179688,4400.384766,1649.000000,0.000000,8.000000,,,,0.000000,2.000000,2.000000,0.000000,2.000000,2.000000,2.000000,0.000000,2.000000,4.000000,4.000000,4.000000,4.000000,2.000000,4.000000,16.666666,,,,,,,,,,,,,,,,
1732082790.456046,1732082790.457157,82.000000,0.000000,4304.871582,4304.743652,4327.179688,4320.256348,4320.512695,4299.615234,4178.077148,4330.000000,4333.846191,4318.077148,4459.487305,4497.436035,4360.512695,4396.666504,1371.000000,0.000000,8.000000,,,,0.000000,2.000000,2.000000,0.000000,2.000000,2.000000,2.000000,0.000000,2.000000,4.000000,4.000000,4.000000,4.000000,2.000000,4.000000,16.666666,,,,,,,,,,,,,,,,
1732082790.463854,1732082790.464966,83.000000,0.000000,4301.538574,4298.717773,4331.666504,4316.153809,4337.436035,4299.743652,4178.846191,4333.077148,4336.538574,4318.589844,4459.615234,4497.179688,4361.153809,4390.897461,1508.000000,0.000000,8.000000,,,,0.000000,2.000000,2.000000,0.000000,2.000000,2.000000,2.000000,0.000000,2.000000,4.000000,4.000000,4.000000,4.000000,2.000000,4.000000,16.666666,,,,,,,,,,,,,,,,
1732082790.471662,1732082790.472874,84.000000,0.000000,4300.769043,4296.025879,4331.282227,4315.769043,4328.717773,4305.384766,4179.615234,4341.282227,4333.589844,4321.282227,4456.922852,4496.410156,4356.666504,4389.487305,1731.000000,0.000000,8.000000,,,,0.000000,2.000000,2.000000,0.000000,2.000000,2.000000,2.000000,0.000000,2.000000,4.000000,4.000000,4.000000,4.000000,2.000000,4.000000,16.666666,,,,,,,,,,,,,,,,
1732082790.479470,1732082790.480682,85.000000,0.000000,4296.538574,4301.410156,4329.871582,4323.589844,4307.179688,4308.589844,4180.384766,4342.051270,4329.487305,4322.179688,4457.948730,4498.333496,4356.153809,4390.128418,1649.000000,0.000000,8.000000,,,,0.000000,2.000000,2.000000,0.000000,2.000000,2.000000,2.000000,0.000000,2.000000,4.000000,4.000000,4.000000,4.000000,2.000000,4.000000,16.666666,,,,,,,,,,,,,,,,
1732082790.487279,1732082790.488690,86.000000,0.000000,4293.717773,4298.846191,4332.563965,4321.538574,4308.717773,4309.230957,4183.846191,4344.743652,4332.948730,4323.846191,4459.487305,4501.666504,4357.563965,4389.615234,1371.000000,0.000000,8.000000,,,,0.000000,2.000000,2.000000,0.000000,2.000000,2.000000,2.000000,0.000000,2.000000,4.000000,4.000000,4.000000,4.000000,2.000000,4.000000,16.666666,,,,,,,,,,,,,,,,
1732082790.495087,1732082790.496498,87.000000,0.000000,4293.461426,4296.538574,4332.051270,4316.922852,4319.230957,4311.538574,4183.077148,4346.794922,4336.922852,4327.307617,4459.102539,4502.307617,4356.666504,4386.538574,1508.000000,0.000000,8.000000,,,,0.000000,2.000000,2.000000,0.000000,2.000000,2.000000,2.000000,0.000000,2.000000,4.000000,4.000000,4.000000,4.000000,2.000000,4.000000,16.666666,,,,,,,,,,,,,,,,
1732082790.502895,1732082790.504406,88.000000,0.000000,4288.333496,4297.692383,4329.102539,4319.743652,4316.153809,4307.948730,4182.307617,4343.461426,4332.307617,4325.128418,4458.077148,4501.794922,4354.871582,4382.948730,1731.000000,0.000000,8.000000,,,,0.000000,2.000000,2.000000,0.000000,2.000000,2.000000,2.000000,0.000000,2.000000,4.000000,4.000000,4.000000,4.000000,2.000000,4.000000,16.666666,,,,,,,,,,,,,,,,
1732082790.510703,1732082790.512214,89.000000,0.000000,4283.846191,4295.769043,4326.282227,4319.487305,4308.205078,4307.179688,4182.051270,4346.025879,4331.538574,4320.769043,4455.000000,4500.512695,4350.641113,4378.717773,1649.000000,0.000000,8.000000,,,,0.000000,2.000000,2.000000,0.000000,2.000000,2.000000,2.000000,0.000000,2.000000,4.000000,4.000000,4.000000,4.000000,2.000000,4.000000,16.666666,,,,,,,,,,,,,,,,
1732082790.518512,1732082790.520222,90.000000,0.000000,4280.641113,4293.846191,4325.000000,4316.282227,4320.641113,4313.589844,4183.717773,4352.179688,4337.436035,4319.358887,4449.615234,4498.205078,4347.307617,4372.692383,1371.000000,0.000000,8.000000,,,,0.000000,2.000000,2.000000,0.000000,2.000000,2.000000,2.000000,0.000000,2.000000,4.000000,4.000000,4.000000,4.000000,2.000000,4.000000,16.666666,,,,,,,,,,,,,,,,
1732082790.526320,1732082790.528031,91.000000,0.000000,4273.333496,4296.538574,4322.179688,4313.717773,4334.230957,4314.871582,4183.205078,4351.794922,4340.128418,4323.461426,4449.230957,4493.974121,4351.922852,4368.333496,1508.000000,0.000000,8.000000,,,,0.000000,2.000000,2.000000,0.000000,2.000000,2.000000,2.000000,0.000000,2.000000,4.000000,4.000000,4.000000,4.000000,2.000000,4.000000,16.666666,,,,,,,,,,,,,,,,
1732082790.534128,1732082790.535939,92.000000,0.000000,4270.128418,4296.538574,4323.077148,4310.128418,4317.948730,4312.051270,4183.589844,4349.871582,4338.846191,4330.000000,4450.256348,4489.743652,4355.000000,4368.461426,1731.000000,0.000000,8.000000,,,,0.000000,2.000000,2.000000,0.000000,2.000000,2.000000,2.000000,0.000000,2.000000,4.000000,4.000000,4.000000,4.000000,2.000000,4.000000,16.666666,,,,,,,,,,,,,,,,
1732082790.541936,1732082790.543747,93.000000,0.000000,4275.641113,4294.358887,4323.846191,4313.077148,4301.153809,4315.256348,4182.692383,4351.410156,4339.230957,4330.769043,4447.179688,4487.692383,4351.794922,4370.384766,1649.000000,0.000000,8.000000,,,,0.000000,2.000000,2.000000,0.000000,2.000000,2.000000,2.000000,0.000000,2.000000,4.000000,4.000000,4.000000,4.000000,2.000000,4.000000,16.666666,,,,,,,,,,,,,,,,
1732082790.549744,1732082790.551455,94.000000,0.000000,4276.282227,4293.717773,4325.384766,4317.436035,4314.743652,4319.743652,4181.410156,4350.256348,4334.871582,4321.025879,4444.102539,4482.179688,4347.307617,4365.384766,1371.000000,0.000000,8.000000,,,,0.000000,2.000000,2.000000,0.000000,2.000000,2.000000,2.000000,0.000000,2.000000,4.000000,4.000000,4.000000,4.000000,2.000000,4.000000,16.666666,,,,,,,,,,,,,,,,
1732082790.557553,1732082790.559264,95.000000,0.000000,4271.538574,4293.077148,4322.563965,4316.794922,4325.641113,4321.794922,4180.769043,4348.846191,4329.487305,4316.922852,4443.717773,4475.128418,4342.820313,4357.948730,1508.000000,0.000000,8.000000,,,,0.000000,2.000000,2.000000,0.000000,2.000000,2.000000,2.000000,0.000000,2.000000,4.000000,4.000000,4.000000,4.000000,2.000000,4.000000,16.666666,,,,,,,,,,,,,,,,
1732082790.565361,1732082790.566972,96.000000,0.000000,4269.743652,4292.436035,4322.692383,4313.205078,4316.282227,4318.461426,4182.692383,4347.820313,4331.922852,4325.512695,4444.871582,4472.179688,4345.128418,4361.538574,1731.000000,0.000000,8.000000,,,,0.000000,2.000000,2.000000,0.000000,2.000000,2.000000,2.000000,0.000000,2.000000,4.000000,4.000000,4.000000,4.000000,2.000000,4.000000,16.666666,,,,,,,,,,,,,,,,
1732082790.573169,1732082790.574780,97.000000,0.000000,4273.974121,4292.948730,4323.077148,4311.282227,4311.666504,4308.717773,4180.769043,4342.948730,4333.333496,4329.871582,4444.871582,4475.897461,4354.487305,4368.333496,1649.000000,0.000000,8.000000,,,,0.000000,2.000000,2.000000,0.000000,2.000000,2.000000,2.000000,0.000000,2.000000,4.000000,4.000000,4.000000,4.000000,2.000000,4.000000,16.666666,,,,,,,,,,,,,,,,
1732082790.580978,1732082790.582388,98.000000,0.000000,4282.563965,4294.487305,4323.589844,4313.589844,4307.820313,4304.615234,4178.717773,4340.769043,4331.410156,4326.666504,4445.128418,4482.820313,4356.794922,4369.871582,1371.000000,0.000000,8.000000,,,,0.000000,2.000000,2.000000,0.000000,2.000000,2.000000,2.000000,0.000000,2.000000,4.000000,4.000000,4.000000,4.000000,2.000000,4.000000,16.666666,,,,,,,,,,,,,,,,
1732082790.588786,1732082790.590197,99.000000,0.000000,4284.487305,4295.512695,4323.461426,4313.717773,4305.384766,4309.615234,4178.077148,4342.307617,4330.128418,4325.000000,4445.897461,4480.384766,4352.436035,4371.025879,1508.000000,0.000000,8.000000,,,,0.000000,2.000000,2.000000,0.000000,2.000000,2.000000,2.000000,0.000000,2.000000,4.000000,4.000000,4.000000,4.000000,2.000000,4.000000,16.666666,,,,,,,,,,,,,,,,
1732082790.596594,1732082790.597905,100.000000,0.000000,4275.256348,4292.436035,4321.153809,4309.487305,4316.153809,4310.384766,4177.179688,4340.256348,4329.487305,4323.461426,4441.025879,4468.205078,4348.717773,4368.589844,1731.000000,0.000000,8.000000,,,,0.000000,2.000000,2.000000,0.000000,2.000000,2.000000,2.000000,0.000000,2.000000,4.000000,4.000000,4.000000,4.000000,2.000000,4.000000,16.666666,,,,,,,,,,,,,,,,
1732082790.604402,1732082790.605713,101.000000,0.000000,4270.128418,4290.256348,4317.692383,4307.563965,4316.794922,4311.282227,4176.794922,4338.333496,4330.512695,4322.179688,4435.769043,4466.538574,4345.641113,4362.051270,1649.000000,0.000000,8.000000,,,,0.000000,2.000000,2.000000,0.000000,2.000000,2.000000,2.000000,0.000000,2.000000,4.000000,4.000000,4.000000,4.000000,2.000000,4.000000,16.666666,,,,,,,,,,,,,,,,
1732082790.612211,1732082790.613322,102.000000,0.000000,4273.205078,4291.410156,4316.410156,4310.641113,4311.282227,4314.230957,4176.025879,4341.410156,4332.051270,4322.179688,4437.436035,4474.102539,4345.897461,4363.846191,1371.000000,0.000000,8.000000,,,,0.000000,2.000000,2.000000,0.000000,2.000000,2.000000,2.000000,0.000000,2.000000,4.000000,4.000000,4.000000,4.000000,2.000000,4.000000,16.666666,,,,,,,,,,,,,,,,
1732082790.620019,1732082790.621130,103.000000,0.000000,4272.563965,4294.615234,4319.358887,4311.282227,4322.436035,4310.897461,4174.743652,4341.794922,4330.897461,4319.102539,4437.948730,4470.000000,4349.615234,4368.846191,1508.000000,0.000000,8.000000,,,,0.000000,2.000000,2.000000,0.000000,2.000000,2.000000,2.000000,0.000000,2.000000,4.000000,4.000000,4.000000,4.000000,2.000000,4.000000,16.666666,,,,,,,,,,,,,,,,
1732082790.627827,1732082790.628838,104.000000,0.000000,4270.897461,4293.077148,4317.692383,4309.358887,4328.974121,4311.794922,4174.230957,4340.256348,4330.000000,4317.820313,4437.692383,4464.743652,4353.205078,4369.358887,1731.000000,0.000000,8.000000,,,,0.000000,2.000000,2.000000,0.000000,2.000000,2.000000,2.000000,0.000000,2.000000,4.000000,4.000000,4.000000,4.000000,2.000000,4.000000,16.666666,,,,,,,,,,,,,,,,
1732082790.635636,1732082790.636646,105.000000,0.000000,4272.563965,4288.974121,4318.205078,4310.256348,4313.333496,4318.846191,4178.333496,4340.769043,4331.025879,4318.333496,4441.153809,4471.025879,4351.666504,4371.025879,1649.000000,0.000000,8.000000,,,,0.000000,2.000000,2.000000,0.000000,2.000000,2.000000,2.000000,0.000000,2.000000,4.000000,4.000000,4.000000,4.000000,2.000000,4.000000,16.666666,,,,,,,,,,,,,,,,
1732082790.643444,1732082790.644255,106.000000,0.000000,4273.589844,4290.512695,4321.410156,4313.589844,4306.538574,4318.717773,4177.692383,4337.820313,4329.358887,4311.922852,4436.025879,4468.589844,4346.153809,4369.487305,1371.000000,0.000000,8.000000,,,,0.000000,2.000000,2.000000,0.000000,2.000000,2.000000,2.000000,0.000000,2.000000,4.000000,4.000000,4.000000,4.000000,2.000000,4.000000,16.666666,,,,,,,,,,,,,,,,
1732082790.651252,1732082790.652063,107.000000,0.000000,4271.410156,4292.179688,4324.102539,4314.871582,4320.256348,4312.692383,4178.589844,4335.512695,4328.461426,4306.538574,4428.461426,4458.461426,4345.641113,4365.128418,1508.000000,0.000000,8.000000,,,,0.000000,2.000000,2.000000,0.000000,2.000000,2.000000,2.000000,0.000000,2.000000,4.000000,4.000000,4.000000,4.000000,2.000000,4.000000,16.666666,,,,,,,,,,,,,,,,
1732082790.659060,1732082790.659771,108.000000,0.000000,4275.641113,4292.436035,4320.256348,4312.820313,4325.384766,4310.256348,4178.717773,4336.666504,4331.410156,4309.871582,4437.307617,4461.153809,4353.461426,4370.256348,1731.000000,0.000000,8.000000,,,,0.000000,2.000000,2.000000,0.000000,2.000000,2.000000,2.000000,0.000000,2.000000,4.000000,4.000000,4.000000,4.000000,2.000000,4.000000,16.666666,,,,,,,,,,,,,,,,
1732082790.666869,1732082790.667579,109.000000,0.000000,4283.717773,4294.230957,4321.922852,4313.974121,4319.743652,4309.615234,4178.717773,4337.051270,4333.461426,4311.153809,4441.025879,4470.384766,4350.641113,4374.487305,1649.000000,0.000000,8.000000,,,,0.000000,2.000000,2.000000,0.000000,2.000000,2.000000,2.000000,0.000000,2.000000,4.000000,4.000000,4.000000,4.000000,2.000000,4.000000,16.666666,,,,,,,,,,,,,,,,
1732082790.674677,1732082790.675188,110.000000,0.000000,4280.897461,4291.922852,4326.153809,4319.230957,4324.743652,4311.666504,4177.692383,4340.000000,4333.205078,4308.717773,4432.051270,4473.846191,4339.102539,4369.615234,1371.000000,0.000000,8.000000,,,,0.000000,2.000000,2.000000,0.000000,2.000000,2.000000,2.000000,0.000000,2.000000,4.000000,4.000000,4.000000,4.000000,2.000000,4.000000,16.666666,,,,,,,,,,,,,,,,
1732082790.682485,1732082790.682996,111.000000,0.000000,4278.077148,4290.000000,4327.436035,4318.077148,4328.717773,4309.615234,4176.538574,4340.512695,4330.000000,4311.794922,4436.410156,4474.743652,4347.692383,4374.871582,1508.000000,0.000000,8.000000,,,,0.000000,2.000000,2.000000,0.000000,2.000000,2.000000,2.000000,0.000000,2.000000,4.000000,4.000000,4.000000,4.000000,2.000000,4.000000,16.666666,,,,,,,,,,,,,,,,
1732082790.690293,1732082790.690904,112.000000,0.000000,4287.948730,4292.051270,4322.563965,4311.666504,4324.102539,4301.025879,4174.487305,4335.128418,4327.692383,4318.974121,4449.487305,4476.538574,4367.179688,4390.897461,1731.000000,0.000000,8.000000,,,,0.000000,2.000000,2.000000,0.000000,2.000000,2.000000,2.000000,0.000000,2.000000,4.000000,4.000000,4.000000,4.000000,2.000000,4.000000,16.666666,,,,,,,,,,,,,,,,
1732082790.698102,1732082790.698712,113.000000,0.000000,4291.153809,4288.077148,4320.128418,4305.641113,4316.538574,4298.077148,4176.282227,4333.846191,4330.384766,4321.025879,4450.512695,4481.666504,4371.282227,4398.974121,1649.000000,0.000000,8.000000,,,,0.000000,2.000000,2.000000,0.000000,2.000000,2.000000,2.000000,0.000000,2.000000,4.000000,4.000000,4.000000,4.000000,2.000000,4.000000,16.666666,,,,,,,,,,,,,,,,
1732082790.705910,1732082790.706321,114.000000,0.000000,4279.615234,4278.077148,4324.102539,4300.512695,4311.153809,4301.282227,4179.487305,4336.025879,4333.205078,4320.641113,4449.615234,4486.282227,4372.563965,4397.436035,1371.000000,0.000000,8.000000,,,,0.000000,2.000000,2.000000,0.000000,2.000000,2.000000,2.000000,0.000000,2.000000,4.000000,4.000000,4.000000,4.000000,2.000000,4.000000,16.666666,,,,,,,,,,,,,,,,
1732082790.713718,1732082790.714129,115.000000,0.000000,4276.410156,4272.948730,4327.307617,4295.641113,4320.384766,4300.641113,4177.948730,4333.717773,4329.487305,4323.974121,4457.820313,4484.743652,4377.051270,4398.205078,1508.000000,0.000000,8.000000,,,,0.000000,2.000000,2.000000,0.000000,2.000000,2.000000,2.000000,0.000000,2.000000,4.000000,4.000000,4.000000,4.000000,2.000000,4.000000,16.666666,,,,,,,,,,,,,,,,
1732082790.721527,1732082790.721837,116.000000,0.000000,4279.743652,4273.205078,4324.487305,4293.077148,4327.051270,4297.307617,4177.179688,4331.025879,4327.692383,4327.436035,4459.358887,4481.666504,4372.692383,4399.615234,1731.000000,0.000000,8.000000,,,,0.000000,2.000000,2.000000,0.000000,2.000000,2.000000,2.000000,0.000000,2.000000,4.000000,4.000000,4.000000,4.000000,2.000000,4.000000,16.666666,,,,,,,,,,,,,,,,
1732082790.729335,1732082790.729646,117.000000,0.000000,4280.384766,4273.717773,4322.051270,4295.897461,4309.487305,4296.282227,4180.000000,4334.743652,4331.153809,4329.487305,4458.077148,4481.666504,4368.589844,4398.461426,1649.000000,0.000000,8.000000,,,,0.000000,2.000000,2.000000,0.000000,2.000000,2.000000,2.000000,0.000000,2.000000,4.000000,4.000000,4.000000,4.000000,2.000000,4.000000,16.666666,,,,,,,,,,,,,,,,
1732082790.737143,1732082790.737654,118.000000,0.000000,4285.000000,4273.974121,4329.871582,4299.102539,4296.282227,4298.077148,4181.794922,4338.333496,4330.897461,4333.205078,4460.256348,4480.769043,4372.436035,4400.000000,1371.000000,0.000000,8.000000,,,,0.000000,2.000000,2.000000,0.000000,2.000000,2.000000,2.000000,0.000000,2.000000,4.000000,4.000000,4.000000,4.000000,2.000000,4.000000,16.666666,,,,,,,,,,,,,,,,
1732082790.744951,1732082790.745462,119.000000,0.000000,4289.743652,4275.000000,4330.641113,4300.769043,4304.487305,4300.769043,4182.436035,4337.051270,4332.307617,4334.487305,4460.384766,4479.102539,4371.025879,4403.333496,1508.000000,0.000000,8.000000,,,,0.000000,2.000000,2.000000,0.000000,2.000000,2.000000,2.000000,0.000000,2.000000,4.000000,4.000000,4.000000,4.000000,2.000000,4.000000,16.666666,,,,,,,,,,,,,,,,
1732082790.752760,1732082790.753370,120.000000,0.000000,4291.410156,4277.948730,4328.333496,4299.743652,4311.794922,4299.615234,4182.307617,4336.666504,4335.641113,4332.436035,4460.641113,4478.589844,4367.179688,4404.871582,1731.000000,0.000000,8.000000,,,,0.000000,2.000000,2.000000,0.000000,2.000000,2.000000,2.000000,0.000000,2.000000,4.000000,4.000000,4.000000,4.000000,2.000000,4.000000,16.666666,,,,,,,,,,,,,,,,
1732082790.760568,1732082790.761178,121.000000,0.000000,4292.051270,4279.615234,4329.230957,4297.820313,4315.512695,4295.256348,4179.102539,4339.743652,4333.717773,4330.000000,4461.666504,4477.948730,4365.769043,4404.487305,1649.000000,0.000000,8.000000,,,,0.000000,2.000000,2.000000,0.000000,2.000000,2.000000,2.000000,0.000000,2.000000,4.000000,4.000000,4.000000,4.000000,2.000000,4.000000,16.666666,,,,,,,,,,,,,,,,
1732082790.768376,1732082790.768786,122.000000,0.000000,4290.641113,4275.897461,4330.641113,4297.051270,4309.743652,4295.128418,4180.256348,4336.922852,4329.743652,4326.666504,4458.974121,4484.102539,4363.333496,4403.974121,1371.000000,0.000000,8.000000,,,,0.000000,2.000000,2.000000,0.000000,2.000000,2.000000,2.000000,0.000000,2.000000,4.000000,4.000000,4.000000,4.000000,2.000000,4.000000,16.666666,,,,,,,,,,,,,,,,
1732082790.776184,1732082790.776595,123.000000,0.000000,4290.256348,4275.384766,4327.563965,4294.487305,4297.051270,4302.948730,4183.974121,4332.051270,4330.384766,4326.538574,4458.717773,4490.128418,4363.333496,4405.512695,1508.000000,0.000000,8.000000,,,,0.000000,2.000000,2.000000,0.000000,2.000000,2.000000,2.000000,0.000000,2.000000,4.000000,4.000000,4.000000,4.000000,2.000000,4.000000,16.666666,,,,,,,,,,,,,,,,
1732082790.783992,1732082790.784503,124.000000,0.000000,4295.769043,4281.025879,4331.153809,4292.820313,4298.974121,4307.307617,4186.666504,4341.538574,4335.128418,4328.205078,4461.282227,4490.256348,4366.794922,4408.589844,1731.000000,0.000000,8.000000,,,,0.000000,2.000000,2.000000,0.000000,2.000000,2.000000,2.000000,0.000000,2.000000,4.000000,4.000000,4.000000,4.000000,2.000000,4.000000,16.666666,,,,,,,,,,,,,,,,
1732082790.791801,1732082790.792311,125.000000,0.000000,4302.692383,4282.948730,4333.461426,4295.384766,4308.846191,4300.641113,4183.461426,4343.461426,4336.666504,4329.102539,4459.358887,4490.641113,4369.871582,4411.025879,1649.000000,0.000000,8.000000,,,,0.000000,2.000000,2.000000,0.000000,2.000000,2.000000,2.000000,0.000000,2.000000,4.000000,4.000000,4.000000,4.000000,2.000000,4.000000,16.666666,,,,,,,,,,,,,,,,
1732082790.799609,1732082790.800319,126.000000,0.000000,4302.051270,4282.179688,4331.922852,4296.153809,4313.205078,4294.230957,4181.538574,4331.922852,4332.307617,4328.717773,4458.461426,4491.282227,4371.538574,4413.333496,1371.000000,0.000000,8.000000,,,,0.000000,2.000000,2.000000,0.000000,2.000000,2.000000,2.000000,0.000000,2.000000,4.000000,4.000000,4.000000,4.000000,2.000000,4.000000,16.666666,,,,,,,,,,,,,,,,
1732082790.807417,1732082790.808127,127.000000,0.000000,4301.666504,4285.512695,4330.384766,4295.384766,4308.717773,4297.820313,4183.333496,4331.666504,4330.769043,4327.179688,4459.102539,4489.615234,4370.256348,4415.000000,8.000000,0.000000,8.000000,,,,0.000000,2.000000,2.000000,0.000000,2.000000,2.000000,2.000000,0.000000,2.000000,4.000000,4.000000,4.000000,4.000000,2.000000,4.000000,16.666666,,,,,,,,,,,,,,,,
1732082790.815225,1732082790.816035,0.000000,0.000000,4306.410156,4287.692383,4330.512695,4301.282227,4296.410156,4302.436035,4185.769043,4339.102539,4333.461426,4325.384766,4458.333496,4488.205078,4370.000000,4415.769043,0.000000,0.000000,8.000000,,,,0.000000,2.000000,2.000000,0.000000,2.000000,2.000000,2.000000,0.000000,2.000000,4.000000,4.000000,4.000000,4.000000,2.000000,4.000000,16.666666,,,,,,,,,,,,,,,,
1732082790.823034,1732082790.823844,1.000000,0.000000,4310.641113,4286.282227,4330.512695,4307.307617,4292.948730,4299.102539,4184.102539,4341.538574,4331.153809,4324.102539,4459.358887,4491.025879,4372.307617,4420.512695,1315.000000,0.000000,8.000000,,,,0.000000,2.000000,2.000000,0.000000,2.000000,2.000000,2.000000,0.000000,2.000000,4.000000,4.000000,4.000000,4.000000,2.000000,4.000000,16.666666,,,,,,,,,,,,,,,,
1732082790.830842,1732082790.831852,2.000000,0.000000,4313.205078,4285.000000,4329.102539,4305.000000,4300.128418,4296.153809,4184.230957,4338.974121,4328.205078,4322.563965,4459.487305,4491.025879,4368.333496,4427.820313,1239.000000,0.000000,8.000000,,,,0.000000,2.000000,2.000000,0.000000,2.000000,2.000000,2.000000,0.000000,2.000000,4.000000,4.000000,4.000000,4.000000,2.000000,4.000000,16.666666,,,,,,,,,,,,,,,,
1732082790.838650,1732082790.839660,3.000000,0.000000,4322.307617,4284.358887,4326.922852,4305.000000,4298.205078,4296.410156,4182.692383,4334.487305,4328.333496,4321.410156,4463.077148,4491.282227,4368.205078,4433.717773,1192.000000,0.000000,8.000000,,,,0.000000,2.000000,2.000000,0.000000,2.000000,2.000000,2.000000,0.000000,2.000000,4.000000,4.000000,4.000000,4.000000,2.000000,4.000000,16.666666,,,,,,,,,,,,,,,,
1732082790.846459,1732082790.847568,4.000000,0.000000,4334.871582,4285.128418,4325.769043,4305.897461,4292.051270,4295.769043,4177.436035,4333.333496,4324.358887,4321.025879,4466.025879,4492.563965,4377.563965,4440.641113,1209.000000,0.000000,8.000000,,,,0.000000,2.000000,2.000000,0.000000,2.000000,2.000000,2.000000,0.000000,2.000000,4.000000,4.000000,4.000000,4.000000,2.000000,4.000000,16.666666,,,,,,,,,,,,,,,,
1732082790.854267,1732082790.855376,5.000000,0.000000,4343.846191,4289.102539,4327.820313,4304.743652,4284.358887,4293.589844,4177.436035,4336.282227,4322.820313,4318.077148,4464.615234,4491.794922,4379.102539,4448.974121,1075.000000,0.000000,8.000000,,,,0.000000,2.000000,2.000000,0.000000,2.000000,2.000000,2.000000,0.000000,2.000000,4.000000,4.000000,4.000000,4.000000,2.000000,4.000000,16.666666,,,,,,,,,,,,,,,,
1732082790.862075,1732082790.863384,6.000000,0.000000,4355.641113,4294.358887,4326.282227,4306.282227,4285.769043,4289.358887,4177.692383,4332.563965,4325.384766,4318.333496,4464.487305,4490.897461,4377.436035,4456.922852,78.000000,0.000000,8.000000,,,,0.000000,2.000000,2.000000,0.000000,2.000000,2.000000,2.000000,0.000000,2.000000,4.000000,4.000000,4.000000,4.000000,2.000000,4.000000,16.666666,,,,,,,,,,,,,,,,
1732082790.869883,1732082790.871192,7.000000,0.000000,4369.743652,4295.769043,4325.641113,4307.563965,4298.717773,4282.692383,4173.333496,4324.871582,4319.230957,4317.948730,4468.205078,4490.512695,4385.641113,4464.230957,1174.000000,0.000000,8.000000,,,,0.000000,2.000000,2.000000,0.000000,2.000000,2.000000,2.000000,0.000000,2.000000,4.000000,4.000000,4.000000,4.000000,2.000000,4.000000,16.666666,,,,,,,,,,,,,,,,
1732082790.877692,1732082790.879100,8.000000,0.000000,4376.282227,4296.538574,4324.743652,4305.769043,4286.538574,4279.487305,4169.487305,4323.974121,4311.410156,4311.153809,4465.769043,4492.563965,4387.948730,4470.000000,1347.000000,0.000000,8.000000,,,,0.000000,2.000000,2.000000,0.000000,2.000000,2.000000,2.000000,0.000000,2.000000,4.000000,4.000000,4.000000,4.000000,2.000000,4.000000,16.666666,,,,,,,,,,,,,,,,
1732082790.885500,1732082790.886909,9.000000,0.000000,4381.025879,4296.922852,4326.666504,4304.358887,4264.230957,4280.512695,4175.769043,4325.000000,4314.743652,4310.000000,4462.820313,4499.871582,4384.230957,4475.256348,1494.000000,0.000000,8.000000,,,,0.000000,2.000000,2.000000,0.000000,2.000000,2.000000,2.000000,0.000000,2.000000,4.000000,4.000000,4.000000,4.000000,2.000000,4.000000,16.666666,,,,,,,,,,,,,,,,
1732082790.893308,1732082790.894917,10.000000,0.000000,4390.128418,4294.871582,4326.794922,4307.948730,4274.358887,4281.794922,4183.077148,4326.922852,4321.282227,4316.922852,4470.256348,4507.051270,4390.256348,4485.256348,1371.000000,0.000000,8.000000,,,,0.000000,2.000000,2.000000,0.000000,2.000000,2.000000,2.000000,0.000000,2.000000,4.000000,4.000000,4.000000,4.000000,2.000000,4.000000,16.666666,,,,,,,,,,,,,,,,
1732082790.901116,1732082790.902725,11.000000,0.000000,4393.333496,4296.153809,4326.666504,4311.794922,4287.563965,4282.436035,4187.948730,4324.743652,4318.974121,4316.922852,4476.666504,4507.820313,4394.743652,4492.692383,1508.000000,0.000000,8.000000,,,,0.000000,2.000000,2.000000,0.000000,2.000000,2.000000,2.000000,0.000000,2.000000,4.000000,4.000000,4.000000,4.000000,2.000000,4.000000,16.666666,,,,,,,,,,,,,,,,
1732082790.908925,1732082790.910633,12.000000,0.000000,4395.512695,4303.461426,4325.897461,4312.436035,4272.948730,4275.256348,4187.179688,4316.666504,4315.000000,4312.820313,4474.230957,4502.563965,4393.077148,4492.179688,1731.000000,0.000000,8.000000,,,,0.000000,2.000000,2.000000,0.000000,2.000000,2.000000,2.000000,0.000000,2.000000,4.000000,4.000000,4.000000,4.000000,2.000000,4.000000,16.666666,,,,,,,,,,,,,,,,
1732082790.916733,1732082790.918441,13.000000,0.000000,4399.615234,4305.256348,4326.666504,4309.102539,4272.563965,4266.922852,4188.461426,4314.487305,4313.333496,4311.666504,4468.205078,4494.871582,4392.820313,4490.000000,1661.000000,0.000000,8.000000,,,,0.000000,2.000000,2.000000,0.000000,2.000000,2.000000,2.000000,0.000000,2.000000,4.000000,4.000000,4.000000,4.000000,2.000000,4.000000,16.666666,,,,,,,,,,,,,,,,
1732082790.924541,1732082790.926449,14.000000,0.000000,4395.512695,4300.769043,4325.128418,4309.230957,4294.102539,4272.563965,4190.769043,4318.846191,4311.922852,4308.205078,4466.666504,4490.128418,4390.000000,4490.512695,1371.000000,0.000000,8.000000,,,,0.000000,2.000000,2.000000,0.000000,2.000000,2.000000,2.000000,0.000000,2.000000,4.000000,4.000000,4.000000,4.000000,2.000000,4.000000,16.666666,1.000000,16.666666,2.000000,2.000000,0.000000,2.000000,2.000000,2.000000,0.000000,2.000000,4.000000,4.000000,4.000000,4.000000,2.000000,4.000000
1732082790.932350,1732082790.934257,15.000000,0.000000,4392.820313,4303.461426,4326.153809,4314.615234,4288.205078,4281.282227,4195.256348,4319.743652,4312.563965,4306.282227,4466.410156,4495.384766,4388.333496,4488.333496,1508.000000,0.000000,8.000000,,,,0.000000,2.000000,2.000000,0.000000,2.000000,2.000000,2.000000,0.000000,2.000000,4.000000,4.000000,4.000000,4.000000,2.000000,4.000000,16.666666,,,,,,,,,,,,,,,,
1732082790.940158,1732082790.941966,16.000000,0.000000,4396.410156,4309.102539,4327.563965,4315.000000,4268.717773,4280.384766,4196.794922,4321.025879,4318.077148,4309.102539,4462.051270,4504.615234,4393.461426,4483.205078,0.000000,0.000000,8.000000,,,,0.000000,2.000000,2.000000,0.000000,2.000000,2.000000,2.000000,0.000000,2.000000,4.000000,4.000000,4.000000,4.000000,2.000000,4.000000,16.666666,,,,,,,,,,,,,,,,
1732082790.947966,1732082790.949774,17.000000,0.000000,4392.948730,4305.256348,4326.153809,4309.615234,4275.256348,4279.487305,4195.384766,4327.436035,4320.256348,4306.025879,4457.692383,4505.512695,4389.615234,4478.717773,0.000000,0.000000,8.000000,,,,0.000000,2.000000,2.000000,0.000000,2.000000,2.000000,2.000000,0.000000,2.000000,4.000000,4.000000,4.000000,4.000000,2.000000,4.000000,16.666666,,,,,,,,,,,,,,,,
1732082790.955774,1732082790.957382,18.000000,0.000000,4385.897461,4298.589844,4325.641113,4304.102539,4285.256348,4281.025879,4194.102539,4328.717773,4315.769043,4304.102539,4457.692383,4502.692383,4381.282227,4473.846191,0.000000,0.000000,8.000000,,,,0.000000,2.000000,2.000000,0.000000,2.000000,2.000000,2.000000,0.000000,2.000000,4.000000,4.000000,4.000000,4.000000,2.000000,4.000000,16.666666,,,,,,,,,,,,,,,,
1732082790.963583,1732082790.965190,19.000000,0.000000,4383.589844,4296.153809,4326.794922,4304.743652,4272.307617,4281.922852,4197.563965,4320.512695,4314.871582,4311.666504,4460.512695,4503.717773,4385.000000,4472.051270,0.000000,0.000000,8.000000,,,,0.000000,2.000000,2.000000,0.000000,2.000000,2.000000,2.000000,0.000000,2.000000,4.000000,4.000000,4.000000,4.000000,2.000000,4.000000,16.666666,,,,,,,,,,,,,,,,
1732082790.971391,1732082790.972899,20.000000,0.000000,4387.307617,4302.051270,4328.205078,4308.461426,4279.871582,4281.410156,4199.102539,4315.256348,4315.769043,4312.820313,4460.769043,4506.794922,4393.333496,4474.743652,0.000000,0.000000,8.000000,,,,0.000000,2.000000,2.000000,0.000000,2.000000,2.000000,2.000000,0.000000,2.000000,4.000000,4.000000,4.000000,4.000000,2.000000,4.000000,16.666666,,,,,,,,,,,,,,,,
1732082790.979199,1732082790.980707,21.000000,0.000000,4392.820313,4306.794922,4326.538574,4311.025879,4294.743652,4277.820313,4195.256348,4318.846191,4314.102539,4307.563965,4460.384766,4509.487305,4396.282227,4476.282227,0.000000,0.000000,8.000000,,,,0.000000,2.000000,2.000000,0.000000,2.000000,2.000000,2.000000,0.000000,2.000000,4.000000,4.000000,4.000000,4.000000,2.000000,4.000000,16.666666,,,,,,,,,,,,,,,,
1732082790.987007,1732082790.988315,22.000000,0.000000,4386.538574,4306.153809,4326.922852,4310.384766,4276.794922,4277.307617,4195.000000,4319.743652,4313.717773,4309.615234,4461.794922,4505.641113,4390.256348,4474.358887,0.000000,0.000000,8.000000,,,,0.000000,2.000000,2.000000,0.000000,2.000000,2.000000,2.000000,0.000000,2.000000,4.000000,4.000000,4.000000,4.000000,2.000000,4.000000,16.666666,,,,,,,,,,,,,,,,
1732082790.994816,1732082790.996124,23.000000,0.000000,4375.641113,4304.358887,4328.589844,4308.461426,4265.512695,4280.128418,4195.384766,4310.897461,4312.948730,4310.897461,4461.922852,4494.102539,4384.102539,4468.717773,0.000000,0.000000,8.000000,,,,0.000000,2.000000,2.000000,0.000000,2.000000,2.000000,2.000000,0.000000,2.000000,4.000000,4.000000,4.000000,4.000000,2.000000,4.000000,16.666666,,,,,,,,,,,,,,,,
1732082791.002624,1732082791.003832,24.000000,0.000000,4376.922852,4302.948730,4330.128418,4308.077148,4279.102539,4279.102539,4196.025879,4307.563965,4311.410156,4309.102539,4456.666504,4492.948730,4383.974121,4467.436035,0.000000,0.000000,8.000000,,,,0.000000,2.000000,2.000000,0.000000,2.000000,2.000000,2.000000,0.000000,2.000000,4.000000,4.000000,4.000000,4.000000,2.000000,4.000000,16.666666,,,,,,,,,,,,,,,,
1732082791.010432,1732082791.011640,25.000000,0.000000,4379.102539,4305.512695,4327.692383,4308.589844,4290.897461,4279.743652,4195.256348,4317.179688,4315.512695,4310.128418,4454.871582,4503.077148,4386.538574,4470.256348,0.000000,0.000000,8.000000,,,,0.000000,2.000000,2.000000,0.000000,2.000000,2.000000,2.000000,0.000000,2.000000,4.000000,4.000000,4.000000,4.000000,2.000000,4.000000,16.666666,,,,,,,,,,,,,,,,
1732082791.018240,1732082791.019648,26.000000,0.000000,4376.538574,4308.589844,4326.922852,4309.487305,4287.307617,4283.205078,4196.794922,4322.179688,4319.615234,4311.153809,4458.461426,4505.128418,4389.102539,4468.589844,0.000000,0.000000,8.000000,,,,0.000000,2.000000,2.000000,0.000000,2.000000,2.000000,2.000000,0.000000,2.000000,4.000000,4.000000,4.000000,4.000000,2.000000,4.000000,16.666666,,,,,,,,,,,,,,,,
1732082791.026049,1732082791.027456,27.000000,0.000000,4377.051270,4305.256348,4325.128418,4307.563965,4279.743652,4280.256348,4197.307617,4317.820313,4318.974121,4314.871582,4458.846191,4501.922852,4390.897461,4465.128418,0.000000,0.000000,8.000000,,,,0.000000,2.000000,2.000000,0.000000,2.000000,2.000000,2.000000,0.000000,2.000000,4.000000,4.000000,4.000000,4.000000,2.000000,4.000000,16.666666,,,,,,,,,,,,,,,,
1732082791.033857,1732082791.035364,28.000000,0.000000,4373.205078,4298.077148,4325.641113,4303.846191,4275.641113,4280.384766,4201.153809,4319.743652,4321.922852,4317.307617,4457.948730,4505.384766,4391.922852,4468.205078,0.000000,0.000000,8.000000,,,,0.000000,2.000000,2.000000,0.000000,2.000000,2.000000,2.000000,0.000000,2.000000,4.000000,4.000000,4.000000,4.000000,2.000000,4.000000,16.666666,,,,,,,,,,,,,,,,
1732082791.041665,1732082791.043173,29.000000,0.000000,4368.333496,4299.230957,4326.538574,4308.077148,4278.717773,4288.717773,4203.717773,4329.102539,4323.717773,4312.820313,4461.794922,4507.307617,4391.282227,4472.179688,0.000000,0.000000,8.000000,,,,0.000000,2.000000,2.000000,0.000000,2.000000,2.000000,2.000000,0.000000,2.000000,4.000000,4.000000,4.000000,4.000000,2.000000,4.000000,16.666666,,,,,,,,,,,,,,,,
1732082791.049473,1732082791.050781,30.000000,0.000000,4371.538574,4305.769043,4326.538574,4313.077148,4282.051270,4283.846191,4198.461426,4326.410156,4320.641113,4314.230957,4462.307617,4503.717773,4390.384766,4468.846191,0.000000,0.000000,8.000000,,,,0.000000,2.000000,2.000000,0.000000,2.000000,2.000000,2.000000,0.000000,2.000000,4.000000,4.000000,4.000000,4.000000,2.000000,4.000000,16.666666,,,,,,,,,,,,,,,,
1732082791.057282,1732082791.058589,31.000000,0.000000,4376.025879,4307.563965,4326.922852,4314.743652,4273.974121,4270.512695,4190.256348,4313.717773,4320.000000,4324.102539,4464.358887,4505.128418,4391.410156,4467.563965,0.000000,0.000000,8.000000,,,,0.000000,2.000000,2.000000,0.000000,2.000000,2.000000,2.000000,0.000000,2.000000,4.000000,4.000000,4.000000,4.000000,2.000000,4.000000,16.666666,,,,,,,,,,,,,,,,
1732082791.065090,1732082791.066298,32.000000,0.000000,4372.051270,4304.743652,4328.846191,4313.461426,4274.743652,4269.871582,4191.538574,4307.692383,4317.948730,4324.487305,4471.025879,4506.282227,4396.538574,4468.846191,0.000000,0.000000,8.000000,,,,0.000000,2.000000,2.000000,0.000000,2.000000,2.000000,2.000000,0.000000,2.000000,4.000000,4.000000,4.000000,4.000000,2.000000,4.000000,16.666666,,,,,,,,,,,,,,,,
1732082791.072898,1732082791.074106,33.000000,0.000000,4365.512695,4304.487305,4331.410156,4308.846191,4289.743652,4277.436035,4195.384766,4309.487305,4314.871582,4318.717773,4465.641113,4498.077148,4394.871582,4464.743652,0.000000,0.000000,8.000000,,,,0.000000,2.000000,2.000000,0.000000,2.000000,2.000000,2.000000,0.000000,2.000000,4.000000,4.000000,4.000000,4.000000,2.000000,4.000000,16.666666,,,,,,,,,,,,,,,,
1732082791.080706,1732082791.081714,34.000000,0.000000,4359.743652,4307.948730,4333.077148,4308.589844,4292.563965,4279.102539,4195.512695,4315.384766,4318.846191,4319.487305,4456.666504,4489.487305,4383.974121,4453.974121,0.000000,0.000000,8.000000,,,,0.000000,2.000000,2.000000,0.000000,2.000000,2.000000,2.000000,0.000000,2.000000,4.000000,4.000000,4.000000,4.000000,2.000000,4.000000,16.666666,,,,,,,,,,,,,,,,
1732082791.088515,1732082791.089522,35.000000,0.000000,4350.384766,4301.282227,4327.948730,4308.077148,4278.974121,4280.769043,4198.461426,4323.461426,4326.922852,4325.769043,4459.871582,4490.641113,4380.128418,4447.563965,0.000000,0.000000,8.000000,,,,0.000000,2.000000,2.000000,0.000000,2.000000,2.000000,2.000000,0.000000,2.000000,4.000000,4.000000,4.000000,4.000000,2.000000,4.000000,16.666666,,,,,,,,,,,,,,,,
1732082791.096323,1732082791.097231,36.000000,0.000000,4343.205078,4294.487305,4323.333496,4301.410156,4274.743652,4287.307617,4202.563965,4327.692383,4328.461426,4328.589844,4464.871582,4493.205078,4382.948730,4450.512695,0.000000,0.000000,8.000000,,,,0.000000,2.000000,2.000000,0.000000,2.000000,2.000000,2.000000,0.000000,2.000000,4.000000,4.000000,4.000000,4.000000,2.000000,4.000000,16.666666,,,,,,,,,,,,,,,,
1732082791.104131,1732082791.105039,37.000000,0.000000,4342.948730,4295.128418,4329.102539,4299.871582,4292.948730,4295.256348,4202.051270,4328.077148,4324.871582,4321.666504,4459.487305,4490.128418,4377.948730,4447.307617,0.000000,0.000000,8.000000,,,,0.000000,2.000000,2.000000,0.000000,2.000000,2.000000,2.000000,0.000000,2.000000,4.000000,4.000000,4.000000,4.000000,2.000000,4.000000,16.666666,,,,,,,,,,,,,,,,
1732082791.111940,1732082791.113047,38.000000,0.000000,4346.794922,4296.282227,4330.641113,4307.179688,4303.205078,4296.410156,4200.512695,4326.538574,4324.743652,4317.436035,4457.051270,4487.563965,4371.922852,4442.563965,0.000000,0.000000,8.000000,,,,0.000000,2.000000,2.000000,0.000000,2.000000,2.000000,2.000000,0.000000,2.000000,4.000000,4.000000,4.000000,4.000000,2.000000,4.000000,16.666666,,,,,,,,,,,,,,,,
1732082791.119748,1732082791.120855,39.000000,0.000000,4345.769043,4296.922852,4326.153809,4310.641113,4288.461426,4291.922852,4201.025879,4327.820313,4327.563965,4325.384766,4461.538574,4490.000000,4374.615234,4445.000000,0.000000,0.000000,8.000000,,,,0.000000,2.000000,2.000000,0.000000,2.000000,2.000000,2.000000,0.000000,2.000000,4.000000,4.000000,4.000000,4.000000,2.000000,4.000000,16.666666,,,,,,,,,,,,,,,,
1732082791.127556,1732082791.128763,40.000000,0.000000,4343.846191,4298.974121,4326.922852,4308.461426,4275.384766,4291.153809,4196.794922,4333.333496,4330.384766,4330.384766,4462.179688,4492.692383,4377.948730,4448.205078,0.000000,0.000000,8.000000,,,,0.000000,2.000000,2.000000,0.000000,2.000000,2.000000,2.000000,0.000000,2.000000,4.000000,4.000000,4.000000,4.000000,2.000000,4.000000,16.666666,,,,,,,,,,,,,,,,
1732082791.135364,1732082791.136571,41.000000,0.000000,4347.436035,4301.538574,4330.512695,4305.897461,4277.692383,4293.846191,4198.461426,4335.897461,4332.436035,4326.922852,4461.025879,4491.410156,4379.871582,4446.153809,0.000000,0.000000,8.000000,,,,0.000000,2.000000,2.000000,0.000000,2.000000,2.000000,2.000000,0.000000,2.000000,4.000000,4.000000,4.000000,4.000000,2.000000,4.000000,16.666666,,,,,,,,,,,,,,,,
1732082791.143173,1732082791.144579,42.000000,0.000000,4349.487305,4303.461426,4328.974121,4305.897461,4283.846191,4295.128418,4202.692383,4332.820313,4332.563965,4326.282227,4459.871582,4489.358887,4378.717773,4445.256348,0.000000,0.000000,8.000000,,,,0.000000,2.000000,2.000000,0.000000,2.000000,2.000000,2.000000,0.000000,2.000000,4.000000,4.000000,4.000000,4.000000,2.000000,4.000000,16.666666,,,,,,,,,,,,,,,,
1732082791.150981,1732082791.152388,43.000000,0.000000,4345.128418,4305.512695,4327.692383,4309.871582,4278.974121,4291.922852,4201.410156,4328.077148,4326.410156,4324.743652,4458.077148,4491.666504,4375.384766,4446.025879,0.000000,0.000000,8.000000,,,,0.000000,2.000000,2.000000,0.000000,2.000000,2.000000,2.000000,0.000000,2.000000,4.000000,4.000000,4.000000,4.000000,2.000000,4.000000,16.666666,,,,,,,,,,,,,,,,
1732082791.158789,1732082791.160296,44.000000,0.000000,4344.102539,4303.974121,4327.436035,4311.153809,4274.743652,4290.769043,4199.230957,4320.384766,4322.948730,4320.897461,4455.897461,4488.461426,4375.512695,4444.871582,0.000000,0.000000,8.000000,,,,0.000000,2.000000,2.000000,0.000000,2.000000,2.000000,2.000000,0.000000,2.000000,4.000000,4.000000,4.000000,4.000000,2.000000,4.000000,16.666666,,,,,,,,,,,,,,,,
1732082791.166597,1732082791.168104,45.000000,0.000000,4347.307617,4303.589844,4331.025879,4307.820313,4290.641113,4290.512695,4203.333496,4315.000000,4323.333496,4316.666504,4455.641113,4478.589844,4373.461426,4439.230957,0.000000,0.000000,8.000000,,,,0.000000,2.000000,2.000000,0.000000,2.000000,2.000000,2.000000,0.000000,2.000000,4.000000,4.000000,4.000000,4.000000,2.000000,4.000000,16.666666,,,,,,,,,,,,,,,,
1732082791.174406,1732082791.175712,46.000000,0.000000,4343.717773,4304.102539,4329.230957,4309.230957,4299.487305,4293.846191,4205.000000,4322.307617,4325.384766,4314.615234,4454.615234,4477.948730,4366.666504,4431.282227,0.000000,0.000000,8.000000,,,,0.000000,2.000000,2.000000,0.000000,2.000000,2.000000,2.000000,0.000000,2.000000,4.000000,4.000000,4.000000,4.000000,2.000000,4.000000,16.666666,,,,,,,,,,,,,,,,
1732082791.182214,1732082791.183521,47.000000,0.000000,4337.692383,4301.025879,4325.769043,4309.230957,4285.897461,4301.410156,4208.589844,4329.615234,4330.000000,4315.000000,4449.871582,4480.512695,4366.153809,4429.358887,0.000000,0.000000,8.000000,,,,0.000000,2.000000,2.000000,0.000000,2.000000,2.000000,2.000000,0.000000,2.000000,4.000000,4.000000,4.000000,4.000000,2.000000,4.000000,16.666666,,,,,,,,,,,,,,,,
1732082791.190022,1732082791.191429,48.000000,0.000000,4339.871582,4302.820313,4326.922852,4306.666504,4283.589844,4300.641113,4210.128418,4327.307617,4329.615234,4312.179688,4449.615234,4476.282227,4367.179688,4429.743652,0.000000,0.000000,8.000000,,,,0.000000,2.000000,2.000000,0.000000,2.000000,2.000000,2.000000,0.000000,2.000000,4.000000,4.000000,4.000000,4.000000,2.000000,4.000000,16.666666,,,,,,,,,,,,,,,,
1732082791.197831,1732082791.199237,49.000000,0.000000,4346.794922,4305.384766,4328.589844,4309.615234,4292.948730,4294.487305,4209.230957,4325.256348,4324.615234,4308.205078,4452.948730,4482.051270,4363.846191,4428.077148,0.000000,0.000000,8.000000,,,,0.000000,2.000000,2.000000,0.000000,2.000000,2.000000,2.000000,0.000000,2.000000,4.000000,4.000000,4.000000,4.000000,2.000000,4.000000,16.666666,,,,,,,,,,,,,,,,
1732082791.205639,1732082791.207245,50.000000,0.000000,4345.128418,4301.666504,4328.205078,4312.179688,4281.922852,4293.205078,4211.666504,4328.589844,4326.922852,4310.128418,4455.384766,4493.846191,4365.384766,4428.717773,0.000000,0.000000,8.000000,,,,0.000000,2.000000,2.000000,0.000000,2.000000,2.000000,2.000000,0.000000,2.000000,4.000000,4.000000,4.000000,4.000000,2.000000,4.000000,16.666666,,,,,,,,,,,,,,,,
1732082791.213447,1732082791.215053,51.000000,0.000000,4337.051270,4297.436035,4328.974121,4307.051270,4273.974121,4297.436035,4216.410156,4333.077148,4330.769043,4313.461426,4450.641113,4491.025879,4364.487305,4425.256348,0.000000,0.000000,8.000000,,,,0.000000,2.000000,2.000000,0.000000,2.000000,2.000000,2.000000,0.000000,2.000000,4.000000,4.000000,4.000000,4.000000,2.000000,4.000000,16.666666,,,,,,,,,,,,,,,,
1732082791.221255,1732082791.222961,52.000000,0.000000,4338.077148,4299.871582,4330.000000,4305.641113,4285.769043,4301.025879,4219.615234,4332.820313,4328.589844,4312.436035,4448.333496,4486.538574,4358.717773,4419.743652,0.000000,0.000000,8.000000,,,,0.000000,2.000000,2.000000,0.000000,2.000000,2.000000,2.000000,0.000000,2.000000,4.000000,4.000000,4.000000,4.000000,2.000000,4.000000,16.666666,,,,,,,,,,,,,,,,
1732082791.229064,1732082791.230769,53.000000,0.000000,4342.179688,4301.282227,4329.230957,4312.436035,4292.179688,4305.641113,4221.794922,4334.358887,4330.128418,4314.358887,4451.282227,4487.563965,4362.307617,4418.974121,0.000000,0.000000,8.000000,,,,0.000000,2.000000,2.000000,0.000000,2.000000,2.000000,2.000000,0.000000,2.000000,4.000000,4.000000,4.000000,4.000000,2.000000,4.000000,16.666666,,,,,,,,,,,,,,,,
1732082791.236872,1732082791.238777,54.000000,0.000000,4336.153809,4299.358887,4328.974121,4314.230957,4298.974121,4303.333496,4220.128418,4337.436035,4332.051270,4313.974121,4447.820313,4479.102539,4365.641113,4418.077148,0.000000,0.000000,8.000000,,,,0.000000,2.000000,2.000000,0.000000,2.000000,2.000000,2.000000,0.000000,2.000000,4.000000,4.000000,4.000000,4.000000,2.000000,4.000000,16.666666,,,,,,,,,,,,,,,,
1732082791.244680,1732082791.246586,55.000000,0.000000,4336.666504,4302.948730,4326.922852,4312.563965,4299.102539,4296.410156,4213.333496,4331.538574,4329.230957,4312.307617,4448.717773,4475.641113,4362.820313,4420.256348,0.000000,0.000000,8.000000,,,,0.000000,2.000000,2.000000,0.000000,2.000000,2.000000,2.000000,0.000000,2.000000,4.000000,4.000000,4.000000,4.000000,2.000000,4.000000,16.666666,,,,,,,,,,,,,,,,
1732082791.252488,1732082791.254494,56.000000,0.000000,4348.077148,4304.871582,4327.051270,4314.871582,4277.307617,4294.743652,4215.000000,4329.871582,4333.333496,4319.230957,4460.384766,4491.538574,4366.538574,4429.487305,0.000000,0.000000,8.000000,,,,0.000000,2.000000,2.000000,0.000000,2.000000,2.000000,2.000000,0.000000,2.000000,4.000000,4.000000,4.000000,4.000000,2.000000,4.000000,16.666666,,,,,,,,,,,,,,,,
1732082791.260297,1732082791.262302,57.000000,0.000000,4347.820313,4303.461426,4329.487305,4316.538574,4270.769043,4293.077148,4217.051270,4339.102539,4340.128418,4324.487305,4464.230957,4500.384766,4374.871582,4434.487305,0.000000,0.000000,8.000000,,,,0.000000,2.000000,2.000000,0.000000,2.000000,2.000000,2.000000,0.000000,2.000000,4.000000,4.000000,4.000000,4.000000,2.000000,4.000000,16.666666,,,,,,,,,,,,,,,,
1732082791.268105,1732082791.270310,58.000000,0.000000,4340.641113,4302.307617,4331.282227,4313.717773,4285.128418,4296.153809,4215.897461,4336.410156,4337.051270,4317.051270,4455.897461,4492.179688,4369.615234,4431.153809,0.000000,0.000000,8.000000,,,,0.000000,2.000000,2.000000,0.000000,2.000000,2.000000,2.000000,0.000000,2.000000,4.000000,4.000000,4.000000,4.000000,2.000000,4.000000,16.666666,,,,,,,,,,,,,,,,
1732082791.275913,1732082791.278118,59.000000,0.000000,4340.769043,4299.871582,4327.948730,4311.666504,4282.820313,4302.563965,4216.410156,4324.743652,4329.871582,4310.769043,4453.846191,4487.051270,4359.743652,4428.974121,0.000000,0.000000,8.000000,,,,0.000000,2.000000,2.000000,0.000000,2.000000,2.000000,2.000000,0.000000,2.000000,4.000000,4.000000,4.000000,4.000000,2.000000,4.000000,16.666666,,,,,,,,,,,,,,,,
1732082791.283721,1732082791.286026,60.000000,0.000000,4339.615234,4297.179688,4328.717773,4310.897461,4275.641113,4302.179688,4221.025879,4325.769043,4328.077148,4312.692383,4455.384766,4488.974121,4362.179688,4427.563965,0.000000,0.000000,8.000000,,,,0.000000,2.000000,2.000000,0.000000,2.000000,2.000000,2.000000,0.000000,2.000000,4.000000,4.000000,4.000000,4.000000,2.000000,4.000000,16.666666,,,,,,,,,,,,,,,,
1732082791.291530,1732082791.293834,61.000000,0.000000,4337.179688,4299.230957,4330.769043,4310.897461,4291.282227,4295.000000,4218.205078,4327.307617,4326.025879,4310.512695,4454.871582,4489.358887,4368.717773,4427.820313,0.000000,0.000000,8.000000,,,,0.000000,2.000000,2.000000,0.000000,2.000000,2.000000,2.000000,0.000000,2.000000,4.000000,4.000000,4.000000,4.000000,2.000000,4.000000,16.666666,,,,,,,,,,,,,,,,
1732082791.299338,1732082791.301643,62.000000,0.000000,4335.000000,4299.102539,4331.666504,4309.102539,4294.615234,4295.897461,4218.461426,4327.051270,4322.563965,4306.410156,4457.436035,4488.589844,4363.461426,4430.512695,0.000000,0.000000,8.000000,,,,0.000000,2.000000,2.000000,0.000000,2.000000,2.000000,2.000000,0.000000,2.000000,4.000000,4.000000,4.000000,4.000000,2.000000,4.000000,16.666666,,,,,,,,,,,,,,,,
1732082791.307146,1732082791.309451,63.000000,0.000000,4332.307617,4295.128418,4328.846191,4309.102539,4278.974121,4303.205078,4222.948730,4335.641113,4325.641113,4312.436035,4460.256348,4488.589844,4358.717773,4430.128418,0.000000,0.000000,8.000000,,,,0.000000,2.000000,2.000000,0.000000,2.000000,2.000000,2.000000,0.000000,2.000000,4.000000,4.000000,4.000000,4.000000,2.000000,4.000000,16.666666,,,,,,,,,,,,,,,,
1732082791.314954,1732082791.317159,64.000000,0.000000,4331.153809,4293.461426,4328.589844,4311.794922,4276.153809,4299.615234,4220.384766,4335.769043,4333.333496,4320.000000,4461.410156,4486.538574,4366.922852,4428.589844,0.000000,0.000000,8.000000,,,,0.000000,2.000000,2.000000,0.000000,2.000000,2.000000,2.000000,0.000000,2.000000,4.000000,4.000000,4.000000,4.000000,2.000000,4.000000,16.666666,,,,,,,,,,,,,,,,
1732082791.322763,1732082791.324967,65.000000,0.000000,4332.307617,4295.256348,4330.769043,4312.307617,4279.743652,4294.871582,4214.230957,4329.230957,4340.000000,4321.410156,4460.256348,4485.384766,4369.487305,4428.205078,1310.000000,0.000000,8.000000,,,,0.000000,2.000000,2.000000,0.000000,2.000000,2.000000,2.000000,0.000000,2.000000,4.000000,4.000000,4.000000,4.000000,2.000000,4.000000,16.666666,,,,,,,,,,,,,,,,
1732082791.330571,1732082791.332576,66.000000,0.000000,4333.205078,4298.589844,4333.205078,4312.051270,4286.666504,4297.948730,4220.256348,4335.000000,4339.230957,4320.769043,4459.615234,4487.436035,4365.897461,4428.589844,1227.000000,0.000000,8.000000,,,,0.000000,2.000000,2.000000,0.000000,2.000000,2.000000,2.000000,0.000000,2.000000,4.000000,4.000000,4.000000,4.000000,2.000000,4.000000,16.666666,,,,,,,,,,,,,,,,
1732082791.338379,1732082791.340384,67.000000,0.000000,4334.743652,4299.230957,4332.179688,4313.717773,4299.743652,4299.743652,4224.743652,4340.000000,4332.692383,4317.692383,4459.871582,4490.000000,4366.666504,4429.358887,1192.000000,0.000000,8.000000,,,,0.000000,2.000000,2.000000,0.000000,2.000000,2.000000,2.000000,0.000000,2.000000,4.000000,4.000000,4.000000,4.000000,2.000000,4.000000,16.666666,,,,,,,,,,,,,,,,
1732082791.346187,1732082791.348092,68.000000,0.000000,4335.128418,4297.820313,4330.256348,4314.230957,4290.256348,4296.794922,4221.025879,4331.922852,4329.871582,4314.487305,4461.025879,4491.153809,4366.025879,4428.077148,1195.000000,0.000000,8.000000,,,,0.000000,2.000000,2.000000,0.000000,2.000000,2.000000,2.000000,0.000000,2.000000,4.000000,4.000000,4.000000,4.000000,2.000000,4.000000,16.666666,,,,,,,,,,,,,,,,
1732082791.353996,1732082791.355901,69.000000,0.000000,4328.974121,4297.692383,4331.025879,4313.077148,4271.794922,4302.051270,4223.974121,4327.563965,4329.358887,4315.256348,4460.256348,4485.384766,4360.384766,4420.000000,1082.000000,0.000000,8.000000,,,,0.000000,2.000000,2.000000,0.000000,2.000000,2.000000,2.000000,0.000000,2.000000,4.000000,4.000000,4.000000,4.000000,2.000000,4.000000,16.666666,,,,,,,,,,,,,,,,
1732082791.361804,1732082791.363909,70.000000,0.000000,4324.615234,4298.717773,4330.000000,4313.461426,4280.384766,4307.948730,4226.666504,4331.794922,4330.769043,4313.974121,4454.615234,4476.538574,4356.282227,4412.179688,80.000000,0.000000,8.000000,,,,0.000000,2.000000,2.000000,0.000000,2.000000,2.000000,2.000000,0.000000,2.000000,4.000000,4.000000,4.000000,4.000000,2.000000,4.000000,16.666666,,,,,,,,,,,,,,,,
1732082791.369612,1732082791.371717,71.000000,0.000000,4323.717773,4297.436035,4326.922852,4313.205078,4291.025879,4307.436035,4224.358887,4337.692383,4336.922852,4311.538574,4449.615234,4475.384766,4355.000000,4412.692383,1187.000000,0.000000,8.000000,,,,0.000000,2.000000,2.000000,0.000000,2.000000,2.000000,2.000000,0.000000,2.000000,4.000000,4.000000,4.000000,4.000000,2.000000,4.000000,16.666666,,,,,,,,,,,,,,,,
1732082791.377421,1732082791.379425,72.000000,0.000000,4322.436035,4297.307617,4327.307617,4311.794922,4286.922852,4304.871582,4223.205078,4338.974121,4339.871582,4317.436035,4452.820313,4480.897461,4356.153809,4413.717773,1356.000000,0.000000,8.000000,,,,0.000000,2.000000,2.000000,0.000000,2.000000,2.000000,2.000000,0.000000,2.000000,4.000000,4.000000,4.000000,4.000000,2.000000,4.000000,16.666666,,,,,,,,,,,,,,,,
1732082791.385229,1732082791.387233,73.000000,0.000000,4323.205078,4298.461426,4331.282227,4312.948730,4288.717773,4301.922852,4226.922852,4333.077148,4335.000000,4320.128418,4459.102539,4479.230957,4361.410156,4413.461426,1494.000000,0.000000,8.000000,,,,0.000000,2.000000,2.000000,0.000000,2.000000,2.000000,2.000000,0.000000,2.000000,4.000000,4.000000,4.000000,4.000000,2.000000,4.000000,16.666666,,,,,,,,,,,,,,,,
1732082791.393037,1732082791.394842,74.000000,0.000000,4324.487305,4295.256348,4328.589844,4310.384766,4283.077148,4305.512695,4226.282227,4337.820313,4334.487305,4315.128418,4459.871582,4476.666504,4362.563965,4416.666504,1371.000000,0.000000,8.000000,,,,0.000000,2.000000,2.000000,0.000000,2.000000,2.000000,2.000000,0.000000,2.000000,4.000000,4.000000,4.000000,4.000000,2.000000,4.000000,16.666666,,,,,,,,,,,,,,,,
1732082791.400845,1732082791.402650,75.000000,0.000000,4318.717773,4290.384766,4325.769043,4304.615234,4279.102539,4305.128418,4224.230957,4345.641113,4337.179688,4314.358887,4455.897461,4481.666504,4356.282227,4419.487305,1504.000000,0.000000,8.000000,,,,0.000000,2.000000,2.000000,0.000000,2.000000,2.000000,2.000000,0.000000,2.000000,4.000000,4.000000,4.000000,4.000000,2.000000,4.000000,16.666666,,,,,,,,,,,,,,,,
1732082791.408654,1732082791.410358,76.000000,0.000000,4310.000000,4291.282227,4326.922852,4302.948730,4295.000000,4299.487305,4221.922852,4335.384766,4334.487305,4315.897461,4448.589844,4480.128418,4350.384766,4412.436035,1733.000000,0.000000,8.000000,,,,0.000000,2.000000,2.000000,0.000000,2.000000,2.000000,2.000000,0.000000,2.000000,4.000000,4.000000,4.000000,4.000000,2.000000,4.000000,16.666666,,,,,,,,,,,,,,,,
1732082791.416462,1732082791.418166,77.000000,0.000000,4307.820313,4294.615234,4328.205078,4303.846191,4296.666504,4302.179688,4224.743652,4325.641113,4332.436035,4314.743652,4441.538574,4474.358887,4350.000000,4403.461426,1661.000000,0.000000,8.000000,,,,0.000000,2.000000,2.000000,0.000000,2.000000,2.000000,2.000000,0.000000,2.000000,4.000000,4.000000,4.000000,4.000000,2.000000,4.000000,16.666666,,,,,,,,,,,,,,,,
1732082791.424270,1732082791.425775,78.000000,0.000000,4309.743652,4293.461426,4327.307617,4305.000000,4289.230957,4305.256348,4227.563965,4331.538574,4334.102539,4313.974121,4441.025879,4474.358887,4350.000000,4404.230957,1371.000000,0.000000,8.000000,,,,0.000000,2.000000,2.000000,0.000000,2.000000,2.000000,2.000000,0.000000,2.000000,4.000000,4.000000,4.000000,4.000000,2.000000,4.000000,16.666666,1.000000,16.666666,2.000000,2.000000,0.000000,2.000000,2.000000,2.000000,0.000000,2.000000,4.000000,4.000000,4.000000,4.000000,2.000000,3.000000
1732082791.432078,1732082791.433583,79.000000,0.000000,4309.230957,4290.512695,4330.000000,4305.641113,4289.358887,4302.436035,4228.205078,4342.563965,4336.282227,4315.256348,4442.436035,4476.922852,4348.846191,4408.333496,1504.000000,0.000000,8.000000,,,,0.000000,2.000000,2.000000,0.000000,2.000000,2.000000,2.000000,0.000000,2.000000,4.000000,4.000000,4.000000,4.000000,2.000000,4.000000,16.666666,,,,,,,,,,,,,,,,
1732082791.439887,1732082791.441491,80.000000,0.000000,4307.436035,4290.000000,4329.230957,4304.230957,4282.436035,4303.974121,4227.179688,4347.051270,4338.589844,4317.948730,4443.589844,4476.666504,4350.769043,4409.743652,1733.000000,0.000000,8.000000,,,,0.000000,2.000000,2.000000,0.000000,2.000000,2.000000,2.000000,0.000000,2.000000,4.000000,4.000000,4.000000,4.000000,2.000000,4.000000,16.666666,,,,,,,,,,,,,,,,
1732082791.447695,1732082791.449299,81.000000,0.000000,4309.743652,4291.025879,4328.077148,4304.743652,4278.974121,4310.256348,4227.948730,4344.615234,4338.974121,4318.974121,4447.436035,4476.282227,4354.230957,4407.051270,1661.000000,0.000000,8.000000,,,,0.000000,2.000000,2.000000,0.000000,2.000000,2.000000,2.000000,0.000000,2.000000,4.000000,4.000000,4.000000,4.000000,2.000000,4.000000,16.666666,,,,,,,,,,,,,,,,
1732082791.455503,1732082791.457307,82.000000,0.000000,4312.436035,4292.820313,4328.974121,4311.282227,4290.000000,4309.871582,4228.717773,4335.769043,4336.922852,4314.230957,4448.717773,4482.820313,4352.820313,4406.666504,1371.000000,0.000000,8.000000,,,,0.000000,2.000000,2.000000,0.000000,2.000000,2.000000,2.000000,0.000000,2.000000,4.000000,4.000000,4.000000,4.000000,2.000000,4.000000,16.666666,,,,,,,,,,,,,,,,
1732082791.463312,1732082791.465116,83.000000,0.000000,4310.384766,4293.717773,4328.846191,4315.384766,4296.282227,4304.487305,4227.692383,4334.615234,4334.487305,4310.769043,4446.794922,4490.256348,4348.974121,4407.179688,1504.000000,0.000000,8.000000,,,,0.000000,2.000000,2.000000,0.000000,2.000000,2.000000,2.000000,0.000000,2.000000,4.000000,4.000000,4.000000,4.000000,2.000000,4.000000,16.666666,,,,,,,,,,,,,,,,
1732082791.471120,1732082791.472824,84.000000,0.000000,4309.743652,4293.589844,4327.948730,4311.922852,4293.717773,4299.615234,4227.948730,4340.512695,4330.384766,4311.794922,4445.128418,4486.538574,4348.974121,4403.974121,1733.000000,0.000000,8.000000,,,,0.000000,2.000000,2.000000,0.000000,2.000000,2.000000,2.000000,0.000000,2.000000,4.000000,4.000000,4.000000,4.000000,2.000000,4.000000,16.666666,,,,,,,,,,,,,,,,
1732082791.478928,1732082791.480632,85.000000,0.000000,4308.717773,4293.846191,4328.846191,4307.563965,4293.846191,4303.846191,4228.974121,4339.358887,4330.128418,4312.820313,4445.384766,4474.743652,4348.333496,4397.051270,1661.000000,0.000000,8.000000,,,,0.000000,2.000000,2.000000,0.000000,2.000000,2.000000,2.000000,0.000000,2.000000,4.000000,4.000000,4.000000,4.000000,2.000000,4.000000,16.666666,,,,,,,,,,,,,,,,
1732082791.486736,1732082791.488241,86.000000,0.000000,4302.948730,4292.179688,4329.358887,4306.410156,4297.051270,4312.948730,4232.820313,4341.666504,4337.179688,4312.307617,4444.358887,4472.563965,4344.615234,4394.871582,1371.000000,0.000000,8.000000,,,,0.000000,2.000000,2.000000,0.000000,2.000000,2.000000,2.000000,0.000000,2.000000,4.000000,4.000000,4.000000,4.000000,2.000000,4.000000,16.666666,,,,,,,,,,,,,,,,
1732082791.494544,1732082791.496049,87.000000,0.000000,4298.717773,4291.538574,4327.948730,4310.512695,4308.077148,4311.025879,4231.282227,4347.051270,4341.794922,4311.794922,4442.436035,4475.000000,4341.025879,4394.102539,1504.000000,0.000000,8.000000,,,,0.000000,2.000000,2.000000,0.000000,2.000000,2.000000,2.000000,0.000000,2.000000,4.000000,4.000000,4.000000,4.000000,2.000000,4.000000,16.666666,,,,,,,,,,,,,,,,
1732082791.502353,1732082791.503757,88.000000,0.000000,4302.051270,4294.871582,4327.948730,4312.179688,4303.461426,4309.102539,4230.384766,4346.025879,4338.333496,4312.692383,4441.666504,4471.666504,4338.461426,4388.077148,1733.000000,0.000000,8.000000,,,,0.000000,2.000000,2.000000,0.000000,2.000000,2.000000,2.000000,0.000000,2.000000,4.000000,4.000000,4.000000,4.000000,2.000000,4.000000,16.666666,,,,,,,,,,,,,,,,
1732082791.510161,1732082791.511565,89.000000,0.000000,4304.615234,4297.563965,4326.538574,4311.666504,4287.692383,4314.743652,4229.871582,4336.666504,4333.974121,4313.205078,4442.563965,4472.179688,4338.589844,4388.717773,1661.000000,0.000000,8.000000,,,,0.000000,2.000000,2.000000,0.000000,2.000000,2.000000,2.000000,0.000000,2.000000,4.000000,4.000000,4.000000,4.000000,2.000000,4.000000,16.666666,,,,,,,,,,,,,,,,
1732082791.517969,1732082791.519174,90.000000,0.000000,4302.307617,4296.922852,4325.641113,4309.743652,4294.743652,4312.820313,4230.769043,4332.820313,4332.563965,4307.307617,4442.179688,4474.102539,4340.897461,4393.077148,1371.000000,0.000000,8.000000,,,,0.000000,2.000000,2.000000,0.000000,2.000000,2.000000,2.000000,0.000000,2.000000,4.000000,4.000000,4.000000,4.000000,2.000000,4.000000,16.666666,,,,,,,,,,,,,,,,
1732082791.525777,1732082791.526982,91.000000,0.000000,4301.666504,4297.563965,4325.000000,4309.615234,4300.256348,4309.743652,4230.128418,4339.358887,4334.358887,4305.897461,4441.153809,4468.717773,4340.128418,4393.205078,1504.000000,0.000000,8.000000,,,,0.000000,2.000000,2.000000,0.000000,2.000000,2.000000,2.000000,0.000000,2.000000,4.000000,4.000000,4.000000,4.000000,2.000000,4.000000,16.666666,,,,,,,,,,,,,,,,
1732082791.533586,1732082791.534890,92.000000,0.000000,4303.333496,4299.743652,4327.948730,4315.769043,4295.384766,4312.179688,4231.282227,4339.230957,4331.794922,4307.563965,4440.769043,4464.871582,4335.897461,4390.256348,1733.000000,0.000000,8.000000,,,,0.000000,2.000000,2.000000,0.000000,2.000000,2.000000,2.000000,0.000000,2.000000,4.000000,4.000000,4.000000,4.000000,2.000000,4.000000,16.666666,,,,,,,,,,,,,,,,
1732082791.541394,1732082791.542698,93.000000,0.000000,4306.153809,4301.666504,4327.436035,4321.666504,4305.769043,4312.179688,4229.743652,4332.820313,4326.025879,4303.717773,4440.512695,4468.461426,4337.179688,4391.025879,1661.000000,0.000000,8.000000,,,,0.000000,2.000000,2.000000,0.000000,2.000000,2.000000,2.000000,0.000000,2.000000,4.000000,4.000000,4.000000,4.000000,2.000000,4.000000,16.666666,,,,,,,,,,,,,,,,
1732082791.549202,1732082791.550706,94.000000,0.000000,4304.102539,4299.487305,4327.692383,4317.436035,4310.256348,4310.128418,4228.589844,4335.769043,4329.102539,4305.000000,4443.461426,4474.102539,4340.641113,4396.025879,1371.000000,0.000000,8.000000,,,,0.000000,2.000000,2.000000,0.000000,2.000000,2.000000,2.000000,0.000000,2.000000,4.000000,4.000000,4.000000,4.000000,2.000000,4.000000,16.666666,,,,,,,,,,,,,,,,
1732082791.557011,1732082791.558514,95.000000,0.000000,4300.128418,4296.282227,4328.717773,4312.051270,4291.794922,4312.436035,4231.025879,4344.743652,4338.846191,4313.974121,4448.589844,4477.692383,4340.897461,4401.025879,1504.000000,0.000000,8.000000,,,,0.000000,2.000000,2.000000,0.000000,2.000000,2.000000,2.000000,0.000000,2.000000,4.000000,4.000000,4.000000,4.000000,2.000000,4.000000,16.666666,,,,,,,,,,,,,,,,
1732082791.564819,1732082791.566423,96.000000,0.000000,4298.205078,4296.410156,4327.820313,4314.102539,4287.820313,4314.358887,4232.307617,4343.974121,4337.179688,4312.563965,4446.538574,4478.333496,4339.230957,4400.512695,1733.000000,0.000000,8.000000,,,,0.000000,2.000000,2.000000,0.000000,2.000000,2.000000,2.000000,0.000000,2.000000,4.000000,4.000000,4.000000,4.000000,2.000000,4.000000,16.666666,,,,,,,,,,,,,,,,
1732082791.572627,1732082791.574231,97.000000,0.000000,4297.051270,4296.410156,4326.025879,4314.358887,4307.948730,4311.794922,4229.102539,4342.307617,4328.333496,4307.179688,4445.384766,4474.358887,4335.769043,4396.666504,1661.000000,0.000000,8.000000,,,,0.000000,2.000000,2.000000,0.000000,2.000000,2.000000,2.000000,0.000000,2.000000,4.000000,4.000000,4.000000,4.000000,2.000000,4.000000,16.666666,,,,,,,,,,,,,,,,
1732082791.580435,1732082791.581839,98.000000,0.000000,4298.205078,4293.205078,4328.461426,4309.743652,4312.436035,4310.897461,4229.102539,4349.487305,4331.666504,4312.051270,4449.615234,4478.974121,4337.948730,4399.487305,1371.000000,0.000000,8.000000,,,,0.000000,2.000000,2.000000,0.000000,2.000000,2.000000,2.000000,0.000000,2.000000,4.000000,4.000000,4.000000,4.000000,2.000000,4.000000,16.666666,,,,,,,,,,,,,,,,
1732082791.588244,1732082791.589647,99.000000,0.000000,4298.974121,4292.436035,4328.461426,4307.051270,4292.948730,4312.051270,4233.717773,4349.743652,4341.410156,4318.846191,4452.051270,4487.436035,4343.846191,4401.538574,1504.000000,0.000000,8.000000,,,,0.000000,2.000000,2.000000,0.000000,2.000000,2.000000,2.000000,0.000000,2.000000,4.000000,4.000000,4.000000,4.000000,2.000000,4.000000,16.666666,,,,,,,,,,,,,,,,
1732082791.596052,1732082791.597555,100.000000,0.000000,4298.461426,4295.512695,4325.512695,4308.589844,4284.615234,4312.948730,4234.615234,4340.897461,4339.743652,4318.205078,4449.230957,4485.000000,4343.077148,4400.128418,1733.000000,0.000000,8.000000,,,,0.000000,2.000000,2.000000,0.000000,2.000000,2.000000,2.000000,0.000000,2.000000,4.000000,4.000000,4.000000,4.000000,2.000000,4.000000,16.666666,,,,,,,,,,,,,,,,
1732082791.603860,1732082791.605364,101.000000,0.000000,4298.333496,4295.769043,4327.179688,4310.384766,4303.077148,4306.410156,4232.051270,4335.128418,4328.846191,4314.615234,4446.282227,4480.512695,4339.615234,4400.256348,1661.000000,0.000000,8.000000,,,,0.000000,2.000000,2.000000,0.000000,2.000000,2.000000,2.000000,0.000000,2.000000,4.000000,4.000000,4.000000,4.000000,2.000000,4.000000,16.666666,,,,,,,,,,,,,,,,
1732082791.611668,1732082791.613372,102.000000,0.000000,4300.256348,4296.922852,4327.563965,4309.871582,4311.794922,4299.487305,4231.153809,4335.000000,4327.307617,4315.256348,4447.692383,4479.743652,4341.922852,4402.179688,1371.000000,0.000000,8.000000,,,,0.000000,2.000000,2.000000,0.000000,2.000000,2.000000,2.000000,0.000000,2.000000,4.000000,4.000000,4.000000,4.000000,2.000000,4.000000,16.666666,,,,,,,,,,,,,,,,
1732082791.619477,1732082791.621180,103.000000,0.000000,4297.692383,4297.307617,4326.538574,4308.717773,4294.487305,4304.871582,4235.769043,4343.333496,4338.589844,4321.025879,4452.307617,4477.436035,4341.410156,4401.282227,1504.000000,0.000000,8.000000,,,,0.000000,2.000000,2.000000,0.000000,2.000000,2.000000,2.000000,0.000000,2.000000,4.000000,4.000000,4.000000,4.000000,2.000000,4.000000,16.666666,,,,,,,,,,,,,,,,
1732082791.627285,1732082791.629088,104.000000,0.000000,4293.717773,4295.512695,4325.897461,4311.025879,4291.538574,4311.410156,4236.153809,4350.769043,4343.461426,4321.666504,4452.692383,4474.743652,4337.179688,4397.820313,1733.000000,0.000000,8.000000,,,,0.000000,2.000000,2.000000,0.000000,2.000000,2.000000,2.000000,0.000000,2.000000,4.000000,4.000000,4.000000,4.000000,2.000000,4.000000,16.666666,,,,,,,,,,,,,,,,
1732082791.635093,1732082791.636896,105.000000,0.000000,4294.743652,4296.410156,4328.205078,4315.512695,4302.307617,4312.563965,4233.589844,4343.589844,4335.641113,4316.666504,4446.666504,4474.487305,4337.051270,4395.384766,1661.000000,0.000000,8.000000,,,,0.000000,2.000000,2.000000,0.000000,2.000000,2.000000,2.000000,0.000000,2.000000,4.000000,4.000000,4.000000,4.000000,2.000000,4.000000,16.666666,,,,,,,,,,,,,,,,
1732082791.642902,1732082791.644904,106.000000,0.000000,4295.641113,4298.333496,4329.102539,4314.230957,4308.077148,4311.922852,4232.307617,4335.641113,4331.922852,4314.487305,4442.692383,4471.794922,4338.077148,4390.897461,1371.000000,0.000000,8.000000,,,,0.000000,2.000000,2.000000,0.000000,2.000000,2.000000,2.000000,0.000000,2.000000,4.000000,4.000000,4.000000,4.000000,2.000000,4.000000,16.666666,,,,,,,,,,,,,,,,
1732082791.650710,1732082791.652712,107.000000,0.000000,4292.436035,4297.051270,4329.487305,4309.615234,4311.666504,4310.256348,4234.743652,4341.538574,4338.333496,4317.179688,4444.102539,4472.051270,4337.692383,4385.512695,1504.000000,0.000000,8.000000,,,,0.000000,2.000000,2.000000,0.000000,2.000000,2.000000,2.000000,0.000000,2.000000,4.000000,4.000000,4.000000,4.000000,2.000000,4.000000,16.666666,,,,,,,,,,,,,,,,
1732082791.658518,1732082791.660620,108.000000,0.000000,4288.077148,4293.974121,4327.436035,4311.025879,4307.563965,4311.538574,4233.974121,4342.563965,4340.641113,4321.153809,4446.025879,4476.153809,4336.282227,4385.769043,1733.000000,0.000000,8.000000,,,,0.000000,2.000000,2.000000,0.000000,2.000000,2.000000,2.000000,0.000000,2.000000,4.000000,4.000000,4.000000,4.000000,2.000000,4.000000,16.666666,,,,,,,,,,,,,,,,
1732082791.666326,1732082791.668429,109.000000,0.000000,4289.358887,4297.436035,4328.205078,4316.025879,4298.077148,4316.025879,4235.384766,4336.538574,4334.102539,4317.436035,4446.025879,4476.153809,4336.282227,4393.077148,1661.000000,0.000000,8.000000,,,,0.000000,2.000000,2.000000,0.000000,2.000000,2.000000,2.000000,0.000000,2.000000,4.000000,4.000000,4.000000,4.000000,2.000000,4.000000,16.666666,,,,,,,,,,,,,,,,
1732082791.674135,1732082791.676237,110.000000,0.000000,4298.461426,4305.000000,4328.974121,4318.077148,4295.512695,4315.128418,4236.410156,4340.128418,4331.538574,4311.666504,4445.384766,4476.282227,4339.487305,4395.769043,1371.000000,0.000000,8.000000,,,,0.000000,2.000000,2.000000,0.000000,2.000000,2.000000,2.000000,0.000000,2.000000,4.000000,4.000000,4.000000,4.000000,2.000000,4.000000,16.666666,,,,,,,,,,,,,,,,
1732082791.681943,1732082791.684045,111.000000,0.000000,4303.333496,4304.487305,4327.179688,4315.769043,4302.051270,4306.794922,4234.230957,4340.512695,4332.307617,4313.846191,4446.282227,4476.538574,4337.436035,4388.461426,1504.000000,0.000000,8.000000,,,,0.000000,2.000000,2.000000,0.000000,2.000000,2.000000,2.000000,0.000000,2.000000,4.000000,4.000000,4.000000,4.000000,2.000000,4.000000,16.666666,,,,,,,,,,,,,,,,
1732082791.689751,1732082791.691753,112.000000,0.000000,4296.922852,4298.333496,4324.743652,4312.948730,4309.358887,4305.769043,4232.563965,4334.743652,4330.128418,4315.256348,4444.102539,4474.358887,4331.794922,4386.025879,1733.000000,0.000000,8.000000,,,,0.000000,2.000000,2.000000,0.000000,2.000000,2.000000,2.000000,0.000000,2.000000,4.000000,4.000000,4.000000,4.000000,2.000000,4.000000,16.666666,,,,,,,,,,,,,,,,
1732082791.697559,1732082791.699562,113.000000,0.000000,4291.922852,4296.410156,4327.307617,4311.410156,4307.948730,4310.000000,4236.410156,4338.205078,4330.769043,4312.692383,4442.436035,4470.897461,4330.512695,4390.641113,1661.000000,0.000000,8.000000,,,,0.000000,2.000000,2.000000,0.000000,2.000000,2.000000,2.000000,0.000000,2.000000,4.000000,4.000000,4.000000,4.000000,2.000000,4.000000,16.666666,,,,,,,,,,,,,,,,
1732082791.705368,1732082791.707170,114.000000,0.000000,4296.922852,4304.871582,4330.256348,4313.461426,4295.000000,4311.025879,4238.077148,4343.589844,4334.743652,4315.897461,4445.384766,4473.077148,4331.410156,4393.717773,1371.000000,0.000000,8.000000,,,,0.000000,2.000000,2.000000,0.000000,2.000000,2.000000,2.000000,0.000000,2.000000,4.000000,4.000000,4.000000,4.000000,2.000000,4.000000,16.666666,,,,,,,,,,,,,,,,
1732082791.713176,1732082791.714978,115.000000,0.000000,4301.282227,4309.871582,4328.461426,4316.410156,4290.128418,4306.794922,4234.487305,4337.563965,4332.051270,4320.256348,4447.820313,4475.000000,4331.794922,4395.128418,1504.000000,0.000000,8.000000,,,,0.000000,2.000000,2.000000,0.000000,2.000000,2.000000,2.000000,0.000000,2.000000,4.000000,4.000000,4.000000,4.000000,2.000000,4.000000,16.666666,,,,,,,,,,,,,,,,
1732082791.720984,1732082791.722687,116.000000,0.000000,4297.436035,4303.333496,4326.153809,4314.487305,4302.051270,4302.051270,4234.743652,4332.051270,4326.282227,4314.230957,4446.282227,4472.051270,4333.205078,4395.384766,1733.000000,0.000000,8.000000,,,,0.000000,2.000000,2.000000,0.000000,2.000000,2.000000,2.000000,0.000000,2.000000,4.000000,4.000000,4.000000,4.000000,2.000000,4.000000,16.666666,,,,,,,,,,,,,,,,
1732082791.728792,1732082791.730495,117.000000,0.000000,4291.794922,4295.384766,4326.025879,4312.051270,4297.948730,4309.230957,4236.922852,4336.538574,4328.717773,4309.743652,4446.025879,4472.692383,4329.358887,4394.230957,1661.000000,0.000000,8.000000,,,,0.000000,2.000000,2.000000,0.000000,2.000000,2.000000,2.000000,0.000000,2.000000,4.000000,4.000000,4.000000,4.000000,2.000000,4.000000,16.666666,,,,,,,,,,,,,,,,
1732082791.736601,1732082791.738103,118.000000,0.000000,4294.102539,4299.615234,4329.358887,4313.333496,4295.256348,4310.256348,4235.000000,4335.256348,4329.743652,4311.410156,4447.051270,4475.897461,4324.102539,4395.000000,1371.000000,0.000000,8.000000,,,,0.000000,2.000000,2.000000,0.000000,2.000000,2.000000,2.000000,0.000000,2.000000,4.000000,4.000000,4.000000,4.000000,2.000000,4.000000,16.666666,,,,,,,,,,,,,,,,
1732082791.744409,1732082791.745911,119.000000,0.000000,4298.077148,4308.974121,4329.358887,4313.077148,4314.487305,4297.692383,4233.333496,4331.282227,4328.205078,4312.563965,4446.025879,4477.179688,4327.948730,4396.025879,1504.000000,0.000000,8.000000,,,,0.000000,2.000000,2.000000,0.000000,2.000000,2.000000,2.000000,0.000000,2.000000,4.000000,4.000000,4.000000,4.000000,2.000000,4.000000,16.666666,,,,,,,,,,,,,,,,
1732082791.752217,1732082791.753620,120.000000,0.000000,4295.384766,4303.974121,4326.794922,4312.820313,4310.384766,4298.205078,4239.230957,4336.282227,4332.051270,4314.615234,4447.436035,4478.846191,4333.077148,4394.487305,1733.000000,0.000000,8.000000,,,,0.000000,2.000000,2.000000,0.000000,2.000000,2.000000,2.000000,0.000000,2.000000,4.000000,4.000000,4.000000,4.000000,2.000000,4.000000,16.666666,,,,,,,,,,,,,,,,
1732082791.760025,1732082791.761428,121.000000,0.000000,4293.205078,4295.897461,4326.282227,4317.820313,4289.871582,4313.077148,4238.717773,4340.897461,4331.922852,4312.563965,4447.820313,4479.743652,4328.846191,4393.333496,1661.000000,0.000000,8.000000,,,,0.000000,2.000000,2.000000,0.000000,2.000000,2.000000,2.000000,0.000000,2.000000,4.000000,4.000000,4.000000,4.000000,2.000000,4.000000,16.666666,,,,,,,,,,,,,,,,
1732082791.767834,1732082791.769036,122.000000,0.000000,4291.410156,4297.436035,4329.102539,4317.820313,4305.128418,4313.717773,4235.384766,4333.846191,4326.153809,4305.256348,4439.487305,4475.384766,4318.205078,4385.384766,1371.000000,0.000000,8.000000,,,,0.000000,2.000000,2.000000,0.000000,2.000000,2.000000,2.000000,0.000000,2.000000,4.000000,4.000000,4.000000,4.000000,2.000000,4.000000,16.666666,,,,,,,,,,,,,,,,
1732082791.775642,1732082791.776845,123.000000,0.000000,4284.102539,4296.794922,4326.410156,4310.000000,4323.333496,4306.666504,4236.153809,4331.282227,4327.948730,4306.666504,4434.487305,4473.589844,4312.307617,4376.282227,1504.000000,0.000000,8.000000,,,,0.000000,2.000000,2.000000,0.000000,2.000000,2.000000,2.000000,0.000000,2.000000,4.000000,4.000000,4.000000,4.000000,2.000000,4.000000,16.666666,,,,,,,,,,,,,,,,
1732082791.783450,1732082791.784553,124.000000,0.000000,4279.871582,4289.358887,4324.230957,4303.461426,4298.846191,4310.641113,4238.589844,4341.282227,4335.641113,4316.666504,4438.974121,4476.282227,4314.615234,4380.512695,1733.000000,0.000000,8.000000,,,,0.000000,2.000000,2.000000,0.000000,2.000000,2.000000,2.000000,0.000000,2.000000,4.000000,4.000000,4.000000,4.000000,2.000000,4.000000,16.666666,,,,,,,,,,,,,,,,
1732082791.791258,1732082791.792361,125.000000,0.000000,4285.128418,4294.102539,4327.179688,4307.436035,4286.282227,4313.974121,4236.282227,4343.974121,4338.589844,4324.230957,4442.179688,4476.025879,4320.769043,4386.538574,1661.000000,0.000000,8.000000,,,,0.000000,2.000000,2.000000,0.000000,2.000000,2.000000,2.000000,0.000000,2.000000,4.000000,4.000000,4.000000,4.000000,2.000000,4.000000,16.666666,,,,,,,,,,,,,,,,
1732082791.799067,1732082791.799969,126.000000,0.000000,4289.487305,4304.615234,4330.384766,4315.000000,4304.487305,4312.563965,4236.922852,4341.282227,4335.384766,4320.769043,4444.743652,4482.563965,4325.128418,4385.769043,1371.000000,0.000000,8.000000,,,,0.000000,2.000000,2.000000,0.000000,2.000000,2.000000,2.000000,0.000000,2.000000,4.000000,4.000000,4.000000,4.000000,2.000000,4.000000,16.666666,,,,,,,,,,,,,,,,
1732082791.806875,1732082791.807778,127.000000,0.000000,4289.871582,4301.794922,4326.666504,4318.589844,4301.025879,4309.871582,4236.922852,4342.820313,4329.743652,4312.692383,4447.436035,4486.410156,4326.794922,4389.102539,8.000000,0.000000,8.000000,,,,0.000000,2.000000,2.000000,0.000000,2.000000,2.000000,2.000000,0.000000,2.000000,4.000000,4.000000,4.000000,4.000000,2.000000,4.000000,16.666666,,,,,,,,,,,,,,,,
1732082791.814683,1732082791.815486,0.000000,0.000000,4288.333496,4297.563965,4324.358887,4316.410156,4298.589844,4304.230957,4235.512695,4336.282227,4322.563965,4306.666504,4440.641113,4480.000000,4321.282227,4390.641113,0.000000,0.000000,8.000000,,,,0.000000,2.000000,2.000000,0.000000,2.000000,2.000000,2.000000,0.000000,2.000000,4.000000,4.000000,4.000000,4.000000,2.000000,4.000000,16.666666,,,,,,,,,,,,,,,,
1732082791.822492,1732082791.823294,1.000000,0.000000,4287.436035,4300.897461,4325.641113,4314.230957,4314.230957,4304.743652,4235.641113,4328.205078,4322.820313,4307.820313,4434.487305,4481.538574,4315.769043,4385.128418,1309.000000,0.000000,8.000000,,,,0.000000,2.000000,2.000000,0.000000,2.000000,2.000000,2.000000,0.000000,2.000000,4.000000,4.000000,4.000000,4.000000,2.000000,4.000000,16.666666,,,,,,,,,,,,,,,,
1732082791.830300,1732082791.830903,2.000000,0.000000,4288.461426,4302.820313,4327.307617,4315.512695,4305.512695,4310.384766,4238.333496,4333.333496,4330.512695,4315.769043,4441.410156,4491.282227,4321.282227,4387.051270,1232.000000,0.000000,8.000000,,,,0.000000,2.000000,2.000000,0.000000,2.000000,2.000000,2.000000,0.000000,2.000000,4.000000,4.000000,4.000000,4.000000,2.000000,4.000000,16.666666,,,,,,,,,,,,,,,,
1732082791.838108,1732082791.838711,3.000000,0.000000,4286.794922,4299.230957,4328.461426,4315.512695,4290.897461,4307.436035,4240.000000,4336.410156,4331.282227,4315.897461,4445.384766,4490.128418,4323.974121,4394.487305,1189.000000,0.000000,8.000000,,,,0.000000,2.000000,2.000000,0.000000,2.000000,2.000000,2.000000,0.000000,2.000000,4.000000,4.000000,4.000000,4.000000,2.000000,4.000000,16.666666,,,,,,,,,,,,,,,,
1732082791.845916,1732082791.846419,4.000000,0.000000,4282.307617,4297.563965,4325.512695,4314.487305,4299.743652,4301.410156,4238.333496,4333.077148,4327.179688,4308.717773,4442.820313,4486.282227,4317.820313,4393.077148,1199.000000,0.000000,8.000000,,,,0.000000,2.000000,2.000000,0.000000,2.000000,2.000000,2.000000,0.000000,2.000000,4.000000,4.000000,4.000000,4.000000,2.000000,4.000000,16.666666,,,,,,,,,,,,,,,,
1732082791.853725,1732082791.854227,5.000000,0.000000,4281.538574,4299.743652,4322.051270,4312.563965,4301.922852,4306.153809,4238.461426,4342.307617,4328.846191,4309.230957,4443.589844,4490.769043,4318.846191,4387.307617,1073.000000,0.000000,8.000000,,,,0.000000,2.000000,2.000000,0.000000,2.000000,2.000000,2.000000,0.000000,2.000000,4.000000,4.000000,4.000000,4.000000,2.000000,4.000000,16.666666,,,,,,,,,,,,,,,,
