title:one4, start timestamp:1732082852.539561, stop timestamp:1732082892.642803, headset type:EPOCX, headset serial:E5020C3A, headset firmware:730, channels:55, sampling rate:eeg_128, samples:5137      , version:2.2, 
Timestamp,OriginalTimestamp,EEG.Counter,EEG.Interpolated,EEG.AF3,EEG.F7,EEG.F3,EEG.FC5,EEG.T7,EEG.P7,EEG.O1,EEG.O2,EEG.P8,EEG.T8,EEG.FC6,EEG.F4,EEG.F8,EEG.AF4,EEG.RawCq,EEG.Battery,EEG.BatteryPercent,MarkerIndex,MarkerType,MarkerValueInt,EEG.MarkerHardware,CQ.AF3,CQ.F7,CQ.F3,CQ.FC5,CQ.T7,CQ.P7,CQ.O1,CQ.O2,CQ.P8,CQ.T8,CQ.FC6,CQ.F4,CQ.F8,CQ.AF4,CQ.Overall,EQ.SampleRateQuality,EQ.OVERALL,EQ.AF3,EQ.F7,EQ.F3,EQ.FC5,EQ.T7,EQ.P7,EQ.O1,EQ.O2,EQ.P8,EQ.T8,EQ.FC6,EQ.F4,EQ.F8,EQ.AF4
1732082852.539561,1732082852.542021,97.000000,0.000000,4291.025879,4279.615234,4306.666504,4292.051270,4280.897461,4287.436035,4267.692383,4304.615234,4303.333496,4280.000000,4434.230957,4460.000000,4341.025879,4383.205078,1658.000000,0.000000,8.000000,,,,0.000000,2.000000,2.000000,0.000000,2.000000,2.000000,2.000000,0.000000,2.000000,4.000000,4.000000,4.000000,4.000000,2.000000,4.000000,16.666666,,,,,,,,,,,,,,,,
1732082852.547369,1732082852.549629,98.000000,0.000000,4289.743652,4280.256348,4306.025879,4293.974121,4283.846191,4289.230957,4267.307617,4306.410156,4297.563965,4282.820313,4435.512695,4453.974121,4340.128418,4383.717773,1369.000000,0.000000,8.000000,,,,0.000000,2.000000,2.000000,0.000000,2.000000,2.000000,2.000000,0.000000,2.000000,4.000000,4.000000,4.000000,4.000000,2.000000,4.000000,16.666666,,,,,,,,,,,,,,,,
1732082852.555177,1732082852.557438,99.000000,0.000000,4293.589844,4278.717773,4303.846191,4288.717773,4284.487305,4291.794922,4267.051270,4308.205078,4295.256348,4288.205078,4431.410156,4453.589844,4337.820313,4392.436035,1506.000000,0.000000,8.000000,,,,0.000000,2.000000,2.000000,0.000000,2.000000,2.000000,2.000000,0.000000,2.000000,4.000000,4.000000,4.000000,4.000000,2.000000,4.000000,16.666666,,,,,,,,,,,,,,,,
1732082852.562986,1732082852.565146,100.000000,0.000000,4295.512695,4275.512695,4305.769043,4287.179688,4283.846191,4288.205078,4265.256348,4309.230957,4300.000000,4283.461426,4431.025879,4457.948730,4334.871582,4394.358887,1735.000000,0.000000,8.000000,,,,0.000000,2.000000,2.000000,0.000000,2.000000,2.000000,2.000000,0.000000,2.000000,4.000000,4.000000,4.000000,4.000000,2.000000,4.000000,16.666666,,,,,,,,,,,,,,,,
1732082852.570794,1732082852.572954,101.000000,0.000000,4291.922852,4278.846191,4305.769043,4290.256348,4285.256348,4282.051270,4261.538574,4310.256348,4298.077148,4278.461426,4431.153809,4455.256348,4335.769043,4392.436035,1658.000000,0.000000,8.000000,,,,0.000000,2.000000,2.000000,0.000000,2.000000,2.000000,2.000000,0.000000,2.000000,4.000000,4.000000,4.000000,4.000000,2.000000,4.000000,16.666666,,,,,,,,,,,,,,,,
1732082852.578602,1732082852.580563,102.000000,0.000000,4293.717773,4282.307617,4308.461426,4290.512695,4284.743652,4280.769043,4262.692383,4310.384766,4296.025879,4283.333496,4430.256348,4454.230957,4339.871582,4395.897461,1369.000000,0.000000,8.000000,,,,0.000000,2.000000,2.000000,0.000000,2.000000,2.000000,2.000000,0.000000,2.000000,4.000000,4.000000,4.000000,4.000000,2.000000,4.000000,16.666666,,,,,,,,,,,,,,,,
1732082852.586410,1732082852.588371,103.000000,0.000000,4302.179688,4276.794922,4307.692383,4287.051270,4276.922852,4281.666504,4265.512695,4309.743652,4300.769043,4286.794922,4434.871582,4458.717773,4342.436035,4397.436035,1506.000000,0.000000,8.000000,,,,0.000000,2.000000,2.000000,0.000000,2.000000,2.000000,2.000000,0.000000,2.000000,4.000000,4.000000,4.000000,4.000000,2.000000,4.000000,16.666666,,,,,,,,,,,,,,,,
1732082852.594218,1732082852.596079,104.000000,0.000000,4300.512695,4278.846191,4307.051270,4288.333496,4276.538574,4279.743652,4269.487305,4307.692383,4301.538574,4283.717773,4432.948730,4457.051270,4341.410156,4392.307617,1735.000000,0.000000,8.000000,,,,0.000000,2.000000,2.000000,0.000000,2.000000,2.000000,2.000000,0.000000,2.000000,4.000000,4.000000,4.000000,4.000000,2.000000,4.000000,16.666666,,,,,,,,,,,,,,,,
1732082852.602027,1732082852.603887,105.000000,0.000000,4289.487305,4288.461426,4306.153809,4291.025879,4285.897461,4279.615234,4267.692383,4307.820313,4299.230957,4285.897461,4423.846191,4448.333496,4337.307617,4388.461426,1658.000000,0.000000,8.000000,,,,0.000000,2.000000,2.000000,0.000000,2.000000,2.000000,2.000000,0.000000,2.000000,4.000000,4.000000,4.000000,4.000000,2.000000,4.000000,16.666666,,,,,,,,,,,,,,,,
1732082852.609835,1732082852.611496,106.000000,0.000000,4289.230957,4284.102539,4307.692383,4288.589844,4286.666504,4282.179688,4266.025879,4312.051270,4301.666504,4289.743652,4423.589844,4448.461426,4334.230957,4386.538574,1369.000000,0.000000,8.000000,,,,0.000000,2.000000,2.000000,0.000000,2.000000,2.000000,2.000000,0.000000,2.000000,4.000000,4.000000,4.000000,4.000000,2.000000,4.000000,16.666666,,,,,,,,,,,,,,,,
1732082852.617643,1732082852.619304,107.000000,0.000000,4300.897461,4280.897461,4305.897461,4292.948730,4283.077148,4281.538574,4267.051270,4312.820313,4304.743652,4288.461426,4428.205078,4456.666504,4339.102539,4390.128418,1506.000000,0.000000,8.000000,,,,0.000000,2.000000,2.000000,0.000000,2.000000,2.000000,2.000000,0.000000,2.000000,4.000000,4.000000,4.000000,4.000000,2.000000,4.000000,16.666666,,,,,,,,,,,,,,,,
1732082852.625451,1732082852.627212,108.000000,0.000000,4305.000000,4292.948730,4306.282227,4299.743652,4289.102539,4282.692383,4268.205078,4307.948730,4300.897461,4286.153809,4425.128418,4457.948730,4338.333496,4389.871582,1735.000000,0.000000,8.000000,,,,0.000000,2.000000,2.000000,0.000000,2.000000,2.000000,2.000000,0.000000,2.000000,4.000000,4.000000,4.000000,4.000000,2.000000,4.000000,16.666666,,,,,,,,,,,,,,,,
1732082852.633260,1732082852.635020,109.000000,0.000000,4298.461426,4296.153809,4306.025879,4299.358887,4287.820313,4289.487305,4263.974121,4307.436035,4297.051270,4284.230957,4421.666504,4456.794922,4331.025879,4381.410156,1658.000000,0.000000,8.000000,,,,0.000000,2.000000,2.000000,0.000000,2.000000,2.000000,2.000000,0.000000,2.000000,4.000000,4.000000,4.000000,4.000000,2.000000,4.000000,16.666666,,,,,,,,,,,,,,,,
1732082852.641068,1732082852.642629,110.000000,0.000000,4293.589844,4286.538574,4307.307617,4301.025879,4284.743652,4288.846191,4264.358887,4310.897461,4296.666504,4281.922852,4421.794922,4461.794922,4330.256348,4380.641113,1369.000000,0.000000,8.000000,,,,0.000000,2.000000,2.000000,0.000000,2.000000,2.000000,2.000000,0.000000,2.000000,4.000000,4.000000,4.000000,4.000000,2.000000,4.000000,16.666666,,,,,,,,,,,,,,,,
1732082852.648876,1732082852.650437,111.000000,0.000000,4299.230957,4290.000000,4307.307617,4304.487305,4300.000000,4281.794922,4267.563965,4311.794922,4296.025879,4283.333496,4422.179688,4468.077148,4333.717773,4387.820313,1506.000000,0.000000,8.000000,,,,0.000000,2.000000,2.000000,0.000000,2.000000,2.000000,2.000000,0.000000,2.000000,4.000000,4.000000,4.000000,4.000000,2.000000,4.000000,16.666666,,,,,,,,,,,,,,,,
1732082852.656685,1732082852.658145,112.000000,0.000000,4307.051270,4299.230957,4307.307617,4300.641113,4297.307617,4281.153809,4265.512695,4311.922852,4297.436035,4289.743652,4427.948730,4469.743652,4338.846191,4390.512695,1735.000000,0.000000,8.000000,,,,0.000000,2.000000,2.000000,0.000000,2.000000,2.000000,2.000000,0.000000,2.000000,4.000000,4.000000,4.000000,4.000000,2.000000,4.000000,16.666666,,,,,,,,,,,,,,,,
1732082852.664493,1732082852.665953,113.000000,0.000000,4303.589844,4297.692383,4307.179688,4299.615234,4273.077148,4283.589844,4263.077148,4311.538574,4299.358887,4290.384766,4430.641113,4466.922852,4339.230957,4385.000000,1658.000000,0.000000,8.000000,,,,0.000000,2.000000,2.000000,0.000000,2.000000,2.000000,2.000000,0.000000,2.000000,4.000000,4.000000,4.000000,4.000000,2.000000,4.000000,16.666666,,,,,,,,,,,,,,,,
1732082852.672301,1732082852.673562,114.000000,0.000000,4295.641113,4291.282227,4307.563965,4304.102539,4277.436035,4282.563965,4265.897461,4308.974121,4297.179688,4284.615234,4425.384766,4466.282227,4331.153809,4380.256348,1369.000000,0.000000,8.000000,,,,0.000000,2.000000,2.000000,0.000000,2.000000,2.000000,2.000000,0.000000,2.000000,4.000000,4.000000,4.000000,4.000000,2.000000,4.000000,16.666666,,,,,,,,,,,,,,,,
1732082852.680109,1732082852.681370,115.000000,0.000000,4293.974121,4294.487305,4308.077148,4302.948730,4298.461426,4287.692383,4268.717773,4310.641113,4295.000000,4281.794922,4422.948730,4466.282227,4325.512695,4377.948730,1506.000000,0.000000,8.000000,,,,0.000000,2.000000,2.000000,0.000000,2.000000,2.000000,2.000000,0.000000,2.000000,4.000000,4.000000,4.000000,4.000000,2.000000,4.000000,16.666666,,,,,,,,,,,,,,,,
1732082852.687918,1732082852.689078,116.000000,0.000000,4292.179688,4300.128418,4306.153809,4299.871582,4293.717773,4292.179688,4266.922852,4318.717773,4299.743652,4281.410156,4421.410156,4459.615234,4327.051270,4378.333496,1735.000000,0.000000,8.000000,,,,0.000000,2.000000,2.000000,0.000000,2.000000,2.000000,2.000000,0.000000,2.000000,4.000000,4.000000,4.000000,4.000000,2.000000,4.000000,16.666666,,,,,,,,,,,,,,,,
1732082852.695726,1732082852.696887,117.000000,0.000000,4293.717773,4301.538574,4307.436035,4300.384766,4287.179688,4286.410156,4267.948730,4320.256348,4300.000000,4279.743652,4419.487305,4454.743652,4329.743652,4381.666504,1658.000000,0.000000,8.000000,,,,0.000000,2.000000,2.000000,0.000000,2.000000,2.000000,2.000000,0.000000,2.000000,4.000000,4.000000,4.000000,4.000000,2.000000,4.000000,16.666666,,,,,,,,,,,,,,,,
1732082852.703534,1732082852.704895,118.000000,0.000000,4305.512695,4311.538574,4308.846191,4302.692383,4289.358887,4281.153809,4269.230957,4312.820313,4292.563965,4280.512695,4422.051270,4460.641113,4334.615234,4387.051270,1369.000000,0.000000,8.000000,,,,0.000000,2.000000,2.000000,0.000000,2.000000,2.000000,2.000000,0.000000,2.000000,4.000000,4.000000,4.000000,4.000000,2.000000,4.000000,16.666666,,,,,,,,,,,,,,,,
1732082852.711342,1732082852.712703,119.000000,0.000000,4312.179688,4320.384766,4310.128418,4304.358887,4283.205078,4281.025879,4267.436035,4308.717773,4288.205078,4283.717773,4424.743652,4466.153809,4338.333496,4391.282227,1506.000000,0.000000,8.000000,,,,0.000000,2.000000,2.000000,0.000000,2.000000,2.000000,2.000000,0.000000,2.000000,4.000000,4.000000,4.000000,4.000000,2.000000,4.000000,16.666666,,,,,,,,,,,,,,,,
1732082852.719151,1732082852.720611,120.000000,0.000000,4301.025879,4313.589844,4305.897461,4300.512695,4290.512695,4281.794922,4263.077148,4310.769043,4290.384766,4284.615234,4419.743652,4458.846191,4333.333496,4383.205078,1735.000000,0.000000,8.000000,,,,0.000000,2.000000,2.000000,0.000000,2.000000,2.000000,2.000000,0.000000,2.000000,4.000000,4.000000,4.000000,4.000000,2.000000,4.000000,16.666666,,,,,,,,,,,,,,,,
1732082852.726959,1732082852.728419,121.000000,0.000000,4287.436035,4310.128418,4307.692383,4290.256348,4296.282227,4282.179688,4265.769043,4312.436035,4293.205078,4281.282227,4414.102539,4451.410156,4327.692383,4372.820313,1658.000000,0.000000,8.000000,,,,0.000000,2.000000,2.000000,0.000000,2.000000,2.000000,2.000000,0.000000,2.000000,4.000000,4.000000,4.000000,4.000000,2.000000,4.000000,16.666666,,,,,,,,,,,,,,,,
1732082852.734767,1732082852.736427,122.000000,0.000000,4293.333496,4327.436035,4307.436035,4287.948730,4277.948730,4281.410156,4266.922852,4310.769043,4296.538574,4283.333496,4419.615234,4453.205078,4331.153809,4379.487305,1369.000000,0.000000,8.000000,,,,0.000000,2.000000,2.000000,0.000000,2.000000,2.000000,2.000000,0.000000,2.000000,4.000000,4.000000,4.000000,4.000000,2.000000,4.000000,16.666666,,,,,,,,,,,,,,,,
1732082852.742576,1732082852.744235,123.000000,0.000000,4307.692383,4343.974121,4306.922852,4293.205078,4262.563965,4277.051270,4266.666504,4312.179688,4299.871582,4285.000000,4422.692383,4458.717773,4332.179688,4386.538574,1506.000000,0.000000,8.000000,,,,0.000000,2.000000,2.000000,0.000000,2.000000,2.000000,2.000000,0.000000,2.000000,4.000000,4.000000,4.000000,4.000000,2.000000,4.000000,16.666666,,,,,,,,,,,,,,,,
1732082852.750384,1732082852.751944,124.000000,0.000000,4305.897461,4346.025879,4305.897461,4294.102539,4269.871582,4277.051270,4267.563965,4316.025879,4298.846191,4274.487305,4416.153809,4454.358887,4323.717773,4377.051270,1735.000000,0.000000,8.000000,,,,0.000000,2.000000,2.000000,0.000000,2.000000,2.000000,2.000000,0.000000,2.000000,4.000000,4.000000,4.000000,4.000000,2.000000,4.000000,16.666666,,,,,,,,,,,,,,,,
1732082852.758192,1732082852.759752,125.000000,0.000000,4299.230957,4347.563965,4307.820313,4292.820313,4277.563965,4282.179688,4272.051270,4313.205078,4291.666504,4265.897461,4414.615234,4452.051270,4325.897461,4375.256348,1658.000000,0.000000,8.000000,,,,0.000000,2.000000,2.000000,0.000000,2.000000,2.000000,2.000000,0.000000,2.000000,4.000000,4.000000,4.000000,4.000000,2.000000,4.000000,16.666666,,,,,,,,,,,,,,,,
1732082852.766000,1732082852.767360,126.000000,0.000000,4307.307617,4354.358887,4309.871582,4298.717773,4276.153809,4280.769043,4271.538574,4308.974121,4289.487305,4271.794922,4424.230957,4462.436035,4339.487305,4390.256348,1369.000000,0.000000,8.000000,,,,0.000000,2.000000,2.000000,0.000000,2.000000,2.000000,2.000000,0.000000,2.000000,4.000000,4.000000,4.000000,4.000000,2.000000,4.000000,16.666666,,,,,,,,,,,,,,,,
1732082852.773809,1732082852.775168,127.000000,0.000000,4308.846191,4355.897461,4312.563965,4300.128418,4269.487305,4278.077148,4273.589844,4312.436035,4295.384766,4273.333496,4423.333496,4465.128418,4336.410156,4388.974121,8.000000,0.000000,8.000000,,,,0.000000,2.000000,2.000000,0.000000,2.000000,2.000000,2.000000,0.000000,2.000000,4.000000,4.000000,4.000000,4.000000,2.000000,4.000000,16.666666,,,,,,,,,,,,,,,,
1732082852.781617,1732082852.783077,0.000000,0.000000,4296.666504,4349.743652,4314.230957,4292.051270,4266.153809,4281.282227,4279.487305,4315.128418,4295.256348,4269.615234,4412.436035,4457.563965,4325.769043,4375.000000,0.000000,0.000000,8.000000,,,,0.000000,2.000000,2.000000,0.000000,2.000000,2.000000,2.000000,0.000000,2.000000,4.000000,4.000000,4.000000,4.000000,2.000000,4.000000,16.666666,,,,,,,,,,,,,,,,
1732082852.789425,1732082852.790885,1.000000,0.000000,4292.563965,4346.922852,4316.282227,4287.692383,4277.820313,4281.666504,4280.512695,4311.025879,4287.692383,4269.102539,4411.538574,4451.153809,4327.436035,4374.358887,1319.000000,0.000000,8.000000,,,,0.000000,2.000000,2.000000,0.000000,2.000000,2.000000,2.000000,0.000000,2.000000,4.000000,4.000000,4.000000,4.000000,2.000000,4.000000,16.666666,,,,,,,,,,,,,,,,
1732082852.797233,1732082852.798893,2.000000,0.000000,4298.717773,4347.179688,4321.794922,4289.102539,4276.922852,4278.077148,4281.410156,4310.512695,4288.077148,4272.436035,4418.205078,4448.205078,4335.000000,4378.846191,1239.000000,0.000000,8.000000,,,,0.000000,2.000000,2.000000,0.000000,2.000000,2.000000,2.000000,0.000000,2.000000,4.000000,4.000000,4.000000,4.000000,2.000000,4.000000,16.666666,,,,,,,,,,,,,,,,
1732082852.805042,1732082852.806701,3.000000,0.000000,4304.743652,4348.717773,4319.358887,4292.563965,4257.820313,4278.974121,4284.358887,4311.922852,4293.589844,4285.769043,4425.384766,4451.666504,4342.692383,4382.307617,1194.000000,0.000000,8.000000,,,,0.000000,2.000000,2.000000,0.000000,2.000000,2.000000,2.000000,0.000000,2.000000,4.000000,4.000000,4.000000,4.000000,2.000000,4.000000,16.666666,,,,,,,,,,,,,,,,
1732082852.812850,1732082852.814609,4.000000,0.000000,4300.384766,4350.128418,4317.179688,4293.461426,4256.153809,4281.025879,4286.282227,4307.563965,4292.563965,4289.487305,4420.897461,4454.230957,4339.102539,4382.820313,1205.000000,0.000000,8.000000,,,,0.000000,2.000000,2.000000,0.000000,2.000000,2.000000,2.000000,0.000000,2.000000,4.000000,4.000000,4.000000,4.000000,2.000000,4.000000,16.666666,,,,,,,,,,,,,,,,
1732082852.820658,1732082852.822417,5.000000,0.000000,4292.563965,4343.974121,4315.128418,4290.897461,4269.615234,4282.179688,4282.307617,4309.487305,4290.512695,4277.051270,4411.538574,4447.948730,4327.820313,4377.820313,1075.000000,0.000000,8.000000,,,,0.000000,2.000000,2.000000,0.000000,2.000000,2.000000,2.000000,0.000000,2.000000,4.000000,4.000000,4.000000,4.000000,2.000000,4.000000,16.666666,,,,,,,,,,,,,,,,
1732082852.828466,1732082852.830425,6.000000,0.000000,4295.641113,4333.846191,4318.205078,4288.461426,4270.512695,4284.487305,4280.000000,4313.974121,4290.641113,4276.538574,4413.205078,4445.897461,4330.641113,4376.922852,65.000000,0.000000,8.000000,,,,0.000000,2.000000,2.000000,0.000000,2.000000,2.000000,2.000000,0.000000,2.000000,4.000000,4.000000,4.000000,4.000000,2.000000,4.000000,16.666666,,,,,,,,,,,,,,,,
1732082852.836275,1732082852.838234,7.000000,0.000000,4303.461426,4333.717773,4312.820313,4289.743652,4267.563965,4282.179688,4276.666504,4304.230957,4289.871582,4287.820313,4418.077148,4448.717773,4341.153809,4383.333496,1185.000000,0.000000,8.000000,,,,0.000000,2.000000,2.000000,0.000000,2.000000,2.000000,2.000000,0.000000,2.000000,4.000000,4.000000,4.000000,4.000000,2.000000,4.000000,16.666666,,,,,,,,,,,,,,,,
1732082852.844083,1732082852.846142,8.000000,0.000000,4300.641113,4335.128418,4309.487305,4288.077148,4272.563965,4278.717773,4274.743652,4294.871582,4290.641113,4288.333496,4414.871582,4447.051270,4336.794922,4382.307617,1357.000000,0.000000,8.000000,,,,0.000000,2.000000,2.000000,0.000000,2.000000,2.000000,2.000000,0.000000,2.000000,4.000000,4.000000,4.000000,4.000000,2.000000,4.000000,16.666666,,,,,,,,,,,,,,,,
1732082852.851891,1732082852.853950,9.000000,0.000000,4298.077148,4328.077148,4307.820313,4287.051270,4273.846191,4284.487305,4274.358887,4303.205078,4296.922852,4286.025879,4414.230957,4446.025879,4328.589844,4377.307617,1503.000000,0.000000,8.000000,,,,0.000000,2.000000,2.000000,0.000000,2.000000,2.000000,2.000000,0.000000,2.000000,4.000000,4.000000,4.000000,4.000000,2.000000,4.000000,16.666666,,,,,,,,,,,,,,,,
1732082852.859699,1732082852.861958,10.000000,0.000000,4301.666504,4323.205078,4310.769043,4288.846191,4280.384766,4288.717773,4275.256348,4311.794922,4298.974121,4286.153809,4416.922852,4450.128418,4330.897461,4380.256348,1379.000000,0.000000,8.000000,,,,0.000000,2.000000,2.000000,0.000000,2.000000,2.000000,2.000000,0.000000,2.000000,4.000000,4.000000,4.000000,4.000000,2.000000,4.000000,16.666666,,,,,,,,,,,,,,,,
1732082852.867508,1732082852.869766,11.000000,0.000000,4301.794922,4323.461426,4309.230957,4287.307617,4294.102539,4280.000000,4272.948730,4310.512695,4297.179688,4285.128418,4419.230957,4453.974121,4336.025879,4385.256348,1508.000000,0.000000,8.000000,,,,0.000000,2.000000,2.000000,0.000000,2.000000,2.000000,2.000000,0.000000,2.000000,4.000000,4.000000,4.000000,4.000000,2.000000,4.000000,16.666666,,,,,,,,,,,,,,,,
1732082852.875316,1732082852.877674,12.000000,0.000000,4301.282227,4321.410156,4307.179688,4287.563965,4287.948730,4275.256348,4274.358887,4307.948730,4292.948730,4286.153809,4422.948730,4454.871582,4337.179688,4387.179688,1738.000000,0.000000,8.000000,,,,0.000000,2.000000,2.000000,0.000000,2.000000,2.000000,2.000000,0.000000,2.000000,4.000000,4.000000,4.000000,4.000000,2.000000,4.000000,16.666666,,,,,,,,,,,,,,,,
1732082852.883124,1732082852.885482,13.000000,0.000000,4304.487305,4317.307617,4308.846191,4290.256348,4271.282227,4283.846191,4278.205078,4307.051270,4292.307617,4287.307617,4423.717773,4453.717773,4335.897461,4387.948730,1666.000000,0.000000,8.000000,,,,0.000000,2.000000,2.000000,0.000000,2.000000,2.000000,2.000000,0.000000,2.000000,4.000000,4.000000,4.000000,4.000000,2.000000,4.000000,16.666666,,,,,,,,,,,,,,,,
1732082852.890932,1732082852.893091,14.000000,0.000000,4304.487305,4315.128418,4305.256348,4289.230957,4274.743652,4286.282227,4280.128418,4311.538574,4299.615234,4286.282227,4423.333496,4452.436035,4340.000000,4388.846191,1379.000000,0.000000,8.000000,,,,0.000000,2.000000,2.000000,0.000000,2.000000,2.000000,2.000000,0.000000,2.000000,4.000000,4.000000,4.000000,4.000000,2.000000,4.000000,16.666666,1.000000,8.333333,2.000000,2.000000,0.000000,2.000000,2.000000,1.000000,0.000000,2.000000,4.000000,4.000000,4.000000,4.000000,2.000000,4.000000
1732082852.898741,1732082852.900899,15.000000,0.000000,4304.230957,4316.794922,4300.769043,4290.256348,4285.384766,4278.589844,4282.436035,4311.153809,4299.871582,4288.205078,4426.153809,4452.820313,4347.179688,4392.307617,1508.000000,0.000000,8.000000,,,,0.000000,2.000000,2.000000,0.000000,2.000000,2.000000,2.000000,0.000000,2.000000,4.000000,4.000000,4.000000,4.000000,2.000000,4.000000,16.666666,,,,,,,,,,,,,,,,
1732082852.906549,1732082852.908607,16.000000,0.000000,4308.461426,4318.717773,4299.230957,4294.871582,4282.179688,4277.948730,4285.897461,4297.563965,4292.948730,4290.897461,4430.256348,4445.256348,4350.128418,4397.563965,0.000000,0.000000,8.000000,,,,0.000000,2.000000,2.000000,0.000000,2.000000,2.000000,2.000000,0.000000,2.000000,4.000000,4.000000,4.000000,4.000000,2.000000,4.000000,16.666666,,,,,,,,,,,,,,,,
1732082852.914357,1732082852.916416,17.000000,0.000000,4309.102539,4319.102539,4301.538574,4293.077148,4279.615234,4280.641113,4290.641113,4291.410156,4289.871582,4290.897461,4430.512695,4441.410156,4348.717773,4396.794922,0.000000,0.000000,8.000000,,,,0.000000,2.000000,2.000000,0.000000,2.000000,2.000000,2.000000,0.000000,2.000000,4.000000,4.000000,4.000000,4.000000,2.000000,4.000000,16.666666,,,,,,,,,,,,,,,,
1732082852.922166,1732082852.924024,18.000000,0.000000,4310.000000,4321.025879,4294.230957,4292.179688,4286.282227,4278.461426,4294.487305,4298.717773,4292.820313,4289.358887,4429.230957,4443.333496,4347.563965,4393.461426,0.000000,0.000000,8.000000,,,,0.000000,2.000000,2.000000,0.000000,2.000000,2.000000,2.000000,0.000000,2.000000,4.000000,4.000000,4.000000,4.000000,2.000000,4.000000,16.666666,,,,,,,,,,,,,,,,
1732082852.929974,1732082852.931832,19.000000,0.000000,4316.922852,4319.487305,4292.820313,4296.153809,4286.282227,4278.077148,4297.436035,4300.897461,4295.000000,4285.641113,4427.436035,4443.333496,4348.077148,4398.589844,0.000000,0.000000,8.000000,,,,0.000000,2.000000,2.000000,0.000000,2.000000,2.000000,2.000000,0.000000,2.000000,4.000000,4.000000,4.000000,4.000000,2.000000,4.000000,16.666666,,,,,,,,,,,,,,,,
1732082852.937782,1732082852.939540,20.000000,0.000000,4324.615234,4314.615234,4291.410156,4298.717773,4286.153809,4278.717773,4299.615234,4294.230957,4291.794922,4285.512695,4428.333496,4440.641113,4346.794922,4403.461426,0.000000,0.000000,8.000000,,,,0.000000,2.000000,2.000000,0.000000,2.000000,2.000000,2.000000,0.000000,2.000000,4.000000,4.000000,4.000000,4.000000,2.000000,4.000000,16.666666,,,,,,,,,,,,,,,,
1732082852.945590,1732082852.947349,21.000000,0.000000,4324.871582,4311.922852,4291.794922,4294.615234,4284.230957,4277.179688,4307.051270,4295.897461,4288.846191,4285.000000,4425.897461,4442.820313,4344.487305,4402.563965,0.000000,0.000000,8.000000,,,,0.000000,2.000000,2.000000,0.000000,2.000000,2.000000,2.000000,0.000000,2.000000,4.000000,4.000000,4.000000,4.000000,2.000000,4.000000,16.666666,,,,,,,,,,,,,,,,
1732082852.953399,1732082852.954957,22.000000,0.000000,4330.128418,4315.769043,4287.948730,4291.666504,4280.769043,4278.205078,4308.846191,4305.256348,4289.615234,4277.307617,4417.692383,4438.205078,4339.743652,4401.282227,0.000000,0.000000,8.000000,,,,0.000000,2.000000,2.000000,0.000000,2.000000,2.000000,2.000000,0.000000,2.000000,4.000000,4.000000,4.000000,4.000000,2.000000,4.000000,16.666666,,,,,,,,,,,,,,,,
1732082852.961207,1732082852.962765,23.000000,0.000000,4344.230957,4320.641113,4291.410156,4297.820313,4281.153809,4278.333496,4307.307617,4295.769043,4286.922852,4267.307617,4411.666504,4427.563965,4335.000000,4402.179688,0.000000,0.000000,8.000000,,,,0.000000,2.000000,2.000000,0.000000,2.000000,2.000000,2.000000,0.000000,2.000000,4.000000,4.000000,4.000000,4.000000,2.000000,4.000000,16.666666,,,,,,,,,,,,,,,,
1732082852.969015,1732082852.970474,24.000000,0.000000,4355.128418,4323.077148,4292.179688,4306.666504,4283.333496,4272.820313,4308.589844,4277.692383,4275.897461,4265.128418,4416.666504,4431.666504,4341.025879,4411.794922,0.000000,0.000000,8.000000,,,,0.000000,2.000000,2.000000,0.000000,2.000000,2.000000,2.000000,0.000000,2.000000,4.000000,4.000000,4.000000,4.000000,2.000000,4.000000,16.666666,,,,,,,,,,,,,,,,
1732082852.976823,1732082852.978282,25.000000,0.000000,4365.512695,4322.307617,4294.358887,4306.153809,4284.230957,4267.051270,4312.307617,4283.461426,4273.589844,4269.615234,4428.333496,4444.358887,4351.410156,4426.666504,0.000000,0.000000,8.000000,,,,0.000000,2.000000,2.000000,0.000000,2.000000,2.000000,2.000000,0.000000,2.000000,4.000000,4.000000,4.000000,4.000000,2.000000,4.000000,16.666666,,,,,,,,,,,,,,,,
1732082852.984632,1732082852.985890,26.000000,0.000000,4382.436035,4324.615234,4297.820313,4306.153809,4282.948730,4264.743652,4312.307617,4293.077148,4280.769043,4272.820313,4431.410156,4447.563965,4356.410156,4435.128418,0.000000,0.000000,8.000000,,,,0.000000,2.000000,2.000000,0.000000,2.000000,2.000000,2.000000,0.000000,2.000000,4.000000,4.000000,4.000000,4.000000,2.000000,4.000000,16.666666,,,,,,,,,,,,,,,,
1732082852.992440,1732082852.993698,27.000000,0.000000,4393.974121,4328.077148,4295.128418,4314.358887,4277.820313,4264.487305,4315.128418,4283.717773,4277.563965,4273.589844,4429.871582,4447.436035,4357.820313,4439.743652,0.000000,0.000000,8.000000,,,,0.000000,2.000000,2.000000,0.000000,2.000000,2.000000,2.000000,0.000000,2.000000,4.000000,4.000000,4.000000,4.000000,2.000000,4.000000,16.666666,,,,,,,,,,,,,,,,
1732082853.000248,1732082853.001407,28.000000,0.000000,4394.230957,4324.487305,4293.589844,4313.974121,4280.512695,4261.922852,4315.769043,4276.153809,4273.205078,4271.922852,4437.692383,4451.282227,4361.922852,4450.769043,0.000000,0.000000,8.000000,,,,0.000000,2.000000,2.000000,0.000000,2.000000,2.000000,2.000000,0.000000,2.000000,4.000000,4.000000,4.000000,4.000000,2.000000,4.000000,16.666666,,,,,,,,,,,,,,,,
1732082853.008057,1732082853.009215,29.000000,0.000000,4396.538574,4318.589844,4296.666504,4303.205078,4291.153809,4257.563965,4316.153809,4282.563965,4277.948730,4270.769043,4442.820313,4454.358887,4364.230957,4460.512695,0.000000,0.000000,8.000000,,,,0.000000,2.000000,2.000000,0.000000,2.000000,2.000000,2.000000,0.000000,2.000000,4.000000,4.000000,4.000000,4.000000,2.000000,4.000000,16.666666,,,,,,,,,,,,,,,,
1732082853.015865,1732082853.017223,30.000000,0.000000,4402.563965,4318.333496,4300.000000,4299.102539,4279.743652,4257.692383,4319.358887,4287.820313,4278.846191,4271.025879,4439.358887,4457.179688,4364.743652,4460.897461,0.000000,0.000000,8.000000,,,,0.000000,2.000000,2.000000,0.000000,2.000000,2.000000,2.000000,0.000000,2.000000,4.000000,4.000000,4.000000,4.000000,2.000000,4.000000,16.666666,,,,,,,,,,,,,,,,
1732082853.023673,1732082853.025031,31.000000,0.000000,4403.974121,4321.282227,4298.717773,4304.230957,4261.538574,4259.871582,4321.538574,4289.871582,4277.051270,4270.000000,4440.384766,4459.871582,4366.410156,4458.717773,0.000000,0.000000,8.000000,,,,0.000000,2.000000,2.000000,0.000000,2.000000,2.000000,2.000000,0.000000,2.000000,4.000000,4.000000,4.000000,4.000000,2.000000,4.000000,16.666666,,,,,,,,,,,,,,,,
1732082853.031481,1732082853.032739,32.000000,0.000000,4406.410156,4321.025879,4304.871582,4307.692383,4266.025879,4256.794922,4320.384766,4290.000000,4279.102539,4271.025879,4444.102539,4466.794922,4365.769043,4462.820313,0.000000,0.000000,8.000000,,,,0.000000,2.000000,2.000000,0.000000,2.000000,2.000000,2.000000,0.000000,2.000000,4.000000,4.000000,4.000000,4.000000,2.000000,4.000000,16.666666,,,,,,,,,,,,,,,,
1732082853.039290,1732082853.040548,33.000000,0.000000,4407.436035,4316.794922,4306.025879,4303.589844,4273.717773,4258.717773,4321.922852,4287.436035,4280.256348,4274.743652,4445.128418,4475.641113,4366.794922,4471.410156,0.000000,0.000000,8.000000,,,,0.000000,2.000000,2.000000,0.000000,2.000000,2.000000,2.000000,0.000000,2.000000,4.000000,4.000000,4.000000,4.000000,2.000000,4.000000,16.666666,,,,,,,,,,,,,,,,
1732082853.047098,1732082853.048556,34.000000,0.000000,4405.000000,4314.230957,4306.538574,4302.051270,4266.025879,4263.205078,4327.692383,4292.307617,4276.794922,4275.641113,4445.641113,4473.077148,4368.077148,4467.436035,0.000000,0.000000,8.000000,,,,0.000000,2.000000,2.000000,0.000000,2.000000,2.000000,2.000000,0.000000,2.000000,4.000000,4.000000,4.000000,4.000000,2.000000,4.000000,16.666666,,,,,,,,,,,,,,,,
1732082853.054906,1732082853.056364,35.000000,0.000000,4405.769043,4315.256348,4307.948730,4308.717773,4263.717773,4258.589844,4326.666504,4296.025879,4276.922852,4273.333496,4438.333496,4462.563965,4365.128418,4459.871582,0.000000,0.000000,8.000000,,,,0.000000,2.000000,2.000000,0.000000,2.000000,2.000000,2.000000,0.000000,2.000000,4.000000,4.000000,4.000000,4.000000,2.000000,4.000000,16.666666,,,,,,,,,,,,,,,,
1732082853.062714,1732082853.064072,36.000000,0.000000,4406.153809,4313.461426,4311.410156,4310.769043,4269.871582,4255.512695,4324.743652,4290.512695,4279.871582,4273.589844,4431.410156,4461.922852,4360.641113,4461.410156,0.000000,0.000000,8.000000,,,,0.000000,2.000000,2.000000,0.000000,2.000000,2.000000,2.000000,0.000000,2.000000,4.000000,4.000000,4.000000,4.000000,2.000000,4.000000,16.666666,,,,,,,,,,,,,,,,
1732082853.070523,1732082853.071880,37.000000,0.000000,4404.358887,4311.666504,4309.615234,4309.102539,4275.897461,4261.410156,4328.077148,4282.692383,4277.179688,4276.410156,4435.512695,4463.974121,4360.641113,4463.077148,0.000000,0.000000,8.000000,,,,0.000000,2.000000,2.000000,0.000000,2.000000,2.000000,2.000000,0.000000,2.000000,4.000000,4.000000,4.000000,4.000000,2.000000,4.000000,16.666666,,,,,,,,,,,,,,,,
1732082853.078331,1732082853.079489,38.000000,0.000000,4404.230957,4310.512695,4312.307617,4306.794922,4285.641113,4263.077148,4332.948730,4289.102539,4275.641113,4273.974121,4436.538574,4460.769043,4363.974121,4458.205078,0.000000,0.000000,8.000000,,,,0.000000,2.000000,2.000000,0.000000,2.000000,2.000000,2.000000,0.000000,2.000000,4.000000,4.000000,4.000000,4.000000,2.000000,4.000000,16.666666,,,,,,,,,,,,,,,,
1732082853.086139,1732082853.087297,39.000000,0.000000,4404.358887,4308.333496,4316.282227,4305.128418,4282.692383,4263.077148,4331.794922,4302.051270,4279.743652,4273.974121,4433.461426,4461.282227,4362.820313,4457.307617,0.000000,0.000000,8.000000,,,,0.000000,2.000000,2.000000,0.000000,2.000000,2.000000,2.000000,0.000000,2.000000,4.000000,4.000000,4.000000,4.000000,2.000000,4.000000,16.666666,,,,,,,,,,,,,,,,
1732082853.093947,1732082853.095005,40.000000,0.000000,4404.102539,4308.589844,4316.025879,4309.230957,4268.333496,4264.871582,4330.641113,4293.461426,4277.436035,4278.333496,4436.410156,4463.717773,4360.769043,4461.538574,0.000000,0.000000,8.000000,,,,0.000000,2.000000,2.000000,0.000000,2.000000,2.000000,2.000000,0.000000,2.000000,4.000000,4.000000,4.000000,4.000000,2.000000,4.000000,16.666666,,,,,,,,,,,,,,,,
1732082853.101756,1732082853.102814,41.000000,0.000000,4405.769043,4309.358887,4315.641113,4316.794922,4268.461426,4263.846191,4328.461426,4277.692383,4269.615234,4279.487305,4435.641113,4462.307617,4361.282227,4461.666504,0.000000,0.000000,8.000000,,,,0.000000,2.000000,2.000000,0.000000,2.000000,2.000000,2.000000,0.000000,2.000000,4.000000,4.000000,4.000000,4.000000,2.000000,4.000000,16.666666,,,,,,,,,,,,,,,,
1732082853.109564,1732082853.110822,42.000000,0.000000,4401.282227,4309.871582,4320.000000,4315.641113,4278.589844,4261.153809,4328.461426,4273.717773,4268.461426,4276.282227,4429.358887,4458.333496,4360.256348,4458.717773,0.000000,0.000000,8.000000,,,,0.000000,2.000000,2.000000,0.000000,2.000000,2.000000,2.000000,0.000000,2.000000,4.000000,4.000000,4.000000,4.000000,2.000000,4.000000,16.666666,,,,,,,,,,,,,,,,
1732082853.117372,1732082853.118630,43.000000,0.000000,4395.641113,4309.230957,4320.641113,4312.692383,4279.871582,4263.461426,4331.153809,4280.000000,4274.743652,4279.615234,4431.922852,4462.179688,4359.102539,4457.948730,0.000000,0.000000,8.000000,,,,0.000000,2.000000,2.000000,0.000000,2.000000,2.000000,2.000000,0.000000,2.000000,4.000000,4.000000,4.000000,4.000000,2.000000,4.000000,16.666666,,,,,,,,,,,,,,,,
1732082853.125180,1732082853.126538,44.000000,0.000000,4397.179688,4305.897461,4316.794922,4314.871582,4278.333496,4266.410156,4334.230957,4290.128418,4279.487305,4284.871582,4440.512695,4472.307617,4362.179688,4460.256348,0.000000,0.000000,8.000000,,,,0.000000,2.000000,2.000000,0.000000,2.000000,2.000000,2.000000,0.000000,2.000000,4.000000,4.000000,4.000000,4.000000,2.000000,4.000000,16.666666,,,,,,,,,,,,,,,,
1732082853.132989,1732082853.134346,45.000000,0.000000,4399.871582,4305.256348,4317.307617,4316.282227,4276.538574,4266.794922,4332.820313,4293.077148,4279.743652,4281.025879,4443.333496,4472.820313,4364.487305,4461.922852,0.000000,0.000000,8.000000,,,,0.000000,2.000000,2.000000,0.000000,2.000000,2.000000,2.000000,0.000000,2.000000,4.000000,4.000000,4.000000,4.000000,2.000000,4.000000,16.666666,,,,,,,,,,,,,,,,
1732082853.140797,1732082853.142354,46.000000,0.000000,4400.128418,4310.128418,4317.948730,4316.282227,4277.820313,4267.820313,4331.922852,4287.051270,4277.436035,4277.820313,4434.743652,4466.922852,4357.692383,4456.666504,0.000000,0.000000,8.000000,,,,0.000000,2.000000,2.000000,0.000000,2.000000,2.000000,2.000000,0.000000,2.000000,4.000000,4.000000,4.000000,4.000000,2.000000,4.000000,16.666666,,,,,,,,,,,,,,,,
1732082853.148605,1732082853.150162,47.000000,0.000000,4397.051270,4311.922852,4316.153809,4315.256348,4291.922852,4265.128418,4332.948730,4281.410156,4276.282227,4278.717773,4428.077148,4469.102539,4353.717773,4451.538574,0.000000,0.000000,8.000000,,,,0.000000,2.000000,2.000000,0.000000,2.000000,2.000000,2.000000,0.000000,2.000000,4.000000,4.000000,4.000000,4.000000,2.000000,4.000000,16.666666,,,,,,,,,,,,,,,,
1732082853.156413,1732082853.158070,48.000000,0.000000,4393.205078,4306.410156,4316.025879,4313.461426,4287.820313,4266.025879,4334.230957,4287.051270,4278.974121,4278.077148,4433.461426,4473.461426,4357.051270,4450.000000,0.000000,0.000000,8.000000,,,,0.000000,2.000000,2.000000,0.000000,2.000000,2.000000,2.000000,0.000000,2.000000,4.000000,4.000000,4.000000,4.000000,2.000000,4.000000,16.666666,,,,,,,,,,,,,,,,
1732082853.164222,1732082853.165879,49.000000,0.000000,4394.358887,4300.512695,4318.333496,4313.077148,4265.000000,4273.717773,4334.230957,4293.461426,4279.358887,4275.000000,4434.102539,4473.077148,4355.384766,4450.256348,0.000000,0.000000,8.000000,,,,0.000000,2.000000,2.000000,0.000000,2.000000,2.000000,2.000000,0.000000,2.000000,4.000000,4.000000,4.000000,4.000000,2.000000,4.000000,16.666666,,,,,,,,,,,,,,,,
1732082853.172030,1732082853.173487,50.000000,0.000000,4395.128418,4297.179688,4316.794922,4313.846191,4266.794922,4274.230957,4332.051270,4296.922852,4280.384766,4277.820313,4429.487305,4474.358887,4352.692383,4449.743652,0.000000,0.000000,8.000000,,,,0.000000,2.000000,2.000000,0.000000,2.000000,2.000000,2.000000,0.000000,2.000000,4.000000,4.000000,4.000000,4.000000,2.000000,4.000000,16.666666,,,,,,,,,,,,,,,,
1732082853.179838,1732082853.181295,51.000000,0.000000,4387.948730,4296.153809,4316.666504,4313.461426,4279.743652,4266.666504,4331.666504,4293.461426,4281.666504,4280.384766,4433.461426,4476.794922,4355.512695,4449.102539,0.000000,0.000000,8.000000,,,,0.000000,2.000000,2.000000,0.000000,2.000000,2.000000,2.000000,0.000000,2.000000,4.000000,4.000000,4.000000,4.000000,2.000000,4.000000,16.666666,,,,,,,,,,,,,,,,
1732082853.187647,1732082853.189203,52.000000,0.000000,4386.922852,4298.077148,4320.384766,4315.128418,4274.871582,4264.615234,4330.512695,4281.666504,4279.871582,4279.743652,4441.025879,4473.589844,4361.666504,4447.436035,0.000000,0.000000,8.000000,,,,0.000000,2.000000,2.000000,0.000000,2.000000,2.000000,2.000000,0.000000,2.000000,4.000000,4.000000,4.000000,4.000000,2.000000,4.000000,16.666666,,,,,,,,,,,,,,,,
1732082853.195455,1732082853.197012,53.000000,0.000000,4388.461426,4299.102539,4322.179688,4315.897461,4273.333496,4275.512695,4332.051270,4278.846191,4277.051270,4281.922852,4439.358887,4473.846191,4361.410156,4445.641113,0.000000,0.000000,8.000000,,,,0.000000,2.000000,2.000000,0.000000,2.000000,2.000000,2.000000,0.000000,2.000000,4.000000,4.000000,4.000000,4.000000,2.000000,4.000000,16.666666,,,,,,,,,,,,,,,,
1732082853.203263,1732082853.205020,54.000000,0.000000,4383.077148,4298.717773,4319.102539,4313.205078,4279.743652,4281.922852,4333.077148,4282.307617,4274.871582,4280.384766,4433.589844,4471.794922,4355.769043,4444.230957,0.000000,0.000000,8.000000,,,,0.000000,2.000000,2.000000,0.000000,2.000000,2.000000,2.000000,0.000000,2.000000,4.000000,4.000000,4.000000,4.000000,2.000000,4.000000,16.666666,,,,,,,,,,,,,,,,
1732082853.211071,1732082853.212828,55.000000,0.000000,4375.128418,4296.410156,4322.820313,4313.461426,4278.974121,4272.051270,4332.820313,4283.589844,4279.102539,4279.615234,4430.000000,4466.025879,4351.282227,4437.820313,0.000000,0.000000,8.000000,,,,0.000000,2.000000,2.000000,0.000000,2.000000,2.000000,2.000000,0.000000,2.000000,4.000000,4.000000,4.000000,4.000000,2.000000,4.000000,16.666666,,,,,,,,,,,,,,,,
1732082853.218880,1732082853.220736,56.000000,0.000000,4371.538574,4293.717773,4325.000000,4310.384766,4274.230957,4262.563965,4333.333496,4289.615234,4287.948730,4286.282227,4428.589844,4469.102539,4351.410156,4431.538574,0.000000,0.000000,8.000000,,,,0.000000,2.000000,2.000000,0.000000,2.000000,2.000000,2.000000,0.000000,2.000000,4.000000,4.000000,4.000000,4.000000,2.000000,4.000000,16.666666,,,,,,,,,,,,,,,,
1732082853.226688,1732082853.228544,57.000000,0.000000,4370.128418,4292.051270,4321.025879,4303.974121,4276.666504,4267.051270,4337.051270,4297.692383,4288.974121,4289.743652,4430.128418,4476.025879,4352.692383,4429.615234,0.000000,0.000000,8.000000,,,,0.000000,2.000000,2.000000,0.000000,2.000000,2.000000,2.000000,0.000000,2.000000,4.000000,4.000000,4.000000,4.000000,2.000000,4.000000,16.666666,,,,,,,,,,,,,,,,
1732082853.234496,1732082853.236552,58.000000,0.000000,4366.025879,4286.153809,4318.205078,4303.205078,4292.307617,4271.153809,4334.487305,4299.743652,4287.563965,4286.153809,4432.820313,4474.871582,4349.358887,4428.589844,0.000000,0.000000,8.000000,,,,0.000000,2.000000,2.000000,0.000000,2.000000,2.000000,2.000000,0.000000,2.000000,4.000000,4.000000,4.000000,4.000000,2.000000,4.000000,16.666666,,,,,,,,,,,,,,,,
1732082853.242304,1732082853.244360,59.000000,0.000000,4365.000000,4283.461426,4320.128418,4307.179688,4291.794922,4268.589844,4331.922852,4297.179688,4290.512695,4286.410156,4433.205078,4472.436035,4348.205078,4429.871582,0.000000,0.000000,8.000000,,,,0.000000,2.000000,2.000000,0.000000,2.000000,2.000000,2.000000,0.000000,2.000000,4.000000,4.000000,4.000000,4.000000,2.000000,4.000000,16.666666,,,,,,,,,,,,,,,,
1732082853.250113,1732082853.252069,60.000000,0.000000,4369.102539,4289.487305,4319.358887,4308.846191,4273.461426,4276.666504,4333.077148,4289.615234,4285.512695,4288.974121,4435.128418,4475.384766,4352.179688,4430.897461,0.000000,0.000000,8.000000,,,,0.000000,2.000000,2.000000,0.000000,2.000000,2.000000,2.000000,0.000000,2.000000,4.000000,4.000000,4.000000,4.000000,2.000000,4.000000,16.666666,,,,,,,,,,,,,,,,
1732082853.257921,1732082853.259877,61.000000,0.000000,4369.102539,4288.974121,4317.307617,4308.333496,4271.410156,4279.358887,4333.205078,4279.871582,4276.794922,4286.794922,4443.205078,4477.179688,4357.436035,4432.692383,0.000000,0.000000,8.000000,,,,0.000000,2.000000,2.000000,0.000000,2.000000,2.000000,2.000000,0.000000,2.000000,4.000000,4.000000,4.000000,4.000000,2.000000,4.000000,16.666666,,,,,,,,,,,,,,,,
1732082853.265729,1732082853.267485,62.000000,0.000000,4361.794922,4281.282227,4316.153809,4307.563965,4280.769043,4266.794922,4331.410156,4277.307617,4281.538574,4289.615234,4447.820313,4477.820313,4359.102539,4435.641113,0.000000,0.000000,8.000000,,,,0.000000,2.000000,2.000000,0.000000,2.000000,2.000000,2.000000,0.000000,2.000000,4.000000,4.000000,4.000000,4.000000,2.000000,4.000000,16.666666,,,,,,,,,,,,,,,,
1732082853.273538,1732082853.275293,63.000000,0.000000,4353.077148,4275.641113,4317.436035,4301.666504,4277.563965,4265.000000,4332.436035,4282.820313,4287.051270,4292.179688,4440.512695,4475.384766,4355.384766,4432.307617,0.000000,0.000000,8.000000,,,,0.000000,2.000000,2.000000,0.000000,2.000000,2.000000,2.000000,0.000000,2.000000,4.000000,4.000000,4.000000,4.000000,2.000000,4.000000,16.666666,,,,,,,,,,,,,,,,
1732082853.281346,1732082853.283002,64.000000,0.000000,4346.538574,4271.410156,4318.333496,4296.794922,4275.769043,4277.820313,4332.051270,4290.769043,4289.487305,4290.641113,4436.153809,4472.563965,4351.794922,4424.615234,0.000000,0.000000,8.000000,,,,0.000000,2.000000,2.000000,0.000000,2.000000,2.000000,2.000000,0.000000,2.000000,4.000000,4.000000,4.000000,4.000000,2.000000,4.000000,16.666666,,,,,,,,,,,,,,,,
1732082853.289154,1732082853.290810,65.000000,0.000000,4345.384766,4266.282227,4316.922852,4300.897461,4285.512695,4281.666504,4331.922852,4290.384766,4291.538574,4288.974121,4436.666504,4473.974121,4352.948730,4422.436035,1317.000000,0.000000,8.000000,,,,0.000000,2.000000,2.000000,0.000000,2.000000,2.000000,2.000000,0.000000,2.000000,4.000000,4.000000,4.000000,4.000000,2.000000,4.000000,16.666666,,,,,,,,,,,,,,,,
1732082853.296962,1732082853.298418,66.000000,0.000000,4349.871582,4267.563965,4315.769043,4307.051270,4282.563965,4279.230957,4334.358887,4282.436035,4286.666504,4286.666504,4434.230957,4475.641113,4355.128418,4425.897461,1230.000000,0.000000,8.000000,,,,0.000000,2.000000,2.000000,0.000000,2.000000,2.000000,2.000000,0.000000,2.000000,4.000000,4.000000,4.000000,4.000000,2.000000,4.000000,16.666666,,,,,,,,,,,,,,,,
1732082853.304770,1732082853.306227,67.000000,0.000000,4348.077148,4269.615234,4316.538574,4308.846191,4280.769043,4279.871582,4334.743652,4282.563965,4283.205078,4283.333496,4432.820313,4475.128418,4352.948730,4425.641113,1194.000000,0.000000,8.000000,,,,0.000000,2.000000,2.000000,0.000000,2.000000,2.000000,2.000000,0.000000,2.000000,4.000000,4.000000,4.000000,4.000000,2.000000,4.000000,16.666666,,,,,,,,,,,,,,,,
1732082853.312579,1732082853.313935,68.000000,0.000000,4345.128418,4266.153809,4318.205078,4308.717773,4295.000000,4273.974121,4333.589844,4293.077148,4287.051270,4282.948730,4434.615234,4476.153809,4351.538574,4421.538574,1205.000000,0.000000,8.000000,,,,0.000000,2.000000,2.000000,0.000000,2.000000,2.000000,2.000000,0.000000,2.000000,4.000000,4.000000,4.000000,4.000000,2.000000,4.000000,16.666666,,,,,,,,,,,,,,,,
1732082853.320387,1732082853.321743,69.000000,0.000000,4350.512695,4268.461426,4319.358887,4310.128418,4295.769043,4268.974121,4333.077148,4297.307617,4291.025879,4288.717773,4439.615234,4478.717773,4355.128418,4423.717773,1077.000000,0.000000,8.000000,,,,0.000000,2.000000,2.000000,0.000000,2.000000,2.000000,2.000000,0.000000,2.000000,4.000000,4.000000,4.000000,4.000000,2.000000,4.000000,16.666666,,,,,,,,,,,,,,,,
1732082853.328195,1732082853.329351,70.000000,0.000000,4350.384766,4269.615234,4318.717773,4307.563965,4281.025879,4276.922852,4337.820313,4298.077148,4297.820313,4292.051270,4444.615234,4479.615234,4359.230957,4429.230957,55.000000,0.000000,8.000000,,,,0.000000,2.000000,2.000000,0.000000,2.000000,2.000000,2.000000,0.000000,2.000000,4.000000,4.000000,4.000000,4.000000,2.000000,4.000000,16.666666,,,,,,,,,,,,,,,,
1732082853.336003,1732082853.337160,71.000000,0.000000,4340.897461,4265.512695,4315.512695,4305.256348,4284.358887,4291.794922,4343.077148,4299.102539,4303.077148,4290.897461,4445.000000,4477.179688,4358.333496,4424.615234,1202.000000,0.000000,8.000000,,,,0.000000,2.000000,2.000000,0.000000,2.000000,2.000000,2.000000,0.000000,2.000000,4.000000,4.000000,4.000000,4.000000,2.000000,4.000000,16.666666,,,,,,,,,,,,,,,,
1732082853.343812,1732082853.344868,72.000000,0.000000,4336.538574,4264.743652,4316.794922,4305.384766,4298.205078,4293.974121,4348.077148,4291.666504,4295.000000,4288.589844,4437.692383,4473.077148,4353.589844,4415.641113,1359.000000,0.000000,8.000000,,,,0.000000,2.000000,2.000000,0.000000,2.000000,2.000000,2.000000,0.000000,2.000000,4.000000,4.000000,4.000000,4.000000,2.000000,4.000000,16.666666,,,,,,,,,,,,,,,,
1732082853.351620,1732082853.352676,73.000000,0.000000,4339.871582,4268.333496,4318.974121,4306.282227,4293.974121,4284.487305,4345.000000,4279.487305,4286.666504,4286.282227,4432.051270,4473.333496,4354.487305,4418.077148,1499.000000,0.000000,8.000000,,,,0.000000,2.000000,2.000000,0.000000,2.000000,2.000000,2.000000,0.000000,2.000000,4.000000,4.000000,4.000000,4.000000,2.000000,4.000000,16.666666,,,,,,,,,,,,,,,,
1732082853.359428,1732082853.360285,74.000000,0.000000,4341.666504,4268.205078,4318.333496,4308.333496,4287.436035,4280.512695,4340.512695,4277.179688,4287.051270,4286.922852,4433.077148,4477.436035,4359.358887,4421.153809,1379.000000,0.000000,8.000000,,,,0.000000,2.000000,2.000000,0.000000,2.000000,2.000000,2.000000,0.000000,2.000000,4.000000,4.000000,4.000000,4.000000,2.000000,4.000000,16.666666,,,,,,,,,,,,,,,,
1732082853.367237,1732082853.368093,75.000000,0.000000,4339.487305,4264.743652,4316.025879,4308.077148,4291.922852,4282.051270,4339.871582,4288.461426,4293.333496,4289.102539,4433.974121,4477.307617,4358.974121,4417.179688,1508.000000,0.000000,8.000000,,,,0.000000,2.000000,2.000000,0.000000,2.000000,2.000000,2.000000,0.000000,2.000000,4.000000,4.000000,4.000000,4.000000,2.000000,4.000000,16.666666,,,,,,,,,,,,,,,,
1732082853.375045,1732082853.375801,76.000000,0.000000,4337.563965,4265.384766,4317.563965,4307.307617,4293.077148,4282.179688,4344.102539,4296.282227,4298.589844,4286.153809,4431.666504,4475.256348,4352.692383,4415.641113,1738.000000,0.000000,8.000000,,,,0.000000,2.000000,2.000000,0.000000,2.000000,2.000000,2.000000,0.000000,2.000000,4.000000,4.000000,4.000000,4.000000,2.000000,4.000000,16.666666,,,,,,,,,,,,,,,,
1732082853.382853,1732082853.383609,77.000000,0.000000,4337.820313,4265.256348,4316.282227,4307.948730,4292.948730,4284.615234,4346.153809,4298.333496,4298.077148,4283.589844,4428.461426,4475.512695,4345.897461,4413.205078,1663.000000,0.000000,8.000000,,,,0.000000,2.000000,2.000000,0.000000,2.000000,2.000000,2.000000,0.000000,2.000000,4.000000,4.000000,4.000000,4.000000,2.000000,4.000000,16.666666,,,,,,,,,,,,,,,,
1732082853.390661,1732082853.391218,78.000000,0.000000,4335.128418,4264.230957,4314.743652,4304.487305,4296.666504,4292.436035,4347.051270,4300.256348,4297.692383,4284.743652,4425.769043,4470.384766,4339.615234,4404.743652,1379.000000,0.000000,8.000000,,,,0.000000,2.000000,2.000000,0.000000,2.000000,2.000000,2.000000,0.000000,2.000000,4.000000,4.000000,4.000000,4.000000,2.000000,4.000000,16.666666,1.000000,16.666666,2.000000,2.000000,0.000000,2.000000,2.000000,2.000000,0.000000,2.000000,4.000000,4.000000,4.000000,4.000000,2.000000,4.000000
1732082853.398470,1732082853.399026,79.000000,0.000000,4329.230957,4265.000000,4314.743652,4302.948730,4295.769043,4297.948730,4347.307617,4299.743652,4299.102539,4284.743652,4423.205078,4460.384766,4338.717773,4399.487305,1508.000000,0.000000,8.000000,,,,0.000000,2.000000,2.000000,0.000000,2.000000,2.000000,2.000000,0.000000,2.000000,4.000000,4.000000,4.000000,4.000000,2.000000,4.000000,16.666666,,,,,,,,,,,,,,,,
1732082853.406278,1732082853.406734,80.000000,0.000000,4329.487305,4265.384766,4313.077148,4307.692383,4293.333496,4294.743652,4343.846191,4297.692383,4298.205078,4289.102539,4426.410156,4461.153809,4347.563965,4406.922852,1738.000000,0.000000,8.000000,,,,0.000000,2.000000,2.000000,0.000000,2.000000,2.000000,2.000000,0.000000,2.000000,4.000000,4.000000,4.000000,4.000000,2.000000,4.000000,16.666666,,,,,,,,,,,,,,,,
1732082853.414086,1732082853.414542,81.000000,0.000000,4336.282227,4266.666504,4311.025879,4308.717773,4302.051270,4287.051270,4340.256348,4296.025879,4294.102539,4294.487305,4433.589844,4470.128418,4354.230957,4414.102539,1663.000000,0.000000,8.000000,,,,0.000000,2.000000,2.000000,0.000000,2.000000,2.000000,2.000000,0.000000,2.000000,4.000000,4.000000,4.000000,4.000000,2.000000,4.000000,16.666666,,,,,,,,,,,,,,,,
1732082853.421894,1732082853.422550,82.000000,0.000000,4339.615234,4272.051270,4312.051270,4308.461426,4308.205078,4287.179688,4342.179688,4293.461426,4291.410156,4293.717773,4434.743652,4473.846191,4352.692383,4412.820313,1379.000000,0.000000,8.000000,,,,0.000000,2.000000,2.000000,0.000000,2.000000,2.000000,2.000000,0.000000,2.000000,4.000000,4.000000,4.000000,4.000000,2.000000,4.000000,16.666666,,,,,,,,,,,,,,,,
1732082853.429703,1732082853.430359,83.000000,0.000000,4342.051270,4278.846191,4312.179688,4313.333496,4297.307617,4296.666504,4345.000000,4294.102539,4295.769043,4291.410156,4435.256348,4472.179688,4352.307617,4412.820313,1508.000000,0.000000,8.000000,,,,0.000000,2.000000,2.000000,0.000000,2.000000,2.000000,2.000000,0.000000,2.000000,4.000000,4.000000,4.000000,4.000000,2.000000,4.000000,16.666666,,,,,,,,,,,,,,,,
1732082853.437511,1732082853.438267,84.000000,0.000000,4341.153809,4277.307617,4309.230957,4314.871582,4291.025879,4303.589844,4344.871582,4306.666504,4306.282227,4294.230957,4438.846191,4467.436035,4351.538574,4412.563965,1738.000000,0.000000,8.000000,,,,0.000000,2.000000,2.000000,0.000000,2.000000,2.000000,2.000000,0.000000,2.000000,4.000000,4.000000,4.000000,4.000000,2.000000,4.000000,16.666666,,,,,,,,,,,,,,,,
1732082853.445319,1732082853.446075,85.000000,0.000000,4333.846191,4268.717773,4306.025879,4313.077148,4298.846191,4306.025879,4346.025879,4306.538574,4305.512695,4295.256348,4435.641113,4460.897461,4345.769043,4403.461426,1663.000000,0.000000,8.000000,,,,0.000000,2.000000,2.000000,0.000000,2.000000,2.000000,2.000000,0.000000,2.000000,4.000000,4.000000,4.000000,4.000000,2.000000,4.000000,16.666666,,,,,,,,,,,,,,,,
1732082853.453128,1732082853.454083,86.000000,0.000000,4327.563965,4263.846191,4304.615234,4310.256348,4301.538574,4302.820313,4344.102539,4294.487305,4301.025879,4298.205078,4429.615234,4457.179688,4342.820313,4394.102539,1379.000000,0.000000,8.000000,,,,0.000000,2.000000,2.000000,0.000000,2.000000,2.000000,2.000000,0.000000,2.000000,4.000000,4.000000,4.000000,4.000000,2.000000,4.000000,16.666666,,,,,,,,,,,,,,,,
1732082853.460936,1732082853.461891,87.000000,0.000000,4321.025879,4263.974121,4308.974121,4303.974121,4296.794922,4298.974121,4346.153809,4309.358887,4311.666504,4298.461426,4427.436035,4457.692383,4337.563965,4391.153809,1508.000000,0.000000,8.000000,,,,0.000000,2.000000,2.000000,0.000000,2.000000,2.000000,2.000000,0.000000,2.000000,4.000000,4.000000,4.000000,4.000000,2.000000,4.000000,16.666666,,,,,,,,,,,,,,,,
1732082853.468744,1732082853.469799,88.000000,0.000000,4320.384766,4264.358887,4310.384766,4305.512695,4298.077148,4300.641113,4348.205078,4320.769043,4312.948730,4295.128418,4427.436035,4458.974121,4333.846191,4391.025879,1738.000000,0.000000,8.000000,,,,0.000000,2.000000,2.000000,0.000000,2.000000,2.000000,2.000000,0.000000,2.000000,4.000000,4.000000,4.000000,4.000000,2.000000,4.000000,16.666666,,,,,,,,,,,,,,,,
1732082853.476552,1732082853.477608,89.000000,0.000000,4328.974121,4266.410156,4307.692383,4311.282227,4293.846191,4300.000000,4345.897461,4299.615234,4298.333496,4299.230957,4430.769043,4460.769043,4342.179688,4397.436035,1663.000000,0.000000,8.000000,,,,0.000000,2.000000,2.000000,0.000000,2.000000,2.000000,2.000000,0.000000,2.000000,4.000000,4.000000,4.000000,4.000000,2.000000,4.000000,16.666666,,,,,,,,,,,,,,,,
1732082853.484361,1732082853.485216,90.000000,0.000000,4329.871582,4267.820313,4307.563965,4308.333496,4293.077148,4294.230957,4339.743652,4288.333496,4294.358887,4299.615234,4431.794922,4461.282227,4345.512695,4403.333496,1379.000000,0.000000,8.000000,,,,0.000000,2.000000,2.000000,0.000000,2.000000,2.000000,2.000000,0.000000,2.000000,4.000000,4.000000,4.000000,4.000000,2.000000,4.000000,16.666666,,,,,,,,,,,,,,,,
1732082853.492169,1732082853.493024,91.000000,0.000000,4321.666504,4268.974121,4312.820313,4305.256348,4309.871582,4292.820313,4339.102539,4295.384766,4295.897461,4288.846191,4425.769043,4460.256348,4340.128418,4399.230957,1508.000000,0.000000,8.000000,,,,0.000000,2.000000,2.000000,0.000000,2.000000,2.000000,2.000000,0.000000,2.000000,4.000000,4.000000,4.000000,4.000000,2.000000,4.000000,16.666666,,,,,,,,,,,,,,,,
1732082853.499977,1732082853.500732,92.000000,0.000000,4325.512695,4275.384766,4314.487305,4309.358887,4308.846191,4293.717773,4340.769043,4291.153809,4291.538574,4285.384766,4422.051270,4463.205078,4340.128418,4398.974121,1738.000000,0.000000,8.000000,,,,0.000000,2.000000,2.000000,0.000000,2.000000,2.000000,2.000000,0.000000,2.000000,4.000000,4.000000,4.000000,4.000000,2.000000,4.000000,16.666666,,,,,,,,,,,,,,,,
1732082853.507785,1732082853.508541,93.000000,0.000000,4332.307617,4275.128418,4313.974121,4309.743652,4284.102539,4295.897461,4343.974121,4292.436035,4293.717773,4292.820313,4426.922852,4467.436035,4341.410156,4403.461426,1663.000000,0.000000,8.000000,,,,0.000000,2.000000,2.000000,0.000000,2.000000,2.000000,2.000000,0.000000,2.000000,4.000000,4.000000,4.000000,4.000000,2.000000,4.000000,16.666666,,,,,,,,,,,,,,,,
1732082853.515594,1732082853.516549,94.000000,0.000000,4326.922852,4268.974121,4315.128418,4308.974121,4283.846191,4300.128418,4344.230957,4302.820313,4299.871582,4292.436035,4427.948730,4463.846191,4339.102539,4401.666504,1379.000000,0.000000,8.000000,,,,0.000000,2.000000,2.000000,0.000000,2.000000,2.000000,2.000000,0.000000,2.000000,4.000000,4.000000,4.000000,4.000000,2.000000,4.000000,16.666666,,,,,,,,,,,,,,,,
1732082853.523402,1732082853.524357,95.000000,0.000000,4322.051270,4271.538574,4317.179688,4313.205078,4301.666504,4300.512695,4343.974121,4302.692383,4298.461426,4283.461426,4422.820313,4458.077148,4337.820313,4396.410156,1508.000000,0.000000,8.000000,,,,0.000000,2.000000,2.000000,0.000000,2.000000,2.000000,2.000000,0.000000,2.000000,4.000000,4.000000,4.000000,4.000000,2.000000,4.000000,16.666666,,,,,,,,,,,,,,,,
1732082853.531210,1732082853.532265,96.000000,0.000000,4321.794922,4271.153809,4318.846191,4311.153809,4297.051270,4298.461426,4347.179688,4303.333496,4300.128418,4284.102539,4422.563965,4464.743652,4336.794922,4392.051270,1738.000000,0.000000,8.000000,,,,0.000000,2.000000,2.000000,0.000000,2.000000,2.000000,2.000000,0.000000,2.000000,4.000000,4.000000,4.000000,4.000000,2.000000,4.000000,16.666666,,,,,,,,,,,,,,,,
1732082853.539018,1732082853.540073,97.000000,0.000000,4318.205078,4263.205078,4317.179688,4304.102539,4289.743652,4297.436035,4345.512695,4306.666504,4303.974121,4291.153809,4428.333496,4473.846191,4337.307617,4388.974121,1663.000000,0.000000,8.000000,,,,0.000000,2.000000,2.000000,0.000000,2.000000,2.000000,2.000000,0.000000,2.000000,4.000000,4.000000,4.000000,4.000000,2.000000,4.000000,16.666666,,,,,,,,,,,,,,,,
1732082853.546827,1732082853.548081,98.000000,0.000000,4317.051270,4270.897461,4314.615234,4306.538574,4297.436035,4295.256348,4340.512695,4305.000000,4302.179688,4293.717773,4429.358887,4473.205078,4337.436035,4390.512695,1379.000000,0.000000,8.000000,,,,0.000000,2.000000,2.000000,0.000000,2.000000,2.000000,2.000000,0.000000,2.000000,4.000000,4.000000,4.000000,4.000000,2.000000,4.000000,16.666666,,,,,,,,,,,,,,,,
1732082853.554635,1732082853.555889,99.000000,0.000000,4319.102539,4279.358887,4315.769043,4313.589844,4295.897461,4294.871582,4342.948730,4304.102539,4300.512695,4294.358887,4426.153809,4468.205078,4337.179688,4391.794922,1508.000000,0.000000,8.000000,,,,0.000000,2.000000,2.000000,0.000000,2.000000,2.000000,2.000000,0.000000,2.000000,4.000000,4.000000,4.000000,4.000000,2.000000,4.000000,16.666666,,,,,,,,,,,,,,,,
1732082853.562443,1732082853.563798,100.000000,0.000000,4318.461426,4271.538574,4320.128418,4311.922852,4288.589844,4296.922852,4346.025879,4302.692383,4300.000000,4296.153809,4428.077148,4463.461426,4342.563965,4389.743652,1738.000000,0.000000,8.000000,,,,0.000000,2.000000,2.000000,0.000000,2.000000,2.000000,2.000000,0.000000,2.000000,4.000000,4.000000,4.000000,4.000000,2.000000,4.000000,16.666666,,,,,,,,,,,,,,,,
1732082853.570251,1732082853.571606,101.000000,0.000000,4318.717773,4269.871582,4319.358887,4305.897461,4299.102539,4297.179688,4340.000000,4298.077148,4296.153809,4289.487305,4428.717773,4457.051270,4342.179688,4388.974121,1663.000000,0.000000,8.000000,,,,0.000000,2.000000,2.000000,0.000000,2.000000,2.000000,2.000000,0.000000,2.000000,4.000000,4.000000,4.000000,4.000000,2.000000,4.000000,16.666666,,,,,,,,,,,,,,,,
1732082853.578060,1732082853.579614,102.000000,0.000000,4321.025879,4276.666504,4318.333496,4305.769043,4307.948730,4296.282227,4339.487305,4294.358887,4293.974121,4282.436035,4421.794922,4457.820313,4335.000000,4391.282227,1379.000000,0.000000,8.000000,,,,0.000000,2.000000,2.000000,0.000000,2.000000,2.000000,2.000000,0.000000,2.000000,4.000000,4.000000,4.000000,4.000000,2.000000,4.000000,16.666666,,,,,,,,,,,,,,,,
1732082853.585868,1732082853.587422,103.000000,0.000000,4321.025879,4273.461426,4318.974121,4307.820313,4289.871582,4294.871582,4342.307617,4297.563965,4299.358887,4292.563965,4423.589844,4469.358887,4337.179688,4393.205078,1508.000000,0.000000,8.000000,,,,0.000000,2.000000,2.000000,0.000000,2.000000,2.000000,2.000000,0.000000,2.000000,4.000000,4.000000,4.000000,4.000000,2.000000,4.000000,16.666666,,,,,,,,,,,,,,,,
1732082853.593676,1732082853.595330,104.000000,0.000000,4316.025879,4266.538574,4319.615234,4305.384766,4273.846191,4296.922852,4344.102539,4308.461426,4305.897461,4300.128418,4430.128418,4477.051270,4339.230957,4390.897461,1738.000000,0.000000,8.000000,,,,0.000000,2.000000,2.000000,0.000000,2.000000,2.000000,2.000000,0.000000,2.000000,4.000000,4.000000,4.000000,4.000000,2.000000,4.000000,16.666666,,,,,,,,,,,,,,,,
1732082853.601484,1732082853.603138,105.000000,0.000000,4310.641113,4268.589844,4318.077148,4303.717773,4284.743652,4302.307617,4343.974121,4312.563965,4306.025879,4293.461426,4428.974121,4474.358887,4332.948730,4388.333496,1663.000000,0.000000,8.000000,,,,0.000000,2.000000,2.000000,0.000000,2.000000,2.000000,2.000000,0.000000,2.000000,4.000000,4.000000,4.000000,4.000000,2.000000,4.000000,16.666666,,,,,,,,,,,,,,,,
1732082853.609293,1732082853.611146,106.000000,0.000000,4306.922852,4270.897461,4317.179688,4304.102539,4290.769043,4301.794922,4346.282227,4311.025879,4307.179688,4293.461426,4428.717773,4470.384766,4334.615234,4391.025879,1379.000000,0.000000,8.000000,,,,0.000000,2.000000,2.000000,0.000000,2.000000,2.000000,2.000000,0.000000,2.000000,4.000000,4.000000,4.000000,4.000000,2.000000,4.000000,16.666666,,,,,,,,,,,,,,,,
1732082853.617101,1732082853.618954,107.000000,0.000000,4311.282227,4267.436035,4316.538574,4304.230957,4278.077148,4297.051270,4344.487305,4314.358887,4310.000000,4302.179688,4435.384766,4476.025879,4343.333496,4395.769043,1508.000000,0.000000,8.000000,,,,0.000000,2.000000,2.000000,0.000000,2.000000,2.000000,2.000000,0.000000,2.000000,4.000000,4.000000,4.000000,4.000000,2.000000,4.000000,16.666666,,,,,,,,,,,,,,,,
1732082853.624909,1732082853.626863,108.000000,0.000000,4315.128418,4267.948730,4315.769043,4300.384766,4285.000000,4296.153809,4339.871582,4310.128418,4306.025879,4300.512695,4433.333496,4476.666504,4342.563965,4393.205078,1738.000000,0.000000,8.000000,,,,0.000000,2.000000,2.000000,0.000000,2.000000,2.000000,2.000000,0.000000,2.000000,4.000000,4.000000,4.000000,4.000000,2.000000,4.000000,16.666666,,,,,,,,,,,,,,,,
1732082853.632717,1732082853.634671,109.000000,0.000000,4312.179688,4272.820313,4315.512695,4298.077148,4299.871582,4296.922852,4336.666504,4295.641113,4301.025879,4294.487305,4424.871582,4463.461426,4336.922852,4392.051270,1663.000000,0.000000,8.000000,,,,0.000000,2.000000,2.000000,0.000000,2.000000,2.000000,2.000000,0.000000,2.000000,4.000000,4.000000,4.000000,4.000000,2.000000,4.000000,16.666666,,,,,,,,,,,,,,,,
1732082853.640526,1732082853.642679,110.000000,0.000000,4313.589844,4271.666504,4316.410156,4297.051270,4282.948730,4296.922852,4337.307617,4293.589844,4306.153809,4298.205078,4425.000000,4458.333496,4339.230957,4393.717773,1379.000000,0.000000,8.000000,,,,0.000000,2.000000,2.000000,0.000000,2.000000,2.000000,2.000000,0.000000,2.000000,4.000000,4.000000,4.000000,4.000000,2.000000,4.000000,16.666666,,,,,,,,,,,,,,,,
1732082853.648334,1732082853.650487,111.000000,0.000000,4315.256348,4267.820313,4318.846191,4295.641113,4265.769043,4296.794922,4338.205078,4307.051270,4312.820313,4307.179688,4430.897461,4468.077148,4347.820313,4392.692383,1508.000000,0.000000,8.000000,,,,0.000000,2.000000,2.000000,0.000000,2.000000,2.000000,2.000000,0.000000,2.000000,4.000000,4.000000,4.000000,4.000000,2.000000,4.000000,16.666666,,,,,,,,,,,,,,,,
1732082853.656142,1732082853.658395,112.000000,0.000000,4311.282227,4273.205078,4318.974121,4300.128418,4280.897461,4296.538574,4338.717773,4309.102539,4309.358887,4307.820313,4429.871582,4468.333496,4347.436035,4393.077148,1738.000000,0.000000,8.000000,,,,0.000000,2.000000,2.000000,0.000000,2.000000,2.000000,2.000000,0.000000,2.000000,4.000000,4.000000,4.000000,4.000000,2.000000,4.000000,16.666666,,,,,,,,,,,,,,,,
1732082853.663951,1732082853.666203,113.000000,0.000000,4308.589844,4278.205078,4316.922852,4302.948730,4288.077148,4305.000000,4342.307617,4305.256348,4307.820313,4303.846191,4426.025879,4463.974121,4338.589844,4388.461426,1663.000000,0.000000,8.000000,,,,0.000000,2.000000,2.000000,0.000000,2.000000,2.000000,2.000000,0.000000,2.000000,4.000000,4.000000,4.000000,4.000000,2.000000,4.000000,16.666666,,,,,,,,,,,,,,,,
1732082853.671759,1732082853.673812,114.000000,0.000000,4306.282227,4274.358887,4315.512695,4298.974121,4275.256348,4312.820313,4344.487305,4316.666504,4316.282227,4305.128418,4425.256348,4469.230957,4333.846191,4378.717773,1379.000000,0.000000,8.000000,,,,0.000000,2.000000,2.000000,0.000000,2.000000,2.000000,2.000000,0.000000,2.000000,4.000000,4.000000,4.000000,4.000000,2.000000,4.000000,16.666666,,,,,,,,,,,,,,,,
1732082853.679567,1732082853.681620,115.000000,0.000000,4302.948730,4271.538574,4315.641113,4296.282227,4287.051270,4304.230957,4341.153809,4324.871582,4316.538574,4301.794922,4420.000000,4468.333496,4332.051270,4373.461426,1508.000000,0.000000,8.000000,,,,0.000000,2.000000,2.000000,0.000000,2.000000,2.000000,2.000000,0.000000,2.000000,4.000000,4.000000,4.000000,4.000000,2.000000,4.000000,16.666666,,,,,,,,,,,,,,,,
1732082853.687375,1732082853.689328,116.000000,0.000000,4303.846191,4276.410156,4315.000000,4299.487305,4300.512695,4298.974121,4338.077148,4317.051270,4309.487305,4298.589844,4419.358887,4459.743652,4334.358887,4378.333496,1738.000000,0.000000,8.000000,,,,0.000000,2.000000,2.000000,0.000000,2.000000,2.000000,2.000000,0.000000,2.000000,4.000000,4.000000,4.000000,4.000000,2.000000,4.000000,16.666666,,,,,,,,,,,,,,,,
1732082853.695184,1732082853.697136,117.000000,0.000000,4305.641113,4280.897461,4316.538574,4300.000000,4282.563965,4304.358887,4337.820313,4306.410156,4310.512695,4306.794922,4426.666504,4459.871582,4340.384766,4383.205078,1663.000000,0.000000,8.000000,,,,0.000000,2.000000,2.000000,0.000000,2.000000,2.000000,2.000000,0.000000,2.000000,4.000000,4.000000,4.000000,4.000000,2.000000,4.000000,16.666666,,,,,,,,,,,,,,,,
1732082853.702992,1732082853.704745,118.000000,0.000000,4305.128418,4281.922852,4315.384766,4299.487305,4268.974121,4302.307617,4331.794922,4299.487305,4311.153809,4308.461426,4429.358887,4467.692383,4342.307617,4386.025879,1379.000000,0.000000,8.000000,,,,0.000000,2.000000,2.000000,0.000000,2.000000,2.000000,2.000000,0.000000,2.000000,4.000000,4.000000,4.000000,4.000000,2.000000,4.000000,16.666666,,,,,,,,,,,,,,,,
1732082853.710800,1732082853.712553,119.000000,0.000000,4311.153809,4284.358887,4315.512695,4302.051270,4281.922852,4293.974121,4328.205078,4296.666504,4302.436035,4299.230957,4427.179688,4472.692383,4342.179688,4394.102539,1508.000000,0.000000,8.000000,,,,0.000000,2.000000,2.000000,0.000000,2.000000,2.000000,2.000000,0.000000,2.000000,4.000000,4.000000,4.000000,4.000000,2.000000,4.000000,16.666666,,,,,,,,,,,,,,,,
1732082853.718609,1732082853.720261,120.000000,0.000000,4322.307617,4290.641113,4317.692383,4306.794922,4295.256348,4291.538574,4329.615234,4301.153809,4299.743652,4300.512695,4429.615234,4476.410156,4346.794922,4402.051270,1738.000000,0.000000,8.000000,,,,0.000000,2.000000,2.000000,0.000000,2.000000,2.000000,2.000000,0.000000,2.000000,4.000000,4.000000,4.000000,4.000000,2.000000,4.000000,16.666666,,,,,,,,,,,,,,,,
1732082853.726417,1732082853.728070,121.000000,0.000000,4325.000000,4296.410156,4316.794922,4312.307617,4286.153809,4295.000000,4332.692383,4302.820313,4302.948730,4306.538574,4434.230957,4476.410156,4351.410156,4404.487305,1663.000000,0.000000,8.000000,,,,0.000000,2.000000,2.000000,0.000000,2.000000,2.000000,2.000000,0.000000,2.000000,4.000000,4.000000,4.000000,4.000000,2.000000,4.000000,16.666666,,,,,,,,,,,,,,,,
1732082853.734225,1732082853.735678,122.000000,0.000000,4316.922852,4296.538574,4311.794922,4312.179688,4272.692383,4299.615234,4333.333496,4301.538574,4302.179688,4303.717773,4433.717773,4473.077148,4354.102539,4400.641113,1379.000000,0.000000,8.000000,,,,0.000000,2.000000,2.000000,0.000000,2.000000,2.000000,2.000000,0.000000,2.000000,4.000000,4.000000,4.000000,4.000000,2.000000,4.000000,16.666666,,,,,,,,,,,,,,,,
1732082853.742033,1732082853.743486,123.000000,0.000000,4304.487305,4286.922852,4312.436035,4300.512695,4278.333496,4302.948730,4337.307617,4315.256348,4310.000000,4301.794922,4431.025879,4472.307617,4350.256348,4391.922852,1508.000000,0.000000,8.000000,,,,0.000000,2.000000,2.000000,0.000000,2.000000,2.000000,2.000000,0.000000,2.000000,4.000000,4.000000,4.000000,4.000000,2.000000,4.000000,16.666666,,,,,,,,,,,,,,,,
1732082853.749842,1732082853.751195,124.000000,0.000000,4299.358887,4284.871582,4314.871582,4290.769043,4295.769043,4308.461426,4339.102539,4328.333496,4316.922852,4300.769043,4426.410156,4470.384766,4340.512695,4385.641113,1738.000000,0.000000,8.000000,,,,0.000000,2.000000,2.000000,0.000000,2.000000,2.000000,2.000000,0.000000,2.000000,4.000000,4.000000,4.000000,4.000000,2.000000,4.000000,16.666666,,,,,,,,,,,,,,,,
1732082853.757650,1732082853.759003,125.000000,0.000000,4304.871582,4296.282227,4315.512695,4298.589844,4295.000000,4313.333496,4337.948730,4316.282227,4307.051270,4298.205078,4426.666504,4464.230957,4343.205078,4386.282227,1663.000000,0.000000,8.000000,,,,0.000000,2.000000,2.000000,0.000000,2.000000,2.000000,2.000000,0.000000,2.000000,4.000000,4.000000,4.000000,4.000000,2.000000,4.000000,16.666666,,,,,,,,,,,,,,,,
1732082853.765458,1732082853.766611,126.000000,0.000000,4311.025879,4303.077148,4316.410156,4309.102539,4291.153809,4306.153809,4335.384766,4298.846191,4302.307617,4301.794922,4428.589844,4458.333496,4352.563965,4390.769043,1379.000000,0.000000,8.000000,,,,0.000000,2.000000,2.000000,0.000000,2.000000,2.000000,2.000000,0.000000,2.000000,4.000000,4.000000,4.000000,4.000000,2.000000,4.000000,16.666666,,,,,,,,,,,,,,,,
1732082853.773266,1732082853.774419,127.000000,0.000000,4312.179688,4304.743652,4316.153809,4307.051270,4301.025879,4292.307617,4329.102539,4295.256348,4303.974121,4302.820313,4428.589844,4458.333496,4352.307617,4392.948730,8.000000,0.000000,8.000000,,,,0.000000,2.000000,2.000000,0.000000,2.000000,2.000000,2.000000,0.000000,2.000000,4.000000,4.000000,4.000000,4.000000,2.000000,4.000000,16.666666,,,,,,,,,,,,,,,,
1732082853.781075,1732082853.782128,0.000000,0.000000,4312.436035,4310.641113,4316.025879,4303.974121,4294.871582,4284.871582,4325.256348,4297.948730,4300.384766,4300.000000,4436.538574,4459.743652,4353.717773,4395.897461,0.000000,0.000000,8.000000,,,,0.000000,2.000000,2.000000,0.000000,2.000000,2.000000,2.000000,0.000000,2.000000,4.000000,4.000000,4.000000,4.000000,2.000000,4.000000,16.666666,,,,,,,,,,,,,,,,
1732082853.788883,1732082853.789936,1.000000,0.000000,4313.717773,4312.563965,4317.051270,4309.102539,4275.897461,4281.538574,4327.948730,4301.025879,4302.051270,4304.487305,4444.871582,4459.743652,4360.256348,4398.717773,1317.000000,0.000000,8.000000,,,,0.000000,2.000000,2.000000,0.000000,2.000000,2.000000,2.000000,0.000000,2.000000,4.000000,4.000000,4.000000,4.000000,2.000000,4.000000,16.666666,,,,,,,,,,,,,,,,
1732082853.796691,1732082853.797944,2.000000,0.000000,4316.282227,4310.512695,4316.538574,4313.974121,4276.410156,4278.846191,4327.563965,4303.974121,4305.000000,4307.692383,4443.205078,4459.871582,4358.589844,4398.589844,1230.000000,0.000000,8.000000,,,,0.000000,2.000000,2.000000,0.000000,2.000000,2.000000,2.000000,0.000000,2.000000,4.000000,4.000000,4.000000,4.000000,2.000000,4.000000,16.666666,,,,,,,,,,,,,,,,
1732082853.804499,1732082853.805752,3.000000,0.000000,4321.538574,4315.000000,4315.128418,4315.512695,4283.333496,4281.282227,4325.000000,4303.205078,4296.794922,4302.692383,4438.461426,4458.846191,4355.769043,4398.333496,1192.000000,0.000000,8.000000,,,,0.000000,2.000000,2.000000,0.000000,2.000000,2.000000,2.000000,0.000000,2.000000,4.000000,4.000000,4.000000,4.000000,2.000000,4.000000,16.666666,,,,,,,,,,,,,,,,
1732082853.812308,1732082853.813660,4.000000,0.000000,4319.487305,4315.384766,4317.948730,4314.871582,4281.282227,4292.436035,4330.384766,4305.256348,4295.256348,4297.436035,4435.512695,4457.820313,4356.282227,4394.102539,1230.000000,0.000000,8.000000,,,,0.000000,2.000000,2.000000,0.000000,2.000000,2.000000,2.000000,0.000000,2.000000,4.000000,4.000000,4.000000,4.000000,2.000000,4.000000,16.666666,,,,,,,,,,,,,,,,
1732082853.820116,1732082853.821468,5.000000,0.000000,4308.589844,4310.897461,4315.641113,4310.769043,4298.461426,4302.820313,4332.307617,4312.307617,4306.282227,4297.179688,4431.025879,4457.563965,4350.128418,4387.307617,1080.000000,0.000000,8.000000,,,,0.000000,2.000000,2.000000,0.000000,2.000000,2.000000,2.000000,0.000000,2.000000,4.000000,4.000000,4.000000,4.000000,2.000000,4.000000,16.666666,,,,,,,,,,,,,,,,
1732082853.827924,1732082853.829476,6.000000,0.000000,4304.230957,4312.820313,4310.256348,4309.871582,4307.563965,4302.307617,4329.358887,4313.717773,4304.487305,4297.307617,4427.948730,4459.615234,4344.871582,4384.358887,46.000000,0.000000,8.000000,,,,0.000000,2.000000,2.000000,0.000000,2.000000,2.000000,2.000000,0.000000,2.000000,4.000000,4.000000,4.000000,4.000000,2.000000,4.000000,16.666666,,,,,,,,,,,,,,,,
1732082853.835732,1732082853.837285,7.000000,0.000000,4311.025879,4316.410156,4312.179688,4315.128418,4286.025879,4296.794922,4327.948730,4305.384766,4295.512695,4297.948730,4429.743652,4461.025879,4348.974121,4388.461426,1197.000000,0.000000,8.000000,,,,0.000000,2.000000,2.000000,0.000000,2.000000,2.000000,2.000000,0.000000,2.000000,4.000000,4.000000,4.000000,4.000000,2.000000,4.000000,16.666666,,,,,,,,,,,,,,,,
1732082853.843541,1732082853.845193,8.000000,0.000000,4316.282227,4316.538574,4318.333496,4317.948730,4283.589844,4296.410156,4328.589844,4298.717773,4296.410156,4299.743652,4431.922852,4462.307617,4355.000000,4397.179688,1361.000000,0.000000,8.000000,,,,0.000000,2.000000,2.000000,0.000000,2.000000,2.000000,2.000000,0.000000,2.000000,4.000000,4.000000,4.000000,4.000000,2.000000,4.000000,16.666666,,,,,,,,,,,,,,,,
1732082853.851349,1732082853.853001,9.000000,0.000000,4317.179688,4317.563965,4314.358887,4318.717773,4297.948730,4295.897461,4325.641113,4300.897461,4300.256348,4302.436035,4436.794922,4470.000000,4355.641113,4402.692383,1503.000000,0.000000,8.000000,,,,0.000000,2.000000,2.000000,0.000000,2.000000,2.000000,2.000000,0.000000,2.000000,4.000000,4.000000,4.000000,4.000000,2.000000,4.000000,16.666666,,,,,,,,,,,,,,,,
1732082853.859157,1732082853.861009,10.000000,0.000000,4317.436035,4318.205078,4309.358887,4318.333496,4290.384766,4288.077148,4324.358887,4304.230957,4300.769043,4305.256348,4443.077148,4477.307617,4353.461426,4402.436035,1371.000000,0.000000,8.000000,,,,0.000000,2.000000,2.000000,0.000000,2.000000,2.000000,2.000000,0.000000,2.000000,4.000000,4.000000,4.000000,4.000000,2.000000,4.000000,16.666666,,,,,,,,,,,,,,,,
1732082853.866965,1732082853.868817,11.000000,0.000000,4317.307617,4315.512695,4312.179688,4313.846191,4278.333496,4279.615234,4321.922852,4304.743652,4303.974121,4307.820313,4444.230957,4474.871582,4353.846191,4404.487305,1506.000000,0.000000,8.000000,,,,0.000000,2.000000,2.000000,0.000000,2.000000,2.000000,2.000000,0.000000,2.000000,4.000000,4.000000,4.000000,4.000000,2.000000,4.000000,16.666666,,,,,,,,,,,,,,,,
1732082853.874774,1732082853.876525,12.000000,0.000000,4316.538574,4316.025879,4314.743652,4311.153809,4279.230957,4282.948730,4321.025879,4308.461426,4309.358887,4311.410156,4444.358887,4473.333496,4355.897461,4410.000000,1735.000000,0.000000,8.000000,,,,0.000000,2.000000,2.000000,0.000000,2.000000,2.000000,2.000000,0.000000,2.000000,4.000000,4.000000,4.000000,4.000000,2.000000,4.000000,16.666666,,,,,,,,,,,,,,,,
1732082853.882582,1732082853.884334,13.000000,0.000000,4314.487305,4319.615234,4315.256348,4312.436035,4288.589844,4292.051270,4321.794922,4312.307617,4306.794922,4309.743652,4444.487305,4475.128418,4352.563965,4407.051270,1661.000000,0.000000,8.000000,,,,0.000000,2.000000,2.000000,0.000000,2.000000,2.000000,2.000000,0.000000,2.000000,4.000000,4.000000,4.000000,4.000000,2.000000,4.000000,16.666666,,,,,,,,,,,,,,,,
1732082853.890390,1732082853.892342,14.000000,0.000000,4309.230957,4317.051270,4314.743652,4310.641113,4308.717773,4296.538574,4324.102539,4313.077148,4304.871582,4302.563965,4437.051270,4467.692383,4345.000000,4396.153809,1371.000000,0.000000,8.000000,,,,0.000000,2.000000,2.000000,0.000000,2.000000,2.000000,2.000000,0.000000,2.000000,4.000000,4.000000,4.000000,4.000000,2.000000,4.000000,16.666666,1.000000,16.666666,2.000000,2.000000,0.000000,2.000000,2.000000,2.000000,0.000000,2.000000,4.000000,4.000000,4.000000,4.000000,2.000000,4.000000
1732082853.898198,1732082853.900150,15.000000,0.000000,4304.743652,4310.384766,4312.436035,4307.948730,4306.153809,4302.563965,4327.820313,4312.051270,4306.794922,4299.230957,4425.897461,4457.948730,4340.769043,4389.102539,1506.000000,0.000000,8.000000,,,,0.000000,2.000000,2.000000,0.000000,2.000000,2.000000,2.000000,0.000000,2.000000,4.000000,4.000000,4.000000,4.000000,2.000000,4.000000,16.666666,,,,,,,,,,,,,,,,
1732082853.906007,1732082853.908058,16.000000,0.000000,4305.769043,4309.102539,4312.563965,4307.436035,4280.384766,4306.282227,4329.358887,4310.769043,4305.769043,4299.230957,4426.794922,4457.436035,4337.436035,4390.128418,0.000000,0.000000,8.000000,,,,0.000000,2.000000,2.000000,0.000000,2.000000,2.000000,2.000000,0.000000,2.000000,4.000000,4.000000,4.000000,4.000000,2.000000,4.000000,16.666666,,,,,,,,,,,,,,,,
1732082853.913815,1732082853.915866,17.000000,0.000000,4308.333496,4313.717773,4315.384766,4310.512695,4284.487305,4297.692383,4328.974121,4315.384766,4307.948730,4297.820313,4436.153809,4464.230957,4335.128418,4392.307617,0.000000,0.000000,8.000000,,,,0.000000,2.000000,2.000000,0.000000,2.000000,2.000000,2.000000,0.000000,2.000000,4.000000,4.000000,4.000000,4.000000,2.000000,4.000000,16.666666,,,,,,,,,,,,,,,,
1732082853.921623,1732082853.923874,18.000000,0.000000,4307.948730,4317.307617,4315.384766,4312.948730,4297.563965,4294.102539,4325.512695,4317.436035,4311.153809,4299.230957,4440.641113,4471.025879,4343.077148,4396.025879,0.000000,0.000000,8.000000,,,,0.000000,2.000000,2.000000,0.000000,2.000000,2.000000,2.000000,0.000000,2.000000,4.000000,4.000000,4.000000,4.000000,2.000000,4.000000,16.666666,,,,,,,,,,,,,,,,
1732082853.929432,1732082853.931682,19.000000,0.000000,4311.922852,4318.717773,4317.307617,4312.436035,4285.512695,4295.641113,4321.794922,4309.230957,4304.102539,4297.436035,4445.641113,4477.820313,4346.538574,4406.538574,0.000000,0.000000,8.000000,,,,0.000000,2.000000,2.000000,0.000000,2.000000,2.000000,2.000000,0.000000,2.000000,4.000000,4.000000,4.000000,4.000000,2.000000,4.000000,16.666666,,,,,,,,,,,,,,,,
1732082853.937240,1732082853.939591,20.000000,0.000000,4323.205078,4327.563965,4321.666504,4324.230957,4283.589844,4285.769043,4319.871582,4307.436035,4297.051270,4292.692383,4451.538574,4483.205078,4339.230957,4414.230957,0.000000,0.000000,8.000000,,,,0.000000,2.000000,2.000000,0.000000,2.000000,2.000000,2.000000,0.000000,2.000000,4.000000,4.000000,4.000000,4.000000,2.000000,4.000000,16.666666,,,,,,,,,,,,,,,,
1732082853.945048,1732082853.947399,21.000000,0.000000,4327.820313,4328.461426,4322.948730,4332.563965,4289.615234,4279.102539,4321.794922,4311.282227,4301.538574,4301.282227,4455.512695,4482.051270,4346.153809,4415.512695,0.000000,0.000000,8.000000,,,,0.000000,2.000000,2.000000,0.000000,2.000000,2.000000,2.000000,0.000000,2.000000,4.000000,4.000000,4.000000,4.000000,2.000000,4.000000,16.666666,,,,,,,,,,,,,,,,
1732082853.952856,1732082853.955407,22.000000,0.000000,4323.717773,4316.282227,4320.128418,4317.820313,4279.102539,4289.871582,4322.563965,4310.769043,4308.205078,4311.666504,4456.410156,4477.948730,4355.128418,4415.000000,0.000000,0.000000,8.000000,,,,0.000000,2.000000,2.000000,0.000000,2.000000,2.000000,2.000000,0.000000,2.000000,4.000000,4.000000,4.000000,4.000000,2.000000,4.000000,16.666666,,,,,,,,,,,,,,,,
1732082853.960665,1732082853.963215,23.000000,0.000000,4321.282227,4310.897461,4317.051270,4306.666504,4289.102539,4299.487305,4324.871582,4315.512695,4309.615234,4302.948730,4450.000000,4476.153809,4340.384766,4405.769043,0.000000,0.000000,8.000000,,,,0.000000,2.000000,2.000000,0.000000,2.000000,2.000000,2.000000,0.000000,2.000000,4.000000,4.000000,4.000000,4.000000,2.000000,4.000000,16.666666,,,,,,,,,,,,,,,,
1732082853.968473,1732082853.971123,24.000000,0.000000,4312.820313,4313.846191,4314.230957,4312.179688,4310.000000,4300.897461,4325.384766,4319.230957,4308.205078,4290.128418,4432.307617,4467.051270,4323.974121,4388.846191,0.000000,0.000000,8.000000,,,,0.000000,2.000000,2.000000,0.000000,2.000000,2.000000,2.000000,0.000000,2.000000,4.000000,4.000000,4.000000,4.000000,2.000000,4.000000,16.666666,,,,,,,,,,,,,,,,
1732082853.976281,1732082853.978931,25.000000,0.000000,4298.333496,4311.153809,4314.358887,4312.820313,4299.615234,4307.051270,4325.769043,4315.897461,4306.538574,4287.692383,4418.333496,4451.794922,4322.948730,4375.897461,0.000000,0.000000,8.000000,,,,0.000000,2.000000,2.000000,0.000000,2.000000,2.000000,2.000000,0.000000,2.000000,4.000000,4.000000,4.000000,4.000000,2.000000,4.000000,16.666666,,,,,,,,,,,,,,,,
1732082853.984089,1732082853.986939,26.000000,0.000000,4296.282227,4307.051270,4314.230957,4308.846191,4287.948730,4312.563965,4324.102539,4317.692383,4308.717773,4288.077148,4423.333496,4452.692383,4324.102539,4376.282227,0.000000,0.000000,8.000000,,,,0.000000,2.000000,2.000000,0.000000,2.000000,2.000000,2.000000,0.000000,2.000000,4.000000,4.000000,4.000000,4.000000,2.000000,4.000000,16.666666,,,,,,,,,,,,,,,,
1732082853.991898,1732082853.994747,27.000000,0.000000,4299.871582,4307.948730,4312.563965,4306.153809,4290.641113,4311.794922,4323.589844,4320.256348,4310.000000,4289.615234,4431.025879,4461.153809,4324.743652,4379.615234,0.000000,0.000000,8.000000,,,,0.000000,2.000000,2.000000,0.000000,2.000000,2.000000,2.000000,0.000000,2.000000,4.000000,4.000000,4.000000,4.000000,2.000000,4.000000,16.666666,,,,,,,,,,,,,,,,
1732082853.999706,1732082854.002456,28.000000,0.000000,4296.153809,4307.051270,4311.410156,4298.717773,4286.025879,4306.282227,4321.538574,4319.102539,4309.230957,4293.461426,4427.820313,4457.436035,4327.563965,4379.230957,0.000000,0.000000,8.000000,,,,0.000000,2.000000,2.000000,0.000000,2.000000,2.000000,2.000000,0.000000,2.000000,4.000000,4.000000,4.000000,4.000000,2.000000,4.000000,16.666666,,,,,,,,,,,,,,,,
1732082854.007514,1732082854.010264,29.000000,0.000000,4295.256348,4308.333496,4313.846191,4298.846191,4278.717773,4301.922852,4320.641113,4320.512695,4311.794922,4291.538574,4424.871582,4455.897461,4324.358887,4377.563965,0.000000,0.000000,8.000000,,,,0.000000,2.000000,2.000000,0.000000,2.000000,2.000000,2.000000,0.000000,2.000000,4.000000,4.000000,4.000000,4.000000,2.000000,4.000000,16.666666,,,,,,,,,,,,,,,,
1732082854.015323,1732082854.017872,30.000000,0.000000,4299.487305,4317.948730,4317.179688,4309.487305,4277.948730,4301.538574,4318.205078,4317.948730,4313.077148,4290.384766,4427.692383,4462.820313,4317.436035,4379.487305,0.000000,0.000000,8.000000,,,,0.000000,2.000000,2.000000,0.000000,2.000000,2.000000,2.000000,0.000000,2.000000,4.000000,4.000000,4.000000,4.000000,2.000000,4.000000,16.666666,,,,,,,,,,,,,,,,
1732082854.023131,1732082854.025681,31.000000,0.000000,4301.025879,4323.846191,4318.974121,4311.153809,4287.563965,4301.666504,4317.307617,4314.358887,4311.922852,4295.256348,4427.948730,4459.487305,4318.974121,4380.512695,0.000000,0.000000,8.000000,,,,0.000000,2.000000,2.000000,0.000000,2.000000,2.000000,2.000000,0.000000,2.000000,4.000000,4.000000,4.000000,4.000000,2.000000,4.000000,16.666666,,,,,,,,,,,,,,,,
1732082854.030939,1732082854.033389,32.000000,0.000000,4298.461426,4317.948730,4316.025879,4303.589844,4295.641113,4308.333496,4322.179688,4323.077148,4315.000000,4296.282227,4426.794922,4450.769043,4323.461426,4376.153809,0.000000,0.000000,8.000000,,,,0.000000,2.000000,2.000000,0.000000,2.000000,2.000000,2.000000,0.000000,2.000000,4.000000,4.000000,4.000000,4.000000,2.000000,4.000000,16.666666,,,,,,,,,,,,,,,,
1732082854.038747,1732082854.041197,33.000000,0.000000,4295.000000,4309.743652,4313.077148,4299.615234,4282.948730,4316.794922,4326.410156,4329.743652,4316.538574,4291.794922,4424.487305,4453.461426,4318.077148,4371.666504,0.000000,0.000000,8.000000,,,,0.000000,2.000000,2.000000,0.000000,2.000000,2.000000,2.000000,0.000000,2.000000,4.000000,4.000000,4.000000,4.000000,2.000000,4.000000,16.666666,,,,,,,,,,,,,,,,
1732082854.046555,1732082854.048806,34.000000,0.000000,4293.333496,4304.743652,4316.025879,4302.436035,4271.153809,4315.256348,4323.974121,4325.256348,4316.410156,4291.025879,4421.538574,4459.487305,4311.153809,4367.948730,0.000000,0.000000,8.000000,,,,0.000000,2.000000,2.000000,0.000000,2.000000,2.000000,2.000000,0.000000,2.000000,4.000000,4.000000,4.000000,4.000000,2.000000,4.000000,16.666666,,,,,,,,,,,,,,,,
1732082854.054364,1732082854.056614,35.000000,0.000000,4290.897461,4299.230957,4316.922852,4300.128418,4283.205078,4308.461426,4319.871582,4323.717773,4318.461426,4292.820313,4422.692383,4459.743652,4314.230957,4368.461426,0.000000,0.000000,8.000000,,,,0.000000,2.000000,2.000000,0.000000,2.000000,2.000000,2.000000,0.000000,2.000000,4.000000,4.000000,4.000000,4.000000,2.000000,4.000000,16.666666,,,,,,,,,,,,,,,,
1732082854.062172,1732082854.064322,36.000000,0.000000,4288.589844,4296.025879,4314.871582,4299.871582,4289.487305,4309.871582,4320.384766,4321.538574,4315.000000,4286.666504,4421.794922,4457.051270,4314.615234,4369.743652,0.000000,0.000000,8.000000,,,,0.000000,2.000000,2.000000,0.000000,2.000000,2.000000,2.000000,0.000000,2.000000,4.000000,4.000000,4.000000,4.000000,2.000000,4.000000,16.666666,,,,,,,,,,,,,,,,
1732082854.069980,1732082854.072130,37.000000,0.000000,4290.641113,4295.128418,4314.358887,4306.538574,4280.512695,4312.051270,4318.717773,4316.794922,4311.538574,4284.102539,4420.384766,4457.436035,4310.769043,4369.615234,0.000000,0.000000,8.000000,,,,0.000000,2.000000,2.000000,0.000000,2.000000,2.000000,2.000000,0.000000,2.000000,4.000000,4.000000,4.000000,4.000000,2.000000,4.000000,16.666666,,,,,,,,,,,,,,,,
1732082854.077788,1732082854.079739,38.000000,0.000000,4291.410156,4293.974121,4315.897461,4306.025879,4289.743652,4303.974121,4316.538574,4320.512695,4316.410156,4292.692383,4424.358887,4456.410156,4314.102539,4370.897461,0.000000,0.000000,8.000000,,,,0.000000,2.000000,2.000000,0.000000,2.000000,2.000000,2.000000,0.000000,2.000000,4.000000,4.000000,4.000000,4.000000,2.000000,4.000000,16.666666,,,,,,,,,,,,,,,,
1732082854.085597,1732082854.087547,39.000000,0.000000,4288.461426,4295.256348,4313.974121,4303.589844,4303.077148,4299.358887,4314.871582,4322.307617,4315.512695,4292.820313,4423.077148,4448.205078,4315.384766,4367.307617,0.000000,0.000000,8.000000,,,,0.000000,2.000000,2.000000,0.000000,2.000000,2.000000,2.000000,0.000000,2.000000,4.000000,4.000000,4.000000,4.000000,2.000000,4.000000,16.666666,,,,,,,,,,,,,,,,
1732082854.093405,1732082854.095255,40.000000,0.000000,4285.128418,4290.128418,4312.563965,4305.641113,4290.897461,4304.487305,4315.512695,4316.666504,4312.948730,4288.461426,4414.615234,4439.743652,4310.512695,4360.000000,0.000000,0.000000,8.000000,,,,0.000000,2.000000,2.000000,0.000000,2.000000,2.000000,2.000000,0.000000,2.000000,4.000000,4.000000,4.000000,4.000000,2.000000,4.000000,16.666666,,,,,,,,,,,,,,,,
1732082854.101213,1732082854.103063,41.000000,0.000000,4282.179688,4280.641113,4310.769043,4302.307617,4277.436035,4311.538574,4314.871582,4319.102539,4322.820313,4297.307617,4417.307617,4443.077148,4310.641113,4361.153809,0.000000,0.000000,8.000000,,,,0.000000,2.000000,2.000000,0.000000,2.000000,2.000000,2.000000,0.000000,2.000000,4.000000,4.000000,4.000000,4.000000,2.000000,4.000000,16.666666,,,,,,,,,,,,,,,,
1732082854.109022,1732082854.110672,42.000000,0.000000,4281.153809,4279.871582,4310.256348,4297.307617,4286.282227,4314.871582,4318.717773,4328.205078,4324.358887,4301.153809,4424.102539,4449.871582,4314.102539,4362.692383,0.000000,0.000000,8.000000,,,,0.000000,2.000000,2.000000,0.000000,2.000000,2.000000,2.000000,0.000000,2.000000,4.000000,4.000000,4.000000,4.000000,2.000000,4.000000,16.666666,,,,,,,,,,,,,,,,
1732082854.116830,1732082854.118480,43.000000,0.000000,4279.487305,4280.897461,4311.410156,4296.282227,4296.282227,4315.512695,4322.692383,4327.307617,4315.256348,4291.538574,4421.282227,4446.922852,4312.051270,4354.615234,0.000000,0.000000,8.000000,,,,0.000000,2.000000,2.000000,0.000000,2.000000,2.000000,2.000000,0.000000,2.000000,4.000000,4.000000,4.000000,4.000000,2.000000,4.000000,16.666666,,,,,,,,,,,,,,,,
1732082854.124638,1732082854.126188,44.000000,0.000000,4276.538574,4280.384766,4312.692383,4302.051270,4293.974121,4317.436035,4321.922852,4318.333496,4314.230957,4285.256348,4414.487305,4444.487305,4304.358887,4349.871582,0.000000,0.000000,8.000000,,,,0.000000,2.000000,2.000000,0.000000,2.000000,2.000000,2.000000,0.000000,2.000000,4.000000,4.000000,4.000000,4.000000,2.000000,4.000000,16.666666,,,,,,,,,,,,,,,,
1732082854.132446,1732082854.133997,45.000000,0.000000,4276.153809,4282.563965,4311.922852,4307.692383,4297.307617,4315.897461,4317.051270,4319.102539,4319.230957,4290.769043,4415.769043,4445.512695,4306.282227,4352.820313,0.000000,0.000000,8.000000,,,,0.000000,2.000000,2.000000,0.000000,2.000000,2.000000,2.000000,0.000000,2.000000,4.000000,4.000000,4.000000,4.000000,2.000000,4.000000,16.666666,,,,,,,,,,,,,,,,
1732082854.140255,1732082854.142005,46.000000,0.000000,4273.333496,4280.256348,4311.282227,4302.948730,4298.077148,4312.820313,4318.077148,4328.589844,4321.922852,4298.717773,4420.641113,4444.487305,4311.922852,4351.666504,0.000000,0.000000,8.000000,,,,0.000000,2.000000,2.000000,0.000000,2.000000,2.000000,2.000000,0.000000,2.000000,4.000000,4.000000,4.000000,4.000000,2.000000,4.000000,16.666666,,,,,,,,,,,,,,,,
1732082854.148063,1732082854.149813,47.000000,0.000000,4270.897461,4277.436035,4312.948730,4298.974121,4292.820313,4314.487305,4320.128418,4323.846191,4320.384766,4297.307617,4417.948730,4449.358887,4303.974121,4352.179688,0.000000,0.000000,8.000000,,,,0.000000,2.000000,2.000000,0.000000,2.000000,2.000000,2.000000,0.000000,2.000000,4.000000,4.000000,4.000000,4.000000,2.000000,4.000000,16.666666,,,,,,,,,,,,,,,,
1732082854.155871,1732082854.157521,48.000000,0.000000,4274.102539,4279.102539,4314.871582,4302.563965,4304.102539,4314.102539,4315.897461,4313.974121,4315.384766,4292.051270,4414.230957,4452.307617,4297.179688,4356.410156,0.000000,0.000000,8.000000,,,,0.000000,2.000000,2.000000,0.000000,2.000000,2.000000,2.000000,0.000000,2.000000,4.000000,4.000000,4.000000,4.000000,2.000000,4.000000,16.666666,,,,,,,,,,,,,,,,
1732082854.163679,1732082854.165329,49.000000,0.000000,4273.589844,4279.743652,4313.205078,4302.436035,4309.615234,4304.358887,4313.077148,4318.846191,4313.717773,4292.051270,4416.410156,4447.692383,4304.487305,4354.487305,0.000000,0.000000,8.000000,,,,0.000000,2.000000,2.000000,0.000000,2.000000,2.000000,2.000000,0.000000,2.000000,4.000000,4.000000,4.000000,4.000000,2.000000,4.000000,16.666666,,,,,,,,,,,,,,,,
1732082854.171488,1732082854.172938,50.000000,0.000000,4273.846191,4282.051270,4313.077148,4305.256348,4296.282227,4300.128418,4313.717773,4325.384766,4317.820313,4297.436035,4422.179688,4452.436035,4311.153809,4355.128418,0.000000,0.000000,8.000000,,,,0.000000,2.000000,2.000000,0.000000,2.000000,2.000000,2.000000,0.000000,2.000000,4.000000,4.000000,4.000000,4.000000,2.000000,4.000000,16.666666,,,,,,,,,,,,,,,,
1732082854.179296,1732082854.180746,51.000000,0.000000,4281.922852,4289.615234,4315.128418,4310.897461,4291.025879,4308.717773,4314.615234,4322.051270,4315.769043,4296.666504,4427.692383,4464.358887,4311.538574,4364.358887,0.000000,0.000000,8.000000,,,,0.000000,2.000000,2.000000,0.000000,2.000000,2.000000,2.000000,0.000000,2.000000,4.000000,4.000000,4.000000,4.000000,2.000000,4.000000,16.666666,,,,,,,,,,,,,,,,
1732082854.187104,1732082854.188454,52.000000,0.000000,4280.256348,4290.769043,4312.948730,4302.307617,4298.461426,4311.922852,4314.102539,4322.948730,4310.512695,4293.333496,4428.333496,4458.846191,4311.153809,4365.641113,0.000000,0.000000,8.000000,,,,0.000000,2.000000,2.000000,0.000000,2.000000,2.000000,2.000000,0.000000,2.000000,4.000000,4.000000,4.000000,4.000000,2.000000,4.000000,16.666666,,,,,,,,,,,,,,,,
1732082854.194913,1732082854.196262,53.000000,0.000000,4271.794922,4286.922852,4312.179688,4298.077148,4298.077148,4308.974121,4316.538574,4322.563965,4309.615234,4290.897461,4421.922852,4445.769043,4311.025879,4355.897461,0.000000,0.000000,8.000000,,,,0.000000,2.000000,2.000000,0.000000,2.000000,2.000000,2.000000,0.000000,2.000000,4.000000,4.000000,4.000000,4.000000,2.000000,4.000000,16.666666,,,,,,,,,,,,,,,,
1732082854.202721,1732082854.203871,54.000000,0.000000,4273.717773,4283.461426,4313.589844,4306.794922,4303.717773,4310.897461,4315.000000,4318.205078,4313.461426,4291.794922,4417.948730,4443.717773,4313.589844,4352.051270,0.000000,0.000000,8.000000,,,,0.000000,2.000000,2.000000,0.000000,2.000000,2.000000,2.000000,0.000000,2.000000,4.000000,4.000000,4.000000,4.000000,2.000000,4.000000,16.666666,,,,,,,,,,,,,,,,
1732082854.210529,1732082854.211679,55.000000,0.000000,4275.384766,4283.589844,4313.333496,4304.743652,4317.307617,4311.666504,4314.871582,4325.641113,4317.948730,4298.077148,4423.333496,4446.922852,4315.769043,4355.897461,0.000000,0.000000,8.000000,,,,0.000000,2.000000,2.000000,0.000000,2.000000,2.000000,2.000000,0.000000,2.000000,4.000000,4.000000,4.000000,4.000000,2.000000,4.000000,16.666666,,,,,,,,,,,,,,,,
1732082854.218337,1732082854.219587,56.000000,0.000000,4275.256348,4290.641113,4310.512695,4305.384766,4307.051270,4308.461426,4315.128418,4326.410156,4313.589844,4295.512695,4423.077148,4446.282227,4312.948730,4354.615234,0.000000,0.000000,8.000000,,,,0.000000,2.000000,2.000000,0.000000,2.000000,2.000000,2.000000,0.000000,2.000000,4.000000,4.000000,4.000000,4.000000,2.000000,4.000000,16.666666,,,,,,,,,,,,,,,,
1732082854.226146,1732082854.227395,57.000000,0.000000,4281.153809,4293.589844,4310.641113,4314.615234,4292.051270,4304.871582,4312.820313,4314.871582,4306.538574,4288.077148,4415.000000,4440.512695,4315.769043,4351.282227,0.000000,0.000000,8.000000,,,,0.000000,2.000000,2.000000,0.000000,2.000000,2.000000,2.000000,0.000000,2.000000,4.000000,4.000000,4.000000,4.000000,2.000000,4.000000,16.666666,,,,,,,,,,,,,,,,
1732082854.233954,1732082854.235403,58.000000,0.000000,4286.794922,4292.307617,4314.615234,4312.948730,4298.461426,4300.897461,4308.077148,4313.717773,4307.436035,4293.846191,4416.794922,4443.077148,4325.128418,4356.794922,0.000000,0.000000,8.000000,,,,0.000000,2.000000,2.000000,0.000000,2.000000,2.000000,2.000000,0.000000,2.000000,4.000000,4.000000,4.000000,4.000000,2.000000,4.000000,16.666666,,,,,,,,,,,,,,,,
1732082854.241762,1732082854.243212,59.000000,0.000000,4286.153809,4294.871582,4316.922852,4310.256348,4304.358887,4303.077148,4311.922852,4318.333496,4308.077148,4300.897461,4422.051270,4452.948730,4322.820313,4359.230957,0.000000,0.000000,8.000000,,,,0.000000,2.000000,2.000000,0.000000,2.000000,2.000000,2.000000,0.000000,2.000000,4.000000,4.000000,4.000000,4.000000,2.000000,4.000000,16.666666,,,,,,,,,,,,,,,,
1732082854.249570,1732082854.251120,60.000000,0.000000,4278.974121,4287.820313,4311.282227,4309.743652,4304.230957,4312.692383,4314.230957,4322.948730,4309.358887,4299.487305,4418.333496,4451.666504,4313.333496,4349.102539,0.000000,0.000000,8.000000,,,,0.000000,2.000000,2.000000,0.000000,2.000000,2.000000,2.000000,0.000000,2.000000,4.000000,4.000000,4.000000,4.000000,2.000000,4.000000,16.666666,,,,,,,,,,,,,,,,
1732082854.257379,1732082854.258928,61.000000,0.000000,4271.025879,4279.358887,4307.563965,4301.153809,4316.922852,4311.282227,4310.128418,4329.102539,4315.641113,4298.205078,4414.615234,4444.487305,4314.743652,4340.897461,0.000000,0.000000,8.000000,,,,0.000000,2.000000,2.000000,0.000000,2.000000,2.000000,2.000000,0.000000,2.000000,4.000000,4.000000,4.000000,4.000000,2.000000,4.000000,16.666666,,,,,,,,,,,,,,,,
1732082854.265187,1732082854.266936,62.000000,0.000000,4273.589844,4285.897461,4310.897461,4301.025879,4322.307617,4308.077148,4309.358887,4324.743652,4315.641113,4297.820313,4416.922852,4443.333496,4320.256348,4344.871582,0.000000,0.000000,8.000000,,,,0.000000,2.000000,2.000000,0.000000,2.000000,2.000000,2.000000,0.000000,2.000000,4.000000,4.000000,4.000000,4.000000,2.000000,4.000000,16.666666,,,,,,,,,,,,,,,,
1732082854.272995,1732082854.274744,63.000000,0.000000,4284.358887,4289.487305,4312.179688,4313.717773,4306.922852,4316.282227,4314.615234,4313.205078,4308.589844,4295.897461,4421.922852,4445.512695,4320.641113,4353.077148,0.000000,0.000000,8.000000,,,,0.000000,2.000000,2.000000,0.000000,2.000000,2.000000,2.000000,0.000000,2.000000,4.000000,4.000000,4.000000,4.000000,2.000000,4.000000,16.666666,,,,,,,,,,,,,,,,
1732082854.280803,1732082854.282652,64.000000,0.000000,4284.230957,4277.563965,4310.512695,4314.615234,4302.820313,4317.436035,4317.307617,4315.769043,4308.846191,4301.153809,4427.948730,4450.256348,4323.205078,4354.358887,0.000000,0.000000,8.000000,,,,0.000000,2.000000,2.000000,0.000000,2.000000,2.000000,2.000000,0.000000,2.000000,4.000000,4.000000,4.000000,4.000000,2.000000,4.000000,16.666666,,,,,,,,,,,,,,,,
1732082854.288612,1732082854.290460,65.000000,0.000000,4272.948730,4271.794922,4311.922852,4306.153809,4314.358887,4310.897461,4313.846191,4316.153809,4310.384766,4302.307617,4427.307617,4451.922852,4321.025879,4347.563965,1315.000000,0.000000,8.000000,,,,0.000000,2.000000,2.000000,0.000000,2.000000,2.000000,2.000000,0.000000,2.000000,4.000000,4.000000,4.000000,4.000000,2.000000,4.000000,16.666666,,,,,,,,,,,,,,,,
1732082854.296420,1732082854.298468,66.000000,0.000000,4269.102539,4275.897461,4311.538574,4304.743652,4312.820313,4309.102539,4311.922852,4311.538574,4307.179688,4295.256348,4422.179688,4450.128418,4317.820313,4347.563965,1240.000000,0.000000,8.000000,,,,0.000000,2.000000,2.000000,0.000000,2.000000,2.000000,2.000000,0.000000,2.000000,4.000000,4.000000,4.000000,4.000000,2.000000,4.000000,16.666666,,,,,,,,,,,,,,,,
1732082854.304228,1732082854.306277,67.000000,0.000000,4276.153809,4277.179688,4310.000000,4307.179688,4304.230957,4304.487305,4311.538574,4321.794922,4310.256348,4296.282227,4427.307617,4455.641113,4326.410156,4359.487305,1185.000000,0.000000,8.000000,,,,0.000000,2.000000,2.000000,0.000000,2.000000,2.000000,2.000000,0.000000,2.000000,4.000000,4.000000,4.000000,4.000000,2.000000,4.000000,16.666666,,,,,,,,,,,,,,,,
1732082854.312036,1732082854.314185,68.000000,0.000000,4280.256348,4277.563965,4312.179688,4310.256348,4316.282227,4301.153809,4312.436035,4328.333496,4313.717773,4301.025879,4431.025879,4461.153809,4328.589844,4364.487305,1199.000000,0.000000,8.000000,,,,0.000000,2.000000,2.000000,0.000000,2.000000,2.000000,2.000000,0.000000,2.000000,4.000000,4.000000,4.000000,4.000000,2.000000,4.000000,16.666666,,,,,,,,,,,,,,,,
1732082854.319845,1732082854.321993,69.000000,0.000000,4274.871582,4277.692383,4314.230957,4310.769043,4320.897461,4310.384766,4312.692383,4325.641113,4313.846191,4303.461426,4428.974121,4459.102539,4321.153809,4362.179688,1092.000000,0.000000,8.000000,,,,0.000000,2.000000,2.000000,0.000000,2.000000,2.000000,2.000000,0.000000,2.000000,4.000000,4.000000,4.000000,4.000000,2.000000,4.000000,16.666666,,,,,,,,,,,,,,,,
1732082854.327653,1732082854.330001,70.000000,0.000000,4272.820313,4271.666504,4312.563965,4306.410156,4305.769043,4311.922852,4313.846191,4325.384766,4315.769043,4306.025879,4431.410156,4461.922852,4324.615234,4365.128418,53.000000,0.000000,8.000000,,,,0.000000,2.000000,2.000000,0.000000,2.000000,2.000000,2.000000,0.000000,2.000000,4.000000,4.000000,4.000000,4.000000,2.000000,4.000000,16.666666,,,,,,,,,,,,,,,,
1732082854.335461,1732082854.337809,71.000000,0.000000,4275.256348,4264.487305,4309.358887,4302.692383,4300.256348,4303.846191,4313.077148,4322.051270,4317.820313,4307.051270,4429.743652,4464.102539,4329.230957,4365.897461,1209.000000,0.000000,8.000000,,,,0.000000,2.000000,2.000000,0.000000,2.000000,2.000000,2.000000,0.000000,2.000000,4.000000,4.000000,4.000000,4.000000,2.000000,4.000000,16.666666,,,,,,,,,,,,,,,,
1732082854.343269,1732082854.345717,72.000000,0.000000,4272.820313,4265.769043,4310.769043,4302.051270,4310.384766,4308.846191,4312.051270,4316.153809,4317.179688,4308.205078,4424.230957,4452.436035,4323.846191,4359.487305,1374.000000,0.000000,8.000000,,,,0.000000,2.000000,2.000000,0.000000,2.000000,2.000000,2.000000,0.000000,2.000000,4.000000,4.000000,4.000000,4.000000,2.000000,4.000000,16.666666,,,,,,,,,,,,,,,,
1732082854.351078,1732082854.353525,73.000000,0.000000,4272.307617,4268.461426,4311.410156,4306.025879,4324.487305,4312.436035,4309.358887,4312.948730,4308.974121,4305.384766,4420.128418,4440.128418,4323.205078,4354.615234,1504.000000,0.000000,8.000000,,,,0.000000,2.000000,2.000000,0.000000,2.000000,2.000000,2.000000,0.000000,2.000000,4.000000,4.000000,4.000000,4.000000,2.000000,4.000000,16.666666,,,,,,,,,,,,,,,,
1732082854.358886,1732082854.361533,74.000000,0.000000,4272.692383,4267.307617,4308.846191,4305.000000,4323.077148,4305.256348,4311.282227,4314.358887,4303.846191,4300.256348,4416.282227,4442.307617,4326.153809,4354.871582,1366.000000,0.000000,8.000000,,,,0.000000,2.000000,2.000000,0.000000,2.000000,2.000000,2.000000,0.000000,2.000000,4.000000,4.000000,4.000000,4.000000,2.000000,4.000000,16.666666,,,,,,,,,,,,,,,,
1732082854.366694,1732082854.369342,75.000000,0.000000,4266.922852,4270.256348,4307.563965,4297.820313,4304.230957,4304.615234,4314.487305,4315.384766,4309.230957,4303.205078,4419.230957,4451.410156,4326.153809,4357.051270,1504.000000,0.000000,8.000000,,,,0.000000,2.000000,2.000000,0.000000,2.000000,2.000000,2.000000,0.000000,2.000000,4.000000,4.000000,4.000000,4.000000,2.000000,4.000000,16.666666,,,,,,,,,,,,,,,,
1732082854.374503,1732082854.377250,76.000000,0.000000,4260.128418,4271.538574,4311.666504,4295.000000,4296.282227,4311.922852,4315.512695,4316.153809,4312.692383,4304.358887,4421.153809,4450.641113,4322.307617,4353.974121,1730.000000,0.000000,8.000000,,,,0.000000,2.000000,2.000000,0.000000,2.000000,2.000000,2.000000,0.000000,2.000000,4.000000,4.000000,4.000000,4.000000,2.000000,4.000000,16.666666,,,,,,,,,,,,,,,,
1732082854.382311,1732082854.385058,77.000000,0.000000,4259.871582,4264.358887,4311.153809,4296.538574,4309.743652,4311.666504,4313.461426,4321.025879,4311.410156,4303.846191,4418.461426,4444.102539,4317.436035,4347.948730,1658.000000,0.000000,8.000000,,,,0.000000,2.000000,2.000000,0.000000,2.000000,2.000000,2.000000,0.000000,2.000000,4.000000,4.000000,4.000000,4.000000,2.000000,4.000000,16.666666,,,,,,,,,,,,,,,,
1732082854.390119,1732082854.393066,78.000000,0.000000,4262.820313,4263.974121,4306.282227,4295.897461,4312.307617,4305.128418,4313.846191,4324.487305,4314.358887,4308.589844,4420.000000,4441.922852,4319.743652,4346.794922,1366.000000,0.000000,8.000000,,,,0.000000,2.000000,2.000000,0.000000,2.000000,2.000000,2.000000,0.000000,2.000000,4.000000,4.000000,4.000000,4.000000,2.000000,4.000000,16.666666,1.000000,16.666666,2.000000,2.000000,0.000000,2.000000,2.000000,2.000000,0.000000,2.000000,4.000000,4.000000,4.000000,4.000000,2.000000,4.000000
1732082854.397927,1732082854.400874,79.000000,0.000000,4263.461426,4270.641113,4305.897461,4293.589844,4300.897461,4306.282227,4315.256348,4325.128418,4317.436035,4311.794922,4423.461426,4446.153809,4325.769043,4350.769043,1504.000000,0.000000,8.000000,,,,0.000000,2.000000,2.000000,0.000000,2.000000,2.000000,2.000000,0.000000,2.000000,4.000000,4.000000,4.000000,4.000000,2.000000,4.000000,16.666666,,,,,,,,,,,,,,,,
1732082854.405736,1732082854.408582,80.000000,0.000000,4263.333496,4271.922852,4309.487305,4295.256348,4308.717773,4309.358887,4313.717773,4322.563965,4311.922852,4307.436035,4418.461426,4449.871582,4321.282227,4353.974121,1730.000000,0.000000,8.000000,,,,0.000000,2.000000,2.000000,0.000000,2.000000,2.000000,2.000000,0.000000,2.000000,4.000000,4.000000,4.000000,4.000000,2.000000,4.000000,16.666666,,,,,,,,,,,,,,,,
1732082854.413544,1732082854.416391,81.000000,0.000000,4266.282227,4273.974121,4311.153809,4296.922852,4323.974121,4308.205078,4310.512695,4319.615234,4306.410156,4297.820313,4412.179688,4444.615234,4314.230957,4352.307617,1658.000000,0.000000,8.000000,,,,0.000000,2.000000,2.000000,0.000000,2.000000,2.000000,2.000000,0.000000,2.000000,4.000000,4.000000,4.000000,4.000000,2.000000,4.000000,16.666666,,,,,,,,,,,,,,,,
1732082854.421352,1732082854.423999,82.000000,0.000000,4271.794922,4276.666504,4310.384766,4298.846191,4316.410156,4307.692383,4309.615234,4322.692383,4308.717773,4295.128418,4412.307617,4446.922852,4316.538574,4353.974121,1366.000000,0.000000,8.000000,,,,0.000000,2.000000,2.000000,0.000000,2.000000,2.000000,2.000000,0.000000,2.000000,4.000000,4.000000,4.000000,4.000000,2.000000,4.000000,16.666666,,,,,,,,,,,,,,,,
1732082854.429160,1732082854.431807,83.000000,0.000000,4272.051270,4275.256348,4309.487305,4302.948730,4296.153809,4310.000000,4313.461426,4329.615234,4311.922852,4304.487305,4416.666504,4458.974121,4320.512695,4354.615234,1504.000000,0.000000,8.000000,,,,0.000000,2.000000,2.000000,0.000000,2.000000,2.000000,2.000000,0.000000,2.000000,4.000000,4.000000,4.000000,4.000000,2.000000,4.000000,16.666666,,,,,,,,,,,,,,,,
1732082854.436969,1732082854.439516,84.000000,0.000000,4268.333496,4273.461426,4308.333496,4303.205078,4304.230957,4309.743652,4314.743652,4321.538574,4312.436035,4314.487305,4420.384766,4453.589844,4321.282227,4349.871582,1730.000000,0.000000,8.000000,,,,0.000000,2.000000,2.000000,0.000000,2.000000,2.000000,2.000000,0.000000,2.000000,4.000000,4.000000,4.000000,4.000000,2.000000,4.000000,16.666666,,,,,,,,,,,,,,,,
1732082854.444777,1732082854.447324,85.000000,0.000000,4265.512695,4271.282227,4308.974121,4297.436035,4324.871582,4306.025879,4314.743652,4308.717773,4312.051270,4311.922852,4422.307617,4440.641113,4322.948730,4350.128418,1658.000000,0.000000,8.000000,,,,0.000000,2.000000,2.000000,0.000000,2.000000,2.000000,2.000000,0.000000,2.000000,4.000000,4.000000,4.000000,4.000000,2.000000,4.000000,16.666666,,,,,,,,,,,,,,,,
1732082854.452585,1732082854.454932,86.000000,0.000000,4268.717773,4269.871582,4309.230957,4298.077148,4309.358887,4306.794922,4312.820313,4317.051270,4310.256348,4306.282227,4423.974121,4449.615234,4324.615234,4355.769043,1366.000000,0.000000,8.000000,,,,0.000000,2.000000,2.000000,0.000000,2.000000,2.000000,2.000000,0.000000,2.000000,4.000000,4.000000,4.000000,4.000000,2.000000,4.000000,16.666666,,,,,,,,,,,,,,,,
1732082854.460394,1732082854.462740,87.000000,0.000000,4272.307617,4272.051270,4309.871582,4304.102539,4289.871582,4309.358887,4312.307617,4323.205078,4307.179688,4304.102539,4421.666504,4458.205078,4321.153809,4356.922852,1504.000000,0.000000,8.000000,,,,0.000000,2.000000,2.000000,0.000000,2.000000,2.000000,2.000000,0.000000,2.000000,4.000000,4.000000,4.000000,4.000000,2.000000,4.000000,16.666666,,,,,,,,,,,,,,,,
1732082854.468202,1732082854.470649,88.000000,0.000000,4268.974121,4273.333496,4308.461426,4299.615234,4303.846191,4308.974121,4312.563965,4315.256348,4307.563965,4303.589844,4419.102539,4449.230957,4319.871582,4356.153809,1730.000000,0.000000,8.000000,,,,0.000000,2.000000,2.000000,0.000000,2.000000,2.000000,2.000000,0.000000,2.000000,4.000000,4.000000,4.000000,4.000000,2.000000,4.000000,16.666666,,,,,,,,,,,,,,,,
1732082854.476010,1732082854.478457,89.000000,0.000000,4264.102539,4271.538574,4308.846191,4293.461426,4318.717773,4306.666504,4313.205078,4315.000000,4309.871582,4306.538574,4421.153809,4444.871582,4322.820313,4354.230957,1658.000000,0.000000,8.000000,,,,0.000000,2.000000,2.000000,0.000000,2.000000,2.000000,2.000000,0.000000,2.000000,4.000000,4.000000,4.000000,4.000000,2.000000,4.000000,16.666666,,,,,,,,,,,,,,,,
1732082854.483818,1732082854.486065,90.000000,0.000000,4262.563965,4272.563965,4309.102539,4298.205078,4310.897461,4309.743652,4311.282227,4326.410156,4315.256348,4309.102539,4421.922852,4445.512695,4321.282227,4346.538574,1366.000000,0.000000,8.000000,,,,0.000000,2.000000,2.000000,0.000000,2.000000,2.000000,2.000000,0.000000,2.000000,4.000000,4.000000,4.000000,4.000000,2.000000,4.000000,16.666666,,,,,,,,,,,,,,,,
1732082854.491627,1732082854.493873,91.000000,0.000000,4264.615234,4275.897461,4306.025879,4302.563965,4308.589844,4311.153809,4311.794922,4325.641113,4317.692383,4306.666504,4417.820313,4443.333496,4314.358887,4344.102539,1504.000000,0.000000,8.000000,,,,0.000000,2.000000,2.000000,0.000000,2.000000,2.000000,2.000000,0.000000,2.000000,4.000000,4.000000,4.000000,4.000000,2.000000,4.000000,16.666666,,,,,,,,,,,,,,,,
1732082854.499435,1732082854.501582,92.000000,0.000000,4268.974121,4278.205078,4305.128418,4301.282227,4324.615234,4303.461426,4311.282227,4313.077148,4310.512695,4301.922852,4418.717773,4446.410156,4314.615234,4353.205078,1730.000000,0.000000,8.000000,,,,0.000000,2.000000,2.000000,0.000000,2.000000,2.000000,2.000000,0.000000,2.000000,4.000000,4.000000,4.000000,4.000000,2.000000,4.000000,16.666666,,,,,,,,,,,,,,,,
1732082854.507243,1732082854.509390,93.000000,0.000000,4271.282227,4275.384766,4310.641113,4299.358887,4320.641113,4302.948730,4311.153809,4317.051270,4308.589844,4303.589844,4423.205078,4456.538574,4319.487305,4357.051270,1658.000000,0.000000,8.000000,,,,0.000000,2.000000,2.000000,0.000000,2.000000,2.000000,2.000000,0.000000,2.000000,4.000000,4.000000,4.000000,4.000000,2.000000,4.000000,16.666666,,,,,,,,,,,,,,,,
1732082854.515051,1732082854.516998,94.000000,0.000000,4265.384766,4269.102539,4311.538574,4299.871582,4298.205078,4312.563965,4312.563965,4327.820313,4314.358887,4310.128418,4421.410156,4460.000000,4313.717773,4352.820313,1366.000000,0.000000,8.000000,,,,0.000000,2.000000,2.000000,0.000000,2.000000,2.000000,2.000000,0.000000,2.000000,4.000000,4.000000,4.000000,4.000000,2.000000,4.000000,16.666666,,,,,,,,,,,,,,,,
1732082854.522860,1732082854.524807,95.000000,0.000000,4263.205078,4274.615234,4307.436035,4300.641113,4293.846191,4313.717773,4313.846191,4322.307617,4311.025879,4306.922852,4419.230957,4451.025879,4310.512695,4351.922852,1504.000000,0.000000,8.000000,,,,0.000000,2.000000,2.000000,0.000000,2.000000,2.000000,2.000000,0.000000,2.000000,4.000000,4.000000,4.000000,4.000000,2.000000,4.000000,16.666666,,,,,,,,,,,,,,,,
1732082854.530668,1732082854.532515,96.000000,0.000000,4265.256348,4280.512695,4307.051270,4300.256348,4308.974121,4307.563965,4313.333496,4316.922852,4305.897461,4296.794922,4416.538574,4440.897461,4314.102539,4349.871582,1730.000000,0.000000,8.000000,,,,0.000000,2.000000,2.000000,0.000000,2.000000,2.000000,2.000000,0.000000,2.000000,4.000000,4.000000,4.000000,4.000000,2.000000,4.000000,16.666666,,,,,,,,,,,,,,,,
1732082854.538476,1732082854.540323,97.000000,0.000000,4263.846191,4270.512695,4307.051270,4297.820313,4313.077148,4311.282227,4312.436035,4323.589844,4307.948730,4294.871582,4407.179688,4437.563965,4307.051270,4342.436035,1658.000000,0.000000,8.000000,,,,0.000000,2.000000,2.000000,0.000000,2.000000,2.000000,2.000000,0.000000,2.000000,4.000000,4.000000,4.000000,4.000000,2.000000,4.000000,16.666666,,,,,,,,,,,,,,,,
1732082854.546284,1732082854.547931,98.000000,0.000000,4262.563965,4263.846191,4306.025879,4295.256348,4303.077148,4315.128418,4312.692383,4326.282227,4311.410156,4297.307617,4402.179688,4440.769043,4301.282227,4340.384766,1366.000000,0.000000,8.000000,,,,0.000000,2.000000,2.000000,0.000000,2.000000,2.000000,2.000000,0.000000,2.000000,4.000000,4.000000,4.000000,4.000000,2.000000,4.000000,16.666666,,,,,,,,,,,,,,,,
1732082854.554093,1732082854.555740,99.000000,0.000000,4265.000000,4275.384766,4309.615234,4297.820313,4300.641113,4307.179688,4312.820313,4319.871582,4310.000000,4297.179688,4411.153809,4447.692383,4311.025879,4347.563965,1504.000000,0.000000,8.000000,,,,0.000000,2.000000,2.000000,0.000000,2.000000,2.000000,2.000000,0.000000,2.000000,4.000000,4.000000,4.000000,4.000000,2.000000,4.000000,16.666666,,,,,,,,,,,,,,,,
1732082854.561901,1732082854.563648,100.000000,0.000000,4265.512695,4282.563965,4311.922852,4302.179688,4302.436035,4306.025879,4315.000000,4311.410156,4303.461426,4295.769043,4413.333496,4447.563965,4315.000000,4350.256348,1730.000000,0.000000,8.000000,,,,0.000000,2.000000,2.000000,0.000000,2.000000,2.000000,2.000000,0.000000,2.000000,4.000000,4.000000,4.000000,4.000000,2.000000,4.000000,16.666666,,,,,,,,,,,,,,,,
1732082854.569709,1732082854.571456,101.000000,0.000000,4262.563965,4278.077148,4309.230957,4300.897461,4311.666504,4309.615234,4313.077148,4307.436035,4301.410156,4295.641113,4407.307617,4440.384766,4311.666504,4350.256348,1658.000000,0.000000,8.000000,,,,0.000000,2.000000,2.000000,0.000000,2.000000,2.000000,2.000000,0.000000,2.000000,4.000000,4.000000,4.000000,4.000000,2.000000,4.000000,16.666666,,,,,,,,,,,,,,,,
1732082854.577517,1732082854.579464,102.000000,0.000000,4262.307617,4277.563965,4308.974121,4295.897461,4322.179688,4305.000000,4311.538574,4313.846191,4305.256348,4297.436035,4408.589844,4440.641113,4315.512695,4349.230957,1366.000000,0.000000,8.000000,,,,0.000000,2.000000,2.000000,0.000000,2.000000,2.000000,2.000000,0.000000,2.000000,4.000000,4.000000,4.000000,4.000000,2.000000,4.000000,16.666666,,,,,,,,,,,,,,,,
1732082854.585326,1732082854.587272,103.000000,0.000000,4261.538574,4278.846191,4309.615234,4296.410156,4310.000000,4303.461426,4312.948730,4319.871582,4307.051270,4300.384766,4411.538574,4444.743652,4313.461426,4343.077148,1504.000000,0.000000,8.000000,,,,0.000000,2.000000,2.000000,0.000000,2.000000,2.000000,2.000000,0.000000,2.000000,4.000000,4.000000,4.000000,4.000000,2.000000,4.000000,16.666666,,,,,,,,,,,,,,,,
1732082854.593134,1732082854.594981,104.000000,0.000000,4257.948730,4275.512695,4308.333496,4297.051270,4292.179688,4309.871582,4314.871582,4318.974121,4305.641113,4301.922852,4411.922852,4444.743652,4308.589844,4347.051270,1730.000000,0.000000,8.000000,,,,0.000000,2.000000,2.000000,0.000000,2.000000,2.000000,2.000000,0.000000,2.000000,4.000000,4.000000,4.000000,4.000000,2.000000,4.000000,16.666666,,,,,,,,,,,,,,,,
1732082854.600942,1732082854.602789,105.000000,0.000000,4259.487305,4272.307617,4308.205078,4293.461426,4296.666504,4310.641113,4311.410156,4320.897461,4309.230957,4303.846191,4415.384766,4449.230957,4315.512695,4355.384766,1658.000000,0.000000,8.000000,,,,0.000000,2.000000,2.000000,0.000000,2.000000,2.000000,2.000000,0.000000,2.000000,4.000000,4.000000,4.000000,4.000000,2.000000,4.000000,16.666666,,,,,,,,,,,,,,,,
1732082854.608750,1732082854.610397,106.000000,0.000000,4257.692383,4271.410156,4310.641113,4292.436035,4308.205078,4307.307617,4313.717773,4329.487305,4316.025879,4307.820313,4415.641113,4454.358887,4318.717773,4352.692383,1366.000000,0.000000,8.000000,,,,0.000000,2.000000,2.000000,0.000000,2.000000,2.000000,2.000000,0.000000,2.000000,4.000000,4.000000,4.000000,4.000000,2.000000,4.000000,16.666666,,,,,,,,,,,,,,,,
1732082854.616559,1732082854.618205,107.000000,0.000000,4255.769043,4269.358887,4308.717773,4294.615234,4305.000000,4307.948730,4315.512695,4329.230957,4315.000000,4308.077148,4413.077148,4452.436035,4312.563965,4352.307617,1504.000000,0.000000,8.000000,,,,0.000000,2.000000,2.000000,0.000000,2.000000,2.000000,2.000000,0.000000,2.000000,4.000000,4.000000,4.000000,4.000000,2.000000,4.000000,16.666666,,,,,,,,,,,,,,,,
1732082854.624367,1732082854.625914,108.000000,0.000000,4262.948730,4270.128418,4308.846191,4297.820313,4300.000000,4310.512695,4313.077148,4314.871582,4307.436035,4305.128418,4413.589844,4447.692383,4310.256348,4355.000000,1730.000000,0.000000,8.000000,,,,0.000000,2.000000,2.000000,0.000000,2.000000,2.000000,2.000000,0.000000,2.000000,4.000000,4.000000,4.000000,4.000000,2.000000,4.000000,16.666666,,,,,,,,,,,,,,,,
1732082854.632175,1732082854.633722,109.000000,0.000000,4266.922852,4273.205078,4310.897461,4297.436035,4309.871582,4311.794922,4311.922852,4311.666504,4305.897461,4305.897461,4412.563965,4443.333496,4313.205078,4348.846191,1658.000000,0.000000,8.000000,,,,0.000000,2.000000,2.000000,0.000000,2.000000,2.000000,2.000000,0.000000,2.000000,4.000000,4.000000,4.000000,4.000000,2.000000,4.000000,16.666666,,,,,,,,,,,,,,,,
1732082854.639984,1732082854.641730,110.000000,0.000000,4262.692383,4272.563965,4308.974121,4295.000000,4319.102539,4305.769043,4313.205078,4320.384766,4309.487305,4305.384766,4411.922852,4440.512695,4314.230957,4346.282227,1366.000000,0.000000,8.000000,,,,0.000000,2.000000,2.000000,0.000000,2.000000,2.000000,2.000000,0.000000,2.000000,4.000000,4.000000,4.000000,4.000000,2.000000,4.000000,16.666666,,,,,,,,,,,,,,,,
1732082854.647792,1732082854.649538,111.000000,0.000000,4263.717773,4275.384766,4305.641113,4295.641113,4307.051270,4300.769043,4312.692383,4319.230957,4306.794922,4305.256348,4415.641113,4445.641113,4313.974121,4353.974121,1504.000000,0.000000,8.000000,,,,0.000000,2.000000,2.000000,0.000000,2.000000,2.000000,2.000000,0.000000,2.000000,4.000000,4.000000,4.000000,4.000000,2.000000,4.000000,16.666666,,,,,,,,,,,,,,,,
1732082854.655600,1732082854.657446,112.000000,0.000000,4265.897461,4274.743652,4306.538574,4296.282227,4292.051270,4308.717773,4314.230957,4319.743652,4309.102539,4308.077148,4417.563965,4455.128418,4314.871582,4354.102539,1730.000000,0.000000,8.000000,,,,0.000000,2.000000,2.000000,0.000000,2.000000,2.000000,2.000000,0.000000,2.000000,4.000000,4.000000,4.000000,4.000000,2.000000,4.000000,16.666666,,,,,,,,,,,,,,,,
1732082854.663408,1732082854.665254,113.000000,0.000000,4261.410156,4270.000000,4308.846191,4293.846191,4296.025879,4314.487305,4316.538574,4326.794922,4312.563965,4307.436035,4413.846191,4454.102539,4315.256348,4351.025879,1658.000000,0.000000,8.000000,,,,0.000000,2.000000,2.000000,0.000000,2.000000,2.000000,2.000000,0.000000,2.000000,4.000000,4.000000,4.000000,4.000000,2.000000,4.000000,16.666666,,,,,,,,,,,,,,,,
1732082854.671217,1732082854.673262,114.000000,0.000000,4260.512695,4269.871582,4308.846191,4294.230957,4301.794922,4311.410156,4313.846191,4322.820313,4309.487305,4304.615234,4411.410156,4446.410156,4310.512695,4351.282227,1366.000000,0.000000,8.000000,,,,0.000000,2.000000,2.000000,0.000000,2.000000,2.000000,2.000000,0.000000,2.000000,4.000000,4.000000,4.000000,4.000000,2.000000,4.000000,16.666666,,,,,,,,,,,,,,,,
1732082854.679025,1732082854.681071,115.000000,0.000000,4262.563965,4274.615234,4308.461426,4298.077148,4310.512695,4309.743652,4312.051270,4314.358887,4308.589844,4301.666504,4413.589844,4450.641113,4307.563965,4350.384766,1504.000000,0.000000,8.000000,,,,0.000000,2.000000,2.000000,0.000000,2.000000,2.000000,2.000000,0.000000,2.000000,4.000000,4.000000,4.000000,4.000000,2.000000,4.000000,16.666666,,,,,,,,,,,,,,,,
1732082854.686833,1732082854.688979,116.000000,0.000000,4263.077148,4272.948730,4306.538574,4295.897461,4320.769043,4310.256348,4312.820313,4318.077148,4308.205078,4296.410156,4413.974121,4454.102539,4312.820313,4353.589844,1730.000000,0.000000,8.000000,,,,0.000000,2.000000,2.000000,0.000000,2.000000,2.000000,2.000000,0.000000,2.000000,4.000000,4.000000,4.000000,4.000000,2.000000,4.000000,16.666666,,,,,,,,,,,,,,,,
1732082854.694641,1732082854.696787,117.000000,0.000000,4263.589844,4267.436035,4307.307617,4290.641113,4307.179688,4312.948730,4315.384766,4320.512695,4307.051270,4295.641113,4413.333496,4447.948730,4315.128418,4355.769043,1658.000000,0.000000,8.000000,,,,0.000000,2.000000,2.000000,0.000000,2.000000,2.000000,2.000000,0.000000,2.000000,4.000000,4.000000,4.000000,4.000000,2.000000,4.000000,16.666666,,,,,,,,,,,,,,,,
1732082854.702450,1732082854.704795,118.000000,0.000000,4262.948730,4270.641113,4306.922852,4291.922852,4287.948730,4312.692383,4314.102539,4314.871582,4308.077148,4305.512695,4416.025879,4451.538574,4314.487305,4354.102539,1366.000000,0.000000,8.000000,,,,0.000000,2.000000,2.000000,0.000000,2.000000,2.000000,2.000000,0.000000,2.000000,4.000000,4.000000,4.000000,4.000000,2.000000,4.000000,16.666666,,,,,,,,,,,,,,,,
1732082854.710258,1732082854.712603,119.000000,0.000000,4260.512695,4272.307617,4304.358887,4295.897461,4299.487305,4300.897461,4311.666504,4311.025879,4304.871582,4306.153809,4418.846191,4455.897461,4317.179688,4353.846191,1504.000000,0.000000,8.000000,,,,0.000000,2.000000,2.000000,0.000000,2.000000,2.000000,2.000000,0.000000,2.000000,4.000000,4.000000,4.000000,4.000000,2.000000,4.000000,16.666666,,,,,,,,,,,,,,,,
1732082854.718066,1732082854.720511,120.000000,0.000000,4260.769043,4270.641113,4304.358887,4296.153809,4318.589844,4296.666504,4311.538574,4313.205078,4302.307617,4296.153809,4414.230957,4444.615234,4314.871582,4353.717773,1730.000000,0.000000,8.000000,,,,0.000000,2.000000,2.000000,0.000000,2.000000,2.000000,2.000000,0.000000,2.000000,4.000000,4.000000,4.000000,4.000000,2.000000,4.000000,16.666666,,,,,,,,,,,,,,,,
1732082854.725875,1732082854.728319,121.000000,0.000000,4261.153809,4267.948730,4307.051270,4293.461426,4311.282227,4308.846191,4316.666504,4320.512695,4306.922852,4296.025879,4406.410156,4438.077148,4307.948730,4349.230957,1658.000000,0.000000,8.000000,,,,0.000000,2.000000,2.000000,0.000000,2.000000,2.000000,2.000000,0.000000,2.000000,4.000000,4.000000,4.000000,4.000000,2.000000,4.000000,16.666666,,,,,,,,,,,,,,,,
1732082854.733683,1732082854.736327,122.000000,0.000000,4259.871582,4266.153809,4308.717773,4295.000000,4294.615234,4314.743652,4317.307617,4329.102539,4312.436035,4304.358887,4407.692383,4447.307617,4309.102539,4345.769043,1366.000000,0.000000,8.000000,,,,0.000000,2.000000,2.000000,0.000000,2.000000,2.000000,2.000000,0.000000,2.000000,4.000000,4.000000,4.000000,4.000000,2.000000,4.000000,16.666666,,,,,,,,,,,,,,,,
1732082854.741491,1732082854.744136,123.000000,0.000000,4260.897461,4263.717773,4309.102539,4291.794922,4298.461426,4311.666504,4315.384766,4328.205078,4310.897461,4302.563965,4412.436035,4449.487305,4311.538574,4345.000000,1504.000000,0.000000,8.000000,,,,0.000000,2.000000,2.000000,0.000000,2.000000,2.000000,2.000000,0.000000,2.000000,4.000000,4.000000,4.000000,4.000000,2.000000,4.000000,16.666666,,,,,,,,,,,,,,,,
1732082854.749299,1732082854.752044,124.000000,0.000000,4265.000000,4260.384766,4308.205078,4280.512695,4314.487305,4312.436035,4313.974121,4320.512695,4308.589844,4293.846191,4412.179688,4443.077148,4307.307617,4346.153809,1730.000000,0.000000,8.000000,,,,0.000000,2.000000,2.000000,0.000000,2.000000,2.000000,2.000000,0.000000,2.000000,4.000000,4.000000,4.000000,4.000000,2.000000,4.000000,16.666666,,,,,,,,,,,,,,,,
1732082854.757108,1732082854.759852,125.000000,0.000000,4266.666504,4261.153809,4307.820313,4281.666504,4310.384766,4312.436035,4316.282227,4318.846191,4310.769043,4294.230957,4409.615234,4442.307617,4308.589844,4348.589844,1658.000000,0.000000,8.000000,,,,0.000000,2.000000,2.000000,0.000000,2.000000,2.000000,2.000000,0.000000,2.000000,4.000000,4.000000,4.000000,4.000000,2.000000,4.000000,16.666666,,,,,,,,,,,,,,,,
