title:one, start timestamp:1732081197.531125, stop timestamp:1732081225.859421, headset type:EPOCX, headset serial:E5020C3A, headset firmware:730, channels:67, sampling rate:eeg_128;mot_32, samples:3629      , version:2.2, 
Timestamp,OriginalTimestamp,EEG.Counter,EEG.Interpolated,EEG.AF3,EEG.F7,EEG.F3,EEG.FC5,EEG.T7,EEG.P7,EEG.O1,EEG.O2,EEG.P8,EEG.T8,EEG.FC6,EEG.F4,EEG.F8,EEG.AF4,EEG.RawCq,EEG.Battery,EEG.BatteryPercent,MarkerIndex,MarkerType,MarkerValueInt,EEG.MarkerHardware,CQ.AF3,CQ.F7,CQ.F3,CQ.FC5,CQ.T7,CQ.P7,CQ.O1,CQ.O2,CQ.P8,CQ.T8,CQ.FC6,CQ.F4,CQ.F8,CQ.AF4,CQ.Overall,EQ.SampleRateQuality,EQ.OVERALL,EQ.AF3,EQ.F7,EQ.F3,EQ.FC5,EQ.T7,EQ.P7,EQ.O1,EQ.O2,EQ.P8,EQ.T8,EQ.FC6,EQ.F4,EQ.F8,EQ.AF4,MOT.CounterMems,MOT.InterpolatedMems,MOT.Q0,MOT.Q1,MOT.Q2,MOT.Q3,MOT.AccX,MOT.AccY,MOT.AccZ,MOT.MagX,MOT.MagY,MOT.MagZ
1732081197.531125,1732081197.532739,109.000000,0.000000,4293.205078,4313.846191,4322.436035,4311.794922,4315.128418,4321.025879,4310.384766,4335.000000,4320.128418,4309.871582,4350.641113,4405.641113,4392.307617,4339.615234,1633.000000,0.000000,14.000000,,,,0.000000,2.000000,2.000000,0.000000,2.000000,2.000000,2.000000,0.000000,2.000000,4.000000,4.000000,4.000000,4.000000,2.000000,4.000000,16.666666,,,,,,,,,,,,,,,,,,,,,,,,,,,,
1732081197.538933,1732081197.540347,110.000000,0.000000,4306.794922,4316.410156,4322.948730,4315.384766,4324.102539,4312.436035,4305.897461,4333.717773,4317.436035,4309.358887,4352.692383,4399.487305,4394.102539,4340.384766,1367.000000,0.000000,14.000000,,,,0.000000,2.000000,2.000000,0.000000,2.000000,2.000000,2.000000,0.000000,2.000000,4.000000,4.000000,4.000000,4.000000,2.000000,4.000000,16.666666,,,,,,,,,,,,,,,,,,,,,,,,,,,,
1732081197.546742,1732081197.548155,111.000000,0.000000,4305.256348,4310.128418,4321.282227,4311.922852,4316.794922,4313.077148,4306.025879,4332.563965,4318.333496,4308.205078,4352.179688,4399.230957,4392.051270,4338.461426,1513.000000,0.000000,14.000000,,,,0.000000,2.000000,2.000000,0.000000,2.000000,2.000000,2.000000,0.000000,2.000000,4.000000,4.000000,4.000000,4.000000,2.000000,4.000000,16.666666,,,,,,,,,,,,,,,,,,,,,,,,,,,,
1732081197.554550,1732081197.556063,112.000000,0.000000,4302.563965,4312.307617,4318.974121,4310.897461,4305.769043,4319.102539,4308.974121,4336.025879,4320.897461,4312.051270,4353.846191,4405.641113,4393.974121,4343.333496,1745.000000,0.000000,14.000000,,,,0.000000,2.000000,2.000000,0.000000,2.000000,2.000000,2.000000,0.000000,2.000000,4.000000,4.000000,4.000000,4.000000,2.000000,4.000000,16.666666,,,,,,,,,,,,,,,,,28.000000,0.000000,0.619130,0.391357,-0.604675,0.312866,0.968380,0.104505,-0.044439,-77.636757,61.689472,28.778090
1732081197.562358,1732081197.563871,113.000000,0.000000,4302.948730,4315.000000,4322.692383,4312.948730,4306.538574,4320.000000,4310.512695,4338.717773,4320.897461,4316.410156,4355.128418,4407.436035,4394.743652,4345.000000,1633.000000,0.000000,14.000000,,,,0.000000,2.000000,2.000000,0.000000,2.000000,2.000000,2.000000,0.000000,2.000000,4.000000,4.000000,4.000000,4.000000,2.000000,4.000000,16.666666,,,,,,,,,,,,,,,,,,,,,,,,,,,,
1732081197.570166,1732081197.571480,114.000000,0.000000,4302.820313,4313.333496,4323.461426,4315.769043,4315.897461,4321.153809,4308.717773,4341.025879,4322.820313,4317.820313,4354.743652,4406.922852,4394.487305,4338.846191,1367.000000,0.000000,14.000000,,,,0.000000,2.000000,2.000000,0.000000,2.000000,2.000000,2.000000,0.000000,2.000000,4.000000,4.000000,4.000000,4.000000,2.000000,4.000000,16.666666,,,,,,,,,,,,,,,,,,,,,,,,,,,,
1732081197.577975,1732081197.579288,115.000000,0.000000,4308.077148,4314.871582,4322.692383,4318.589844,4315.256348,4322.436035,4310.384766,4339.230957,4323.333496,4317.307617,4355.128418,4408.974121,4394.487305,4338.077148,1513.000000,0.000000,14.000000,,,,0.000000,2.000000,2.000000,0.000000,2.000000,2.000000,2.000000,0.000000,2.000000,4.000000,4.000000,4.000000,4.000000,2.000000,4.000000,16.666666,,,,,,,,,,,,,,,,,,,,,,,,,,,,
1732081197.585783,1732081197.586996,116.000000,0.000000,4312.179688,4311.282227,4319.615234,4317.820313,4310.897461,4320.256348,4310.384766,4333.333496,4318.333496,4311.666504,4353.974121,4407.436035,4393.461426,4339.615234,1745.000000,0.000000,14.000000,,,,0.000000,2.000000,2.000000,0.000000,2.000000,2.000000,2.000000,0.000000,2.000000,4.000000,4.000000,4.000000,4.000000,2.000000,4.000000,16.666666,,,,,,,,,,,,,,,,,29.000000,0.000000,0.618758,0.392273,-0.604431,0.312927,0.979123,0.106947,-0.044927,-77.599106,62.015141,28.800253
1732081197.593591,1732081197.594804,117.000000,0.000000,4310.256348,4306.666504,4320.128418,4314.487305,4312.692383,4317.692383,4308.846191,4334.358887,4313.974121,4308.589844,4352.179688,4405.000000,4395.128418,4337.051270,1633.000000,0.000000,14.000000,,,,0.000000,2.000000,2.000000,0.000000,2.000000,2.000000,2.000000,0.000000,2.000000,4.000000,4.000000,4.000000,4.000000,2.000000,4.000000,16.666666,,,,,,,,,,,,,,,,,,,,,,,,,,,,
1732081197.601399,1732081197.602412,118.000000,0.000000,4312.948730,4309.871582,4320.769043,4313.461426,4308.077148,4317.179688,4307.307617,4336.538574,4315.128418,4311.538574,4353.461426,4406.282227,4394.615234,4338.205078,1367.000000,0.000000,14.000000,,,,0.000000,2.000000,2.000000,0.000000,2.000000,2.000000,2.000000,0.000000,2.000000,4.000000,4.000000,4.000000,4.000000,2.000000,4.000000,16.666666,,,,,,,,,,,,,,,,,,,,,,,,,,,,
1732081197.609208,1732081197.610220,119.000000,0.000000,4319.102539,4310.256348,4321.666504,4313.077148,4311.922852,4314.871582,4305.000000,4333.846191,4318.077148,4311.794922,4357.436035,4408.589844,4394.615234,4343.461426,1513.000000,0.000000,14.000000,,,,0.000000,2.000000,2.000000,0.000000,2.000000,2.000000,2.000000,0.000000,2.000000,4.000000,4.000000,4.000000,4.000000,2.000000,4.000000,16.666666,,,,,,,,,,,,,,,,,,,,,,,,,,,,
1732081197.617016,1732081197.617928,120.000000,0.000000,4316.538574,4306.153809,4323.589844,4311.666504,4323.589844,4314.102539,4306.282227,4336.025879,4319.487305,4311.153809,4360.000000,4410.512695,4397.563965,4344.102539,1745.000000,0.000000,14.000000,,,,0.000000,2.000000,2.000000,0.000000,2.000000,2.000000,2.000000,0.000000,2.000000,4.000000,4.000000,4.000000,4.000000,2.000000,4.000000,16.666666,,,,,,,,,,,,,,,,,30.000000,0.000000,0.618585,0.392639,-0.604370,0.312927,0.976682,0.091808,-0.041021,-77.421944,62.265598,28.774872
1732081197.624824,1732081197.625736,121.000000,0.000000,4311.025879,4305.769043,4322.692383,4311.410156,4316.282227,4312.948730,4307.307617,4338.717773,4319.615234,4314.871582,4359.487305,4409.230957,4396.538574,4339.487305,1633.000000,0.000000,14.000000,,,,0.000000,2.000000,2.000000,0.000000,2.000000,2.000000,2.000000,0.000000,2.000000,4.000000,4.000000,4.000000,4.000000,2.000000,4.000000,16.666666,,,,,,,,,,,,,,,,,,,,,,,,,,,,
1732081197.632632,1732081197.633344,122.000000,0.000000,4313.846191,4308.333496,4321.538574,4313.974121,4299.230957,4313.461426,4308.205078,4335.897461,4319.358887,4316.794922,4361.922852,4405.641113,4393.846191,4337.179688,1367.000000,0.000000,14.000000,,,,0.000000,2.000000,2.000000,0.000000,2.000000,2.000000,2.000000,0.000000,2.000000,4.000000,4.000000,4.000000,4.000000,2.000000,4.000000,16.666666,,,,,,,,,,,,,,,,,,,,,,,,,,,,
1732081197.640441,1732081197.641152,123.000000,0.000000,4321.538574,4312.179688,4322.051270,4317.948730,4308.077148,4317.820313,4306.666504,4336.794922,4317.948730,4312.948730,4363.717773,4405.256348,4394.871582,4338.461426,1513.000000,0.000000,14.000000,,,,0.000000,2.000000,2.000000,0.000000,2.000000,2.000000,2.000000,0.000000,2.000000,4.000000,4.000000,4.000000,4.000000,2.000000,4.000000,16.666666,,,,,,,,,,,,,,,,,,,,,,,,,,,,
1732081197.648249,1732081197.648860,124.000000,0.000000,4325.256348,4313.974121,4325.256348,4316.922852,4327.563965,4317.563965,4307.563965,4339.230957,4316.153809,4309.487305,4358.589844,4409.871582,4395.384766,4339.102539,1745.000000,0.000000,14.000000,,,,0.000000,2.000000,2.000000,0.000000,2.000000,2.000000,2.000000,0.000000,2.000000,4.000000,4.000000,4.000000,4.000000,2.000000,4.000000,16.666666,,,,,,,,,,,,,,,,,31.000000,0.000000,0.618184,0.393372,-0.604431,0.312683,0.984495,0.097668,-0.052252,-77.151772,62.215134,28.722645
1732081197.656057,1732081197.656668,125.000000,0.000000,4325.897461,4310.128418,4324.230957,4315.256348,4317.307617,4316.410156,4307.179688,4338.461426,4317.948730,4312.692383,4358.077148,4412.307617,4395.641113,4341.153809,1633.000000,0.000000,14.000000,,,,0.000000,2.000000,2.000000,0.000000,2.000000,2.000000,2.000000,0.000000,2.000000,4.000000,4.000000,4.000000,4.000000,2.000000,4.000000,16.666666,,,,,,,,,,,,,,,,,,,,,,,,,,,,
1732081197.663865,1732081197.664676,126.000000,0.000000,4326.282227,4308.077148,4323.717773,4318.205078,4300.128418,4316.794922,4306.794922,4337.051270,4319.743652,4317.307617,4362.436035,4412.051270,4400.000000,4345.512695,1367.000000,0.000000,14.000000,,,,0.000000,2.000000,2.000000,0.000000,2.000000,2.000000,2.000000,0.000000,2.000000,4.000000,4.000000,4.000000,4.000000,2.000000,4.000000,16.666666,,,,,,,,,,,,,,,,,,,,,,,,,,,,
1732081197.671673,1732081197.672484,127.000000,0.000000,4326.282227,4312.692383,4321.025879,4319.487305,4304.102539,4314.615234,4302.563965,4336.025879,4319.358887,4316.538574,4360.897461,4410.769043,4404.615234,4347.051270,14.000000,0.000000,14.000000,,,,0.000000,2.000000,2.000000,0.000000,2.000000,2.000000,2.000000,0.000000,2.000000,4.000000,4.000000,4.000000,4.000000,2.000000,4.000000,16.666666,,,,,,,,,,,,,,,,,,,,,,,,,,,,
1732081197.679482,1732081197.680392,0.000000,0.000000,4325.384766,4312.051270,4320.769043,4317.692383,4311.794922,4314.230957,4303.974121,4336.794922,4317.051270,4311.922852,4357.436035,4410.512695,4404.743652,4342.179688,0.000000,0.000000,14.000000,,,,0.000000,2.000000,2.000000,0.000000,2.000000,2.000000,2.000000,0.000000,2.000000,4.000000,4.000000,4.000000,4.000000,2.000000,4.000000,16.666666,,,,,,,,,,,,,,,,,0.000000,0.000000,0.617485,0.394409,-0.604248,0.313110,0.989379,0.091808,-0.037602,-77.014603,62.332592,28.647009
1732081197.687290,1732081197.688201,1.000000,0.000000,4327.179688,4306.794922,4322.436035,4318.205078,4311.410156,4320.384766,4307.307617,4339.230957,4316.922852,4312.051270,4360.769043,4410.000000,4402.820313,4341.666504,1299.000000,0.000000,14.000000,,,,0.000000,2.000000,2.000000,0.000000,2.000000,2.000000,2.000000,0.000000,2.000000,4.000000,4.000000,4.000000,4.000000,2.000000,4.000000,16.666666,,,,,,,,,,,,,,,,,,,,,,,,,,,,
1732081197.695098,1732081197.695809,2.000000,0.000000,4328.846191,4306.538574,4325.256348,4318.205078,4307.820313,4321.410156,4307.948730,4338.077148,4318.589844,4314.615234,4364.230957,4408.461426,4401.410156,4345.384766,1230.000000,0.000000,14.000000,,,,0.000000,2.000000,2.000000,0.000000,2.000000,2.000000,2.000000,0.000000,2.000000,4.000000,4.000000,4.000000,4.000000,2.000000,4.000000,16.666666,,,,,,,,,,,,,,,,,,,,,,,,,,,,
1732081197.702906,1732081197.703617,3.000000,0.000000,4327.563965,4310.512695,4322.179688,4317.563965,4306.153809,4315.256348,4305.000000,4338.205078,4320.128418,4317.179688,4362.051270,4404.615234,4404.871582,4341.410156,1175.000000,0.000000,14.000000,,,,0.000000,2.000000,2.000000,0.000000,2.000000,2.000000,2.000000,0.000000,2.000000,4.000000,4.000000,4.000000,4.000000,2.000000,4.000000,16.666666,,,,,,,,,,,,,,,,,,,,,,,,,,,,
1732081197.710715,1732081197.711325,4.000000,0.000000,4325.384766,4311.922852,4322.436035,4317.307617,4314.615234,4313.717773,4303.461426,4341.153809,4321.410156,4317.948730,4359.487305,4400.512695,4406.666504,4335.769043,1187.000000,0.000000,14.000000,,,,0.000000,2.000000,2.000000,0.000000,2.000000,2.000000,2.000000,0.000000,2.000000,4.000000,4.000000,4.000000,4.000000,2.000000,4.000000,16.666666,,,,,,,,,,,,,,,,,1.000000,0.000000,0.617390,0.394470,-0.604431,0.312866,0.983518,0.103040,-0.037114,-77.086830,62.344398,28.502411
1732081197.718523,1732081197.719133,5.000000,0.000000,4326.794922,4312.948730,4324.871582,4320.128418,4325.769043,4315.128418,4303.205078,4340.000000,4320.897461,4316.666504,4360.769043,4401.282227,4406.666504,4339.102539,1075.000000,0.000000,14.000000,,,,0.000000,2.000000,2.000000,0.000000,2.000000,2.000000,2.000000,0.000000,2.000000,4.000000,4.000000,4.000000,4.000000,2.000000,4.000000,16.666666,,,,,,,,,,,,,,,,,,,,,,,,,,,,
1732081197.726331,1732081197.727141,6.000000,0.000000,4330.128418,4315.128418,4323.974121,4323.205078,4316.025879,4318.461426,4306.025879,4337.307617,4319.615234,4315.512695,4363.333496,4404.871582,4408.846191,4344.358887,143.000000,0.000000,14.000000,,,,0.000000,2.000000,2.000000,0.000000,2.000000,2.000000,2.000000,0.000000,2.000000,4.000000,4.000000,4.000000,4.000000,2.000000,4.000000,16.666666,,,,,,,,,,,,,,,,,,,,,,,,,,,,
1732081197.734140,1732081197.734949,7.000000,0.000000,4329.230957,4313.205078,4322.563965,4320.769043,4303.717773,4320.128418,4307.820313,4339.102539,4320.000000,4313.205078,4363.717773,4409.102539,4409.230957,4343.205078,1195.000000,0.000000,14.000000,,,,0.000000,2.000000,2.000000,0.000000,2.000000,2.000000,2.000000,0.000000,2.000000,4.000000,4.000000,4.000000,4.000000,2.000000,4.000000,16.666666,,,,,,,,,,,,,,,,,,,,,,,,,,,,
1732081197.741948,1732081197.742857,8.000000,0.000000,4325.384766,4309.230957,4324.487305,4313.461426,4309.102539,4315.512695,4304.102539,4340.256348,4321.282227,4312.307617,4365.000000,4410.897461,4404.615234,4341.153809,1349.000000,0.000000,14.000000,,,,0.000000,2.000000,2.000000,0.000000,2.000000,2.000000,2.000000,0.000000,2.000000,4.000000,4.000000,4.000000,4.000000,2.000000,4.000000,16.666666,,,,,,,,,,,,,,,,,2.000000,0.000000,0.617175,0.394714,-0.604492,0.312866,0.978147,0.104993,-0.052741,-76.722000,62.500629,28.343620
1732081197.749756,1732081197.750665,9.000000,0.000000,4323.589844,4308.589844,4323.717773,4310.000000,4309.230957,4313.846191,4305.641113,4335.256348,4316.666504,4312.307617,4363.717773,4407.692383,4401.153809,4340.512695,1482.000000,0.000000,14.000000,,,,0.000000,2.000000,2.000000,0.000000,2.000000,2.000000,2.000000,0.000000,2.000000,4.000000,4.000000,4.000000,4.000000,2.000000,4.000000,16.666666,,,,,,,,,,,,,,,,,,,,,,,,,,,,
1732081197.757564,1732081197.758673,10.000000,0.000000,4325.128418,4308.717773,4322.307617,4314.230957,4308.333496,4316.666504,4306.666504,4333.846191,4309.871582,4307.307617,4357.820313,4406.025879,4401.025879,4341.025879,1364.000000,0.000000,14.000000,,,,0.000000,2.000000,2.000000,0.000000,2.000000,2.000000,2.000000,0.000000,2.000000,4.000000,4.000000,4.000000,4.000000,2.000000,4.000000,16.666666,,,,,,,,,,,,,,,,,,,,,,,,,,,,
1732081197.765372,1732081197.766481,11.000000,0.000000,4326.794922,4308.717773,4325.897461,4317.179688,4318.333496,4314.230957,4306.538574,4340.512695,4312.307617,4305.128418,4356.922852,4411.666504,4402.051270,4344.230957,1513.000000,0.000000,14.000000,,,,0.000000,2.000000,2.000000,0.000000,2.000000,2.000000,2.000000,0.000000,2.000000,4.000000,4.000000,4.000000,4.000000,2.000000,4.000000,16.666666,,,,,,,,,,,,,,,,,,,,,,,,,,,,
1732081197.773181,1732081197.774390,12.000000,0.000000,4328.461426,4309.615234,4326.538574,4316.794922,4313.974121,4315.000000,4308.717773,4342.948730,4320.256348,4314.230957,4363.461426,4415.512695,4406.282227,4347.307617,1745.000000,0.000000,14.000000,,,,0.000000,2.000000,2.000000,0.000000,2.000000,2.000000,2.000000,0.000000,2.000000,4.000000,4.000000,4.000000,4.000000,2.000000,4.000000,16.666666,,,,,,,,,,,,,,,,,3.000000,0.000000,0.616724,0.395691,-0.604187,0.313110,0.973752,0.096203,-0.049811,-76.724815,62.355511,28.089998
1732081197.780989,1732081197.782198,13.000000,0.000000,4328.589844,4310.384766,4325.641113,4317.179688,4299.615234,4321.025879,4312.948730,4338.077148,4319.102539,4317.563965,4365.769043,4413.205078,4408.717773,4347.179688,1638.000000,0.000000,14.000000,,,,0.000000,2.000000,2.000000,0.000000,2.000000,2.000000,2.000000,0.000000,2.000000,4.000000,4.000000,4.000000,4.000000,2.000000,4.000000,16.666666,,,,,,,,,,,,,,,,,,,,,,,,,,,,
1732081197.788797,1732081197.790206,14.000000,0.000000,4326.922852,4311.410156,4322.692383,4316.153809,4304.615234,4317.948730,4309.487305,4336.153809,4314.358887,4311.922852,4362.948730,4407.563965,4405.512695,4344.615234,1364.000000,0.000000,14.000000,,,,0.000000,2.000000,2.000000,0.000000,2.000000,2.000000,2.000000,0.000000,2.000000,4.000000,4.000000,4.000000,4.000000,2.000000,4.000000,16.666666,1.000000,8.333333,2.000000,2.000000,0.000000,2.000000,2.000000,1.000000,0.000000,1.000000,1.000000,3.000000,4.000000,4.000000,2.000000,4.000000,,,,,,,,,,,,
1732081197.796605,1732081197.798014,15.000000,0.000000,4325.256348,4312.436035,4322.692383,4313.846191,4312.051270,4312.692383,4308.077148,4336.922852,4318.205078,4312.692383,4362.051270,4404.230957,4404.871582,4342.563965,1513.000000,0.000000,14.000000,,,,0.000000,2.000000,2.000000,0.000000,2.000000,2.000000,2.000000,0.000000,2.000000,4.000000,4.000000,4.000000,4.000000,2.000000,4.000000,16.666666,,,,,,,,,,,,,,,,,,,,,,,,,,,,
1732081197.804414,1732081197.805922,16.000000,0.000000,4324.871582,4311.153809,4323.205078,4314.487305,4304.615234,4313.589844,4307.436035,4334.871582,4320.897461,4316.282227,4363.717773,4408.333496,4408.077148,4344.743652,0.000000,0.000000,14.000000,,,,0.000000,2.000000,2.000000,0.000000,2.000000,2.000000,2.000000,0.000000,2.000000,4.000000,4.000000,4.000000,4.000000,2.000000,4.000000,16.666666,,,,,,,,,,,,,,,,,4.000000,0.000000,0.616470,0.396362,-0.603943,0.313232,0.973263,0.093761,-0.051276,-76.980438,62.501297,28.064566
1732081197.812222,1732081197.813730,17.000000,0.000000,4325.897461,4307.948730,4324.487305,4314.230957,4309.743652,4313.205078,4307.307617,4335.897461,4316.666504,4316.666504,4364.230957,4416.538574,4407.179688,4349.743652,0.000000,0.000000,14.000000,,,,0.000000,2.000000,2.000000,0.000000,2.000000,2.000000,2.000000,0.000000,2.000000,4.000000,4.000000,4.000000,4.000000,2.000000,4.000000,16.666666,,,,,,,,,,,,,,,,,,,,,,,,,,,,
1732081197.820030,1732081197.821738,18.000000,0.000000,4327.692383,4310.769043,4321.282227,4314.743652,4322.307617,4312.948730,4307.436035,4340.000000,4319.102539,4318.974121,4363.589844,4416.410156,4402.948730,4353.589844,0.000000,0.000000,14.000000,,,,0.000000,2.000000,2.000000,0.000000,2.000000,2.000000,2.000000,0.000000,2.000000,4.000000,4.000000,4.000000,4.000000,2.000000,4.000000,16.666666,,,,,,,,,,,,,,,,,,,,,,,,,,,,
1732081197.827838,1732081197.829547,19.000000,0.000000,4325.641113,4315.256348,4323.974121,4318.717773,4314.615234,4316.666504,4309.102539,4339.487305,4321.410156,4318.846191,4363.333496,4414.102539,4400.897461,4350.897461,0.000000,0.000000,14.000000,,,,0.000000,2.000000,2.000000,0.000000,2.000000,2.000000,2.000000,0.000000,2.000000,4.000000,4.000000,4.000000,4.000000,2.000000,4.000000,16.666666,,,,,,,,,,,,,,,,,,,,,,,,,,,,
1732081197.835647,1732081197.837455,20.000000,0.000000,4324.615234,4315.384766,4326.538574,4322.563965,4306.666504,4319.102539,4305.769043,4338.717773,4317.948730,4317.692383,4366.922852,4414.743652,4403.333496,4347.179688,0.000000,0.000000,14.000000,,,,0.000000,2.000000,2.000000,0.000000,2.000000,2.000000,2.000000,0.000000,2.000000,4.000000,4.000000,4.000000,4.000000,2.000000,4.000000,16.666666,,,,,,,,,,,,,,,,,5.000000,0.000000,0.616470,0.396362,-0.603943,0.313232,0.973752,0.106947,-0.040532,-77.067490,62.514385,27.893965
1732081197.843455,1732081197.845263,21.000000,0.000000,4327.820313,4312.820313,4324.743652,4322.179688,4308.333496,4318.077148,4304.871582,4337.563965,4317.436035,4318.717773,4370.000000,4411.922852,4407.051270,4348.974121,0.000000,0.000000,14.000000,,,,0.000000,2.000000,2.000000,0.000000,2.000000,2.000000,2.000000,0.000000,2.000000,4.000000,4.000000,4.000000,4.000000,2.000000,4.000000,16.666666,,,,,,,,,,,,,,,,,,,,,,,,,,,,
1732081197.851263,1732081197.853271,22.000000,0.000000,4328.333496,4313.205078,4321.922852,4321.153809,4314.743652,4316.025879,4305.641113,4332.948730,4315.000000,4314.487305,4364.743652,4407.948730,4403.461426,4350.000000,0.000000,0.000000,14.000000,,,,0.000000,2.000000,2.000000,0.000000,2.000000,2.000000,2.000000,0.000000,2.000000,4.000000,4.000000,4.000000,4.000000,2.000000,4.000000,16.666666,,,,,,,,,,,,,,,,,,,,,,,,,,,,
1732081197.859071,1732081197.861079,23.000000,0.000000,4326.025879,4315.769043,4322.563965,4320.384766,4321.666504,4314.871582,4304.871582,4333.461426,4311.153809,4308.077148,4360.384766,4407.692383,4398.846191,4346.794922,0.000000,0.000000,14.000000,,,,0.000000,2.000000,2.000000,0.000000,2.000000,2.000000,2.000000,0.000000,2.000000,4.000000,4.000000,4.000000,4.000000,2.000000,4.000000,16.666666,,,,,,,,,,,,,,,,,,,,,,,,,,,,
1732081197.866880,1732081197.868787,24.000000,0.000000,4325.000000,4313.717773,4325.128418,4319.230957,4315.256348,4317.692383,4306.666504,4335.897461,4314.615234,4310.512695,4362.436035,4406.922852,4397.948730,4343.333496,0.000000,0.000000,14.000000,,,,0.000000,2.000000,2.000000,0.000000,2.000000,2.000000,2.000000,0.000000,2.000000,4.000000,4.000000,4.000000,4.000000,2.000000,4.000000,16.666666,,,,,,,,,,,,,,,,,6.000000,0.000000,0.616403,0.397827,-0.603333,0.312683,0.962031,0.144549,-0.053229,-77.208000,62.436649,28.040777
1732081197.874688,1732081197.876596,25.000000,0.000000,4325.128418,4311.922852,4326.666504,4319.102539,4303.589844,4318.717773,4310.000000,4333.846191,4318.205078,4316.410156,4361.922852,4406.025879,4398.205078,4341.666504,0.000000,0.000000,14.000000,,,,0.000000,2.000000,2.000000,0.000000,2.000000,2.000000,2.000000,0.000000,2.000000,4.000000,4.000000,4.000000,4.000000,2.000000,4.000000,16.666666,,,,,,,,,,,,,,,,,,,,,,,,,,,,
1732081197.882496,1732081197.884204,26.000000,0.000000,4324.230957,4312.820313,4326.025879,4319.743652,4309.871582,4316.794922,4312.563965,4336.410156,4317.051270,4317.820313,4362.436035,4410.897461,4398.974121,4343.077148,0.000000,0.000000,14.000000,,,,0.000000,2.000000,2.000000,0.000000,2.000000,2.000000,2.000000,0.000000,2.000000,4.000000,4.000000,4.000000,4.000000,2.000000,4.000000,16.666666,,,,,,,,,,,,,,,,,,,,,,,,,,,,
1732081197.890304,1732081197.892012,27.000000,0.000000,4323.461426,4312.436035,4323.589844,4318.461426,4313.077148,4319.358887,4309.358887,4342.051270,4319.358887,4318.846191,4369.230957,4416.666504,4402.820313,4346.410156,0.000000,0.000000,14.000000,,,,0.000000,2.000000,2.000000,0.000000,2.000000,2.000000,2.000000,0.000000,2.000000,4.000000,4.000000,4.000000,4.000000,2.000000,4.000000,16.666666,,,,,,,,,,,,,,,,,,,,,,,,,,,,
1732081197.898112,1732081197.899720,28.000000,0.000000,4321.922852,4310.128418,4325.512695,4313.717773,4309.871582,4320.641113,4310.128418,4339.358887,4317.179688,4318.205078,4370.256348,4418.461426,4401.538574,4347.179688,0.000000,0.000000,14.000000,,,,0.000000,2.000000,2.000000,0.000000,2.000000,2.000000,2.000000,0.000000,2.000000,4.000000,4.000000,4.000000,4.000000,2.000000,4.000000,16.666666,,,,,,,,,,,,,,,,,7.000000,0.000000,0.616855,0.400940,-0.601501,0.311340,0.964473,0.185570,-0.068368,-77.400146,62.632019,28.126364
1732081197.905921,1732081197.907528,29.000000,0.000000,4320.384766,4306.794922,4325.512695,4312.179688,4319.102539,4317.692383,4309.871582,4339.230957,4314.230957,4314.615234,4366.153809,4417.051270,4395.384766,4347.692383,0.000000,0.000000,14.000000,,,,0.000000,2.000000,2.000000,0.000000,2.000000,2.000000,2.000000,0.000000,2.000000,4.000000,4.000000,4.000000,4.000000,2.000000,4.000000,16.666666,,,,,,,,,,,,,,,,,,,,,,,,,,,,
1732081197.913729,1732081197.915136,30.000000,0.000000,4323.589844,4305.641113,4326.153809,4313.717773,4313.717773,4319.743652,4310.769043,4343.333496,4319.230957,4315.384766,4369.230957,4419.230957,4397.179688,4353.589844,0.000000,0.000000,14.000000,,,,0.000000,2.000000,2.000000,0.000000,2.000000,2.000000,2.000000,0.000000,2.000000,4.000000,4.000000,4.000000,4.000000,2.000000,4.000000,16.666666,,,,,,,,,,,,,,,,,,,,,,,,,,,,
1732081197.921537,1732081197.922944,31.000000,0.000000,4328.461426,4311.410156,4327.307617,4315.384766,4300.512695,4324.230957,4310.897461,4340.897461,4320.128418,4317.179688,4373.077148,4422.563965,4405.000000,4356.282227,0.000000,0.000000,14.000000,,,,0.000000,2.000000,2.000000,0.000000,2.000000,2.000000,2.000000,0.000000,2.000000,4.000000,4.000000,4.000000,4.000000,2.000000,4.000000,16.666666,,,,,,,,,,,,,,,,,,,,,,,,,,,,
1732081197.929345,1732081197.930652,32.000000,0.000000,4324.743652,4314.230957,4330.512695,4316.538574,4300.641113,4321.666504,4315.128418,4339.102539,4312.563965,4311.153809,4368.974121,4421.153809,4405.384766,4351.410156,0.000000,0.000000,14.000000,,,,0.000000,2.000000,2.000000,0.000000,2.000000,2.000000,2.000000,0.000000,2.000000,4.000000,4.000000,4.000000,4.000000,2.000000,4.000000,16.666666,,,,,,,,,,,,,,,,,8.000000,0.000000,0.616381,0.406189,-0.599060,0.310181,0.969845,0.163594,-0.083506,-77.384117,62.888603,28.015688
1732081197.937154,1732081197.938460,33.000000,0.000000,4320.000000,4308.974121,4330.256348,4318.077148,4307.692383,4317.948730,4315.256348,4342.179688,4309.743652,4308.589844,4366.025879,4416.538574,4399.358887,4351.025879,0.000000,0.000000,14.000000,,,,0.000000,2.000000,2.000000,0.000000,2.000000,2.000000,2.000000,0.000000,2.000000,4.000000,4.000000,4.000000,4.000000,2.000000,4.000000,16.666666,,,,,,,,,,,,,,,,,,,,,,,,,,,,
1732081197.944962,1732081197.946068,34.000000,0.000000,4321.794922,4306.794922,4332.307617,4316.410156,4314.102539,4316.794922,4313.589844,4341.666504,4310.000000,4308.974121,4366.282227,4415.256348,4396.922852,4351.282227,0.000000,0.000000,14.000000,,,,0.000000,2.000000,2.000000,0.000000,2.000000,2.000000,2.000000,0.000000,2.000000,4.000000,4.000000,4.000000,4.000000,2.000000,4.000000,16.666666,,,,,,,,,,,,,,,,,,,,,,,,,,,,
1732081197.952770,1732081197.953876,35.000000,0.000000,4325.897461,4311.025879,4335.384766,4315.897461,4305.256348,4316.410156,4315.769043,4339.230957,4310.641113,4308.205078,4364.358887,4417.051270,4399.743652,4350.000000,0.000000,0.000000,14.000000,,,,0.000000,2.000000,2.000000,0.000000,2.000000,2.000000,2.000000,0.000000,2.000000,4.000000,4.000000,4.000000,4.000000,2.000000,4.000000,16.666666,,,,,,,,,,,,,,,,,,,,,,,,,,,,
1732081197.960578,1732081197.961784,36.000000,0.000000,4324.102539,4309.487305,4339.230957,4320.512695,4288.077148,4320.256348,4320.769043,4341.410156,4312.820313,4311.282227,4366.025879,4419.615234,4400.512695,4351.922852,0.000000,0.000000,14.000000,,,,0.000000,2.000000,2.000000,0.000000,2.000000,2.000000,2.000000,0.000000,2.000000,4.000000,4.000000,4.000000,4.000000,2.000000,4.000000,16.666666,,,,,,,,,,,,,,,,,9.000000,0.000000,0.615933,0.407593,-0.598694,0.309937,0.969845,0.163594,-0.083506,-77.216133,62.941437,28.107708
1732081197.968387,1732081197.969592,37.000000,0.000000,4312.307617,4298.077148,4339.615234,4315.128418,4296.666504,4327.948730,4324.871582,4346.410156,4313.077148,4313.589844,4370.641113,4423.846191,4395.769043,4351.025879,0.000000,0.000000,14.000000,,,,0.000000,2.000000,2.000000,0.000000,2.000000,2.000000,2.000000,0.000000,2.000000,4.000000,4.000000,4.000000,4.000000,2.000000,4.000000,16.666666,,,,,,,,,,,,,,,,,,,,,,,,,,,,
1732081197.976195,1732081197.977600,38.000000,0.000000,4306.153809,4295.769043,4336.922852,4309.102539,4313.205078,4328.461426,4321.025879,4345.000000,4313.974121,4309.871582,4367.179688,4423.333496,4391.025879,4345.128418,0.000000,0.000000,14.000000,,,,0.000000,2.000000,2.000000,0.000000,2.000000,2.000000,2.000000,0.000000,2.000000,4.000000,4.000000,4.000000,4.000000,2.000000,4.000000,16.666666,,,,,,,,,,,,,,,,,,,,,,,,,,,,
1732081197.984003,1732081197.985409,39.000000,0.000000,4313.589844,4309.358887,4337.051270,4317.179688,4300.512695,4324.230957,4318.205078,4341.025879,4313.846191,4307.051270,4362.179688,4420.641113,4393.717773,4345.384766,0.000000,0.000000,14.000000,,,,0.000000,2.000000,2.000000,0.000000,2.000000,2.000000,2.000000,0.000000,2.000000,4.000000,4.000000,4.000000,4.000000,2.000000,4.000000,16.666666,,,,,,,,,,,,,,,,,,,,,,,,,,,,
1732081197.991811,1732081197.993117,40.000000,0.000000,4316.666504,4317.820313,4337.051270,4323.974121,4298.461426,4324.743652,4318.974121,4340.384766,4311.666504,4309.230957,4366.153809,4419.871582,4397.436035,4349.743652,0.000000,0.000000,14.000000,,,,0.000000,2.000000,2.000000,0.000000,2.000000,2.000000,2.000000,0.000000,2.000000,4.000000,4.000000,4.000000,4.000000,2.000000,4.000000,16.666666,,,,,,,,,,,,,,,,,10.000000,0.000000,0.614141,0.408386,-0.599487,0.310913,0.976193,0.080576,-0.057624,-77.081734,63.060894,27.972242
1732081197.999620,1732081198.000925,41.000000,0.000000,4310.641113,4312.436035,4339.615234,4319.358887,4320.769043,4323.717773,4321.538574,4338.717773,4310.128418,4308.333496,4367.051270,4419.230957,4394.102539,4350.000000,0.000000,0.000000,14.000000,,,,0.000000,2.000000,2.000000,0.000000,2.000000,2.000000,2.000000,0.000000,2.000000,4.000000,4.000000,4.000000,4.000000,2.000000,4.000000,16.666666,,,,,,,,,,,,,,,,,,,,,,,,,,,,
1732081198.007428,1732081198.008533,42.000000,0.000000,4312.179688,4309.871582,4339.102539,4318.717773,4318.333496,4319.743652,4317.179688,4335.897461,4311.025879,4310.128418,4363.846191,4417.436035,4392.820313,4351.922852,0.000000,0.000000,14.000000,,,,0.000000,2.000000,2.000000,0.000000,2.000000,2.000000,2.000000,0.000000,2.000000,4.000000,4.000000,4.000000,4.000000,2.000000,4.000000,16.666666,,,,,,,,,,,,,,,,,,,,,,,,,,,,
1732081198.015236,1732081198.016341,43.000000,0.000000,4312.436035,4310.769043,4340.000000,4321.794922,4297.948730,4321.410156,4317.307617,4338.589844,4314.102539,4315.384766,4367.307617,4418.205078,4397.563965,4353.461426,0.000000,0.000000,14.000000,,,,0.000000,2.000000,2.000000,0.000000,2.000000,2.000000,2.000000,0.000000,2.000000,4.000000,4.000000,4.000000,4.000000,2.000000,4.000000,16.666666,,,,,,,,,,,,,,,,,,,,,,,,,,,,
1732081198.023044,1732081198.024049,44.000000,0.000000,4305.769043,4307.179688,4336.410156,4318.589844,4299.743652,4327.820313,4320.384766,4343.205078,4318.333496,4315.256348,4368.461426,4415.897461,4396.410156,4351.794922,0.000000,0.000000,14.000000,,,,0.000000,2.000000,2.000000,0.000000,2.000000,2.000000,2.000000,0.000000,2.000000,4.000000,4.000000,4.000000,4.000000,2.000000,4.000000,16.666666,,,,,,,,,,,,,,,,,11.000000,0.000000,0.613761,0.407104,-0.600525,0.311340,0.970822,0.070321,-0.065926,-76.986206,63.057659,27.932516
1732081198.030853,1732081198.031857,45.000000,0.000000,4306.282227,4305.512695,4337.948730,4316.153809,4315.128418,4326.538574,4321.410156,4339.102539,4318.333496,4308.974121,4361.025879,4410.897461,4389.230957,4348.974121,0.000000,0.000000,14.000000,,,,0.000000,2.000000,2.000000,0.000000,2.000000,2.000000,2.000000,0.000000,2.000000,4.000000,4.000000,4.000000,4.000000,2.000000,4.000000,16.666666,,,,,,,,,,,,,,,,,,,,,,,,,,,,
1732081198.038661,1732081198.039465,46.000000,0.000000,4309.102539,4308.077148,4337.436035,4319.102539,4313.974121,4325.000000,4316.410156,4336.410156,4318.205078,4309.487305,4361.282227,4411.410156,4389.358887,4346.153809,0.000000,0.000000,14.000000,,,,0.000000,2.000000,2.000000,0.000000,2.000000,2.000000,2.000000,0.000000,2.000000,4.000000,4.000000,4.000000,4.000000,2.000000,4.000000,16.666666,,,,,,,,,,,,,,,,,,,,,,,,,,,,
1732081198.046469,1732081198.047273,47.000000,0.000000,4305.512695,4308.974121,4334.487305,4319.743652,4306.666504,4327.307617,4316.666504,4341.025879,4323.846191,4314.871582,4368.205078,4415.000000,4393.077148,4346.922852,0.000000,0.000000,14.000000,,,,0.000000,2.000000,2.000000,0.000000,2.000000,2.000000,2.000000,0.000000,2.000000,4.000000,4.000000,4.000000,4.000000,2.000000,4.000000,16.666666,,,,,,,,,,,,,,,,,,,,,,,,,,,,
1732081198.054277,1732081198.055181,48.000000,0.000000,4302.820313,4307.820313,4331.282227,4317.692383,4320.897461,4326.282227,4320.128418,4342.692383,4323.974121,4314.615234,4370.000000,4416.153809,4392.051270,4350.769043,0.000000,0.000000,14.000000,,,,0.000000,2.000000,2.000000,0.000000,2.000000,2.000000,2.000000,0.000000,2.000000,4.000000,4.000000,4.000000,4.000000,2.000000,4.000000,16.666666,,,,,,,,,,,,,,,,,12.000000,0.000000,0.613497,0.405457,-0.601624,0.311890,0.970822,0.070321,-0.065926,-76.922157,62.903370,27.632006
1732081198.062086,1732081198.062989,49.000000,0.000000,4303.589844,4308.333496,4332.051270,4318.333496,4333.461426,4326.025879,4321.025879,4340.512695,4321.153809,4317.820313,4369.871582,4415.641113,4393.846191,4349.743652,0.000000,0.000000,14.000000,,,,0.000000,2.000000,2.000000,0.000000,2.000000,2.000000,2.000000,0.000000,2.000000,4.000000,4.000000,4.000000,4.000000,2.000000,4.000000,16.666666,,,,,,,,,,,,,,,,,,,,,,,,,,,,
1732081198.069894,1732081198.070997,50.000000,0.000000,4303.205078,4310.000000,4333.333496,4320.000000,4321.538574,4330.769043,4320.769043,4342.307617,4326.794922,4324.230957,4369.230957,4413.974121,4395.512695,4343.589844,0.000000,0.000000,14.000000,,,,0.000000,2.000000,2.000000,0.000000,2.000000,2.000000,2.000000,0.000000,2.000000,4.000000,4.000000,4.000000,4.000000,2.000000,4.000000,16.666666,,,,,,,,,,,,,,,,,,,,,,,,,,,,
1732081198.077702,1732081198.078805,51.000000,0.000000,4302.179688,4307.692383,4333.333496,4319.615234,4312.436035,4332.948730,4322.179688,4343.461426,4329.743652,4320.256348,4367.307617,4409.358887,4389.358887,4340.769043,0.000000,0.000000,14.000000,,,,0.000000,2.000000,2.000000,0.000000,2.000000,2.000000,2.000000,0.000000,2.000000,4.000000,4.000000,4.000000,4.000000,2.000000,4.000000,16.666666,,,,,,,,,,,,,,,,,,,,,,,,,,,,
1732081198.085510,1732081198.086714,52.000000,0.000000,4306.282227,4309.487305,4336.282227,4321.282227,4320.000000,4326.794922,4321.025879,4342.179688,4324.102539,4315.769043,4367.436035,4411.282227,4388.205078,4343.461426,0.000000,0.000000,14.000000,,,,0.000000,2.000000,2.000000,0.000000,2.000000,2.000000,2.000000,0.000000,2.000000,4.000000,4.000000,4.000000,4.000000,2.000000,4.000000,16.666666,,,,,,,,,,,,,,,,,13.000000,0.000000,0.612646,0.398071,-0.606262,0.314087,0.949823,0.094250,-0.062019,-76.850281,62.806728,27.396925
1732081198.093319,1732081198.094522,53.000000,0.000000,4313.333496,4318.333496,4334.230957,4324.102539,4325.641113,4324.358887,4317.436035,4348.077148,4322.820313,4321.538574,4369.743652,4418.077148,4394.743652,4348.589844,0.000000,0.000000,14.000000,,,,0.000000,2.000000,2.000000,0.000000,2.000000,2.000000,2.000000,0.000000,2.000000,4.000000,4.000000,4.000000,4.000000,2.000000,4.000000,16.666666,,,,,,,,,,,,,,,,,,,,,,,,,,,,
1732081198.101127,1732081198.102530,54.000000,0.000000,4315.256348,4319.358887,4333.333496,4321.922852,4321.922852,4326.153809,4317.820313,4353.333496,4326.282227,4323.461426,4371.410156,4421.282227,4395.897461,4350.769043,0.000000,0.000000,14.000000,,,,0.000000,2.000000,2.000000,0.000000,2.000000,2.000000,2.000000,0.000000,2.000000,4.000000,4.000000,4.000000,4.000000,2.000000,4.000000,16.666666,,,,,,,,,,,,,,,,,,,,,,,,,,,,
1732081198.108935,1732081198.110338,55.000000,0.000000,4316.794922,4316.025879,4330.769043,4319.871582,4315.769043,4322.692383,4318.589844,4348.717773,4324.871582,4318.717773,4371.025879,4417.948730,4394.230957,4350.512695,0.000000,0.000000,14.000000,,,,0.000000,2.000000,2.000000,0.000000,2.000000,2.000000,2.000000,0.000000,2.000000,4.000000,4.000000,4.000000,4.000000,2.000000,4.000000,16.666666,,,,,,,,,,,,,,,,,,,,,,,,,,,,
1732081198.116743,1732081198.118246,56.000000,0.000000,4322.307617,4319.358887,4329.615234,4318.717773,4317.179688,4317.436035,4320.000000,4342.820313,4318.205078,4315.000000,4370.384766,4415.512695,4393.846191,4347.179688,0.000000,0.000000,14.000000,,,,0.000000,2.000000,2.000000,0.000000,2.000000,2.000000,2.000000,0.000000,2.000000,4.000000,4.000000,4.000000,4.000000,2.000000,4.000000,16.666666,,,,,,,,,,,,,,,,,14.000000,0.000000,0.612406,0.393677,-0.608704,0.315369,0.968868,0.063484,-0.053229,-76.908730,62.686783,27.248175
1732081198.124551,1732081198.126054,57.000000,0.000000,4325.512695,4323.846191,4328.461426,4318.717773,4328.974121,4316.025879,4317.820313,4342.179688,4312.820313,4314.358887,4371.410156,4415.256348,4394.743652,4346.410156,0.000000,0.000000,14.000000,,,,0.000000,2.000000,2.000000,0.000000,2.000000,2.000000,2.000000,0.000000,2.000000,4.000000,4.000000,4.000000,4.000000,2.000000,4.000000,16.666666,,,,,,,,,,,,,,,,,,,,,,,,,,,,
1732081198.132360,1732081198.134062,58.000000,0.000000,4323.461426,4326.282227,4332.307617,4324.487305,4328.461426,4317.051270,4319.102539,4342.179688,4313.717773,4317.051270,4374.615234,4416.794922,4398.846191,4351.153809,0.000000,0.000000,14.000000,,,,0.000000,2.000000,2.000000,0.000000,2.000000,2.000000,2.000000,0.000000,2.000000,4.000000,4.000000,4.000000,4.000000,2.000000,4.000000,16.666666,,,,,,,,,,,,,,,,,,,,,,,,,,,,
1732081198.140168,1732081198.141871,59.000000,0.000000,4323.077148,4327.436035,4331.025879,4329.230957,4317.179688,4317.436035,4318.974121,4341.282227,4318.333496,4321.922852,4377.051270,4418.846191,4402.436035,4355.000000,0.000000,0.000000,14.000000,,,,0.000000,2.000000,2.000000,0.000000,2.000000,2.000000,2.000000,0.000000,2.000000,4.000000,4.000000,4.000000,4.000000,2.000000,4.000000,16.666666,,,,,,,,,,,,,,,,,,,,,,,,,,,,
1732081198.147976,1732081198.149779,60.000000,0.000000,4322.436035,4325.384766,4328.205078,4323.333496,4323.461426,4320.000000,4315.512695,4341.282227,4320.000000,4320.128418,4371.538574,4413.589844,4395.641113,4348.974121,0.000000,0.000000,14.000000,,,,0.000000,2.000000,2.000000,0.000000,2.000000,2.000000,2.000000,0.000000,2.000000,4.000000,4.000000,4.000000,4.000000,2.000000,4.000000,16.666666,,,,,,,,,,,,,,,,,15.000000,0.000000,0.612406,0.393677,-0.608704,0.315369,0.983518,0.060066,-0.052252,-77.016068,62.604630,27.112688
1732081198.155784,1732081198.157587,61.000000,0.000000,4319.871582,4321.025879,4326.922852,4318.333496,4335.897461,4322.436035,4312.051270,4342.179688,4318.461426,4311.153809,4362.563965,4403.333496,4384.102539,4337.692383,0.000000,0.000000,14.000000,,,,0.000000,2.000000,2.000000,0.000000,2.000000,2.000000,2.000000,0.000000,2.000000,4.000000,4.000000,4.000000,4.000000,2.000000,4.000000,16.666666,,,,,,,,,,,,,,,,,,,,,,,,,,,,
1732081198.163593,1732081198.165595,62.000000,0.000000,4319.230957,4317.820313,4330.384766,4318.333496,4329.615234,4322.179688,4317.563965,4341.666504,4317.307617,4307.563965,4358.333496,4402.948730,4380.384766,4336.025879,0.000000,0.000000,14.000000,,,,0.000000,2.000000,2.000000,0.000000,2.000000,2.000000,2.000000,0.000000,2.000000,4.000000,4.000000,4.000000,4.000000,2.000000,4.000000,16.666666,,,,,,,,,,,,,,,,,,,,,,,,,,,,
1732081198.171401,1732081198.173403,63.000000,0.000000,4319.871582,4316.666504,4332.051270,4318.846191,4328.205078,4321.282227,4319.615234,4340.769043,4319.358887,4311.410156,4360.128418,4407.820313,4380.256348,4340.769043,0.000000,0.000000,14.000000,,,,0.000000,2.000000,2.000000,0.000000,2.000000,2.000000,2.000000,0.000000,2.000000,4.000000,4.000000,4.000000,4.000000,2.000000,4.000000,16.666666,,,,,,,,,,,,,,,,,,,,,,,,,,,,
1732081198.179209,1732081198.181311,64.000000,0.000000,4321.282227,4318.205078,4332.307617,4318.974121,4343.205078,4318.077148,4316.666504,4339.615234,4319.487305,4313.589844,4364.102539,4408.717773,4380.512695,4342.948730,0.000000,0.000000,14.000000,,,,0.000000,2.000000,2.000000,0.000000,2.000000,2.000000,2.000000,0.000000,2.000000,4.000000,4.000000,4.000000,4.000000,2.000000,4.000000,16.666666,,,,,,,,,,,,,,,,,16.000000,0.000000,0.612455,0.390564,-0.609802,0.317017,0.949335,0.064949,-0.045416,-76.886353,62.584751,26.932945
1732081198.187017,1732081198.189119,65.000000,0.000000,4330.512695,4326.538574,4335.000000,4323.974121,4343.077148,4316.666504,4313.333496,4334.487305,4316.282227,4317.563965,4370.769043,4412.307617,4388.333496,4349.743652,1300.000000,0.000000,14.000000,,,,0.000000,2.000000,2.000000,0.000000,2.000000,2.000000,2.000000,0.000000,2.000000,4.000000,4.000000,4.000000,4.000000,2.000000,4.000000,16.666666,,,,,,,,,,,,,,,,,,,,,,,,,,,,
1732081198.194826,1732081198.196728,66.000000,0.000000,4339.102539,4332.307617,4331.153809,4328.717773,4324.615234,4317.436035,4314.358887,4329.871582,4313.589844,4321.922852,4375.512695,4418.077148,4395.128418,4358.077148,1230.000000,0.000000,14.000000,,,,0.000000,2.000000,2.000000,0.000000,2.000000,2.000000,2.000000,0.000000,2.000000,4.000000,4.000000,4.000000,4.000000,2.000000,4.000000,16.666666,,,,,,,,,,,,,,,,,,,,,,,,,,,,
1732081198.202634,1732081198.204536,67.000000,0.000000,4334.615234,4330.000000,4323.077148,4325.128418,4322.436035,4316.922852,4316.153809,4331.282227,4313.205078,4316.666504,4368.717773,4413.461426,4392.051270,4353.717773,1180.000000,0.000000,14.000000,,,,0.000000,2.000000,2.000000,0.000000,2.000000,2.000000,2.000000,0.000000,2.000000,4.000000,4.000000,4.000000,4.000000,2.000000,4.000000,16.666666,,,,,,,,,,,,,,,,,,,,,,,,,,,,
1732081198.210442,1732081198.212244,68.000000,0.000000,4329.487305,4328.461426,4319.230957,4324.358887,4336.282227,4316.282227,4313.717773,4334.487305,4314.487305,4312.820313,4363.589844,4405.769043,4389.102539,4348.333496,1189.000000,0.000000,14.000000,,,,0.000000,2.000000,2.000000,0.000000,2.000000,2.000000,2.000000,0.000000,2.000000,4.000000,4.000000,4.000000,4.000000,2.000000,4.000000,16.666666,,,,,,,,,,,,,,,,,17.000000,0.000000,0.614426,0.390198,-0.606934,0.319153,0.972287,0.116225,0.000488,-76.862946,62.303646,27.172352
1732081198.218250,1732081198.220052,69.000000,0.000000,4335.128418,4331.666504,4322.307617,4331.410156,4335.897461,4322.436035,4310.897461,4334.615234,4314.743652,4316.025879,4369.230957,4411.538574,4393.589844,4353.333496,1075.000000,0.000000,14.000000,,,,0.000000,2.000000,2.000000,0.000000,2.000000,2.000000,2.000000,0.000000,2.000000,4.000000,4.000000,4.000000,4.000000,2.000000,4.000000,16.666666,,,,,,,,,,,,,,,,,,,,,,,,,,,,
1732081198.226059,1732081198.227660,70.000000,0.000000,4340.128418,4336.282227,4318.846191,4336.666504,4333.205078,4326.794922,4309.871582,4334.743652,4314.358887,4315.128418,4374.871582,4416.410156,4394.871582,4357.307617,145.000000,0.000000,14.000000,,,,0.000000,2.000000,2.000000,0.000000,2.000000,2.000000,2.000000,0.000000,2.000000,4.000000,4.000000,4.000000,4.000000,2.000000,4.000000,16.666666,,,,,,,,,,,,,,,,,,,,,,,,,,,,
1732081198.233867,1732081198.235468,71.000000,0.000000,4339.871582,4336.538574,4316.282227,4333.205078,4334.487305,4319.487305,4308.205078,4333.974121,4313.846191,4310.128418,4373.333496,4412.051270,4391.538574,4359.615234,1195.000000,0.000000,14.000000,,,,0.000000,2.000000,2.000000,0.000000,2.000000,2.000000,2.000000,0.000000,2.000000,4.000000,4.000000,4.000000,4.000000,2.000000,4.000000,16.666666,,,,,,,,,,,,,,,,,,,,,,,,,,,,
1732081198.241675,1732081198.243176,72.000000,0.000000,4339.230957,4332.820313,4317.692383,4330.769043,4335.256348,4317.051270,4304.487305,4333.589844,4315.384766,4311.666504,4371.794922,4410.897461,4389.230957,4362.179688,1351.000000,0.000000,14.000000,,,,0.000000,2.000000,2.000000,0.000000,2.000000,2.000000,2.000000,0.000000,2.000000,4.000000,4.000000,4.000000,4.000000,2.000000,4.000000,16.666666,,,,,,,,,,,,,,,,,18.000000,0.000000,0.616479,0.391296,-0.603394,0.320557,1.041143,0.081553,0.004395,-77.055649,62.150955,27.304605
1732081198.249483,1732081198.250984,73.000000,0.000000,4336.410156,4330.000000,4315.384766,4331.153809,4345.384766,4318.974121,4301.794922,4333.974121,4314.871582,4315.641113,4374.487305,4411.025879,4388.589844,4357.563965,1482.000000,0.000000,14.000000,,,,0.000000,2.000000,2.000000,0.000000,2.000000,2.000000,2.000000,0.000000,2.000000,4.000000,4.000000,4.000000,4.000000,2.000000,4.000000,16.666666,,,,,,,,,,,,,,,,,,,,,,,,,,,,
1732081198.257292,1732081198.258592,74.000000,0.000000,4334.102539,4331.153809,4310.000000,4329.358887,4342.692383,4316.794922,4298.333496,4334.358887,4312.948730,4316.025879,4373.717773,4405.000000,4386.666504,4355.128418,1364.000000,0.000000,14.000000,,,,0.000000,2.000000,2.000000,0.000000,2.000000,2.000000,2.000000,0.000000,2.000000,4.000000,4.000000,4.000000,4.000000,2.000000,4.000000,16.666666,,,,,,,,,,,,,,,,,,,,,,,,,,,,
1732081198.265100,1732081198.266400,75.000000,0.000000,4335.897461,4330.897461,4311.410156,4329.743652,4325.384766,4321.025879,4300.384766,4337.692383,4313.846191,4316.282227,4371.282227,4405.000000,4387.179688,4360.256348,1513.000000,0.000000,14.000000,,,,0.000000,2.000000,2.000000,0.000000,2.000000,2.000000,2.000000,0.000000,2.000000,4.000000,4.000000,4.000000,4.000000,2.000000,4.000000,16.666666,,,,,,,,,,,,,,,,,,,,,,,,,,,,
1732081198.272908,1732081198.274108,76.000000,0.000000,4336.282227,4327.692383,4319.102539,4331.153809,4335.641113,4327.820313,4303.846191,4338.974121,4314.615234,4319.743652,4373.461426,4410.256348,4391.025879,4360.384766,1745.000000,0.000000,14.000000,,,,0.000000,2.000000,2.000000,0.000000,2.000000,2.000000,2.000000,0.000000,2.000000,4.000000,4.000000,4.000000,4.000000,2.000000,4.000000,16.666666,,,,,,,,,,,,,,,,,19.000000,0.000000,0.617139,0.391724,-0.602051,0.321289,1.038213,0.044439,0.015139,-76.888412,62.230606,27.511730
1732081198.280716,1732081198.281916,77.000000,0.000000,4330.128418,4325.512695,4321.153809,4329.871582,4358.461426,4322.692383,4304.743652,4338.461426,4315.512695,4325.256348,4376.153809,4410.256348,4389.487305,4355.512695,1634.000000,0.000000,14.000000,,,,0.000000,2.000000,2.000000,0.000000,2.000000,2.000000,2.000000,0.000000,2.000000,4.000000,4.000000,4.000000,4.000000,2.000000,4.000000,16.666666,,,,,,,,,,,,,,,,,,,,,,,,,,,,
1732081198.288525,1732081198.289525,78.000000,0.000000,4328.333496,4322.307617,4315.256348,4327.051270,4344.487305,4320.128418,4303.974121,4338.589844,4319.487305,4331.025879,4376.538574,4408.333496,4386.410156,4353.974121,1364.000000,0.000000,14.000000,,,,0.000000,2.000000,2.000000,0.000000,2.000000,2.000000,2.000000,0.000000,2.000000,4.000000,4.000000,4.000000,4.000000,2.000000,4.000000,16.666666,1.000000,8.333333,2.000000,2.000000,0.000000,2.000000,2.000000,1.000000,0.000000,1.000000,1.000000,1.000000,1.000000,4.000000,2.000000,4.000000,,,,,,,,,,,,
1732081198.296333,1732081198.297333,79.000000,0.000000,4331.282227,4320.384766,4316.410156,4325.256348,4324.358887,4327.051270,4306.153809,4338.717773,4323.205078,4336.666504,4375.384766,4410.512695,4389.615234,4353.974121,1513.000000,0.000000,14.000000,,,,0.000000,2.000000,2.000000,0.000000,2.000000,2.000000,2.000000,0.000000,2.000000,4.000000,4.000000,4.000000,4.000000,2.000000,4.000000,16.666666,,,,,,,,,,,,,,,,,,,,,,,,,,,,
1732081198.304141,1732081198.305041,80.000000,0.000000,4327.820313,4318.077148,4320.897461,4326.153809,4335.000000,4326.922852,4306.794922,4341.025879,4323.974121,4338.589844,4377.179688,4415.128418,4392.307617,4355.512695,1745.000000,0.000000,14.000000,,,,0.000000,2.000000,2.000000,0.000000,2.000000,2.000000,2.000000,0.000000,2.000000,4.000000,4.000000,4.000000,4.000000,2.000000,4.000000,16.666666,,,,,,,,,,,,,,,,,20.000000,0.000000,0.617307,0.392151,-0.600586,0.323181,1.064095,-0.009767,0.013185,-76.957947,62.081791,27.589500
1732081198.311949,1732081198.312849,81.000000,0.000000,4321.922852,4314.871582,4319.102539,4329.615234,4346.794922,4323.461426,4306.922852,4342.436035,4323.205078,4335.384766,4377.051270,4417.820313,4388.461426,4354.743652,1634.000000,0.000000,14.000000,,,,0.000000,2.000000,2.000000,0.000000,2.000000,2.000000,2.000000,0.000000,2.000000,4.000000,4.000000,4.000000,4.000000,2.000000,4.000000,16.666666,,,,,,,,,,,,,,,,,,,,,,,,,,,,
1732081198.319758,1732081198.320457,82.000000,0.000000,4323.461426,4318.461426,4314.102539,4335.000000,4341.025879,4327.051270,4305.512695,4337.179688,4325.128418,4337.948730,4375.769043,4415.256348,4384.871582,4352.051270,1364.000000,0.000000,14.000000,,,,0.000000,2.000000,2.000000,0.000000,2.000000,2.000000,2.000000,0.000000,2.000000,4.000000,4.000000,4.000000,4.000000,2.000000,4.000000,16.666666,,,,,,,,,,,,,,,,,,,,,,,,,,,,
1732081198.327566,1732081198.328265,83.000000,0.000000,4327.436035,4324.743652,4316.666504,4339.615234,4338.974121,4330.000000,4306.025879,4334.615234,4329.871582,4345.512695,4379.358887,4411.410156,4387.051270,4354.615234,1513.000000,0.000000,14.000000,,,,0.000000,2.000000,2.000000,0.000000,2.000000,2.000000,2.000000,0.000000,2.000000,4.000000,4.000000,4.000000,4.000000,2.000000,4.000000,16.666666,,,,,,,,,,,,,,,,,,,,,,,,,,,,
1732081198.335374,1732081198.335973,84.000000,0.000000,4324.230957,4326.282227,4318.205078,4338.846191,4354.487305,4326.538574,4305.128418,4341.025879,4330.512695,4347.563965,4382.820313,4413.846191,4387.820313,4358.077148,1745.000000,0.000000,14.000000,,,,0.000000,2.000000,2.000000,0.000000,2.000000,2.000000,2.000000,0.000000,2.000000,4.000000,4.000000,4.000000,4.000000,2.000000,4.000000,16.666666,,,,,,,,,,,,,,,,,21.000000,0.000000,0.614214,0.390930,-0.603821,0.324524,0.938591,0.074716,-0.034672,-76.912605,61.949585,27.484163
1732081198.343182,1732081198.343781,85.000000,0.000000,4319.871582,4321.282227,4315.256348,4334.230957,4356.282227,4321.922852,4303.846191,4340.000000,4325.384766,4344.102539,4381.153809,4413.974121,4384.358887,4354.487305,1634.000000,0.000000,14.000000,,,,0.000000,2.000000,2.000000,0.000000,2.000000,2.000000,2.000000,0.000000,2.000000,4.000000,4.000000,4.000000,4.000000,2.000000,4.000000,16.666666,,,,,,,,,,,,,,,,,,,,,,,,,,,,
1732081198.350990,1732081198.351389,86.000000,0.000000,4322.563965,4317.051270,4315.256348,4331.410156,4333.717773,4323.974121,4308.077148,4333.077148,4323.717773,4341.282227,4378.461426,4411.153809,4381.922852,4351.410156,1364.000000,0.000000,14.000000,,,,0.000000,2.000000,2.000000,0.000000,2.000000,2.000000,2.000000,0.000000,2.000000,4.000000,4.000000,4.000000,4.000000,2.000000,4.000000,16.666666,,,,,,,,,,,,,,,,,,,,,,,,,,,,
1732081198.358799,1732081198.359197,87.000000,0.000000,4328.077148,4316.282227,4321.794922,4331.282227,4322.307617,4325.000000,4313.205078,4334.358887,4324.358887,4339.230957,4379.615234,4411.794922,4382.820313,4354.230957,1513.000000,0.000000,14.000000,,,,0.000000,2.000000,2.000000,0.000000,2.000000,2.000000,2.000000,0.000000,2.000000,4.000000,4.000000,4.000000,4.000000,2.000000,4.000000,16.666666,,,,,,,,,,,,,,,,,,,,,,,,,,,,
1732081198.366607,1732081198.366905,88.000000,0.000000,4328.077148,4315.000000,4325.897461,4328.589844,4330.384766,4318.461426,4314.487305,4335.769043,4321.153809,4333.589844,4378.461426,4413.974121,4380.128418,4353.205078,1745.000000,0.000000,14.000000,,,,0.000000,2.000000,2.000000,0.000000,2.000000,2.000000,2.000000,0.000000,2.000000,4.000000,4.000000,4.000000,4.000000,2.000000,4.000000,16.666666,,,,,,,,,,,,,,,,,22.000000,0.000000,0.613427,0.391357,-0.604736,0.323792,0.938591,0.074716,-0.034672,-77.055878,61.737495,27.233839
1732081198.374415,1732081198.374713,89.000000,0.000000,4327.179688,4314.358887,4323.589844,4323.077148,4329.743652,4317.051270,4313.333496,4334.102539,4317.948730,4328.077148,4379.615234,4413.846191,4378.717773,4350.128418,1634.000000,0.000000,14.000000,,,,0.000000,2.000000,2.000000,0.000000,2.000000,2.000000,2.000000,0.000000,2.000000,4.000000,4.000000,4.000000,4.000000,2.000000,4.000000,16.666666,,,,,,,,,,,,,,,,,,,,,,,,,,,,
1732081198.382223,1732081198.382721,90.000000,0.000000,4328.846191,4315.641113,4324.487305,4320.256348,4320.128418,4319.743652,4317.436035,4336.666504,4317.179688,4326.153809,4383.333496,4413.974121,4380.512695,4352.307617,1364.000000,0.000000,14.000000,,,,0.000000,2.000000,2.000000,0.000000,2.000000,2.000000,2.000000,0.000000,2.000000,4.000000,4.000000,4.000000,4.000000,2.000000,4.000000,16.666666,,,,,,,,,,,,,,,,,,,,,,,,,,,,
1732081198.390032,1732081198.390529,91.000000,0.000000,4328.461426,4316.410156,4327.436035,4321.410156,4318.333496,4318.717773,4319.615234,4341.794922,4317.948730,4326.025879,4381.410156,4417.692383,4380.256348,4354.487305,1513.000000,0.000000,14.000000,,,,0.000000,2.000000,2.000000,0.000000,2.000000,2.000000,2.000000,0.000000,2.000000,4.000000,4.000000,4.000000,4.000000,2.000000,4.000000,16.666666,,,,,,,,,,,,,,,,,,,,,,,,,,,,
1732081198.397840,1732081198.398237,92.000000,0.000000,4329.102539,4316.794922,4326.794922,4322.307617,4318.717773,4319.487305,4321.153809,4341.922852,4318.461426,4324.743652,4378.717773,4417.179688,4376.153809,4349.102539,1745.000000,0.000000,14.000000,,,,0.000000,2.000000,2.000000,0.000000,2.000000,2.000000,2.000000,0.000000,2.000000,4.000000,4.000000,4.000000,4.000000,2.000000,4.000000,16.666666,,,,,,,,,,,,,,,,,23.000000,0.000000,0.611982,0.392578,-0.606934,0.320923,0.950311,0.069344,-0.044439,-76.918594,61.724037,27.126076
1732081198.405648,1732081198.406045,93.000000,0.000000,4332.436035,4319.871582,4326.538574,4324.743652,4321.153809,4319.743652,4319.102539,4340.897461,4316.538574,4321.922852,4379.230957,4415.769043,4372.820313,4346.538574,1634.000000,0.000000,14.000000,,,,0.000000,2.000000,2.000000,0.000000,2.000000,2.000000,2.000000,0.000000,2.000000,4.000000,4.000000,4.000000,4.000000,2.000000,4.000000,16.666666,,,,,,,,,,,,,,,,,,,,,,,,,,,,
1732081198.413456,1732081198.414053,94.000000,0.000000,4330.769043,4321.410156,4330.769043,4327.948730,4327.820313,4317.820313,4322.436035,4341.410156,4315.256348,4319.102539,4379.230957,4418.461426,4371.794922,4349.230957,1364.000000,0.000000,14.000000,,,,0.000000,2.000000,2.000000,0.000000,2.000000,2.000000,2.000000,0.000000,2.000000,4.000000,4.000000,4.000000,4.000000,2.000000,4.000000,16.666666,,,,,,,,,,,,,,,,,,,,,,,,,,,,
1732081198.421265,1732081198.421861,95.000000,0.000000,4328.077148,4319.358887,4330.384766,4326.282227,4327.051270,4323.205078,4324.102539,4340.384766,4318.077148,4318.589844,4376.922852,4416.025879,4368.333496,4347.307617,1513.000000,0.000000,14.000000,,,,0.000000,2.000000,2.000000,0.000000,2.000000,2.000000,2.000000,0.000000,2.000000,4.000000,4.000000,4.000000,4.000000,2.000000,4.000000,16.666666,,,,,,,,,,,,,,,,,,,,,,,,,,,,
1732081198.429073,1732081198.429770,96.000000,0.000000,4330.128418,4319.102539,4326.538574,4323.846191,4326.025879,4326.282227,4320.512695,4339.871582,4319.358887,4319.743652,4375.897461,4409.358887,4361.153809,4343.589844,1745.000000,0.000000,14.000000,,,,0.000000,2.000000,2.000000,0.000000,2.000000,2.000000,2.000000,0.000000,2.000000,4.000000,4.000000,4.000000,4.000000,2.000000,4.000000,16.666666,,,,,,,,,,,,,,,,,24.000000,0.000000,0.612306,0.393799,-0.607422,0.317871,0.962031,0.141131,-0.079111,-76.950729,61.784805,26.928787
1732081198.436881,1732081198.437578,97.000000,0.000000,4332.948730,4321.666504,4324.615234,4324.615234,4337.051270,4318.077148,4318.077148,4341.025879,4318.846191,4321.282227,4376.922852,4410.897461,4358.461426,4343.974121,1634.000000,0.000000,14.000000,,,,0.000000,2.000000,2.000000,0.000000,2.000000,2.000000,2.000000,0.000000,2.000000,4.000000,4.000000,4.000000,4.000000,2.000000,4.000000,16.666666,,,,,,,,,,,,,,,,,,,,,,,,,,,,
1732081198.444689,1732081198.445586,98.000000,0.000000,4335.641113,4322.692383,4330.384766,4324.871582,4340.256348,4316.410156,4321.538574,4342.051270,4320.897461,4321.794922,4380.641113,4421.794922,4365.256348,4349.358887,1364.000000,0.000000,14.000000,,,,0.000000,2.000000,2.000000,0.000000,2.000000,2.000000,2.000000,0.000000,2.000000,4.000000,4.000000,4.000000,4.000000,2.000000,4.000000,16.666666,,,,,,,,,,,,,,,,,,,,,,,,,,,,
1732081198.452498,1732081198.453394,99.000000,0.000000,4342.307617,4325.000000,4333.974121,4329.358887,4325.641113,4322.948730,4322.436035,4345.384766,4325.256348,4324.615234,4388.461426,4429.615234,4371.794922,4358.077148,1513.000000,0.000000,14.000000,,,,0.000000,2.000000,2.000000,0.000000,2.000000,2.000000,2.000000,0.000000,2.000000,4.000000,4.000000,4.000000,4.000000,2.000000,4.000000,16.666666,,,,,,,,,,,,,,,,,,,,,,,,,,,,
1732081198.460306,1732081198.461302,100.000000,0.000000,4346.025879,4329.358887,4331.153809,4334.615234,4319.230957,4323.589844,4321.794922,4350.256348,4328.205078,4327.436035,4393.333496,4430.897461,4372.692383,4361.538574,1745.000000,0.000000,14.000000,,,,0.000000,2.000000,2.000000,0.000000,2.000000,2.000000,2.000000,0.000000,2.000000,4.000000,4.000000,4.000000,4.000000,2.000000,4.000000,16.666666,,,,,,,,,,,,,,,,,25.000000,0.000000,0.612632,0.395935,-0.606628,0.316101,0.995727,0.140642,-0.085460,-76.993423,61.900692,26.835651
1732081198.468114,1732081198.469110,101.000000,0.000000,4343.461426,4328.589844,4329.230957,4332.179688,4327.051270,4322.051270,4323.589844,4351.538574,4324.358887,4324.743652,4390.641113,4428.974121,4368.077148,4358.974121,1634.000000,0.000000,14.000000,,,,0.000000,2.000000,2.000000,0.000000,2.000000,2.000000,2.000000,0.000000,2.000000,4.000000,4.000000,4.000000,4.000000,2.000000,4.000000,16.666666,,,,,,,,,,,,,,,,,,,,,,,,,,,,
1732081198.475922,1732081198.477118,102.000000,0.000000,4341.282227,4326.025879,4331.794922,4330.128418,4323.974121,4323.333496,4324.230957,4346.025879,4318.846191,4318.846191,4386.025879,4428.974121,4362.179688,4357.948730,1364.000000,0.000000,14.000000,,,,0.000000,2.000000,2.000000,0.000000,2.000000,2.000000,2.000000,0.000000,2.000000,4.000000,4.000000,4.000000,4.000000,2.000000,4.000000,16.666666,,,,,,,,,,,,,,,,,,,,,,,,,,,,
1732081198.483730,1732081198.484927,103.000000,0.000000,4342.948730,4327.948730,4331.922852,4332.307617,4317.692383,4325.256348,4324.230957,4343.333496,4315.512695,4315.000000,4383.589844,4428.846191,4361.794922,4356.025879,1513.000000,0.000000,14.000000,,,,0.000000,2.000000,2.000000,0.000000,2.000000,2.000000,2.000000,0.000000,2.000000,4.000000,4.000000,4.000000,4.000000,2.000000,4.000000,16.666666,,,,,,,,,,,,,,,,,,,,,,,,,,,,
1732081198.491539,1732081198.492835,104.000000,0.000000,4343.974121,4327.307617,4330.256348,4329.487305,4325.512695,4321.794922,4322.820313,4344.615234,4312.563965,4313.974121,4381.153809,4423.077148,4363.333496,4349.871582,1745.000000,0.000000,14.000000,,,,0.000000,2.000000,2.000000,0.000000,2.000000,2.000000,2.000000,0.000000,2.000000,4.000000,4.000000,4.000000,4.000000,2.000000,4.000000,16.666666,,,,,,,,,,,,,,,,,26.000000,0.000000,0.612669,0.396973,-0.606262,0.315430,0.987425,0.106458,-0.068368,-76.868004,61.792892,26.961878
1732081198.499347,1732081198.500643,105.000000,0.000000,4340.512695,4321.666504,4330.769043,4326.025879,4323.589844,4319.102539,4324.871582,4343.333496,4312.820313,4316.153809,4379.615234,4421.025879,4362.948730,4350.512695,1634.000000,0.000000,14.000000,,,,0.000000,2.000000,2.000000,0.000000,2.000000,2.000000,2.000000,0.000000,2.000000,4.000000,4.000000,4.000000,4.000000,2.000000,4.000000,16.666666,,,,,,,,,,,,,,,,,,,,,,,,,,,,
1732081198.507155,1732081198.508651,106.000000,0.000000,4336.666504,4321.282227,4333.589844,4328.077148,4308.974121,4322.692383,4328.205078,4341.922852,4316.922852,4319.230957,4382.692383,4425.256348,4363.461426,4357.563965,1364.000000,0.000000,14.000000,,,,0.000000,2.000000,2.000000,0.000000,2.000000,2.000000,2.000000,0.000000,2.000000,4.000000,4.000000,4.000000,4.000000,2.000000,4.000000,16.666666,,,,,,,,,,,,,,,,,,,,,,,,,,,,
1732081198.514964,1732081198.516459,107.000000,0.000000,4336.922852,4322.692383,4335.769043,4329.743652,4306.922852,4323.589844,4331.153809,4343.846191,4318.333496,4318.077148,4384.615234,4426.153809,4361.794922,4357.307617,1513.000000,0.000000,14.000000,,,,0.000000,2.000000,2.000000,0.000000,2.000000,2.000000,2.000000,0.000000,2.000000,4.000000,4.000000,4.000000,4.000000,2.000000,4.000000,16.666666,,,,,,,,,,,,,,,,,,,,,,,,,,,,
1732081198.522772,1732081198.524367,108.000000,0.000000,4339.871582,4322.051270,4336.922852,4328.717773,4316.282227,4320.256348,4331.025879,4344.358887,4318.333496,4318.846191,4381.538574,4425.641113,4358.077148,4355.641113,1745.000000,0.000000,14.000000,,,,0.000000,2.000000,2.000000,0.000000,2.000000,2.000000,2.000000,0.000000,2.000000,4.000000,4.000000,4.000000,4.000000,2.000000,4.000000,16.666666,,,,,,,,,,,,,,,,,27.000000,0.000000,0.612697,0.398743,-0.605896,0.313843,0.995239,0.093761,-0.076670,-77.076416,62.073910,27.125788
1732081198.530580,1732081198.532175,109.000000,0.000000,4336.922852,4321.538574,4338.974121,4329.615234,4320.000000,4324.230957,4330.384766,4341.538574,4319.487305,4320.128418,4376.794922,4426.666504,4357.692383,4355.128418,1634.000000,0.000000,14.000000,,,,0.000000,2.000000,2.000000,0.000000,2.000000,2.000000,2.000000,0.000000,2.000000,4.000000,4.000000,4.000000,4.000000,2.000000,4.000000,16.666666,,,,,,,,,,,,,,,,,,,,,,,,,,,,
1732081198.538388,1732081198.540183,110.000000,0.000000,4331.153809,4321.666504,4337.692383,4333.205078,4321.794922,4332.179688,4328.205078,4341.794922,4320.128418,4317.692383,4374.615234,4423.461426,4356.922852,4350.384766,1364.000000,0.000000,14.000000,,,,0.000000,2.000000,2.000000,0.000000,2.000000,2.000000,2.000000,0.000000,2.000000,4.000000,4.000000,4.000000,4.000000,2.000000,4.000000,16.666666,,,,,,,,,,,,,,,,,,,,,,,,,,,,
1732081198.546196,1732081198.547992,111.000000,0.000000,4332.563965,4323.077148,4334.871582,4335.897461,4323.589844,4327.563965,4331.794922,4341.538574,4319.102539,4317.692383,4374.871582,4419.743652,4355.384766,4348.974121,1513.000000,0.000000,14.000000,,,,0.000000,2.000000,2.000000,0.000000,2.000000,2.000000,2.000000,0.000000,2.000000,4.000000,4.000000,4.000000,4.000000,2.000000,4.000000,16.666666,,,,,,,,,,,,,,,,,,,,,,,,,,,,
1732081198.554005,1732081198.555900,112.000000,0.000000,4337.563965,4323.974121,4332.692383,4337.692383,4316.025879,4324.102539,4334.743652,4340.512695,4320.512695,4322.051270,4378.205078,4422.307617,4362.307617,4355.000000,1745.000000,0.000000,14.000000,,,,0.000000,2.000000,2.000000,0.000000,2.000000,2.000000,2.000000,0.000000,2.000000,4.000000,4.000000,4.000000,4.000000,2.000000,4.000000,16.666666,,,,,,,,,,,,,,,,,28.000000,0.000000,0.612728,0.399231,-0.606079,0.312805,0.954218,0.133805,-0.077158,-77.125229,62.159866,27.111889
1732081198.561813,1732081198.563708,113.000000,0.000000,4334.358887,4322.436035,4331.666504,4334.743652,4315.384766,4328.974121,4333.077148,4341.666504,4322.563965,4320.641113,4381.025879,4424.487305,4365.000000,4356.410156,1634.000000,0.000000,14.000000,,,,0.000000,2.000000,2.000000,0.000000,2.000000,2.000000,2.000000,0.000000,2.000000,4.000000,4.000000,4.000000,4.000000,2.000000,4.000000,16.666666,,,,,,,,,,,,,,,,,,,,,,,,,,,,
1732081198.569621,1732081198.571316,114.000000,0.000000,4326.025879,4322.179688,4329.615234,4328.717773,4330.641113,4327.948730,4330.128418,4341.538574,4321.410156,4316.538574,4378.461426,4421.153809,4358.589844,4349.358887,1364.000000,0.000000,14.000000,,,,0.000000,2.000000,2.000000,0.000000,2.000000,2.000000,2.000000,0.000000,2.000000,4.000000,4.000000,4.000000,4.000000,2.000000,4.000000,16.666666,,,,,,,,,,,,,,,,,,,,,,,,,,,,
1732081198.577429,1732081198.579124,115.000000,0.000000,4328.077148,4322.948730,4333.333496,4328.717773,4330.512695,4324.230957,4332.179688,4341.922852,4323.205078,4321.794922,4379.230957,4423.205078,4362.307617,4351.666504,1513.000000,0.000000,14.000000,,,,0.000000,2.000000,2.000000,0.000000,2.000000,2.000000,2.000000,0.000000,2.000000,4.000000,4.000000,4.000000,4.000000,2.000000,4.000000,16.666666,,,,,,,,,,,,,,,,,,,,,,,,,,,,
1732081198.585238,1732081198.586833,116.000000,0.000000,4336.922852,4323.461426,4334.615234,4334.615234,4311.538574,4325.897461,4333.974121,4343.077148,4327.051270,4327.692383,4388.846191,4429.871582,4370.512695,4361.410156,1745.000000,0.000000,14.000000,,,,0.000000,2.000000,2.000000,0.000000,2.000000,2.000000,2.000000,0.000000,2.000000,4.000000,4.000000,4.000000,4.000000,2.000000,4.000000,16.666666,,,,,,,,,,,,,,,,,29.000000,0.000000,0.612846,0.399292,-0.606140,0.312378,0.959590,0.112807,-0.057624,-77.214767,62.117825,27.062296
1732081198.593046,1732081198.594641,117.000000,0.000000,4339.871582,4327.307617,4333.717773,4337.692383,4311.666504,4329.358887,4333.974121,4343.077148,4322.948730,4323.717773,4392.179688,4431.666504,4365.641113,4362.051270,1634.000000,0.000000,14.000000,,,,0.000000,2.000000,2.000000,0.000000,2.000000,2.000000,2.000000,0.000000,2.000000,4.000000,4.000000,4.000000,4.000000,2.000000,4.000000,16.666666,,,,,,,,,,,,,,,,,,,,,,,,,,,,
1732081198.600854,1732081198.602249,118.000000,0.000000,4338.461426,4332.179688,4334.102539,4338.333496,4326.922852,4328.077148,4332.436035,4342.051270,4318.717773,4318.974121,4383.974121,4430.256348,4360.641113,4359.102539,1364.000000,0.000000,14.000000,,,,0.000000,2.000000,2.000000,0.000000,2.000000,2.000000,2.000000,0.000000,2.000000,4.000000,4.000000,4.000000,4.000000,2.000000,4.000000,16.666666,,,,,,,,,,,,,,,,,,,,,,,,,,,,
1732081198.608662,1732081198.610057,119.000000,0.000000,4337.948730,4332.179688,4333.974121,4338.974121,4320.897461,4326.410156,4332.436035,4341.922852,4321.666504,4318.205078,4379.615234,4429.230957,4364.358887,4361.538574,1513.000000,0.000000,14.000000,,,,0.000000,2.000000,2.000000,0.000000,2.000000,2.000000,2.000000,0.000000,2.000000,4.000000,4.000000,4.000000,4.000000,2.000000,4.000000,16.666666,,,,,,,,,,,,,,,,,,,,,,,,,,,,
1732081198.616471,1732081198.617765,120.000000,0.000000,4340.256348,4329.358887,4330.384766,4341.282227,4320.641113,4328.461426,4335.769043,4343.717773,4322.563965,4318.077148,4383.461426,4431.538574,4364.102539,4364.871582,1745.000000,0.000000,14.000000,,,,0.000000,2.000000,2.000000,0.000000,2.000000,2.000000,2.000000,0.000000,2.000000,4.000000,4.000000,4.000000,4.000000,2.000000,4.000000,16.666666,,,,,,,,,,,,,,,,,30.000000,0.000000,0.613200,0.398621,-0.606506,0.311829,0.977170,0.099622,-0.060554,-77.712296,62.190437,26.892126
1732081198.624279,1732081198.625573,121.000000,0.000000,4342.051270,4328.205078,4329.102539,4340.384766,4335.897461,4327.051270,4332.051270,4345.128418,4320.641113,4320.384766,4384.871582,4431.538574,4363.205078,4362.820313,1634.000000,0.000000,14.000000,,,,0.000000,2.000000,2.000000,0.000000,2.000000,2.000000,2.000000,0.000000,2.000000,4.000000,4.000000,4.000000,4.000000,2.000000,4.000000,16.666666,,,,,,,,,,,,,,,,,,,,,,,,,,,,
1732081198.632087,1732081198.633181,122.000000,0.000000,4338.974121,4326.538574,4331.666504,4333.461426,4326.410156,4320.641113,4326.538574,4342.051270,4320.128418,4321.922852,4384.743652,4428.077148,4367.436035,4361.153809,1364.000000,0.000000,14.000000,,,,0.000000,2.000000,2.000000,0.000000,2.000000,2.000000,2.000000,0.000000,2.000000,4.000000,4.000000,4.000000,4.000000,2.000000,4.000000,16.666666,,,,,,,,,,,,,,,,,,,,,,,,,,,,
1732081198.639895,1732081198.640989,123.000000,0.000000,4336.922852,4327.436035,4332.179688,4331.025879,4310.897461,4319.102539,4326.538574,4339.871582,4320.641113,4321.410156,4387.820313,4428.205078,4366.153809,4362.436035,1513.000000,0.000000,14.000000,,,,0.000000,2.000000,2.000000,0.000000,2.000000,2.000000,2.000000,0.000000,2.000000,4.000000,4.000000,4.000000,4.000000,2.000000,4.000000,16.666666,,,,,,,,,,,,,,,,,,,,,,,,,,,,
1732081198.647704,1732081198.648697,124.000000,0.000000,4338.974121,4330.128418,4331.153809,4335.769043,4321.410156,4325.897461,4331.282227,4343.205078,4321.794922,4322.820313,4387.820313,4429.615234,4360.897461,4359.743652,1745.000000,0.000000,14.000000,,,,0.000000,2.000000,2.000000,0.000000,2.000000,2.000000,2.000000,0.000000,2.000000,4.000000,4.000000,4.000000,4.000000,2.000000,4.000000,16.666666,,,,,,,,,,,,,,,,,31.000000,0.000000,0.614158,0.395752,-0.607666,0.311340,0.948358,0.092296,-0.046392,-77.558624,62.294254,26.812622
1732081198.655512,1732081198.656505,125.000000,0.000000,4339.358887,4329.358887,4330.641113,4337.436035,4332.820313,4327.436035,4328.205078,4343.846191,4325.897461,4326.666504,4387.179688,4425.128418,4362.692383,4354.871582,1634.000000,0.000000,14.000000,,,,0.000000,2.000000,2.000000,0.000000,2.000000,2.000000,2.000000,0.000000,2.000000,4.000000,4.000000,4.000000,4.000000,2.000000,4.000000,16.666666,,,,,,,,,,,,,,,,,,,,,,,,,,,,
1732081198.663320,1732081198.664513,126.000000,0.000000,4340.000000,4329.615234,4334.615234,4335.897461,4325.897461,4323.461426,4328.205078,4342.948730,4326.538574,4328.077148,4388.974121,4424.102539,4366.794922,4354.615234,1364.000000,0.000000,14.000000,,,,0.000000,2.000000,2.000000,0.000000,2.000000,2.000000,2.000000,0.000000,2.000000,4.000000,4.000000,4.000000,4.000000,2.000000,4.000000,16.666666,,,,,,,,,,,,,,,,,,,,,,,,,,,,
1732081198.671128,1732081198.672322,127.000000,0.000000,4346.282227,4333.205078,4335.512695,4340.384766,4322.436035,4323.077148,4330.769043,4343.589844,4324.487305,4327.179688,4387.563965,4430.641113,4365.256348,4361.153809,14.000000,0.000000,14.000000,,,,0.000000,2.000000,2.000000,0.000000,2.000000,2.000000,2.000000,0.000000,2.000000,4.000000,4.000000,4.000000,4.000000,2.000000,4.000000,16.666666,,,,,,,,,,,,,,,,,,,,,,,,,,,,
1732081198.678937,1732081198.680030,0.000000,0.000000,4348.333496,4332.436035,4336.794922,4343.589844,4325.128418,4319.230957,4330.897461,4342.051270,4323.589844,4325.769043,4386.153809,4433.205078,4365.897461,4365.769043,0.000000,0.000000,14.000000,,,,0.000000,2.000000,2.000000,0.000000,2.000000,2.000000,2.000000,0.000000,2.000000,4.000000,4.000000,4.000000,4.000000,2.000000,4.000000,16.666666,,,,,,,,,,,,,,,,,0.000000,0.000000,0.614707,0.394958,-0.608032,0.310547,0.959590,0.134782,-0.064461,-77.455818,62.366680,26.876558
1732081198.686745,1732081198.687838,1.000000,0.000000,4346.025879,4329.871582,4337.179688,4340.128418,4320.128418,4316.025879,4329.871582,4340.128418,4323.846191,4327.307617,4389.230957,4432.436035,4370.641113,4365.000000,1299.000000,0.000000,14.000000,,,,0.000000,2.000000,2.000000,0.000000,2.000000,2.000000,2.000000,0.000000,2.000000,4.000000,4.000000,4.000000,4.000000,2.000000,4.000000,16.666666,,,,,,,,,,,,,,,,,,,,,,,,,,,,
1732081198.694553,1732081198.695446,2.000000,0.000000,4346.538574,4332.051270,4334.743652,4338.846191,4326.153809,4319.487305,4330.769043,4340.512695,4324.358887,4327.436035,4389.743652,4436.410156,4371.666504,4365.256348,1230.000000,0.000000,14.000000,,,,0.000000,2.000000,2.000000,0.000000,2.000000,2.000000,2.000000,0.000000,2.000000,4.000000,4.000000,4.000000,4.000000,2.000000,4.000000,16.666666,,,,,,,,,,,,,,,,,,,,,,,,,,,,
1732081198.702361,1732081198.703254,3.000000,0.000000,4347.820313,4332.820313,4331.794922,4340.897461,4336.282227,4319.615234,4326.282227,4339.102539,4321.410156,4323.974121,4386.410156,4436.153809,4372.307617,4367.692383,1177.000000,0.000000,14.000000,,,,0.000000,2.000000,2.000000,0.000000,2.000000,2.000000,2.000000,0.000000,2.000000,4.000000,4.000000,4.000000,4.000000,2.000000,4.000000,16.666666,,,,,,,,,,,,,,,,,,,,,,,,,,,,
1732081198.710169,1732081198.710962,4.000000,0.000000,4348.205078,4329.615234,4332.179688,4337.692383,4324.102539,4316.922852,4323.205078,4336.794922,4321.410156,4327.307617,4387.563965,4433.589844,4375.384766,4370.128418,1194.000000,0.000000,14.000000,,,,0.000000,2.000000,2.000000,0.000000,2.000000,2.000000,2.000000,0.000000,2.000000,4.000000,4.000000,4.000000,4.000000,2.000000,4.000000,16.666666,,,,,,,,,,,,,,,,,1.000000,0.000000,0.614719,0.395081,-0.607910,0.310608,0.979123,0.142107,-0.058113,-77.242546,62.392010,27.216679
1732081198.717978,1732081198.718770,5.000000,0.000000,4348.461426,4330.512695,4332.179688,4334.102539,4306.794922,4319.487305,4327.948730,4338.974121,4325.384766,4332.820313,4393.846191,4435.256348,4378.846191,4369.743652,1075.000000,0.000000,14.000000,,,,0.000000,2.000000,2.000000,0.000000,2.000000,2.000000,2.000000,0.000000,2.000000,4.000000,4.000000,4.000000,4.000000,2.000000,4.000000,16.666666,,,,,,,,,,,,,,,,,,,,,,,,,,,,
1732081198.725786,1732081198.726378,6.000000,0.000000,4346.666504,4332.179688,4332.179688,4336.282227,4315.512695,4319.487305,4331.666504,4341.410156,4323.077148,4327.179688,4393.589844,4437.692383,4379.487305,4368.846191,141.000000,0.000000,14.000000,,,,0.000000,2.000000,2.000000,0.000000,2.000000,2.000000,2.000000,0.000000,2.000000,4.000000,4.000000,4.000000,4.000000,2.000000,4.000000,16.666666,,,,,,,,,,,,,,,,,,,,,,,,,,,,
1732081198.733594,1732081198.734186,7.000000,0.000000,4344.230957,4328.974121,4333.974121,4335.897461,4324.615234,4314.871582,4331.794922,4342.563965,4317.179688,4319.615234,4386.410156,4433.589844,4377.692383,4368.205078,1195.000000,0.000000,14.000000,,,,0.000000,2.000000,2.000000,0.000000,2.000000,2.000000,2.000000,0.000000,2.000000,4.000000,4.000000,4.000000,4.000000,2.000000,4.000000,16.666666,,,,,,,,,,,,,,,,,,,,,,,,,,,,
1732081198.741403,1732081198.741894,8.000000,0.000000,4345.128418,4328.077148,4332.563965,4333.333496,4313.846191,4318.846191,4331.538574,4340.897461,4318.077148,4322.692383,4383.461426,4431.538574,4377.692383,4366.282227,1351.000000,0.000000,14.000000,,,,0.000000,2.000000,2.000000,0.000000,2.000000,2.000000,2.000000,0.000000,2.000000,4.000000,4.000000,4.000000,4.000000,2.000000,4.000000,16.666666,,,,,,,,,,,,,,,,,2.000000,0.000000,0.614292,0.396423,-0.606873,0.311768,0.984495,0.119644,-0.065926,-77.158134,62.462528,27.467176
1732081198.749211,1732081198.749702,9.000000,0.000000,4347.307617,4331.282227,4331.794922,4332.563965,4318.077148,4320.897461,4330.897461,4341.666504,4321.922852,4328.077148,4388.589844,4436.153809,4385.897461,4363.333496,1477.000000,0.000000,14.000000,,,,0.000000,2.000000,2.000000,0.000000,2.000000,2.000000,2.000000,0.000000,2.000000,4.000000,4.000000,4.000000,4.000000,2.000000,4.000000,16.666666,,,,,,,,,,,,,,,,,,,,,,,,,,,,
1732081198.757019,1732081198.757710,10.000000,0.000000,4346.794922,4330.769043,4333.461426,4330.000000,4332.051270,4317.563965,4328.077148,4347.051270,4323.077148,4328.974121,4393.205078,4437.179688,4395.641113,4365.512695,1364.000000,0.000000,14.000000,,,,0.000000,2.000000,2.000000,0.000000,2.000000,2.000000,2.000000,0.000000,2.000000,4.000000,4.000000,4.000000,4.000000,2.000000,4.000000,16.666666,,,,,,,,,,,,,,,,,,,,,,,,,,,,
1732081198.764827,1732081198.765518,11.000000,0.000000,4343.077148,4329.487305,4331.922852,4328.077148,4326.153809,4321.153809,4330.256348,4347.179688,4326.922852,4330.384766,4391.153809,4437.948730,4393.846191,4370.128418,1513.000000,0.000000,14.000000,,,,0.000000,2.000000,2.000000,0.000000,2.000000,2.000000,2.000000,0.000000,2.000000,4.000000,4.000000,4.000000,4.000000,2.000000,4.000000,16.666666,,,,,,,,,,,,,,,,,,,,,,,,,,,,
1732081198.772635,1732081198.773426,12.000000,0.000000,4340.256348,4332.436035,4329.615234,4330.641113,4317.692383,4327.307617,4331.922852,4342.436035,4329.358887,4331.794922,4387.692383,4443.461426,4394.615234,4366.922852,1743.000000,0.000000,14.000000,,,,0.000000,2.000000,2.000000,0.000000,2.000000,2.000000,2.000000,0.000000,2.000000,4.000000,4.000000,4.000000,4.000000,2.000000,4.000000,16.666666,,,,,,,,,,,,,,,,,3.000000,0.000000,0.613395,0.397949,-0.605774,0.313721,0.979123,0.076670,-0.045904,-77.071419,62.314648,27.656746
1732081198.780444,1732081198.781235,13.000000,0.000000,4341.025879,4331.282227,4330.897461,4332.307617,4321.666504,4326.794922,4332.948730,4343.717773,4327.179688,4332.692383,4386.025879,4441.025879,4400.769043,4364.230957,1631.000000,0.000000,14.000000,,,,0.000000,2.000000,2.000000,0.000000,2.000000,2.000000,2.000000,0.000000,2.000000,4.000000,4.000000,4.000000,4.000000,2.000000,4.000000,16.666666,,,,,,,,,,,,,,,,,,,,,,,,,,,,
1732081198.788252,1732081198.789243,14.000000,0.000000,4339.871582,4326.282227,4330.897461,4332.436035,4325.384766,4324.102539,4330.128418,4347.820313,4327.820313,4335.512695,4388.077148,4432.948730,4400.256348,4365.897461,1364.000000,0.000000,14.000000,,,,0.000000,2.000000,2.000000,0.000000,2.000000,2.000000,2.000000,0.000000,2.000000,4.000000,4.000000,4.000000,4.000000,2.000000,4.000000,16.666666,1.000000,8.333333,2.000000,2.000000,0.000000,2.000000,2.000000,1.000000,0.000000,1.000000,1.000000,4.000000,4.000000,4.000000,2.000000,4.000000,,,,,,,,,,,,
1732081198.796060,1732081198.797051,15.000000,0.000000,4335.512695,4325.000000,4329.615234,4329.871582,4322.563965,4326.410156,4331.922852,4346.538574,4330.641113,4334.615234,4388.974121,4435.384766,4396.282227,4363.333496,1513.000000,0.000000,14.000000,,,,0.000000,2.000000,2.000000,0.000000,2.000000,2.000000,2.000000,0.000000,2.000000,4.000000,4.000000,4.000000,4.000000,2.000000,4.000000,16.666666,,,,,,,,,,,,,,,,,,,,,,,,,,,,
1732081198.803868,1732081198.804959,16.000000,0.000000,4335.897461,4325.128418,4328.846191,4325.641113,4322.820313,4325.641113,4333.589844,4344.871582,4330.512695,4330.897461,4387.436035,4441.025879,4397.692383,4361.410156,0.000000,0.000000,14.000000,,,,0.000000,2.000000,2.000000,0.000000,2.000000,2.000000,2.000000,0.000000,2.000000,4.000000,4.000000,4.000000,4.000000,2.000000,4.000000,16.666666,,,,,,,,,,,,,,,,,4.000000,0.000000,0.613226,0.398010,-0.605652,0.314209,0.979123,0.076670,-0.045904,-76.901184,62.446533,27.680298
1732081198.811677,1732081198.812767,17.000000,0.000000,4337.179688,4323.205078,4330.769043,4325.128418,4320.769043,4320.384766,4332.948730,4343.846191,4326.922852,4331.025879,4384.358887,4439.487305,4398.077148,4363.589844,0.000000,0.000000,14.000000,,,,0.000000,2.000000,2.000000,0.000000,2.000000,2.000000,2.000000,0.000000,2.000000,4.000000,4.000000,4.000000,4.000000,2.000000,4.000000,16.666666,,,,,,,,,,,,,,,,,,,,,,,,,,,,
1732081198.819485,1732081198.820375,18.000000,0.000000,4332.436035,4322.051270,4330.000000,4325.769043,4315.769043,4318.589844,4330.384766,4340.128418,4324.615234,4331.666504,4382.179688,4437.692383,4393.846191,4363.333496,0.000000,0.000000,14.000000,,,,0.000000,2.000000,2.000000,0.000000,2.000000,2.000000,2.000000,0.000000,2.000000,4.000000,4.000000,4.000000,4.000000,2.000000,4.000000,16.666666,,,,,,,,,,,,,,,,,,,,,,,,,,,,
1732081198.827293,1732081198.828183,19.000000,0.000000,4331.538574,4323.333496,4330.128418,4324.743652,4321.794922,4320.641113,4331.666504,4340.897461,4325.384766,4329.615234,4386.025879,4439.230957,4393.461426,4364.871582,0.000000,0.000000,14.000000,,,,0.000000,2.000000,2.000000,0.000000,2.000000,2.000000,2.000000,0.000000,2.000000,4.000000,4.000000,4.000000,4.000000,2.000000,4.000000,16.666666,,,,,,,,,,,,,,,,,,,,,,,,,,,,
1732081198.835101,1732081198.836091,20.000000,0.000000,4339.230957,4324.230957,4329.487305,4327.692383,4325.769043,4325.897461,4335.897461,4345.769043,4327.307617,4329.487305,4390.128418,4440.641113,4393.333496,4368.846191,0.000000,0.000000,14.000000,,,,0.000000,2.000000,2.000000,0.000000,2.000000,2.000000,2.000000,0.000000,2.000000,4.000000,4.000000,4.000000,4.000000,2.000000,4.000000,16.666666,,,,,,,,,,,,,,,,,5.000000,0.000000,0.613058,0.398254,-0.605408,0.314697,0.962520,0.077646,-0.040532,-76.928291,62.441692,27.472708
1732081198.842910,1732081198.843900,21.000000,0.000000,4339.102539,4322.948730,4329.743652,4332.948730,4320.256348,4325.769043,4332.307617,4344.487305,4326.282227,4328.333496,4382.051270,4436.282227,4386.794922,4365.256348,0.000000,0.000000,14.000000,,,,0.000000,2.000000,2.000000,0.000000,2.000000,2.000000,2.000000,0.000000,2.000000,4.000000,4.000000,4.000000,4.000000,2.000000,4.000000,16.666666,,,,,,,,,,,,,,,,,,,,,,,,,,,,
1732081198.850718,1732081198.851908,22.000000,0.000000,4333.077148,4323.333496,4328.974121,4334.358887,4328.077148,4317.307617,4327.179688,4342.051270,4324.487305,4326.025879,4376.282227,4431.025879,4381.794922,4360.641113,0.000000,0.000000,14.000000,,,,0.000000,2.000000,2.000000,0.000000,2.000000,2.000000,2.000000,0.000000,2.000000,4.000000,4.000000,4.000000,4.000000,2.000000,4.000000,16.666666,,,,,,,,,,,,,,,,,,,,,,,,,,,,
1732081198.858526,1732081198.859716,23.000000,0.000000,4334.230957,4325.512695,4328.205078,4335.128418,4338.205078,4314.487305,4329.615234,4343.974121,4327.820313,4329.871582,4387.051270,4435.256348,4384.743652,4365.256348,0.000000,0.000000,14.000000,,,,0.000000,2.000000,2.000000,0.000000,2.000000,2.000000,2.000000,0.000000,2.000000,4.000000,4.000000,4.000000,4.000000,2.000000,4.000000,16.666666,,,,,,,,,,,,,,,,,,,,,,,,,,,,
1732081198.866334,1732081198.867624,24.000000,0.000000,4335.641113,4325.000000,4328.717773,4335.384766,4325.641113,4323.717773,4333.589844,4345.897461,4331.282227,4332.179688,4390.641113,4441.025879,4387.051270,4369.102539,0.000000,0.000000,14.000000,,,,0.000000,2.000000,2.000000,0.000000,2.000000,2.000000,2.000000,0.000000,2.000000,4.000000,4.000000,4.000000,4.000000,2.000000,4.000000,16.666666,,,,,,,,,,,,,,,,,6.000000,0.000000,0.613397,0.397705,-0.604980,0.315552,0.971798,0.081065,-0.037114,-76.891914,62.404438,27.342894
1732081198.874143,1732081198.875432,25.000000,0.000000,4331.282227,4323.717773,4330.000000,4331.922852,4316.922852,4327.820313,4331.922852,4347.307617,4329.615234,4328.717773,4382.820313,4434.871582,4381.025879,4365.256348,0.000000,0.000000,14.000000,,,,0.000000,2.000000,2.000000,0.000000,2.000000,2.000000,2.000000,0.000000,2.000000,4.000000,4.000000,4.000000,4.000000,2.000000,4.000000,16.666666,,,,,,,,,,,,,,,,,,,,,,,,,,,,
1732081198.881951,1732081198.883440,26.000000,0.000000,4330.256348,4324.102539,4331.410156,4329.743652,4327.179688,4323.589844,4332.179688,4347.436035,4325.641113,4327.820313,4381.922852,4427.307617,4375.897461,4360.256348,0.000000,0.000000,14.000000,,,,0.000000,2.000000,2.000000,0.000000,2.000000,2.000000,2.000000,0.000000,2.000000,4.000000,4.000000,4.000000,4.000000,2.000000,4.000000,16.666666,,,,,,,,,,,,,,,,,,,,,,,,,,,,
1732081198.889759,1732081198.891248,27.000000,0.000000,4332.948730,4324.615234,4331.538574,4332.307617,4331.410156,4326.666504,4332.307617,4344.743652,4325.256348,4328.461426,4385.769043,4430.000000,4374.230957,4360.512695,0.000000,0.000000,14.000000,,,,0.000000,2.000000,2.000000,0.000000,2.000000,2.000000,2.000000,0.000000,2.000000,4.000000,4.000000,4.000000,4.000000,2.000000,4.000000,16.666666,,,,,,,,,,,,,,,,,,,,,,,,,,,,
1732081198.897567,1732081198.899156,28.000000,0.000000,4333.846191,4328.077148,4332.307617,4337.179688,4326.025879,4334.358887,4332.563965,4343.846191,4328.846191,4331.410156,4383.974121,4436.153809,4374.487305,4366.153809,0.000000,0.000000,14.000000,,,,0.000000,2.000000,2.000000,0.000000,2.000000,2.000000,2.000000,0.000000,2.000000,4.000000,4.000000,4.000000,4.000000,2.000000,4.000000,16.666666,,,,,,,,,,,,,,,,,7.000000,0.000000,0.613667,0.397095,-0.604980,0.315796,0.988890,0.085460,-0.051764,-76.834122,62.494259,27.187744
1732081198.905376,1732081198.906965,29.000000,0.000000,4334.487305,4331.282227,4332.179688,4338.205078,4328.846191,4334.102539,4331.666504,4348.461426,4333.717773,4340.128418,4383.846191,4436.282227,4378.205078,4372.179688,0.000000,0.000000,14.000000,,,,0.000000,2.000000,2.000000,0.000000,2.000000,2.000000,2.000000,0.000000,2.000000,4.000000,4.000000,4.000000,4.000000,2.000000,4.000000,16.666666,,,,,,,,,,,,,,,,,,,,,,,,,,,,
1732081198.913184,1732081198.914973,30.000000,0.000000,4334.230957,4328.846191,4331.025879,4335.384766,4337.179688,4327.948730,4331.025879,4351.538574,4333.974121,4342.051270,4386.025879,4436.282227,4377.948730,4374.487305,0.000000,0.000000,14.000000,,,,0.000000,2.000000,2.000000,0.000000,2.000000,2.000000,2.000000,0.000000,2.000000,4.000000,4.000000,4.000000,4.000000,2.000000,4.000000,16.666666,,,,,,,,,,,,,,,,,,,,,,,,,,,,
1732081198.920992,1732081198.922781,31.000000,0.000000,4333.846191,4327.563965,4328.077148,4334.230957,4338.461426,4328.461426,4330.512695,4349.102539,4331.153809,4335.641113,4386.153809,4439.871582,4375.384766,4377.436035,0.000000,0.000000,14.000000,,,,0.000000,2.000000,2.000000,0.000000,2.000000,2.000000,2.000000,0.000000,2.000000,4.000000,4.000000,4.000000,4.000000,2.000000,4.000000,16.666666,,,,,,,,,,,,,,,,,,,,,,,,,,,,
1732081198.928800,1732081198.930689,32.000000,0.000000,4333.717773,4329.743652,4329.871582,4335.641113,4331.025879,4335.384766,4333.846191,4347.307617,4330.512695,4335.256348,4385.897461,4441.794922,4376.666504,4381.282227,0.000000,0.000000,14.000000,,,,0.000000,2.000000,2.000000,0.000000,2.000000,2.000000,2.000000,0.000000,2.000000,4.000000,4.000000,4.000000,4.000000,2.000000,4.000000,16.666666,,,,,,,,,,,,,,,,,8.000000,0.000000,0.613973,0.396240,-0.605103,0.316040,0.973263,0.098645,-0.044927,-76.802299,62.273685,27.088739
1732081198.936608,1732081198.938497,33.000000,0.000000,4335.000000,4332.179688,4332.307617,4336.794922,4327.948730,4335.897461,4331.666504,4345.641113,4330.384766,4340.641113,4382.307617,4439.102539,4375.769043,4380.897461,0.000000,0.000000,14.000000,,,,0.000000,2.000000,2.000000,0.000000,2.000000,2.000000,2.000000,0.000000,2.000000,4.000000,4.000000,4.000000,4.000000,2.000000,4.000000,16.666666,,,,,,,,,,,,,,,,,,,,,,,,,,,,
1732081198.944417,1732081198.946505,34.000000,0.000000,4335.641113,4331.922852,4333.077148,4337.307617,4333.974121,4328.846191,4330.000000,4343.846191,4328.205078,4338.846191,4379.871582,4438.717773,4371.410156,4379.615234,0.000000,0.000000,14.000000,,,,0.000000,2.000000,2.000000,0.000000,2.000000,2.000000,2.000000,0.000000,2.000000,4.000000,4.000000,4.000000,4.000000,2.000000,4.000000,16.666666,,,,,,,,,,,,,,,,,,,,,,,,,,,,
1732081198.952225,1732081198.954313,35.000000,0.000000,4332.563965,4330.897461,4331.666504,4339.102539,4333.333496,4328.717773,4331.666504,4346.025879,4325.641113,4333.333496,4380.000000,4439.871582,4367.948730,4381.282227,0.000000,0.000000,14.000000,,,,0.000000,2.000000,2.000000,0.000000,2.000000,2.000000,2.000000,0.000000,2.000000,4.000000,4.000000,4.000000,4.000000,2.000000,4.000000,16.666666,,,,,,,,,,,,,,,,,,,,,,,,,,,,
1732081198.960033,1732081198.962221,36.000000,0.000000,4329.230957,4331.538574,4331.666504,4338.205078,4331.794922,4333.717773,4332.179688,4345.897461,4322.051270,4329.102539,4377.820313,4437.692383,4364.743652,4378.717773,0.000000,0.000000,14.000000,,,,0.000000,2.000000,2.000000,0.000000,2.000000,2.000000,2.000000,0.000000,2.000000,4.000000,4.000000,4.000000,4.000000,2.000000,4.000000,16.666666,,,,,,,,,,,,,,,,,9.000000,0.000000,0.614897,0.394226,-0.605225,0.316528,0.991332,0.098157,-0.027347,-77.108200,62.261684,27.096878
1732081198.967842,1732081198.970030,37.000000,0.000000,4329.358887,4332.563965,4330.512695,4337.179688,4335.384766,4334.615234,4331.666504,4342.563965,4321.538574,4326.025879,4375.512695,4434.230957,4362.692383,4374.871582,0.000000,0.000000,14.000000,,,,0.000000,2.000000,2.000000,0.000000,2.000000,2.000000,2.000000,0.000000,2.000000,4.000000,4.000000,4.000000,4.000000,2.000000,4.000000,16.666666,,,,,,,,,,,,,,,,,,,,,,,,,,,,
1732081198.975650,1732081198.977938,38.000000,0.000000,4330.769043,4329.358887,4329.102539,4338.974121,4331.666504,4335.769043,4333.205078,4347.563965,4326.282227,4327.436035,4372.179688,4434.487305,4362.948730,4376.794922,0.000000,0.000000,14.000000,,,,0.000000,2.000000,2.000000,0.000000,2.000000,2.000000,2.000000,0.000000,2.000000,4.000000,4.000000,4.000000,4.000000,2.000000,4.000000,16.666666,,,,,,,,,,,,,,,,,,,,,,,,,,,,
1732081198.983458,1732081198.985746,39.000000,0.000000,4328.974121,4326.410156,4330.641113,4335.769043,4336.538574,4337.179688,4333.717773,4353.461426,4329.358887,4328.205078,4370.128418,4436.025879,4361.794922,4376.922852,0.000000,0.000000,14.000000,,,,0.000000,2.000000,2.000000,0.000000,2.000000,2.000000,2.000000,0.000000,2.000000,4.000000,4.000000,4.000000,4.000000,2.000000,4.000000,16.666666,,,,,,,,,,,,,,,,,,,,,,,,,,,,
1732081198.991266,1732081198.993654,40.000000,0.000000,4327.820313,4328.077148,4332.692383,4329.871582,4347.563965,4332.563965,4331.282227,4347.179688,4328.077148,4327.948730,4373.205078,4433.846191,4363.846191,4372.820313,0.000000,0.000000,14.000000,,,,0.000000,2.000000,2.000000,0.000000,2.000000,2.000000,2.000000,0.000000,2.000000,4.000000,4.000000,4.000000,4.000000,2.000000,4.000000,16.666666,,,,,,,,,,,,,,,,,10.000000,0.000000,0.615301,0.393311,-0.605347,0.316650,0.978635,0.094738,-0.047857,-77.224304,62.050297,27.033472
1732081198.999074,1732081199.001462,41.000000,0.000000,4330.512695,4332.948730,4332.307617,4335.256348,4337.051270,4327.948730,4331.410156,4342.436035,4324.358887,4330.641113,4377.179688,4434.615234,4371.153809,4374.871582,0.000000,0.000000,14.000000,,,,0.000000,2.000000,2.000000,0.000000,2.000000,2.000000,2.000000,0.000000,2.000000,4.000000,4.000000,4.000000,4.000000,2.000000,4.000000,16.666666,,,,,,,,,,,,,,,,,,,,,,,,,,,,
1732081199.006883,1732081199.009070,42.000000,0.000000,4333.974121,4337.307617,4328.974121,4346.025879,4322.436035,4329.102539,4330.128418,4347.307617,4322.948730,4333.077148,4380.384766,4440.769043,4380.897461,4380.897461,0.000000,0.000000,14.000000,,,,0.000000,2.000000,2.000000,0.000000,2.000000,2.000000,2.000000,0.000000,2.000000,4.000000,4.000000,4.000000,4.000000,2.000000,4.000000,16.666666,,,,,,,,,,,,,,,,,,,,,,,,,,,,
1732081199.014691,1732081199.016878,43.000000,0.000000,4333.077148,4334.487305,4326.794922,4343.077148,4327.179688,4328.205078,4331.666504,4347.563965,4323.974121,4332.948730,4384.743652,4441.282227,4385.769043,4377.948730,0.000000,0.000000,14.000000,,,,0.000000,2.000000,2.000000,0.000000,2.000000,2.000000,2.000000,0.000000,2.000000,4.000000,4.000000,4.000000,4.000000,2.000000,4.000000,16.666666,,,,,,,,,,,,,,,,,,,,,,,,,,,,
1732081199.022499,1732081199.024586,44.000000,0.000000,4332.051270,4330.256348,4326.666504,4335.641113,4331.282227,4323.333496,4330.769043,4342.692383,4323.589844,4333.974121,4382.820313,4433.333496,4381.922852,4373.205078,0.000000,0.000000,14.000000,,,,0.000000,2.000000,2.000000,0.000000,2.000000,2.000000,2.000000,0.000000,2.000000,4.000000,4.000000,4.000000,4.000000,2.000000,4.000000,16.666666,,,,,,,,,,,,,,,,,11.000000,0.000000,0.615301,0.393311,-0.605347,0.316650,0.972287,0.089366,-0.040532,-77.138359,61.864075,26.997112
1732081199.030307,1732081199.032394,45.000000,0.000000,4336.538574,4335.128418,4330.641113,4337.436035,4321.282227,4320.641113,4329.102539,4343.974121,4322.563965,4334.615234,4376.025879,4432.563965,4380.000000,4378.333496,0.000000,0.000000,14.000000,,,,0.000000,2.000000,2.000000,0.000000,2.000000,2.000000,2.000000,0.000000,2.000000,4.000000,4.000000,4.000000,4.000000,2.000000,4.000000,16.666666,,,,,,,,,,,,,,,,,,,,,,,,,,,,
1732081199.038116,1732081199.040003,46.000000,0.000000,4341.282227,4339.230957,4332.948730,4340.769043,4321.794922,4323.461426,4325.641113,4348.077148,4323.846191,4332.692383,4378.205078,4438.333496,4382.307617,4385.128418,0.000000,0.000000,14.000000,,,,0.000000,2.000000,2.000000,0.000000,2.000000,2.000000,2.000000,0.000000,2.000000,4.000000,4.000000,4.000000,4.000000,2.000000,4.000000,16.666666,,,,,,,,,,,,,,,,,,,,,,,,,,,,
1732081199.045924,1732081199.047811,47.000000,0.000000,4343.717773,4333.461426,4333.589844,4341.025879,4327.692383,4324.871582,4326.666504,4345.897461,4326.025879,4331.025879,4381.410156,4439.487305,4378.846191,4384.230957,0.000000,0.000000,14.000000,,,,0.000000,2.000000,2.000000,0.000000,2.000000,2.000000,2.000000,0.000000,2.000000,4.000000,4.000000,4.000000,4.000000,2.000000,4.000000,16.666666,,,,,,,,,,,,,,,,,,,,,,,,,,,,
1732081199.053732,1732081199.055519,48.000000,0.000000,4351.410156,4332.563965,4333.589844,4339.358887,4318.461426,4317.948730,4327.692383,4341.666504,4323.077148,4327.948730,4374.743652,4436.666504,4374.743652,4384.102539,0.000000,0.000000,14.000000,,,,0.000000,2.000000,2.000000,0.000000,2.000000,2.000000,2.000000,0.000000,2.000000,4.000000,4.000000,4.000000,4.000000,2.000000,4.000000,16.666666,,,,,,,,,,,,,,,,,12.000000,0.000000,0.615651,0.392578,-0.605530,0.316528,0.971798,0.099622,-0.036137,-77.265404,61.956566,27.157661
1732081199.061540,1732081199.063327,49.000000,0.000000,4363.333496,4337.948730,4333.717773,4335.641113,4309.487305,4313.333496,4328.333496,4341.922852,4319.102539,4326.025879,4377.820313,4442.820313,4382.948730,4396.666504,0.000000,0.000000,14.000000,,,,0.000000,2.000000,2.000000,0.000000,2.000000,2.000000,2.000000,0.000000,2.000000,4.000000,4.000000,4.000000,4.000000,2.000000,4.000000,16.666666,,,,,,,,,,,,,,,,,,,,,,,,,,,,
1732081199.069348,1732081199.070935,50.000000,0.000000,4378.205078,4338.717773,4332.436035,4335.769043,4318.589844,4314.871582,4326.538574,4342.563965,4320.128418,4328.077148,4393.589844,4453.205078,4390.256348,4415.128418,0.000000,0.000000,14.000000,,,,0.000000,2.000000,2.000000,0.000000,2.000000,2.000000,2.000000,0.000000,2.000000,4.000000,4.000000,4.000000,4.000000,2.000000,4.000000,16.666666,,,,,,,,,,,,,,,,,,,,,,,,,,,,
1732081199.077157,1732081199.078743,51.000000,0.000000,4391.666504,4338.461426,4333.717773,4339.230957,4328.589844,4313.974121,4326.025879,4340.769043,4318.974121,4323.333496,4394.743652,4453.205078,4386.538574,4425.128418,0.000000,0.000000,14.000000,,,,0.000000,2.000000,2.000000,0.000000,2.000000,2.000000,2.000000,0.000000,2.000000,4.000000,4.000000,4.000000,4.000000,2.000000,4.000000,16.666666,,,,,,,,,,,,,,,,,,,,,,,,,,,,
1732081199.084965,1732081199.086651,52.000000,0.000000,4403.077148,4340.000000,4336.153809,4339.615234,4315.128418,4312.436035,4328.205078,4340.256348,4314.615234,4319.230957,4390.000000,4453.717773,4388.205078,4432.820313,0.000000,0.000000,14.000000,,,,0.000000,2.000000,2.000000,0.000000,2.000000,2.000000,2.000000,0.000000,2.000000,4.000000,4.000000,4.000000,4.000000,2.000000,4.000000,16.666666,,,,,,,,,,,,,,,,,13.000000,0.000000,0.615263,0.392639,-0.605469,0.317322,0.980588,0.091808,-0.048834,-77.433311,61.646484,27.194372
1732081199.092773,1732081199.094459,53.000000,0.000000,4417.820313,4341.153809,4336.794922,4338.974121,4297.051270,4308.077148,4328.461426,4340.256348,4313.846191,4324.743652,4403.205078,4465.641113,4398.717773,4450.256348,0.000000,0.000000,14.000000,,,,0.000000,2.000000,2.000000,0.000000,2.000000,2.000000,2.000000,0.000000,2.000000,4.000000,4.000000,4.000000,4.000000,2.000000,4.000000,16.666666,,,,,,,,,,,,,,,,,,,,,,,,,,,,
1732081199.100582,1732081199.102467,54.000000,0.000000,4432.948730,4344.615234,4334.615234,4341.538574,4300.000000,4303.589844,4325.769043,4341.538574,4315.512695,4327.179688,4413.589844,4470.641113,4401.282227,4465.897461,0.000000,0.000000,14.000000,,,,0.000000,2.000000,2.000000,0.000000,2.000000,2.000000,2.000000,0.000000,2.000000,4.000000,4.000000,4.000000,4.000000,2.000000,4.000000,16.666666,,,,,,,,,,,,,,,,,,,,,,,,,,,,
1732081199.108390,1732081199.110275,55.000000,0.000000,4441.794922,4347.948730,4334.358887,4344.615234,4309.743652,4305.384766,4323.333496,4343.077148,4314.487305,4321.922852,4406.025879,4464.871582,4396.282227,4466.410156,0.000000,0.000000,14.000000,,,,0.000000,2.000000,2.000000,0.000000,2.000000,2.000000,2.000000,0.000000,2.000000,4.000000,4.000000,4.000000,4.000000,2.000000,4.000000,16.666666,,,,,,,,,,,,,,,,,,,,,,,,,,,,
1732081199.116198,1732081199.117983,56.000000,0.000000,4444.615234,4346.794922,4337.307617,4346.922852,4303.461426,4307.051270,4324.615234,4339.743652,4312.563965,4319.102539,4402.692383,4469.615234,4395.769043,4464.871582,0.000000,0.000000,14.000000,,,,0.000000,2.000000,2.000000,0.000000,2.000000,2.000000,2.000000,0.000000,2.000000,4.000000,4.000000,4.000000,4.000000,2.000000,4.000000,16.666666,,,,,,,,,,,,,,,,,14.000000,0.000000,0.615025,0.392578,-0.605591,0.317627,0.991820,0.083995,-0.045904,-77.494316,61.803654,27.194107
1732081199.124006,1732081199.125791,57.000000,0.000000,4448.333496,4345.769043,4336.922852,4348.589844,4294.487305,4302.436035,4325.769043,4338.974121,4312.436035,4320.897461,4409.743652,4476.025879,4396.410156,4471.410156,0.000000,0.000000,14.000000,,,,0.000000,2.000000,2.000000,0.000000,2.000000,2.000000,2.000000,0.000000,2.000000,4.000000,4.000000,4.000000,4.000000,2.000000,4.000000,16.666666,,,,,,,,,,,,,,,,,,,,,,,,,,,,
1732081199.131814,1732081199.133400,58.000000,0.000000,4448.461426,4346.282227,4333.717773,4347.179688,4308.205078,4298.589844,4326.282227,4342.436035,4311.922852,4321.282227,4412.692383,4472.692383,4397.436035,4476.153809,0.000000,0.000000,14.000000,,,,0.000000,2.000000,2.000000,0.000000,2.000000,2.000000,2.000000,0.000000,2.000000,4.000000,4.000000,4.000000,4.000000,2.000000,4.000000,16.666666,,,,,,,,,,,,,,,,,,,,,,,,,,,,
1732081199.139623,1732081199.141208,59.000000,0.000000,4445.897461,4345.256348,4333.077148,4345.256348,4316.922852,4301.538574,4324.358887,4343.205078,4312.563965,4325.000000,4413.589844,4471.922852,4400.512695,4476.666504,0.000000,0.000000,14.000000,,,,0.000000,2.000000,2.000000,0.000000,2.000000,2.000000,2.000000,0.000000,2.000000,4.000000,4.000000,4.000000,4.000000,2.000000,4.000000,16.666666,,,,,,,,,,,,,,,,,,,,,,,,,,,,
1732081199.147431,1732081199.148916,60.000000,0.000000,4448.077148,4345.769043,4336.410156,4347.179688,4302.436035,4307.563965,4324.871582,4340.256348,4316.025879,4328.205078,4414.615234,4473.205078,4395.641113,4475.128418,0.000000,0.000000,14.000000,,,,0.000000,2.000000,2.000000,0.000000,2.000000,2.000000,2.000000,0.000000,2.000000,4.000000,4.000000,4.000000,4.000000,2.000000,4.000000,16.666666,,,,,,,,,,,,,,,,,15.000000,0.000000,0.615025,0.392578,-0.605591,0.317627,0.990844,0.077646,-0.043462,-77.573730,61.810959,27.073895
1732081199.155239,1732081199.156724,61.000000,0.000000,4451.666504,4346.410156,4336.922852,4347.948730,4298.077148,4311.666504,4324.615234,4340.512695,4320.769043,4328.461426,4415.512695,4467.563965,4391.153809,4474.743652,0.000000,0.000000,14.000000,,,,0.000000,2.000000,2.000000,0.000000,2.000000,2.000000,2.000000,0.000000,2.000000,4.000000,4.000000,4.000000,4.000000,2.000000,4.000000,16.666666,,,,,,,,,,,,,,,,,,,,,,,,,,,,
1732081199.163047,1732081199.164332,62.000000,0.000000,4450.897461,4343.077148,4336.794922,4344.615234,4306.538574,4311.538574,4326.410156,4346.794922,4319.871582,4326.794922,4417.179688,4467.179688,4395.641113,4475.897461,0.000000,0.000000,14.000000,,,,0.000000,2.000000,2.000000,0.000000,2.000000,2.000000,2.000000,0.000000,2.000000,4.000000,4.000000,4.000000,4.000000,2.000000,4.000000,16.666666,,,,,,,,,,,,,,,,,,,,,,,,,,,,
1732081199.170856,1732081199.172140,63.000000,0.000000,4448.846191,4341.922852,4336.153809,4346.282227,4306.282227,4307.692383,4324.102539,4348.333496,4316.410156,4324.358887,4416.538574,4472.307617,4391.794922,4476.666504,0.000000,0.000000,14.000000,,,,0.000000,2.000000,2.000000,0.000000,2.000000,2.000000,2.000000,0.000000,2.000000,4.000000,4.000000,4.000000,4.000000,2.000000,4.000000,16.666666,,,,,,,,,,,,,,,,,,,,,,,,,,,,
1732081199.178664,1732081199.180048,64.000000,0.000000,4453.077148,4343.717773,4335.897461,4347.820313,4309.358887,4305.000000,4321.410156,4340.512695,4315.641113,4323.846191,4413.077148,4465.641113,4380.256348,4475.512695,0.000000,0.000000,14.000000,,,,0.000000,2.000000,2.000000,0.000000,2.000000,2.000000,2.000000,0.000000,2.000000,4.000000,4.000000,4.000000,4.000000,2.000000,4.000000,16.666666,,,,,,,,,,,,,,,,,16.000000,0.000000,0.614434,0.392761,-0.605591,0.318542,0.974240,0.072763,-0.060066,-77.371384,61.603542,27.201521
1732081199.186472,1732081199.187856,65.000000,0.000000,4458.077148,4342.179688,4335.128418,4345.128418,4314.871582,4305.769043,4322.307617,4336.922852,4314.871582,4324.743652,4411.922852,4459.615234,4386.282227,4473.461426,1295.000000,0.000000,14.000000,,,,0.000000,2.000000,2.000000,0.000000,2.000000,2.000000,2.000000,0.000000,2.000000,4.000000,4.000000,4.000000,4.000000,2.000000,4.000000,16.666666,,,,,,,,,,,,,,,,,,,,,,,,,,,,
1732081199.194281,1732081199.195864,66.000000,0.000000,4453.589844,4340.769043,4336.666504,4344.615234,4308.974121,4306.153809,4325.897461,4341.025879,4312.948730,4322.436035,4413.717773,4467.179688,4393.461426,4475.128418,1220.000000,0.000000,14.000000,,,,0.000000,2.000000,2.000000,0.000000,2.000000,2.000000,2.000000,0.000000,2.000000,4.000000,4.000000,4.000000,4.000000,2.000000,4.000000,16.666666,,,,,,,,,,,,,,,,,,,,,,,,,,,,
1732081199.202089,1732081199.203672,67.000000,0.000000,4449.487305,4341.153809,4334.615234,4346.794922,4305.128418,4310.641113,4326.922852,4341.666504,4313.461426,4320.384766,4414.871582,4471.666504,4383.846191,4474.230957,1177.000000,0.000000,14.000000,,,,0.000000,2.000000,2.000000,0.000000,2.000000,2.000000,2.000000,0.000000,2.000000,4.000000,4.000000,4.000000,4.000000,2.000000,4.000000,16.666666,,,,,,,,,,,,,,,,,,,,,,,,,,,,
1732081199.209897,1732081199.211580,68.000000,0.000000,4455.512695,4338.974121,4332.051270,4346.922852,4308.717773,4316.922852,4327.307617,4338.717773,4315.641113,4324.230957,4415.256348,4468.974121,4380.256348,4472.948730,1199.000000,0.000000,14.000000,,,,0.000000,2.000000,2.000000,0.000000,2.000000,2.000000,2.000000,0.000000,2.000000,4.000000,4.000000,4.000000,4.000000,2.000000,4.000000,16.666666,,,,,,,,,,,,,,,,,17.000000,0.000000,0.614346,0.392334,-0.605957,0.318542,0.979612,0.081553,-0.047857,-77.152489,61.313869,27.273232
1732081199.217705,1732081199.219389,69.000000,0.000000,4460.641113,4338.077148,4336.794922,4347.692383,4319.871582,4312.563965,4325.769043,4339.358887,4316.153809,4325.641113,4416.922852,4472.820313,4386.538574,4474.102539,1075.000000,0.000000,14.000000,,,,0.000000,2.000000,2.000000,0.000000,2.000000,2.000000,2.000000,0.000000,2.000000,4.000000,4.000000,4.000000,4.000000,2.000000,4.000000,16.666666,,,,,,,,,,,,,,,,,,,,,,,,,,,,
1732081199.225513,1732081199.226997,70.000000,0.000000,4459.615234,4340.384766,4343.461426,4347.820313,4322.436035,4306.410156,4323.333496,4338.205078,4318.077148,4322.436035,4415.897461,4478.333496,4381.794922,4474.615234,141.000000,0.000000,14.000000,,,,0.000000,2.000000,2.000000,0.000000,2.000000,2.000000,2.000000,0.000000,2.000000,4.000000,4.000000,4.000000,4.000000,2.000000,4.000000,16.666666,,,,,,,,,,,,,,,,,,,,,,,,,,,,
1732081199.233322,1732081199.234805,71.000000,0.000000,4460.384766,4338.077148,4340.641113,4345.769043,4307.436035,4310.641113,4326.025879,4339.487305,4324.743652,4324.487305,4416.410156,4480.512695,4375.769043,4476.666504,1195.000000,0.000000,14.000000,,,,0.000000,2.000000,2.000000,0.000000,2.000000,2.000000,2.000000,0.000000,2.000000,4.000000,4.000000,4.000000,4.000000,2.000000,4.000000,16.666666,,,,,,,,,,,,,,,,,,,,,,,,,,,,
1732081199.241130,1732081199.242513,72.000000,0.000000,4459.615234,4334.743652,4336.153809,4345.256348,4307.692383,4312.307617,4327.307617,4343.717773,4326.666504,4329.487305,4420.000000,4479.358887,4379.102539,4474.871582,1351.000000,0.000000,14.000000,,,,0.000000,2.000000,2.000000,0.000000,2.000000,2.000000,2.000000,0.000000,2.000000,4.000000,4.000000,4.000000,4.000000,2.000000,4.000000,16.666666,,,,,,,,,,,,,,,,,18.000000,0.000000,0.614332,0.392212,-0.606018,0.318604,0.967892,0.070809,-0.029300,-76.933517,61.032570,27.126318
1732081199.248938,1732081199.250321,73.000000,0.000000,4450.384766,4333.717773,4338.077148,4345.384766,4318.461426,4308.589844,4324.230957,4341.538574,4320.128418,4329.230957,4417.563965,4477.563965,4377.692383,4466.282227,1479.000000,0.000000,14.000000,,,,0.000000,2.000000,2.000000,0.000000,2.000000,2.000000,2.000000,0.000000,2.000000,4.000000,4.000000,4.000000,4.000000,2.000000,4.000000,16.666666,,,,,,,,,,,,,,,,,,,,,,,,,,,,
1732081199.256746,1732081199.258329,74.000000,0.000000,4443.461426,4333.077148,4339.615234,4345.128418,4313.077148,4311.922852,4322.563965,4338.589844,4319.743652,4326.666504,4413.846191,4476.666504,4371.025879,4459.230957,1366.000000,0.000000,14.000000,,,,0.000000,2.000000,2.000000,0.000000,2.000000,2.000000,2.000000,0.000000,2.000000,4.000000,4.000000,4.000000,4.000000,2.000000,4.000000,16.666666,,,,,,,,,,,,,,,,,,,,,,,,,,,,
1732081199.264555,1732081199.266137,75.000000,0.000000,4442.051270,4335.256348,4337.948730,4347.692383,4306.410156,4317.820313,4328.846191,4345.769043,4325.641113,4329.230957,4416.025879,4477.179688,4369.102539,4460.897461,1508.000000,0.000000,14.000000,,,,0.000000,2.000000,2.000000,0.000000,2.000000,2.000000,2.000000,0.000000,2.000000,4.000000,4.000000,4.000000,4.000000,2.000000,4.000000,16.666666,,,,,,,,,,,,,,,,,,,,,,,,,,,,
1732081199.272363,1732081199.274045,76.000000,0.000000,4440.641113,4338.717773,4338.717773,4351.666504,4317.436035,4320.000000,4329.487305,4350.641113,4327.948730,4332.692383,4414.871582,4475.512695,4369.487305,4460.256348,1743.000000,0.000000,14.000000,,,,0.000000,2.000000,2.000000,0.000000,2.000000,2.000000,2.000000,0.000000,2.000000,4.000000,4.000000,4.000000,4.000000,2.000000,4.000000,16.666666,,,,,,,,,,,,,,,,,19.000000,0.000000,0.614240,0.391785,-0.606323,0.318726,0.971310,0.081065,-0.041997,-77.104485,60.963047,27.062317
1732081199.280171,1732081199.281853,77.000000,0.000000,4435.769043,4338.461426,4339.358887,4351.666504,4329.743652,4315.897461,4327.436035,4344.230957,4324.871582,4327.563965,4410.897461,4474.615234,4365.384766,4452.051270,1629.000000,0.000000,14.000000,,,,0.000000,2.000000,2.000000,0.000000,2.000000,2.000000,2.000000,0.000000,2.000000,4.000000,4.000000,4.000000,4.000000,2.000000,4.000000,16.666666,,,,,,,,,,,,,,,,,,,,,,,,,,,,
1732081199.287979,1732081199.289861,78.000000,0.000000,4433.205078,4338.205078,4337.051270,4350.384766,4327.436035,4310.128418,4324.871582,4343.846191,4322.820313,4324.871582,4413.846191,4474.871582,4360.769043,4449.871582,1366.000000,0.000000,14.000000,,,,0.000000,2.000000,2.000000,0.000000,2.000000,2.000000,2.000000,0.000000,2.000000,4.000000,4.000000,4.000000,4.000000,2.000000,4.000000,16.666666,1.000000,8.333333,2.000000,2.000000,0.000000,2.000000,2.000000,2.000000,0.000000,1.000000,1.000000,4.000000,4.000000,4.000000,2.000000,3.000000,,,,,,,,,,,,
1732081199.295787,1732081199.297669,79.000000,0.000000,4434.871582,4338.077148,4339.487305,4353.461426,4315.512695,4312.179688,4323.974121,4350.897461,4324.871582,4333.205078,4418.974121,4475.128418,4361.538574,4452.051270,1508.000000,0.000000,14.000000,,,,0.000000,2.000000,2.000000,0.000000,2.000000,2.000000,2.000000,0.000000,2.000000,4.000000,4.000000,4.000000,4.000000,2.000000,4.000000,16.666666,,,,,,,,,,,,,,,,,,,,,,,,,,,,
1732081199.303596,1732081199.305578,80.000000,0.000000,4431.538574,4337.051270,4338.974121,4354.487305,4311.538574,4316.025879,4323.846191,4351.025879,4328.333496,4338.205078,4418.333496,4477.436035,4361.025879,4448.205078,1743.000000,0.000000,14.000000,,,,0.000000,2.000000,2.000000,0.000000,2.000000,2.000000,2.000000,0.000000,2.000000,4.000000,4.000000,4.000000,4.000000,2.000000,4.000000,16.666666,,,,,,,,,,,,,,,,,20.000000,0.000000,0.614242,0.390930,-0.606873,0.318726,0.975705,0.091808,-0.048346,-77.319633,61.116734,27.092144
1732081199.311404,1732081199.313386,81.000000,0.000000,4421.025879,4334.230957,4336.410156,4345.897461,4322.820313,4318.589844,4328.846191,4347.948730,4327.692383,4333.846191,4414.230957,4477.820313,4357.436035,4438.974121,1629.000000,0.000000,14.000000,,,,0.000000,2.000000,2.000000,0.000000,2.000000,2.000000,2.000000,0.000000,2.000000,4.000000,4.000000,4.000000,4.000000,2.000000,4.000000,16.666666,,,,,,,,,,,,,,,,,,,,,,,,,,,,
1732081199.319212,1732081199.321394,82.000000,0.000000,4416.666504,4330.641113,4337.820313,4342.692383,4325.000000,4324.871582,4328.717773,4350.641113,4328.717773,4336.794922,4415.384766,4476.282227,4355.897461,4438.333496,1366.000000,0.000000,14.000000,,,,0.000000,2.000000,2.000000,0.000000,2.000000,2.000000,2.000000,0.000000,2.000000,4.000000,4.000000,4.000000,4.000000,2.000000,4.000000,16.666666,,,,,,,,,,,,,,,,,,,,,,,,,,,,
1732081199.327021,1732081199.329202,83.000000,0.000000,4418.333496,4333.974121,4340.897461,4350.256348,4318.846191,4324.230957,4323.077148,4353.333496,4333.589844,4345.000000,4421.794922,4476.153809,4355.256348,4442.179688,1508.000000,0.000000,14.000000,,,,0.000000,2.000000,2.000000,0.000000,2.000000,2.000000,2.000000,0.000000,2.000000,4.000000,4.000000,4.000000,4.000000,2.000000,4.000000,16.666666,,,,,,,,,,,,,,,,,,,,,,,,,,,,
1732081199.334829,1732081199.337110,84.000000,0.000000,4415.000000,4338.077148,4339.102539,4350.897461,4327.820313,4315.641113,4323.717773,4352.307617,4333.333496,4344.487305,4420.769043,4476.794922,4354.358887,4436.794922,1743.000000,0.000000,14.000000,,,,0.000000,2.000000,2.000000,0.000000,2.000000,2.000000,2.000000,0.000000,2.000000,4.000000,4.000000,4.000000,4.000000,2.000000,4.000000,16.666666,,,,,,,,,,,,,,,,,21.000000,0.000000,0.614146,0.390747,-0.607056,0.318787,0.972287,0.079111,-0.048346,-77.365570,61.099556,27.427969
1732081199.342637,1732081199.344918,85.000000,0.000000,4412.436035,4336.153809,4337.563965,4347.820313,4333.077148,4317.563965,4328.333496,4350.641113,4329.871582,4339.487305,4413.461426,4476.282227,4353.974121,4429.743652,1629.000000,0.000000,14.000000,,,,0.000000,2.000000,2.000000,0.000000,2.000000,2.000000,2.000000,0.000000,2.000000,4.000000,4.000000,4.000000,4.000000,2.000000,4.000000,16.666666,,,,,,,,,,,,,,,,,,,,,,,,,,,,
1732081199.350445,1732081199.352926,86.000000,0.000000,4413.717773,4335.256348,4336.282227,4351.538574,4327.820313,4328.333496,4328.846191,4350.256348,4328.717773,4339.102539,4412.436035,4470.769043,4350.384766,4427.307617,1366.000000,0.000000,14.000000,,,,0.000000,2.000000,2.000000,0.000000,2.000000,2.000000,2.000000,0.000000,2.000000,4.000000,4.000000,4.000000,4.000000,2.000000,4.000000,16.666666,,,,,,,,,,,,,,,,,,,,,,,,,,,,
1732081199.358253,1732081199.360735,87.000000,0.000000,4406.282227,4333.846191,4336.922852,4351.025879,4326.538574,4330.641113,4326.153809,4351.538574,4330.769043,4341.538574,4413.333496,4466.025879,4343.589844,4425.769043,1508.000000,0.000000,14.000000,,,,0.000000,2.000000,2.000000,0.000000,2.000000,2.000000,2.000000,0.000000,2.000000,4.000000,4.000000,4.000000,4.000000,2.000000,4.000000,16.666666,,,,,,,,,,,,,,,,,,,,,,,,,,,,
1732081199.366062,1732081199.368443,88.000000,0.000000,4399.102539,4329.615234,4339.230957,4344.615234,4330.000000,4328.846191,4327.563965,4351.025879,4333.205078,4342.692383,4411.538574,4470.897461,4342.563965,4425.384766,1743.000000,0.000000,14.000000,,,,0.000000,2.000000,2.000000,0.000000,2.000000,2.000000,2.000000,0.000000,2.000000,4.000000,4.000000,4.000000,4.000000,2.000000,4.000000,16.666666,,,,,,,,,,,,,,,,,22.000000,0.000000,0.614204,0.390381,-0.607361,0.318542,0.972287,0.079111,-0.048346,-77.289444,61.132305,27.233322
1732081199.373870,1732081199.376251,89.000000,0.000000,4405.256348,4332.051270,4337.436035,4349.358887,4331.922852,4329.871582,4328.589844,4349.871582,4331.410156,4342.179688,4413.974121,4477.563965,4347.051270,4428.461426,1629.000000,0.000000,14.000000,,,,0.000000,2.000000,2.000000,0.000000,2.000000,2.000000,2.000000,0.000000,2.000000,4.000000,4.000000,4.000000,4.000000,2.000000,4.000000,16.666666,,,,,,,,,,,,,,,,,,,,,,,,,,,,
1732081199.381678,1732081199.383859,90.000000,0.000000,4406.922852,4337.179688,4337.948730,4354.743652,4331.282227,4329.102539,4326.922852,4350.512695,4328.974121,4340.256348,4416.025879,4477.563965,4346.666504,4429.102539,1366.000000,0.000000,14.000000,,,,0.000000,2.000000,2.000000,0.000000,2.000000,2.000000,2.000000,0.000000,2.000000,4.000000,4.000000,4.000000,4.000000,2.000000,4.000000,16.666666,,,,,,,,,,,,,,,,,,,,,,,,,,,,
1732081199.389486,1732081199.391668,91.000000,0.000000,4397.436035,4333.333496,4342.051270,4352.179688,4329.871582,4327.436035,4324.102539,4349.871582,4331.922852,4341.025879,4414.871582,4475.128418,4342.179688,4424.230957,1508.000000,0.000000,14.000000,,,,0.000000,2.000000,2.000000,0.000000,2.000000,2.000000,2.000000,0.000000,2.000000,4.000000,4.000000,4.000000,4.000000,2.000000,4.000000,16.666666,,,,,,,,,,,,,,,,,,,,,,,,,,,,
1732081199.397295,1732081199.399376,92.000000,0.000000,4395.384766,4329.615234,4340.897461,4350.769043,4335.769043,4327.179688,4324.871582,4349.615234,4335.897461,4343.589844,4415.641113,4474.102539,4343.461426,4422.692383,1743.000000,0.000000,14.000000,,,,0.000000,2.000000,2.000000,0.000000,2.000000,2.000000,2.000000,0.000000,2.000000,4.000000,4.000000,4.000000,4.000000,2.000000,4.000000,16.666666,,,,,,,,,,,,,,,,,23.000000,0.000000,0.613995,0.390320,-0.607483,0.318787,0.987914,0.085460,-0.055671,-77.297783,61.043835,27.315659
1732081199.405103,1732081199.407184,93.000000,0.000000,4396.538574,4330.641113,4335.000000,4350.897461,4346.666504,4329.358887,4324.102539,4353.974121,4337.563965,4344.615234,4416.153809,4473.974121,4345.000000,4426.410156,1629.000000,0.000000,14.000000,,,,0.000000,2.000000,2.000000,0.000000,2.000000,2.000000,2.000000,0.000000,2.000000,4.000000,4.000000,4.000000,4.000000,2.000000,4.000000,16.666666,,,,,,,,,,,,,,,,,,,,,,,,,,,,
1732081199.412911,1732081199.414792,94.000000,0.000000,4394.230957,4331.666504,4336.153809,4352.307617,4337.948730,4333.846191,4324.615234,4358.589844,4338.205078,4342.692383,4412.948730,4474.871582,4340.128418,4423.974121,1366.000000,0.000000,14.000000,,,,0.000000,2.000000,2.000000,0.000000,2.000000,2.000000,2.000000,0.000000,2.000000,4.000000,4.000000,4.000000,4.000000,2.000000,4.000000,16.666666,,,,,,,,,,,,,,,,,,,,,,,,,,,,
1732081199.420719,1732081199.422600,95.000000,0.000000,4393.846191,4332.307617,4337.820313,4353.461426,4327.307617,4336.794922,4325.000000,4358.461426,4339.102539,4342.563965,4411.922852,4472.692383,4337.948730,4414.871582,1508.000000,0.000000,14.000000,,,,0.000000,2.000000,2.000000,0.000000,2.000000,2.000000,2.000000,0.000000,2.000000,4.000000,4.000000,4.000000,4.000000,2.000000,4.000000,16.666666,,,,,,,,,,,,,,,,,,,,,,,,,,,,
1732081199.428528,1732081199.430308,96.000000,0.000000,4392.051270,4333.461426,4335.512695,4350.641113,4347.436035,4336.153809,4326.153809,4357.436035,4339.487305,4344.487305,4413.846191,4471.666504,4340.000000,4411.282227,1743.000000,0.000000,14.000000,,,,0.000000,2.000000,2.000000,0.000000,2.000000,2.000000,2.000000,0.000000,2.000000,4.000000,4.000000,4.000000,4.000000,2.000000,4.000000,16.666666,,,,,,,,,,,,,,,,,24.000000,0.000000,0.613942,0.390259,-0.607544,0.318848,0.971310,0.086436,-0.048346,-77.371201,61.122173,27.282349
1732081199.436336,1732081199.438116,97.000000,0.000000,4388.974121,4336.794922,4333.974121,4350.000000,4360.384766,4334.743652,4326.153809,4358.077148,4339.102539,4347.436035,4414.487305,4476.025879,4340.000000,4415.641113,1629.000000,0.000000,14.000000,,,,0.000000,2.000000,2.000000,0.000000,2.000000,2.000000,2.000000,0.000000,2.000000,4.000000,4.000000,4.000000,4.000000,2.000000,4.000000,16.666666,,,,,,,,,,,,,,,,,,,,,,,,,,,,
1732081199.444144,1732081199.445724,98.000000,0.000000,4390.512695,4339.102539,4338.077148,4353.205078,4340.512695,4335.641113,4328.974121,4358.333496,4337.820313,4350.512695,4415.128418,4476.538574,4335.641113,4413.589844,1366.000000,0.000000,14.000000,,,,0.000000,2.000000,2.000000,0.000000,2.000000,2.000000,2.000000,0.000000,2.000000,4.000000,4.000000,4.000000,4.000000,2.000000,4.000000,16.666666,,,,,,,,,,,,,,,,,,,,,,,,,,,,
1732081199.451952,1732081199.453532,99.000000,0.000000,4388.077148,4338.974121,4339.615234,4351.538574,4333.205078,4339.102539,4330.897461,4358.205078,4340.512695,4352.051270,4414.743652,4471.282227,4327.948730,4403.717773,1508.000000,0.000000,14.000000,,,,0.000000,2.000000,2.000000,0.000000,2.000000,2.000000,2.000000,0.000000,2.000000,4.000000,4.000000,4.000000,4.000000,2.000000,4.000000,16.666666,,,,,,,,,,,,,,,,,,,,,,,,,,,,
1732081199.459761,1732081199.461240,100.000000,0.000000,4378.974121,4336.794922,4335.769043,4346.282227,4352.820313,4342.436035,4329.358887,4358.846191,4346.922852,4353.461426,4410.128418,4470.128418,4324.358887,4399.871582,1743.000000,0.000000,14.000000,,,,0.000000,2.000000,2.000000,0.000000,2.000000,2.000000,2.000000,0.000000,2.000000,4.000000,4.000000,4.000000,4.000000,2.000000,4.000000,16.666666,,,,,,,,,,,,,,,,,25.000000,0.000000,0.613819,0.390442,-0.607422,0.319092,0.979612,0.076181,-0.048346,-77.585678,61.383961,27.070370
1732081199.467569,1732081199.469048,101.000000,0.000000,4375.897461,4333.333496,4331.922852,4345.000000,4354.487305,4341.922852,4326.922852,4358.846191,4349.102539,4356.922852,4408.974121,4469.358887,4327.436035,4401.282227,1629.000000,0.000000,14.000000,,,,0.000000,2.000000,2.000000,0.000000,2.000000,2.000000,2.000000,0.000000,2.000000,4.000000,4.000000,4.000000,4.000000,2.000000,4.000000,16.666666,,,,,,,,,,,,,,,,,,,,,,,,,,,,
1732081199.475377,1732081199.476656,102.000000,0.000000,4378.333496,4333.077148,4333.461426,4347.179688,4339.615234,4341.153809,4325.384766,4357.179688,4347.948730,4358.461426,4410.128418,4465.769043,4327.307617,4399.230957,1366.000000,0.000000,14.000000,,,,0.000000,2.000000,2.000000,0.000000,2.000000,2.000000,2.000000,0.000000,2.000000,4.000000,4.000000,4.000000,4.000000,2.000000,4.000000,16.666666,,,,,,,,,,,,,,,,,,,,,,,,,,,,
1732081199.483185,1732081199.484464,103.000000,0.000000,4378.205078,4338.333496,4337.051270,4356.153809,4339.230957,4342.436035,4325.641113,4356.794922,4347.051270,4353.846191,4410.256348,4462.051270,4322.179688,4396.538574,1508.000000,0.000000,14.000000,,,,0.000000,2.000000,2.000000,0.000000,2.000000,2.000000,2.000000,0.000000,2.000000,4.000000,4.000000,4.000000,4.000000,2.000000,4.000000,16.666666,,,,,,,,,,,,,,,,,,,,,,,,,,,,
1732081199.490994,1732081199.492172,104.000000,0.000000,4378.205078,4341.282227,4337.692383,4361.410156,4350.128418,4339.358887,4324.487305,4359.487305,4341.538574,4348.333496,4410.641113,4464.743652,4321.922852,4400.641113,1743.000000,0.000000,14.000000,,,,0.000000,2.000000,2.000000,0.000000,2.000000,2.000000,2.000000,0.000000,2.000000,4.000000,4.000000,4.000000,4.000000,2.000000,4.000000,16.666666,,,,,,,,,,,,,,,,,26.000000,0.000000,0.613696,0.390442,-0.607483,0.319214,0.975217,0.068856,-0.034184,-77.474396,61.501007,27.025333
1732081199.498802,1732081199.499980,105.000000,0.000000,4379.487305,4337.436035,4336.153809,4355.384766,4357.692383,4334.230957,4322.948730,4358.589844,4332.436035,4345.128418,4408.974121,4466.538574,4322.948730,4402.436035,1629.000000,0.000000,14.000000,,,,0.000000,2.000000,2.000000,0.000000,2.000000,2.000000,2.000000,0.000000,2.000000,4.000000,4.000000,4.000000,4.000000,2.000000,4.000000,16.666666,,,,,,,,,,,,,,,,,,,,,,,,,,,,
1732081199.506610,1732081199.507988,106.000000,0.000000,4378.333496,4336.025879,4334.743652,4351.794922,4351.282227,4340.000000,4322.051270,4355.512695,4333.589844,4347.692383,4406.410156,4465.384766,4320.641113,4395.641113,1366.000000,0.000000,14.000000,,,,0.000000,2.000000,2.000000,0.000000,2.000000,2.000000,2.000000,0.000000,2.000000,4.000000,4.000000,4.000000,4.000000,2.000000,4.000000,16.666666,,,,,,,,,,,,,,,,,,,,,,,,,,,,
1732081199.514418,1732081199.515796,107.000000,0.000000,4373.974121,4338.717773,4334.743652,4354.230957,4342.307617,4350.512695,4326.153809,4360.256348,4342.051270,4354.615234,4408.205078,4464.743652,4320.769043,4391.282227,1508.000000,0.000000,14.000000,,,,0.000000,2.000000,2.000000,0.000000,2.000000,2.000000,2.000000,0.000000,2.000000,4.000000,4.000000,4.000000,4.000000,2.000000,4.000000,16.666666,,,,,,,,,,,,,,,,,,,,,,,,,,,,
1732081199.522226,1732081199.523705,108.000000,0.000000,4371.410156,4338.717773,4333.205078,4353.846191,4347.307617,4350.897461,4326.794922,4366.410156,4346.538574,4357.820313,4411.922852,4466.666504,4323.717773,4392.436035,1743.000000,0.000000,14.000000,,,,0.000000,2.000000,2.000000,0.000000,2.000000,2.000000,2.000000,0.000000,2.000000,4.000000,4.000000,4.000000,4.000000,2.000000,4.000000,16.666666,,,,,,,,,,,,,,,,,27.000000,0.000000,0.613761,0.390564,-0.607178,0.319519,0.980588,0.083506,-0.044439,-77.290924,61.532482,26.862186
1732081199.530035,1732081199.531513,109.000000,0.000000,4371.794922,4334.615234,4334.615234,4352.563965,4349.487305,4348.333496,4326.538574,4366.153809,4351.153809,4356.153809,4410.897461,4470.641113,4322.820313,4393.589844,1629.000000,0.000000,14.000000,,,,0.000000,2.000000,2.000000,0.000000,2.000000,2.000000,2.000000,0.000000,2.000000,4.000000,4.000000,4.000000,4.000000,2.000000,4.000000,16.666666,,,,,,,,,,,,,,,,,,,,,,,,,,,,
1732081199.537843,1732081199.539121,110.000000,0.000000,4373.333496,4337.436035,4336.538574,4358.846191,4341.153809,4349.102539,4325.641113,4364.743652,4354.358887,4358.333496,4408.974121,4468.717773,4323.205078,4392.179688,1366.000000,0.000000,14.000000,,,,0.000000,2.000000,2.000000,0.000000,2.000000,2.000000,2.000000,0.000000,2.000000,4.000000,4.000000,4.000000,4.000000,2.000000,4.000000,16.666666,,,,,,,,,,,,,,,,,,,,,,,,,,,,
1732081199.545651,1732081199.546929,111.000000,0.000000,4373.077148,4344.102539,4338.077148,4363.974121,4337.307617,4345.641113,4327.051270,4366.153809,4353.461426,4363.461426,4412.692383,4467.307617,4322.179688,4388.461426,1508.000000,0.000000,14.000000,,,,0.000000,2.000000,2.000000,0.000000,2.000000,2.000000,2.000000,0.000000,2.000000,4.000000,4.000000,4.000000,4.000000,2.000000,4.000000,16.666666,,,,,,,,,,,,,,,,,,,,,,,,,,,,
1732081199.553460,1732081199.554637,112.000000,0.000000,4371.410156,4342.692383,4335.128418,4361.666504,4342.692383,4343.077148,4325.897461,4366.282227,4353.205078,4364.487305,4414.230957,4467.307617,4313.974121,4386.794922,1743.000000,0.000000,14.000000,,,,0.000000,2.000000,2.000000,0.000000,2.000000,2.000000,2.000000,0.000000,2.000000,4.000000,4.000000,4.000000,4.000000,2.000000,4.000000,16.666666,,,,,,,,,,,,,,,,,28.000000,0.000000,0.613585,0.390686,-0.607117,0.319824,0.977170,0.079111,-0.048346,-77.075653,61.674644,26.796703
1732081199.561268,1732081199.562445,113.000000,0.000000,4366.538574,4338.589844,4333.461426,4357.307617,4354.102539,4347.948730,4324.871582,4366.025879,4353.461426,4360.641113,4406.666504,4464.743652,4309.102539,4385.128418,1629.000000,0.000000,14.000000,,,,0.000000,2.000000,2.000000,0.000000,2.000000,2.000000,2.000000,0.000000,2.000000,4.000000,4.000000,4.000000,4.000000,2.000000,4.000000,16.666666,,,,,,,,,,,,,,,,,,,,,,,,,,,,
