title:1six, start timestamp:1732158096.208326, stop timestamp:1732158150.741145, headset type:EPOCX, headset serial:E5020C3A, headset firmware:730, channels:67, sampling rate:eeg_128;mot_32, samples:6985      , version:2.2, 
Timestamp,OriginalTimestamp,EEG.Counter,EEG.Interpolated,EEG.AF3,EEG.F7,EEG.F3,EEG.FC5,EEG.T7,EEG.P7,EEG.O1,EEG.O2,EEG.P8,EEG.T8,EEG.FC6,EEG.F4,EEG.F8,EEG.AF4,EEG.RawCq,EEG.Battery,EEG.BatteryPercent,MarkerIndex,MarkerType,MarkerValueInt,EEG.MarkerHardware,CQ.AF3,CQ.F7,CQ.F3,CQ.FC5,CQ.T7,CQ.P7,CQ.O1,CQ.O2,CQ.P8,CQ.T8,CQ.FC6,CQ.F4,CQ.F8,CQ.AF4,CQ.Overall,EQ.SampleRateQuality,EQ.OVERALL,EQ.AF3,EQ.F7,EQ.F3,EQ.FC5,EQ.T7,EQ.P7,EQ.O1,EQ.O2,EQ.P8,EQ.T8,EQ.FC6,EQ.F4,EQ.F8,EQ.AF4,MOT.CounterMems,MOT.InterpolatedMems,MOT.Q0,MOT.Q1,MOT.Q2,MOT.Q3,MOT.AccX,MOT.AccY,MOT.AccZ,MOT.MagX,MOT.MagY,MOT.MagZ
1732158096.208326,1732158096.210397,69.000000,0.000000,4289.615234,4265.384766,4312.692383,4287.820313,4251.153809,4276.153809,4335.512695,4402.436035,4277.948730,4279.871582,4479.230957,4504.743652,4355.897461,4411.410156,1207.000000,1.000000,21.000000,,,,0.000000,2.000000,2.000000,0.000000,4.000000,2.000000,2.000000,0.000000,0.000000,4.000000,4.000000,4.000000,4.000000,4.000000,4.000000,0.000000,,,,,,,,,,,,,,,,,,,,,,,,,,,,
1732158096.216134,1732158096.218005,70.000000,0.000000,4292.563965,4262.820313,4310.384766,4288.461426,4247.948730,4279.487305,4336.153809,4403.077148,4285.384766,4289.871582,4475.256348,4505.512695,4358.974121,4414.358887,0.000000,1.000000,21.000000,,,,0.000000,2.000000,2.000000,0.000000,4.000000,2.000000,2.000000,0.000000,0.000000,4.000000,4.000000,4.000000,4.000000,4.000000,4.000000,0.000000,,,,,,,,,,,,,,,,,,,,,,,,,,,,
1732158096.223943,1732158096.225813,71.000000,0.000000,4293.974121,4261.922852,4310.128418,4292.051270,4250.384766,4278.333496,4334.615234,4402.436035,4296.410156,4297.563965,4483.589844,4507.307617,4357.436035,4411.282227,0.000000,1.000000,21.000000,,,,0.000000,2.000000,2.000000,0.000000,4.000000,2.000000,2.000000,0.000000,0.000000,4.000000,4.000000,4.000000,4.000000,4.000000,4.000000,0.000000,,,,,,,,,,,,,,,,,,,,,,,,,,,,
1732158096.231751,1732158096.233722,72.000000,0.000000,4289.358887,4264.102539,4311.410156,4293.461426,4251.794922,4278.846191,4334.743652,4401.538574,4296.025879,4295.769043,4486.153809,4507.563965,4356.794922,4410.000000,1533.000000,1.000000,21.000000,,,,0.000000,2.000000,2.000000,0.000000,4.000000,2.000000,2.000000,0.000000,0.000000,4.000000,4.000000,4.000000,4.000000,4.000000,4.000000,0.000000,,,,,,,,,,,,,,,,,18.000000,0.000000,0.546013,0.516113,-0.500183,0.430481,0.933708,0.135759,-0.042974,-33.470821,47.236290,31.805485
1732158096.239559,1732158096.241530,73.000000,0.000000,4287.307617,4255.769043,4311.538574,4292.436035,4251.794922,4280.128418,4336.025879,4403.589844,4291.153809,4293.589844,4477.179688,4505.384766,4355.897461,4412.179688,1688.000000,1.000000,21.000000,,,,0.000000,2.000000,2.000000,0.000000,4.000000,2.000000,2.000000,0.000000,0.000000,4.000000,4.000000,4.000000,4.000000,4.000000,4.000000,0.000000,,,,,,,,,,,,,,,,,,,,,,,,,,,,
1732158096.247368,1732158096.249138,74.000000,0.000000,4290.641113,4249.230957,4307.820313,4294.358887,4250.256348,4278.333496,4335.897461,4403.333496,4289.487305,4294.230957,4476.922852,4502.563965,4352.563965,4410.512695,1551.000000,1.000000,21.000000,,,,0.000000,2.000000,2.000000,0.000000,4.000000,2.000000,2.000000,0.000000,0.000000,4.000000,4.000000,4.000000,4.000000,4.000000,4.000000,0.000000,,,,,,,,,,,,,,,,,,,,,,,,,,,,
1732158096.255176,1732158096.256946,75.000000,0.000000,4292.563965,4258.205078,4307.820313,4297.051270,4248.846191,4279.743652,4335.897461,4400.512695,4291.410156,4296.410156,4482.179688,4502.436035,4350.769043,4408.717773,1564.000000,1.000000,21.000000,,,,0.000000,2.000000,2.000000,0.000000,4.000000,2.000000,2.000000,0.000000,0.000000,4.000000,4.000000,4.000000,4.000000,4.000000,4.000000,0.000000,,,,,,,,,,,,,,,,,,,,,,,,,,,,
1732158096.262984,1732158096.264655,76.000000,0.000000,4290.384766,4265.769043,4312.436035,4296.153809,4258.974121,4281.666504,4335.897461,4399.487305,4295.641113,4297.692383,4479.743652,4498.205078,4351.282227,4410.641113,1703.000000,1.000000,21.000000,,,,0.000000,2.000000,2.000000,0.000000,4.000000,2.000000,2.000000,0.000000,0.000000,4.000000,4.000000,4.000000,4.000000,4.000000,4.000000,0.000000,,,,,,,,,,,,,,,,,19.000000,0.000000,0.546090,0.514954,-0.500610,0.431274,0.939079,0.127945,-0.046392,-33.331367,47.266396,31.862442
1732158096.270792,1732158096.272463,77.000000,0.000000,4288.717773,4260.641113,4313.205078,4297.051270,4260.897461,4280.256348,4335.769043,4400.512695,4292.692383,4294.615234,4475.897461,4493.077148,4350.512695,4412.307617,1603.000000,1.000000,21.000000,,,,0.000000,2.000000,2.000000,0.000000,4.000000,2.000000,2.000000,0.000000,0.000000,4.000000,4.000000,4.000000,4.000000,4.000000,4.000000,0.000000,,,,,,,,,,,,,,,,,,,,,,,,,,,,
1732158096.278601,1732158096.280471,78.000000,0.000000,4290.128418,4258.461426,4310.000000,4297.692383,4253.205078,4278.717773,4336.282227,4401.282227,4287.563965,4291.922852,4476.282227,4496.282227,4349.230957,4412.692383,1551.000000,1.000000,21.000000,,,,0.000000,2.000000,2.000000,0.000000,4.000000,2.000000,2.000000,0.000000,0.000000,4.000000,4.000000,4.000000,4.000000,4.000000,4.000000,0.000000,1.000000,0.000000,2.000000,2.000000,0.000000,4.000000,2.000000,1.000000,0.000000,0.000000,4.000000,3.000000,4.000000,4.000000,4.000000,4.000000,,,,,,,,,,,,
1732158096.286409,1732158096.288279,79.000000,0.000000,4290.512695,4261.794922,4309.487305,4297.692383,4253.333496,4281.410156,4335.897461,4398.846191,4290.897461,4293.717773,4479.358887,4500.384766,4348.333496,4414.102539,1564.000000,1.000000,21.000000,,,,0.000000,2.000000,2.000000,0.000000,4.000000,2.000000,2.000000,0.000000,0.000000,4.000000,4.000000,4.000000,4.000000,4.000000,4.000000,0.000000,,,,,,,,,,,,,,,,,,,,,,,,,,,,
1732158096.294217,1732158096.296187,80.000000,0.000000,4287.563965,4259.871582,4307.948730,4294.615234,4259.871582,4282.820313,4334.487305,4398.461426,4296.666504,4294.230957,4477.692383,4493.333496,4348.717773,4412.692383,1703.000000,1.000000,21.000000,,,,0.000000,2.000000,2.000000,0.000000,4.000000,2.000000,2.000000,0.000000,0.000000,4.000000,4.000000,4.000000,4.000000,4.000000,4.000000,0.000000,,,,,,,,,,,,,,,,,20.000000,0.000000,0.546205,0.514465,-0.500671,0.431641,0.944940,0.151874,-0.032719,-33.458408,47.215778,32.046913
1732158096.302025,1732158096.303995,81.000000,0.000000,4288.461426,4253.846191,4307.307617,4291.794922,4257.820313,4280.641113,4333.589844,4399.358887,4295.000000,4293.205078,4477.436035,4487.948730,4350.512695,4411.666504,1603.000000,1.000000,21.000000,,,,0.000000,2.000000,2.000000,0.000000,4.000000,2.000000,2.000000,0.000000,0.000000,4.000000,4.000000,4.000000,4.000000,4.000000,4.000000,0.000000,,,,,,,,,,,,,,,,,,,,,,,,,,,,
1732158096.309833,1732158096.312003,82.000000,0.000000,4291.794922,4250.641113,4308.333496,4291.922852,4251.666504,4278.846191,4334.358887,4399.743652,4292.820313,4295.897461,4485.512695,4497.692383,4350.769043,4415.641113,1551.000000,1.000000,21.000000,,,,0.000000,2.000000,2.000000,0.000000,4.000000,2.000000,2.000000,0.000000,0.000000,4.000000,4.000000,4.000000,4.000000,4.000000,4.000000,0.000000,,,,,,,,,,,,,,,,,,,,,,,,,,,,
1732158096.317642,1732158096.319812,83.000000,0.000000,4290.512695,4256.794922,4301.922852,4291.794922,4255.128418,4280.384766,4331.666504,4400.641113,4298.974121,4298.974121,4490.641113,4506.794922,4353.205078,4415.769043,1564.000000,1.000000,21.000000,,,,0.000000,2.000000,2.000000,0.000000,4.000000,2.000000,2.000000,0.000000,0.000000,4.000000,4.000000,4.000000,4.000000,4.000000,4.000000,0.000000,,,,,,,,,,,,,,,,,,,,,,,,,,,,
1732158096.325450,1732158096.327720,84.000000,0.000000,4291.282227,4262.820313,4294.102539,4293.974121,4259.871582,4281.282227,4328.589844,4400.256348,4301.794922,4299.102539,4490.256348,4505.256348,4358.974121,4413.717773,1703.000000,1.000000,21.000000,,,,0.000000,2.000000,2.000000,0.000000,4.000000,2.000000,2.000000,0.000000,0.000000,4.000000,4.000000,4.000000,4.000000,4.000000,4.000000,0.000000,,,,,,,,,,,,,,,,,21.000000,0.000000,0.545685,0.513794,-0.500610,0.433167,0.982053,0.137712,-0.024417,-33.286308,47.141449,31.946331
1732158096.333258,1732158096.335528,85.000000,0.000000,4295.512695,4261.922852,4293.333496,4296.282227,4257.692383,4279.230957,4330.256348,4397.820313,4297.179688,4297.051270,4490.641113,4504.358887,4360.384766,4423.461426,1603.000000,1.000000,21.000000,,,,0.000000,2.000000,2.000000,0.000000,4.000000,2.000000,2.000000,0.000000,0.000000,4.000000,4.000000,4.000000,4.000000,4.000000,4.000000,0.000000,,,,,,,,,,,,,,,,,,,,,,,,,,,,
1732158096.341066,1732158096.343536,86.000000,0.000000,4294.615234,4260.897461,4293.077148,4295.512695,4252.051270,4278.077148,4328.974121,4397.179688,4293.717773,4295.256348,4486.538574,4505.769043,4357.436035,4429.487305,1551.000000,1.000000,21.000000,,,,0.000000,2.000000,2.000000,0.000000,4.000000,2.000000,2.000000,0.000000,0.000000,4.000000,4.000000,4.000000,4.000000,4.000000,4.000000,0.000000,,,,,,,,,,,,,,,,,,,,,,,,,,,,
1732158096.348875,1732158096.351344,87.000000,0.000000,4292.692383,4262.179688,4291.025879,4297.563965,4256.794922,4279.743652,4324.615234,4398.333496,4295.000000,4295.000000,4482.436035,4501.410156,4356.922852,4419.487305,1564.000000,1.000000,21.000000,,,,0.000000,2.000000,2.000000,0.000000,4.000000,2.000000,2.000000,0.000000,0.000000,4.000000,4.000000,4.000000,4.000000,4.000000,4.000000,0.000000,,,,,,,,,,,,,,,,,,,,,,,,,,,,
1732158096.356683,1732158096.359252,88.000000,0.000000,4294.230957,4262.948730,4292.692383,4300.384766,4263.717773,4280.641113,4323.717773,4395.897461,4295.897461,4295.512695,4487.051270,4498.333496,4358.205078,4419.615234,1703.000000,1.000000,21.000000,,,,0.000000,2.000000,2.000000,0.000000,4.000000,2.000000,2.000000,0.000000,0.000000,4.000000,4.000000,4.000000,4.000000,4.000000,4.000000,0.000000,,,,,,,,,,,,,,,,,22.000000,0.000000,0.544127,0.513062,-0.501892,0.434509,0.978147,0.113295,-0.023440,-33.328579,47.129574,31.938196
1732158096.364491,1732158096.367060,89.000000,0.000000,4294.358887,4262.307617,4290.128418,4297.948730,4258.717773,4279.871582,4323.846191,4396.666504,4294.487305,4295.512695,4489.487305,4502.692383,4358.077148,4427.307617,1603.000000,1.000000,21.000000,,,,0.000000,2.000000,2.000000,0.000000,4.000000,2.000000,2.000000,0.000000,0.000000,4.000000,4.000000,4.000000,4.000000,4.000000,4.000000,0.000000,,,,,,,,,,,,,,,,,,,,,,,,,,,,
1732158096.372300,1732158096.375068,90.000000,0.000000,4293.333496,4261.538574,4286.153809,4295.384766,4256.025879,4280.128418,4323.974121,4398.077148,4297.179688,4294.743652,4485.769043,4504.230957,4357.307617,4422.051270,1551.000000,1.000000,21.000000,,,,0.000000,2.000000,2.000000,0.000000,4.000000,2.000000,2.000000,0.000000,0.000000,4.000000,4.000000,4.000000,4.000000,4.000000,4.000000,0.000000,,,,,,,,,,,,,,,,,,,,,,,,,,,,
1732158096.380108,1732158096.382877,91.000000,0.000000,4294.102539,4260.128418,4287.436035,4296.025879,4261.025879,4280.256348,4326.666504,4392.948730,4299.487305,4295.641113,4488.717773,4498.077148,4357.436035,4421.538574,1564.000000,1.000000,21.000000,,,,0.000000,2.000000,2.000000,0.000000,4.000000,2.000000,2.000000,0.000000,0.000000,4.000000,4.000000,4.000000,4.000000,4.000000,4.000000,0.000000,,,,,,,,,,,,,,,,,,,,,,,,,,,,
1732158096.387916,1732158096.390785,92.000000,0.000000,4293.846191,4260.769043,4286.666504,4296.025879,4262.179688,4280.128418,4326.410156,4392.051270,4296.410156,4295.897461,4488.846191,4498.717773,4356.666504,4428.333496,1703.000000,1.000000,21.000000,,,,0.000000,2.000000,2.000000,0.000000,4.000000,2.000000,2.000000,0.000000,0.000000,4.000000,4.000000,4.000000,4.000000,4.000000,4.000000,0.000000,,,,,,,,,,,,,,,,,23.000000,0.000000,0.544127,0.513062,-0.501892,0.434509,0.978635,0.079111,-0.022952,-33.362816,47.119953,31.976604
1732158096.395724,1732158096.398593,93.000000,0.000000,4293.974121,4262.051270,4281.538574,4296.410156,4252.179688,4280.384766,4322.820313,4394.871582,4293.589844,4291.025879,4479.871582,4500.000000,4351.922852,4423.717773,1603.000000,1.000000,21.000000,,,,0.000000,2.000000,2.000000,0.000000,4.000000,2.000000,2.000000,0.000000,0.000000,4.000000,4.000000,4.000000,4.000000,4.000000,4.000000,0.000000,,,,,,,,,,,,,,,,,,,,,,,,,,,,
1732158096.403533,1732158096.406601,94.000000,0.000000,4296.153809,4261.666504,4283.077148,4295.128418,4246.410156,4280.256348,4322.051270,4394.230957,4294.102539,4286.794922,4476.538574,4494.487305,4350.000000,4421.282227,1551.000000,1.000000,21.000000,,,,0.000000,2.000000,2.000000,0.000000,4.000000,2.000000,2.000000,0.000000,0.000000,4.000000,4.000000,4.000000,4.000000,4.000000,4.000000,0.000000,,,,,,,,,,,,,,,,,,,,,,,,,,,,
1732158096.411341,1732158096.414409,95.000000,0.000000,4297.948730,4261.922852,4290.256348,4294.615234,4248.846191,4280.769043,4320.384766,4393.846191,4292.948730,4286.794922,4477.179688,4497.563965,4351.538574,4429.358887,1564.000000,1.000000,21.000000,,,,0.000000,2.000000,2.000000,0.000000,4.000000,2.000000,2.000000,0.000000,0.000000,4.000000,4.000000,4.000000,4.000000,4.000000,4.000000,0.000000,,,,,,,,,,,,,,,,,,,,,,,,,,,,
1732158096.419149,1732158096.422317,96.000000,0.000000,4296.282227,4262.820313,4297.436035,4297.563965,4251.794922,4280.769043,4319.358887,4396.666504,4292.692383,4286.794922,4475.897461,4506.794922,4347.436035,4428.974121,1703.000000,1.000000,21.000000,,,,0.000000,2.000000,2.000000,0.000000,4.000000,2.000000,2.000000,0.000000,0.000000,4.000000,4.000000,4.000000,4.000000,4.000000,4.000000,0.000000,,,,,,,,,,,,,,,,,24.000000,0.000000,0.539831,0.507813,-0.508850,0.437927,0.949823,0.041021,-0.025882,-33.510548,46.983829,31.879383
1732158096.426957,1732158096.430126,97.000000,0.000000,4296.410156,4263.974121,4302.820313,4298.333496,4251.410156,4279.615234,4326.666504,4396.922852,4295.897461,4290.128418,4482.307617,4507.436035,4349.871582,4429.102539,1603.000000,1.000000,21.000000,,,,0.000000,2.000000,2.000000,0.000000,4.000000,2.000000,2.000000,0.000000,0.000000,4.000000,4.000000,4.000000,4.000000,4.000000,4.000000,0.000000,,,,,,,,,,,,,,,,,,,,,,,,,,,,
1732158096.434765,1732158096.438134,98.000000,0.000000,4303.589844,4264.487305,4302.820313,4298.974121,4247.692383,4278.717773,4333.077148,4396.922852,4293.717773,4293.974121,4491.025879,4504.230957,4360.512695,4440.000000,1551.000000,1.000000,21.000000,,,,0.000000,2.000000,2.000000,0.000000,4.000000,2.000000,2.000000,0.000000,0.000000,4.000000,4.000000,4.000000,4.000000,4.000000,4.000000,0.000000,,,,,,,,,,,,,,,,,,,,,,,,,,,,
1732158096.442574,1732158096.445942,99.000000,0.000000,4310.000000,4264.487305,4303.974121,4300.897461,4247.051270,4274.487305,4330.641113,4399.615234,4292.948730,4293.333496,4487.692383,4507.307617,4360.641113,4442.563965,1564.000000,1.000000,21.000000,,,,0.000000,2.000000,2.000000,0.000000,4.000000,2.000000,2.000000,0.000000,0.000000,4.000000,4.000000,4.000000,4.000000,4.000000,4.000000,0.000000,,,,,,,,,,,,,,,,,,,,,,,,,,,,
1732158096.450382,1732158096.453650,100.000000,0.000000,4312.948730,4266.410156,4306.410156,4298.077148,4246.410156,4266.666504,4327.307617,4398.333496,4292.692383,4289.743652,4478.846191,4505.897461,4356.666504,4440.384766,1703.000000,1.000000,21.000000,,,,0.000000,2.000000,2.000000,0.000000,4.000000,2.000000,2.000000,0.000000,0.000000,4.000000,4.000000,4.000000,4.000000,4.000000,4.000000,0.000000,,,,,,,,,,,,,,,,,25.000000,0.000000,0.538014,0.501587,-0.515381,0.439697,0.979123,0.060554,-0.032230,-33.656876,46.911903,31.880634
1732158096.458190,1732158096.461458,101.000000,0.000000,4318.077148,4268.589844,4306.025879,4295.128418,4237.692383,4264.615234,4329.230957,4396.922852,4286.666504,4287.051270,4479.487305,4507.307617,4363.333496,4450.641113,1603.000000,1.000000,21.000000,,,,0.000000,2.000000,2.000000,0.000000,4.000000,2.000000,2.000000,0.000000,0.000000,4.000000,4.000000,4.000000,4.000000,4.000000,4.000000,0.000000,,,,,,,,,,,,,,,,,,,,,,,,,,,,
1732158096.465999,1732158096.469067,102.000000,0.000000,4324.230957,4265.000000,4306.666504,4296.153809,4231.410156,4266.922852,4332.692383,4398.589844,4286.794922,4288.589844,4486.922852,4516.666504,4367.179688,4460.256348,1551.000000,1.000000,21.000000,,,,0.000000,2.000000,2.000000,0.000000,4.000000,2.000000,2.000000,0.000000,0.000000,4.000000,4.000000,4.000000,4.000000,4.000000,4.000000,0.000000,,,,,,,,,,,,,,,,,,,,,,,,,,,,
1732158096.473807,1732158096.476875,103.000000,0.000000,4328.717773,4265.641113,4311.153809,4294.358887,4232.563965,4260.512695,4334.487305,4401.153809,4289.871582,4288.333496,4490.769043,4518.077148,4364.615234,4462.948730,1564.000000,1.000000,21.000000,,,,0.000000,2.000000,2.000000,0.000000,4.000000,2.000000,2.000000,0.000000,0.000000,4.000000,4.000000,4.000000,4.000000,4.000000,4.000000,0.000000,,,,,,,,,,,,,,,,,,,,,,,,,,,,
1732158096.481615,1732158096.484583,104.000000,0.000000,4333.461426,4276.025879,4313.333496,4295.256348,4232.051270,4256.666504,4335.769043,4400.641113,4282.563965,4285.256348,4491.153809,4518.333496,4373.077148,4470.512695,1703.000000,1.000000,21.000000,,,,0.000000,2.000000,2.000000,0.000000,4.000000,2.000000,2.000000,0.000000,0.000000,4.000000,4.000000,4.000000,4.000000,4.000000,4.000000,0.000000,,,,,,,,,,,,,,,,,26.000000,0.000000,0.537378,0.496216,-0.520386,0.440674,0.959590,0.096691,-0.035649,-33.847069,47.011974,32.028313
1732158096.489423,1732158096.492391,105.000000,0.000000,4339.102539,4273.333496,4313.077148,4297.820313,4228.461426,4260.128418,4334.615234,4399.358887,4278.333496,4283.589844,4491.410156,4522.563965,4384.230957,4477.307617,1603.000000,1.000000,21.000000,,,,0.000000,2.000000,2.000000,0.000000,4.000000,2.000000,2.000000,0.000000,0.000000,4.000000,4.000000,4.000000,4.000000,4.000000,4.000000,0.000000,,,,,,,,,,,,,,,,,,,,,,,,,,,,
1732158096.497232,1732158096.500000,106.000000,0.000000,4344.230957,4264.487305,4314.230957,4293.205078,4223.717773,4255.512695,4333.461426,4399.487305,4281.666504,4284.102539,4491.794922,4521.025879,4383.333496,4475.128418,1551.000000,1.000000,21.000000,,,,0.000000,2.000000,2.000000,0.000000,4.000000,2.000000,2.000000,0.000000,0.000000,4.000000,4.000000,4.000000,4.000000,4.000000,4.000000,0.000000,,,,,,,,,,,,,,,,,,,,,,,,,,,,
1732158096.505040,1732158096.507808,107.000000,0.000000,4351.282227,4272.820313,4317.820313,4293.333496,4217.820313,4247.820313,4334.487305,4400.000000,4278.717773,4285.256348,4497.436035,4523.461426,4381.794922,4480.256348,1564.000000,1.000000,21.000000,,,,0.000000,2.000000,2.000000,0.000000,4.000000,2.000000,2.000000,0.000000,0.000000,4.000000,4.000000,4.000000,4.000000,4.000000,4.000000,0.000000,,,,,,,,,,,,,,,,,,,,,,,,,,,,
1732158096.512848,1732158096.515716,108.000000,0.000000,4356.666504,4278.077148,4317.948730,4298.333496,4216.282227,4249.743652,4335.128418,4400.256348,4283.717773,4289.615234,4507.436035,4534.230957,4388.589844,4491.922852,1703.000000,1.000000,21.000000,,,,0.000000,2.000000,2.000000,0.000000,4.000000,2.000000,2.000000,0.000000,0.000000,4.000000,4.000000,4.000000,4.000000,4.000000,4.000000,0.000000,,,,,,,,,,,,,,,,,27.000000,0.000000,0.537378,0.496216,-0.520386,0.440674,0.959590,0.096691,-0.035649,-33.971127,47.093033,32.042934
1732158096.520656,1732158096.523524,109.000000,0.000000,4358.205078,4267.436035,4317.179688,4295.000000,4217.820313,4252.051270,4334.615234,4401.410156,4295.128418,4293.974121,4508.205078,4536.153809,4396.410156,4493.589844,1603.000000,1.000000,21.000000,,,,0.000000,2.000000,2.000000,0.000000,4.000000,2.000000,2.000000,0.000000,0.000000,4.000000,4.000000,4.000000,4.000000,4.000000,4.000000,0.000000,,,,,,,,,,,,,,,,,,,,,,,,,,,,
1732158096.528464,1732158096.531133,110.000000,0.000000,4357.692383,4264.358887,4320.769043,4291.025879,4217.179688,4249.358887,4333.333496,4402.307617,4287.051270,4293.974121,4502.436035,4533.205078,4398.461426,4492.563965,1551.000000,1.000000,21.000000,,,,0.000000,2.000000,2.000000,0.000000,4.000000,2.000000,2.000000,0.000000,0.000000,4.000000,4.000000,4.000000,4.000000,4.000000,4.000000,0.000000,,,,,,,,,,,,,,,,,,,,,,,,,,,,
1732158096.536273,1732158096.538941,111.000000,0.000000,4357.948730,4267.692383,4322.820313,4294.230957,4216.538574,4248.333496,4333.846191,4401.153809,4280.256348,4295.256348,4506.282227,4538.717773,4398.846191,4494.102539,1564.000000,1.000000,21.000000,,,,0.000000,2.000000,2.000000,0.000000,4.000000,2.000000,2.000000,0.000000,0.000000,4.000000,4.000000,4.000000,4.000000,4.000000,4.000000,0.000000,,,,,,,,,,,,,,,,,,,,,,,,,,,,
1732158096.544081,1732158096.546649,112.000000,0.000000,4358.846191,4265.769043,4319.230957,4298.461426,4216.282227,4252.436035,4334.615234,4400.512695,4288.077148,4293.974121,4509.230957,4538.205078,4397.692383,4492.948730,1703.000000,1.000000,21.000000,,,,0.000000,2.000000,2.000000,0.000000,4.000000,2.000000,2.000000,0.000000,0.000000,4.000000,4.000000,4.000000,4.000000,4.000000,4.000000,0.000000,,,,,,,,,,,,,,,,,28.000000,0.000000,0.535277,0.492798,-0.524231,0.442505,0.988402,0.104017,-0.040532,-34.229946,46.917023,31.921444
1732158096.551889,1732158096.554457,113.000000,0.000000,4356.794922,4263.461426,4316.410156,4296.153809,4215.128418,4256.153809,4334.871582,4401.666504,4286.282227,4291.922852,4502.563965,4528.333496,4395.512695,4493.333496,1603.000000,1.000000,21.000000,,,,0.000000,2.000000,2.000000,0.000000,4.000000,2.000000,2.000000,0.000000,0.000000,4.000000,4.000000,4.000000,4.000000,4.000000,4.000000,0.000000,,,,,,,,,,,,,,,,,,,,,,,,,,,,
1732158096.559698,1732158096.562465,114.000000,0.000000,4353.717773,4260.000000,4313.589844,4287.692383,4214.358887,4253.333496,4334.615234,4401.025879,4278.974121,4293.717773,4502.563965,4527.820313,4397.307617,4494.743652,1551.000000,1.000000,21.000000,,,,0.000000,2.000000,2.000000,0.000000,4.000000,2.000000,2.000000,0.000000,0.000000,4.000000,4.000000,4.000000,4.000000,4.000000,4.000000,0.000000,,,,,,,,,,,,,,,,,,,,,,,,,,,,
1732158096.567506,1732158096.570274,115.000000,0.000000,4351.666504,4255.769043,4311.410156,4285.769043,4214.871582,4253.077148,4334.743652,4399.487305,4286.410156,4296.666504,4512.051270,4536.282227,4400.256348,4494.871582,1564.000000,1.000000,21.000000,,,,0.000000,2.000000,2.000000,0.000000,4.000000,2.000000,2.000000,0.000000,0.000000,4.000000,4.000000,4.000000,4.000000,4.000000,4.000000,0.000000,,,,,,,,,,,,,,,,,,,,,,,,,,,,
1732158096.575314,1732158096.577982,116.000000,0.000000,4350.897461,4252.563965,4314.743652,4293.333496,4219.230957,4262.307617,4334.743652,4400.897461,4293.974121,4297.563965,4512.948730,4539.743652,4398.717773,4498.589844,1703.000000,1.000000,21.000000,,,,0.000000,2.000000,2.000000,0.000000,4.000000,2.000000,2.000000,0.000000,0.000000,4.000000,4.000000,4.000000,4.000000,4.000000,4.000000,0.000000,,,,,,,,,,,,,,,,,29.000000,0.000000,0.534598,0.492432,-0.524597,0.443298,1.015749,0.072274,-0.041509,-34.311256,46.874454,31.973036
1732158096.583122,1732158096.585790,117.000000,0.000000,4350.769043,4250.512695,4316.538574,4296.922852,4219.230957,4265.641113,4334.871582,4400.000000,4292.692383,4296.410156,4508.333496,4536.794922,4397.051270,4497.436035,1603.000000,1.000000,21.000000,,,,0.000000,2.000000,2.000000,0.000000,4.000000,2.000000,2.000000,0.000000,0.000000,4.000000,4.000000,4.000000,4.000000,4.000000,4.000000,0.000000,,,,,,,,,,,,,,,,,,,,,,,,,,,,
1732158096.590931,1732158096.593399,118.000000,0.000000,4350.769043,4250.000000,4316.153809,4294.743652,4217.307617,4262.307617,4334.743652,4398.205078,4292.051270,4296.025879,4515.128418,4540.256348,4399.102539,4492.820313,1551.000000,1.000000,21.000000,,,,0.000000,2.000000,2.000000,0.000000,4.000000,2.000000,2.000000,0.000000,0.000000,4.000000,4.000000,4.000000,4.000000,4.000000,4.000000,0.000000,,,,,,,,,,,,,,,,,,,,,,,,,,,,
1732158096.598739,1732158096.601207,119.000000,0.000000,4351.538574,4249.743652,4320.256348,4296.153809,4225.512695,4263.974121,4334.487305,4403.205078,4293.974121,4296.666504,4524.615234,4547.051270,4401.538574,4498.077148,1564.000000,1.000000,21.000000,,,,0.000000,2.000000,2.000000,0.000000,4.000000,2.000000,2.000000,0.000000,0.000000,4.000000,4.000000,4.000000,4.000000,4.000000,4.000000,0.000000,,,,,,,,,,,,,,,,,,,,,,,,,,,,
1732158096.606547,1732158096.608915,120.000000,0.000000,4351.538574,4247.436035,4324.102539,4296.410156,4229.871582,4265.897461,4335.256348,4406.538574,4293.717773,4295.512695,4520.000000,4549.615234,4398.077148,4501.282227,1703.000000,1.000000,21.000000,,,,0.000000,2.000000,2.000000,0.000000,4.000000,2.000000,2.000000,0.000000,0.000000,4.000000,4.000000,4.000000,4.000000,4.000000,4.000000,0.000000,,,,,,,,,,,,,,,,,30.000000,0.000000,0.533710,0.492004,-0.525024,0.444336,1.015749,0.072274,-0.041509,-34.370449,46.734974,31.901493
1732158096.614355,1732158096.616723,121.000000,0.000000,4350.641113,4245.384766,4320.641113,4293.589844,4221.153809,4263.589844,4336.153809,4402.307617,4286.794922,4293.717773,4509.615234,4546.025879,4393.846191,4493.589844,1603.000000,1.000000,21.000000,,,,0.000000,2.000000,2.000000,0.000000,4.000000,2.000000,2.000000,0.000000,0.000000,4.000000,4.000000,4.000000,4.000000,4.000000,4.000000,0.000000,,,,,,,,,,,,,,,,,,,,,,,,,,,,
1732158096.622163,1732158096.624731,122.000000,0.000000,4350.641113,4245.897461,4317.179688,4295.000000,4213.974121,4260.384766,4335.641113,4398.846191,4280.000000,4294.743652,4506.410156,4543.461426,4393.077148,4491.538574,1551.000000,1.000000,21.000000,,,,0.000000,2.000000,2.000000,0.000000,4.000000,2.000000,2.000000,0.000000,0.000000,4.000000,4.000000,4.000000,4.000000,4.000000,4.000000,0.000000,,,,,,,,,,,,,,,,,,,,,,,,,,,,
1732158096.629972,1732158096.632540,123.000000,0.000000,4352.563965,4248.205078,4318.333496,4297.179688,4218.717773,4260.641113,4334.615234,4398.589844,4283.589844,4295.384766,4508.974121,4545.641113,4391.538574,4494.230957,1564.000000,1.000000,21.000000,,,,0.000000,2.000000,2.000000,0.000000,4.000000,2.000000,2.000000,0.000000,0.000000,4.000000,4.000000,4.000000,4.000000,4.000000,4.000000,0.000000,,,,,,,,,,,,,,,,,,,,,,,,,,,,
1732158096.637780,1732158096.640248,124.000000,0.000000,4350.897461,4250.000000,4319.743652,4295.641113,4226.025879,4262.820313,4334.487305,4399.871582,4289.487305,4293.589844,4508.333496,4541.153809,4389.230957,4491.282227,1703.000000,1.000000,21.000000,,,,0.000000,2.000000,2.000000,0.000000,4.000000,2.000000,2.000000,0.000000,0.000000,4.000000,4.000000,4.000000,4.000000,4.000000,4.000000,0.000000,,,,,,,,,,,,,,,,,31.000000,0.000000,0.529026,0.489624,-0.527100,0.450073,0.958125,0.018069,-0.044439,-34.511730,46.676998,31.653542
1732158096.645588,1732158096.648056,125.000000,0.000000,4351.410156,4246.153809,4320.897461,4294.230957,4224.743652,4262.307617,4335.256348,4403.333496,4290.512695,4293.974121,4505.512695,4535.384766,4389.230957,4490.000000,1603.000000,1.000000,21.000000,,,,0.000000,2.000000,2.000000,0.000000,4.000000,2.000000,2.000000,0.000000,0.000000,4.000000,4.000000,4.000000,4.000000,4.000000,4.000000,0.000000,,,,,,,,,,,,,,,,,,,,,,,,,,,,
1732158096.653396,1732158096.656064,126.000000,0.000000,4357.051270,4243.589844,4321.538574,4296.410156,4231.538574,4261.410156,4336.410156,4402.820313,4291.922852,4297.307617,4505.641113,4536.794922,4391.153809,4491.666504,1551.000000,1.000000,21.000000,,,,0.000000,2.000000,2.000000,0.000000,4.000000,2.000000,2.000000,0.000000,0.000000,4.000000,4.000000,4.000000,4.000000,4.000000,4.000000,0.000000,,,,,,,,,,,,,,,,,,,,,,,,,,,,
1732158096.661205,1732158096.663872,127.000000,0.000000,4356.282227,4246.025879,4323.717773,4297.307617,4244.871582,4263.077148,4335.897461,4399.615234,4293.846191,4298.205078,4507.563965,4539.743652,4390.256348,4491.538574,21.000000,1.000000,21.000000,,,,0.000000,2.000000,2.000000,0.000000,4.000000,2.000000,2.000000,0.000000,0.000000,4.000000,4.000000,4.000000,4.000000,4.000000,4.000000,0.000000,,,,,,,,,,,,,,,,,,,,,,,,,,,,
1732158096.669013,1732158096.671780,0.000000,0.000000,4351.025879,4245.384766,4324.102539,4296.025879,4235.641113,4264.230957,4334.743652,4402.307617,4291.410156,4294.230957,4506.410156,4537.820313,4385.512695,4490.384766,0.000000,1.000000,21.000000,,,,0.000000,2.000000,2.000000,0.000000,4.000000,2.000000,2.000000,0.000000,0.000000,4.000000,4.000000,4.000000,4.000000,4.000000,4.000000,0.000000,,,,,,,,,,,,,,,,,0.000000,0.000000,0.526923,0.488220,-0.527893,0.453125,0.982542,0.005372,-0.025882,-34.659504,46.580032,31.719370
1732158096.676821,1732158096.679589,1.000000,0.000000,4350.897461,4242.692383,4324.102539,4296.153809,4213.461426,4262.563965,4334.615234,4402.820313,4287.563965,4291.538574,4503.589844,4537.692383,4380.769043,4487.179688,1611.000000,1.000000,21.000000,,,,0.000000,2.000000,2.000000,0.000000,4.000000,2.000000,2.000000,0.000000,0.000000,4.000000,4.000000,4.000000,4.000000,4.000000,4.000000,0.000000,,,,,,,,,,,,,,,,,,,,,,,,,,,,
1732158096.684630,1732158096.687597,2.000000,0.000000,4349.615234,4242.563965,4324.230957,4295.641113,4216.922852,4262.692383,4334.615234,4398.717773,4290.384766,4295.384766,4504.230957,4537.948730,4381.538574,4487.948730,1361.000000,1.000000,21.000000,,,,0.000000,2.000000,2.000000,0.000000,4.000000,2.000000,2.000000,0.000000,0.000000,4.000000,4.000000,4.000000,4.000000,4.000000,4.000000,0.000000,,,,,,,,,,,,,,,,,,,,,,,,,,,,
1732158096.692438,1732158096.695405,3.000000,0.000000,4344.358887,4244.871582,4323.717773,4294.743652,4232.051270,4263.974121,4335.512695,4400.641113,4295.384766,4297.948730,4506.410156,4537.179688,4383.974121,4490.128418,1436.000000,1.000000,21.000000,,,,0.000000,2.000000,2.000000,0.000000,4.000000,2.000000,2.000000,0.000000,0.000000,4.000000,4.000000,4.000000,4.000000,4.000000,4.000000,0.000000,,,,,,,,,,,,,,,,,,,,,,,,,,,,
1732158096.700246,1732158096.703313,4.000000,0.000000,4343.461426,4246.538574,4322.179688,4295.897461,4231.153809,4265.512695,4336.794922,4403.077148,4295.384766,4294.743652,4506.410156,4539.358887,4382.563965,4484.871582,1429.000000,1.000000,21.000000,,,,0.000000,2.000000,2.000000,0.000000,4.000000,2.000000,2.000000,0.000000,0.000000,4.000000,4.000000,4.000000,4.000000,4.000000,4.000000,0.000000,,,,,,,,,,,,,,,,,1.000000,0.000000,0.526250,0.487122,-0.528687,0.454163,0.990844,0.009278,-0.026859,-34.692532,46.343163,31.931023
1732158096.708054,1732158096.711121,5.000000,0.000000,4343.846191,4241.282227,4322.948730,4295.512695,4230.256348,4267.051270,4336.153809,4401.025879,4295.897461,4295.384766,4504.615234,4537.692383,4383.589844,4482.051270,1209.000000,1.000000,21.000000,,,,0.000000,2.000000,2.000000,0.000000,4.000000,2.000000,2.000000,0.000000,0.000000,4.000000,4.000000,4.000000,4.000000,4.000000,4.000000,0.000000,,,,,,,,,,,,,,,,,,,,,,,,,,,,
1732158096.715863,1732158096.719129,6.000000,0.000000,4340.128418,4237.179688,4324.230957,4294.102539,4235.128418,4267.563965,4334.871582,4403.333496,4296.922852,4296.922852,4503.846191,4535.641113,4384.358887,4484.102539,0.000000,1.000000,21.000000,,,,0.000000,2.000000,2.000000,0.000000,4.000000,2.000000,2.000000,0.000000,0.000000,4.000000,4.000000,4.000000,4.000000,4.000000,4.000000,0.000000,,,,,,,,,,,,,,,,,,,,,,,,,,,,
1732158096.723671,1732158096.726937,7.000000,0.000000,4341.538574,4244.102539,4322.179688,4294.615234,4234.615234,4265.897461,4335.256348,4406.794922,4296.153809,4296.025879,4505.769043,4539.743652,4381.153809,4481.922852,0.000000,1.000000,21.000000,,,,0.000000,2.000000,2.000000,0.000000,4.000000,2.000000,2.000000,0.000000,0.000000,4.000000,4.000000,4.000000,4.000000,4.000000,4.000000,0.000000,,,,,,,,,,,,,,,,,,,,,,,,,,,,
1732158096.731479,1732158096.734845,8.000000,0.000000,4345.641113,4249.487305,4321.282227,4293.589844,4232.307617,4265.769043,4336.538574,4402.436035,4296.410156,4300.769043,4506.538574,4537.820313,4379.358887,4477.948730,1538.000000,1.000000,21.000000,,,,0.000000,2.000000,2.000000,0.000000,4.000000,2.000000,2.000000,0.000000,0.000000,4.000000,4.000000,4.000000,4.000000,4.000000,4.000000,0.000000,,,,,,,,,,,,,,,,,2.000000,0.000000,0.524422,0.484375,-0.530762,0.456787,0.982542,0.004395,-0.028812,-34.497616,46.309628,32.102463
1732158096.739287,1732158096.742654,9.000000,0.000000,4339.615234,4246.153809,4321.666504,4292.051270,4235.384766,4269.615234,4336.666504,4400.384766,4296.153809,4300.769043,4505.641113,4530.512695,4379.743652,4474.102539,1688.000000,1.000000,21.000000,,,,0.000000,2.000000,2.000000,0.000000,4.000000,2.000000,2.000000,0.000000,0.000000,4.000000,4.000000,4.000000,4.000000,4.000000,4.000000,0.000000,,,,,,,,,,,,,,,,,,,,,,,,,,,,
1732158096.747095,1732158096.750662,10.000000,0.000000,4328.589844,4246.153809,4322.436035,4293.846191,4237.692383,4269.358887,4335.512695,4405.128418,4294.358887,4297.179688,4505.256348,4531.282227,4379.871582,4470.897461,1551.000000,1.000000,21.000000,,,,0.000000,2.000000,2.000000,0.000000,4.000000,2.000000,2.000000,0.000000,0.000000,4.000000,4.000000,4.000000,4.000000,4.000000,4.000000,0.000000,,,,,,,,,,,,,,,,,,,,,,,,,,,,
1732158096.754904,1732158096.758470,11.000000,0.000000,4326.538574,4250.769043,4325.897461,4296.153809,4231.666504,4265.769043,4334.615234,4405.641113,4296.922852,4301.794922,4505.641113,4538.717773,4381.666504,4475.512695,1563.000000,1.000000,21.000000,,,,0.000000,2.000000,2.000000,0.000000,4.000000,2.000000,2.000000,0.000000,0.000000,4.000000,4.000000,4.000000,4.000000,4.000000,4.000000,0.000000,,,,,,,,,,,,,,,,,,,,,,,,,,,,
1732158096.762712,1732158096.766378,12.000000,0.000000,4329.230957,4249.487305,4324.487305,4294.615234,4239.615234,4266.410156,4334.871582,4401.666504,4296.410156,4301.922852,4505.384766,4538.205078,4383.589844,4474.102539,1710.000000,1.000000,21.000000,,,,0.000000,2.000000,2.000000,0.000000,4.000000,2.000000,2.000000,0.000000,0.000000,4.000000,4.000000,4.000000,4.000000,4.000000,4.000000,0.000000,,,,,,,,,,,,,,,,,3.000000,0.000000,0.521908,0.481445,-0.533264,0.459839,0.991332,-0.012697,-0.024417,-34.603069,46.254131,31.932993
1732158096.770520,1732158096.774186,13.000000,0.000000,4328.205078,4248.589844,4320.897461,4294.230957,4254.358887,4266.410156,4334.871582,4400.512695,4292.436035,4296.538574,4505.384766,4533.333496,4381.025879,4462.820313,1599.000000,1.000000,21.000000,,,,0.000000,2.000000,2.000000,0.000000,4.000000,2.000000,2.000000,0.000000,0.000000,4.000000,4.000000,4.000000,4.000000,4.000000,4.000000,0.000000,,,,,,,,,,,,,,,,,,,,,,,,,,,,
1732158096.778329,1732158096.782194,14.000000,0.000000,4327.051270,4249.487305,4321.538574,4296.025879,4243.205078,4268.333496,4334.487305,4401.794922,4297.436035,4303.205078,4504.871582,4535.128418,4379.358887,4465.512695,1551.000000,1.000000,21.000000,,,,0.000000,2.000000,2.000000,0.000000,4.000000,2.000000,2.000000,0.000000,0.000000,4.000000,4.000000,4.000000,4.000000,4.000000,4.000000,0.000000,1.000000,0.000000,2.000000,2.000000,0.000000,1.000000,2.000000,2.000000,0.000000,0.000000,4.000000,4.000000,4.000000,4.000000,4.000000,4.000000,,,,,,,,,,,,
1732158096.786137,1732158096.790002,15.000000,0.000000,4327.563965,4249.102539,4322.563965,4295.384766,4225.128418,4275.769043,4334.358887,4401.153809,4300.128418,4307.179688,4505.128418,4539.743652,4380.897461,4475.897461,1563.000000,1.000000,21.000000,,,,0.000000,2.000000,2.000000,0.000000,4.000000,2.000000,2.000000,0.000000,0.000000,4.000000,4.000000,4.000000,4.000000,4.000000,4.000000,0.000000,,,,,,,,,,,,,,,,,,,,,,,,,,,,
1732158096.793945,1732158096.797711,16.000000,0.000000,4328.589844,4249.102539,4323.077148,4294.743652,4228.846191,4279.487305,4335.897461,4401.410156,4297.051270,4297.436035,4507.051270,4535.256348,4376.025879,4474.487305,0.000000,1.000000,21.000000,,,,0.000000,2.000000,2.000000,0.000000,4.000000,2.000000,2.000000,0.000000,0.000000,4.000000,4.000000,4.000000,4.000000,4.000000,4.000000,0.000000,,,,,,,,,,,,,,,,,4.000000,0.000000,0.520098,0.480164,-0.534973,0.461243,0.984495,-0.013185,-0.035161,-34.668488,46.169178,31.810724
1732158096.801753,1732158096.805519,17.000000,0.000000,4327.692383,4248.589844,4319.743652,4296.538574,4235.256348,4277.948730,4334.615234,4401.410156,4301.153809,4295.128418,4503.333496,4524.871582,4366.922852,4467.692383,0.000000,1.000000,21.000000,,,,0.000000,2.000000,2.000000,0.000000,4.000000,2.000000,2.000000,0.000000,0.000000,4.000000,4.000000,4.000000,4.000000,4.000000,4.000000,0.000000,,,,,,,,,,,,,,,,,,,,,,,,,,,,
1732158096.809562,1732158096.813127,18.000000,0.000000,4326.410156,4249.102539,4323.846191,4296.538574,4231.538574,4274.102539,4333.974121,4402.051270,4302.179688,4298.333496,4500.256348,4525.769043,4366.025879,4468.589844,0.000000,1.000000,21.000000,,,,0.000000,2.000000,2.000000,0.000000,4.000000,2.000000,2.000000,0.000000,0.000000,4.000000,4.000000,4.000000,4.000000,4.000000,4.000000,0.000000,,,,,,,,,,,,,,,,,,,,,,,,,,,,
1732158096.817370,1732158096.820936,19.000000,0.000000,4332.179688,4248.717773,4344.358887,4293.077148,4229.743652,4266.794922,4340.000000,4410.000000,4294.743652,4296.282227,4503.077148,4538.205078,4368.077148,4471.410156,0.000000,1.000000,21.000000,,,,0.000000,2.000000,2.000000,0.000000,4.000000,2.000000,2.000000,0.000000,0.000000,4.000000,4.000000,4.000000,4.000000,4.000000,4.000000,0.000000,,,,,,,,,,,,,,,,,,,,,,,,,,,,
1732158096.825178,1732158096.828644,20.000000,0.000000,4336.282227,4247.563965,4352.179688,4292.563965,4229.230957,4262.307617,4341.538574,4414.487305,4293.846191,4294.358887,4501.410156,4542.436035,4366.922852,4467.948730,0.000000,1.000000,21.000000,,,,0.000000,2.000000,2.000000,0.000000,4.000000,2.000000,2.000000,0.000000,0.000000,4.000000,4.000000,4.000000,4.000000,4.000000,4.000000,0.000000,,,,,,,,,,,,,,,,,5.000000,0.000000,0.519183,0.479614,-0.535828,0.461853,0.985960,-0.041997,-0.035649,-34.594807,45.960369,31.821688
1732158096.832986,1732158096.836452,21.000000,0.000000,4329.871582,4250.512695,4328.589844,4294.743652,4229.615234,4264.487305,4334.358887,4406.153809,4295.641113,4293.717773,4491.410156,4532.307617,4365.512695,4460.384766,0.000000,1.000000,21.000000,,,,0.000000,2.000000,2.000000,0.000000,4.000000,2.000000,2.000000,0.000000,0.000000,4.000000,4.000000,4.000000,4.000000,4.000000,4.000000,0.000000,,,,,,,,,,,,,,,,,,,,,,,,,,,,
1732158096.840794,1732158096.844060,22.000000,0.000000,4326.538574,4252.563965,4313.077148,4292.436035,4231.794922,4266.538574,4332.179688,4400.000000,4294.230957,4297.307617,4490.256348,4521.282227,4366.538574,4458.333496,0.000000,1.000000,21.000000,,,,0.000000,2.000000,2.000000,0.000000,4.000000,2.000000,2.000000,0.000000,0.000000,4.000000,4.000000,4.000000,4.000000,4.000000,4.000000,0.000000,,,,,,,,,,,,,,,,,,,,,,,,,,,,
1732158096.848603,1732158096.851869,23.000000,0.000000,4329.487305,4253.846191,4319.230957,4290.128418,4234.230957,4265.897461,4335.256348,4403.846191,4296.922852,4303.974121,4501.922852,4520.641113,4370.000000,4459.102539,0.000000,1.000000,21.000000,,,,0.000000,2.000000,2.000000,0.000000,4.000000,2.000000,2.000000,0.000000,0.000000,4.000000,4.000000,4.000000,4.000000,4.000000,4.000000,0.000000,,,,,,,,,,,,,,,,,,,,,,,,,,,,
1732158096.856411,1732158096.859777,24.000000,0.000000,4328.205078,4261.153809,4319.743652,4293.846191,4235.000000,4266.666504,4334.743652,4403.974121,4298.205078,4304.102539,4501.794922,4528.461426,4370.769043,4456.153809,0.000000,1.000000,21.000000,,,,0.000000,2.000000,2.000000,0.000000,4.000000,2.000000,2.000000,0.000000,0.000000,4.000000,4.000000,4.000000,4.000000,4.000000,4.000000,0.000000,,,,,,,,,,,,,,,,,6.000000,0.000000,0.515480,0.478271,-0.538696,0.464050,0.991820,-0.027347,-0.040044,-34.878460,45.889565,31.845566
1732158096.864219,1732158096.867585,25.000000,0.000000,4326.666504,4266.538574,4315.769043,4298.461426,4227.436035,4267.692383,4334.743652,4401.282227,4293.205078,4298.974121,4493.717773,4531.025879,4366.153809,4457.692383,0.000000,1.000000,21.000000,,,,0.000000,2.000000,2.000000,0.000000,4.000000,2.000000,2.000000,0.000000,0.000000,4.000000,4.000000,4.000000,4.000000,4.000000,4.000000,0.000000,,,,,,,,,,,,,,,,,,,,,,,,,,,,
1732158096.872028,1732158096.875193,26.000000,0.000000,4327.948730,4265.000000,4315.897461,4296.794922,4235.000000,4264.487305,4336.666504,4403.333496,4293.589844,4297.692383,4492.436035,4528.333496,4364.358887,4456.666504,0.000000,1.000000,21.000000,,,,0.000000,2.000000,2.000000,0.000000,4.000000,2.000000,2.000000,0.000000,0.000000,4.000000,4.000000,4.000000,4.000000,4.000000,4.000000,0.000000,,,,,,,,,,,,,,,,,,,,,,,,,,,,
1732158096.879836,1732158096.883002,27.000000,0.000000,4325.641113,4271.153809,4314.358887,4297.692383,4252.436035,4264.487305,4335.897461,4401.794922,4297.692383,4302.948730,4493.717773,4527.563965,4367.307617,4448.333496,0.000000,1.000000,21.000000,,,,0.000000,2.000000,2.000000,0.000000,4.000000,2.000000,2.000000,0.000000,0.000000,4.000000,4.000000,4.000000,4.000000,4.000000,4.000000,0.000000,,,,,,,,,,,,,,,,,,,,,,,,,,,,
1732158096.887644,1732158096.890710,28.000000,0.000000,4324.230957,4281.025879,4315.384766,4302.436035,4238.846191,4273.717773,4336.282227,4399.358887,4296.025879,4304.102539,4498.077148,4530.000000,4366.922852,4448.717773,0.000000,1.000000,21.000000,,,,0.000000,2.000000,2.000000,0.000000,4.000000,2.000000,2.000000,0.000000,0.000000,4.000000,4.000000,4.000000,4.000000,4.000000,4.000000,0.000000,,,,,,,,,,,,,,,,,7.000000,0.000000,0.513848,0.478333,-0.539307,0.465088,0.981565,-0.028812,-0.038091,-34.956554,45.847214,31.886576
1732158096.895452,1732158096.898518,29.000000,0.000000,4324.871582,4280.384766,4317.179688,4300.512695,4215.641113,4273.974121,4336.282227,4400.641113,4293.461426,4300.384766,4503.461426,4527.307617,4366.410156,4456.153809,0.000000,1.000000,21.000000,,,,0.000000,2.000000,2.000000,0.000000,4.000000,2.000000,2.000000,0.000000,0.000000,4.000000,4.000000,4.000000,4.000000,4.000000,4.000000,0.000000,,,,,,,,,,,,,,,,,,,,,,,,,,,,
1732158096.903261,1732158096.906526,30.000000,0.000000,4325.128418,4277.179688,4316.410156,4294.102539,4222.820313,4265.128418,4334.358887,4401.282227,4295.000000,4300.641113,4498.717773,4526.410156,4367.307617,4456.025879,0.000000,1.000000,21.000000,,,,0.000000,2.000000,2.000000,0.000000,4.000000,2.000000,2.000000,0.000000,0.000000,4.000000,4.000000,4.000000,4.000000,4.000000,4.000000,0.000000,,,,,,,,,,,,,,,,,,,,,,,,,,,,
1732158096.911069,1732158096.914334,31.000000,0.000000,4326.153809,4278.077148,4316.410156,4295.769043,4235.769043,4270.256348,4333.974121,4400.769043,4298.717773,4305.897461,4490.384766,4533.077148,4364.615234,4450.384766,0.000000,1.000000,21.000000,,,,0.000000,2.000000,2.000000,0.000000,4.000000,2.000000,2.000000,0.000000,0.000000,4.000000,4.000000,4.000000,4.000000,4.000000,4.000000,0.000000,,,,,,,,,,,,,,,,,,,,,,,,,,,,
1732158096.918877,1732158096.922242,32.000000,0.000000,4323.461426,4278.461426,4317.179688,4299.102539,4231.666504,4282.436035,4335.512695,4401.153809,4298.717773,4304.487305,4492.436035,4529.871582,4363.589844,4447.179688,0.000000,1.000000,21.000000,,,,0.000000,2.000000,2.000000,0.000000,4.000000,2.000000,2.000000,0.000000,0.000000,4.000000,4.000000,4.000000,4.000000,4.000000,4.000000,0.000000,,,,,,,,,,,,,,,,,8.000000,0.000000,0.513429,0.478210,-0.539551,0.465393,0.976682,-0.039556,-0.049322,-35.313141,45.686245,31.939793
1732158096.926685,1732158096.930051,33.000000,0.000000,4321.282227,4280.128418,4317.179688,4299.102539,4231.922852,4276.538574,4336.538574,4401.538574,4295.641113,4300.512695,4493.974121,4525.897461,4364.871582,4446.282227,0.000000,1.000000,21.000000,,,,0.000000,2.000000,2.000000,0.000000,4.000000,2.000000,2.000000,0.000000,0.000000,4.000000,4.000000,4.000000,4.000000,4.000000,4.000000,0.000000,,,,,,,,,,,,,,,,,,,,,,,,,,,,
1732158096.934493,1732158096.937659,34.000000,0.000000,4324.615234,4282.051270,4316.153809,4301.282227,4235.384766,4262.948730,4335.897461,4400.897461,4295.384766,4301.025879,4491.794922,4535.000000,4364.358887,4446.410156,0.000000,1.000000,21.000000,,,,0.000000,2.000000,2.000000,0.000000,4.000000,2.000000,2.000000,0.000000,0.000000,4.000000,4.000000,4.000000,4.000000,4.000000,4.000000,0.000000,,,,,,,,,,,,,,,,,,,,,,,,,,,,
1732158096.942302,1732158096.945467,35.000000,0.000000,4327.051270,4283.205078,4317.820313,4304.743652,4235.000000,4265.128418,4334.358887,4401.153809,4297.051270,4298.717773,4491.410156,4540.256348,4363.461426,4445.769043,0.000000,1.000000,21.000000,,,,0.000000,2.000000,2.000000,0.000000,4.000000,2.000000,2.000000,0.000000,0.000000,4.000000,4.000000,4.000000,4.000000,4.000000,4.000000,0.000000,,,,,,,,,,,,,,,,,,,,,,,,,,,,
1732158096.950110,1732158096.953176,36.000000,0.000000,4324.871582,4279.487305,4321.538574,4302.051270,4236.153809,4276.282227,4333.589844,4401.410156,4297.563965,4299.102539,4489.615234,4537.307617,4363.461426,4444.102539,0.000000,1.000000,21.000000,,,,0.000000,2.000000,2.000000,0.000000,4.000000,2.000000,2.000000,0.000000,0.000000,4.000000,4.000000,4.000000,4.000000,4.000000,4.000000,0.000000,,,,,,,,,,,,,,,,,9.000000,0.000000,0.512565,0.478088,-0.539795,0.466187,0.993774,-0.031742,-0.042486,-35.245312,45.744190,31.779566
1732158096.957918,1732158096.960984,37.000000,0.000000,4323.461426,4270.256348,4322.307617,4299.230957,4245.769043,4280.769043,4334.487305,4404.487305,4295.769043,4301.025879,4489.871582,4537.179688,4363.461426,4444.871582,0.000000,1.000000,21.000000,,,,0.000000,2.000000,2.000000,0.000000,4.000000,2.000000,2.000000,0.000000,0.000000,4.000000,4.000000,4.000000,4.000000,4.000000,4.000000,0.000000,,,,,,,,,,,,,,,,,,,,,,,,,,,,
1732158096.965727,1732158096.968592,38.000000,0.000000,4322.820313,4267.820313,4320.512695,4301.410156,4256.410156,4277.820313,4335.128418,4407.948730,4294.615234,4297.692383,4492.179688,4532.436035,4363.589844,4444.615234,0.000000,1.000000,21.000000,,,,0.000000,2.000000,2.000000,0.000000,4.000000,2.000000,2.000000,0.000000,0.000000,4.000000,4.000000,4.000000,4.000000,4.000000,4.000000,0.000000,,,,,,,,,,,,,,,,,,,,,,,,,,,,
1732158096.973535,1732158096.976400,39.000000,0.000000,4322.307617,4270.897461,4321.153809,4301.922852,4243.846191,4277.179688,4334.358887,4405.256348,4296.282227,4299.871582,4492.051270,4527.563965,4365.769043,4443.589844,0.000000,1.000000,21.000000,,,,0.000000,2.000000,2.000000,0.000000,4.000000,2.000000,2.000000,0.000000,0.000000,4.000000,4.000000,4.000000,4.000000,4.000000,4.000000,0.000000,,,,,,,,,,,,,,,,,,,,,,,,,,,,
1732158096.981343,1732158096.984309,40.000000,0.000000,4323.077148,4268.461426,4320.128418,4304.102539,4227.051270,4279.230957,4334.487305,4400.000000,4296.794922,4304.615234,4492.307617,4530.256348,4365.897461,4447.179688,0.000000,1.000000,21.000000,,,,0.000000,2.000000,2.000000,0.000000,4.000000,2.000000,2.000000,0.000000,0.000000,4.000000,4.000000,4.000000,4.000000,4.000000,4.000000,0.000000,,,,,,,,,,,,,,,,,10.000000,0.000000,0.511671,0.478516,-0.539368,0.467224,0.963497,-0.030765,-0.056159,-35.307034,45.691128,31.799782
1732158096.989151,1732158096.992117,41.000000,0.000000,4320.512695,4263.077148,4316.410156,4305.000000,4230.000000,4280.384766,4335.384766,4400.512695,4294.487305,4303.846191,4492.563965,4527.307617,4363.974121,4447.820313,0.000000,1.000000,21.000000,,,,0.000000,2.000000,2.000000,0.000000,4.000000,2.000000,2.000000,0.000000,0.000000,4.000000,4.000000,4.000000,4.000000,4.000000,4.000000,0.000000,,,,,,,,,,,,,,,,,,,,,,,,,,,,
1732158096.996960,1732158097.000125,42.000000,0.000000,4318.205078,4263.846191,4318.461426,4300.384766,4235.256348,4280.641113,4333.717773,4402.051270,4295.384766,4305.897461,4494.487305,4523.974121,4365.384766,4445.000000,0.000000,1.000000,21.000000,,,,0.000000,2.000000,2.000000,0.000000,4.000000,2.000000,2.000000,0.000000,0.000000,4.000000,4.000000,4.000000,4.000000,4.000000,4.000000,0.000000,,,,,,,,,,,,,,,,,,,,,,,,,,,,
1732158097.004768,1732158097.007933,43.000000,0.000000,4319.615234,4266.410156,4320.641113,4298.461426,4242.692383,4278.974121,4331.666504,4400.128418,4297.948730,4307.179688,4495.641113,4531.538574,4366.794922,4450.256348,0.000000,1.000000,21.000000,,,,0.000000,2.000000,2.000000,0.000000,4.000000,2.000000,2.000000,0.000000,0.000000,4.000000,4.000000,4.000000,4.000000,4.000000,4.000000,0.000000,,,,,,,,,,,,,,,,,,,,,,,,,,,,
1732158097.012576,1732158097.015841,44.000000,0.000000,4319.871582,4266.153809,4321.025879,4298.461426,4253.461426,4278.461426,4333.717773,4400.256348,4295.512695,4297.948730,4493.077148,4535.384766,4365.384766,4455.256348,0.000000,1.000000,21.000000,,,,0.000000,2.000000,2.000000,0.000000,4.000000,2.000000,2.000000,0.000000,0.000000,4.000000,4.000000,4.000000,4.000000,4.000000,4.000000,0.000000,,,,,,,,,,,,,,,,,11.000000,0.000000,0.511945,0.478516,-0.539001,0.467346,0.963497,-0.012697,-0.045416,-35.228699,45.528149,31.879490
1732158097.020384,1732158097.023649,45.000000,0.000000,4317.563965,4266.153809,4323.461426,4300.641113,4245.769043,4281.666504,4336.922852,4400.897461,4293.077148,4294.615234,4492.436035,4529.102539,4364.487305,4449.230957,0.000000,1.000000,21.000000,,,,0.000000,2.000000,2.000000,0.000000,4.000000,2.000000,2.000000,0.000000,0.000000,4.000000,4.000000,4.000000,4.000000,4.000000,4.000000,0.000000,,,,,,,,,,,,,,,,,,,,,,,,,,,,
1732158097.028193,1732158097.031657,46.000000,0.000000,4313.846191,4265.128418,4324.871582,4304.871582,4233.846191,4283.333496,4336.025879,4401.282227,4295.384766,4298.333496,4494.230957,4523.846191,4363.589844,4442.436035,0.000000,1.000000,21.000000,,,,0.000000,2.000000,2.000000,0.000000,4.000000,2.000000,2.000000,0.000000,0.000000,4.000000,4.000000,4.000000,4.000000,4.000000,4.000000,0.000000,,,,,,,,,,,,,,,,,,,,,,,,,,,,
1732158097.036001,1732158097.039465,47.000000,0.000000,4311.153809,4265.897461,4321.922852,4303.846191,4246.025879,4281.410156,4334.487305,4401.666504,4298.589844,4297.051270,4494.102539,4522.436035,4359.102539,4442.307617,0.000000,1.000000,21.000000,,,,0.000000,2.000000,2.000000,0.000000,4.000000,2.000000,2.000000,0.000000,0.000000,4.000000,4.000000,4.000000,4.000000,4.000000,4.000000,0.000000,,,,,,,,,,,,,,,,,,,,,,,,,,,,
1732158097.043809,1732158097.047174,48.000000,0.000000,4309.743652,4266.922852,4321.282227,4298.846191,4250.384766,4280.512695,4334.871582,4402.563965,4298.461426,4294.743652,4491.794922,4524.487305,4356.922852,4441.666504,0.000000,1.000000,21.000000,,,,0.000000,2.000000,2.000000,0.000000,4.000000,2.000000,2.000000,0.000000,0.000000,4.000000,4.000000,4.000000,4.000000,4.000000,4.000000,0.000000,,,,,,,,,,,,,,,,,12.000000,0.000000,0.512024,0.478638,-0.538818,0.467346,0.963497,-0.012697,-0.045416,-35.280247,45.839466,31.554052
1732158097.051617,1732158097.054982,49.000000,0.000000,4310.256348,4266.025879,4321.410156,4302.436035,4242.436035,4281.025879,4335.000000,4403.461426,4294.871582,4296.538574,4492.820313,4524.102539,4362.051270,4440.256348,0.000000,1.000000,21.000000,,,,0.000000,2.000000,2.000000,0.000000,4.000000,2.000000,2.000000,0.000000,0.000000,4.000000,4.000000,4.000000,4.000000,4.000000,4.000000,0.000000,,,,,,,,,,,,,,,,,,,,,,,,,,,,
1732158097.059425,1732158097.062590,50.000000,0.000000,4312.051270,4265.897461,4319.743652,4306.025879,4258.974121,4277.820313,4334.743652,4402.820313,4297.051270,4299.615234,4500.256348,4522.692383,4366.922852,4443.077148,0.000000,1.000000,21.000000,,,,0.000000,2.000000,2.000000,0.000000,4.000000,2.000000,2.000000,0.000000,0.000000,4.000000,4.000000,4.000000,4.000000,4.000000,4.000000,0.000000,,,,,,,,,,,,,,,,,,,,,,,,,,,,
1732158097.067234,1732158097.070399,51.000000,0.000000,4312.820313,4273.974121,4319.358887,4305.000000,4266.153809,4277.692383,4334.743652,4400.384766,4308.461426,4304.230957,4504.487305,4524.743652,4365.769043,4446.153809,0.000000,1.000000,21.000000,,,,0.000000,2.000000,2.000000,0.000000,4.000000,2.000000,2.000000,0.000000,0.000000,4.000000,4.000000,4.000000,4.000000,4.000000,4.000000,0.000000,,,,,,,,,,,,,,,,,,,,,,,,,,,,
1732158097.075042,1732158097.078307,52.000000,0.000000,4311.153809,4280.897461,4320.384766,4306.538574,4240.256348,4282.948730,4335.000000,4398.974121,4308.589844,4305.384766,4497.692383,4523.205078,4364.102539,4444.230957,0.000000,1.000000,21.000000,,,,0.000000,2.000000,2.000000,0.000000,4.000000,2.000000,2.000000,0.000000,0.000000,4.000000,4.000000,4.000000,4.000000,4.000000,4.000000,0.000000,,,,,,,,,,,,,,,,,13.000000,0.000000,0.512462,0.478882,-0.538025,0.467529,0.972287,-0.016115,-0.029789,-35.306999,45.856632,31.413784
1732158097.082850,1732158097.086115,53.000000,0.000000,4313.589844,4271.794922,4320.897461,4301.025879,4230.641113,4282.436035,4335.128418,4399.102539,4295.641113,4301.153809,4492.692383,4521.025879,4364.743652,4442.307617,0.000000,1.000000,21.000000,,,,0.000000,2.000000,2.000000,0.000000,4.000000,2.000000,2.000000,0.000000,0.000000,4.000000,4.000000,4.000000,4.000000,4.000000,4.000000,0.000000,,,,,,,,,,,,,,,,,,,,,,,,,,,,
1732158097.090659,1732158097.094123,54.000000,0.000000,4317.820313,4262.051270,4320.769043,4295.641113,4246.922852,4281.922852,4334.230957,4399.487305,4295.128418,4297.051270,4496.410156,4523.846191,4363.205078,4444.102539,0.000000,1.000000,21.000000,,,,0.000000,2.000000,2.000000,0.000000,4.000000,2.000000,2.000000,0.000000,0.000000,4.000000,4.000000,4.000000,4.000000,4.000000,4.000000,0.000000,,,,,,,,,,,,,,,,,,,,,,,,,,,,
1732158097.098467,1732158097.101931,55.000000,0.000000,4313.077148,4263.589844,4319.358887,4303.333496,4254.615234,4287.307617,4333.974121,4400.897461,4304.102539,4296.153809,4493.077148,4524.230957,4357.948730,4436.666504,0.000000,1.000000,21.000000,,,,0.000000,2.000000,2.000000,0.000000,4.000000,2.000000,2.000000,0.000000,0.000000,4.000000,4.000000,4.000000,4.000000,4.000000,4.000000,0.000000,,,,,,,,,,,,,,,,,,,,,,,,,,,,
1732158097.106275,1732158097.109839,56.000000,0.000000,4309.358887,4266.538574,4319.615234,4307.179688,4248.205078,4287.179688,4335.512695,4402.307617,4305.384766,4296.282227,4487.051270,4519.358887,4356.666504,4428.077148,0.000000,1.000000,21.000000,,,,0.000000,2.000000,2.000000,0.000000,4.000000,2.000000,2.000000,0.000000,0.000000,4.000000,4.000000,4.000000,4.000000,4.000000,4.000000,0.000000,,,,,,,,,,,,,,,,,14.000000,0.000000,0.513040,0.478699,-0.537903,0.467224,0.979123,0.000488,-0.048346,-35.312004,46.020538,31.450165
1732158097.114083,1732158097.117647,57.000000,0.000000,4314.743652,4264.743652,4322.179688,4300.000000,4247.820313,4280.641113,4335.897461,4400.384766,4305.000000,4297.179688,4490.897461,4522.692383,4358.846191,4435.384766,0.000000,1.000000,21.000000,,,,0.000000,2.000000,2.000000,0.000000,4.000000,2.000000,2.000000,0.000000,0.000000,4.000000,4.000000,4.000000,4.000000,4.000000,4.000000,0.000000,,,,,,,,,,,,,,,,,,,,,,,,,,,,
1732158097.121892,1732158097.125655,58.000000,0.000000,4315.128418,4264.358887,4321.410156,4294.487305,4258.077148,4276.922852,4335.000000,4399.230957,4304.102539,4297.948730,4493.717773,4527.051270,4357.563965,4442.179688,0.000000,1.000000,21.000000,,,,0.000000,2.000000,2.000000,0.000000,4.000000,2.000000,2.000000,0.000000,0.000000,4.000000,4.000000,4.000000,4.000000,4.000000,4.000000,0.000000,,,,,,,,,,,,,,,,,,,,,,,,,,,,
1732158097.129700,1732158097.133464,59.000000,0.000000,4310.128418,4265.384766,4318.717773,4296.282227,4260.128418,4279.615234,4334.615234,4401.025879,4297.948730,4293.717773,4489.102539,4522.436035,4352.563965,4435.000000,0.000000,1.000000,21.000000,,,,0.000000,2.000000,2.000000,0.000000,4.000000,2.000000,2.000000,0.000000,0.000000,4.000000,4.000000,4.000000,4.000000,4.000000,4.000000,0.000000,,,,,,,,,,,,,,,,,,,,,,,,,,,,
1732158097.137508,1732158097.141372,60.000000,0.000000,4311.666504,4265.512695,4320.641113,4305.512695,4250.000000,4283.461426,4334.743652,4401.153809,4294.871582,4289.102539,4487.051270,4520.256348,4349.743652,4433.333496,0.000000,1.000000,21.000000,,,,0.000000,2.000000,2.000000,0.000000,4.000000,2.000000,2.000000,0.000000,0.000000,4.000000,4.000000,4.000000,4.000000,4.000000,4.000000,0.000000,,,,,,,,,,,,,,,,,15.000000,0.000000,0.513223,0.478699,-0.537781,0.467163,0.983518,-0.012697,-0.046392,-35.541054,45.969971,31.612967
1732158097.145316,1732158097.149180,61.000000,0.000000,4314.230957,4266.153809,4321.794922,4310.769043,4242.948730,4284.487305,4335.256348,4399.743652,4302.307617,4293.205078,4488.461426,4523.205078,4350.256348,4441.153809,0.000000,1.000000,21.000000,,,,0.000000,2.000000,2.000000,0.000000,4.000000,2.000000,2.000000,0.000000,0.000000,4.000000,4.000000,4.000000,4.000000,4.000000,4.000000,0.000000,,,,,,,,,,,,,,,,,,,,,,,,,,,,
1732158097.153124,1732158097.157188,62.000000,0.000000,4312.692383,4265.769043,4320.000000,4304.358887,4246.025879,4282.820313,4335.256348,4400.128418,4310.641113,4297.820313,4488.461426,4522.563965,4350.641113,4441.794922,0.000000,1.000000,21.000000,,,,0.000000,2.000000,2.000000,0.000000,4.000000,2.000000,2.000000,0.000000,0.000000,4.000000,4.000000,4.000000,4.000000,4.000000,4.000000,0.000000,,,,,,,,,,,,,,,,,,,,,,,,,,,,
1732158097.160933,1732158097.164996,63.000000,0.000000,4312.051270,4266.538574,4320.384766,4301.410156,4258.077148,4281.410156,4333.974121,4401.538574,4305.897461,4295.128418,4488.333496,4523.333496,4349.230957,4435.256348,0.000000,1.000000,21.000000,,,,0.000000,2.000000,2.000000,0.000000,4.000000,2.000000,2.000000,0.000000,0.000000,4.000000,4.000000,4.000000,4.000000,4.000000,4.000000,0.000000,,,,,,,,,,,,,,,,,,,,,,,,,,,,
1732158097.168741,1732158097.172705,64.000000,0.000000,4311.922852,4269.487305,4320.769043,4307.563965,4266.025879,4282.692383,4334.743652,4400.384766,4297.820313,4292.051270,4488.974121,4525.000000,4348.077148,4429.615234,0.000000,1.000000,21.000000,,,,0.000000,2.000000,2.000000,0.000000,4.000000,2.000000,2.000000,0.000000,0.000000,4.000000,4.000000,4.000000,4.000000,4.000000,4.000000,0.000000,,,,,,,,,,,,,,,,,16.000000,0.000000,0.513286,0.478882,-0.537292,0.467468,0.981077,-0.013185,-0.046392,-35.723255,45.722343,31.496502
1732158097.176549,1732158097.180513,65.000000,0.000000,4310.897461,4272.692383,4318.717773,4307.307617,4256.153809,4285.000000,4336.666504,4401.922852,4300.641113,4292.948730,4487.948730,4522.179688,4350.256348,4429.102539,1608.000000,1.000000,21.000000,,,,0.000000,2.000000,2.000000,0.000000,4.000000,2.000000,2.000000,0.000000,0.000000,4.000000,4.000000,4.000000,4.000000,4.000000,4.000000,0.000000,,,,,,,,,,,,,,,,,,,,,,,,,,,,
1732158097.184358,1732158097.188121,66.000000,0.000000,4311.410156,4275.256348,4319.230957,4304.871582,4241.025879,4282.948730,4336.153809,4405.512695,4306.025879,4294.487305,4484.487305,4520.000000,4350.512695,4429.615234,1361.000000,1.000000,21.000000,,,,0.000000,2.000000,2.000000,0.000000,4.000000,2.000000,2.000000,0.000000,0.000000,4.000000,4.000000,4.000000,4.000000,4.000000,4.000000,0.000000,,,,,,,,,,,,,,,,,,,,,,,,,,,,
1732158097.192166,1732158097.195929,67.000000,0.000000,4311.025879,4278.205078,4322.051270,4308.461426,4243.461426,4281.538574,4334.358887,4403.333496,4303.846191,4294.487305,4483.846191,4522.307617,4345.000000,4427.692383,1436.000000,1.000000,21.000000,,,,0.000000,2.000000,2.000000,0.000000,4.000000,2.000000,2.000000,0.000000,0.000000,4.000000,4.000000,4.000000,4.000000,4.000000,4.000000,0.000000,,,,,,,,,,,,,,,,,,,,,,,,,,,,
1732158097.199974,1732158097.203638,68.000000,0.000000,4308.846191,4279.615234,4322.179688,4307.820313,4261.153809,4286.282227,4334.743652,4399.230957,4300.512695,4288.461426,4488.077148,4524.102539,4344.102539,4429.871582,1426.000000,1.000000,21.000000,,,,0.000000,2.000000,2.000000,0.000000,4.000000,2.000000,2.000000,0.000000,0.000000,4.000000,4.000000,4.000000,4.000000,4.000000,4.000000,0.000000,,,,,,,,,,,,,,,,,17.000000,0.000000,0.513632,0.478760,-0.536804,0.467773,0.991332,-0.018069,-0.032230,-35.472504,45.563431,31.507168
1732158097.207782,1732158097.211446,69.000000,0.000000,4307.820313,4278.205078,4320.641113,4301.794922,4271.153809,4285.897461,4336.153809,4399.743652,4299.358887,4284.102539,4487.948730,4521.538574,4349.487305,4432.436035,1209.000000,1.000000,21.000000,,,,0.000000,2.000000,2.000000,0.000000,4.000000,2.000000,2.000000,0.000000,0.000000,4.000000,4.000000,4.000000,4.000000,4.000000,4.000000,0.000000,,,,,,,,,,,,,,,,,,,,,,,,,,,,
1732158097.215591,1732158097.219054,70.000000,0.000000,4310.256348,4280.641113,4318.974121,4303.077148,4257.179688,4278.974121,4336.410156,4401.025879,4297.436035,4292.051270,4486.410156,4520.897461,4351.410156,4430.769043,0.000000,1.000000,21.000000,,,,0.000000,2.000000,2.000000,0.000000,4.000000,2.000000,2.000000,0.000000,0.000000,4.000000,4.000000,4.000000,4.000000,4.000000,4.000000,0.000000,,,,,,,,,,,,,,,,,,,,,,,,,,,,
1732158097.223399,1732158097.226862,71.000000,0.000000,4311.794922,4283.589844,4318.974121,4312.563965,4239.230957,4280.128418,4336.025879,4400.512695,4297.948730,4296.538574,4490.000000,4524.230957,4349.743652,4429.102539,0.000000,1.000000,21.000000,,,,0.000000,2.000000,2.000000,0.000000,4.000000,2.000000,2.000000,0.000000,0.000000,4.000000,4.000000,4.000000,4.000000,4.000000,4.000000,0.000000,,,,,,,,,,,,,,,,,,,,,,,,,,,,
1732158097.231207,1732158097.234771,72.000000,0.000000,4310.128418,4280.897461,4319.230957,4312.436035,4255.384766,4283.333496,4335.769043,4400.641113,4299.487305,4288.589844,4486.794922,4518.461426,4349.102539,4431.153809,1531.000000,1.000000,21.000000,,,,0.000000,2.000000,2.000000,0.000000,4.000000,2.000000,2.000000,0.000000,0.000000,4.000000,4.000000,4.000000,4.000000,4.000000,4.000000,0.000000,,,,,,,,,,,,,,,,,18.000000,0.000000,0.513578,0.478699,-0.536804,0.467896,0.988402,0.001465,-0.037114,-35.191059,45.614712,31.527472
1732158097.239015,1732158097.242579,73.000000,0.000000,4309.743652,4278.717773,4320.256348,4301.153809,4274.102539,4279.358887,4335.128418,4399.615234,4303.077148,4288.974121,4478.077148,4510.000000,4349.871582,4431.922852,1688.000000,1.000000,21.000000,,,,0.000000,2.000000,2.000000,0.000000,4.000000,2.000000,2.000000,0.000000,0.000000,4.000000,4.000000,4.000000,4.000000,4.000000,4.000000,0.000000,,,,,,,,,,,,,,,,,,,,,,,,,,,,
1732158097.246823,1732158097.250187,74.000000,0.000000,4311.794922,4280.256348,4321.153809,4300.641113,4258.205078,4281.794922,4335.512695,4399.102539,4306.922852,4294.358887,4478.077148,4516.410156,4351.025879,4427.820313,1554.000000,1.000000,21.000000,,,,0.000000,2.000000,2.000000,0.000000,4.000000,2.000000,2.000000,0.000000,0.000000,4.000000,4.000000,4.000000,4.000000,4.000000,4.000000,0.000000,,,,,,,,,,,,,,,,,,,,,,,,,,,,
1732158097.254632,1732158097.257995,75.000000,0.000000,4312.179688,4280.128418,4320.000000,4310.512695,4243.589844,4289.487305,4335.897461,4401.794922,4302.051270,4287.179688,4479.487305,4525.512695,4347.436035,4426.922852,1563.000000,1.000000,21.000000,,,,0.000000,2.000000,2.000000,0.000000,4.000000,2.000000,2.000000,0.000000,0.000000,4.000000,4.000000,4.000000,4.000000,4.000000,4.000000,0.000000,,,,,,,,,,,,,,,,,,,,,,,,,,,,
1732158097.262440,1732158097.265704,76.000000,0.000000,4312.436035,4278.333496,4320.000000,4310.000000,4251.282227,4288.333496,4334.358887,4402.692383,4295.128418,4279.615234,4477.179688,4518.717773,4344.743652,4432.820313,1708.000000,1.000000,21.000000,,,,0.000000,2.000000,2.000000,0.000000,4.000000,2.000000,2.000000,0.000000,0.000000,4.000000,4.000000,4.000000,4.000000,4.000000,4.000000,0.000000,,,,,,,,,,,,,,,,,19.000000,0.000000,0.513570,0.478699,-0.536865,0.467834,0.980100,-0.014650,-0.044439,-35.218094,45.561249,31.458920
1732158097.270248,1732158097.273512,77.000000,0.000000,4311.922852,4280.641113,4318.717773,4306.025879,4264.615234,4281.410156,4333.205078,4401.410156,4298.717773,4282.307617,4480.384766,4512.948730,4349.615234,4437.179688,1601.000000,1.000000,21.000000,,,,0.000000,2.000000,2.000000,0.000000,4.000000,2.000000,2.000000,0.000000,0.000000,4.000000,4.000000,4.000000,4.000000,4.000000,4.000000,0.000000,,,,,,,,,,,,,,,,,,,,,,,,,,,,
1732158097.278057,1732158097.281120,78.000000,0.000000,4310.769043,4283.846191,4315.512695,4311.538574,4265.897461,4281.538574,4334.487305,4401.153809,4302.563965,4282.948730,4483.333496,4519.615234,4350.128418,4432.820313,1554.000000,1.000000,21.000000,,,,0.000000,2.000000,2.000000,0.000000,4.000000,2.000000,2.000000,0.000000,0.000000,4.000000,4.000000,4.000000,4.000000,4.000000,4.000000,0.000000,1.000000,0.000000,2.000000,2.000000,0.000000,1.000000,2.000000,2.000000,0.000000,0.000000,4.000000,4.000000,4.000000,4.000000,4.000000,3.000000,,,,,,,,,,,,
1732158097.285865,1732158097.288929,79.000000,0.000000,4308.205078,4279.230957,4316.025879,4309.358887,4259.871582,4289.743652,4335.000000,4400.384766,4299.871582,4282.179688,4480.000000,4522.179688,4343.717773,4424.615234,1563.000000,1.000000,21.000000,,,,0.000000,2.000000,2.000000,0.000000,4.000000,2.000000,2.000000,0.000000,0.000000,4.000000,4.000000,4.000000,4.000000,4.000000,4.000000,0.000000,,,,,,,,,,,,,,,,,,,,,,,,,,,,
1732158097.293673,1732158097.296637,80.000000,0.000000,4301.794922,4276.666504,4321.794922,4298.717773,4270.128418,4288.205078,4334.487305,4399.743652,4300.512695,4282.436035,4480.256348,4520.128418,4342.692383,4423.846191,1708.000000,1.000000,21.000000,,,,0.000000,2.000000,2.000000,0.000000,4.000000,2.000000,2.000000,0.000000,0.000000,4.000000,4.000000,4.000000,4.000000,4.000000,4.000000,0.000000,,,,,,,,,,,,,,,,,20.000000,0.000000,0.513612,0.478577,-0.536987,0.467773,0.972287,-0.023929,-0.056648,-35.039989,45.609612,31.578392
1732158097.301481,1732158097.304445,81.000000,0.000000,4299.871582,4282.948730,4318.461426,4301.666504,4286.153809,4280.897461,4334.743652,4401.282227,4303.717773,4280.897461,4481.282227,4521.410156,4346.153809,4427.948730,1601.000000,1.000000,21.000000,,,,0.000000,2.000000,2.000000,0.000000,4.000000,2.000000,2.000000,0.000000,0.000000,4.000000,4.000000,4.000000,4.000000,4.000000,4.000000,0.000000,,,,,,,,,,,,,,,,,,,,,,,,,,,,
1732158097.309290,1732158097.312053,82.000000,0.000000,4303.717773,4285.897461,4312.820313,4307.179688,4274.230957,4287.820313,4334.487305,4401.794922,4305.000000,4286.922852,4478.846191,4523.077148,4345.128418,4427.692383,1554.000000,1.000000,21.000000,,,,0.000000,2.000000,2.000000,0.000000,4.000000,2.000000,2.000000,0.000000,0.000000,4.000000,4.000000,4.000000,4.000000,4.000000,4.000000,0.000000,,,,,,,,,,,,,,,,,,,,,,,,,,,,
1732158097.317098,1732158097.319862,83.000000,0.000000,4303.974121,4282.692383,4315.897461,4306.538574,4253.077148,4296.538574,4335.000000,4401.666504,4311.025879,4298.717773,4478.205078,4523.461426,4343.077148,4426.538574,1563.000000,1.000000,21.000000,,,,0.000000,2.000000,2.000000,0.000000,4.000000,2.000000,2.000000,0.000000,0.000000,4.000000,4.000000,4.000000,4.000000,4.000000,4.000000,0.000000,,,,,,,,,,,,,,,,,,,,,,,,,,,,
1732158097.324906,1732158097.327770,84.000000,0.000000,4302.436035,4286.538574,4319.871582,4306.922852,4260.384766,4287.948730,4335.897461,4402.948730,4308.333496,4293.205078,4478.589844,4523.846191,4342.563965,4427.563965,1708.000000,1.000000,21.000000,,,,0.000000,2.000000,2.000000,0.000000,4.000000,2.000000,2.000000,0.000000,0.000000,4.000000,4.000000,4.000000,4.000000,4.000000,4.000000,0.000000,,,,,,,,,,,,,,,,,21.000000,0.000000,0.513701,0.478455,-0.537170,0.467590,0.979123,-0.012697,-0.028324,-34.849056,45.538788,31.773497
1732158097.332714,1732158097.335578,85.000000,0.000000,4302.563965,4291.794922,4316.538574,4305.897461,4267.307617,4278.846191,4335.641113,4401.025879,4297.563965,4281.538574,4477.179688,4524.230957,4341.666504,4425.769043,1601.000000,1.000000,21.000000,,,,0.000000,2.000000,2.000000,0.000000,4.000000,2.000000,2.000000,0.000000,0.000000,4.000000,4.000000,4.000000,4.000000,4.000000,4.000000,0.000000,,,,,,,,,,,,,,,,,,,,,,,,,,,,
1732158097.340523,1732158097.343186,86.000000,0.000000,4299.871582,4289.358887,4312.692383,4301.666504,4261.922852,4282.948730,4335.384766,4398.461426,4298.846191,4284.102539,4475.384766,4521.794922,4341.538574,4423.717773,1554.000000,1.000000,21.000000,,,,0.000000,2.000000,2.000000,0.000000,4.000000,2.000000,2.000000,0.000000,0.000000,4.000000,4.000000,4.000000,4.000000,4.000000,4.000000,0.000000,,,,,,,,,,,,,,,,,,,,,,,,,,,,
1732158097.348331,1732158097.350995,87.000000,0.000000,4295.897461,4291.410156,4315.897461,4304.487305,4276.666504,4282.563965,4336.025879,4399.102539,4302.307617,4285.641113,4473.846191,4515.769043,4341.666504,4420.384766,1563.000000,1.000000,21.000000,,,,0.000000,2.000000,2.000000,0.000000,4.000000,2.000000,2.000000,0.000000,0.000000,4.000000,4.000000,4.000000,4.000000,4.000000,4.000000,0.000000,,,,,,,,,,,,,,,,,,,,,,,,,,,,
1732158097.356139,1732158097.358703,88.000000,0.000000,4296.025879,4295.000000,4321.922852,4309.358887,4283.717773,4278.846191,4336.282227,4401.538574,4301.666504,4280.512695,4474.487305,4514.358887,4340.128418,4415.128418,1708.000000,1.000000,21.000000,,,,0.000000,2.000000,2.000000,0.000000,4.000000,2.000000,2.000000,0.000000,0.000000,4.000000,4.000000,4.000000,4.000000,4.000000,4.000000,0.000000,,,,,,,,,,,,,,,,,22.000000,0.000000,0.513588,0.478516,-0.537170,0.467651,0.979123,-0.012697,-0.028324,-34.972736,45.373085,31.626532
1732158097.363947,1732158097.366511,89.000000,0.000000,4297.563965,4291.922852,4322.436035,4309.102539,4263.205078,4284.230957,4336.025879,4401.410156,4302.692383,4280.769043,4477.436035,4516.922852,4340.769043,4417.307617,1601.000000,1.000000,21.000000,,,,0.000000,2.000000,2.000000,0.000000,4.000000,2.000000,2.000000,0.000000,0.000000,4.000000,4.000000,4.000000,4.000000,4.000000,4.000000,0.000000,,,,,,,,,,,,,,,,,,,,,,,,,,,,
1732158097.371755,1732158097.374120,90.000000,0.000000,4301.666504,4293.461426,4319.102539,4308.846191,4255.000000,4286.666504,4336.025879,4398.717773,4300.384766,4281.922852,4478.333496,4518.077148,4340.897461,4422.051270,1554.000000,1.000000,21.000000,,,,0.000000,2.000000,2.000000,0.000000,4.000000,2.000000,2.000000,0.000000,0.000000,4.000000,4.000000,4.000000,4.000000,4.000000,4.000000,0.000000,,,,,,,,,,,,,,,,,,,,,,,,,,,,
1732158097.379564,1732158097.381928,91.000000,0.000000,4303.205078,4296.410156,4318.846191,4307.179688,4269.358887,4281.666504,4336.153809,4399.230957,4299.743652,4282.307617,4476.922852,4520.769043,4336.410156,4419.743652,1563.000000,1.000000,21.000000,,,,0.000000,2.000000,2.000000,0.000000,4.000000,2.000000,2.000000,0.000000,0.000000,4.000000,4.000000,4.000000,4.000000,4.000000,4.000000,0.000000,,,,,,,,,,,,,,,,,,,,,,,,,,,,
1732158097.387372,1732158097.389636,92.000000,0.000000,4297.051270,4286.666504,4317.563965,4302.179688,4277.307617,4280.641113,4336.025879,4402.179688,4305.769043,4285.000000,4476.025879,4524.230957,4333.589844,4417.563965,1708.000000,1.000000,21.000000,,,,0.000000,2.000000,2.000000,0.000000,4.000000,2.000000,2.000000,0.000000,0.000000,4.000000,4.000000,4.000000,4.000000,4.000000,4.000000,0.000000,,,,,,,,,,,,,,,,,23.000000,0.000000,0.513595,0.478577,-0.537109,0.467651,0.976193,-0.009278,-0.043951,-34.889584,45.397198,31.657492
1732158097.395180,1732158097.397444,93.000000,0.000000,4297.051270,4282.948730,4315.384766,4304.358887,4271.282227,4283.846191,4336.025879,4401.410156,4307.051270,4284.487305,4475.256348,4521.922852,4334.102539,4422.051270,1601.000000,1.000000,21.000000,,,,0.000000,2.000000,2.000000,0.000000,4.000000,2.000000,2.000000,0.000000,0.000000,4.000000,4.000000,4.000000,4.000000,4.000000,4.000000,0.000000,,,,,,,,,,,,,,,,,,,,,,,,,,,,
1732158097.402989,1732158097.405452,94.000000,0.000000,4304.230957,4293.077148,4317.179688,4309.743652,4275.512695,4281.410156,4336.025879,4399.102539,4301.794922,4279.102539,4474.615234,4518.589844,4333.846191,4427.179688,1554.000000,1.000000,21.000000,,,,0.000000,2.000000,2.000000,0.000000,4.000000,2.000000,2.000000,0.000000,0.000000,4.000000,4.000000,4.000000,4.000000,4.000000,4.000000,0.000000,,,,,,,,,,,,,,,,,,,,,,,,,,,,
1732158097.410797,1732158097.413261,95.000000,0.000000,4302.563965,4292.179688,4318.717773,4304.487305,4289.743652,4279.743652,4336.025879,4401.794922,4303.205078,4282.692383,4475.641113,4520.128418,4335.000000,4427.307617,1563.000000,1.000000,21.000000,,,,0.000000,2.000000,2.000000,0.000000,4.000000,2.000000,2.000000,0.000000,0.000000,4.000000,4.000000,4.000000,4.000000,4.000000,4.000000,0.000000,,,,,,,,,,,,,,,,,,,,,,,,,,,,
1732158097.418605,1732158097.421169,96.000000,0.000000,4295.256348,4283.846191,4319.615234,4297.692383,4283.846191,4284.871582,4336.025879,4402.692383,4308.205078,4288.717773,4478.333496,4517.948730,4336.282227,4423.205078,1708.000000,1.000000,21.000000,,,,0.000000,2.000000,2.000000,0.000000,4.000000,2.000000,2.000000,0.000000,0.000000,4.000000,4.000000,4.000000,4.000000,4.000000,4.000000,0.000000,,,,,,,,,,,,,,,,,24.000000,0.000000,0.513935,0.477722,-0.537598,0.467590,0.971798,-0.030277,-0.048834,-34.917229,45.408398,31.840900
1732158097.426413,1732158097.428977,97.000000,0.000000,4295.512695,4285.128418,4320.000000,4303.589844,4263.974121,4287.307617,4336.025879,4401.794922,4310.128418,4288.333496,4476.282227,4515.897461,4335.256348,4419.102539,1601.000000,1.000000,21.000000,,,,0.000000,2.000000,2.000000,0.000000,4.000000,2.000000,2.000000,0.000000,0.000000,4.000000,4.000000,4.000000,4.000000,4.000000,4.000000,0.000000,,,,,,,,,,,,,,,,,,,,,,,,,,,,
1732158097.434222,1732158097.436985,98.000000,0.000000,4298.461426,4290.256348,4318.333496,4308.846191,4261.153809,4286.025879,4336.025879,4405.384766,4309.230957,4288.974121,4476.922852,4518.974121,4337.692383,4417.820313,1554.000000,1.000000,21.000000,,,,0.000000,2.000000,2.000000,0.000000,4.000000,2.000000,2.000000,0.000000,0.000000,4.000000,4.000000,4.000000,4.000000,4.000000,4.000000,0.000000,,,,,,,,,,,,,,,,,,,,,,,,,,,,
1732158097.442030,1732158097.444793,99.000000,0.000000,4296.922852,4289.743652,4317.820313,4302.307617,4267.307617,4284.102539,4336.025879,4405.128418,4304.615234,4290.512695,4485.512695,4522.179688,4339.230957,4419.743652,1563.000000,1.000000,21.000000,,,,0.000000,2.000000,2.000000,0.000000,4.000000,2.000000,2.000000,0.000000,0.000000,4.000000,4.000000,4.000000,4.000000,4.000000,4.000000,0.000000,,,,,,,,,,,,,,,,,,,,,,,,,,,,
1732158097.449838,1732158097.452501,100.000000,0.000000,4296.282227,4290.384766,4319.871582,4301.410156,4270.769043,4282.179688,4336.025879,4402.051270,4299.487305,4285.000000,4485.769043,4523.077148,4334.358887,4426.153809,1708.000000,1.000000,21.000000,,,,0.000000,2.000000,2.000000,0.000000,4.000000,2.000000,2.000000,0.000000,0.000000,4.000000,4.000000,4.000000,4.000000,4.000000,4.000000,0.000000,,,,,,,,,,,,,,,,,25.000000,0.000000,0.514146,0.477478,-0.537720,0.467468,0.971798,-0.030277,-0.048834,-35.024624,45.150803,31.939463
1732158097.457646,1732158097.460310,101.000000,0.000000,4298.205078,4293.589844,4320.384766,4309.871582,4279.487305,4280.512695,4336.025879,4402.179688,4299.358887,4278.205078,4481.538574,4521.922852,4333.589844,4428.461426,1601.000000,1.000000,21.000000,,,,0.000000,2.000000,2.000000,0.000000,4.000000,2.000000,2.000000,0.000000,0.000000,4.000000,4.000000,4.000000,4.000000,4.000000,4.000000,0.000000,,,,,,,,,,,,,,,,,,,,,,,,,,,,
1732158097.465454,1732158097.467918,102.000000,0.000000,4298.717773,4295.897461,4318.717773,4313.846191,4277.307617,4280.256348,4336.025879,4401.922852,4305.641113,4285.000000,4486.538574,4523.974121,4336.410156,4422.179688,1554.000000,1.000000,21.000000,,,,0.000000,2.000000,2.000000,0.000000,4.000000,2.000000,2.000000,0.000000,0.000000,4.000000,4.000000,4.000000,4.000000,4.000000,4.000000,0.000000,,,,,,,,,,,,,,,,,,,,,,,,,,,,
1732158097.473263,1732158097.475726,103.000000,0.000000,4296.666504,4294.102539,4319.358887,4309.487305,4277.436035,4280.897461,4336.025879,4400.769043,4306.666504,4290.769043,4485.641113,4524.358887,4335.000000,4415.384766,1563.000000,1.000000,21.000000,,,,0.000000,2.000000,2.000000,0.000000,4.000000,2.000000,2.000000,0.000000,0.000000,4.000000,4.000000,4.000000,4.000000,4.000000,4.000000,0.000000,,,,,,,,,,,,,,,,,,,,,,,,,,,,
1732158097.481071,1732158097.483634,104.000000,0.000000,4294.743652,4290.384766,4319.230957,4302.179688,4293.974121,4280.769043,4336.025879,4401.282227,4301.922852,4283.077148,4476.538574,4519.871582,4334.871582,4413.846191,1708.000000,1.000000,21.000000,,,,0.000000,2.000000,2.000000,0.000000,4.000000,2.000000,2.000000,0.000000,0.000000,4.000000,4.000000,4.000000,4.000000,4.000000,4.000000,0.000000,,,,,,,,,,,,,,,,,26.000000,0.000000,0.514725,0.476868,-0.538025,0.467102,0.984984,-0.013185,-0.033207,-35.178276,45.090481,31.950966
1732158097.488879,1732158097.491442,105.000000,0.000000,4296.282227,4294.102539,4316.410156,4305.128418,4284.102539,4281.538574,4336.025879,4400.897461,4303.974121,4281.153809,4477.948730,4518.717773,4333.205078,4413.974121,1601.000000,1.000000,21.000000,,,,0.000000,2.000000,2.000000,0.000000,4.000000,2.000000,2.000000,0.000000,0.000000,4.000000,4.000000,4.000000,4.000000,4.000000,4.000000,0.000000,,,,,,,,,,,,,,,,,,,,,,,,,,,,
1732158097.496688,1732158097.499450,106.000000,0.000000,4298.333496,4296.025879,4315.384766,4312.051270,4259.871582,4285.897461,4336.025879,4399.487305,4311.025879,4288.589844,4481.538574,4523.205078,4327.820313,4414.743652,1554.000000,1.000000,21.000000,,,,0.000000,2.000000,2.000000,0.000000,4.000000,2.000000,2.000000,0.000000,0.000000,4.000000,4.000000,4.000000,4.000000,4.000000,4.000000,0.000000,,,,,,,,,,,,,,,,,,,,,,,,,,,,
1732158097.504496,1732158097.507259,107.000000,0.000000,4298.333496,4289.871582,4316.794922,4309.102539,4266.410156,4287.436035,4336.025879,4401.282227,4310.512695,4290.384766,4477.436035,4526.410156,4330.641113,4415.897461,1563.000000,1.000000,21.000000,,,,0.000000,2.000000,2.000000,0.000000,4.000000,2.000000,2.000000,0.000000,0.000000,4.000000,4.000000,4.000000,4.000000,4.000000,4.000000,0.000000,,,,,,,,,,,,,,,,,,,,,,,,,,,,
1732158097.512304,1732158097.515167,108.000000,0.000000,4295.384766,4283.205078,4319.230957,4303.333496,4275.384766,4285.641113,4336.025879,4402.820313,4304.871582,4283.846191,4476.538574,4524.358887,4334.358887,4414.871582,1708.000000,1.000000,21.000000,,,,0.000000,2.000000,2.000000,0.000000,4.000000,2.000000,2.000000,0.000000,0.000000,4.000000,4.000000,4.000000,4.000000,4.000000,4.000000,0.000000,,,,,,,,,,,,,,,,,27.000000,0.000000,0.515261,0.476440,-0.538208,0.466736,0.979123,-0.015627,-0.047857,-35.071072,45.069958,31.901949
1732158097.520112,1732158097.522975,109.000000,0.000000,4289.615234,4281.666504,4321.410156,4302.948730,4275.512695,4286.666504,4336.025879,4401.025879,4305.256348,4281.282227,4477.948730,4517.820313,4327.563965,4411.794922,1601.000000,1.000000,21.000000,,,,0.000000,2.000000,2.000000,0.000000,4.000000,2.000000,2.000000,0.000000,0.000000,4.000000,4.000000,4.000000,4.000000,4.000000,4.000000,0.000000,,,,,,,,,,,,,,,,,,,,,,,,,,,,
1732158097.527921,1732158097.530983,110.000000,0.000000,4287.948730,4282.436035,4322.179688,4301.922852,4289.230957,4288.717773,4336.025879,4399.230957,4308.205078,4281.922852,4477.179688,4506.922852,4322.820313,4409.743652,1554.000000,1.000000,21.000000,,,,0.000000,2.000000,2.000000,0.000000,4.000000,2.000000,2.000000,0.000000,0.000000,4.000000,4.000000,4.000000,4.000000,4.000000,4.000000,0.000000,,,,,,,,,,,,,,,,,,,,,,,,,,,,
1732158097.535729,1732158097.538791,111.000000,0.000000,4293.205078,4283.333496,4319.487305,4299.871582,4284.487305,4284.102539,4336.025879,4400.256348,4310.000000,4280.256348,4475.641113,4508.461426,4327.948730,4410.897461,1563.000000,1.000000,21.000000,,,,0.000000,2.000000,2.000000,0.000000,4.000000,2.000000,2.000000,0.000000,0.000000,4.000000,4.000000,4.000000,4.000000,4.000000,4.000000,0.000000,,,,,,,,,,,,,,,,,,,,,,,,,,,,
1732158097.543537,1732158097.546699,112.000000,0.000000,4298.205078,4287.563965,4319.615234,4303.974121,4258.589844,4283.333496,4336.025879,4401.666504,4308.461426,4283.461426,4480.641113,4526.025879,4336.025879,4419.102539,1708.000000,1.000000,21.000000,,,,0.000000,2.000000,2.000000,0.000000,4.000000,2.000000,2.000000,0.000000,0.000000,4.000000,4.000000,4.000000,4.000000,4.000000,4.000000,0.000000,,,,,,,,,,,,,,,,,28.000000,0.000000,0.515165,0.476563,-0.538086,0.466858,0.979123,-0.024417,-0.033207,-35.089233,44.993332,31.835579
1732158097.551345,1732158097.554508,113.000000,0.000000,4299.230957,4293.846191,4319.102539,4308.974121,4264.358887,4288.974121,4336.025879,4397.307617,4300.000000,4287.051270,4488.589844,4532.563965,4339.358887,4430.000000,1601.000000,1.000000,21.000000,,,,0.000000,2.000000,2.000000,0.000000,4.000000,2.000000,2.000000,0.000000,0.000000,4.000000,4.000000,4.000000,4.000000,4.000000,4.000000,0.000000,,,,,,,,,,,,,,,,,,,,,,,,,,,,
1732158097.559153,1732158097.562516,114.000000,0.000000,4297.948730,4293.717773,4317.307617,4305.256348,4282.692383,4288.077148,4336.025879,4398.205078,4298.846191,4285.384766,4487.179688,4524.615234,4334.487305,4427.307617,1554.000000,1.000000,21.000000,,,,0.000000,2.000000,2.000000,0.000000,4.000000,2.000000,2.000000,0.000000,0.000000,4.000000,4.000000,4.000000,4.000000,4.000000,4.000000,0.000000,,,,,,,,,,,,,,,,,,,,,,,,,,,,
1732158097.566962,1732158097.570324,115.000000,0.000000,4295.641113,4290.512695,4318.333496,4301.153809,4278.717773,4288.717773,4336.025879,4406.922852,4309.102539,4283.846191,4477.820313,4521.410156,4331.538574,4416.025879,1563.000000,1.000000,21.000000,,,,0.000000,2.000000,2.000000,0.000000,4.000000,2.000000,2.000000,0.000000,0.000000,4.000000,4.000000,4.000000,4.000000,4.000000,4.000000,0.000000,,,,,,,,,,,,,,,,,,,,,,,,,,,,
1732158097.574770,1732158097.578232,116.000000,0.000000,4293.717773,4292.436035,4317.692383,4302.692383,4277.563965,4291.410156,4336.025879,4407.051270,4310.897461,4286.410156,4473.717773,4522.307617,4334.230957,4413.333496,1708.000000,1.000000,21.000000,,,,0.000000,2.000000,2.000000,0.000000,4.000000,2.000000,2.000000,0.000000,0.000000,4.000000,4.000000,4.000000,4.000000,4.000000,4.000000,0.000000,,,,,,,,,,,,,,,,,29.000000,0.000000,0.515109,0.476624,-0.538086,0.466858,0.982542,-0.015139,-0.025394,-34.977280,45.121265,31.803486
1732158097.582578,1732158097.586040,117.000000,0.000000,4290.128418,4292.051270,4315.256348,4304.615234,4284.358887,4291.666504,4336.025879,4405.384766,4308.717773,4289.743652,4475.384766,4517.307617,4331.410156,4411.025879,1601.000000,1.000000,21.000000,,,,0.000000,2.000000,2.000000,0.000000,4.000000,2.000000,2.000000,0.000000,0.000000,4.000000,4.000000,4.000000,4.000000,4.000000,4.000000,0.000000,,,,,,,,,,,,,,,,,,,,,,,,,,,,
1732158097.590387,1732158097.593748,118.000000,0.000000,4283.717773,4286.282227,4317.820313,4302.307617,4278.846191,4295.256348,4336.025879,4407.820313,4312.436035,4291.153809,4473.974121,4514.871582,4323.717773,4403.717773,1554.000000,1.000000,21.000000,,,,0.000000,2.000000,2.000000,0.000000,4.000000,2.000000,2.000000,0.000000,0.000000,4.000000,4.000000,4.000000,4.000000,4.000000,4.000000,0.000000,,,,,,,,,,,,,,,,,,,,,,,,,,,,
1732158097.598195,1732158097.601557,119.000000,0.000000,4280.512695,4287.948730,4319.615234,4298.717773,4286.025879,4292.692383,4336.025879,4403.461426,4306.922852,4291.922852,4471.025879,4518.077148,4323.846191,4404.615234,1563.000000,1.000000,21.000000,,,,0.000000,2.000000,2.000000,0.000000,4.000000,2.000000,2.000000,0.000000,0.000000,4.000000,4.000000,4.000000,4.000000,4.000000,4.000000,0.000000,,,,,,,,,,,,,,,,,,,,,,,,,,,,
1732158097.606003,1732158097.609265,120.000000,0.000000,4282.563965,4291.538574,4316.410156,4297.563965,4300.897461,4282.179688,4336.025879,4397.307617,4302.820313,4292.820313,4472.692383,4523.205078,4334.102539,4413.205078,1708.000000,1.000000,21.000000,,,,0.000000,2.000000,2.000000,0.000000,4.000000,2.000000,2.000000,0.000000,0.000000,4.000000,4.000000,4.000000,4.000000,4.000000,4.000000,0.000000,,,,,,,,,,,,,,,,,30.000000,0.000000,0.515164,0.476624,-0.538086,0.466797,0.976682,-0.010255,-0.036626,-35.216599,45.134892,31.750822
1732158097.613811,1732158097.617073,121.000000,0.000000,4286.794922,4287.692383,4316.922852,4298.205078,4280.769043,4281.666504,4336.025879,4400.000000,4311.410156,4293.589844,4476.153809,4528.461426,4337.307617,4416.153809,1601.000000,1.000000,21.000000,,,,0.000000,2.000000,2.000000,0.000000,4.000000,2.000000,2.000000,0.000000,0.000000,4.000000,4.000000,4.000000,4.000000,4.000000,4.000000,0.000000,,,,,,,,,,,,,,,,,,,,,,,,,,,,
1732158097.621620,1732158097.624682,122.000000,0.000000,4290.128418,4288.846191,4317.692383,4300.897461,4258.205078,4288.974121,4336.025879,4403.717773,4308.974121,4291.922852,4473.846191,4525.897461,4329.871582,4413.333496,1554.000000,1.000000,21.000000,,,,0.000000,2.000000,2.000000,0.000000,4.000000,2.000000,2.000000,0.000000,0.000000,4.000000,4.000000,4.000000,4.000000,4.000000,4.000000,0.000000,,,,,,,,,,,,,,,,,,,,,,,,,,,,
1732158097.629428,1732158097.632490,123.000000,0.000000,4291.538574,4297.051270,4314.487305,4303.589844,4275.769043,4288.205078,4336.025879,4402.307617,4302.307617,4288.846191,4471.794922,4520.641113,4326.794922,4411.922852,1563.000000,1.000000,21.000000,,,,0.000000,2.000000,2.000000,0.000000,4.000000,2.000000,2.000000,0.000000,0.000000,4.000000,4.000000,4.000000,4.000000,4.000000,4.000000,0.000000,,,,,,,,,,,,,,,,,,,,,,,,,,,,
1732158097.637236,1732158097.640198,124.000000,0.000000,4291.794922,4297.436035,4314.487305,4307.436035,4285.128418,4290.256348,4336.025879,4402.436035,4313.589844,4293.974121,4477.307617,4523.846191,4333.846191,4413.846191,1708.000000,1.000000,21.000000,,,,0.000000,2.000000,2.000000,0.000000,4.000000,2.000000,2.000000,0.000000,0.000000,4.000000,4.000000,4.000000,4.000000,4.000000,4.000000,0.000000,,,,,,,,,,,,,,,,,31.000000,0.000000,0.515251,0.476746,-0.537842,0.466858,0.982053,-0.013674,-0.034184,-35.358776,45.285931,31.843166
1732158097.645044,1732158097.648006,125.000000,0.000000,4290.000000,4287.948730,4318.205078,4304.615234,4275.512695,4290.000000,4336.025879,4401.282227,4313.846191,4296.410156,4480.512695,4525.256348,4339.358887,4413.077148,1601.000000,1.000000,21.000000,,,,0.000000,2.000000,2.000000,0.000000,4.000000,2.000000,2.000000,0.000000,0.000000,4.000000,4.000000,4.000000,4.000000,4.000000,4.000000,0.000000,,,,,,,,,,,,,,,,,,,,,,,,,,,,
1732158097.652853,1732158097.655615,126.000000,0.000000,4281.282227,4282.948730,4318.205078,4294.871582,4291.922852,4280.897461,4336.025879,4400.128418,4296.282227,4285.000000,4476.922852,4517.051270,4334.230957,4405.256348,1554.000000,1.000000,21.000000,,,,0.000000,2.000000,2.000000,0.000000,4.000000,2.000000,2.000000,0.000000,0.000000,4.000000,4.000000,4.000000,4.000000,4.000000,4.000000,0.000000,,,,,,,,,,,,,,,,,,,,,,,,,,,,
1732158097.660661,1732158097.663423,127.000000,0.000000,4275.256348,4286.282227,4315.512695,4297.179688,4294.487305,4280.769043,4336.025879,4400.897461,4297.307617,4278.461426,4472.307617,4516.025879,4325.641113,4404.358887,21.000000,1.000000,21.000000,,,,0.000000,2.000000,2.000000,0.000000,4.000000,2.000000,2.000000,0.000000,0.000000,4.000000,4.000000,4.000000,4.000000,4.000000,4.000000,0.000000,,,,,,,,,,,,,,,,,,,,,,,,,,,,
1732158097.668469,1732158097.671131,0.000000,0.000000,4281.282227,4288.205078,4314.358887,4303.717773,4265.641113,4285.128418,4336.025879,4401.282227,4313.846191,4288.333496,4472.051270,4522.051270,4326.538574,4412.051270,0.000000,1.000000,21.000000,,,,0.000000,2.000000,2.000000,0.000000,4.000000,2.000000,2.000000,0.000000,0.000000,4.000000,4.000000,4.000000,4.000000,4.000000,4.000000,0.000000,,,,,,,,,,,,,,,,,0.000000,0.000000,0.515307,0.476685,-0.537842,0.466858,0.983030,-0.019534,-0.037602,-35.235611,45.359936,31.841299
1732158097.676277,1732158097.678939,1.000000,0.000000,4285.256348,4286.025879,4313.077148,4303.461426,4263.846191,4283.461426,4336.025879,4400.256348,4314.871582,4294.102539,4475.256348,4521.410156,4336.025879,4414.615234,1608.000000,1.000000,21.000000,,,,0.000000,2.000000,2.000000,0.000000,4.000000,2.000000,2.000000,0.000000,0.000000,4.000000,4.000000,4.000000,4.000000,4.000000,4.000000,0.000000,,,,,,,,,,,,,,,,,,,,,,,,,,,,
1732158097.684085,1732158097.686548,2.000000,0.000000,4283.333496,4285.769043,4313.846191,4301.410156,4284.487305,4288.077148,4336.025879,4400.000000,4302.051270,4286.025879,4475.769043,4518.461426,4338.077148,4412.179688,1361.000000,1.000000,21.000000,,,,0.000000,2.000000,2.000000,0.000000,4.000000,2.000000,2.000000,0.000000,0.000000,4.000000,4.000000,4.000000,4.000000,4.000000,4.000000,0.000000,,,,,,,,,,,,,,,,,,,,,,,,,,,,
1732158097.691894,1732158097.694356,3.000000,0.000000,4283.846191,4284.743652,4318.205078,4299.487305,4284.615234,4298.333496,4336.025879,4404.487305,4296.794922,4281.410156,4472.563965,4519.871582,4330.769043,4411.282227,1424.000000,1.000000,21.000000,,,,0.000000,2.000000,2.000000,0.000000,4.000000,2.000000,2.000000,0.000000,0.000000,4.000000,4.000000,4.000000,4.000000,4.000000,4.000000,0.000000,,,,,,,,,,,,,,,,,,,,,,,,,,,,
1732158097.699702,1732158097.702264,4.000000,0.000000,4284.358887,4282.051270,4320.128418,4301.794922,4274.871582,4295.897461,4336.025879,4404.871582,4297.563965,4282.436035,4472.436035,4521.282227,4328.846191,4411.153809,1421.000000,1.000000,21.000000,,,,0.000000,2.000000,2.000000,0.000000,4.000000,2.000000,2.000000,0.000000,0.000000,4.000000,4.000000,4.000000,4.000000,4.000000,4.000000,0.000000,,,,,,,,,,,,,,,,,1.000000,0.000000,0.515052,0.476868,-0.537659,0.467163,0.994750,-0.012697,-0.027347,-35.095844,45.418213,31.713118
1732158097.707510,1732158097.710072,5.000000,0.000000,4282.563965,4282.179688,4321.153809,4305.769043,4285.384766,4284.871582,4336.025879,4400.769043,4296.794922,4282.307617,4474.743652,4522.307617,4333.205078,4411.922852,1209.000000,1.000000,21.000000,,,,0.000000,2.000000,2.000000,0.000000,4.000000,2.000000,2.000000,0.000000,0.000000,4.000000,4.000000,4.000000,4.000000,4.000000,4.000000,0.000000,,,,,,,,,,,,,,,,,,,,,,,,,,,,
1732158097.715319,1732158097.717681,6.000000,0.000000,4282.179688,4273.589844,4321.282227,4298.846191,4301.282227,4284.358887,4336.025879,4402.563965,4297.051270,4287.436035,4474.743652,4524.230957,4336.282227,4413.846191,0.000000,1.000000,21.000000,,,,0.000000,2.000000,2.000000,0.000000,4.000000,2.000000,2.000000,0.000000,0.000000,4.000000,4.000000,4.000000,4.000000,4.000000,4.000000,0.000000,,,,,,,,,,,,,,,,,,,,,,,,,,,,
1732158097.723127,1732158097.725489,7.000000,0.000000,4282.563965,4266.410156,4318.333496,4292.051270,4292.948730,4294.615234,4336.025879,4405.384766,4304.230957,4293.461426,4476.410156,4528.333496,4334.230957,4412.820313,0.000000,1.000000,21.000000,,,,0.000000,2.000000,2.000000,0.000000,4.000000,2.000000,2.000000,0.000000,0.000000,4.000000,4.000000,4.000000,4.000000,4.000000,4.000000,0.000000,,,,,,,,,,,,,,,,,,,,,,,,,,,,
1732158097.730935,1732158097.733397,8.000000,0.000000,4281.025879,4270.000000,4314.487305,4299.871582,4274.487305,4299.230957,4336.025879,4402.563965,4311.538574,4295.512695,4477.179688,4530.769043,4332.307617,4409.102539,1531.000000,1.000000,21.000000,,,,0.000000,2.000000,2.000000,0.000000,4.000000,2.000000,2.000000,0.000000,0.000000,4.000000,4.000000,4.000000,4.000000,4.000000,4.000000,0.000000,,,,,,,,,,,,,,,,,2.000000,0.000000,0.514886,0.476868,-0.537659,0.467346,0.989867,-0.017092,-0.033207,-34.995968,45.357086,31.704292
1732158097.738743,1732158097.741205,9.000000,0.000000,4279.102539,4269.487305,4316.410156,4303.333496,4277.051270,4296.410156,4336.025879,4401.025879,4305.641113,4292.820313,4473.077148,4523.461426,4330.512695,4402.179688,1690.000000,1.000000,21.000000,,,,0.000000,2.000000,2.000000,0.000000,4.000000,2.000000,2.000000,0.000000,0.000000,4.000000,4.000000,4.000000,4.000000,4.000000,4.000000,0.000000,,,,,,,,,,,,,,,,,,,,,,,,,,,,
1732158097.746552,1732158097.749213,10.000000,0.000000,4279.102539,4270.384766,4318.846191,4299.487305,4284.871582,4295.384766,4336.025879,4403.205078,4298.974121,4286.538574,4472.692383,4517.948730,4329.743652,4396.153809,1553.000000,1.000000,21.000000,,,,0.000000,2.000000,2.000000,0.000000,4.000000,2.000000,2.000000,0.000000,0.000000,4.000000,4.000000,4.000000,4.000000,4.000000,4.000000,0.000000,,,,,,,,,,,,,,,,,,,,,,,,,,,,
1732158097.754360,1732158097.757021,11.000000,0.000000,4280.128418,4276.922852,4316.794922,4302.307617,4286.538574,4298.333496,4336.025879,4402.692383,4300.256348,4283.461426,4471.538574,4521.794922,4330.256348,4396.153809,1564.000000,1.000000,21.000000,,,,0.000000,2.000000,2.000000,0.000000,4.000000,2.000000,2.000000,0.000000,0.000000,4.000000,4.000000,4.000000,4.000000,4.000000,4.000000,0.000000,,,,,,,,,,,,,,,,,,,,,,,,,,,,
1732158097.762168,1732158097.764730,12.000000,0.000000,4271.794922,4272.051270,4315.641113,4301.922852,4301.666504,4297.692383,4336.025879,4400.512695,4299.230957,4282.307617,4465.384766,4515.769043,4326.666504,4395.897461,1708.000000,1.000000,21.000000,,,,0.000000,2.000000,2.000000,0.000000,4.000000,2.000000,2.000000,0.000000,0.000000,4.000000,4.000000,4.000000,4.000000,4.000000,4.000000,0.000000,,,,,,,,,,,,,,,,,3.000000,0.000000,0.514998,0.476807,-0.537659,0.467285,0.970333,-0.010255,-0.028324,-35.105064,45.302574,31.813810
1732158097.769976,1732158097.772538,13.000000,0.000000,4264.615234,4267.820313,4314.230957,4296.153809,4305.769043,4293.717773,4336.025879,4400.641113,4294.871582,4278.205078,4467.179688,4506.666504,4327.051270,4395.897461,1599.000000,1.000000,21.000000,,,,0.000000,2.000000,2.000000,0.000000,4.000000,2.000000,2.000000,0.000000,0.000000,4.000000,4.000000,4.000000,4.000000,4.000000,4.000000,0.000000,,,,,,,,,,,,,,,,,,,,,,,,,,,,
1732158097.777784,1732158097.780146,14.000000,0.000000,4271.794922,4279.487305,4313.333496,4299.230957,4280.641113,4295.769043,4336.025879,4401.538574,4300.897461,4281.538574,4475.256348,4508.589844,4335.384766,4398.333496,1553.000000,1.000000,21.000000,,,,0.000000,2.000000,2.000000,0.000000,4.000000,2.000000,2.000000,0.000000,0.000000,4.000000,4.000000,4.000000,4.000000,4.000000,4.000000,0.000000,1.000000,0.000000,2.000000,2.000000,0.000000,1.000000,2.000000,2.000000,0.000000,0.000000,4.000000,3.000000,4.000000,4.000000,3.000000,3.000000,,,,,,,,,,,,
1732158097.785593,1732158097.787955,15.000000,0.000000,4281.025879,4284.487305,4313.717773,4308.333496,4274.871582,4299.358887,4336.025879,4401.410156,4311.538574,4291.538574,4475.512695,4511.025879,4334.743652,4401.153809,1564.000000,1.000000,21.000000,,,,0.000000,2.000000,2.000000,0.000000,4.000000,2.000000,2.000000,0.000000,0.000000,4.000000,4.000000,4.000000,4.000000,4.000000,4.000000,0.000000,,,,,,,,,,,,,,,,,,,,,,,,,,,,
1732158097.793401,1732158097.795863,16.000000,0.000000,4276.922852,4277.436035,4314.615234,4305.641113,4295.128418,4292.179688,4336.025879,4401.282227,4310.000000,4288.974121,4474.487305,4514.487305,4329.102539,4401.282227,0.000000,1.000000,21.000000,,,,0.000000,2.000000,2.000000,0.000000,4.000000,2.000000,2.000000,0.000000,0.000000,4.000000,4.000000,4.000000,4.000000,4.000000,4.000000,0.000000,,,,,,,,,,,,,,,,,4.000000,0.000000,0.515038,0.476746,-0.537781,0.467163,0.978635,-0.012209,-0.038579,-35.148438,45.466751,31.944187
1732158097.801209,1732158097.803671,17.000000,0.000000,4267.051270,4278.205078,4316.025879,4295.512695,4292.307617,4287.436035,4336.025879,4402.948730,4307.563965,4285.769043,4477.692383,4519.487305,4332.948730,4399.615234,0.000000,1.000000,21.000000,,,,0.000000,2.000000,2.000000,0.000000,4.000000,2.000000,2.000000,0.000000,0.000000,4.000000,4.000000,4.000000,4.000000,4.000000,4.000000,0.000000,,,,,,,,,,,,,,,,,,,,,,,,,,,,
1732158097.809018,1732158097.811679,18.000000,0.000000,4268.717773,4282.179688,4316.666504,4293.974121,4272.563965,4293.205078,4336.025879,4402.307617,4314.358887,4296.794922,4479.871582,4518.974121,4337.051270,4401.410156,0.000000,1.000000,21.000000,,,,0.000000,2.000000,2.000000,0.000000,4.000000,2.000000,2.000000,0.000000,0.000000,4.000000,4.000000,4.000000,4.000000,4.000000,4.000000,0.000000,,,,,,,,,,,,,,,,,,,,,,,,,,,,
1732158097.816826,1732158097.819487,19.000000,0.000000,4277.179688,4283.077148,4315.256348,4301.538574,4272.179688,4295.384766,4336.025879,4399.102539,4313.205078,4298.461426,4481.666504,4515.256348,4337.563965,4404.230957,0.000000,1.000000,21.000000,,,,0.000000,2.000000,2.000000,0.000000,4.000000,2.000000,2.000000,0.000000,0.000000,4.000000,4.000000,4.000000,4.000000,4.000000,4.000000,0.000000,,,,,,,,,,,,,,,,,,,,,,,,,,,,
1732158097.824634,1732158097.827395,20.000000,0.000000,4275.128418,4281.794922,4316.282227,4301.410156,4292.051270,4292.307617,4336.025879,4400.256348,4298.077148,4283.846191,4476.153809,4511.666504,4334.487305,4401.538574,0.000000,1.000000,21.000000,,,,0.000000,2.000000,2.000000,0.000000,4.000000,2.000000,2.000000,0.000000,0.000000,4.000000,4.000000,4.000000,4.000000,4.000000,4.000000,0.000000,,,,,,,,,,,,,,,,,5.000000,0.000000,0.515039,0.476685,-0.537781,0.467224,0.984495,-0.009767,-0.022464,-35.066902,45.374737,31.941458
1732158097.832442,1732158097.835203,21.000000,0.000000,4268.205078,4282.307617,4319.102539,4297.820313,4301.794922,4293.461426,4336.025879,4402.820313,4296.538574,4277.179688,4468.205078,4506.922852,4329.230957,4397.051270,0.000000,1.000000,21.000000,,,,0.000000,2.000000,2.000000,0.000000,4.000000,2.000000,2.000000,0.000000,0.000000,4.000000,4.000000,4.000000,4.000000,4.000000,4.000000,0.000000,,,,,,,,,,,,,,,,,,,,,,,,,,,,
1732158097.840251,1732158097.843211,22.000000,0.000000,4272.948730,4286.153809,4316.666504,4300.384766,4288.717773,4295.384766,4336.025879,4402.820313,4308.077148,4280.769043,4470.769043,4511.025879,4330.512695,4397.436035,0.000000,1.000000,21.000000,,,,0.000000,2.000000,2.000000,0.000000,4.000000,2.000000,2.000000,0.000000,0.000000,4.000000,4.000000,4.000000,4.000000,4.000000,4.000000,0.000000,,,,,,,,,,,,,,,,,,,,,,,,,,,,
1732158097.848059,1732158097.851020,23.000000,0.000000,4280.000000,4283.717773,4313.974121,4301.666504,4279.615234,4293.461426,4336.025879,4404.358887,4305.641113,4279.871582,4475.769043,4517.179688,4335.769043,4399.358887,0.000000,1.000000,21.000000,,,,0.000000,2.000000,2.000000,0.000000,4.000000,2.000000,2.000000,0.000000,0.000000,4.000000,4.000000,4.000000,4.000000,4.000000,4.000000,0.000000,,,,,,,,,,,,,,,,,,,,,,,,,,,,
1732158097.855867,1732158097.858928,24.000000,0.000000,4278.974121,4280.897461,4317.692383,4302.820313,4284.230957,4293.077148,4336.025879,4404.743652,4303.846191,4279.358887,4474.871582,4516.153809,4335.384766,4398.974121,0.000000,1.000000,21.000000,,,,0.000000,2.000000,2.000000,0.000000,4.000000,2.000000,2.000000,0.000000,0.000000,4.000000,4.000000,4.000000,4.000000,4.000000,4.000000,0.000000,,,,,,,,,,,,,,,,,6.000000,0.000000,0.515177,0.476379,-0.538025,0.467102,0.969845,-0.019045,-0.029789,-34.984188,45.233536,31.889248
1732158097.863675,1732158097.866736,25.000000,0.000000,4276.538574,4284.743652,4318.974121,4302.307617,4282.948730,4294.358887,4336.025879,4403.205078,4312.820313,4282.948730,4475.000000,4514.487305,4334.102539,4397.692383,0.000000,1.000000,21.000000,,,,0.000000,2.000000,2.000000,0.000000,4.000000,2.000000,2.000000,0.000000,0.000000,4.000000,4.000000,4.000000,4.000000,4.000000,4.000000,0.000000,,,,,,,,,,,,,,,,,,,,,,,,,,,,
1732158097.871483,1732158097.874744,26.000000,0.000000,4276.153809,4284.743652,4315.512695,4295.512695,4274.230957,4293.461426,4336.025879,4404.358887,4311.922852,4286.794922,4476.153809,4515.641113,4335.512695,4397.179688,0.000000,1.000000,21.000000,,,,0.000000,2.000000,2.000000,0.000000,4.000000,2.000000,2.000000,0.000000,0.000000,4.000000,4.000000,4.000000,4.000000,4.000000,4.000000,0.000000,,,,,,,,,,,,,,,,,,,,,,,,,,,,
1732158097.879292,1732158097.882552,27.000000,0.000000,4279.487305,4283.333496,4315.512695,4294.102539,4279.358887,4291.794922,4336.025879,4404.743652,4307.692383,4287.307617,4474.871582,4516.538574,4335.641113,4398.974121,0.000000,1.000000,21.000000,,,,0.000000,2.000000,2.000000,0.000000,4.000000,2.000000,2.000000,0.000000,0.000000,4.000000,4.000000,4.000000,4.000000,4.000000,4.000000,0.000000,,,,,,,,,,,,,,,,,,,,,,,,,,,,
1732158097.887100,1732158097.890460,28.000000,0.000000,4276.922852,4285.000000,4316.922852,4302.436035,4285.512695,4292.820313,4336.025879,4400.897461,4309.358887,4284.102539,4474.487305,4513.461426,4334.487305,4399.230957,0.000000,1.000000,21.000000,,,,0.000000,2.000000,2.000000,0.000000,4.000000,2.000000,2.000000,0.000000,0.000000,4.000000,4.000000,4.000000,4.000000,4.000000,4.000000,0.000000,,,,,,,,,,,,,,,,,7.000000,0.000000,0.515113,0.476379,-0.538086,0.467102,0.976682,-0.024417,-0.035161,-35.138859,45.314163,31.941957
1732158097.894908,1732158097.898269,29.000000,0.000000,4266.666504,4284.615234,4314.871582,4300.512695,4286.153809,4293.846191,4336.025879,4400.000000,4302.051270,4280.000000,4473.717773,4508.077148,4328.974121,4396.153809,0.000000,1.000000,21.000000,,,,0.000000,2.000000,2.000000,0.000000,4.000000,2.000000,2.000000,0.000000,0.000000,4.000000,4.000000,4.000000,4.000000,4.000000,4.000000,0.000000,,,,,,,,,,,,,,,,,,,,,,,,,,,,
1732158097.902717,1732158097.906277,30.000000,0.000000,4265.769043,4281.282227,4312.051270,4291.538574,4292.948730,4292.051270,4336.025879,4404.102539,4296.538574,4278.589844,4473.333496,4508.846191,4324.871582,4394.871582,0.000000,1.000000,21.000000,,,,0.000000,2.000000,2.000000,0.000000,4.000000,2.000000,2.000000,0.000000,0.000000,4.000000,4.000000,4.000000,4.000000,4.000000,4.000000,0.000000,,,,,,,,,,,,,,,,,,,,,,,,,,,,
1732158097.910525,1732158097.914085,31.000000,0.000000,4275.128418,4283.717773,4313.461426,4298.589844,4290.256348,4293.589844,4336.025879,4403.077148,4305.769043,4281.282227,4475.000000,4512.307617,4327.436035,4396.538574,0.000000,1.000000,21.000000,,,,0.000000,2.000000,2.000000,0.000000,4.000000,2.000000,2.000000,0.000000,0.000000,4.000000,4.000000,4.000000,4.000000,4.000000,4.000000,0.000000,,,,,,,,,,,,,,,,,,,,,,,,,,,,
1732158097.918333,1732158097.921993,32.000000,0.000000,4278.846191,4289.102539,4315.000000,4305.384766,4292.179688,4295.384766,4336.025879,4401.282227,4311.153809,4282.692383,4474.615234,4510.769043,4328.205078,4397.692383,0.000000,1.000000,21.000000,,,,0.000000,2.000000,2.000000,0.000000,4.000000,2.000000,2.000000,0.000000,0.000000,4.000000,4.000000,4.000000,4.000000,4.000000,4.000000,0.000000,,,,,,,,,,,,,,,,,8.000000,0.000000,0.515163,0.476257,-0.538147,0.467102,0.968868,-0.017092,-0.026370,-34.922478,45.064472,31.794651
1732158097.926141,1732158097.929801,33.000000,0.000000,4278.333496,4289.102539,4316.025879,4300.641113,4307.179688,4293.205078,4336.025879,4405.000000,4307.692383,4283.717773,4472.563965,4516.153809,4326.282227,4398.717773,0.000000,1.000000,21.000000,,,,0.000000,2.000000,2.000000,0.000000,4.000000,2.000000,2.000000,0.000000,0.000000,4.000000,4.000000,4.000000,4.000000,4.000000,4.000000,0.000000,,,,,,,,,,,,,,,,,,,,,,,,,,,,
1732158097.933950,1732158097.937509,34.000000,0.000000,4280.769043,4288.205078,4317.051270,4298.846191,4296.666504,4293.461426,4336.025879,4407.948730,4309.230957,4286.025879,4471.666504,4523.974121,4326.410156,4400.128418,0.000000,1.000000,21.000000,,,,0.000000,2.000000,2.000000,0.000000,4.000000,2.000000,2.000000,0.000000,0.000000,4.000000,4.000000,4.000000,4.000000,4.000000,4.000000,0.000000,,,,,,,,,,,,,,,,,,,,,,,,,,,,
1732158097.941758,1732158097.945318,35.000000,0.000000,4281.153809,4289.358887,4315.897461,4302.563965,4272.820313,4295.641113,4336.025879,4403.461426,4311.794922,4284.358887,4473.077148,4521.538574,4325.641113,4400.256348,0.000000,1.000000,21.000000,,,,0.000000,2.000000,2.000000,0.000000,4.000000,2.000000,2.000000,0.000000,0.000000,4.000000,4.000000,4.000000,4.000000,4.000000,4.000000,0.000000,,,,,,,,,,,,,,,,,,,,,,,,,,,,
1732158097.949566,1732158097.953226,36.000000,0.000000,4280.128418,4295.641113,4313.589844,4302.948730,4286.794922,4293.333496,4336.025879,4398.589844,4307.436035,4283.205078,4474.871582,4520.641113,4326.025879,4399.102539,0.000000,1.000000,21.000000,,,,0.000000,2.000000,2.000000,0.000000,4.000000,2.000000,2.000000,0.000000,0.000000,4.000000,4.000000,4.000000,4.000000,4.000000,4.000000,0.000000,,,,,,,,,,,,,,,,,9.000000,0.000000,0.514383,0.476440,-0.538147,0.467773,0.980588,-0.023440,-0.034184,-34.748875,45.180557,31.465334
1732158097.957374,1732158097.961034,37.000000,0.000000,4280.897461,4293.589844,4315.000000,4299.230957,4304.743652,4290.897461,4336.025879,4402.307617,4309.615234,4290.000000,4475.384766,4522.563965,4331.282227,4398.077148,0.000000,1.000000,21.000000,,,,0.000000,2.000000,2.000000,0.000000,4.000000,2.000000,2.000000,0.000000,0.000000,4.000000,4.000000,4.000000,4.000000,4.000000,4.000000,0.000000,,,,,,,,,,,,,,,,,,,,,,,,,,,,
1732158097.965183,1732158097.968642,38.000000,0.000000,4278.589844,4283.333496,4316.153809,4296.025879,4283.205078,4294.230957,4336.025879,4404.615234,4318.846191,4296.538574,4477.436035,4522.179688,4335.512695,4398.461426,0.000000,1.000000,21.000000,,,,0.000000,2.000000,2.000000,0.000000,4.000000,2.000000,2.000000,0.000000,0.000000,4.000000,4.000000,4.000000,4.000000,4.000000,4.000000,0.000000,,,,,,,,,,,,,,,,,,,,,,,,,,,,
1732158097.972991,1732158097.976450,39.000000,0.000000,4274.102539,4283.717773,4314.230957,4295.512695,4266.153809,4295.256348,4336.025879,4400.000000,4318.589844,4295.641113,4479.358887,4522.563965,4331.922852,4398.846191,0.000000,1.000000,21.000000,,,,0.000000,2.000000,2.000000,0.000000,4.000000,2.000000,2.000000,0.000000,0.000000,4.000000,4.000000,4.000000,4.000000,4.000000,4.000000,0.000000,,,,,,,,,,,,,,,,,,,,,,,,,,,,
1732158097.980799,1732158097.984159,40.000000,0.000000,4273.589844,4288.205078,4314.102539,4296.282227,4288.461426,4291.153809,4336.025879,4398.461426,4308.461426,4293.974121,4475.000000,4518.589844,4327.436035,4398.077148,0.000000,1.000000,21.000000,,,,0.000000,2.000000,2.000000,0.000000,4.000000,2.000000,2.000000,0.000000,0.000000,4.000000,4.000000,4.000000,4.000000,4.000000,4.000000,0.000000,,,,,,,,,,,,,,,,,10.000000,0.000000,0.514264,0.476440,-0.538208,0.467834,0.977658,-0.019534,-0.044927,-34.808254,45.257915,31.265255
1732158097.988607,1732158097.991967,41.000000,0.000000,4278.205078,4290.000000,4315.641113,4296.922852,4306.282227,4291.922852,4336.025879,4403.461426,4303.846191,4291.794922,4470.512695,4511.538574,4327.436035,4397.692383,0.000000,1.000000,21.000000,,,,0.000000,2.000000,2.000000,0.000000,4.000000,2.000000,2.000000,0.000000,0.000000,4.000000,4.000000,4.000000,4.000000,4.000000,4.000000,0.000000,,,,,,,,,,,,,,,,,,,,,,,,,,,,
1732158097.996416,1732158097.999575,42.000000,0.000000,4279.615234,4287.820313,4315.256348,4297.692383,4292.436035,4295.256348,4336.025879,4405.897461,4307.563965,4289.102539,4472.436035,4515.897461,4328.461426,4398.717773,0.000000,1.000000,21.000000,,,,0.000000,2.000000,2.000000,0.000000,4.000000,2.000000,2.000000,0.000000,0.000000,4.000000,4.000000,4.000000,4.000000,4.000000,4.000000,0.000000,,,,,,,,,,,,,,,,,,,,,,,,,,,,
1732158098.004224,1732158098.007384,43.000000,0.000000,4276.538574,4283.461426,4314.102539,4299.743652,4274.102539,4292.179688,4336.025879,4401.282227,4307.948730,4292.563965,4476.025879,4523.974121,4331.410156,4400.000000,0.000000,1.000000,21.000000,,,,0.000000,2.000000,2.000000,0.000000,4.000000,2.000000,2.000000,0.000000,0.000000,4.000000,4.000000,4.000000,4.000000,4.000000,4.000000,0.000000,,,,,,,,,,,,,,,,,,,,,,,,,,,,
1732158098.012032,1732158098.015092,44.000000,0.000000,4275.000000,4281.922852,4314.487305,4298.589844,4277.820313,4292.307617,4336.025879,4398.205078,4302.820313,4295.512695,4478.205078,4519.230957,4336.153809,4399.615234,0.000000,1.000000,21.000000,,,,0.000000,2.000000,2.000000,0.000000,4.000000,2.000000,2.000000,0.000000,0.000000,4.000000,4.000000,4.000000,4.000000,4.000000,4.000000,0.000000,,,,,,,,,,,,,,,,,11.000000,0.000000,0.514216,0.476501,-0.538147,0.467896,0.977658,-0.019534,-0.044927,-35.003017,45.335579,31.341522
1732158098.019840,1732158098.022900,45.000000,0.000000,4274.615234,4286.794922,4313.974121,4295.897461,4299.102539,4292.948730,4336.025879,4401.025879,4303.333496,4294.102539,4477.307617,4512.820313,4337.179688,4399.487305,0.000000,1.000000,21.000000,,,,0.000000,2.000000,2.000000,0.000000,4.000000,2.000000,2.000000,0.000000,0.000000,4.000000,4.000000,4.000000,4.000000,4.000000,4.000000,0.000000,,,,,,,,,,,,,,,,,,,,,,,,,,,,
1732158098.027649,1732158098.030509,46.000000,0.000000,4275.000000,4288.205078,4315.000000,4295.256348,4299.871582,4287.307617,4336.025879,4403.846191,4309.230957,4293.717773,4474.487305,4511.922852,4333.974121,4399.615234,0.000000,1.000000,21.000000,,,,0.000000,2.000000,2.000000,0.000000,4.000000,2.000000,2.000000,0.000000,0.000000,4.000000,4.000000,4.000000,4.000000,4.000000,4.000000,0.000000,,,,,,,,,,,,,,,,,,,,,,,,,,,,
1732158098.035457,1732158098.038317,47.000000,0.000000,4278.333496,4279.743652,4317.307617,4296.410156,4279.230957,4286.025879,4336.025879,4401.922852,4311.025879,4292.948730,4475.769043,4514.230957,4333.846191,4400.000000,0.000000,1.000000,21.000000,,,,0.000000,2.000000,2.000000,0.000000,4.000000,2.000000,2.000000,0.000000,0.000000,4.000000,4.000000,4.000000,4.000000,4.000000,4.000000,0.000000,,,,,,,,,,,,,,,,,,,,,,,,,,,,
1732158098.043265,1732158098.046025,48.000000,0.000000,4279.358887,4280.000000,4316.666504,4296.538574,4271.538574,4289.871582,4336.025879,4401.410156,4311.666504,4294.615234,4478.077148,4518.589844,4336.538574,4401.538574,0.000000,1.000000,21.000000,,,,0.000000,2.000000,2.000000,0.000000,4.000000,2.000000,2.000000,0.000000,0.000000,4.000000,4.000000,4.000000,4.000000,4.000000,4.000000,0.000000,,,,,,,,,,,,,,,,,12.000000,0.000000,0.514061,0.476135,-0.538513,0.468018,0.982542,-0.031742,-0.040044,-34.899113,45.415154,31.483299
1732158098.051073,1732158098.053833,49.000000,0.000000,4274.230957,4289.615234,4314.871582,4296.538574,4281.025879,4290.512695,4336.025879,4402.179688,4312.692383,4295.384766,4475.641113,4514.743652,4335.512695,4401.025879,0.000000,1.000000,21.000000,,,,0.000000,2.000000,2.000000,0.000000,4.000000,2.000000,2.000000,0.000000,0.000000,4.000000,4.000000,4.000000,4.000000,4.000000,4.000000,0.000000,,,,,,,,,,,,,,,,,,,,,,,,,,,,
1732158098.058882,1732158098.061442,50.000000,0.000000,4273.205078,4293.846191,4314.871582,4297.307617,4287.051270,4292.179688,4336.025879,4401.922852,4308.461426,4287.179688,4473.333496,4509.871582,4331.794922,4398.077148,0.000000,1.000000,21.000000,,,,0.000000,2.000000,2.000000,0.000000,4.000000,2.000000,2.000000,0.000000,0.000000,4.000000,4.000000,4.000000,4.000000,4.000000,4.000000,0.000000,,,,,,,,,,,,,,,,,,,,,,,,,,,,
1732158098.066690,1732158098.069250,51.000000,0.000000,4279.102539,4292.563965,4315.128418,4297.692383,4284.743652,4297.948730,4336.025879,4403.974121,4310.512695,4284.615234,4474.871582,4512.307617,4332.692383,4398.846191,0.000000,1.000000,21.000000,,,,0.000000,2.000000,2.000000,0.000000,4.000000,2.000000,2.000000,0.000000,0.000000,4.000000,4.000000,4.000000,4.000000,4.000000,4.000000,0.000000,,,,,,,,,,,,,,,,,,,,,,,,,,,,
1732158098.074498,1732158098.076958,52.000000,0.000000,4277.948730,4287.563965,4315.512695,4298.205078,4295.256348,4293.205078,4336.025879,4405.128418,4312.051270,4290.000000,4475.128418,4511.025879,4332.563965,4401.282227,0.000000,1.000000,21.000000,,,,0.000000,2.000000,2.000000,0.000000,4.000000,2.000000,2.000000,0.000000,0.000000,4.000000,4.000000,4.000000,4.000000,4.000000,4.000000,0.000000,,,,,,,,,,,,,,,,,13.000000,0.000000,0.513744,0.475891,-0.538818,0.468262,0.982053,-0.035649,-0.037602,-34.966614,45.477940,31.563139
1732158098.082306,1732158098.084766,53.000000,0.000000,4273.077148,4285.641113,4315.512695,4296.922852,4302.179688,4282.179688,4336.025879,4403.205078,4301.025879,4285.769043,4472.948730,4505.128418,4329.871582,4400.512695,0.000000,1.000000,21.000000,,,,0.000000,2.000000,2.000000,0.000000,4.000000,2.000000,2.000000,0.000000,0.000000,4.000000,4.000000,4.000000,4.000000,4.000000,4.000000,0.000000,,,,,,,,,,,,,,,,,,,,,,,,,,,,
1732158098.090114,1732158098.092375,54.000000,0.000000,4276.153809,4288.333496,4315.769043,4296.153809,4285.128418,4280.512695,4336.025879,4403.077148,4297.307617,4279.102539,4471.794922,4508.717773,4330.769043,4401.794922,0.000000,1.000000,21.000000,,,,0.000000,2.000000,2.000000,0.000000,4.000000,2.000000,2.000000,0.000000,0.000000,4.000000,4.000000,4.000000,4.000000,4.000000,4.000000,0.000000,,,,,,,,,,,,,,,,,,,,,,,,,,,,
1732158098.097923,1732158098.100183,55.000000,0.000000,4280.641113,4291.538574,4317.436035,4299.871582,4270.769043,4282.563965,4336.025879,4404.487305,4302.051270,4282.179688,4472.051270,4513.205078,4331.025879,4402.051270,0.000000,1.000000,21.000000,,,,0.000000,2.000000,2.000000,0.000000,4.000000,2.000000,2.000000,0.000000,0.000000,4.000000,4.000000,4.000000,4.000000,4.000000,4.000000,0.000000,,,,,,,,,,,,,,,,,,,,,,,,,,,,
1732158098.105731,1732158098.107891,56.000000,0.000000,4279.487305,4290.256348,4317.692383,4300.512695,4272.563965,4282.307617,4336.025879,4403.461426,4298.974121,4283.461426,4472.820313,4511.794922,4330.769043,4401.282227,0.000000,1.000000,21.000000,,,,0.000000,2.000000,2.000000,0.000000,4.000000,2.000000,2.000000,0.000000,0.000000,4.000000,4.000000,4.000000,4.000000,4.000000,4.000000,0.000000,,,,,,,,,,,,,,,,,14.000000,0.000000,0.513818,0.475586,-0.539124,0.468140,0.982053,-0.021975,-0.035161,-35.162956,45.565464,31.656143
1732158098.113539,1732158098.115700,57.000000,0.000000,4278.589844,4286.025879,4315.641113,4295.641113,4277.307617,4279.487305,4336.025879,4401.538574,4293.589844,4279.230957,4473.589844,4513.205078,4333.589844,4404.230957,0.000000,1.000000,21.000000,,,,0.000000,2.000000,2.000000,0.000000,4.000000,2.000000,2.000000,0.000000,0.000000,4.000000,4.000000,4.000000,4.000000,4.000000,4.000000,0.000000,,,,,,,,,,,,,,,,,,,,,,,,,,,,
1732158098.121348,1732158098.123308,58.000000,0.000000,4279.871582,4283.589844,4313.717773,4293.846191,4288.974121,4279.743652,4336.025879,4401.025879,4294.358887,4277.307617,4472.307617,4510.641113,4334.743652,4400.512695,0.000000,1.000000,21.000000,,,,0.000000,2.000000,2.000000,0.000000,4.000000,2.000000,2.000000,0.000000,0.000000,4.000000,4.000000,4.000000,4.000000,4.000000,4.000000,0.000000,,,,,,,,,,,,,,,,,,,,,,,,,,,,
1732158098.129156,1732158098.131116,59.000000,0.000000,4280.384766,4281.282227,4314.102539,4295.512695,4294.230957,4281.153809,4336.025879,4401.282227,4295.512695,4277.179688,4471.666504,4507.436035,4333.077148,4397.948730,0.000000,1.000000,21.000000,,,,0.000000,2.000000,2.000000,0.000000,4.000000,2.000000,2.000000,0.000000,0.000000,4.000000,4.000000,4.000000,4.000000,4.000000,4.000000,0.000000,,,,,,,,,,,,,,,,,,,,,,,,,,,,
1732158098.136964,1732158098.138825,60.000000,0.000000,4279.615234,4281.922852,4314.102539,4295.641113,4270.256348,4282.307617,4336.025879,4401.666504,4295.256348,4282.179688,4474.230957,4516.666504,4333.077148,4409.615234,0.000000,1.000000,21.000000,,,,0.000000,2.000000,2.000000,0.000000,4.000000,2.000000,2.000000,0.000000,0.000000,4.000000,4.000000,4.000000,4.000000,4.000000,4.000000,0.000000,,,,,,,,,,,,,,,,,15.000000,0.000000,0.513914,0.475464,-0.539246,0.468018,0.978635,-0.021975,-0.035649,-35.321995,45.711361,31.911476
1732158098.144772,1732158098.146633,61.000000,0.000000,4277.307617,4282.307617,4313.461426,4295.384766,4256.410156,4282.692383,4336.025879,4401.153809,4299.487305,4291.025879,4476.538574,4523.205078,4335.769043,4412.820313,0.000000,1.000000,21.000000,,,,0.000000,2.000000,2.000000,0.000000,4.000000,2.000000,2.000000,0.000000,0.000000,4.000000,4.000000,4.000000,4.000000,4.000000,4.000000,0.000000,,,,,,,,,,,,,,,,,,,,,,,,,,,,
1732158098.152581,1732158098.154641,62.000000,0.000000,4276.282227,4280.641113,4313.974121,4295.769043,4274.487305,4281.025879,4336.025879,4398.717773,4303.846191,4295.000000,4477.948730,4516.794922,4338.077148,4402.948730,0.000000,1.000000,21.000000,,,,0.000000,2.000000,2.000000,0.000000,4.000000,2.000000,2.000000,0.000000,0.000000,4.000000,4.000000,4.000000,4.000000,4.000000,4.000000,0.000000,,,,,,,,,,,,,,,,,,,,,,,,,,,,
1732158098.160389,1732158098.162449,63.000000,0.000000,4278.205078,4284.487305,4315.384766,4296.538574,4280.769043,4281.153809,4336.025879,4400.641113,4303.589844,4294.102539,4479.615234,4511.922852,4338.461426,4404.102539,0.000000,1.000000,21.000000,,,,0.000000,2.000000,2.000000,0.000000,4.000000,2.000000,2.000000,0.000000,0.000000,4.000000,4.000000,4.000000,4.000000,4.000000,4.000000,0.000000,,,,,,,,,,,,,,,,,,,,,,,,,,,,
1732158098.168197,1732158098.170157,64.000000,0.000000,4278.461426,4286.538574,4315.641113,4297.820313,4278.461426,4282.692383,4336.025879,4409.871582,4303.333496,4293.333496,4478.205078,4513.077148,4335.000000,4407.820313,0.000000,1.000000,21.000000,,,,0.000000,2.000000,2.000000,0.000000,4.000000,2.000000,2.000000,0.000000,0.000000,4.000000,4.000000,4.000000,4.000000,4.000000,4.000000,0.000000,,,,,,,,,,,,,,,,,16.000000,0.000000,0.513955,0.475342,-0.539368,0.467957,0.976682,-0.033696,-0.040532,-35.269150,45.579536,31.838295
1732158098.176005,1732158098.177965,65.000000,0.000000,4279.358887,4286.025879,4317.563965,4298.077148,4279.230957,4282.307617,4336.025879,4412.436035,4310.769043,4295.769043,4476.794922,4518.333496,4337.436035,4402.179688,1608.000000,1.000000,21.000000,,,,0.000000,2.000000,2.000000,0.000000,4.000000,2.000000,2.000000,0.000000,0.000000,4.000000,4.000000,4.000000,4.000000,4.000000,4.000000,0.000000,,,,,,,,,,,,,,,,,,,,,,,,,,,,
1732158098.183813,1732158098.185574,66.000000,0.000000,4280.384766,4283.846191,4320.128418,4295.384766,4276.410156,4280.512695,4336.025879,4403.205078,4309.743652,4299.102539,4479.102539,4519.230957,4341.922852,4401.153809,1361.000000,1.000000,21.000000,,,,0.000000,2.000000,2.000000,0.000000,4.000000,2.000000,2.000000,0.000000,0.000000,4.000000,4.000000,4.000000,4.000000,4.000000,4.000000,0.000000,,,,,,,,,,,,,,,,,,,,,,,,,,,,
1732158098.191622,1732158098.193382,67.000000,0.000000,4279.358887,4282.948730,4318.333496,4292.563965,4289.615234,4279.743652,4336.025879,4400.769043,4297.179688,4293.077148,4477.948730,4510.384766,4338.461426,4402.436035,1424.000000,1.000000,21.000000,,,,0.000000,2.000000,2.000000,0.000000,4.000000,2.000000,2.000000,0.000000,0.000000,4.000000,4.000000,4.000000,4.000000,4.000000,4.000000,0.000000,,,,,,,,,,,,,,,,,,,,,,,,,,,,
1732158098.199430,1732158098.201290,68.000000,0.000000,4279.358887,4290.000000,4314.487305,4296.922852,4295.769043,4281.025879,4336.025879,4405.256348,4294.743652,4284.230957,4474.230957,4505.769043,4331.153809,4398.974121,1427.000000,1.000000,21.000000,,,,0.000000,2.000000,2.000000,0.000000,4.000000,2.000000,2.000000,0.000000,0.000000,4.000000,4.000000,4.000000,4.000000,4.000000,4.000000,0.000000,,,,,,,,,,,,,,,,,17.000000,0.000000,0.514035,0.475098,-0.539612,0.467834,0.970822,-0.021487,-0.020999,-35.271343,45.422756,31.892353
1732158098.207238,1732158098.209098,69.000000,0.000000,4280.384766,4292.563965,4315.256348,4300.128418,4273.077148,4282.436035,4336.025879,4400.769043,4296.794922,4282.563965,4472.436035,4506.538574,4327.179688,4397.820313,1209.000000,1.000000,21.000000,,,,0.000000,2.000000,2.000000,0.000000,4.000000,2.000000,2.000000,0.000000,0.000000,4.000000,4.000000,4.000000,4.000000,4.000000,4.000000,0.000000,,,,,,,,,,,,,,,,,,,,,,,,,,,,
1732158098.215047,1732158098.217106,70.000000,0.000000,4281.282227,4284.230957,4317.051270,4295.641113,4258.974121,4281.922852,4336.025879,4396.282227,4291.538574,4282.051270,4471.153809,4506.410156,4325.897461,4400.769043,0.000000,1.000000,21.000000,,,,0.000000,2.000000,2.000000,0.000000,4.000000,2.000000,2.000000,0.000000,0.000000,4.000000,4.000000,4.000000,4.000000,4.000000,4.000000,0.000000,,,,,,,,,,,,,,,,,,,,,,,,,,,,
1732158098.222855,1732158098.224915,71.000000,0.000000,4281.666504,4279.358887,4316.025879,4293.589844,4269.230957,4281.410156,4336.025879,4401.025879,4291.666504,4278.974121,4472.179688,4513.205078,4325.384766,4405.256348,0.000000,1.000000,21.000000,,,,0.000000,2.000000,2.000000,0.000000,4.000000,2.000000,2.000000,0.000000,0.000000,4.000000,4.000000,4.000000,4.000000,4.000000,4.000000,0.000000,,,,,,,,,,,,,,,,,,,,,,,,,,,,
1732158098.230663,1732158098.232823,72.000000,0.000000,4277.563965,4279.358887,4315.641113,4294.743652,4285.512695,4281.794922,4336.025879,4404.358887,4295.000000,4277.820313,4473.205078,4518.974121,4324.487305,4403.077148,1531.000000,1.000000,21.000000,,,,0.000000,2.000000,2.000000,0.000000,4.000000,2.000000,2.000000,0.000000,0.000000,4.000000,4.000000,4.000000,4.000000,4.000000,4.000000,0.000000,,,,,,,,,,,,,,,,,18.000000,0.000000,0.514035,0.475098,-0.539612,0.467834,0.969845,-0.032230,-0.044439,-35.318123,45.325768,31.831139
1732158098.238471,1732158098.240631,73.000000,0.000000,4274.615234,4277.692383,4316.922852,4294.615234,4287.051270,4280.641113,4336.025879,4402.436035,4293.461426,4278.205078,4469.102539,4510.512695,4322.948730,4395.000000,1690.000000,1.000000,21.000000,,,,0.000000,2.000000,2.000000,0.000000,4.000000,2.000000,2.000000,0.000000,0.000000,4.000000,4.000000,4.000000,4.000000,4.000000,4.000000,0.000000,,,,,,,,,,,,,,,,,,,,,,,,,,,,
