title:2six, start timestamp:1732158155.738454, stop timestamp:1732158198.433967, headset type:EPOCX, headset serial:E5020C3A, headset firmware:730, channels:67, sampling rate:eeg_128;mot_32, samples:5469      , version:2.2, 
Timestamp,OriginalTimestamp,EEG.Counter,EEG.Interpolated,EEG.AF3,EEG.F7,EEG.F3,EEG.FC5,EEG.T7,EEG.P7,EEG.O1,EEG.O2,EEG.P8,EEG.T8,EEG.FC6,EEG.F4,EEG.F8,EEG.AF4,EEG.RawCq,EEG.Battery,EEG.BatteryPercent,MarkerIndex,MarkerType,MarkerValueInt,EEG.MarkerHardware,CQ.AF3,CQ.F7,CQ.F3,CQ.FC5,CQ.T7,CQ.P7,CQ.O1,CQ.O2,CQ.P8,CQ.T8,CQ.FC6,CQ.F4,CQ.F8,CQ.AF4,CQ.Overall,EQ.SampleRateQuality,EQ.OVERALL,EQ.AF3,EQ.F7,EQ.F3,EQ.FC5,EQ.T7,EQ.P7,EQ.O1,EQ.O2,EQ.P8,EQ.T8,EQ.FC6,EQ.F4,EQ.F8,EQ.AF4,MOT.CounterMems,MOT.InterpolatedMems,MOT.Q0,MOT.Q1,MOT.Q2,MOT.Q3,MOT.AccX,MOT.AccY,MOT.AccZ,MOT.MagX,MOT.MagY,MOT.MagZ
1732158155.738454,1732158155.741277,13.000000,0.000000,4293.717773,4261.025879,4311.666504,4294.102539,4279.102539,4286.794922,4341.025879,4400.128418,4296.153809,4303.974121,4474.358887,4504.230957,4333.974121,4408.461426,1599.000000,1.000000,21.000000,,,,0.000000,2.000000,2.000000,0.000000,4.000000,2.000000,2.000000,0.000000,0.000000,4.000000,4.000000,4.000000,4.000000,4.000000,4.000000,0.000000,,,,,,,,,,,,,,,,,,,,,,,,,,,,
1732158155.746262,1732158155.748885,14.000000,0.000000,4285.641113,4259.487305,4314.358887,4293.077148,4278.077148,4283.717773,4341.282227,4400.641113,4294.743652,4302.179688,4473.077148,4503.205078,4334.230957,4410.000000,1556.000000,1.000000,21.000000,,,,0.000000,2.000000,2.000000,0.000000,4.000000,2.000000,2.000000,0.000000,0.000000,4.000000,4.000000,4.000000,4.000000,4.000000,4.000000,0.000000,1.000000,0.000000,2.000000,2.000000,0.000000,4.000000,2.000000,2.000000,0.000000,0.000000,4.000000,4.000000,4.000000,4.000000,4.000000,4.000000,,,,,,,,,,,,
1732158155.754071,1732158155.756694,15.000000,0.000000,4278.974121,4261.666504,4311.666504,4295.897461,4282.948730,4280.128418,4335.897461,4401.666504,4295.769043,4296.025879,4474.230957,4498.461426,4335.000000,4411.666504,1558.000000,1.000000,21.000000,,,,0.000000,2.000000,2.000000,0.000000,4.000000,2.000000,2.000000,0.000000,0.000000,4.000000,4.000000,4.000000,4.000000,4.000000,4.000000,0.000000,,,,,,,,,,,,,,,,,,,,,,,,,,,,
1732158155.761879,1732158155.764402,16.000000,0.000000,4281.794922,4263.461426,4310.512695,4296.025879,4279.358887,4281.410156,4333.589844,4401.666504,4296.922852,4297.307617,4475.384766,4499.230957,4335.384766,4409.743652,0.000000,1.000000,21.000000,,,,0.000000,2.000000,2.000000,0.000000,4.000000,2.000000,2.000000,0.000000,0.000000,4.000000,4.000000,4.000000,4.000000,4.000000,4.000000,0.000000,,,,,,,,,,,,,,,,,4.000000,0.000000,0.526561,0.497986,-0.517883,0.454468,0.961543,0.061043,-0.029789,-34.282635,45.986259,31.169083
1732158155.769687,1732158155.772210,17.000000,0.000000,4283.077148,4263.077148,4311.410156,4295.769043,4276.922852,4280.769043,4335.897461,4399.358887,4295.128418,4297.179688,4476.410156,4506.153809,4339.615234,4412.692383,0.000000,1.000000,21.000000,,,,0.000000,2.000000,2.000000,0.000000,4.000000,2.000000,2.000000,0.000000,0.000000,4.000000,4.000000,4.000000,4.000000,4.000000,4.000000,0.000000,,,,,,,,,,,,,,,,,,,,,,,,,,,,
1732158155.777496,1732158155.779819,18.000000,0.000000,4282.436035,4263.589844,4308.333496,4295.897461,4289.358887,4274.487305,4335.256348,4402.563965,4294.358887,4294.102539,4482.051270,4508.461426,4343.846191,4423.974121,0.000000,1.000000,21.000000,,,,0.000000,2.000000,2.000000,0.000000,4.000000,2.000000,2.000000,0.000000,0.000000,4.000000,4.000000,4.000000,4.000000,4.000000,4.000000,0.000000,,,,,,,,,,,,,,,,,,,,,,,,,,,,
1732158155.785304,1732158155.787627,19.000000,0.000000,4289.871582,4264.615234,4307.179688,4295.256348,4287.948730,4273.077148,4333.077148,4406.538574,4295.897461,4295.000000,4491.410156,4509.743652,4343.461426,4430.128418,0.000000,1.000000,21.000000,,,,0.000000,2.000000,2.000000,0.000000,4.000000,2.000000,2.000000,0.000000,0.000000,4.000000,4.000000,4.000000,4.000000,4.000000,4.000000,0.000000,,,,,,,,,,,,,,,,,,,,,,,,,,,,
1732158155.793112,1732158155.795335,20.000000,0.000000,4296.282227,4265.128418,4311.410156,4296.282227,4265.769043,4279.871582,4333.717773,4403.077148,4296.922852,4298.846191,4487.307617,4509.230957,4344.615234,4423.846191,0.000000,1.000000,21.000000,,,,0.000000,2.000000,2.000000,0.000000,4.000000,2.000000,2.000000,0.000000,0.000000,4.000000,4.000000,4.000000,4.000000,4.000000,4.000000,0.000000,,,,,,,,,,,,,,,,,5.000000,0.000000,0.526863,0.498657,-0.517090,0.454285,0.969845,0.091320,-0.028324,-34.210602,45.902206,30.911957
1732158155.800920,1732158155.803143,21.000000,0.000000,4294.871582,4266.282227,4313.205078,4297.179688,4259.358887,4282.307617,4335.128418,4400.769043,4295.256348,4299.102539,4477.051270,4506.153809,4350.000000,4419.102539,0.000000,1.000000,21.000000,,,,0.000000,2.000000,2.000000,0.000000,4.000000,2.000000,2.000000,0.000000,0.000000,4.000000,4.000000,4.000000,4.000000,4.000000,4.000000,0.000000,,,,,,,,,,,,,,,,,,,,,,,,,,,,
1732158155.808728,1732158155.810752,22.000000,0.000000,4293.846191,4265.256348,4311.666504,4295.000000,4266.794922,4279.487305,4334.871582,4407.436035,4295.512695,4297.563965,4484.615234,4506.666504,4349.871582,4421.410156,0.000000,1.000000,21.000000,,,,0.000000,2.000000,2.000000,0.000000,4.000000,2.000000,2.000000,0.000000,0.000000,4.000000,4.000000,4.000000,4.000000,4.000000,4.000000,0.000000,,,,,,,,,,,,,,,,,,,,,,,,,,,,
1732158155.816537,1732158155.818560,23.000000,0.000000,4294.358887,4262.948730,4311.282227,4294.230957,4268.717773,4281.538574,4334.358887,4409.871582,4296.025879,4296.410156,4490.256348,4509.102539,4343.974121,4421.153809,0.000000,1.000000,21.000000,,,,0.000000,2.000000,2.000000,0.000000,4.000000,2.000000,2.000000,0.000000,0.000000,4.000000,4.000000,4.000000,4.000000,4.000000,4.000000,0.000000,,,,,,,,,,,,,,,,,,,,,,,,,,,,
1732158155.824345,1732158155.826268,24.000000,0.000000,4294.358887,4264.358887,4310.384766,4296.282227,4271.538574,4283.846191,4334.743652,4403.461426,4296.282227,4296.666504,4478.846191,4508.974121,4343.205078,4420.256348,0.000000,1.000000,21.000000,,,,0.000000,2.000000,2.000000,0.000000,4.000000,2.000000,2.000000,0.000000,0.000000,4.000000,4.000000,4.000000,4.000000,4.000000,4.000000,0.000000,,,,,,,,,,,,,,,,,6.000000,0.000000,0.526785,0.499268,-0.516418,0.454468,0.983518,0.101575,-0.026370,-34.122253,45.759117,30.778687
1732158155.832153,1732158155.834076,25.000000,0.000000,4292.307617,4266.025879,4308.589844,4295.256348,4273.077148,4280.000000,4335.769043,4401.153809,4301.666504,4296.922852,4478.846191,4504.230957,4348.461426,4419.615234,0.000000,1.000000,21.000000,,,,0.000000,2.000000,2.000000,0.000000,4.000000,2.000000,2.000000,0.000000,0.000000,4.000000,4.000000,4.000000,4.000000,4.000000,4.000000,0.000000,,,,,,,,,,,,,,,,,,,,,,,,,,,,
1732158155.839961,1732158155.842084,26.000000,0.000000,4289.358887,4264.871582,4308.846191,4294.102539,4270.512695,4277.179688,4335.769043,4402.436035,4304.487305,4296.025879,4490.256348,4498.333496,4350.769043,4419.230957,0.000000,1.000000,21.000000,,,,0.000000,2.000000,2.000000,0.000000,4.000000,2.000000,2.000000,0.000000,0.000000,4.000000,4.000000,4.000000,4.000000,4.000000,4.000000,0.000000,,,,,,,,,,,,,,,,,,,,,,,,,,,,
1732158155.847770,1732158155.849893,27.000000,0.000000,4291.153809,4264.871582,4309.102539,4295.897461,4275.000000,4279.230957,4334.871582,4400.384766,4296.922852,4294.871582,4486.410156,4497.563965,4348.974121,4419.358887,0.000000,1.000000,21.000000,,,,0.000000,2.000000,2.000000,0.000000,4.000000,2.000000,2.000000,0.000000,0.000000,4.000000,4.000000,4.000000,4.000000,4.000000,4.000000,0.000000,,,,,,,,,,,,,,,,,,,,,,,,,,,,
1732158155.855578,1732158155.857601,28.000000,0.000000,4290.512695,4265.897461,4310.512695,4294.871582,4277.563965,4280.897461,4335.897461,4398.333496,4292.436035,4291.794922,4475.897461,4502.051270,4347.436035,4416.794922,0.000000,1.000000,21.000000,,,,0.000000,2.000000,2.000000,0.000000,4.000000,2.000000,2.000000,0.000000,0.000000,4.000000,4.000000,4.000000,4.000000,4.000000,4.000000,0.000000,,,,,,,,,,,,,,,,,7.000000,0.000000,0.526865,0.500122,-0.515564,0.454407,0.989379,0.104017,-0.029789,-34.067360,46.121552,30.884069
1732158155.863386,1732158155.865409,29.000000,0.000000,4284.487305,4266.538574,4310.000000,4292.051270,4277.692383,4279.358887,4336.025879,4399.871582,4299.615234,4290.256348,4476.794922,4502.948730,4346.410156,4414.102539,0.000000,1.000000,21.000000,,,,0.000000,2.000000,2.000000,0.000000,4.000000,2.000000,2.000000,0.000000,0.000000,4.000000,4.000000,4.000000,4.000000,4.000000,4.000000,0.000000,,,,,,,,,,,,,,,,,,,,,,,,,,,,
1732158155.871194,1732158155.873018,30.000000,0.000000,4283.205078,4265.384766,4307.820313,4293.846191,4275.897461,4279.743652,4333.974121,4402.307617,4304.358887,4292.948730,4478.205078,4501.025879,4343.589844,4409.615234,0.000000,1.000000,21.000000,,,,0.000000,2.000000,2.000000,0.000000,4.000000,2.000000,2.000000,0.000000,0.000000,4.000000,4.000000,4.000000,4.000000,4.000000,4.000000,0.000000,,,,,,,,,,,,,,,,,,,,,,,,,,,,
1732158155.879003,1732158155.880826,31.000000,0.000000,4283.717773,4262.563965,4308.077148,4295.897461,4275.512695,4283.846191,4334.615234,4402.436035,4301.025879,4291.025879,4475.769043,4502.051270,4337.436035,4405.384766,0.000000,1.000000,21.000000,,,,0.000000,2.000000,2.000000,0.000000,4.000000,2.000000,2.000000,0.000000,0.000000,4.000000,4.000000,4.000000,4.000000,4.000000,4.000000,0.000000,,,,,,,,,,,,,,,,,,,,,,,,,,,,
1732158155.886811,1732158155.888534,32.000000,0.000000,4282.692383,4263.974121,4306.153809,4294.102539,4290.769043,4281.794922,4336.538574,4400.641113,4294.230957,4281.922852,4474.230957,4500.512695,4334.102539,4407.307617,0.000000,1.000000,21.000000,,,,0.000000,2.000000,2.000000,0.000000,4.000000,2.000000,2.000000,0.000000,0.000000,4.000000,4.000000,4.000000,4.000000,4.000000,4.000000,0.000000,,,,,,,,,,,,,,,,,8.000000,0.000000,0.524948,0.501831,-0.515320,0.455017,0.966427,0.061531,-0.043462,-34.141228,46.296791,31.154428
1732158155.894619,1732158155.896342,33.000000,0.000000,4289.102539,4267.563965,4304.230957,4294.615234,4292.820313,4281.538574,4334.615234,4400.000000,4292.307617,4277.563965,4475.512695,4500.512695,4340.384766,4411.922852,0.000000,1.000000,21.000000,,,,0.000000,2.000000,2.000000,0.000000,4.000000,2.000000,2.000000,0.000000,0.000000,4.000000,4.000000,4.000000,4.000000,4.000000,4.000000,0.000000,,,,,,,,,,,,,,,,,,,,,,,,,,,,
1732158155.902427,1732158155.904350,34.000000,0.000000,4296.153809,4266.922852,4304.487305,4298.077148,4269.615234,4291.282227,4333.077148,4400.512695,4301.922852,4283.589844,4478.077148,4500.000000,4344.230957,4411.538574,0.000000,1.000000,21.000000,,,,0.000000,2.000000,2.000000,0.000000,4.000000,2.000000,2.000000,0.000000,0.000000,4.000000,4.000000,4.000000,4.000000,4.000000,4.000000,0.000000,,,,,,,,,,,,,,,,,,,,,,,,,,,,
1732158155.910236,1732158155.912159,35.000000,0.000000,4293.846191,4265.384766,4303.589844,4295.512695,4260.897461,4291.794922,4334.871582,4400.512695,4311.922852,4291.538574,4476.153809,4497.051270,4339.743652,4411.794922,0.000000,1.000000,21.000000,,,,0.000000,2.000000,2.000000,0.000000,4.000000,2.000000,2.000000,0.000000,0.000000,4.000000,4.000000,4.000000,4.000000,4.000000,4.000000,0.000000,,,,,,,,,,,,,,,,,,,,,,,,,,,,
1732158155.918044,1732158155.920067,36.000000,0.000000,4292.179688,4265.897461,4298.846191,4294.230957,4268.846191,4282.051270,4334.743652,4399.615234,4310.769043,4292.436035,4479.615234,4500.384766,4343.333496,4415.641113,0.000000,1.000000,21.000000,,,,0.000000,2.000000,2.000000,0.000000,4.000000,2.000000,2.000000,0.000000,0.000000,4.000000,4.000000,4.000000,4.000000,4.000000,4.000000,0.000000,,,,,,,,,,,,,,,,,9.000000,0.000000,0.522985,0.500977,-0.517334,0.455933,0.962031,0.031742,-0.042974,-34.152729,46.387066,31.150087
1732158155.925852,1732158155.927875,37.000000,0.000000,4294.743652,4266.922852,4298.589844,4300.512695,4266.794922,4278.589844,4332.051270,4399.743652,4302.051270,4285.641113,4487.563965,4507.948730,4351.025879,4415.000000,0.000000,1.000000,21.000000,,,,0.000000,2.000000,2.000000,0.000000,4.000000,2.000000,2.000000,0.000000,0.000000,4.000000,4.000000,4.000000,4.000000,4.000000,4.000000,0.000000,,,,,,,,,,,,,,,,,,,,,,,,,,,,
1732158155.933660,1732158155.935883,38.000000,0.000000,4296.282227,4267.563965,4302.051270,4302.820313,4262.563965,4280.000000,4329.615234,4399.230957,4296.922852,4280.769043,4488.974121,4509.102539,4347.179688,4416.410156,0.000000,1.000000,21.000000,,,,0.000000,2.000000,2.000000,0.000000,4.000000,2.000000,2.000000,0.000000,0.000000,4.000000,4.000000,4.000000,4.000000,4.000000,4.000000,0.000000,,,,,,,,,,,,,,,,,,,,,,,,,,,,
1732158155.941469,1732158155.943691,39.000000,0.000000,4296.025879,4265.128418,4303.077148,4296.410156,4265.769043,4278.717773,4330.641113,4398.205078,4296.025879,4281.538574,4485.641113,4506.794922,4341.410156,4420.641113,0.000000,1.000000,21.000000,,,,0.000000,2.000000,2.000000,0.000000,4.000000,2.000000,2.000000,0.000000,0.000000,4.000000,4.000000,4.000000,4.000000,4.000000,4.000000,0.000000,,,,,,,,,,,,,,,,,,,,,,,,,,,,
1732158155.949277,1732158155.951599,40.000000,0.000000,4295.512695,4267.563965,4302.307617,4296.794922,4267.051270,4280.256348,4334.358887,4399.871582,4295.256348,4279.871582,4482.692383,4511.794922,4341.666504,4419.230957,0.000000,1.000000,21.000000,,,,0.000000,2.000000,2.000000,0.000000,4.000000,2.000000,2.000000,0.000000,0.000000,4.000000,4.000000,4.000000,4.000000,4.000000,4.000000,0.000000,,,,,,,,,,,,,,,,,10.000000,0.000000,0.522334,0.500305,-0.518372,0.456238,0.974728,0.015139,-0.053229,-34.218708,46.408524,31.153238
1732158155.957085,1732158155.959407,41.000000,0.000000,4295.128418,4270.769043,4304.615234,4301.410156,4266.282227,4280.128418,4335.256348,4401.282227,4294.230957,4277.820313,4478.205078,4511.025879,4341.538574,4414.487305,0.000000,1.000000,21.000000,,,,0.000000,2.000000,2.000000,0.000000,4.000000,2.000000,2.000000,0.000000,0.000000,4.000000,4.000000,4.000000,4.000000,4.000000,4.000000,0.000000,,,,,,,,,,,,,,,,,,,,,,,,,,,,
1732158155.964893,1732158155.967016,42.000000,0.000000,4295.256348,4271.025879,4309.230957,4299.487305,4267.179688,4281.282227,4333.205078,4399.871582,4297.179688,4282.436035,4475.000000,4505.512695,4340.128418,4413.077148,0.000000,1.000000,21.000000,,,,0.000000,2.000000,2.000000,0.000000,4.000000,2.000000,2.000000,0.000000,0.000000,4.000000,4.000000,4.000000,4.000000,4.000000,4.000000,0.000000,,,,,,,,,,,,,,,,,,,,,,,,,,,,
1732158155.972702,1732158155.974824,43.000000,0.000000,4296.538574,4271.666504,4307.051270,4299.358887,4273.846191,4292.948730,4333.333496,4398.589844,4303.846191,4286.666504,4479.230957,4506.794922,4342.051270,4417.179688,0.000000,1.000000,21.000000,,,,0.000000,2.000000,2.000000,0.000000,4.000000,2.000000,2.000000,0.000000,0.000000,4.000000,4.000000,4.000000,4.000000,4.000000,4.000000,0.000000,,,,,,,,,,,,,,,,,,,,,,,,,,,,
1732158155.980510,1732158155.982532,44.000000,0.000000,4294.871582,4269.615234,4303.846191,4299.743652,4275.000000,4294.358887,4334.615234,4400.769043,4299.615234,4279.230957,4476.153809,4507.051270,4342.307617,4414.487305,0.000000,1.000000,21.000000,,,,0.000000,2.000000,2.000000,0.000000,4.000000,2.000000,2.000000,0.000000,0.000000,4.000000,4.000000,4.000000,4.000000,4.000000,4.000000,0.000000,,,,,,,,,,,,,,,,,11.000000,0.000000,0.521468,0.497192,-0.521851,0.456665,0.960566,0.034672,-0.049322,-34.387154,46.430904,31.237455
1732158155.988318,1732158155.990341,45.000000,0.000000,4291.922852,4267.948730,4307.436035,4293.974121,4266.538574,4282.051270,4333.974121,4401.410156,4291.922852,4276.666504,4472.563965,4504.743652,4342.820313,4411.025879,0.000000,1.000000,21.000000,,,,0.000000,2.000000,2.000000,0.000000,4.000000,2.000000,2.000000,0.000000,0.000000,4.000000,4.000000,4.000000,4.000000,4.000000,4.000000,0.000000,,,,,,,,,,,,,,,,,,,,,,,,,,,,
1732158155.996127,1732158155.998349,46.000000,0.000000,4298.077148,4276.410156,4311.922852,4295.256348,4264.230957,4277.563965,4335.000000,4399.743652,4300.769043,4287.307617,4484.102539,4509.743652,4350.897461,4421.794922,0.000000,1.000000,21.000000,,,,0.000000,2.000000,2.000000,0.000000,4.000000,2.000000,2.000000,0.000000,0.000000,4.000000,4.000000,4.000000,4.000000,4.000000,4.000000,0.000000,,,,,,,,,,,,,,,,,,,,,,,,,,,,
1732158156.003935,1732158156.006157,47.000000,0.000000,4304.230957,4282.179688,4311.025879,4300.769043,4266.922852,4281.153809,4335.769043,4401.282227,4309.230957,4288.717773,4490.000000,4515.000000,4355.256348,4428.461426,0.000000,1.000000,21.000000,,,,0.000000,2.000000,2.000000,0.000000,4.000000,2.000000,2.000000,0.000000,0.000000,4.000000,4.000000,4.000000,4.000000,4.000000,4.000000,0.000000,,,,,,,,,,,,,,,,,,,,,,,,,,,,
1732158156.011743,1732158156.014065,48.000000,0.000000,4299.871582,4274.487305,4310.897461,4299.230957,4265.641113,4280.641113,4334.358887,4401.666504,4299.230957,4277.179688,4475.000000,4513.589844,4346.666504,4420.641113,0.000000,1.000000,21.000000,,,,0.000000,2.000000,2.000000,0.000000,4.000000,2.000000,2.000000,0.000000,0.000000,4.000000,4.000000,4.000000,4.000000,4.000000,4.000000,0.000000,,,,,,,,,,,,,,,,,12.000000,0.000000,0.521849,0.494263,-0.524353,0.456543,0.955195,0.058113,-0.034672,-34.465263,46.420700,31.384007
1732158156.019551,1732158156.021873,49.000000,0.000000,4297.563965,4271.794922,4313.205078,4296.666504,4264.487305,4279.358887,4334.358887,4400.384766,4291.794922,4275.641113,4473.333496,4518.846191,4342.051270,4420.769043,0.000000,1.000000,21.000000,,,,0.000000,2.000000,2.000000,0.000000,4.000000,2.000000,2.000000,0.000000,0.000000,4.000000,4.000000,4.000000,4.000000,4.000000,4.000000,0.000000,,,,,,,,,,,,,,,,,,,,,,,,,,,,
1732158156.027359,1732158156.029881,50.000000,0.000000,4305.128418,4278.974121,4316.153809,4299.358887,4265.000000,4280.256348,4336.153809,4403.077148,4296.282227,4282.436035,4489.230957,4526.410156,4348.205078,4430.897461,0.000000,1.000000,21.000000,,,,0.000000,2.000000,2.000000,0.000000,4.000000,2.000000,2.000000,0.000000,0.000000,4.000000,4.000000,4.000000,4.000000,4.000000,4.000000,0.000000,,,,,,,,,,,,,,,,,,,,,,,,,,,,
1732158156.035168,1732158156.037689,51.000000,0.000000,4308.333496,4279.358887,4315.384766,4299.743652,4263.846191,4279.102539,4336.538574,4405.512695,4297.179688,4280.512695,4485.128418,4519.230957,4347.179688,4427.692383,0.000000,1.000000,21.000000,,,,0.000000,2.000000,2.000000,0.000000,4.000000,2.000000,2.000000,0.000000,0.000000,4.000000,4.000000,4.000000,4.000000,4.000000,4.000000,0.000000,,,,,,,,,,,,,,,,,,,,,,,,,,,,
1732158156.042976,1732158156.045597,52.000000,0.000000,4305.128418,4271.282227,4313.717773,4297.948730,4263.717773,4278.974121,4336.538574,4403.589844,4295.256348,4278.589844,4478.205078,4513.077148,4340.769043,4421.410156,0.000000,1.000000,21.000000,,,,0.000000,2.000000,2.000000,0.000000,4.000000,2.000000,2.000000,0.000000,0.000000,4.000000,4.000000,4.000000,4.000000,4.000000,4.000000,0.000000,,,,,,,,,,,,,,,,,13.000000,0.000000,0.522125,0.493469,-0.524719,0.456665,0.955195,0.058113,-0.034672,-34.598530,46.562435,31.374378
1732158156.050784,1732158156.053406,53.000000,0.000000,4303.333496,4266.666504,4315.000000,4296.410156,4262.948730,4280.641113,4336.282227,4402.563965,4295.128418,4278.461426,4487.436035,4513.717773,4342.179688,4424.615234,0.000000,1.000000,21.000000,,,,0.000000,2.000000,2.000000,0.000000,4.000000,2.000000,2.000000,0.000000,0.000000,4.000000,4.000000,4.000000,4.000000,4.000000,4.000000,0.000000,,,,,,,,,,,,,,,,,,,,,,,,,,,,
1732158156.058592,1732158156.061414,54.000000,0.000000,4303.205078,4270.512695,4318.333496,4295.256348,4263.717773,4282.051270,4335.512695,4403.077148,4295.128418,4272.179688,4489.743652,4513.205078,4349.102539,4428.717773,0.000000,1.000000,21.000000,,,,0.000000,2.000000,2.000000,0.000000,4.000000,2.000000,2.000000,0.000000,0.000000,4.000000,4.000000,4.000000,4.000000,4.000000,4.000000,0.000000,,,,,,,,,,,,,,,,,,,,,,,,,,,,
1732158156.066401,1732158156.069222,55.000000,0.000000,4307.179688,4277.948730,4317.692383,4299.487305,4265.000000,4280.897461,4337.692383,4402.051270,4296.025879,4270.897461,4485.256348,4515.128418,4353.077148,4429.743652,0.000000,1.000000,21.000000,,,,0.000000,2.000000,2.000000,0.000000,4.000000,2.000000,2.000000,0.000000,0.000000,4.000000,4.000000,4.000000,4.000000,4.000000,4.000000,0.000000,,,,,,,,,,,,,,,,,,,,,,,,,,,,
1732158156.074209,1732158156.076930,56.000000,0.000000,4312.436035,4283.077148,4317.051270,4303.717773,4264.358887,4280.512695,4340.512695,4401.794922,4297.179688,4275.769043,4487.307617,4522.948730,4345.641113,4429.230957,0.000000,1.000000,21.000000,,,,0.000000,2.000000,2.000000,0.000000,4.000000,2.000000,2.000000,0.000000,0.000000,4.000000,4.000000,4.000000,4.000000,4.000000,4.000000,0.000000,,,,,,,,,,,,,,,,,14.000000,0.000000,0.522346,0.492676,-0.525085,0.456848,0.989379,0.038579,-0.022464,-34.679810,46.375572,31.521580
1732158156.082017,1732158156.084738,57.000000,0.000000,4311.922852,4276.410156,4318.333496,4299.615234,4264.487305,4282.436035,4340.128418,4402.051270,4298.461426,4280.256348,4489.358887,4524.230957,4338.717773,4434.615234,0.000000,1.000000,21.000000,,,,0.000000,2.000000,2.000000,0.000000,4.000000,2.000000,2.000000,0.000000,0.000000,4.000000,4.000000,4.000000,4.000000,4.000000,4.000000,0.000000,,,,,,,,,,,,,,,,,,,,,,,,,,,,
1732158156.089826,1732158156.092746,58.000000,0.000000,4310.000000,4266.410156,4317.051270,4294.743652,4263.077148,4282.692383,4339.230957,4401.025879,4296.153809,4276.922852,4487.307617,4515.384766,4348.974121,4443.205078,0.000000,1.000000,21.000000,,,,0.000000,2.000000,2.000000,0.000000,4.000000,2.000000,2.000000,0.000000,0.000000,4.000000,4.000000,4.000000,4.000000,4.000000,4.000000,0.000000,,,,,,,,,,,,,,,,,,,,,,,,,,,,
1732158156.097634,1732158156.100555,59.000000,0.000000,4311.922852,4266.410156,4316.153809,4296.538574,4263.077148,4279.871582,4339.615234,4401.666504,4295.000000,4270.641113,4488.333496,4515.384766,4361.153809,4446.282227,0.000000,1.000000,21.000000,,,,0.000000,2.000000,2.000000,0.000000,4.000000,2.000000,2.000000,0.000000,0.000000,4.000000,4.000000,4.000000,4.000000,4.000000,4.000000,0.000000,,,,,,,,,,,,,,,,,,,,,,,,,,,,
1732158156.105442,1732158156.108463,60.000000,0.000000,4314.487305,4267.563965,4316.153809,4296.153809,4263.077148,4280.000000,4339.358887,4403.717773,4298.974121,4272.436035,4490.769043,4523.589844,4363.077148,4443.205078,0.000000,1.000000,21.000000,,,,0.000000,2.000000,2.000000,0.000000,4.000000,2.000000,2.000000,0.000000,0.000000,4.000000,4.000000,4.000000,4.000000,4.000000,4.000000,0.000000,,,,,,,,,,,,,,,,,15.000000,0.000000,0.522439,0.489929,-0.526550,0.458008,0.995727,0.052252,-0.040532,-34.670643,46.377544,31.454145
1732158156.113250,1732158156.116271,61.000000,0.000000,4314.102539,4257.692383,4315.769043,4287.436035,4255.641113,4284.743652,4338.974121,4408.077148,4302.051270,4278.077148,4498.077148,4524.102539,4371.410156,4447.436035,0.000000,1.000000,21.000000,,,,0.000000,2.000000,2.000000,0.000000,4.000000,2.000000,2.000000,0.000000,0.000000,4.000000,4.000000,4.000000,4.000000,4.000000,4.000000,0.000000,,,,,,,,,,,,,,,,,,,,,,,,,,,,
1732158156.121058,1732158156.124279,62.000000,0.000000,4313.461426,4247.307617,4315.384766,4279.358887,4248.077148,4283.974121,4339.230957,4410.384766,4304.358887,4282.436035,4506.025879,4521.922852,4386.538574,4457.051270,0.000000,1.000000,21.000000,,,,0.000000,2.000000,2.000000,0.000000,4.000000,2.000000,2.000000,0.000000,0.000000,4.000000,4.000000,4.000000,4.000000,4.000000,4.000000,0.000000,,,,,,,,,,,,,,,,,,,,,,,,,,,,
1732158156.128867,1732158156.132087,63.000000,0.000000,4311.410156,4244.230957,4314.743652,4276.666504,4247.692383,4277.436035,4339.102539,4404.743652,4307.820313,4288.205078,4507.692383,4528.461426,4391.538574,4459.358887,0.000000,1.000000,21.000000,,,,0.000000,2.000000,2.000000,0.000000,4.000000,2.000000,2.000000,0.000000,0.000000,4.000000,4.000000,4.000000,4.000000,4.000000,4.000000,0.000000,,,,,,,,,,,,,,,,,,,,,,,,,,,,
1732158156.136675,1732158156.139795,64.000000,0.000000,4310.128418,4242.563965,4311.794922,4277.179688,4249.230957,4277.307617,4339.102539,4399.230957,4309.102539,4294.102539,4508.589844,4533.333496,4388.077148,4458.077148,0.000000,1.000000,21.000000,,,,0.000000,2.000000,2.000000,0.000000,4.000000,2.000000,2.000000,0.000000,0.000000,4.000000,4.000000,4.000000,4.000000,4.000000,4.000000,0.000000,,,,,,,,,,,,,,,,,16.000000,0.000000,0.522199,0.489563,-0.526917,0.458252,0.995727,0.052252,-0.040532,-34.593224,46.525814,31.449526
1732158156.144483,1732158156.147604,65.000000,0.000000,4311.025879,4240.000000,4312.436035,4274.743652,4249.743652,4282.692383,4338.974121,4403.205078,4310.897461,4295.128418,4508.589844,4530.128418,4387.948730,4460.000000,1614.000000,1.000000,21.000000,,,,0.000000,2.000000,2.000000,0.000000,4.000000,2.000000,2.000000,0.000000,0.000000,4.000000,4.000000,4.000000,4.000000,4.000000,4.000000,0.000000,,,,,,,,,,,,,,,,,,,,,,,,,,,,
1732158156.152291,1732158156.155212,66.000000,0.000000,4311.153809,4235.384766,4316.922852,4268.974121,4248.333496,4280.641113,4339.487305,4406.410156,4314.102539,4296.666504,4508.846191,4527.948730,4395.256348,4462.307617,1362.000000,1.000000,21.000000,,,,0.000000,2.000000,2.000000,0.000000,4.000000,2.000000,2.000000,0.000000,0.000000,4.000000,4.000000,4.000000,4.000000,4.000000,4.000000,0.000000,,,,,,,,,,,,,,,,,,,,,,,,,,,,
1732158156.160100,1732158156.163020,67.000000,0.000000,4308.846191,4233.333496,4316.794922,4266.666504,4245.641113,4273.974121,4339.358887,4404.487305,4312.051270,4296.666504,4511.282227,4528.589844,4396.410156,4460.128418,1431.000000,1.000000,21.000000,,,,0.000000,2.000000,2.000000,0.000000,4.000000,2.000000,2.000000,0.000000,0.000000,4.000000,4.000000,4.000000,4.000000,4.000000,4.000000,0.000000,,,,,,,,,,,,,,,,,,,,,,,,,,,,
1732158156.167908,1732158156.170728,68.000000,0.000000,4306.538574,4238.077148,4313.461426,4272.692383,4248.077148,4275.256348,4338.461426,4402.820313,4307.436035,4292.051270,4512.051270,4527.692383,4389.487305,4459.615234,1434.000000,1.000000,21.000000,,,,0.000000,2.000000,2.000000,0.000000,4.000000,2.000000,2.000000,0.000000,0.000000,4.000000,4.000000,4.000000,4.000000,4.000000,4.000000,0.000000,,,,,,,,,,,,,,,,,17.000000,0.000000,0.520753,0.488098,-0.528748,0.459351,0.991820,0.038579,-0.041997,-34.512177,46.552574,31.427448
1732158156.175716,1732158156.178537,69.000000,0.000000,4309.871582,4244.487305,4313.205078,4280.256348,4251.538574,4280.512695,4340.512695,4401.282227,4311.025879,4296.794922,4509.358887,4527.179688,4390.256348,4461.025879,1202.000000,1.000000,21.000000,,,,0.000000,2.000000,2.000000,0.000000,4.000000,2.000000,2.000000,0.000000,0.000000,4.000000,4.000000,4.000000,4.000000,4.000000,4.000000,0.000000,,,,,,,,,,,,,,,,,,,,,,,,,,,,
1732158156.183524,1732158156.186145,70.000000,0.000000,4311.666504,4248.205078,4316.538574,4281.538574,4249.615234,4279.871582,4341.538574,4401.666504,4312.692383,4297.051270,4507.820313,4525.128418,4393.717773,4459.871582,0.000000,1.000000,21.000000,,,,0.000000,2.000000,2.000000,0.000000,4.000000,2.000000,2.000000,0.000000,0.000000,4.000000,4.000000,4.000000,4.000000,4.000000,4.000000,0.000000,,,,,,,,,,,,,,,,,,,,,,,,,,,,
1732158156.191333,1732158156.193953,71.000000,0.000000,4305.384766,4243.846191,4318.461426,4278.974121,4248.846191,4276.025879,4336.922852,4404.487305,4303.846191,4283.974121,4506.922852,4525.128418,4384.615234,4459.615234,0.000000,1.000000,21.000000,,,,0.000000,2.000000,2.000000,0.000000,4.000000,2.000000,2.000000,0.000000,0.000000,4.000000,4.000000,4.000000,4.000000,4.000000,4.000000,0.000000,,,,,,,,,,,,,,,,,,,,,,,,,,,,
1732158156.199141,1732158156.201662,72.000000,0.000000,4304.230957,4237.179688,4318.205078,4278.461426,4250.512695,4277.436035,4333.974121,4402.563965,4297.948730,4283.077148,4504.358887,4528.974121,4376.282227,4459.358887,1538.000000,1.000000,21.000000,,,,0.000000,2.000000,2.000000,0.000000,4.000000,2.000000,2.000000,0.000000,0.000000,4.000000,4.000000,4.000000,4.000000,4.000000,4.000000,0.000000,,,,,,,,,,,,,,,,,18.000000,0.000000,0.518052,0.486511,-0.530945,0.461548,0.980100,0.001953,-0.046881,-34.551529,46.362587,31.456234
1732158156.206949,1732158156.209470,73.000000,0.000000,4308.461426,4235.897461,4318.974121,4278.846191,4250.769043,4282.051270,4337.051270,4402.179688,4306.153809,4295.128418,4503.974121,4530.897461,4380.641113,4456.794922,1693.000000,1.000000,21.000000,,,,0.000000,2.000000,2.000000,0.000000,4.000000,2.000000,2.000000,0.000000,0.000000,4.000000,4.000000,4.000000,4.000000,4.000000,4.000000,0.000000,,,,,,,,,,,,,,,,,,,,,,,,,,,,
1732158156.214758,1732158156.217078,74.000000,0.000000,4305.000000,4237.692383,4319.743652,4274.871582,4249.487305,4280.769043,4336.282227,4407.051270,4312.820313,4297.692383,4505.256348,4529.230957,4384.102539,4455.897461,1553.000000,1.000000,21.000000,,,,0.000000,2.000000,2.000000,0.000000,4.000000,2.000000,2.000000,0.000000,0.000000,4.000000,4.000000,4.000000,4.000000,4.000000,4.000000,0.000000,,,,,,,,,,,,,,,,,,,,,,,,,,,,
1732158156.222566,1732158156.224886,75.000000,0.000000,4300.384766,4243.205078,4319.743652,4275.256348,4248.333496,4277.820313,4333.333496,4405.256348,4309.871582,4295.000000,4504.487305,4528.077148,4381.666504,4458.333496,1558.000000,1.000000,21.000000,,,,0.000000,2.000000,2.000000,0.000000,4.000000,2.000000,2.000000,0.000000,0.000000,4.000000,4.000000,4.000000,4.000000,4.000000,4.000000,0.000000,,,,,,,,,,,,,,,,,,,,,,,,,,,,
1732158156.230374,1732158156.232595,76.000000,0.000000,4303.974121,4248.461426,4321.282227,4280.384766,4248.077148,4280.128418,4337.179688,4402.051270,4309.230957,4296.153809,4503.846191,4529.743652,4381.922852,4458.974121,1708.000000,1.000000,21.000000,,,,0.000000,2.000000,2.000000,0.000000,4.000000,2.000000,2.000000,0.000000,0.000000,4.000000,4.000000,4.000000,4.000000,4.000000,4.000000,0.000000,,,,,,,,,,,,,,,,,19.000000,0.000000,0.517531,0.485962,-0.531372,0.462219,0.973752,0.016115,-0.023440,-34.461739,46.170361,31.699549
1732158156.238182,1732158156.240403,77.000000,0.000000,4304.743652,4249.487305,4320.256348,4280.769043,4249.358887,4282.436035,4342.307617,4404.743652,4311.282227,4298.333496,4505.128418,4526.922852,4383.589844,4456.282227,1594.000000,1.000000,21.000000,,,,0.000000,2.000000,2.000000,0.000000,4.000000,2.000000,2.000000,0.000000,0.000000,4.000000,4.000000,4.000000,4.000000,4.000000,4.000000,0.000000,,,,,,,,,,,,,,,,,,,,,,,,,,,,
1732158156.245990,1732158156.248011,78.000000,0.000000,4298.717773,4246.410156,4318.077148,4277.436035,4251.025879,4280.769043,4343.461426,4407.051270,4311.538574,4294.615234,4502.692383,4521.666504,4376.025879,4450.769043,1553.000000,1.000000,21.000000,,,,0.000000,2.000000,2.000000,0.000000,4.000000,2.000000,2.000000,0.000000,0.000000,4.000000,4.000000,4.000000,4.000000,4.000000,4.000000,0.000000,1.000000,0.000000,2.000000,2.000000,0.000000,4.000000,2.000000,2.000000,0.000000,0.000000,4.000000,4.000000,4.000000,4.000000,4.000000,4.000000,,,,,,,,,,,,
1732158156.253799,1732158156.255820,79.000000,0.000000,4296.666504,4245.384766,4318.846191,4278.333496,4252.051270,4280.512695,4342.307617,4406.794922,4314.615234,4285.128418,4494.615234,4521.922852,4363.974121,4445.128418,1558.000000,1.000000,21.000000,,,,0.000000,2.000000,2.000000,0.000000,4.000000,2.000000,2.000000,0.000000,0.000000,4.000000,4.000000,4.000000,4.000000,4.000000,4.000000,0.000000,,,,,,,,,,,,,,,,,,,,,,,,,,,,
1732158156.261607,1732158156.263728,80.000000,0.000000,4298.077148,4247.692383,4319.743652,4282.051270,4252.436035,4281.922852,4340.512695,4402.948730,4313.717773,4280.769043,4490.384766,4522.051270,4362.307617,4443.717773,1708.000000,1.000000,21.000000,,,,0.000000,2.000000,2.000000,0.000000,4.000000,2.000000,2.000000,0.000000,0.000000,4.000000,4.000000,4.000000,4.000000,4.000000,4.000000,0.000000,,,,,,,,,,,,,,,,,20.000000,0.000000,0.517367,0.485779,-0.531433,0.462524,0.974728,0.013185,-0.033696,-34.532341,45.916325,31.851635
1732158156.269415,1732158156.271536,81.000000,0.000000,4298.974121,4249.487305,4317.948730,4282.820313,4251.666504,4280.256348,4340.128418,4398.846191,4307.563965,4290.000000,4497.179688,4521.153809,4370.641113,4445.897461,1594.000000,1.000000,21.000000,,,,0.000000,2.000000,2.000000,0.000000,4.000000,2.000000,2.000000,0.000000,0.000000,4.000000,4.000000,4.000000,4.000000,4.000000,4.000000,0.000000,,,,,,,,,,,,,,,,,,,,,,,,,,,,
1732158156.277223,1732158156.279144,82.000000,0.000000,4297.307617,4248.589844,4317.179688,4280.897461,4251.153809,4277.948730,4341.538574,4405.512695,4308.333496,4297.307617,4505.384766,4526.410156,4374.487305,4447.436035,1553.000000,1.000000,21.000000,,,,0.000000,2.000000,2.000000,0.000000,4.000000,2.000000,2.000000,0.000000,0.000000,4.000000,4.000000,4.000000,4.000000,4.000000,4.000000,0.000000,,,,,,,,,,,,,,,,,,,,,,,,,,,,
1732158156.285032,1732158156.286953,83.000000,0.000000,4294.615234,4246.410156,4313.589844,4281.410156,4251.282227,4279.487305,4339.871582,4412.436035,4310.897461,4293.974121,4504.615234,4529.615234,4368.974121,4445.897461,1558.000000,1.000000,21.000000,,,,0.000000,2.000000,2.000000,0.000000,4.000000,2.000000,2.000000,0.000000,0.000000,4.000000,4.000000,4.000000,4.000000,4.000000,4.000000,0.000000,,,,,,,,,,,,,,,,,,,,,,,,,,,,
1732158156.292840,1732158156.294661,84.000000,0.000000,4296.025879,4248.846191,4311.666504,4285.000000,4251.282227,4281.410156,4335.512695,4407.563965,4306.666504,4291.025879,4501.025879,4527.179688,4363.846191,4446.922852,1708.000000,1.000000,21.000000,,,,0.000000,2.000000,2.000000,0.000000,4.000000,2.000000,2.000000,0.000000,0.000000,4.000000,4.000000,4.000000,4.000000,4.000000,4.000000,0.000000,,,,,,,,,,,,,,,,,21.000000,0.000000,0.516788,0.485657,-0.531311,0.463440,0.974240,0.008302,-0.035161,-34.687862,45.810558,31.896490
1732158156.300648,1732158156.302469,85.000000,0.000000,4303.461426,4251.025879,4316.025879,4286.794922,4249.743652,4280.641113,4335.000000,4402.436035,4305.256348,4295.384766,4502.948730,4528.974121,4367.820313,4456.025879,1594.000000,1.000000,21.000000,,,,0.000000,2.000000,2.000000,0.000000,4.000000,2.000000,2.000000,0.000000,0.000000,4.000000,4.000000,4.000000,4.000000,4.000000,4.000000,0.000000,,,,,,,,,,,,,,,,,,,,,,,,,,,,
1732158156.308457,1732158156.310477,86.000000,0.000000,4310.384766,4251.025879,4316.922852,4287.948730,4247.307617,4278.461426,4336.282227,4402.948730,4304.871582,4294.615234,4505.769043,4533.974121,4374.487305,4464.102539,1553.000000,1.000000,21.000000,,,,0.000000,2.000000,2.000000,0.000000,4.000000,2.000000,2.000000,0.000000,0.000000,4.000000,4.000000,4.000000,4.000000,4.000000,4.000000,0.000000,,,,,,,,,,,,,,,,,,,,,,,,,,,,
1732158156.316265,1732158156.318285,87.000000,0.000000,4311.794922,4251.666504,4313.205078,4292.179688,4247.179688,4278.461426,4336.153809,4401.538574,4298.333496,4286.922852,4503.846191,4532.563965,4371.538574,4461.282227,1558.000000,1.000000,21.000000,,,,0.000000,2.000000,2.000000,0.000000,4.000000,2.000000,2.000000,0.000000,0.000000,4.000000,4.000000,4.000000,4.000000,4.000000,4.000000,0.000000,,,,,,,,,,,,,,,,,,,,,,,,,,,,
1732158156.324073,1732158156.326193,88.000000,0.000000,4314.487305,4254.871582,4314.487305,4295.512695,4248.461426,4279.487305,4336.153809,4399.358887,4294.743652,4285.128418,4502.820313,4527.307617,4368.333496,4461.410156,1708.000000,1.000000,21.000000,,,,0.000000,2.000000,2.000000,0.000000,4.000000,2.000000,2.000000,0.000000,0.000000,4.000000,4.000000,4.000000,4.000000,4.000000,4.000000,0.000000,,,,,,,,,,,,,,,,,22.000000,0.000000,0.514617,0.485107,-0.531677,0.466003,0.984984,-0.013674,-0.040044,-34.573837,45.611549,31.741158
1732158156.331881,1732158156.334002,89.000000,0.000000,4321.153809,4261.538574,4317.820313,4295.641113,4247.820313,4280.256348,4339.102539,4401.025879,4296.538574,4288.333496,4506.410156,4522.948730,4376.794922,4471.410156,1594.000000,1.000000,21.000000,,,,0.000000,2.000000,2.000000,0.000000,4.000000,2.000000,2.000000,0.000000,0.000000,4.000000,4.000000,4.000000,4.000000,4.000000,4.000000,0.000000,,,,,,,,,,,,,,,,,,,,,,,,,,,,
1732158156.339689,1732158156.342010,90.000000,0.000000,4325.641113,4265.897461,4317.948730,4296.282227,4244.102539,4273.717773,4341.538574,4401.410156,4294.871582,4286.153809,4507.179688,4523.205078,4382.692383,4477.820313,1553.000000,1.000000,21.000000,,,,0.000000,2.000000,2.000000,0.000000,4.000000,2.000000,2.000000,0.000000,0.000000,4.000000,4.000000,4.000000,4.000000,4.000000,4.000000,0.000000,,,,,,,,,,,,,,,,,,,,,,,,,,,,
1732158156.347498,1732158156.349818,91.000000,0.000000,4327.563965,4262.307617,4317.307617,4296.410156,4244.230957,4268.589844,4340.384766,4401.153809,4293.589844,4288.333496,4505.128418,4532.948730,4381.666504,4477.436035,1558.000000,1.000000,21.000000,,,,0.000000,2.000000,2.000000,0.000000,4.000000,2.000000,2.000000,0.000000,0.000000,4.000000,4.000000,4.000000,4.000000,4.000000,4.000000,0.000000,,,,,,,,,,,,,,,,,,,,,,,,,,,,
1732158156.355306,1732158156.357726,92.000000,0.000000,4331.410156,4260.384766,4316.922852,4296.282227,4246.794922,4273.846191,4338.974121,4403.846191,4297.820313,4296.153809,4510.000000,4539.615234,4387.051270,4481.025879,1708.000000,1.000000,21.000000,,,,0.000000,2.000000,2.000000,0.000000,4.000000,2.000000,2.000000,0.000000,0.000000,4.000000,4.000000,4.000000,4.000000,4.000000,4.000000,0.000000,,,,,,,,,,,,,,,,,23.000000,0.000000,0.513981,0.484802,-0.531982,0.466675,0.951776,-0.017580,-0.043951,-34.834808,45.650356,31.702003
1732158156.363114,1732158156.365534,93.000000,0.000000,4339.615234,4266.666504,4316.025879,4297.436035,4243.589844,4273.974121,4339.230957,4402.436035,4298.077148,4295.641113,4519.615234,4536.794922,4397.563965,4490.641113,1594.000000,1.000000,21.000000,,,,0.000000,2.000000,2.000000,0.000000,4.000000,2.000000,2.000000,0.000000,0.000000,4.000000,4.000000,4.000000,4.000000,4.000000,4.000000,0.000000,,,,,,,,,,,,,,,,,,,,,,,,,,,,
1732158156.370922,1732158156.373143,94.000000,0.000000,4345.897461,4268.205078,4314.230957,4298.589844,4235.769043,4265.897461,4341.025879,4400.384766,4295.384766,4291.794922,4523.077148,4537.692383,4403.589844,4497.307617,1553.000000,1.000000,21.000000,,,,0.000000,2.000000,2.000000,0.000000,4.000000,2.000000,2.000000,0.000000,0.000000,4.000000,4.000000,4.000000,4.000000,4.000000,4.000000,0.000000,,,,,,,,,,,,,,,,,,,,,,,,,,,,
1732158156.378731,1732158156.380951,95.000000,0.000000,4342.307617,4262.436035,4313.205078,4297.051270,4229.743652,4266.025879,4340.897461,4404.871582,4293.717773,4294.743652,4520.897461,4544.102539,4404.615234,4493.077148,1558.000000,1.000000,21.000000,,,,0.000000,2.000000,2.000000,0.000000,4.000000,2.000000,2.000000,0.000000,0.000000,4.000000,4.000000,4.000000,4.000000,4.000000,4.000000,0.000000,,,,,,,,,,,,,,,,,,,,,,,,,,,,
1732158156.386539,1732158156.388859,96.000000,0.000000,4340.000000,4263.205078,4314.230957,4293.846191,4239.358887,4266.922852,4337.307617,4404.871582,4293.846191,4291.922852,4520.256348,4543.717773,4401.794922,4491.538574,1708.000000,1.000000,21.000000,,,,0.000000,2.000000,2.000000,0.000000,4.000000,2.000000,2.000000,0.000000,0.000000,4.000000,4.000000,4.000000,4.000000,4.000000,4.000000,0.000000,,,,,,,,,,,,,,,,,24.000000,0.000000,0.513124,0.483887,-0.532410,0.468079,0.970822,-0.028324,-0.032230,-34.929527,45.431789,31.600290
1732158156.394347,1732158156.396667,97.000000,0.000000,4347.692383,4271.410156,4315.256348,4292.948730,4251.922852,4258.974121,4334.487305,4401.410156,4292.436035,4285.256348,4521.410156,4537.692383,4401.153809,4502.948730,1594.000000,1.000000,21.000000,,,,0.000000,2.000000,2.000000,0.000000,4.000000,2.000000,2.000000,0.000000,0.000000,4.000000,4.000000,4.000000,4.000000,4.000000,4.000000,0.000000,,,,,,,,,,,,,,,,,,,,,,,,,,,,
1732158156.402156,1732158156.404675,98.000000,0.000000,4352.820313,4276.538574,4313.077148,4294.871582,4238.846191,4261.922852,4334.743652,4403.846191,4294.230957,4290.641113,4523.077148,4538.461426,4410.000000,4507.179688,1553.000000,1.000000,21.000000,,,,0.000000,2.000000,2.000000,0.000000,4.000000,2.000000,2.000000,0.000000,0.000000,4.000000,4.000000,4.000000,4.000000,4.000000,4.000000,0.000000,,,,,,,,,,,,,,,,,,,,,,,,,,,,
1732158156.409964,1732158156.412483,99.000000,0.000000,4350.769043,4276.153809,4314.230957,4294.743652,4216.538574,4270.000000,4334.230957,4406.794922,4294.358887,4297.948730,4523.846191,4540.641113,4416.153809,4495.000000,1558.000000,1.000000,21.000000,,,,0.000000,2.000000,2.000000,0.000000,4.000000,2.000000,2.000000,0.000000,0.000000,4.000000,4.000000,4.000000,4.000000,4.000000,4.000000,0.000000,,,,,,,,,,,,,,,,,,,,,,,,,,,,
1732158156.417772,1732158156.420391,100.000000,0.000000,4350.769043,4275.769043,4318.333496,4295.000000,4218.333496,4263.077148,4333.717773,4403.205078,4285.769043,4291.410156,4521.153809,4540.512695,4413.461426,4490.128418,1708.000000,1.000000,21.000000,,,,0.000000,2.000000,2.000000,0.000000,4.000000,2.000000,2.000000,0.000000,0.000000,4.000000,4.000000,4.000000,4.000000,4.000000,4.000000,0.000000,,,,,,,,,,,,,,,,,25.000000,0.000000,0.512609,0.481262,-0.533508,0.470093,0.981077,-0.045904,-0.020999,-34.939583,45.454750,31.742901
1732158156.425580,1732158156.428200,101.000000,0.000000,4352.563965,4279.615234,4318.974121,4299.743652,4232.307617,4258.846191,4335.641113,4401.025879,4284.358887,4286.410156,4520.641113,4539.230957,4414.743652,4500.641113,1594.000000,1.000000,21.000000,,,,0.000000,2.000000,2.000000,0.000000,4.000000,2.000000,2.000000,0.000000,0.000000,4.000000,4.000000,4.000000,4.000000,4.000000,4.000000,0.000000,,,,,,,,,,,,,,,,,,,,,,,,,,,,
1732158156.433388,1732158156.436208,102.000000,0.000000,4351.666504,4286.922852,4317.436035,4305.128418,4233.589844,4264.230957,4336.025879,4402.436035,4291.538574,4291.922852,4521.922852,4539.358887,4417.692383,4504.487305,1553.000000,1.000000,21.000000,,,,0.000000,2.000000,2.000000,0.000000,4.000000,2.000000,2.000000,0.000000,0.000000,4.000000,4.000000,4.000000,4.000000,4.000000,4.000000,0.000000,,,,,,,,,,,,,,,,,,,,,,,,,,,,
1732158156.441197,1732158156.444016,103.000000,0.000000,4349.230957,4285.256348,4316.794922,4302.948730,4232.820313,4264.871582,4334.615234,4402.436035,4293.589844,4294.230957,4520.000000,4539.615234,4414.615234,4494.743652,1558.000000,1.000000,21.000000,,,,0.000000,2.000000,2.000000,0.000000,4.000000,2.000000,2.000000,0.000000,0.000000,4.000000,4.000000,4.000000,4.000000,4.000000,4.000000,0.000000,,,,,,,,,,,,,,,,,,,,,,,,,,,,
1732158156.449005,1732158156.451924,104.000000,0.000000,4347.948730,4281.666504,4317.692383,4297.307617,4234.358887,4261.025879,4334.871582,4402.820313,4296.153809,4294.487305,4519.358887,4540.512695,4413.974121,4488.589844,1708.000000,1.000000,21.000000,,,,0.000000,2.000000,2.000000,0.000000,4.000000,2.000000,2.000000,0.000000,0.000000,4.000000,4.000000,4.000000,4.000000,4.000000,4.000000,0.000000,,,,,,,,,,,,,,,,,26.000000,0.000000,0.512730,0.479370,-0.534180,0.471130,0.989867,-0.036137,-0.027835,-34.904396,45.401680,31.685083
1732158156.456813,1732158156.459732,105.000000,0.000000,4349.102539,4288.077148,4318.461426,4298.974121,4234.487305,4261.922852,4335.128418,4401.922852,4293.461426,4296.410156,4522.692383,4540.897461,4418.461426,4496.922852,1594.000000,1.000000,21.000000,,,,0.000000,2.000000,2.000000,0.000000,4.000000,2.000000,2.000000,0.000000,0.000000,4.000000,4.000000,4.000000,4.000000,4.000000,4.000000,0.000000,,,,,,,,,,,,,,,,,,,,,,,,,,,,
1732158156.464621,1732158156.467341,106.000000,0.000000,4353.717773,4294.358887,4318.974121,4307.179688,4234.743652,4262.563965,4334.871582,4402.179688,4282.436035,4291.153809,4522.307617,4541.025879,4416.922852,4506.922852,1553.000000,1.000000,21.000000,,,,0.000000,2.000000,2.000000,0.000000,4.000000,2.000000,2.000000,0.000000,0.000000,4.000000,4.000000,4.000000,4.000000,4.000000,4.000000,0.000000,,,,,,,,,,,,,,,,,,,,,,,,,,,,
1732158156.472430,1732158156.475149,107.000000,0.000000,4351.025879,4287.820313,4317.563965,4306.282227,4233.717773,4262.563965,4334.871582,4402.179688,4285.128418,4287.436035,4518.717773,4539.871582,4413.846191,4502.307617,1558.000000,1.000000,21.000000,,,,0.000000,2.000000,2.000000,0.000000,4.000000,2.000000,2.000000,0.000000,0.000000,4.000000,4.000000,4.000000,4.000000,4.000000,4.000000,0.000000,,,,,,,,,,,,,,,,,,,,,,,,,,,,
1732158156.480238,1732158156.482857,108.000000,0.000000,4343.846191,4282.051270,4314.871582,4296.666504,4234.358887,4264.743652,4335.000000,4401.794922,4297.563965,4292.307617,4519.871582,4540.128418,4416.282227,4495.128418,1708.000000,1.000000,21.000000,,,,0.000000,2.000000,2.000000,0.000000,4.000000,2.000000,2.000000,0.000000,0.000000,4.000000,4.000000,4.000000,4.000000,4.000000,4.000000,0.000000,,,,,,,,,,,,,,,,,27.000000,0.000000,0.512885,0.478821,-0.534363,0.471313,0.996704,-0.028324,-0.018069,-34.732559,45.388695,31.839918
1732158156.488046,1732158156.490665,109.000000,0.000000,4344.615234,4290.256348,4313.846191,4296.538574,4236.282227,4265.128418,4335.000000,4404.230957,4296.410156,4295.256348,4520.769043,4540.128418,4416.153809,4494.358887,1594.000000,1.000000,21.000000,,,,0.000000,2.000000,2.000000,0.000000,4.000000,2.000000,2.000000,0.000000,0.000000,4.000000,4.000000,4.000000,4.000000,4.000000,4.000000,0.000000,,,,,,,,,,,,,,,,,,,,,,,,,,,,
1732158156.495855,1732158156.498673,110.000000,0.000000,4346.410156,4295.897461,4316.153809,4301.538574,4235.512695,4263.846191,4335.000000,4404.102539,4292.820313,4292.436035,4518.846191,4537.179688,4412.948730,4492.563965,1553.000000,1.000000,21.000000,,,,0.000000,2.000000,2.000000,0.000000,4.000000,2.000000,2.000000,0.000000,0.000000,4.000000,4.000000,4.000000,4.000000,4.000000,4.000000,0.000000,,,,,,,,,,,,,,,,,,,,,,,,,,,,
1732158156.503663,1732158156.506481,111.000000,0.000000,4342.692383,4294.230957,4316.794922,4296.666504,4233.205078,4263.717773,4335.000000,4403.077148,4295.641113,4292.563965,4519.358887,4534.615234,4412.436035,4488.589844,1558.000000,1.000000,21.000000,,,,0.000000,2.000000,2.000000,0.000000,4.000000,2.000000,2.000000,0.000000,0.000000,4.000000,4.000000,4.000000,4.000000,4.000000,4.000000,0.000000,,,,,,,,,,,,,,,,,,,,,,,,,,,,
1732158156.511471,1732158156.514190,112.000000,0.000000,4340.256348,4294.102539,4315.641113,4295.384766,4235.769043,4265.000000,4335.000000,4405.000000,4295.769043,4295.897461,4520.769043,4535.384766,4413.205078,4489.102539,1708.000000,1.000000,21.000000,,,,0.000000,2.000000,2.000000,0.000000,4.000000,2.000000,2.000000,0.000000,0.000000,4.000000,4.000000,4.000000,4.000000,4.000000,4.000000,0.000000,,,,,,,,,,,,,,,,,28.000000,0.000000,0.513019,0.478027,-0.534729,0.471558,0.992309,-0.028324,-0.032230,-34.741707,45.544842,31.698668
1732158156.519279,1732158156.521998,113.000000,0.000000,4340.384766,4295.128418,4315.641113,4299.230957,4238.846191,4266.025879,4335.128418,4404.871582,4295.769043,4295.641113,4519.487305,4535.897461,4414.102539,4491.025879,1594.000000,1.000000,21.000000,,,,0.000000,2.000000,2.000000,0.000000,4.000000,2.000000,2.000000,0.000000,0.000000,4.000000,4.000000,4.000000,4.000000,4.000000,4.000000,0.000000,,,,,,,,,,,,,,,,,,,,,,,,,,,,
1732158156.527088,1732158156.529606,114.000000,0.000000,4341.153809,4294.871582,4316.666504,4301.538574,4235.000000,4265.897461,4334.615234,4400.897461,4297.820313,4296.410156,4518.846191,4536.025879,4415.512695,4490.769043,1553.000000,1.000000,21.000000,,,,0.000000,2.000000,2.000000,0.000000,4.000000,2.000000,2.000000,0.000000,0.000000,4.000000,4.000000,4.000000,4.000000,4.000000,4.000000,0.000000,,,,,,,,,,,,,,,,,,,,,,,,,,,,
1732158156.534896,1732158156.537415,115.000000,0.000000,4343.205078,4298.333496,4317.436035,4304.230957,4235.769043,4267.307617,4334.743652,4401.153809,4297.820313,4299.358887,4521.025879,4538.333496,4416.025879,4491.282227,1558.000000,1.000000,21.000000,,,,0.000000,2.000000,2.000000,0.000000,4.000000,2.000000,2.000000,0.000000,0.000000,4.000000,4.000000,4.000000,4.000000,4.000000,4.000000,0.000000,,,,,,,,,,,,,,,,,,,,,,,,,,,,
1732158156.542704,1732158156.545123,116.000000,0.000000,4342.436035,4300.000000,4317.436035,4303.717773,4251.025879,4268.077148,4335.512695,4403.846191,4296.025879,4296.025879,4520.512695,4539.487305,4414.487305,4490.000000,1708.000000,1.000000,21.000000,,,,0.000000,2.000000,2.000000,0.000000,4.000000,2.000000,2.000000,0.000000,0.000000,4.000000,4.000000,4.000000,4.000000,4.000000,4.000000,0.000000,,,,,,,,,,,,,,,,,29.000000,0.000000,0.512933,0.477356,-0.535034,0.471985,0.982053,-0.013674,-0.029300,-34.899117,45.687988,31.567587
1732158156.550512,1732158156.552931,117.000000,0.000000,4343.717773,4295.897461,4315.769043,4303.077148,4255.384766,4261.282227,4333.461426,4401.794922,4294.871582,4291.666504,4517.307617,4537.692383,4412.436035,4487.563965,1594.000000,1.000000,21.000000,,,,0.000000,2.000000,2.000000,0.000000,4.000000,2.000000,2.000000,0.000000,0.000000,4.000000,4.000000,4.000000,4.000000,4.000000,4.000000,0.000000,,,,,,,,,,,,,,,,,,,,,,,,,,,,
1732158156.558320,1732158156.560540,118.000000,0.000000,4349.358887,4301.282227,4315.256348,4308.205078,4231.538574,4254.230957,4331.794922,4403.974121,4297.692383,4295.897461,4521.025879,4544.615234,4416.794922,4490.384766,1553.000000,1.000000,21.000000,,,,0.000000,2.000000,2.000000,0.000000,4.000000,2.000000,2.000000,0.000000,0.000000,4.000000,4.000000,4.000000,4.000000,4.000000,4.000000,0.000000,,,,,,,,,,,,,,,,,,,,,,,,,,,,
1732158156.566129,1732158156.568348,119.000000,0.000000,4346.794922,4310.512695,4316.025879,4310.256348,4216.922852,4262.051270,4335.128418,4409.102539,4299.743652,4298.974121,4527.307617,4552.436035,4420.256348,4492.692383,1558.000000,1.000000,21.000000,,,,0.000000,2.000000,2.000000,0.000000,4.000000,2.000000,2.000000,0.000000,0.000000,4.000000,4.000000,4.000000,4.000000,4.000000,4.000000,0.000000,,,,,,,,,,,,,,,,,,,,,,,,,,,,
1732158156.573937,1732158156.576056,120.000000,0.000000,4340.897461,4310.128418,4315.384766,4307.436035,4230.128418,4264.743652,4338.846191,4406.282227,4300.641113,4296.153809,4519.102539,4546.282227,4409.230957,4488.205078,1708.000000,1.000000,21.000000,,,,0.000000,2.000000,2.000000,0.000000,4.000000,2.000000,2.000000,0.000000,0.000000,4.000000,4.000000,4.000000,4.000000,4.000000,4.000000,0.000000,,,,,,,,,,,,,,,,,30.000000,0.000000,0.512771,0.477417,-0.534973,0.472168,0.976193,0.006348,-0.028324,-34.944950,45.892269,31.408079
1732158156.581745,1732158156.583864,121.000000,0.000000,4345.384766,4311.153809,4316.538574,4311.153809,4237.820313,4254.102539,4338.461426,4400.384766,4308.077148,4301.666504,4518.974121,4543.974121,4406.025879,4487.692383,1594.000000,1.000000,21.000000,,,,0.000000,2.000000,2.000000,0.000000,4.000000,2.000000,2.000000,0.000000,0.000000,4.000000,4.000000,4.000000,4.000000,4.000000,4.000000,0.000000,,,,,,,,,,,,,,,,,,,,,,,,,,,,
1732158156.589553,1732158156.591473,122.000000,0.000000,4352.051270,4318.333496,4318.974121,4317.051270,4231.922852,4252.820313,4337.820313,4400.512695,4306.794922,4302.436035,4533.461426,4555.256348,4419.743652,4494.358887,1553.000000,1.000000,21.000000,,,,0.000000,2.000000,2.000000,0.000000,4.000000,2.000000,2.000000,0.000000,0.000000,4.000000,4.000000,4.000000,4.000000,4.000000,4.000000,0.000000,,,,,,,,,,,,,,,,,,,,,,,,,,,,
1732158156.597362,1732158156.599281,123.000000,0.000000,4354.102539,4325.256348,4319.230957,4319.358887,4231.666504,4260.128418,4338.461426,4403.974121,4294.743652,4294.358887,4529.743652,4556.794922,4423.333496,4497.307617,1558.000000,1.000000,21.000000,,,,0.000000,2.000000,2.000000,0.000000,4.000000,2.000000,2.000000,0.000000,0.000000,4.000000,4.000000,4.000000,4.000000,4.000000,4.000000,0.000000,,,,,,,,,,,,,,,,,,,,,,,,,,,,
1732158156.605170,1732158156.606989,124.000000,0.000000,4350.769043,4327.948730,4318.717773,4321.153809,4235.641113,4261.666504,4338.333496,4404.102539,4296.666504,4298.077148,4522.948730,4548.846191,4419.358887,4492.051270,1708.000000,1.000000,21.000000,,,,0.000000,2.000000,2.000000,0.000000,4.000000,2.000000,2.000000,0.000000,0.000000,4.000000,4.000000,4.000000,4.000000,4.000000,4.000000,0.000000,,,,,,,,,,,,,,,,,31.000000,0.000000,0.512983,0.477234,-0.535095,0.471985,0.977658,-0.026859,-0.022464,-35.130409,45.819405,31.465544
1732158156.612978,1732158156.614797,125.000000,0.000000,4344.743652,4322.948730,4318.333496,4314.871582,4235.897461,4258.846191,4338.205078,4400.769043,4304.487305,4302.436035,4535.128418,4551.410156,4421.410156,4488.333496,1594.000000,1.000000,21.000000,,,,0.000000,2.000000,2.000000,0.000000,4.000000,2.000000,2.000000,0.000000,0.000000,4.000000,4.000000,4.000000,4.000000,4.000000,4.000000,0.000000,,,,,,,,,,,,,,,,,,,,,,,,,,,,
1732158156.620787,1732158156.622406,126.000000,0.000000,4343.205078,4321.410156,4317.563965,4305.897461,4232.820313,4260.128418,4338.205078,4399.743652,4297.436035,4292.692383,4534.230957,4551.666504,4418.846191,4490.000000,1553.000000,1.000000,21.000000,,,,0.000000,2.000000,2.000000,0.000000,4.000000,2.000000,2.000000,0.000000,0.000000,4.000000,4.000000,4.000000,4.000000,4.000000,4.000000,0.000000,,,,,,,,,,,,,,,,,,,,,,,,,,,,
1732158156.628595,1732158156.630214,127.000000,0.000000,4340.384766,4331.538574,4318.333496,4304.102539,4233.205078,4263.846191,4338.205078,4404.487305,4292.307617,4288.461426,4516.410156,4541.153809,4411.922852,4484.871582,21.000000,1.000000,21.000000,,,,0.000000,2.000000,2.000000,0.000000,4.000000,2.000000,2.000000,0.000000,0.000000,4.000000,4.000000,4.000000,4.000000,4.000000,4.000000,0.000000,,,,,,,,,,,,,,,,,,,,,,,,,,,,
1732158156.636403,1732158156.637922,0.000000,0.000000,4333.846191,4339.871582,4317.436035,4306.922852,4237.948730,4266.794922,4338.205078,4404.230957,4301.410156,4296.282227,4516.794922,4537.948730,4414.230957,4475.641113,0.000000,1.000000,21.000000,,,,0.000000,2.000000,2.000000,0.000000,4.000000,2.000000,2.000000,0.000000,0.000000,4.000000,4.000000,4.000000,4.000000,4.000000,4.000000,0.000000,,,,,,,,,,,,,,,,,0.000000,0.000000,0.512673,0.477051,-0.535339,0.472229,0.983030,-0.020022,-0.020510,-35.168964,45.790386,31.370424
1732158156.644211,1732158156.645731,1.000000,0.000000,4332.820313,4340.000000,4317.307617,4310.128418,4233.846191,4267.820313,4338.205078,4399.102539,4302.307617,4290.897461,4520.641113,4540.897461,4412.179688,4474.102539,1619.000000,1.000000,21.000000,,,,0.000000,2.000000,2.000000,0.000000,4.000000,2.000000,2.000000,0.000000,0.000000,4.000000,4.000000,4.000000,4.000000,4.000000,4.000000,0.000000,,,,,,,,,,,,,,,,,,,,,,,,,,,,
1732158156.652019,1732158156.653739,2.000000,0.000000,4334.230957,4343.846191,4317.179688,4312.948730,4238.461426,4266.410156,4338.333496,4402.692383,4295.641113,4280.512695,4514.615234,4538.846191,4408.974121,4475.769043,1362.000000,1.000000,21.000000,,,,0.000000,2.000000,2.000000,0.000000,4.000000,2.000000,2.000000,0.000000,0.000000,4.000000,4.000000,4.000000,4.000000,4.000000,4.000000,0.000000,,,,,,,,,,,,,,,,,,,,,,,,,,,,
1732158156.659828,1732158156.661547,3.000000,0.000000,4334.487305,4351.666504,4316.538574,4317.563965,4251.153809,4265.128418,4338.461426,4406.922852,4300.000000,4292.436035,4518.589844,4536.410156,4416.922852,4475.512695,1421.000000,1.000000,21.000000,,,,0.000000,2.000000,2.000000,0.000000,4.000000,2.000000,2.000000,0.000000,0.000000,4.000000,4.000000,4.000000,4.000000,4.000000,4.000000,0.000000,,,,,,,,,,,,,,,,,,,,,,,,,,,,
1732158156.667636,1732158156.669455,4.000000,0.000000,4338.589844,4353.333496,4319.487305,4323.589844,4241.025879,4265.897461,4337.692383,4401.153809,4311.153809,4311.410156,4526.410156,4540.512695,4418.974121,4478.077148,1442.000000,1.000000,21.000000,,,,0.000000,2.000000,2.000000,0.000000,4.000000,2.000000,2.000000,0.000000,0.000000,4.000000,4.000000,4.000000,4.000000,4.000000,4.000000,0.000000,,,,,,,,,,,,,,,,,1.000000,0.000000,0.512468,0.476990,-0.535645,0.472168,0.984495,-0.014650,-0.025882,-35.133530,45.750214,31.610043
1732158156.675444,1732158156.677263,5.000000,0.000000,4340.641113,4350.897461,4322.436035,4324.230957,4223.717773,4270.384766,4338.589844,4398.717773,4310.000000,4309.358887,4525.641113,4542.563965,4414.358887,4477.563965,1177.000000,1.000000,21.000000,,,,0.000000,2.000000,2.000000,0.000000,4.000000,2.000000,2.000000,0.000000,0.000000,4.000000,4.000000,4.000000,4.000000,4.000000,4.000000,0.000000,,,,,,,,,,,,,,,,,,,,,,,,,,,,
1732158156.683252,1732158156.685271,6.000000,0.000000,4334.487305,4351.410156,4319.743652,4320.897461,4229.871582,4269.358887,4338.717773,4401.922852,4295.769043,4293.333496,4515.641113,4533.461426,4413.461426,4467.307617,0.000000,1.000000,21.000000,,,,0.000000,2.000000,2.000000,0.000000,4.000000,2.000000,2.000000,0.000000,0.000000,4.000000,4.000000,4.000000,4.000000,4.000000,4.000000,0.000000,,,,,,,,,,,,,,,,,,,,,,,,,,,,
1732158156.691061,1732158156.693079,7.000000,0.000000,4333.461426,4356.282227,4319.615234,4319.230957,4237.692383,4264.743652,4335.256348,4401.153809,4291.025879,4291.410156,4507.948730,4528.589844,4414.871582,4464.102539,0.000000,1.000000,21.000000,,,,0.000000,2.000000,2.000000,0.000000,4.000000,2.000000,2.000000,0.000000,0.000000,4.000000,4.000000,4.000000,4.000000,4.000000,4.000000,0.000000,,,,,,,,,,,,,,,,,,,,,,,,,,,,
1732158156.698869,1732158156.700788,8.000000,0.000000,4338.333496,4355.641113,4322.307617,4317.820313,4231.794922,4267.051270,4333.077148,4402.307617,4298.205078,4298.589844,4510.512695,4533.333496,4409.230957,4465.512695,1521.000000,1.000000,21.000000,,,,0.000000,2.000000,2.000000,0.000000,4.000000,2.000000,2.000000,0.000000,0.000000,4.000000,4.000000,4.000000,4.000000,4.000000,4.000000,0.000000,,,,,,,,,,,,,,,,,2.000000,0.000000,0.512438,0.476868,-0.535889,0.472046,0.984495,-0.014650,-0.025882,-35.551491,45.702671,31.715801
1732158156.706677,1732158156.708596,9.000000,0.000000,4334.102539,4349.358887,4319.615234,4314.487305,4235.256348,4274.871582,4335.512695,4403.717773,4299.358887,4293.846191,4505.897461,4530.897461,4399.230957,4456.153809,1691.000000,1.000000,21.000000,,,,0.000000,2.000000,2.000000,0.000000,4.000000,2.000000,2.000000,0.000000,0.000000,4.000000,4.000000,4.000000,4.000000,4.000000,4.000000,0.000000,,,,,,,,,,,,,,,,,,,,,,,,,,,,
1732158156.714486,1732158156.716204,10.000000,0.000000,4324.358887,4347.307617,4317.179688,4312.820313,4246.025879,4281.153809,4336.538574,4401.538574,4293.589844,4280.769043,4493.461426,4522.179688,4393.461426,4449.358887,1554.000000,1.000000,21.000000,,,,0.000000,2.000000,2.000000,0.000000,4.000000,2.000000,2.000000,0.000000,0.000000,4.000000,4.000000,4.000000,4.000000,4.000000,4.000000,0.000000,,,,,,,,,,,,,,,,,,,,,,,,,,,,
1732158156.722294,1732158156.724012,11.000000,0.000000,4326.794922,4348.589844,4320.128418,4316.153809,4250.128418,4280.641113,4336.025879,4401.410156,4293.589844,4281.794922,4497.179688,4523.077148,4395.641113,4457.051270,1558.000000,1.000000,21.000000,,,,0.000000,2.000000,2.000000,0.000000,4.000000,2.000000,2.000000,0.000000,0.000000,4.000000,4.000000,4.000000,4.000000,4.000000,4.000000,0.000000,,,,,,,,,,,,,,,,,,,,,,,,,,,,
1732158156.730102,1732158156.731921,12.000000,0.000000,4333.333496,4347.820313,4322.307617,4315.384766,4248.589844,4277.692383,4334.743652,4402.436035,4296.794922,4293.717773,4507.948730,4526.282227,4398.077148,4463.974121,1708.000000,1.000000,21.000000,,,,0.000000,2.000000,2.000000,0.000000,4.000000,2.000000,2.000000,0.000000,0.000000,4.000000,4.000000,4.000000,4.000000,4.000000,4.000000,0.000000,,,,,,,,,,,,,,,,,3.000000,0.000000,0.511344,0.477356,-0.536499,0.472046,0.992309,-0.009767,-0.031254,-35.475040,45.655830,31.488132
1732158156.737910,1732158156.739729,13.000000,0.000000,4329.743652,4340.256348,4319.871582,4307.179688,4246.794922,4280.000000,4333.846191,4401.025879,4300.128418,4298.589844,4504.871582,4524.358887,4390.512695,4459.230957,1596.000000,1.000000,21.000000,,,,0.000000,2.000000,2.000000,0.000000,4.000000,2.000000,2.000000,0.000000,0.000000,4.000000,4.000000,4.000000,4.000000,4.000000,4.000000,0.000000,,,,,,,,,,,,,,,,,,,,,,,,,,,,
1732158156.745718,1732158156.747737,14.000000,0.000000,4325.512695,4334.871582,4318.333496,4309.358887,4249.743652,4280.256348,4335.256348,4402.692383,4303.974121,4297.436035,4501.410156,4525.769043,4387.307617,4456.282227,1554.000000,1.000000,21.000000,,,,0.000000,2.000000,2.000000,0.000000,4.000000,2.000000,2.000000,0.000000,0.000000,4.000000,4.000000,4.000000,4.000000,4.000000,4.000000,0.000000,1.000000,0.000000,2.000000,2.000000,0.000000,4.000000,2.000000,2.000000,0.000000,0.000000,4.000000,4.000000,4.000000,4.000000,4.000000,4.000000,,,,,,,,,,,,
1732158156.753527,1732158156.755545,15.000000,0.000000,4328.717773,4339.358887,4319.358887,4323.077148,4250.256348,4279.102539,4333.846191,4403.974121,4301.538574,4296.282227,4504.102539,4527.948730,4388.846191,4459.487305,1558.000000,1.000000,21.000000,,,,0.000000,2.000000,2.000000,0.000000,4.000000,2.000000,2.000000,0.000000,0.000000,4.000000,4.000000,4.000000,4.000000,4.000000,4.000000,0.000000,,,,,,,,,,,,,,,,,,,,,,,,,,,,
1732158156.761335,1732158156.763453,16.000000,0.000000,4329.487305,4339.102539,4322.307617,4323.333496,4248.333496,4282.307617,4331.538574,4399.615234,4303.333496,4298.846191,4506.410156,4531.282227,4386.282227,4462.692383,0.000000,1.000000,21.000000,,,,0.000000,2.000000,2.000000,0.000000,4.000000,2.000000,2.000000,0.000000,0.000000,4.000000,4.000000,4.000000,4.000000,4.000000,4.000000,0.000000,,,,,,,,,,,,,,,,,4.000000,0.000000,0.510814,0.477478,-0.537109,0.471802,0.973263,-0.008790,-0.026859,-35.419785,45.802891,31.413721
1732158156.769143,1732158156.771261,17.000000,0.000000,4327.179688,4332.436035,4321.282227,4318.974121,4253.205078,4281.794922,4334.358887,4397.820313,4308.589844,4299.615234,4504.358887,4533.846191,4383.077148,4462.051270,0.000000,1.000000,21.000000,,,,0.000000,2.000000,2.000000,0.000000,4.000000,2.000000,2.000000,0.000000,0.000000,4.000000,4.000000,4.000000,4.000000,4.000000,4.000000,0.000000,,,,,,,,,,,,,,,,,,,,,,,,,,,,
1732158156.776951,1732158156.779269,18.000000,0.000000,4325.512695,4332.563965,4317.179688,4325.641113,4261.025879,4281.922852,4336.794922,4402.179688,4303.974121,4291.025879,4495.256348,4532.563965,4379.358887,4453.717773,0.000000,1.000000,21.000000,,,,0.000000,2.000000,2.000000,0.000000,4.000000,2.000000,2.000000,0.000000,0.000000,4.000000,4.000000,4.000000,4.000000,4.000000,4.000000,0.000000,,,,,,,,,,,,,,,,,,,,,,,,,,,,
1732158156.784760,1732158156.787077,19.000000,0.000000,4322.692383,4335.769043,4317.051270,4323.205078,4263.461426,4286.025879,4336.025879,4403.077148,4304.102539,4287.692383,4490.641113,4529.358887,4376.282227,4446.025879,0.000000,1.000000,21.000000,,,,0.000000,2.000000,2.000000,0.000000,4.000000,2.000000,2.000000,0.000000,0.000000,4.000000,4.000000,4.000000,4.000000,4.000000,4.000000,0.000000,,,,,,,,,,,,,,,,,,,,,,,,,,,,
1732158156.792568,1732158156.794986,20.000000,0.000000,4326.025879,4333.461426,4321.922852,4315.128418,4262.436035,4284.358887,4335.897461,4401.153809,4309.230957,4295.128418,4495.128418,4529.615234,4374.743652,4445.769043,0.000000,1.000000,21.000000,,,,0.000000,2.000000,2.000000,0.000000,4.000000,2.000000,2.000000,0.000000,0.000000,4.000000,4.000000,4.000000,4.000000,4.000000,4.000000,0.000000,,,,,,,,,,,,,,,,,5.000000,0.000000,0.510700,0.477661,-0.537109,0.471741,0.981077,-0.023929,-0.032230,-35.473358,45.777008,31.358448
1732158156.800376,1732158156.802794,21.000000,0.000000,4328.717773,4329.871582,4322.692383,4322.307617,4263.589844,4278.846191,4336.025879,4401.538574,4302.436035,4296.922852,4493.205078,4528.333496,4371.153809,4447.307617,0.000000,1.000000,21.000000,,,,0.000000,2.000000,2.000000,0.000000,4.000000,2.000000,2.000000,0.000000,0.000000,4.000000,4.000000,4.000000,4.000000,4.000000,4.000000,0.000000,,,,,,,,,,,,,,,,,,,,,,,,,,,,
1732158156.808185,1732158156.810802,22.000000,0.000000,4318.077148,4324.102539,4320.512695,4323.974121,4263.461426,4280.641113,4336.153809,4401.666504,4298.974121,4294.358887,4488.589844,4526.922852,4363.333496,4445.000000,0.000000,1.000000,21.000000,,,,0.000000,2.000000,2.000000,0.000000,4.000000,2.000000,2.000000,0.000000,0.000000,4.000000,4.000000,4.000000,4.000000,4.000000,4.000000,0.000000,,,,,,,,,,,,,,,,,,,,,,,,,,,,
1732158156.815993,1732158156.818610,23.000000,0.000000,4312.436035,4322.563965,4322.563965,4318.333496,4262.179688,4283.717773,4337.051270,4401.025879,4304.487305,4293.974121,4489.615234,4528.205078,4362.307617,4442.820313,0.000000,1.000000,21.000000,,,,0.000000,2.000000,2.000000,0.000000,4.000000,2.000000,2.000000,0.000000,0.000000,4.000000,4.000000,4.000000,4.000000,4.000000,4.000000,0.000000,,,,,,,,,,,,,,,,,,,,,,,,,,,,
1732158156.823801,1732158156.826518,24.000000,0.000000,4322.563965,4329.871582,4323.205078,4327.692383,4261.538574,4277.436035,4334.871582,4400.769043,4300.000000,4288.717773,4489.743652,4527.563965,4365.512695,4444.230957,0.000000,1.000000,21.000000,,,,0.000000,2.000000,2.000000,0.000000,4.000000,2.000000,2.000000,0.000000,0.000000,4.000000,4.000000,4.000000,4.000000,4.000000,4.000000,0.000000,,,,,,,,,,,,,,,,,6.000000,0.000000,0.510650,0.477722,-0.537048,0.471802,0.978635,-0.028812,-0.043462,-35.446754,45.851044,31.575342
1732158156.831609,1732158156.834326,25.000000,0.000000,4330.000000,4329.358887,4319.230957,4335.897461,4260.000000,4272.307617,4333.974121,4401.025879,4293.333496,4288.717773,4488.589844,4527.563965,4363.846191,4445.512695,0.000000,1.000000,21.000000,,,,0.000000,2.000000,2.000000,0.000000,4.000000,2.000000,2.000000,0.000000,0.000000,4.000000,4.000000,4.000000,4.000000,4.000000,4.000000,0.000000,,,,,,,,,,,,,,,,,,,,,,,,,,,,
1732158156.839418,1732158156.842334,26.000000,0.000000,4323.589844,4322.307617,4317.692383,4327.820313,4260.128418,4274.871582,4336.282227,4402.051270,4299.230957,4292.692383,4489.230957,4529.102539,4357.692383,4444.871582,0.000000,1.000000,21.000000,,,,0.000000,2.000000,2.000000,0.000000,4.000000,2.000000,2.000000,0.000000,0.000000,4.000000,4.000000,4.000000,4.000000,4.000000,4.000000,0.000000,,,,,,,,,,,,,,,,,,,,,,,,,,,,
1732158156.847226,1732158156.850143,27.000000,0.000000,4318.077148,4325.641113,4323.077148,4321.410156,4261.410156,4279.615234,4336.025879,4403.205078,4306.794922,4288.974121,4487.820313,4527.307617,4350.641113,4442.820313,0.000000,1.000000,21.000000,,,,0.000000,2.000000,2.000000,0.000000,4.000000,2.000000,2.000000,0.000000,0.000000,4.000000,4.000000,4.000000,4.000000,4.000000,4.000000,0.000000,,,,,,,,,,,,,,,,,,,,,,,,,,,,
1732158156.855034,1732158156.858051,28.000000,0.000000,4323.077148,4328.974121,4325.256348,4322.820313,4262.692383,4279.487305,4334.487305,4402.051270,4308.974121,4288.205078,4486.666504,4525.769043,4348.974121,4441.666504,0.000000,1.000000,21.000000,,,,0.000000,2.000000,2.000000,0.000000,4.000000,2.000000,2.000000,0.000000,0.000000,4.000000,4.000000,4.000000,4.000000,4.000000,4.000000,0.000000,,,,,,,,,,,,,,,,,7.000000,0.000000,0.510613,0.477539,-0.537354,0.471680,0.977170,-0.011720,-0.027835,-35.456871,45.709343,31.649361
1732158156.862842,1732158156.865859,29.000000,0.000000,4328.205078,4320.897461,4323.846191,4321.538574,4264.615234,4278.077148,4334.615234,4400.897461,4302.563965,4293.205078,4489.102539,4532.820313,4352.563965,4444.230957,0.000000,1.000000,21.000000,,,,0.000000,2.000000,2.000000,0.000000,4.000000,2.000000,2.000000,0.000000,0.000000,4.000000,4.000000,4.000000,4.000000,4.000000,4.000000,0.000000,,,,,,,,,,,,,,,,,,,,,,,,,,,,
1732158156.870650,1732158156.873867,30.000000,0.000000,4324.871582,4322.051270,4323.717773,4324.358887,4264.743652,4280.128418,4335.128418,4400.512695,4295.000000,4292.051270,4491.153809,4536.025879,4350.641113,4445.769043,0.000000,1.000000,21.000000,,,,0.000000,2.000000,2.000000,0.000000,4.000000,2.000000,2.000000,0.000000,0.000000,4.000000,4.000000,4.000000,4.000000,4.000000,4.000000,0.000000,,,,,,,,,,,,,,,,,,,,,,,,,,,,
1732158156.878459,1732158156.881675,31.000000,0.000000,4323.589844,4334.102539,4326.922852,4334.487305,4264.230957,4277.948730,4334.743652,4400.512695,4298.717773,4290.128418,4491.153809,4531.922852,4349.743652,4444.358887,0.000000,1.000000,21.000000,,,,0.000000,2.000000,2.000000,0.000000,4.000000,2.000000,2.000000,0.000000,0.000000,4.000000,4.000000,4.000000,4.000000,4.000000,4.000000,0.000000,,,,,,,,,,,,,,,,,,,,,,,,,,,,
1732158156.886267,1732158156.889383,32.000000,0.000000,4327.563965,4332.307617,4328.846191,4338.589844,4264.487305,4275.512695,4334.743652,4401.282227,4311.538574,4300.512695,4494.358887,4536.922852,4358.077148,4445.128418,0.000000,1.000000,21.000000,,,,0.000000,2.000000,2.000000,0.000000,4.000000,2.000000,2.000000,0.000000,0.000000,4.000000,4.000000,4.000000,4.000000,4.000000,4.000000,0.000000,,,,,,,,,,,,,,,,,8.000000,0.000000,0.510334,0.477417,-0.537781,0.471619,0.984007,-0.019534,-0.041021,-35.431732,45.619568,31.589315
1732158156.894075,1732158156.897192,33.000000,0.000000,4321.922852,4321.025879,4323.846191,4333.717773,4265.641113,4277.179688,4334.871582,4399.743652,4309.230957,4300.128418,4494.102539,4539.230957,4353.974121,4445.256348,0.000000,1.000000,21.000000,,,,0.000000,2.000000,2.000000,0.000000,4.000000,2.000000,2.000000,0.000000,0.000000,4.000000,4.000000,4.000000,4.000000,4.000000,4.000000,0.000000,,,,,,,,,,,,,,,,,,,,,,,,,,,,
1732158156.901883,1732158156.904800,34.000000,0.000000,4316.794922,4322.692383,4320.641113,4331.794922,4266.666504,4275.897461,4334.871582,4398.589844,4293.974121,4285.641113,4489.358887,4531.410156,4342.051270,4442.948730,0.000000,1.000000,21.000000,,,,0.000000,2.000000,2.000000,0.000000,4.000000,2.000000,2.000000,0.000000,0.000000,4.000000,4.000000,4.000000,4.000000,4.000000,4.000000,0.000000,,,,,,,,,,,,,,,,,,,,,,,,,,,,
1732158156.909692,1732158156.912608,35.000000,0.000000,4324.230957,4326.794922,4323.974121,4332.820313,4266.282227,4267.692383,4334.871582,4400.512695,4301.025879,4290.512695,4495.897461,4532.820313,4351.153809,4443.205078,0.000000,1.000000,21.000000,,,,0.000000,2.000000,2.000000,0.000000,4.000000,2.000000,2.000000,0.000000,0.000000,4.000000,4.000000,4.000000,4.000000,4.000000,4.000000,0.000000,,,,,,,,,,,,,,,,,,,,,,,,,,,,
1732158156.917500,1732158156.920317,36.000000,0.000000,4323.589844,4317.179688,4323.077148,4329.230957,4264.871582,4263.846191,4334.871582,4401.794922,4314.487305,4304.230957,4509.743652,4539.743652,4363.333496,4447.948730,0.000000,1.000000,21.000000,,,,0.000000,2.000000,2.000000,0.000000,4.000000,2.000000,2.000000,0.000000,0.000000,4.000000,4.000000,4.000000,4.000000,4.000000,4.000000,0.000000,,,,,,,,,,,,,,,,,9.000000,0.000000,0.510334,0.477417,-0.537781,0.471619,0.970333,-0.034672,-0.033696,-35.321369,45.456852,31.420679
1732158156.925308,1732158156.928125,37.000000,0.000000,4317.820313,4315.128418,4318.589844,4327.436035,4264.615234,4270.641113,4334.871582,4400.512695,4300.128418,4297.948730,4505.384766,4535.000000,4357.051270,4450.641113,0.000000,1.000000,21.000000,,,,0.000000,2.000000,2.000000,0.000000,4.000000,2.000000,2.000000,0.000000,0.000000,4.000000,4.000000,4.000000,4.000000,4.000000,4.000000,0.000000,,,,,,,,,,,,,,,,,,,,,,,,,,,,
1732158156.933117,1732158156.935733,38.000000,0.000000,4323.974121,4324.102539,4319.487305,4333.077148,4268.846191,4275.000000,4334.871582,4399.230957,4290.769043,4289.615234,4495.641113,4533.589844,4351.794922,4448.589844,0.000000,1.000000,21.000000,,,,0.000000,2.000000,2.000000,0.000000,4.000000,2.000000,2.000000,0.000000,0.000000,4.000000,4.000000,4.000000,4.000000,4.000000,4.000000,0.000000,,,,,,,,,,,,,,,,,,,,,,,,,,,,
1732158156.940925,1732158156.943541,39.000000,0.000000,4323.589844,4320.512695,4321.153809,4332.948730,4268.077148,4272.820313,4334.871582,4400.769043,4305.641113,4296.794922,4498.333496,4538.717773,4351.410156,4446.922852,0.000000,1.000000,21.000000,,,,0.000000,2.000000,2.000000,0.000000,4.000000,2.000000,2.000000,0.000000,0.000000,4.000000,4.000000,4.000000,4.000000,4.000000,4.000000,0.000000,,,,,,,,,,,,,,,,,,,,,,,,,,,,
1732158156.948733,1732158156.951449,40.000000,0.000000,4311.025879,4309.358887,4319.230957,4321.794922,4260.641113,4276.153809,4335.000000,4401.153809,4307.820313,4298.846191,4498.846191,4533.717773,4344.230957,4445.384766,0.000000,1.000000,21.000000,,,,0.000000,2.000000,2.000000,0.000000,4.000000,2.000000,2.000000,0.000000,0.000000,4.000000,4.000000,4.000000,4.000000,4.000000,4.000000,0.000000,,,,,,,,,,,,,,,,,10.000000,0.000000,0.509960,0.477112,-0.538513,0.471497,0.977658,-0.027347,-0.047369,-35.366974,45.411716,31.449083
1732158156.956541,1732158156.959258,41.000000,0.000000,4311.282227,4308.589844,4319.230957,4313.846191,4270.897461,4278.974121,4334.871582,4400.384766,4301.794922,4293.461426,4490.000000,4526.410156,4339.358887,4442.051270,0.000000,1.000000,21.000000,,,,0.000000,2.000000,2.000000,0.000000,4.000000,2.000000,2.000000,0.000000,0.000000,4.000000,4.000000,4.000000,4.000000,4.000000,4.000000,0.000000,,,,,,,,,,,,,,,,,,,,,,,,,,,,
1732158156.964349,1732158156.966866,42.000000,0.000000,4320.897461,4312.179688,4320.769043,4319.615234,4285.512695,4273.589844,4334.358887,4402.307617,4308.589844,4293.205078,4489.102539,4532.307617,4335.256348,4439.615234,0.000000,1.000000,21.000000,,,,0.000000,2.000000,2.000000,0.000000,4.000000,2.000000,2.000000,0.000000,0.000000,4.000000,4.000000,4.000000,4.000000,4.000000,4.000000,0.000000,,,,,,,,,,,,,,,,,,,,,,,,,,,,
1732158156.972158,1732158156.974674,43.000000,0.000000,4321.666504,4310.769043,4320.512695,4325.512695,4271.410156,4270.384766,4335.384766,4402.820313,4312.692383,4302.179688,4501.025879,4540.000000,4338.077148,4443.077148,0.000000,1.000000,21.000000,,,,0.000000,2.000000,2.000000,0.000000,4.000000,2.000000,2.000000,0.000000,0.000000,4.000000,4.000000,4.000000,4.000000,4.000000,4.000000,0.000000,,,,,,,,,,,,,,,,,,,,,,,,,,,,
1732158156.979966,1732158156.982383,44.000000,0.000000,4318.333496,4310.897461,4320.256348,4322.692383,4255.256348,4271.666504,4335.000000,4400.769043,4311.153809,4313.589844,4509.230957,4538.846191,4347.692383,4447.436035,0.000000,1.000000,21.000000,,,,0.000000,2.000000,2.000000,0.000000,4.000000,2.000000,2.000000,0.000000,0.000000,4.000000,4.000000,4.000000,4.000000,4.000000,4.000000,0.000000,,,,,,,,,,,,,,,,,11.000000,0.000000,0.509776,0.476929,-0.539063,0.471252,0.984495,-0.029300,-0.031742,-35.412251,45.270157,31.393757
1732158156.987774,1732158156.990191,45.000000,0.000000,4323.589844,4315.769043,4318.461426,4324.230957,4265.128418,4271.794922,4332.436035,4401.025879,4313.717773,4312.436035,4509.487305,4538.077148,4348.333496,4448.461426,0.000000,1.000000,21.000000,,,,0.000000,2.000000,2.000000,0.000000,4.000000,2.000000,2.000000,0.000000,0.000000,4.000000,4.000000,4.000000,4.000000,4.000000,4.000000,0.000000,,,,,,,,,,,,,,,,,,,,,,,,,,,,
1732158156.995582,1732158156.997799,46.000000,0.000000,4325.512695,4318.205078,4319.615234,4327.692383,4271.666504,4275.897461,4333.717773,4402.179688,4308.077148,4300.641113,4504.230957,4534.487305,4339.102539,4444.615234,0.000000,1.000000,21.000000,,,,0.000000,2.000000,2.000000,0.000000,4.000000,2.000000,2.000000,0.000000,0.000000,4.000000,4.000000,4.000000,4.000000,4.000000,4.000000,0.000000,,,,,,,,,,,,,,,,,,,,,,,,,,,,
1732158157.003391,1732158157.005607,47.000000,0.000000,4319.358887,4311.282227,4322.692383,4323.205078,4266.666504,4281.282227,4335.769043,4401.794922,4298.205078,4293.461426,4495.256348,4524.358887,4332.948730,4437.307617,0.000000,1.000000,21.000000,,,,0.000000,2.000000,2.000000,0.000000,4.000000,2.000000,2.000000,0.000000,0.000000,4.000000,4.000000,4.000000,4.000000,4.000000,4.000000,0.000000,,,,,,,,,,,,,,,,,,,,,,,,,,,,
1732158157.011199,1732158157.013516,48.000000,0.000000,4320.384766,4306.666504,4320.769043,4319.615234,4269.615234,4277.307617,4333.205078,4402.051270,4304.743652,4299.743652,4495.897461,4526.153809,4335.256348,4438.717773,0.000000,1.000000,21.000000,,,,0.000000,2.000000,2.000000,0.000000,4.000000,2.000000,2.000000,0.000000,0.000000,4.000000,4.000000,4.000000,4.000000,4.000000,4.000000,0.000000,,,,,,,,,,,,,,,,,12.000000,0.000000,0.509567,0.476868,-0.539368,0.471191,0.973752,-0.017580,-0.030277,-35.507256,45.172161,31.335609
1732158157.019007,1732158157.021324,49.000000,0.000000,4326.282227,4314.102539,4318.077148,4323.461426,4275.769043,4274.358887,4332.563965,4401.282227,4310.897461,4302.563965,4503.461426,4533.717773,4334.871582,4443.205078,0.000000,1.000000,21.000000,,,,0.000000,2.000000,2.000000,0.000000,4.000000,2.000000,2.000000,0.000000,0.000000,4.000000,4.000000,4.000000,4.000000,4.000000,4.000000,0.000000,,,,,,,,,,,,,,,,,,,,,,,,,,,,
1732158157.026816,1732158157.029332,50.000000,0.000000,4325.256348,4307.563965,4321.666504,4322.436035,4272.692383,4280.384766,4336.282227,4399.615234,4309.230957,4297.563965,4505.769043,4533.077148,4330.769043,4441.666504,0.000000,1.000000,21.000000,,,,0.000000,2.000000,2.000000,0.000000,4.000000,2.000000,2.000000,0.000000,0.000000,4.000000,4.000000,4.000000,4.000000,4.000000,4.000000,0.000000,,,,,,,,,,,,,,,,,,,,,,,,,,,,
1732158157.034624,1732158157.037140,51.000000,0.000000,4323.589844,4283.461426,4323.461426,4313.717773,4275.897461,4282.307617,4336.922852,4400.256348,4310.256348,4295.000000,4503.589844,4532.563965,4330.512695,4440.000000,0.000000,1.000000,21.000000,,,,0.000000,2.000000,2.000000,0.000000,4.000000,2.000000,2.000000,0.000000,0.000000,4.000000,4.000000,4.000000,4.000000,4.000000,4.000000,0.000000,,,,,,,,,,,,,,,,,,,,,,,,,,,,
1732158157.042432,1732158157.045048,52.000000,0.000000,4323.461426,4276.922852,4319.743652,4310.128418,4290.256348,4278.077148,4335.641113,4402.051270,4308.846191,4296.153809,4503.974121,4536.282227,4332.179688,4440.128418,0.000000,1.000000,21.000000,,,,0.000000,2.000000,2.000000,0.000000,4.000000,2.000000,2.000000,0.000000,0.000000,4.000000,4.000000,4.000000,4.000000,4.000000,4.000000,0.000000,,,,,,,,,,,,,,,,,13.000000,0.000000,0.509444,0.476990,-0.539429,0.471130,0.973752,-0.017580,-0.030277,-35.442543,45.076115,31.335178
1732158157.050240,1732158157.052856,53.000000,0.000000,4319.487305,4279.871582,4318.461426,4311.410156,4283.717773,4279.871582,4336.282227,4402.307617,4312.179688,4300.769043,4503.974121,4532.820313,4328.974121,4435.256348,0.000000,1.000000,21.000000,,,,0.000000,2.000000,2.000000,0.000000,4.000000,2.000000,2.000000,0.000000,0.000000,4.000000,4.000000,4.000000,4.000000,4.000000,4.000000,0.000000,,,,,,,,,,,,,,,,,,,,,,,,,,,,
1732158157.058048,1732158157.060864,54.000000,0.000000,4320.128418,4270.384766,4321.025879,4313.974121,4262.307617,4285.256348,4336.410156,4401.922852,4321.025879,4305.128418,4505.000000,4529.230957,4324.230957,4429.615234,0.000000,1.000000,21.000000,,,,0.000000,2.000000,2.000000,0.000000,4.000000,2.000000,2.000000,0.000000,0.000000,4.000000,4.000000,4.000000,4.000000,4.000000,4.000000,0.000000,,,,,,,,,,,,,,,,,,,,,,,,,,,,
1732158157.065857,1732158157.068672,55.000000,0.000000,4323.077148,4263.333496,4320.256348,4318.589844,4268.589844,4282.563965,4336.153809,4402.179688,4313.717773,4299.230957,4501.794922,4530.128418,4321.282227,4430.897461,0.000000,1.000000,21.000000,,,,0.000000,2.000000,2.000000,0.000000,4.000000,2.000000,2.000000,0.000000,0.000000,4.000000,4.000000,4.000000,4.000000,4.000000,4.000000,0.000000,,,,,,,,,,,,,,,,,,,,,,,,,,,,
1732158157.073665,1732158157.076581,56.000000,0.000000,4318.077148,4266.025879,4318.846191,4317.692383,4280.000000,4283.589844,4336.153809,4402.307617,4304.487305,4297.051270,4495.897461,4525.512695,4319.615234,4433.461426,0.000000,1.000000,21.000000,,,,0.000000,2.000000,2.000000,0.000000,4.000000,2.000000,2.000000,0.000000,0.000000,4.000000,4.000000,4.000000,4.000000,4.000000,4.000000,0.000000,,,,,,,,,,,,,,,,,14.000000,0.000000,0.508914,0.476501,-0.540466,0.471008,0.986449,-0.035161,-0.044927,-35.540127,45.178322,31.543161
1732158157.081473,1732158157.084389,57.000000,0.000000,4313.333496,4262.436035,4318.461426,4311.538574,4278.974121,4297.307617,4336.153809,4401.922852,4313.717773,4303.461426,4494.615234,4522.820313,4316.794922,4431.153809,0.000000,1.000000,21.000000,,,,0.000000,2.000000,2.000000,0.000000,4.000000,2.000000,2.000000,0.000000,0.000000,4.000000,4.000000,4.000000,4.000000,4.000000,4.000000,0.000000,,,,,,,,,,,,,,,,,,,,,,,,,,,,
1732158157.089281,1732158157.092397,58.000000,0.000000,4314.358887,4259.743652,4317.307617,4312.307617,4295.384766,4297.051270,4336.153809,4401.794922,4306.153809,4289.358887,4489.743652,4521.025879,4310.512695,4426.794922,0.000000,1.000000,21.000000,,,,0.000000,2.000000,2.000000,0.000000,4.000000,2.000000,2.000000,0.000000,0.000000,4.000000,4.000000,4.000000,4.000000,4.000000,4.000000,0.000000,,,,,,,,,,,,,,,,,,,,,,,,,,,,
1732158157.097090,1732158157.100205,59.000000,0.000000,4315.128418,4265.256348,4318.846191,4317.948730,4294.487305,4285.769043,4336.153809,4403.205078,4292.307617,4277.179688,4487.436035,4521.666504,4309.743652,4430.000000,0.000000,1.000000,21.000000,,,,0.000000,2.000000,2.000000,0.000000,4.000000,2.000000,2.000000,0.000000,0.000000,4.000000,4.000000,4.000000,4.000000,4.000000,4.000000,0.000000,,,,,,,,,,,,,,,,,,,,,,,,,,,,
1732158157.104898,1732158157.108113,60.000000,0.000000,4312.436035,4260.384766,4320.128418,4312.307617,4269.358887,4290.512695,4336.153809,4403.077148,4304.358887,4290.769043,4491.538574,4526.153809,4313.974121,4433.077148,0.000000,1.000000,21.000000,,,,0.000000,2.000000,2.000000,0.000000,4.000000,2.000000,2.000000,0.000000,0.000000,4.000000,4.000000,4.000000,4.000000,4.000000,4.000000,0.000000,,,,,,,,,,,,,,,,,15.000000,0.000000,0.508444,0.476624,-0.540588,0.471252,0.994750,-0.040044,-0.039556,-35.469170,45.027775,31.611628
1732158157.112706,1732158157.115921,61.000000,0.000000,4311.922852,4248.846191,4319.230957,4302.307617,4278.974121,4296.794922,4336.153809,4401.282227,4309.615234,4293.974121,4490.128418,4524.487305,4308.717773,4427.179688,0.000000,1.000000,21.000000,,,,0.000000,2.000000,2.000000,0.000000,4.000000,2.000000,2.000000,0.000000,0.000000,4.000000,4.000000,4.000000,4.000000,4.000000,4.000000,0.000000,,,,,,,,,,,,,,,,,,,,,,,,,,,,
1732158157.120515,1732158157.123929,62.000000,0.000000,4309.743652,4249.615234,4318.077148,4300.128418,4290.128418,4293.333496,4336.153809,4402.051270,4305.641113,4291.410156,4487.179688,4521.538574,4306.153809,4425.512695,0.000000,1.000000,21.000000,,,,0.000000,2.000000,2.000000,0.000000,4.000000,2.000000,2.000000,0.000000,0.000000,4.000000,4.000000,4.000000,4.000000,4.000000,4.000000,0.000000,,,,,,,,,,,,,,,,,,,,,,,,,,,,
1732158157.128323,1732158157.131738,63.000000,0.000000,4301.794922,4255.512695,4318.589844,4301.794922,4268.589844,4296.153809,4336.153809,4405.641113,4311.922852,4299.230957,4490.384766,4527.436035,4312.179688,4427.051270,0.000000,1.000000,21.000000,,,,0.000000,2.000000,2.000000,0.000000,4.000000,2.000000,2.000000,0.000000,0.000000,4.000000,4.000000,4.000000,4.000000,4.000000,4.000000,0.000000,,,,,,,,,,,,,,,,,,,,,,,,,,,,
1732158157.136131,1732158157.139646,64.000000,0.000000,4298.589844,4250.512695,4319.230957,4302.179688,4267.179688,4300.769043,4336.153809,4405.512695,4314.230957,4301.153809,4490.769043,4531.282227,4311.282227,4421.153809,0.000000,1.000000,21.000000,,,,0.000000,2.000000,2.000000,0.000000,4.000000,2.000000,2.000000,0.000000,0.000000,4.000000,4.000000,4.000000,4.000000,4.000000,4.000000,0.000000,,,,,,,,,,,,,,,,,16.000000,0.000000,0.508258,0.476563,-0.540710,0.471375,0.994750,-0.040044,-0.039556,-35.310028,44.927498,31.505417
1732158157.143939,1732158157.147454,65.000000,0.000000,4298.589844,4240.384766,4318.717773,4299.615234,4284.615234,4299.743652,4336.153809,4403.589844,4310.000000,4297.692383,4487.436035,4523.461426,4307.563965,4412.307617,1618.000000,1.000000,21.000000,,,,0.000000,2.000000,2.000000,0.000000,4.000000,2.000000,2.000000,0.000000,0.000000,4.000000,4.000000,4.000000,4.000000,4.000000,4.000000,0.000000,,,,,,,,,,,,,,,,,,,,,,,,,,,,
1732158157.151748,1732158157.155462,66.000000,0.000000,4297.563965,4248.589844,4317.820313,4297.436035,4282.179688,4299.487305,4336.153809,4403.846191,4312.820313,4300.512695,4488.589844,4520.256348,4311.922852,4412.307617,1362.000000,1.000000,21.000000,,,,0.000000,2.000000,2.000000,0.000000,4.000000,2.000000,2.000000,0.000000,0.000000,4.000000,4.000000,4.000000,4.000000,4.000000,4.000000,0.000000,,,,,,,,,,,,,,,,,,,,,,,,,,,,
1732158157.159556,1732158157.163270,67.000000,0.000000,4301.153809,4249.358887,4320.769043,4300.256348,4278.077148,4294.871582,4336.153809,4404.230957,4313.717773,4298.846191,4491.153809,4524.230957,4316.410156,4419.358887,1436.000000,1.000000,21.000000,,,,0.000000,2.000000,2.000000,0.000000,4.000000,2.000000,2.000000,0.000000,0.000000,4.000000,4.000000,4.000000,4.000000,4.000000,4.000000,0.000000,,,,,,,,,,,,,,,,,,,,,,,,,,,,
1732158157.167364,1732158157.171178,68.000000,0.000000,4305.897461,4210.512695,4321.922852,4303.333496,4288.589844,4294.358887,4336.153809,4402.820313,4311.153809,4295.897461,4490.384766,4519.358887,4312.307617,4420.256348,1436.000000,1.000000,21.000000,,,,0.000000,2.000000,2.000000,0.000000,4.000000,2.000000,2.000000,0.000000,0.000000,4.000000,4.000000,4.000000,4.000000,4.000000,4.000000,0.000000,,,,,,,,,,,,,,,,,17.000000,0.000000,0.506866,0.477173,-0.540894,0.472046,0.978635,-0.028324,-0.039067,-35.369457,45.027939,31.309389
1732158157.175172,1732158157.178986,69.000000,0.000000,4304.102539,4176.153809,4318.717773,4301.153809,4306.153809,4305.128418,4336.153809,4400.384766,4312.820313,4298.077148,4483.589844,4512.436035,4308.333496,4415.000000,1172.000000,1.000000,21.000000,,,,0.000000,2.000000,2.000000,0.000000,4.000000,2.000000,2.000000,0.000000,0.000000,4.000000,4.000000,4.000000,4.000000,4.000000,4.000000,0.000000,,,,,,,,,,,,,,,,,,,,,,,,,,,,
1732158157.182980,1732158157.186994,70.000000,0.000000,4303.333496,4180.897461,4316.922852,4300.128418,4307.307617,4305.769043,4336.153809,4400.256348,4310.256348,4295.384766,4481.025879,4510.641113,4311.666504,4415.128418,0.000000,1.000000,21.000000,,,,0.000000,2.000000,2.000000,0.000000,4.000000,2.000000,2.000000,0.000000,0.000000,4.000000,4.000000,4.000000,4.000000,4.000000,4.000000,0.000000,,,,,,,,,,,,,,,,,,,,,,,,,,,,
1732158157.190789,1732158157.194803,71.000000,0.000000,4304.871582,4187.948730,4317.436035,4301.025879,4283.717773,4301.153809,4336.153809,4401.282227,4306.922852,4293.846191,4486.025879,4513.077148,4312.436035,4418.974121,0.000000,1.000000,21.000000,,,,0.000000,2.000000,2.000000,0.000000,4.000000,2.000000,2.000000,0.000000,0.000000,4.000000,4.000000,4.000000,4.000000,4.000000,4.000000,0.000000,,,,,,,,,,,,,,,,,,,,,,,,,,,,
1732158157.198597,1732158157.202711,72.000000,0.000000,4299.487305,4179.871582,4317.307617,4303.205078,4271.794922,4303.717773,4336.153809,4399.871582,4304.102539,4296.410156,4489.358887,4516.410156,4307.692383,4417.436035,1528.000000,1.000000,21.000000,,,,0.000000,2.000000,2.000000,0.000000,4.000000,2.000000,2.000000,0.000000,0.000000,4.000000,4.000000,4.000000,4.000000,4.000000,4.000000,0.000000,,,,,,,,,,,,,,,,,18.000000,0.000000,0.506293,0.477539,-0.540894,0.472290,0.977170,-0.027347,-0.042974,-35.534260,45.042629,31.283937
1732158157.206405,1732158157.210519,73.000000,0.000000,4296.410156,4183.589844,4317.948730,4308.461426,4295.000000,4304.487305,4336.153809,4398.846191,4295.769043,4294.743652,4488.589844,4518.974121,4306.922852,4415.000000,1701.000000,1.000000,21.000000,,,,0.000000,2.000000,2.000000,0.000000,4.000000,2.000000,2.000000,0.000000,0.000000,4.000000,4.000000,4.000000,4.000000,4.000000,4.000000,0.000000,,,,,,,,,,,,,,,,,,,,,,,,,,,,
1732158157.214213,1732158157.218527,74.000000,0.000000,4298.205078,4190.128418,4318.461426,4305.897461,4312.692383,4305.128418,4336.153809,4400.897461,4295.384766,4292.563965,4484.743652,4517.307617,4309.358887,4415.128418,1559.000000,1.000000,21.000000,,,,0.000000,2.000000,2.000000,0.000000,4.000000,2.000000,2.000000,0.000000,0.000000,4.000000,4.000000,4.000000,4.000000,4.000000,4.000000,0.000000,,,,,,,,,,,,,,,,,,,,,,,,,,,,
1732158157.222022,1732158157.226335,75.000000,0.000000,4297.179688,4186.794922,4316.794922,4299.102539,4300.128418,4310.000000,4336.153809,4401.282227,4308.717773,4297.563965,4480.897461,4510.384766,4307.948730,4413.461426,1564.000000,1.000000,21.000000,,,,0.000000,2.000000,2.000000,0.000000,4.000000,2.000000,2.000000,0.000000,0.000000,4.000000,4.000000,4.000000,4.000000,4.000000,4.000000,0.000000,,,,,,,,,,,,,,,,,,,,,,,,,,,,
1732158157.229830,1732158157.234043,76.000000,0.000000,4293.846191,4186.538574,4318.077148,4298.717773,4288.846191,4312.692383,4336.153809,4400.256348,4323.333496,4302.948730,4479.230957,4505.512695,4303.717773,4411.666504,1708.000000,1.000000,21.000000,,,,0.000000,2.000000,2.000000,0.000000,4.000000,2.000000,2.000000,0.000000,0.000000,4.000000,4.000000,4.000000,4.000000,4.000000,4.000000,0.000000,,,,,,,,,,,,,,,,,19.000000,0.000000,0.505949,0.477722,-0.540894,0.472473,0.976682,-0.027347,-0.048346,-35.622749,45.287865,31.134989
1732158157.237638,1732158157.241852,77.000000,0.000000,4292.820313,4192.051270,4318.846191,4297.948730,4289.230957,4310.897461,4336.153809,4401.922852,4325.384766,4299.743652,4476.922852,4502.436035,4302.948730,4407.051270,1601.000000,1.000000,21.000000,,,,0.000000,2.000000,2.000000,0.000000,4.000000,2.000000,2.000000,0.000000,0.000000,4.000000,4.000000,4.000000,4.000000,4.000000,4.000000,0.000000,,,,,,,,,,,,,,,,,,,,,,,,,,,,
1732158157.245447,1732158157.249460,78.000000,0.000000,4293.717773,4201.025879,4317.179688,4296.025879,4302.051270,4302.307617,4336.153809,4403.846191,4319.487305,4296.922852,4473.461426,4501.282227,4309.615234,4401.282227,1559.000000,1.000000,21.000000,,,,0.000000,2.000000,2.000000,0.000000,4.000000,2.000000,2.000000,0.000000,0.000000,4.000000,4.000000,4.000000,4.000000,4.000000,4.000000,0.000000,1.000000,0.000000,2.000000,2.000000,0.000000,4.000000,2.000000,2.000000,0.000000,0.000000,4.000000,4.000000,4.000000,4.000000,4.000000,4.000000,,,,,,,,,,,,
1732158157.253255,1732158157.257268,79.000000,0.000000,4295.128418,4203.077148,4316.922852,4300.769043,4310.512695,4293.589844,4336.153809,4401.922852,4313.077148,4294.615234,4473.205078,4500.000000,4309.743652,4405.641113,1564.000000,1.000000,21.000000,,,,0.000000,2.000000,2.000000,0.000000,4.000000,2.000000,2.000000,0.000000,0.000000,4.000000,4.000000,4.000000,4.000000,4.000000,4.000000,0.000000,,,,,,,,,,,,,,,,,,,,,,,,,,,,
1732158157.261063,1732158157.264977,80.000000,0.000000,4299.358887,4202.563965,4318.974121,4305.384766,4293.333496,4297.179688,4336.153809,4399.102539,4301.666504,4283.333496,4471.922852,4501.282227,4301.666504,4412.436035,1708.000000,1.000000,21.000000,,,,0.000000,2.000000,2.000000,0.000000,4.000000,2.000000,2.000000,0.000000,0.000000,4.000000,4.000000,4.000000,4.000000,4.000000,4.000000,0.000000,,,,,,,,,,,,,,,,,20.000000,0.000000,0.505247,0.477844,-0.541016,0.472961,0.979123,-0.028324,-0.044927,-35.821095,45.454838,31.141008
1732158157.268871,1732158157.272785,81.000000,0.000000,4303.205078,4207.563965,4319.871582,4308.077148,4281.025879,4298.077148,4336.153809,4398.846191,4291.666504,4272.563965,4471.794922,4512.436035,4303.717773,4415.897461,1601.000000,1.000000,21.000000,,,,0.000000,2.000000,2.000000,0.000000,4.000000,2.000000,2.000000,0.000000,0.000000,4.000000,4.000000,4.000000,4.000000,4.000000,4.000000,0.000000,,,,,,,,,,,,,,,,,,,,,,,,,,,,
1732158157.276679,1732158157.280393,82.000000,0.000000,4305.000000,4207.436035,4319.358887,4312.307617,4296.025879,4294.743652,4336.153809,4403.205078,4290.769043,4272.436035,4482.051270,4527.948730,4311.282227,4423.717773,1559.000000,1.000000,21.000000,,,,0.000000,2.000000,2.000000,0.000000,4.000000,2.000000,2.000000,0.000000,0.000000,4.000000,4.000000,4.000000,4.000000,4.000000,4.000000,0.000000,,,,,,,,,,,,,,,,,,,,,,,,,,,,
1732158157.284488,1732158157.288201,83.000000,0.000000,4305.256348,4204.358887,4318.205078,4312.948730,4299.743652,4301.922852,4335.897461,4405.769043,4292.436035,4279.615234,4492.179688,4533.846191,4312.051270,4430.512695,1564.000000,1.000000,21.000000,,,,0.000000,2.000000,2.000000,0.000000,4.000000,2.000000,2.000000,0.000000,0.000000,4.000000,4.000000,4.000000,4.000000,4.000000,4.000000,0.000000,,,,,,,,,,,,,,,,,,,,,,,,,,,,
1732158157.292296,1732158157.295910,84.000000,0.000000,4301.025879,4204.102539,4317.692383,4307.820313,4292.436035,4304.871582,4336.282227,4403.589844,4296.153809,4287.179688,4491.922852,4527.563965,4310.128418,4421.025879,1708.000000,1.000000,21.000000,,,,0.000000,2.000000,2.000000,0.000000,4.000000,2.000000,2.000000,0.000000,0.000000,4.000000,4.000000,4.000000,4.000000,4.000000,4.000000,0.000000,,,,,,,,,,,,,,,,,21.000000,0.000000,0.504135,0.477783,-0.541199,0.473999,0.976193,-0.032230,-0.030765,-35.796753,45.326752,31.197550
1732158157.300104,1732158157.303718,85.000000,0.000000,4294.358887,4205.512695,4317.436035,4298.717773,4303.589844,4295.512695,4336.666504,4401.538574,4307.820313,4297.692383,4487.563965,4519.230957,4309.615234,4404.871582,1601.000000,1.000000,21.000000,,,,0.000000,2.000000,2.000000,0.000000,4.000000,2.000000,2.000000,0.000000,0.000000,4.000000,4.000000,4.000000,4.000000,4.000000,4.000000,0.000000,,,,,,,,,,,,,,,,,,,,,,,,,,,,
1732158157.307912,1732158157.311326,86.000000,0.000000,4291.666504,4207.820313,4316.410156,4292.948730,4296.794922,4296.666504,4335.641113,4402.051270,4323.205078,4309.743652,4488.974121,4512.436035,4313.589844,4397.820313,1559.000000,1.000000,21.000000,,,,0.000000,2.000000,2.000000,0.000000,4.000000,2.000000,2.000000,0.000000,0.000000,4.000000,4.000000,4.000000,4.000000,4.000000,4.000000,0.000000,,,,,,,,,,,,,,,,,,,,,,,,,,,,
1732158157.315721,1732158157.319135,87.000000,0.000000,4292.179688,4213.717773,4316.794922,4297.436035,4275.000000,4308.717773,4336.666504,4402.563965,4330.769043,4309.615234,4488.846191,4505.512695,4317.948730,4396.410156,1564.000000,1.000000,21.000000,,,,0.000000,2.000000,2.000000,0.000000,4.000000,2.000000,2.000000,0.000000,0.000000,4.000000,4.000000,4.000000,4.000000,4.000000,4.000000,0.000000,,,,,,,,,,,,,,,,,,,,,,,,,,,,
1732158157.323529,1732158157.326843,88.000000,0.000000,4292.307617,4214.871582,4316.538574,4303.717773,4279.743652,4302.692383,4341.794922,4401.153809,4327.051270,4297.179688,4480.000000,4496.794922,4315.256348,4395.641113,1708.000000,1.000000,21.000000,,,,0.000000,2.000000,2.000000,0.000000,4.000000,2.000000,2.000000,0.000000,0.000000,4.000000,4.000000,4.000000,4.000000,4.000000,4.000000,0.000000,,,,,,,,,,,,,,,,,22.000000,0.000000,0.504078,0.477722,-0.541199,0.474121,0.980100,-0.033207,-0.049811,-35.598701,45.059669,31.301682
1732158157.331337,1732158157.334651,89.000000,0.000000,4291.922852,4217.563965,4316.410156,4304.615234,4290.769043,4294.487305,4340.512695,4401.794922,4318.205078,4289.102539,4471.410156,4490.128418,4310.641113,4396.410156,1601.000000,1.000000,21.000000,,,,0.000000,2.000000,2.000000,0.000000,4.000000,2.000000,2.000000,0.000000,0.000000,4.000000,4.000000,4.000000,4.000000,4.000000,4.000000,0.000000,,,,,,,,,,,,,,,,,,,,,,,,,,,,
1732158157.339146,1732158157.342659,90.000000,0.000000,4292.436035,4225.000000,4318.589844,4306.153809,4299.102539,4302.820313,4332.563965,4402.179688,4312.692383,4282.051270,4470.384766,4492.179688,4309.615234,4397.820313,1559.000000,1.000000,21.000000,,,,0.000000,2.000000,2.000000,0.000000,4.000000,2.000000,2.000000,0.000000,0.000000,4.000000,4.000000,4.000000,4.000000,4.000000,4.000000,0.000000,,,,,,,,,,,,,,,,,,,,,,,,,,,,
1732158157.346954,1732158157.350467,91.000000,0.000000,4293.205078,4224.230957,4318.974121,4309.871582,4302.436035,4307.307617,4331.666504,4399.102539,4304.871582,4268.974121,4473.717773,4499.743652,4307.051270,4397.051270,1564.000000,1.000000,21.000000,,,,0.000000,2.000000,2.000000,0.000000,4.000000,2.000000,2.000000,0.000000,0.000000,4.000000,4.000000,4.000000,4.000000,4.000000,4.000000,0.000000,,,,,,,,,,,,,,,,,,,,,,,,,,,,
1732158157.354762,1732158157.358375,92.000000,0.000000,4291.666504,4223.589844,4315.641113,4312.307617,4288.205078,4304.743652,4337.563965,4400.512695,4294.871582,4266.153809,4474.743652,4508.333496,4307.436035,4398.589844,1708.000000,1.000000,21.000000,,,,0.000000,2.000000,2.000000,0.000000,4.000000,2.000000,2.000000,0.000000,0.000000,4.000000,4.000000,4.000000,4.000000,4.000000,4.000000,0.000000,,,,,,,,,,,,,,,,,23.000000,0.000000,0.503971,0.477783,-0.541138,0.474243,0.986449,-0.037114,-0.045904,-35.684948,45.083332,31.209362
1732158157.362570,1732158157.366184,93.000000,0.000000,4292.820313,4225.000000,4316.794922,4307.563965,4276.282227,4305.128418,4336.794922,4405.384766,4294.615234,4275.641113,4475.769043,4513.077148,4311.538574,4404.743652,1601.000000,1.000000,21.000000,,,,0.000000,2.000000,2.000000,0.000000,4.000000,2.000000,2.000000,0.000000,0.000000,4.000000,4.000000,4.000000,4.000000,4.000000,4.000000,0.000000,,,,,,,,,,,,,,,,,,,,,,,,,,,,
1732158157.370378,1732158157.373792,94.000000,0.000000,4293.717773,4221.282227,4318.589844,4302.563965,4277.692383,4303.589844,4334.230957,4403.589844,4307.948730,4286.410156,4484.358887,4513.077148,4313.846191,4405.897461,1559.000000,1.000000,21.000000,,,,0.000000,2.000000,2.000000,0.000000,4.000000,2.000000,2.000000,0.000000,0.000000,4.000000,4.000000,4.000000,4.000000,4.000000,4.000000,0.000000,,,,,,,,,,,,,,,,,,,,,,,,,,,,
1732158157.378187,1732158157.381600,95.000000,0.000000,4287.948730,4218.846191,4317.051270,4300.384766,4283.205078,4297.051270,4338.205078,4399.743652,4323.333496,4296.538574,4491.538574,4513.461426,4315.641113,4399.358887,1564.000000,1.000000,21.000000,,,,0.000000,2.000000,2.000000,0.000000,4.000000,2.000000,2.000000,0.000000,0.000000,4.000000,4.000000,4.000000,4.000000,4.000000,4.000000,0.000000,,,,,,,,,,,,,,,,,,,,,,,,,,,,
1732158157.385995,1732158157.389508,96.000000,0.000000,4282.692383,4218.717773,4317.051270,4297.563965,4295.512695,4296.410156,4339.743652,4401.794922,4326.282227,4298.333496,4485.000000,4512.820313,4313.461426,4394.230957,1708.000000,1.000000,21.000000,,,,0.000000,2.000000,2.000000,0.000000,4.000000,2.000000,2.000000,0.000000,0.000000,4.000000,4.000000,4.000000,4.000000,4.000000,4.000000,0.000000,,,,,,,,,,,,,,,,,24.000000,0.000000,0.504212,0.477417,-0.541504,0.473938,0.971310,-0.033696,-0.040532,-35.963142,45.172497,31.492916
1732158157.393803,1732158157.397317,97.000000,0.000000,4285.000000,4219.487305,4318.589844,4297.179688,4289.743652,4297.948730,4335.512695,4403.333496,4320.000000,4297.051270,4477.307617,4508.717773,4312.436035,4396.282227,1601.000000,1.000000,21.000000,,,,0.000000,2.000000,2.000000,0.000000,4.000000,2.000000,2.000000,0.000000,0.000000,4.000000,4.000000,4.000000,4.000000,4.000000,4.000000,0.000000,,,,,,,,,,,,,,,,,,,,,,,,,,,,
1732158157.401611,1732158157.404925,98.000000,0.000000,4288.205078,4226.153809,4317.692383,4301.410156,4266.025879,4295.384766,4334.102539,4400.769043,4313.589844,4294.615234,4477.179688,4502.436035,4315.384766,4398.077148,1559.000000,1.000000,21.000000,,,,0.000000,2.000000,2.000000,0.000000,4.000000,2.000000,2.000000,0.000000,0.000000,4.000000,4.000000,4.000000,4.000000,4.000000,4.000000,0.000000,,,,,,,,,,,,,,,,,,,,,,,,,,,,
1732158157.409420,1732158157.412733,99.000000,0.000000,4287.820313,4234.487305,4318.077148,4305.769043,4268.333496,4296.922852,4335.769043,4400.769043,4311.666504,4285.128418,4474.230957,4494.358887,4315.000000,4395.000000,1564.000000,1.000000,21.000000,,,,0.000000,2.000000,2.000000,0.000000,4.000000,2.000000,2.000000,0.000000,0.000000,4.000000,4.000000,4.000000,4.000000,4.000000,4.000000,0.000000,,,,,,,,,,,,,,,,,,,,,,,,,,,,
1732158157.417228,1732158157.420441,100.000000,0.000000,4291.025879,4232.948730,4318.461426,4307.563965,4283.974121,4296.410156,4335.384766,4402.820313,4309.487305,4277.051270,4471.410156,4490.128418,4314.230957,4394.487305,1708.000000,1.000000,21.000000,,,,0.000000,2.000000,2.000000,0.000000,4.000000,2.000000,2.000000,0.000000,0.000000,4.000000,4.000000,4.000000,4.000000,4.000000,4.000000,0.000000,,,,,,,,,,,,,,,,,25.000000,0.000000,0.504146,0.477356,-0.541565,0.473999,0.970333,-0.034184,-0.042486,-35.820145,45.206390,31.487597
1732158157.425036,1732158157.428250,101.000000,0.000000,4294.871582,4233.077148,4316.410156,4309.358887,4282.948730,4294.358887,4334.230957,4402.948730,4302.692383,4276.666504,4474.871582,4496.282227,4316.538574,4399.871582,1601.000000,1.000000,21.000000,,,,0.000000,2.000000,2.000000,0.000000,4.000000,2.000000,2.000000,0.000000,0.000000,4.000000,4.000000,4.000000,4.000000,4.000000,4.000000,0.000000,,,,,,,,,,,,,,,,,,,,,,,,,,,,
1732158157.432845,1732158157.436258,102.000000,0.000000,4295.384766,4235.256348,4316.410156,4311.794922,4281.153809,4295.000000,4334.615234,4401.794922,4294.615234,4274.358887,4475.128418,4507.179688,4315.000000,4401.025879,1559.000000,1.000000,21.000000,,,,0.000000,2.000000,2.000000,0.000000,4.000000,2.000000,2.000000,0.000000,0.000000,4.000000,4.000000,4.000000,4.000000,4.000000,4.000000,0.000000,,,,,,,,,,,,,,,,,,,,,,,,,,,,
1732158157.440653,1732158157.444066,103.000000,0.000000,4296.153809,4233.589844,4316.538574,4311.794922,4285.000000,4298.846191,4335.128418,4400.897461,4295.128418,4273.846191,4474.743652,4510.256348,4310.897461,4400.128418,1564.000000,1.000000,21.000000,,,,0.000000,2.000000,2.000000,0.000000,4.000000,2.000000,2.000000,0.000000,0.000000,4.000000,4.000000,4.000000,4.000000,4.000000,4.000000,0.000000,,,,,,,,,,,,,,,,,,,,,,,,,,,,
1732158157.448461,1732158157.451974,104.000000,0.000000,4293.077148,4231.025879,4315.000000,4304.358887,4295.641113,4296.922852,4334.871582,4401.410156,4300.641113,4277.051270,4474.871582,4508.461426,4312.307617,4402.820313,1708.000000,1.000000,21.000000,,,,0.000000,2.000000,2.000000,0.000000,4.000000,2.000000,2.000000,0.000000,0.000000,4.000000,4.000000,4.000000,4.000000,4.000000,4.000000,0.000000,,,,,,,,,,,,,,,,,26.000000,0.000000,0.503909,0.477356,-0.541626,0.474182,0.984007,-0.039067,-0.043951,-35.410984,45.072178,31.426619
1732158157.456269,1732158157.459782,105.000000,0.000000,4289.615234,4229.743652,4315.897461,4296.025879,4298.333496,4293.205078,4334.102539,4401.282227,4306.666504,4281.538574,4473.589844,4510.128418,4318.205078,4402.820313,1601.000000,1.000000,21.000000,,,,0.000000,2.000000,2.000000,0.000000,4.000000,2.000000,2.000000,0.000000,0.000000,4.000000,4.000000,4.000000,4.000000,4.000000,4.000000,0.000000,,,,,,,,,,,,,,,,,,,,,,,,,,,,
1732158157.464078,1732158157.467790,106.000000,0.000000,4290.512695,4231.153809,4317.307617,4297.436035,4277.948730,4296.410156,4336.666504,4400.769043,4316.282227,4292.948730,4481.922852,4514.487305,4324.358887,4401.153809,1559.000000,1.000000,21.000000,,,,0.000000,2.000000,2.000000,0.000000,4.000000,2.000000,2.000000,0.000000,0.000000,4.000000,4.000000,4.000000,4.000000,4.000000,4.000000,0.000000,,,,,,,,,,,,,,,,,,,,,,,,,,,,
1732158157.471886,1732158157.475598,107.000000,0.000000,4288.589844,4233.333496,4316.666504,4300.897461,4259.230957,4298.205078,4340.384766,4400.512695,4321.922852,4304.743652,4489.871582,4512.948730,4328.205078,4401.538574,1564.000000,1.000000,21.000000,,,,0.000000,2.000000,2.000000,0.000000,4.000000,2.000000,2.000000,0.000000,0.000000,4.000000,4.000000,4.000000,4.000000,4.000000,4.000000,0.000000,,,,,,,,,,,,,,,,,,,,,,,,,,,,
1732158157.479694,1732158157.483506,108.000000,0.000000,4281.153809,4233.077148,4316.282227,4297.436035,4272.563965,4295.256348,4340.512695,4401.794922,4318.461426,4301.025879,4481.922852,4503.461426,4323.974121,4398.974121,1708.000000,1.000000,21.000000,,,,0.000000,2.000000,2.000000,0.000000,4.000000,2.000000,2.000000,0.000000,0.000000,4.000000,4.000000,4.000000,4.000000,4.000000,4.000000,0.000000,,,,,,,,,,,,,,,,,27.000000,0.000000,0.503778,0.477234,-0.541748,0.474304,0.984495,-0.020510,-0.053717,-35.517899,45.153461,31.295563
1732158157.487502,1732158157.491315,109.000000,0.000000,4281.794922,4237.948730,4315.769043,4295.384766,4294.743652,4291.025879,4339.487305,4404.487305,4308.974121,4287.179688,4471.025879,4493.974121,4318.205078,4395.000000,1601.000000,1.000000,21.000000,,,,0.000000,2.000000,2.000000,0.000000,4.000000,2.000000,2.000000,0.000000,0.000000,4.000000,4.000000,4.000000,4.000000,4.000000,4.000000,0.000000,,,,,,,,,,,,,,,,,,,,,,,,,,,,
1732158157.495310,1732158157.499323,110.000000,0.000000,4288.846191,4247.436035,4315.897461,4303.077148,4286.153809,4293.333496,4339.743652,4402.436035,4297.436035,4278.717773,4470.897461,4488.974121,4316.538574,4395.641113,1559.000000,1.000000,21.000000,,,,0.000000,2.000000,2.000000,0.000000,4.000000,2.000000,2.000000,0.000000,0.000000,4.000000,4.000000,4.000000,4.000000,4.000000,4.000000,0.000000,,,,,,,,,,,,,,,,,,,,,,,,,,,,
1732158157.503119,1732158157.507131,111.000000,0.000000,4290.897461,4247.436035,4316.666504,4307.948730,4266.153809,4301.025879,4339.230957,4400.128418,4296.538574,4278.589844,4474.358887,4489.615234,4319.358887,4398.077148,1564.000000,1.000000,21.000000,,,,0.000000,2.000000,2.000000,0.000000,4.000000,2.000000,2.000000,0.000000,0.000000,4.000000,4.000000,4.000000,4.000000,4.000000,4.000000,0.000000,,,,,,,,,,,,,,,,,,,,,,,,,,,,
1732158157.510927,1732158157.515039,112.000000,0.000000,4293.077148,4245.256348,4316.794922,4304.743652,4263.077148,4301.538574,4339.615234,4404.743652,4305.641113,4282.820313,4475.000000,4497.948730,4320.897461,4399.230957,1708.000000,1.000000,21.000000,,,,0.000000,2.000000,2.000000,0.000000,4.000000,2.000000,2.000000,0.000000,0.000000,4.000000,4.000000,4.000000,4.000000,4.000000,4.000000,0.000000,,,,,,,,,,,,,,,,,28.000000,0.000000,0.503114,0.477051,-0.541992,0.474915,0.984495,-0.030765,-0.044927,-35.637829,45.152637,31.172739
1732158157.518735,1732158157.522847,113.000000,0.000000,4295.128418,4247.692383,4316.538574,4304.487305,4277.563965,4296.666504,4338.974121,4406.282227,4303.205078,4277.051270,4473.461426,4506.538574,4315.512695,4399.358887,1601.000000,1.000000,21.000000,,,,0.000000,2.000000,2.000000,0.000000,4.000000,2.000000,2.000000,0.000000,0.000000,4.000000,4.000000,4.000000,4.000000,4.000000,4.000000,0.000000,,,,,,,,,,,,,,,,,,,,,,,,,,,,
1732158157.526544,1732158157.530855,114.000000,0.000000,4288.333496,4240.512695,4318.589844,4302.820313,4292.692383,4294.743652,4335.128418,4405.256348,4292.692383,4265.897461,4471.282227,4507.563965,4313.077148,4396.794922,1559.000000,1.000000,21.000000,,,,0.000000,2.000000,2.000000,0.000000,4.000000,2.000000,2.000000,0.000000,0.000000,4.000000,4.000000,4.000000,4.000000,4.000000,4.000000,0.000000,,,,,,,,,,,,,,,,,,,,,,,,,,,,
1732158157.534352,1732158157.538663,115.000000,0.000000,4283.205078,4235.128418,4318.589844,4297.051270,4286.922852,4295.897461,4333.846191,4406.410156,4301.153809,4273.461426,4473.717773,4507.820313,4316.153809,4397.179688,1564.000000,1.000000,21.000000,,,,0.000000,2.000000,2.000000,0.000000,4.000000,2.000000,2.000000,0.000000,0.000000,4.000000,4.000000,4.000000,4.000000,4.000000,4.000000,0.000000,,,,,,,,,,,,,,,,,,,,,,,,,,,,
1732158157.542160,1732158157.546572,116.000000,0.000000,4289.615234,4243.461426,4316.282227,4298.461426,4265.512695,4295.000000,4335.897461,4405.128418,4318.589844,4293.333496,4479.102539,4515.000000,4319.102539,4402.692383,1708.000000,1.000000,21.000000,,,,0.000000,2.000000,2.000000,0.000000,4.000000,2.000000,2.000000,0.000000,0.000000,4.000000,4.000000,4.000000,4.000000,4.000000,4.000000,0.000000,,,,,,,,,,,,,,,,,29.000000,0.000000,0.502825,0.477112,-0.541992,0.475159,0.984495,-0.044439,-0.039556,-35.674976,45.091969,30.979918
1732158157.549968,1732158157.554380,117.000000,0.000000,4293.589844,4247.948730,4316.025879,4300.256348,4256.282227,4295.384766,4335.897461,4402.051270,4322.051270,4303.333496,4484.743652,4518.717773,4322.179688,4406.025879,1601.000000,1.000000,21.000000,,,,0.000000,2.000000,2.000000,0.000000,4.000000,2.000000,2.000000,0.000000,0.000000,4.000000,4.000000,4.000000,4.000000,4.000000,4.000000,0.000000,,,,,,,,,,,,,,,,,,,,,,,,,,,,
1732158157.557777,1732158157.562388,118.000000,0.000000,4286.794922,4244.871582,4316.922852,4296.410156,4278.974121,4295.128418,4334.230957,4403.846191,4318.205078,4300.769043,4483.846191,4511.666504,4326.025879,4405.769043,1559.000000,1.000000,21.000000,,,,0.000000,2.000000,2.000000,0.000000,4.000000,2.000000,2.000000,0.000000,0.000000,4.000000,4.000000,4.000000,4.000000,4.000000,4.000000,0.000000,,,,,,,,,,,,,,,,,,,,,,,,,,,,
1732158157.565585,1732158157.570196,119.000000,0.000000,4288.205078,4247.307617,4316.922852,4298.974121,4291.025879,4293.333496,4334.487305,4405.000000,4317.563965,4295.256348,4476.025879,4503.717773,4326.410156,4406.282227,1564.000000,1.000000,21.000000,,,,0.000000,2.000000,2.000000,0.000000,4.000000,2.000000,2.000000,0.000000,0.000000,4.000000,4.000000,4.000000,4.000000,4.000000,4.000000,0.000000,,,,,,,,,,,,,,,,,,,,,,,,,,,,
1732158157.573393,1732158157.578104,120.000000,0.000000,4296.282227,4250.769043,4317.563965,4302.179688,4270.641113,4294.487305,4335.384766,4402.436035,4311.410156,4286.922852,4472.948730,4502.179688,4325.000000,4408.333496,1708.000000,1.000000,21.000000,,,,0.000000,2.000000,2.000000,0.000000,4.000000,2.000000,2.000000,0.000000,0.000000,4.000000,4.000000,4.000000,4.000000,4.000000,4.000000,0.000000,,,,,,,,,,,,,,,,,30.000000,0.000000,0.502875,0.477051,-0.542053,0.475098,0.973263,-0.047857,-0.050787,-35.863396,45.137829,31.110401
1732158157.581201,1732158157.585912,121.000000,0.000000,4288.717773,4248.461426,4316.922852,4297.948730,4259.358887,4295.897461,4334.615234,4400.897461,4304.102539,4280.128418,4476.025879,4503.205078,4325.384766,4403.717773,1601.000000,1.000000,21.000000,,,,0.000000,2.000000,2.000000,0.000000,4.000000,2.000000,2.000000,0.000000,0.000000,4.000000,4.000000,4.000000,4.000000,4.000000,4.000000,0.000000,,,,,,,,,,,,,,,,,,,,,,,,,,,,
1732158157.589009,1732158157.593720,122.000000,0.000000,4280.000000,4248.205078,4314.358887,4298.589844,4272.051270,4295.897461,4334.230957,4401.410156,4304.615234,4280.000000,4476.922852,4506.025879,4325.769043,4396.922852,1559.000000,1.000000,21.000000,,,,0.000000,2.000000,2.000000,0.000000,4.000000,2.000000,2.000000,0.000000,0.000000,4.000000,4.000000,4.000000,4.000000,4.000000,4.000000,0.000000,,,,,,,,,,,,,,,,,,,,,,,,,,,,
1732158157.596818,1732158157.601529,123.000000,0.000000,4289.230957,4251.025879,4314.871582,4302.179688,4276.794922,4297.179688,4337.307617,4406.410156,4305.769043,4281.410156,4476.922852,4512.436035,4326.794922,4402.051270,1564.000000,1.000000,21.000000,,,,0.000000,2.000000,2.000000,0.000000,4.000000,2.000000,2.000000,0.000000,0.000000,4.000000,4.000000,4.000000,4.000000,4.000000,4.000000,0.000000,,,,,,,,,,,,,,,,,,,,,,,,,,,,
1732158157.604626,1732158157.609237,124.000000,0.000000,4297.692383,4251.922852,4315.128418,4303.205078,4272.563965,4293.589844,4340.512695,4407.563965,4303.333496,4280.897461,4478.077148,4515.641113,4325.384766,4407.307617,1708.000000,1.000000,21.000000,,,,0.000000,2.000000,2.000000,0.000000,4.000000,2.000000,2.000000,0.000000,0.000000,4.000000,4.000000,4.000000,4.000000,4.000000,4.000000,0.000000,,,,,,,,,,,,,,,,,31.000000,0.000000,0.502966,0.476868,-0.542236,0.474976,0.984495,-0.040044,-0.036137,-35.727684,45.069977,31.181091
1732158157.612434,1732158157.617045,125.000000,0.000000,4293.333496,4249.615234,4314.615234,4300.641113,4283.461426,4285.256348,4340.256348,4403.461426,4301.153809,4279.358887,4479.487305,4516.794922,4322.948730,4402.051270,1601.000000,1.000000,21.000000,,,,0.000000,2.000000,2.000000,0.000000,4.000000,2.000000,2.000000,0.000000,0.000000,4.000000,4.000000,4.000000,4.000000,4.000000,4.000000,0.000000,,,,,,,,,,,,,,,,,,,,,,,,,,,,
1732158157.620242,1732158157.624654,126.000000,0.000000,4293.205078,4250.641113,4315.897461,4296.025879,4280.512695,4286.922852,4339.230957,4405.128418,4308.846191,4286.922852,4480.384766,4520.641113,4325.769043,4400.512695,1559.000000,1.000000,21.000000,,,,0.000000,2.000000,2.000000,0.000000,4.000000,2.000000,2.000000,0.000000,0.000000,4.000000,4.000000,4.000000,4.000000,4.000000,4.000000,0.000000,,,,,,,,,,,,,,,,,,,,,,,,,,,,
1732158157.628051,1732158157.632462,127.000000,0.000000,4293.205078,4253.589844,4317.179688,4296.410156,4258.974121,4296.666504,4339.230957,4409.102539,4318.717773,4296.282227,4479.615234,4523.846191,4327.307617,4405.256348,21.000000,1.000000,21.000000,,,,0.000000,2.000000,2.000000,0.000000,4.000000,2.000000,2.000000,0.000000,0.000000,4.000000,4.000000,4.000000,4.000000,4.000000,4.000000,0.000000,,,,,,,,,,,,,,,,,,,,,,,,,,,,
1732158157.635859,1732158157.640170,0.000000,0.000000,4284.871582,4251.153809,4316.153809,4298.717773,4261.922852,4298.974121,4339.487305,4410.000000,4316.922852,4291.282227,4476.538574,4518.589844,4321.666504,4400.641113,0.000000,1.000000,21.000000,,,,0.000000,2.000000,2.000000,0.000000,4.000000,2.000000,2.000000,0.000000,0.000000,4.000000,4.000000,4.000000,4.000000,4.000000,4.000000,0.000000,,,,,,,,,,,,,,,,,0.000000,0.000000,0.502743,0.476990,-0.542175,0.475159,0.972287,-0.032719,-0.037602,-35.884426,45.048347,31.238350
1732158157.643667,1732158157.647978,1.000000,0.000000,4279.743652,4249.487305,4315.641113,4295.256348,4278.974121,4295.128418,4339.743652,4406.922852,4311.666504,4280.897461,4470.000000,4507.179688,4317.436035,4392.051270,1604.000000,1.000000,21.000000,,,,0.000000,2.000000,2.000000,0.000000,4.000000,2.000000,2.000000,0.000000,0.000000,4.000000,4.000000,4.000000,4.000000,4.000000,4.000000,0.000000,,,,,,,,,,,,,,,,,,,,,,,,,,,,
1732158157.651476,1732158157.655587,2.000000,0.000000,4280.641113,4249.102539,4313.717773,4292.436035,4281.666504,4293.974121,4340.256348,4402.307617,4311.153809,4280.000000,4466.410156,4499.615234,4319.487305,4392.436035,1362.000000,1.000000,21.000000,,,,0.000000,2.000000,2.000000,0.000000,4.000000,2.000000,2.000000,0.000000,0.000000,4.000000,4.000000,4.000000,4.000000,4.000000,4.000000,0.000000,,,,,,,,,,,,,,,,,,,,,,,,,,,,
1732158157.659284,1732158157.663395,3.000000,0.000000,4283.205078,4247.948730,4312.051270,4295.897461,4274.615234,4297.820313,4341.282227,4403.974121,4313.589844,4281.538574,4469.871582,4501.282227,4319.743652,4396.025879,1436.000000,1.000000,21.000000,,,,0.000000,2.000000,2.000000,0.000000,4.000000,2.000000,2.000000,0.000000,0.000000,4.000000,4.000000,4.000000,4.000000,4.000000,4.000000,0.000000,,,,,,,,,,,,,,,,,,,,,,,,,,,,
1732158157.667092,1732158157.671103,4.000000,0.000000,4287.563965,4254.358887,4315.641113,4296.282227,4274.358887,4296.410156,4338.589844,4408.846191,4308.846191,4279.102539,4474.230957,4508.077148,4317.179688,4398.077148,1429.000000,1.000000,21.000000,,,,0.000000,2.000000,2.000000,0.000000,4.000000,2.000000,2.000000,0.000000,0.000000,4.000000,4.000000,4.000000,4.000000,4.000000,4.000000,0.000000,,,,,,,,,,,,,,,,,1.000000,0.000000,0.502620,0.477051,-0.542236,0.475159,0.972775,-0.041509,-0.048834,-36.023052,45.105827,31.164730
1732158157.674900,1732158157.678911,5.000000,0.000000,4292.051270,4263.974121,4317.948730,4295.641113,4287.051270,4285.000000,4336.666504,4405.512695,4298.333496,4276.410156,4474.871582,4512.563965,4321.922852,4399.487305,1185.000000,1.000000,21.000000,,,,0.000000,2.000000,2.000000,0.000000,4.000000,2.000000,2.000000,0.000000,0.000000,4.000000,4.000000,4.000000,4.000000,4.000000,4.000000,0.000000,,,,,,,,,,,,,,,,,,,,,,,,,,,,
1732158157.682708,1732158157.686919,6.000000,0.000000,4294.358887,4263.333496,4316.538574,4296.666504,4288.205078,4281.153809,4340.128418,4400.641113,4295.641113,4277.948730,4475.512695,4513.974121,4328.974121,4401.410156,0.000000,1.000000,21.000000,,,,0.000000,2.000000,2.000000,0.000000,4.000000,2.000000,2.000000,0.000000,0.000000,4.000000,4.000000,4.000000,4.000000,4.000000,4.000000,0.000000,,,,,,,,,,,,,,,,,,,,,,,,,,,,
1732158157.690517,1732158157.694728,7.000000,0.000000,4293.205078,4257.948730,4315.128418,4296.025879,4265.000000,4290.384766,4340.128418,4403.589844,4306.410156,4286.282227,4477.051270,4516.666504,4327.307617,4401.538574,0.000000,1.000000,21.000000,,,,0.000000,2.000000,2.000000,0.000000,4.000000,2.000000,2.000000,0.000000,0.000000,4.000000,4.000000,4.000000,4.000000,4.000000,4.000000,0.000000,,,,,,,,,,,,,,,,,,,,,,,,,,,,
1732158157.698325,1732158157.702436,8.000000,0.000000,4286.025879,4259.871582,4314.743652,4295.512695,4257.692383,4295.512695,4334.230957,4405.897461,4312.563965,4290.000000,4477.820313,4517.692383,4326.666504,4398.589844,1528.000000,1.000000,21.000000,,,,0.000000,2.000000,2.000000,0.000000,4.000000,2.000000,2.000000,0.000000,0.000000,4.000000,4.000000,4.000000,4.000000,4.000000,4.000000,0.000000,,,,,,,,,,,,,,,,,2.000000,0.000000,0.502662,0.476929,-0.542358,0.475098,0.982542,-0.037602,-0.049811,-35.923672,44.864052,31.513432
1732158157.706133,1732158157.710244,9.000000,0.000000,4280.512695,4260.128418,4314.871582,4296.666504,4273.077148,4295.128418,4335.641113,4402.436035,4307.051270,4283.205078,4478.333496,4514.358887,4329.102539,4400.000000,1701.000000,1.000000,21.000000,,,,0.000000,2.000000,2.000000,0.000000,4.000000,2.000000,2.000000,0.000000,0.000000,4.000000,4.000000,4.000000,4.000000,4.000000,4.000000,0.000000,,,,,,,,,,,,,,,,,,,,,,,,,,,,
1732158157.713941,1732158157.717853,10.000000,0.000000,4282.307617,4255.128418,4316.153809,4296.410156,4274.487305,4293.974121,4339.230957,4401.794922,4308.333496,4280.769043,4474.358887,4505.897461,4321.666504,4395.769043,1556.000000,1.000000,21.000000,,,,0.000000,2.000000,2.000000,0.000000,4.000000,2.000000,2.000000,0.000000,0.000000,4.000000,4.000000,4.000000,4.000000,4.000000,4.000000,0.000000,,,,,,,,,,,,,,,,,,,,,,,,,,,,
1732158157.721750,1732158157.725661,11.000000,0.000000,4281.666504,4252.563965,4317.051270,4293.333496,4269.871582,4290.256348,4337.692383,4403.333496,4312.307617,4281.666504,4470.641113,4497.436035,4313.077148,4383.974121,1564.000000,1.000000,21.000000,,,,0.000000,2.000000,2.000000,0.000000,4.000000,2.000000,2.000000,0.000000,0.000000,4.000000,4.000000,4.000000,4.000000,4.000000,4.000000,0.000000,,,,,,,,,,,,,,,,,,,,,,,,,,,,
1732158157.729558,1732158157.733369,12.000000,0.000000,4279.230957,4256.153809,4317.051270,4293.846191,4278.717773,4291.025879,4337.948730,4403.717773,4305.512695,4279.871582,4469.230957,4498.077148,4317.307617,4382.948730,1708.000000,1.000000,21.000000,,,,0.000000,2.000000,2.000000,0.000000,4.000000,2.000000,2.000000,0.000000,0.000000,4.000000,4.000000,4.000000,4.000000,4.000000,4.000000,0.000000,,,,,,,,,,,,,,,,,3.000000,0.000000,0.502679,0.476624,-0.542664,0.475037,0.975705,-0.037114,-0.057136,-36.066505,44.964882,31.524214
1732158157.737366,1732158157.741177,13.000000,0.000000,4279.487305,4260.897461,4316.538574,4297.307617,4278.846191,4295.128418,4338.717773,4401.794922,4300.897461,4278.205078,4467.692383,4500.000000,4324.102539,4388.589844,1598.000000,1.000000,21.000000,,,,0.000000,2.000000,2.000000,0.000000,4.000000,2.000000,2.000000,0.000000,0.000000,4.000000,4.000000,4.000000,4.000000,4.000000,4.000000,0.000000,,,,,,,,,,,,,,,,,,,,,,,,,,,,
1732158157.745175,1732158157.748786,14.000000,0.000000,4279.230957,4257.820313,4314.871582,4294.230957,4277.948730,4288.974121,4334.871582,4398.974121,4297.179688,4272.563965,4464.743652,4499.871582,4319.487305,4389.358887,1556.000000,1.000000,21.000000,,,,0.000000,2.000000,2.000000,0.000000,4.000000,2.000000,2.000000,0.000000,0.000000,4.000000,4.000000,4.000000,4.000000,4.000000,4.000000,0.000000,1.000000,0.000000,2.000000,2.000000,0.000000,4.000000,2.000000,2.000000,0.000000,0.000000,4.000000,3.000000,4.000000,4.000000,4.000000,4.000000,,,,,,,,,,,,
1732158157.752983,1732158157.756594,15.000000,0.000000,4278.974121,4254.615234,4314.102539,4289.743652,4284.358887,4277.948730,4334.102539,4398.717773,4285.384766,4261.538574,4460.769043,4502.820313,4314.102539,4392.307617,1564.000000,1.000000,21.000000,,,,0.000000,2.000000,2.000000,0.000000,4.000000,2.000000,2.000000,0.000000,0.000000,4.000000,4.000000,4.000000,4.000000,4.000000,4.000000,0.000000,,,,,,,,,,,,,,,,,,,,,,,,,,,,
1732158157.760791,1732158157.764502,16.000000,0.000000,4280.512695,4257.436035,4317.948730,4292.563965,4271.922852,4281.794922,4338.077148,4403.589844,4285.897461,4260.769043,4464.615234,4508.461426,4317.307617,4397.436035,0.000000,1.000000,21.000000,,,,0.000000,2.000000,2.000000,0.000000,4.000000,2.000000,2.000000,0.000000,0.000000,4.000000,4.000000,4.000000,4.000000,4.000000,4.000000,0.000000,,,,,,,,,,,,,,,,,4.000000,0.000000,0.502721,0.476440,-0.542786,0.475037,0.985960,-0.041021,-0.041509,-36.078869,44.804890,31.571280
1732158157.768599,1732158157.772310,17.000000,0.000000,4280.897461,4261.153809,4316.282227,4295.128418,4252.820313,4292.051270,4337.948730,4406.282227,4300.641113,4269.358887,4472.307617,4508.333496,4320.256348,4396.538574,0.000000,1.000000,21.000000,,,,0.000000,2.000000,2.000000,0.000000,4.000000,2.000000,2.000000,0.000000,0.000000,4.000000,4.000000,4.000000,4.000000,4.000000,4.000000,0.000000,,,,,,,,,,,,,,,,,,,,,,,,,,,,
