title:3six, start timestamp:1732158203.368754, stop timestamp:1732158258.588699, headset type:EPOCX, headset serial:E5020C3A, headset firmware:730, channels:67, sampling rate:eeg_128;mot_32, samples:7073      , version:2.2, 
Timestamp,OriginalTimestamp,EEG.Counter,EEG.Interpolated,EEG.AF3,EEG.F7,EEG.F3,EEG.FC5,EEG.T7,EEG.P7,EEG.O1,EEG.O2,EEG.P8,EEG.T8,EEG.FC6,EEG.F4,EEG.F8,EEG.AF4,EEG.RawCq,EEG.Battery,EEG.BatteryPercent,MarkerIndex,MarkerType,MarkerValueInt,EEG.MarkerHardware,CQ.AF3,CQ.F7,CQ.F3,CQ.FC5,CQ.T7,CQ.P7,CQ.O1,CQ.O2,CQ.P8,CQ.T8,CQ.FC6,CQ.F4,CQ.F8,CQ.AF4,CQ.Overall,EQ.SampleRateQuality,EQ.OVERALL,EQ.AF3,EQ.F7,EQ.F3,EQ.FC5,EQ.T7,EQ.P7,EQ.O1,EQ.O2,EQ.P8,EQ.T8,EQ.FC6,EQ.F4,EQ.F8,EQ.AF4,MOT.CounterMems,MOT.InterpolatedMems,MOT.Q0,MOT.Q1,MOT.Q2,MOT.Q3,MOT.AccX,MOT.AccY,MOT.AccZ,MOT.MagX,MOT.MagY,MOT.MagZ
1732158203.368754,1732158203.371155,97.000000,0.000000,4293.717773,4280.769043,4312.948730,4297.948730,4288.974121,4282.307617,4334.871582,4400.512695,4307.307617,4297.307617,4481.538574,4507.692383,4351.538574,4429.487305,1594.000000,1.000000,21.000000,,,,0.000000,2.000000,2.000000,0.000000,4.000000,2.000000,2.000000,0.000000,0.000000,4.000000,4.000000,4.000000,4.000000,4.000000,4.000000,0.000000,,,,,,,,,,,,,,,,,,,,,,,,,,,,
1732158203.376562,1732158203.379163,98.000000,0.000000,4294.230957,4282.051270,4313.589844,4293.077148,4291.025879,4280.769043,4334.871582,4400.641113,4309.102539,4294.615234,4476.922852,4510.512695,4350.128418,4429.358887,1553.000000,1.000000,21.000000,,,,0.000000,2.000000,2.000000,0.000000,4.000000,2.000000,2.000000,0.000000,0.000000,4.000000,4.000000,4.000000,4.000000,4.000000,4.000000,0.000000,,,,,,,,,,,,,,,,,,,,,,,,,,,,
1732158203.384370,1732158203.386971,99.000000,0.000000,4293.333496,4281.922852,4314.615234,4301.794922,4279.743652,4280.384766,4334.871582,4403.077148,4311.794922,4298.717773,4476.794922,4517.820313,4351.025879,4430.128418,1559.000000,1.000000,21.000000,,,,0.000000,2.000000,2.000000,0.000000,4.000000,2.000000,2.000000,0.000000,0.000000,4.000000,4.000000,4.000000,4.000000,4.000000,4.000000,0.000000,,,,,,,,,,,,,,,,,,,,,,,,,,,,
1732158203.392179,1732158203.394879,100.000000,0.000000,4293.205078,4280.256348,4313.974121,4302.179688,4280.512695,4280.512695,4334.871582,4404.230957,4308.589844,4298.846191,4478.589844,4513.974121,4347.820313,4427.563965,1710.000000,1.000000,21.000000,,,,0.000000,2.000000,2.000000,0.000000,4.000000,2.000000,2.000000,0.000000,0.000000,4.000000,4.000000,4.000000,4.000000,4.000000,4.000000,0.000000,,,,,,,,,,,,,,,,,25.000000,0.000000,0.515443,0.496704,-0.524109,0.461426,0.980100,0.022952,-0.028812,-35.023960,45.993771,30.642982
1732158203.399987,1732158203.402687,101.000000,0.000000,4295.512695,4281.922852,4311.794922,4296.282227,4282.436035,4279.358887,4334.871582,4401.538574,4300.512695,4293.333496,4476.410156,4507.051270,4345.000000,4428.846191,1594.000000,1.000000,21.000000,,,,0.000000,2.000000,2.000000,0.000000,4.000000,2.000000,2.000000,0.000000,0.000000,4.000000,4.000000,4.000000,4.000000,4.000000,4.000000,0.000000,,,,,,,,,,,,,,,,,,,,,,,,,,,,
1732158203.407795,1732158203.410695,102.000000,0.000000,4297.179688,4283.717773,4312.051270,4301.538574,4277.179688,4280.769043,4334.871582,4400.512695,4300.128418,4292.692383,4475.256348,4512.692383,4348.461426,4433.333496,1553.000000,1.000000,21.000000,,,,0.000000,2.000000,2.000000,0.000000,4.000000,2.000000,2.000000,0.000000,0.000000,4.000000,4.000000,4.000000,4.000000,4.000000,4.000000,0.000000,,,,,,,,,,,,,,,,,,,,,,,,,,,,
1732158203.415604,1732158203.418503,103.000000,0.000000,4296.666504,4282.307617,4313.333496,4307.563965,4290.128418,4281.538574,4334.871582,4400.769043,4302.692383,4291.922852,4476.922852,4518.205078,4351.025879,4432.948730,1559.000000,1.000000,21.000000,,,,0.000000,2.000000,2.000000,0.000000,4.000000,2.000000,2.000000,0.000000,0.000000,4.000000,4.000000,4.000000,4.000000,4.000000,4.000000,0.000000,,,,,,,,,,,,,,,,,,,,,,,,,,,,
1732158203.423412,1732158203.426212,104.000000,0.000000,4295.384766,4279.615234,4313.589844,4304.102539,4302.948730,4279.487305,4334.871582,4400.384766,4297.820313,4291.666504,4476.538574,4513.974121,4350.641113,4428.846191,1710.000000,1.000000,21.000000,,,,0.000000,2.000000,2.000000,0.000000,4.000000,2.000000,2.000000,0.000000,0.000000,4.000000,4.000000,4.000000,4.000000,4.000000,4.000000,0.000000,,,,,,,,,,,,,,,,,26.000000,0.000000,0.515795,0.496887,-0.523804,0.461182,0.970822,0.038579,-0.017580,-34.806076,45.966621,30.807482
1732158203.431220,1732158203.434020,105.000000,0.000000,4297.820313,4280.000000,4314.743652,4305.256348,4282.820313,4278.461426,4334.871582,4401.153809,4300.000000,4294.358887,4476.410156,4514.230957,4349.615234,4430.769043,1594.000000,1.000000,21.000000,,,,0.000000,2.000000,2.000000,0.000000,4.000000,2.000000,2.000000,0.000000,0.000000,4.000000,4.000000,4.000000,4.000000,4.000000,4.000000,0.000000,,,,,,,,,,,,,,,,,,,,,,,,,,,,
1732158203.439028,1732158203.441628,106.000000,0.000000,4301.922852,4284.358887,4314.358887,4310.897461,4265.384766,4279.615234,4334.871582,4401.282227,4307.436035,4294.871582,4482.436035,4522.820313,4349.871582,4437.307617,1553.000000,1.000000,21.000000,,,,0.000000,2.000000,2.000000,0.000000,4.000000,2.000000,2.000000,0.000000,0.000000,4.000000,4.000000,4.000000,4.000000,4.000000,4.000000,0.000000,,,,,,,,,,,,,,,,,,,,,,,,,,,,
1732158203.446836,1732158203.449436,107.000000,0.000000,4300.897461,4284.487305,4312.307617,4307.948730,4277.948730,4279.615234,4334.871582,4400.384766,4305.256348,4293.974121,4485.384766,4523.461426,4351.538574,4436.794922,1559.000000,1.000000,21.000000,,,,0.000000,2.000000,2.000000,0.000000,4.000000,2.000000,2.000000,0.000000,0.000000,4.000000,4.000000,4.000000,4.000000,4.000000,4.000000,0.000000,,,,,,,,,,,,,,,,,,,,,,,,,,,,
1732158203.454645,1732158203.457345,108.000000,0.000000,4296.666504,4280.641113,4311.538574,4304.743652,4287.563965,4280.512695,4334.871582,4400.641113,4304.871582,4294.358887,4478.717773,4511.153809,4351.538574,4429.358887,1710.000000,1.000000,21.000000,,,,0.000000,2.000000,2.000000,0.000000,4.000000,2.000000,2.000000,0.000000,0.000000,4.000000,4.000000,4.000000,4.000000,4.000000,4.000000,0.000000,,,,,,,,,,,,,,,,,27.000000,0.000000,0.516252,0.497009,-0.523560,0.460815,0.970822,0.038579,-0.017580,-34.751255,45.952965,31.024061
1732158203.462453,1732158203.465153,109.000000,0.000000,4296.025879,4280.384766,4311.794922,4305.128418,4282.307617,4284.615234,4334.871582,4401.153809,4305.384766,4288.205078,4473.589844,4503.589844,4347.820313,4426.538574,1594.000000,1.000000,21.000000,,,,0.000000,2.000000,2.000000,0.000000,4.000000,2.000000,2.000000,0.000000,0.000000,4.000000,4.000000,4.000000,4.000000,4.000000,4.000000,0.000000,,,,,,,,,,,,,,,,,,,,,,,,,,,,
1732158203.470261,1732158203.473161,110.000000,0.000000,4296.282227,4281.025879,4310.256348,4304.487305,4283.333496,4286.153809,4334.871582,4400.897461,4294.871582,4277.563965,4476.410156,4506.025879,4347.179688,4430.384766,1553.000000,1.000000,21.000000,,,,0.000000,2.000000,2.000000,0.000000,4.000000,2.000000,2.000000,0.000000,0.000000,4.000000,4.000000,4.000000,4.000000,4.000000,4.000000,0.000000,,,,,,,,,,,,,,,,,,,,,,,,,,,,
1732158203.478069,1732158203.480969,111.000000,0.000000,4294.102539,4279.871582,4309.358887,4307.179688,4288.846191,4286.282227,4334.871582,4402.179688,4291.153809,4276.282227,4477.820313,4508.205078,4351.153809,4430.897461,1559.000000,1.000000,21.000000,,,,0.000000,2.000000,2.000000,0.000000,4.000000,2.000000,2.000000,0.000000,0.000000,4.000000,4.000000,4.000000,4.000000,4.000000,4.000000,0.000000,,,,,,,,,,,,,,,,,,,,,,,,,,,,
1732158203.485878,1732158203.488877,112.000000,0.000000,4293.461426,4278.974121,4311.922852,4308.717773,4292.436035,4286.025879,4334.871582,4401.538574,4302.051270,4281.410156,4475.384766,4505.769043,4351.025879,4426.153809,1710.000000,1.000000,21.000000,,,,0.000000,2.000000,2.000000,0.000000,4.000000,2.000000,2.000000,0.000000,0.000000,4.000000,4.000000,4.000000,4.000000,4.000000,4.000000,0.000000,,,,,,,,,,,,,,,,,28.000000,0.000000,0.517549,0.498901,-0.521118,0.460083,0.969357,0.092785,-0.038091,-34.526848,46.055233,30.841156
1732158203.493686,1732158203.496685,113.000000,0.000000,4296.282227,4278.589844,4313.589844,4303.846191,4295.897461,4284.358887,4334.871582,4397.948730,4308.333496,4283.077148,4476.153809,4503.461426,4349.102539,4425.641113,1594.000000,1.000000,21.000000,,,,0.000000,2.000000,2.000000,0.000000,4.000000,2.000000,2.000000,0.000000,0.000000,4.000000,4.000000,4.000000,4.000000,4.000000,4.000000,0.000000,,,,,,,,,,,,,,,,,,,,,,,,,,,,
1732158203.501494,1732158203.504693,114.000000,0.000000,4297.563965,4280.128418,4307.948730,4307.436035,4292.051270,4286.410156,4334.871582,4398.589844,4301.025879,4280.512695,4476.794922,4505.641113,4351.025879,4426.153809,1553.000000,1.000000,21.000000,,,,0.000000,2.000000,2.000000,0.000000,4.000000,2.000000,2.000000,0.000000,0.000000,4.000000,4.000000,4.000000,4.000000,4.000000,4.000000,0.000000,,,,,,,,,,,,,,,,,,,,,,,,,,,,
1732158203.509303,1732158203.512502,115.000000,0.000000,4294.487305,4280.769043,4306.282227,4308.717773,4295.641113,4286.410156,4334.871582,4402.820313,4297.692383,4277.436035,4476.410156,4506.922852,4351.922852,4421.666504,1559.000000,1.000000,21.000000,,,,0.000000,2.000000,2.000000,0.000000,4.000000,2.000000,2.000000,0.000000,0.000000,4.000000,4.000000,4.000000,4.000000,4.000000,4.000000,0.000000,,,,,,,,,,,,,,,,,,,,,,,,,,,,
1732158203.517111,1732158203.520410,116.000000,0.000000,4291.922852,4278.077148,4310.128418,4299.871582,4302.179688,4281.153809,4334.871582,4402.563965,4302.563965,4278.333496,4475.128418,4501.410156,4351.794922,4417.051270,1710.000000,1.000000,21.000000,,,,0.000000,2.000000,2.000000,0.000000,4.000000,2.000000,2.000000,0.000000,0.000000,4.000000,4.000000,4.000000,4.000000,4.000000,4.000000,0.000000,,,,,,,,,,,,,,,,,29.000000,0.000000,0.517504,0.500366,-0.520081,0.459717,0.969357,0.079600,-0.043462,-34.378414,46.038074,30.926336
1732158203.524919,1732158203.528218,117.000000,0.000000,4294.102539,4278.205078,4311.153809,4302.563965,4288.077148,4281.922852,4334.871582,4399.230957,4301.922852,4282.820313,4475.000000,4497.563965,4352.563965,4419.871582,1594.000000,1.000000,21.000000,,,,0.000000,2.000000,2.000000,0.000000,4.000000,2.000000,2.000000,0.000000,0.000000,4.000000,4.000000,4.000000,4.000000,4.000000,4.000000,0.000000,,,,,,,,,,,,,,,,,,,,,,,,,,,,
1732158203.532727,1732158203.536226,118.000000,0.000000,4296.025879,4281.025879,4309.102539,4312.179688,4273.333496,4286.666504,4335.000000,4399.743652,4296.025879,4283.077148,4482.948730,4504.358887,4353.077148,4426.153809,1553.000000,1.000000,21.000000,,,,0.000000,2.000000,2.000000,0.000000,4.000000,2.000000,2.000000,0.000000,0.000000,4.000000,4.000000,4.000000,4.000000,4.000000,4.000000,0.000000,,,,,,,,,,,,,,,,,,,,,,,,,,,,
1732158203.540535,1732158203.544034,119.000000,0.000000,4295.256348,4281.666504,4310.128418,4309.871582,4278.589844,4282.307617,4334.871582,4400.512695,4300.256348,4280.641113,4485.897461,4509.358887,4352.948730,4429.487305,1559.000000,1.000000,21.000000,,,,0.000000,2.000000,2.000000,0.000000,4.000000,2.000000,2.000000,0.000000,0.000000,4.000000,4.000000,4.000000,4.000000,4.000000,4.000000,0.000000,,,,,,,,,,,,,,,,,,,,,,,,,,,,
1732158203.548344,1732158203.551942,120.000000,0.000000,4295.256348,4280.128418,4305.641113,4304.743652,4283.589844,4281.282227,4334.871582,4398.717773,4310.384766,4283.461426,4478.846191,4501.153809,4351.153809,4424.358887,1710.000000,1.000000,21.000000,,,,0.000000,2.000000,2.000000,0.000000,4.000000,2.000000,2.000000,0.000000,0.000000,4.000000,4.000000,4.000000,4.000000,4.000000,4.000000,0.000000,,,,,,,,,,,,,,,,,30.000000,0.000000,0.515829,0.501526,-0.520142,0.460266,0.950800,0.030765,-0.055183,-34.183182,46.137505,30.883665
1732158203.556152,1732158203.559750,121.000000,0.000000,4294.743652,4277.307617,4300.256348,4307.051270,4284.358887,4289.743652,4335.000000,4399.102539,4312.948730,4286.538574,4476.282227,4500.000000,4349.615234,4420.769043,1594.000000,1.000000,21.000000,,,,0.000000,2.000000,2.000000,0.000000,4.000000,2.000000,2.000000,0.000000,0.000000,4.000000,4.000000,4.000000,4.000000,4.000000,4.000000,0.000000,,,,,,,,,,,,,,,,,,,,,,,,,,,,
1732158203.563960,1732158203.567758,122.000000,0.000000,4293.461426,4279.358887,4300.000000,4308.717773,4291.922852,4291.410156,4334.615234,4401.025879,4307.692383,4282.179688,4477.948730,4503.717773,4349.743652,4424.230957,1553.000000,1.000000,21.000000,,,,0.000000,2.000000,2.000000,0.000000,4.000000,2.000000,2.000000,0.000000,0.000000,4.000000,4.000000,4.000000,4.000000,4.000000,4.000000,0.000000,,,,,,,,,,,,,,,,,,,,,,,,,,,,
1732158203.571768,1732158203.575567,123.000000,0.000000,4293.077148,4277.179688,4299.743652,4308.077148,4290.897461,4288.205078,4334.102539,4398.717773,4305.256348,4278.846191,4473.077148,4497.436035,4348.974121,4423.589844,1559.000000,1.000000,21.000000,,,,0.000000,2.000000,2.000000,0.000000,4.000000,2.000000,2.000000,0.000000,0.000000,4.000000,4.000000,4.000000,4.000000,4.000000,4.000000,0.000000,,,,,,,,,,,,,,,,,,,,,,,,,,,,
1732158203.579577,1732158203.583475,124.000000,0.000000,4293.717773,4270.512695,4300.000000,4306.025879,4285.769043,4293.205078,4333.974121,4396.538574,4314.487305,4287.820313,4476.282227,4498.077148,4347.692383,4422.820313,1710.000000,1.000000,21.000000,,,,0.000000,2.000000,2.000000,0.000000,4.000000,2.000000,2.000000,0.000000,0.000000,4.000000,4.000000,4.000000,4.000000,4.000000,4.000000,0.000000,,,,,,,,,,,,,,,,,31.000000,0.000000,0.515064,0.501343,-0.520752,0.460632,0.952265,0.009278,-0.056159,-34.148376,46.048046,31.095770
1732158203.587385,1732158203.591283,125.000000,0.000000,4293.717773,4272.051270,4302.051270,4304.871582,4292.179688,4296.794922,4334.102539,4397.948730,4318.205078,4293.333496,4485.000000,4505.769043,4349.871582,4427.563965,1594.000000,1.000000,21.000000,,,,0.000000,2.000000,2.000000,0.000000,4.000000,2.000000,2.000000,0.000000,0.000000,4.000000,4.000000,4.000000,4.000000,4.000000,4.000000,0.000000,,,,,,,,,,,,,,,,,,,,,,,,,,,,
1732158203.595193,1732158203.598891,126.000000,0.000000,4294.487305,4276.025879,4304.615234,4305.256348,4292.051270,4288.846191,4333.974121,4398.333496,4309.487305,4287.820313,4482.692383,4505.897461,4351.922852,4429.487305,1553.000000,1.000000,21.000000,,,,0.000000,2.000000,2.000000,0.000000,4.000000,2.000000,2.000000,0.000000,0.000000,4.000000,4.000000,4.000000,4.000000,4.000000,4.000000,0.000000,,,,,,,,,,,,,,,,,,,,,,,,,,,,
1732158203.603001,1732158203.606700,127.000000,0.000000,4296.922852,4276.282227,4305.641113,4307.307617,4283.589844,4280.641113,4334.102539,4396.538574,4308.974121,4292.692383,4481.282227,4505.769043,4350.384766,4429.358887,21.000000,1.000000,21.000000,,,,0.000000,2.000000,2.000000,0.000000,4.000000,2.000000,2.000000,0.000000,0.000000,4.000000,4.000000,4.000000,4.000000,4.000000,4.000000,0.000000,,,,,,,,,,,,,,,,,,,,,,,,,,,,
1732158203.610810,1732158203.614408,0.000000,0.000000,4297.563965,4275.128418,4307.051270,4311.153809,4292.563965,4278.846191,4333.974121,4395.769043,4310.769043,4296.282227,4481.153809,4509.358887,4348.717773,4430.384766,0.000000,1.000000,21.000000,,,,0.000000,2.000000,2.000000,0.000000,4.000000,2.000000,2.000000,0.000000,0.000000,4.000000,4.000000,4.000000,4.000000,4.000000,4.000000,0.000000,,,,,,,,,,,,,,,,,0.000000,0.000000,0.513623,0.500305,-0.522522,0.461365,0.954706,0.004395,-0.043462,-34.341854,46.007252,31.299240
1732158203.618618,1732158203.622216,1.000000,0.000000,4295.384766,4270.000000,4309.358887,4311.282227,4303.717773,4281.282227,4333.974121,4397.820313,4306.794922,4283.974121,4475.641113,4506.666504,4345.128418,4426.153809,1611.000000,1.000000,21.000000,,,,0.000000,2.000000,2.000000,0.000000,4.000000,2.000000,2.000000,0.000000,0.000000,4.000000,4.000000,4.000000,4.000000,4.000000,4.000000,0.000000,,,,,,,,,,,,,,,,,,,,,,,,,,,,
1732158203.626426,1732158203.629824,2.000000,0.000000,4293.974121,4263.717773,4310.512695,4306.538574,4286.410156,4285.128418,4334.358887,4400.769043,4309.102539,4281.153809,4473.846191,4503.589844,4340.641113,4423.205078,1361.000000,1.000000,21.000000,,,,0.000000,2.000000,2.000000,0.000000,4.000000,2.000000,2.000000,0.000000,0.000000,4.000000,4.000000,4.000000,4.000000,4.000000,4.000000,0.000000,,,,,,,,,,,,,,,,,,,,,,,,,,,,
1732158203.634234,1732158203.637633,3.000000,0.000000,4294.230957,4266.794922,4309.871582,4305.641113,4269.871582,4284.615234,4335.000000,4399.871582,4311.794922,4292.692383,4475.384766,4505.000000,4339.230957,4428.589844,1427.000000,1.000000,21.000000,,,,0.000000,2.000000,2.000000,0.000000,4.000000,2.000000,2.000000,0.000000,0.000000,4.000000,4.000000,4.000000,4.000000,4.000000,4.000000,0.000000,,,,,,,,,,,,,,,,,,,,,,,,,,,,
1732158203.642043,1732158203.645341,4.000000,0.000000,4295.128418,4273.589844,4312.948730,4310.384766,4278.461426,4281.410156,4335.128418,4398.974121,4306.538574,4293.205078,4476.025879,4507.051270,4343.717773,4430.769043,1426.000000,1.000000,21.000000,,,,0.000000,2.000000,2.000000,0.000000,4.000000,2.000000,2.000000,0.000000,0.000000,4.000000,4.000000,4.000000,4.000000,4.000000,4.000000,0.000000,,,,,,,,,,,,,,,,,1.000000,0.000000,0.512200,0.496399,-0.526978,0.462097,0.976193,0.017092,-0.044439,-34.183567,46.049206,31.300718
1732158203.649851,1732158203.653149,5.000000,0.000000,4297.820313,4277.436035,4316.922852,4312.692383,4280.384766,4281.666504,4334.615234,4401.538574,4310.384766,4292.307617,4479.487305,4511.282227,4349.615234,4431.282227,1205.000000,1.000000,21.000000,,,,0.000000,2.000000,2.000000,0.000000,4.000000,2.000000,2.000000,0.000000,0.000000,4.000000,4.000000,4.000000,4.000000,4.000000,4.000000,0.000000,,,,,,,,,,,,,,,,,,,,,,,,,,,,
1732158203.657659,1732158203.660758,6.000000,0.000000,4298.974121,4274.102539,4316.410156,4310.641113,4282.179688,4282.563965,4334.743652,4401.794922,4313.077148,4295.000000,4480.000000,4511.666504,4351.794922,4436.922852,0.000000,1.000000,21.000000,,,,0.000000,2.000000,2.000000,0.000000,4.000000,2.000000,2.000000,0.000000,0.000000,4.000000,4.000000,4.000000,4.000000,4.000000,4.000000,0.000000,,,,,,,,,,,,,,,,,,,,,,,,,,,,
1732158203.665467,1732158203.668566,7.000000,0.000000,4297.051270,4267.307617,4315.000000,4307.692383,4296.410156,4280.512695,4336.153809,4399.487305,4302.307617,4288.589844,4477.307617,4506.410156,4350.000000,4441.153809,0.000000,1.000000,21.000000,,,,0.000000,2.000000,2.000000,0.000000,4.000000,2.000000,2.000000,0.000000,0.000000,4.000000,4.000000,4.000000,4.000000,4.000000,4.000000,0.000000,,,,,,,,,,,,,,,,,,,,,,,,,,,,
1732158203.673276,1732158203.676274,8.000000,0.000000,4297.307617,4268.846191,4316.025879,4309.358887,4290.000000,4280.641113,4336.538574,4400.769043,4302.563965,4288.333496,4483.461426,4507.436035,4349.615234,4437.563965,1528.000000,1.000000,21.000000,,,,0.000000,2.000000,2.000000,0.000000,4.000000,2.000000,2.000000,0.000000,0.000000,4.000000,4.000000,4.000000,4.000000,4.000000,4.000000,0.000000,,,,,,,,,,,,,,,,,2.000000,0.000000,0.511864,0.495544,-0.527893,0.462341,0.985472,0.024417,-0.055671,-34.213688,46.074856,31.256914
1732158203.681084,1732158203.684082,9.000000,0.000000,4297.948730,4270.384766,4316.666504,4312.179688,4271.410156,4284.871582,4335.384766,4401.666504,4313.717773,4297.820313,4484.487305,4513.077148,4353.077148,4432.820313,1690.000000,1.000000,21.000000,,,,0.000000,2.000000,2.000000,0.000000,4.000000,2.000000,2.000000,0.000000,0.000000,4.000000,4.000000,4.000000,4.000000,4.000000,4.000000,0.000000,,,,,,,,,,,,,,,,,,,,,,,,,,,,
1732158203.688892,1732158203.691691,10.000000,0.000000,4296.666504,4266.922852,4317.051270,4311.794922,4275.256348,4284.102539,4335.000000,4401.410156,4313.717773,4296.153809,4476.282227,4512.051270,4350.384766,4433.461426,1549.000000,1.000000,21.000000,,,,0.000000,2.000000,2.000000,0.000000,4.000000,2.000000,2.000000,0.000000,0.000000,4.000000,4.000000,4.000000,4.000000,4.000000,4.000000,0.000000,,,,,,,,,,,,,,,,,,,,,,,,,,,,
1732158203.696700,1732158203.699499,11.000000,0.000000,4296.922852,4271.282227,4317.692383,4310.128418,4283.205078,4282.179688,4334.743652,4402.307617,4308.205078,4290.512695,4473.846191,4507.436035,4343.846191,4433.205078,1559.000000,1.000000,21.000000,,,,0.000000,2.000000,2.000000,0.000000,4.000000,2.000000,2.000000,0.000000,0.000000,4.000000,4.000000,4.000000,4.000000,4.000000,4.000000,0.000000,,,,,,,,,,,,,,,,,,,,,,,,,,,,
1732158203.704509,1732158203.707207,12.000000,0.000000,4297.307617,4276.410156,4316.794922,4311.153809,4282.051270,4288.333496,4334.871582,4400.897461,4310.512695,4293.333496,4475.384766,4506.410156,4345.769043,4429.358887,1713.000000,1.000000,21.000000,,,,0.000000,2.000000,2.000000,0.000000,4.000000,2.000000,2.000000,0.000000,0.000000,4.000000,4.000000,4.000000,4.000000,4.000000,4.000000,0.000000,,,,,,,,,,,,,,,,,3.000000,0.000000,0.511818,0.493896,-0.529480,0.462341,0.974728,0.025394,-0.056159,-34.331421,45.997299,31.556435
1732158203.712317,1732158203.715015,13.000000,0.000000,4296.794922,4269.358887,4317.820313,4313.846191,4282.692383,4290.256348,4335.641113,4399.358887,4309.615234,4293.333496,4477.820313,4508.077148,4351.538574,4429.871582,1594.000000,1.000000,21.000000,,,,0.000000,2.000000,2.000000,0.000000,4.000000,2.000000,2.000000,0.000000,0.000000,4.000000,4.000000,4.000000,4.000000,4.000000,4.000000,0.000000,,,,,,,,,,,,,,,,,,,,,,,,,,,,
1732158203.720125,1732158203.722624,14.000000,0.000000,4294.615234,4262.179688,4318.205078,4310.384766,4282.307617,4282.820313,4335.000000,4401.922852,4307.179688,4292.436035,4481.153809,4508.974121,4350.384766,4432.436035,1549.000000,1.000000,21.000000,,,,0.000000,2.000000,2.000000,0.000000,4.000000,2.000000,2.000000,0.000000,0.000000,4.000000,4.000000,4.000000,4.000000,4.000000,4.000000,0.000000,1.000000,0.000000,2.000000,2.000000,0.000000,4.000000,2.000000,1.000000,0.000000,0.000000,4.000000,4.000000,4.000000,4.000000,4.000000,4.000000,,,,,,,,,,,,
1732158203.727934,1732158203.730432,15.000000,0.000000,4290.897461,4262.179688,4318.846191,4301.282227,4280.256348,4280.256348,4334.358887,4401.410156,4312.179688,4294.615234,4477.179688,4508.077148,4344.615234,4429.487305,1559.000000,1.000000,21.000000,,,,0.000000,2.000000,2.000000,0.000000,4.000000,2.000000,2.000000,0.000000,0.000000,4.000000,4.000000,4.000000,4.000000,4.000000,4.000000,0.000000,,,,,,,,,,,,,,,,,,,,,,,,,,,,
1732158203.735742,1732158203.738340,16.000000,0.000000,4289.230957,4263.461426,4320.512695,4297.179688,4280.897461,4284.230957,4336.538574,4400.000000,4311.410156,4292.179688,4473.717773,4506.282227,4346.153809,4427.563965,0.000000,1.000000,21.000000,,,,0.000000,2.000000,2.000000,0.000000,4.000000,2.000000,2.000000,0.000000,0.000000,4.000000,4.000000,4.000000,4.000000,4.000000,4.000000,0.000000,,,,,,,,,,,,,,,,,4.000000,0.000000,0.511143,0.493164,-0.529907,0.463379,0.981565,0.016115,-0.045416,-34.478451,45.827812,31.325712
1732158203.743550,1732158203.746148,17.000000,0.000000,4289.871582,4261.794922,4320.512695,4300.641113,4282.436035,4282.948730,4337.307617,4405.641113,4307.307617,4291.538574,4477.307617,4507.820313,4351.025879,4429.487305,0.000000,1.000000,21.000000,,,,0.000000,2.000000,2.000000,0.000000,4.000000,2.000000,2.000000,0.000000,0.000000,4.000000,4.000000,4.000000,4.000000,4.000000,4.000000,0.000000,,,,,,,,,,,,,,,,,,,,,,,,,,,,
1732158203.751358,1732158203.754156,18.000000,0.000000,4290.128418,4260.128418,4318.333496,4302.948730,4279.487305,4280.256348,4335.641113,4407.948730,4309.230957,4295.512695,4477.307617,4515.256348,4348.077148,4430.769043,0.000000,1.000000,21.000000,,,,0.000000,2.000000,2.000000,0.000000,4.000000,2.000000,2.000000,0.000000,0.000000,4.000000,4.000000,4.000000,4.000000,4.000000,4.000000,0.000000,,,,,,,,,,,,,,,,,,,,,,,,,,,,
1732158203.759166,1732158203.761965,19.000000,0.000000,4291.538574,4263.205078,4318.846191,4301.282227,4277.820313,4281.153809,4338.205078,4402.179688,4305.641113,4290.769043,4475.000000,4521.794922,4339.102539,4429.487305,0.000000,1.000000,21.000000,,,,0.000000,2.000000,2.000000,0.000000,4.000000,2.000000,2.000000,0.000000,0.000000,4.000000,4.000000,4.000000,4.000000,4.000000,4.000000,0.000000,,,,,,,,,,,,,,,,,,,,,,,,,,,,
1732158203.766975,1732158203.769873,20.000000,0.000000,4293.846191,4265.897461,4318.974121,4300.512695,4290.512695,4278.974121,4340.384766,4400.000000,4297.563965,4279.487305,4474.871582,4517.948730,4339.615234,4429.230957,0.000000,1.000000,21.000000,,,,0.000000,2.000000,2.000000,0.000000,4.000000,2.000000,2.000000,0.000000,0.000000,4.000000,4.000000,4.000000,4.000000,4.000000,4.000000,0.000000,,,,,,,,,,,,,,,,,5.000000,0.000000,0.510629,0.492737,-0.529785,0.464539,0.979612,0.006348,-0.036626,-34.605881,45.698864,31.202160
1732158203.774783,1732158203.777681,21.000000,0.000000,4294.358887,4265.512695,4317.692383,4301.794922,4294.487305,4278.461426,4336.538574,4402.948730,4297.563965,4279.102539,4474.487305,4513.589844,4349.743652,4433.333496,0.000000,1.000000,21.000000,,,,0.000000,2.000000,2.000000,0.000000,4.000000,2.000000,2.000000,0.000000,0.000000,4.000000,4.000000,4.000000,4.000000,4.000000,4.000000,0.000000,,,,,,,,,,,,,,,,,,,,,,,,,,,,
1732158203.782591,1732158203.785689,22.000000,0.000000,4295.000000,4265.000000,4319.102539,4305.769043,4276.410156,4279.871582,4334.102539,4402.820313,4305.384766,4286.794922,4473.974121,4514.871582,4350.512695,4435.384766,0.000000,1.000000,21.000000,,,,0.000000,2.000000,2.000000,0.000000,4.000000,2.000000,2.000000,0.000000,0.000000,4.000000,4.000000,4.000000,4.000000,4.000000,4.000000,0.000000,,,,,,,,,,,,,,,,,,,,,,,,,,,,
1732158203.790399,1732158203.793497,23.000000,0.000000,4295.384766,4266.538574,4319.615234,4307.563965,4270.512695,4280.897461,4334.487305,4401.410156,4308.205078,4287.436035,4473.974121,4515.256348,4342.692383,4432.436035,0.000000,1.000000,21.000000,,,,0.000000,2.000000,2.000000,0.000000,4.000000,2.000000,2.000000,0.000000,0.000000,4.000000,4.000000,4.000000,4.000000,4.000000,4.000000,0.000000,,,,,,,,,,,,,,,,,,,,,,,,,,,,
1732158203.798208,1732158203.801405,24.000000,0.000000,4294.230957,4266.538574,4317.948730,4309.743652,4281.538574,4285.512695,4334.102539,4401.410156,4302.692383,4280.512695,4471.025879,4512.436035,4339.615234,4429.230957,0.000000,1.000000,21.000000,,,,0.000000,2.000000,2.000000,0.000000,4.000000,2.000000,2.000000,0.000000,0.000000,4.000000,4.000000,4.000000,4.000000,4.000000,4.000000,0.000000,,,,,,,,,,,,,,,,,6.000000,0.000000,0.510693,0.492432,-0.529846,0.464722,0.982542,0.018069,-0.038579,-34.364094,45.724411,31.543749
1732158203.806016,1732158203.809213,25.000000,0.000000,4295.000000,4263.846191,4319.487305,4310.128418,4281.025879,4290.128418,4334.487305,4400.512695,4302.307617,4278.846191,4471.922852,4509.615234,4343.333496,4430.128418,0.000000,1.000000,21.000000,,,,0.000000,2.000000,2.000000,0.000000,4.000000,2.000000,2.000000,0.000000,0.000000,4.000000,4.000000,4.000000,4.000000,4.000000,4.000000,0.000000,,,,,,,,,,,,,,,,,,,,,,,,,,,,
1732158203.813824,1732158203.816822,26.000000,0.000000,4293.717773,4264.615234,4320.769043,4304.743652,4280.641113,4288.717773,4336.153809,4400.641113,4308.717773,4283.974121,4475.384766,4508.077148,4345.384766,4429.743652,0.000000,1.000000,21.000000,,,,0.000000,2.000000,2.000000,0.000000,4.000000,2.000000,2.000000,0.000000,0.000000,4.000000,4.000000,4.000000,4.000000,4.000000,4.000000,0.000000,,,,,,,,,,,,,,,,,,,,,,,,,,,,
1732158203.821633,1732158203.824630,27.000000,0.000000,4286.410156,4262.692383,4318.461426,4301.410156,4290.000000,4287.179688,4335.384766,4402.948730,4308.846191,4282.948730,4471.922852,4504.230957,4340.897461,4422.820313,0.000000,1.000000,21.000000,,,,0.000000,2.000000,2.000000,0.000000,4.000000,2.000000,2.000000,0.000000,0.000000,4.000000,4.000000,4.000000,4.000000,4.000000,4.000000,0.000000,,,,,,,,,,,,,,,,,,,,,,,,,,,,
1732158203.829441,1732158203.832538,28.000000,0.000000,4280.641113,4253.846191,4317.563965,4300.641113,4291.922852,4293.589844,4334.487305,4404.615234,4304.487305,4280.256348,4469.487305,4502.820313,4339.358887,4420.000000,0.000000,1.000000,21.000000,,,,0.000000,2.000000,2.000000,0.000000,4.000000,2.000000,2.000000,0.000000,0.000000,4.000000,4.000000,4.000000,4.000000,4.000000,4.000000,0.000000,,,,,,,,,,,,,,,,,7.000000,0.000000,0.510821,0.491699,-0.530457,0.464661,0.975217,0.029300,-0.051276,-34.356583,45.583439,31.622103
1732158203.837249,1732158203.840346,29.000000,0.000000,4280.769043,4254.487305,4318.846191,4298.974121,4286.025879,4296.410156,4335.128418,4404.102539,4312.436035,4288.846191,4474.230957,4506.153809,4346.282227,4424.487305,0.000000,1.000000,21.000000,,,,0.000000,2.000000,2.000000,0.000000,4.000000,2.000000,2.000000,0.000000,0.000000,4.000000,4.000000,4.000000,4.000000,4.000000,4.000000,0.000000,,,,,,,,,,,,,,,,,,,,,,,,,,,,
1732158203.845057,1732158203.848354,30.000000,0.000000,4281.666504,4264.230957,4319.615234,4300.384766,4290.769043,4288.205078,4335.000000,4404.487305,4316.153809,4297.563965,4479.615234,4508.974121,4352.307617,4429.230957,0.000000,1.000000,21.000000,,,,0.000000,2.000000,2.000000,0.000000,4.000000,2.000000,2.000000,0.000000,0.000000,4.000000,4.000000,4.000000,4.000000,4.000000,4.000000,0.000000,,,,,,,,,,,,,,,,,,,,,,,,,,,,
1732158203.852865,1732158203.856163,31.000000,0.000000,4285.512695,4264.743652,4318.205078,4303.077148,4303.846191,4280.769043,4334.871582,4405.641113,4302.051270,4291.666504,4478.077148,4508.846191,4351.922852,4432.820313,0.000000,1.000000,21.000000,,,,0.000000,2.000000,2.000000,0.000000,4.000000,2.000000,2.000000,0.000000,0.000000,4.000000,4.000000,4.000000,4.000000,4.000000,4.000000,0.000000,,,,,,,,,,,,,,,,,,,,,,,,,,,,
1732158203.860674,1732158203.864071,32.000000,0.000000,4293.461426,4260.769043,4317.948730,4299.743652,4292.051270,4280.769043,4335.000000,4402.948730,4296.025879,4283.333496,4477.563965,4514.615234,4350.641113,4435.769043,0.000000,1.000000,21.000000,,,,0.000000,2.000000,2.000000,0.000000,4.000000,2.000000,2.000000,0.000000,0.000000,4.000000,4.000000,4.000000,4.000000,4.000000,4.000000,0.000000,,,,,,,,,,,,,,,,,8.000000,0.000000,0.509275,0.491333,-0.531372,0.465698,0.986937,0.018557,-0.062019,-34.467167,45.535919,31.452238
1732158203.868482,1732158203.871879,33.000000,0.000000,4297.179688,4261.922852,4319.871582,4298.974121,4267.179688,4282.179688,4335.000000,4400.128418,4303.077148,4288.589844,4483.077148,4518.846191,4349.871582,4430.769043,0.000000,1.000000,21.000000,,,,0.000000,2.000000,2.000000,0.000000,4.000000,2.000000,2.000000,0.000000,0.000000,4.000000,4.000000,4.000000,4.000000,4.000000,4.000000,0.000000,,,,,,,,,,,,,,,,,,,,,,,,,,,,
1732158203.876290,1732158203.879887,34.000000,0.000000,4296.153809,4261.410156,4320.256348,4305.512695,4267.563965,4282.820313,4335.000000,4405.256348,4309.487305,4295.897461,4485.512695,4510.641113,4350.128418,4428.461426,0.000000,1.000000,21.000000,,,,0.000000,2.000000,2.000000,0.000000,4.000000,2.000000,2.000000,0.000000,0.000000,4.000000,4.000000,4.000000,4.000000,4.000000,4.000000,0.000000,,,,,,,,,,,,,,,,,,,,,,,,,,,,
1732158203.884098,1732158203.887695,35.000000,0.000000,4296.282227,4260.897461,4318.589844,4304.743652,4278.461426,4281.666504,4335.000000,4410.000000,4308.974121,4294.230957,4485.897461,4508.717773,4352.436035,4438.717773,0.000000,1.000000,21.000000,,,,0.000000,2.000000,2.000000,0.000000,4.000000,2.000000,2.000000,0.000000,0.000000,4.000000,4.000000,4.000000,4.000000,4.000000,4.000000,0.000000,,,,,,,,,,,,,,,,,,,,,,,,,,,,
1732158203.891907,1732158203.895603,36.000000,0.000000,4296.410156,4261.922852,4320.897461,4301.922852,4276.410156,4280.000000,4335.000000,4407.051270,4308.717773,4292.179688,4483.717773,4517.948730,4349.871582,4443.717773,0.000000,1.000000,21.000000,,,,0.000000,2.000000,2.000000,0.000000,4.000000,2.000000,2.000000,0.000000,0.000000,4.000000,4.000000,4.000000,4.000000,4.000000,4.000000,0.000000,,,,,,,,,,,,,,,,,9.000000,0.000000,0.508435,0.491211,-0.531860,0.466187,0.965450,0.014162,-0.054206,-34.703403,45.630760,31.489645
1732158203.899715,1732158203.903411,37.000000,0.000000,4297.179688,4260.256348,4323.333496,4307.692383,4279.102539,4283.846191,4335.000000,4404.615234,4312.179688,4295.641113,4481.922852,4516.410156,4347.692383,4440.641113,0.000000,1.000000,21.000000,,,,0.000000,2.000000,2.000000,0.000000,4.000000,2.000000,2.000000,0.000000,0.000000,4.000000,4.000000,4.000000,4.000000,4.000000,4.000000,0.000000,,,,,,,,,,,,,,,,,,,,,,,,,,,,
1732158203.907523,1732158203.911419,38.000000,0.000000,4300.897461,4260.769043,4322.307617,4310.256348,4281.025879,4287.692383,4335.000000,4408.461426,4311.282227,4297.307617,4486.025879,4513.205078,4357.563965,4443.077148,0.000000,1.000000,21.000000,,,,0.000000,2.000000,2.000000,0.000000,4.000000,2.000000,2.000000,0.000000,0.000000,4.000000,4.000000,4.000000,4.000000,4.000000,4.000000,0.000000,,,,,,,,,,,,,,,,,,,,,,,,,,,,
1732158203.915331,1732158203.919228,39.000000,0.000000,4305.384766,4262.307617,4320.512695,4299.871582,4270.000000,4282.820313,4335.000000,4408.717773,4306.922852,4294.487305,4491.153809,4516.410156,4367.307617,4446.282227,0.000000,1.000000,21.000000,,,,0.000000,2.000000,2.000000,0.000000,4.000000,2.000000,2.000000,0.000000,0.000000,4.000000,4.000000,4.000000,4.000000,4.000000,4.000000,0.000000,,,,,,,,,,,,,,,,,,,,,,,,,,,,
1732158203.923140,1732158203.927136,40.000000,0.000000,4308.077148,4260.897461,4318.589844,4293.846191,4266.922852,4278.717773,4334.871582,4401.794922,4303.333496,4292.563965,4488.461426,4512.307617,4364.358887,4444.230957,0.000000,1.000000,21.000000,,,,0.000000,2.000000,2.000000,0.000000,4.000000,2.000000,2.000000,0.000000,0.000000,4.000000,4.000000,4.000000,4.000000,4.000000,4.000000,0.000000,,,,,,,,,,,,,,,,,10.000000,0.000000,0.507269,0.490845,-0.532776,0.466797,0.960078,0.002930,-0.063484,-34.748093,45.524250,31.469946
1732158203.930948,1732158203.934944,41.000000,0.000000,4311.410156,4260.128418,4319.358887,4297.436035,4269.743652,4280.000000,4335.000000,4398.589844,4303.717773,4293.333496,4486.282227,4512.307617,4362.563965,4448.333496,0.000000,1.000000,21.000000,,,,0.000000,2.000000,2.000000,0.000000,4.000000,2.000000,2.000000,0.000000,0.000000,4.000000,4.000000,4.000000,4.000000,4.000000,4.000000,0.000000,,,,,,,,,,,,,,,,,,,,,,,,,,,,
1732158203.938756,1732158203.942552,42.000000,0.000000,4314.871582,4260.384766,4320.641113,4299.230957,4272.692383,4280.000000,4335.000000,4402.179688,4306.666504,4295.000000,4491.282227,4520.769043,4371.538574,4459.358887,0.000000,1.000000,21.000000,,,,0.000000,2.000000,2.000000,0.000000,4.000000,2.000000,2.000000,0.000000,0.000000,4.000000,4.000000,4.000000,4.000000,4.000000,4.000000,0.000000,,,,,,,,,,,,,,,,,,,,,,,,,,,,
1732158203.946564,1732158203.950361,43.000000,0.000000,4322.179688,4263.717773,4319.102539,4301.282227,4270.256348,4280.641113,4334.615234,4406.025879,4310.384766,4294.487305,4492.692383,4522.948730,4373.846191,4461.153809,0.000000,1.000000,21.000000,,,,0.000000,2.000000,2.000000,0.000000,4.000000,2.000000,2.000000,0.000000,0.000000,4.000000,4.000000,4.000000,4.000000,4.000000,4.000000,0.000000,,,,,,,,,,,,,,,,,,,,,,,,,,,,
1732158203.954373,1732158203.958069,44.000000,0.000000,4331.794922,4268.974121,4317.820313,4307.692383,4263.589844,4279.358887,4334.487305,4407.563965,4310.512695,4296.153809,4494.743652,4521.922852,4369.230957,4460.769043,0.000000,1.000000,21.000000,,,,0.000000,2.000000,2.000000,0.000000,4.000000,2.000000,2.000000,0.000000,0.000000,4.000000,4.000000,4.000000,4.000000,4.000000,4.000000,0.000000,,,,,,,,,,,,,,,,,11.000000,0.000000,0.506031,0.489258,-0.534180,0.468201,0.986449,-0.019045,-0.058601,-34.860954,45.394642,31.493990
1732158203.962181,1732158203.965877,45.000000,0.000000,4336.153809,4270.128418,4319.230957,4308.846191,4273.589844,4270.897461,4334.871582,4407.436035,4306.025879,4292.948730,4495.256348,4522.436035,4374.230957,4469.230957,0.000000,1.000000,21.000000,,,,0.000000,2.000000,2.000000,0.000000,4.000000,2.000000,2.000000,0.000000,0.000000,4.000000,4.000000,4.000000,4.000000,4.000000,4.000000,0.000000,,,,,,,,,,,,,,,,,,,,,,,,,,,,
1732158203.969989,1732158203.973486,46.000000,0.000000,4339.358887,4268.205078,4318.333496,4307.563965,4280.641113,4264.230957,4334.871582,4404.871582,4300.384766,4283.846191,4492.436035,4520.512695,4380.769043,4475.000000,0.000000,1.000000,21.000000,,,,0.000000,2.000000,2.000000,0.000000,4.000000,2.000000,2.000000,0.000000,0.000000,4.000000,4.000000,4.000000,4.000000,4.000000,4.000000,0.000000,,,,,,,,,,,,,,,,,,,,,,,,,,,,
1732158203.977797,1732158203.981294,47.000000,0.000000,4342.179688,4266.666504,4317.179688,4309.871582,4257.307617,4265.384766,4334.487305,4402.692383,4298.077148,4282.692383,4497.179688,4527.051270,4379.743652,4478.717773,0.000000,1.000000,21.000000,,,,0.000000,2.000000,2.000000,0.000000,4.000000,2.000000,2.000000,0.000000,0.000000,4.000000,4.000000,4.000000,4.000000,4.000000,4.000000,0.000000,,,,,,,,,,,,,,,,,,,,,,,,,,,,
1732158203.985606,1732158203.989002,48.000000,0.000000,4342.307617,4268.461426,4318.717773,4311.025879,4239.871582,4271.282227,4335.897461,4402.051270,4306.410156,4292.820313,4506.538574,4535.641113,4385.128418,4488.461426,0.000000,1.000000,21.000000,,,,0.000000,2.000000,2.000000,0.000000,4.000000,2.000000,2.000000,0.000000,0.000000,4.000000,4.000000,4.000000,4.000000,4.000000,4.000000,0.000000,,,,,,,,,,,,,,,,,12.000000,0.000000,0.505585,0.487488,-0.535522,0.468994,0.991332,-0.039067,-0.060554,-34.919041,45.206326,31.380131
1732158203.993414,1732158203.996810,49.000000,0.000000,4342.307617,4271.025879,4318.589844,4309.102539,4251.922852,4272.179688,4337.307617,4403.461426,4311.794922,4297.692383,4507.563965,4526.666504,4396.922852,4491.666504,0.000000,1.000000,21.000000,,,,0.000000,2.000000,2.000000,0.000000,4.000000,2.000000,2.000000,0.000000,0.000000,4.000000,4.000000,4.000000,4.000000,4.000000,4.000000,0.000000,,,,,,,,,,,,,,,,,,,,,,,,,,,,
1732158204.001222,1732158204.004419,50.000000,0.000000,4344.615234,4268.589844,4315.641113,4307.692383,4254.358887,4266.794922,4334.358887,4403.974121,4301.666504,4293.205078,4503.205078,4519.102539,4397.948730,4487.820313,0.000000,1.000000,21.000000,,,,0.000000,2.000000,2.000000,0.000000,4.000000,2.000000,2.000000,0.000000,0.000000,4.000000,4.000000,4.000000,4.000000,4.000000,4.000000,0.000000,,,,,,,,,,,,,,,,,,,,,,,,,,,,
1732158204.009030,1732158204.012227,51.000000,0.000000,4345.000000,4264.358887,4317.820313,4306.666504,4247.179688,4264.487305,4332.051270,4403.589844,4293.333496,4293.333496,4505.256348,4528.461426,4395.641113,4489.743652,0.000000,1.000000,21.000000,,,,0.000000,2.000000,2.000000,0.000000,4.000000,2.000000,2.000000,0.000000,0.000000,4.000000,4.000000,4.000000,4.000000,4.000000,4.000000,0.000000,,,,,,,,,,,,,,,,,,,,,,,,,,,,
1732158204.016839,1732158204.019935,52.000000,0.000000,4342.948730,4264.743652,4319.871582,4307.307617,4258.717773,4265.769043,4335.256348,4404.230957,4297.179688,4295.641113,4507.563965,4532.307617,4397.948730,4492.948730,0.000000,1.000000,21.000000,,,,0.000000,2.000000,2.000000,0.000000,4.000000,2.000000,2.000000,0.000000,0.000000,4.000000,4.000000,4.000000,4.000000,4.000000,4.000000,0.000000,,,,,,,,,,,,,,,,,13.000000,0.000000,0.505194,0.486633,-0.536133,0.469604,0.991332,-0.039067,-0.060554,-35.219421,45.008793,31.466240
1732158204.024647,1732158204.027743,53.000000,0.000000,4345.641113,4265.769043,4315.769043,4306.794922,4265.641113,4268.846191,4335.897461,4406.410156,4302.436035,4296.282227,4507.820313,4528.717773,4400.256348,4492.179688,0.000000,1.000000,21.000000,,,,0.000000,2.000000,2.000000,0.000000,4.000000,2.000000,2.000000,0.000000,0.000000,4.000000,4.000000,4.000000,4.000000,4.000000,4.000000,0.000000,,,,,,,,,,,,,,,,,,,,,,,,,,,,
1732158204.032455,1732158204.035352,54.000000,0.000000,4348.846191,4263.205078,4313.846191,4303.974121,4258.333496,4275.769043,4330.897461,4406.410156,4301.794922,4301.025879,4509.743652,4530.384766,4407.179688,4493.589844,0.000000,1.000000,21.000000,,,,0.000000,2.000000,2.000000,0.000000,4.000000,2.000000,2.000000,0.000000,0.000000,4.000000,4.000000,4.000000,4.000000,4.000000,4.000000,0.000000,,,,,,,,,,,,,,,,,,,,,,,,,,,,
1732158204.040264,1732158204.043160,55.000000,0.000000,4345.897461,4261.922852,4317.948730,4299.230957,4268.333496,4273.077148,4331.410156,4403.717773,4296.538574,4300.000000,4508.846191,4532.436035,4410.128418,4493.846191,0.000000,1.000000,21.000000,,,,0.000000,2.000000,2.000000,0.000000,4.000000,2.000000,2.000000,0.000000,0.000000,4.000000,4.000000,4.000000,4.000000,4.000000,4.000000,0.000000,,,,,,,,,,,,,,,,,,,,,,,,,,,,
1732158204.048072,1732158204.050868,56.000000,0.000000,4340.512695,4262.051270,4319.871582,4300.384766,4282.307617,4265.641113,4336.282227,4403.589844,4295.384766,4297.692383,4507.179688,4528.461426,4406.153809,4492.436035,0.000000,1.000000,21.000000,,,,0.000000,2.000000,2.000000,0.000000,4.000000,2.000000,2.000000,0.000000,0.000000,4.000000,4.000000,4.000000,4.000000,4.000000,4.000000,0.000000,,,,,,,,,,,,,,,,,14.000000,0.000000,0.504132,0.483154,-0.538452,0.471680,0.972775,-0.041509,-0.053717,-35.284397,45.165455,31.569321
1732158204.055880,1732158204.058677,57.000000,0.000000,4340.512695,4263.077148,4317.563965,4303.333496,4263.846191,4272.179688,4336.153809,4408.589844,4301.410156,4305.000000,4507.563965,4524.615234,4408.077148,4493.333496,0.000000,1.000000,21.000000,,,,0.000000,2.000000,2.000000,0.000000,4.000000,2.000000,2.000000,0.000000,0.000000,4.000000,4.000000,4.000000,4.000000,4.000000,4.000000,0.000000,,,,,,,,,,,,,,,,,,,,,,,,,,,,
1732158204.063688,1732158204.066285,58.000000,0.000000,4342.692383,4263.205078,4316.794922,4302.179688,4241.153809,4274.871582,4333.589844,4410.000000,4305.641113,4308.846191,4511.153809,4530.384766,4414.487305,4496.025879,0.000000,1.000000,21.000000,,,,0.000000,2.000000,2.000000,0.000000,4.000000,2.000000,2.000000,0.000000,0.000000,4.000000,4.000000,4.000000,4.000000,4.000000,4.000000,0.000000,,,,,,,,,,,,,,,,,,,,,,,,,,,,
1732158204.071496,1732158204.074093,59.000000,0.000000,4340.384766,4261.794922,4316.794922,4303.461426,4253.461426,4264.615234,4334.102539,4406.153809,4305.641113,4305.128418,4516.153809,4537.436035,4414.743652,4497.948730,0.000000,1.000000,21.000000,,,,0.000000,2.000000,2.000000,0.000000,4.000000,2.000000,2.000000,0.000000,0.000000,4.000000,4.000000,4.000000,4.000000,4.000000,4.000000,0.000000,,,,,,,,,,,,,,,,,,,,,,,,,,,,
1732158204.079305,1732158204.082001,60.000000,0.000000,4336.794922,4258.846191,4316.410156,4306.025879,4268.589844,4262.820313,4335.256348,4405.641113,4306.153809,4308.589844,4521.282227,4538.589844,4413.333496,4495.769043,0.000000,1.000000,21.000000,,,,0.000000,2.000000,2.000000,0.000000,4.000000,2.000000,2.000000,0.000000,0.000000,4.000000,4.000000,4.000000,4.000000,4.000000,4.000000,0.000000,,,,,,,,,,,,,,,,,15.000000,0.000000,0.503684,0.481506,-0.539063,0.473145,0.974240,-0.054206,-0.042974,-35.295364,45.342350,31.649483
1732158204.087113,1732158204.089809,61.000000,0.000000,4337.820313,4258.974121,4315.512695,4303.205078,4258.974121,4270.384766,4335.128418,4406.282227,4306.794922,4314.102539,4522.563965,4536.153809,4414.871582,4493.077148,0.000000,1.000000,21.000000,,,,0.000000,2.000000,2.000000,0.000000,4.000000,2.000000,2.000000,0.000000,0.000000,4.000000,4.000000,4.000000,4.000000,4.000000,4.000000,0.000000,,,,,,,,,,,,,,,,,,,,,,,,,,,,
1732158204.094921,1732158204.097817,62.000000,0.000000,4342.436035,4262.436035,4317.563965,4302.948730,4261.794922,4271.025879,4333.974121,4405.000000,4303.717773,4310.256348,4519.743652,4535.000000,4413.333496,4494.102539,0.000000,1.000000,21.000000,,,,0.000000,2.000000,2.000000,0.000000,4.000000,2.000000,2.000000,0.000000,0.000000,4.000000,4.000000,4.000000,4.000000,4.000000,4.000000,0.000000,,,,,,,,,,,,,,,,,,,,,,,,,,,,
1732158204.102729,1732158204.105626,63.000000,0.000000,4344.358887,4263.974121,4318.589844,4307.820313,4282.563965,4264.743652,4333.461426,4403.205078,4300.641113,4306.794922,4519.487305,4537.307617,4412.307617,4495.384766,0.000000,1.000000,21.000000,,,,0.000000,2.000000,2.000000,0.000000,4.000000,2.000000,2.000000,0.000000,0.000000,4.000000,4.000000,4.000000,4.000000,4.000000,4.000000,0.000000,,,,,,,,,,,,,,,,,,,,,,,,,,,,
1732158204.110538,1732158204.113334,64.000000,0.000000,4342.692383,4262.563965,4314.487305,4305.641113,4276.794922,4264.615234,4334.743652,4404.358887,4306.153809,4308.974121,4521.794922,4538.205078,4412.820313,4492.692383,0.000000,1.000000,21.000000,,,,0.000000,2.000000,2.000000,0.000000,4.000000,2.000000,2.000000,0.000000,0.000000,4.000000,4.000000,4.000000,4.000000,4.000000,4.000000,0.000000,,,,,,,,,,,,,,,,,16.000000,0.000000,0.503596,0.480286,-0.539429,0.474060,0.988890,-0.052252,-0.043951,-35.184242,45.310638,31.539415
1732158204.118346,1732158204.121142,65.000000,0.000000,4341.538574,4262.436035,4311.666504,4303.461426,4253.974121,4273.077148,4335.769043,4407.948730,4312.563965,4310.128418,4521.025879,4537.563965,4410.256348,4490.769043,1601.000000,1.000000,21.000000,,,,0.000000,2.000000,2.000000,0.000000,4.000000,2.000000,2.000000,0.000000,0.000000,4.000000,4.000000,4.000000,4.000000,4.000000,4.000000,0.000000,,,,,,,,,,,,,,,,,,,,,,,,,,,,
1732158204.126154,1732158204.128751,66.000000,0.000000,4342.436035,4263.846191,4316.922852,4306.922852,4256.794922,4275.128418,4336.025879,4405.128418,4309.358887,4304.102539,4519.230957,4541.538574,4409.615234,4495.000000,1357.000000,1.000000,21.000000,,,,0.000000,2.000000,2.000000,0.000000,4.000000,2.000000,2.000000,0.000000,0.000000,4.000000,4.000000,4.000000,4.000000,4.000000,4.000000,0.000000,,,,,,,,,,,,,,,,,,,,,,,,,,,,
1732158204.133963,1732158204.136559,67.000000,0.000000,4343.077148,4262.820313,4319.102539,4305.128418,4268.717773,4266.410156,4335.641113,4400.128418,4303.333496,4295.769043,4520.897461,4547.179688,4410.641113,4497.051270,1427.000000,1.000000,21.000000,,,,0.000000,2.000000,2.000000,0.000000,4.000000,2.000000,2.000000,0.000000,0.000000,4.000000,4.000000,4.000000,4.000000,4.000000,4.000000,0.000000,,,,,,,,,,,,,,,,,,,,,,,,,,,,
1732158204.141771,1732158204.144267,68.000000,0.000000,4342.820313,4262.692383,4315.256348,4306.410156,4263.974121,4264.358887,4334.487305,4403.205078,4306.025879,4298.846191,4521.410156,4542.948730,4407.436035,4492.820313,1424.000000,1.000000,21.000000,,,,0.000000,2.000000,2.000000,0.000000,4.000000,2.000000,2.000000,0.000000,0.000000,4.000000,4.000000,4.000000,4.000000,4.000000,4.000000,0.000000,,,,,,,,,,,,,,,,,17.000000,0.000000,0.503514,0.479675,-0.539673,0.474487,0.998657,-0.030765,-0.041997,-35.180904,45.188282,31.753593
1732158204.149579,1732158204.152075,69.000000,0.000000,4342.948730,4265.897461,4315.000000,4312.563965,4265.384766,4269.102539,4333.717773,4407.051270,4310.384766,4306.025879,4519.230957,4538.589844,4403.333496,4490.384766,1205.000000,1.000000,21.000000,,,,0.000000,2.000000,2.000000,0.000000,4.000000,2.000000,2.000000,0.000000,0.000000,4.000000,4.000000,4.000000,4.000000,4.000000,4.000000,0.000000,,,,,,,,,,,,,,,,,,,,,,,,,,,,
1732158204.157387,1732158204.160083,70.000000,0.000000,4342.563965,4264.743652,4318.589844,4311.666504,4275.897461,4271.922852,4333.205078,4404.358887,4311.666504,4302.820313,4520.897461,4541.922852,4403.205078,4492.820313,0.000000,1.000000,21.000000,,,,0.000000,2.000000,2.000000,0.000000,4.000000,2.000000,2.000000,0.000000,0.000000,4.000000,4.000000,4.000000,4.000000,4.000000,4.000000,0.000000,,,,,,,,,,,,,,,,,,,,,,,,,,,,
1732158204.165195,1732158204.167892,71.000000,0.000000,4338.461426,4259.102539,4318.717773,4306.282227,4278.717773,4275.641113,4332.820313,4402.563965,4310.256348,4298.205078,4521.153809,4541.922852,4401.153809,4492.307617,0.000000,1.000000,21.000000,,,,0.000000,2.000000,2.000000,0.000000,4.000000,2.000000,2.000000,0.000000,0.000000,4.000000,4.000000,4.000000,4.000000,4.000000,4.000000,0.000000,,,,,,,,,,,,,,,,,,,,,,,,,,,,
1732158204.173004,1732158204.175800,72.000000,0.000000,4334.102539,4258.974121,4316.922852,4308.589844,4278.974121,4281.025879,4334.230957,4402.563965,4309.230957,4299.358887,4518.205078,4538.205078,4396.538574,4488.333496,1531.000000,1.000000,21.000000,,,,0.000000,2.000000,2.000000,0.000000,4.000000,2.000000,2.000000,0.000000,0.000000,4.000000,4.000000,4.000000,4.000000,4.000000,4.000000,0.000000,,,,,,,,,,,,,,,,,18.000000,0.000000,0.502400,0.478271,-0.540344,0.476318,0.982053,-0.034672,-0.028812,-35.171532,45.279175,31.295410
1732158204.180812,1732158204.183608,73.000000,0.000000,4334.871582,4263.589844,4317.820313,4313.717773,4278.205078,4282.179688,4336.666504,4404.230957,4312.436035,4301.538574,4518.974121,4537.436035,4396.666504,4488.461426,1690.000000,1.000000,21.000000,,,,0.000000,2.000000,2.000000,0.000000,4.000000,2.000000,2.000000,0.000000,0.000000,4.000000,4.000000,4.000000,4.000000,4.000000,4.000000,0.000000,,,,,,,,,,,,,,,,,,,,,,,,,,,,
1732158204.188620,1732158204.191616,74.000000,0.000000,4334.871582,4258.717773,4318.333496,4310.128418,4275.256348,4279.102539,4335.256348,4409.358887,4313.461426,4301.025879,4521.410156,4537.563965,4399.230957,4492.307617,1546.000000,1.000000,21.000000,,,,0.000000,2.000000,2.000000,0.000000,4.000000,2.000000,2.000000,0.000000,0.000000,4.000000,4.000000,4.000000,4.000000,4.000000,4.000000,0.000000,,,,,,,,,,,,,,,,,,,,,,,,,,,,
1732158204.196428,1732158204.199424,75.000000,0.000000,4332.948730,4252.820313,4317.051270,4302.692383,4271.922852,4277.692383,4333.461426,4409.230957,4311.922852,4303.589844,4521.153809,4539.615234,4399.743652,4494.358887,1546.000000,1.000000,21.000000,,,,0.000000,2.000000,2.000000,0.000000,4.000000,2.000000,2.000000,0.000000,0.000000,4.000000,4.000000,4.000000,4.000000,4.000000,4.000000,0.000000,,,,,,,,,,,,,,,,,,,,,,,,,,,,
1732158204.204237,1732158204.207332,76.000000,0.000000,4335.512695,4258.974121,4316.666504,4306.025879,4271.025879,4280.128418,4335.256348,4405.256348,4313.077148,4308.077148,4520.256348,4541.538574,4398.974121,4493.461426,1706.000000,1.000000,21.000000,,,,0.000000,2.000000,2.000000,0.000000,4.000000,2.000000,2.000000,0.000000,0.000000,4.000000,4.000000,4.000000,4.000000,4.000000,4.000000,0.000000,,,,,,,,,,,,,,,,,19.000000,0.000000,0.502081,0.477661,-0.540588,0.476990,0.977658,-0.047857,-0.029300,-35.262276,45.284466,31.335949
1732158204.212045,1732158204.215140,77.000000,0.000000,4337.307617,4264.358887,4318.077148,4310.512695,4281.922852,4276.794922,4336.666504,4407.436035,4313.461426,4301.666504,4520.256348,4538.461426,4398.974121,4493.077148,1588.000000,1.000000,21.000000,,,,0.000000,2.000000,2.000000,0.000000,4.000000,2.000000,2.000000,0.000000,0.000000,4.000000,4.000000,4.000000,4.000000,4.000000,4.000000,0.000000,,,,,,,,,,,,,,,,,,,,,,,,,,,,
1732158204.219853,1732158204.223148,78.000000,0.000000,4336.025879,4261.538574,4318.974121,4308.333496,4289.743652,4272.563965,4335.128418,4407.820313,4311.794922,4296.025879,4521.922852,4538.205078,4398.717773,4495.128418,1546.000000,1.000000,21.000000,,,,0.000000,2.000000,2.000000,0.000000,4.000000,2.000000,2.000000,0.000000,0.000000,4.000000,4.000000,4.000000,4.000000,4.000000,4.000000,0.000000,1.000000,0.000000,2.000000,2.000000,0.000000,4.000000,2.000000,2.000000,0.000000,0.000000,4.000000,4.000000,4.000000,4.000000,4.000000,4.000000,,,,,,,,,,,,
1732158204.227661,1732158204.230957,79.000000,0.000000,4333.846191,4263.077148,4318.461426,4308.846191,4273.205078,4276.025879,4334.358887,4401.922852,4311.410156,4299.871582,4518.333496,4539.871582,4395.641113,4490.897461,1546.000000,1.000000,21.000000,,,,0.000000,2.000000,2.000000,0.000000,4.000000,2.000000,2.000000,0.000000,0.000000,4.000000,4.000000,4.000000,4.000000,4.000000,4.000000,0.000000,,,,,,,,,,,,,,,,,,,,,,,,,,,,
1732158204.235470,1732158204.238665,80.000000,0.000000,4329.487305,4265.769043,4315.641113,4312.307617,4259.615234,4279.615234,4335.000000,4399.358887,4310.769043,4300.128418,4510.256348,4532.563965,4390.769043,4479.871582,1706.000000,1.000000,21.000000,,,,0.000000,2.000000,2.000000,0.000000,4.000000,2.000000,2.000000,0.000000,0.000000,4.000000,4.000000,4.000000,4.000000,4.000000,4.000000,0.000000,,,,,,,,,,,,,,,,,20.000000,0.000000,0.502081,0.477661,-0.540588,0.476990,0.983030,-0.046392,-0.029300,-35.320774,45.273750,31.323786
1732158204.243278,1732158204.246473,81.000000,0.000000,4325.641113,4259.487305,4316.025879,4310.512695,4269.615234,4278.589844,4334.871582,4402.948730,4307.307617,4295.256348,4507.563965,4525.256348,4390.641113,4473.717773,1588.000000,1.000000,21.000000,,,,0.000000,2.000000,2.000000,0.000000,4.000000,2.000000,2.000000,0.000000,0.000000,4.000000,4.000000,4.000000,4.000000,4.000000,4.000000,0.000000,,,,,,,,,,,,,,,,,,,,,,,,,,,,
1732158204.251086,1732158204.254481,82.000000,0.000000,4324.871582,4256.153809,4318.077148,4308.333496,4279.487305,4277.692383,4334.871582,4405.000000,4311.153809,4296.794922,4510.256348,4526.282227,4393.717773,4475.769043,1546.000000,1.000000,21.000000,,,,0.000000,2.000000,2.000000,0.000000,4.000000,2.000000,2.000000,0.000000,0.000000,4.000000,4.000000,4.000000,4.000000,4.000000,4.000000,0.000000,,,,,,,,,,,,,,,,,,,,,,,,,,,,
1732158204.258894,1732158204.262289,83.000000,0.000000,4323.974121,4258.974121,4318.589844,4310.897461,4278.077148,4281.410156,4334.743652,4404.743652,4314.102539,4299.615234,4509.358887,4530.256348,4388.205078,4476.025879,1546.000000,1.000000,21.000000,,,,0.000000,2.000000,2.000000,0.000000,4.000000,2.000000,2.000000,0.000000,0.000000,4.000000,4.000000,4.000000,4.000000,4.000000,4.000000,0.000000,,,,,,,,,,,,,,,,,,,,,,,,,,,,
1732158204.266703,1732158204.270197,84.000000,0.000000,4324.743652,4258.205078,4318.205078,4310.769043,4277.436035,4278.461426,4334.230957,4405.256348,4303.717773,4296.282227,4507.436035,4529.358887,4385.128418,4473.461426,1706.000000,1.000000,21.000000,,,,0.000000,2.000000,2.000000,0.000000,4.000000,2.000000,2.000000,0.000000,0.000000,4.000000,4.000000,4.000000,4.000000,4.000000,4.000000,0.000000,,,,,,,,,,,,,,,,,21.000000,0.000000,0.501984,0.476929,-0.540894,0.477478,0.980588,-0.017092,-0.032230,-35.383163,45.330070,31.287266
1732158204.274511,1732158204.278006,85.000000,0.000000,4328.333496,4262.179688,4316.794922,4310.256348,4281.794922,4268.974121,4335.512695,4403.974121,4300.769043,4294.615234,4509.487305,4530.641113,4392.820313,4474.871582,1588.000000,1.000000,21.000000,,,,0.000000,2.000000,2.000000,0.000000,4.000000,2.000000,2.000000,0.000000,0.000000,4.000000,4.000000,4.000000,4.000000,4.000000,4.000000,0.000000,,,,,,,,,,,,,,,,,,,,,,,,,,,,
1732158204.282319,1732158204.286014,86.000000,0.000000,4328.077148,4265.641113,4315.384766,4310.512695,4279.487305,4270.512695,4335.000000,4401.282227,4311.794922,4295.897461,4510.384766,4537.436035,4395.512695,4477.563965,1546.000000,1.000000,21.000000,,,,0.000000,2.000000,2.000000,0.000000,4.000000,2.000000,2.000000,0.000000,0.000000,4.000000,4.000000,4.000000,4.000000,4.000000,4.000000,0.000000,,,,,,,,,,,,,,,,,,,,,,,,,,,,
1732158204.290127,1732158204.293822,87.000000,0.000000,4325.128418,4253.589844,4316.153809,4308.974121,4277.436035,4281.153809,4332.948730,4403.717773,4315.512695,4298.974121,4509.743652,4541.282227,4389.615234,4477.692383,1546.000000,1.000000,21.000000,,,,0.000000,2.000000,2.000000,0.000000,4.000000,2.000000,2.000000,0.000000,0.000000,4.000000,4.000000,4.000000,4.000000,4.000000,4.000000,0.000000,,,,,,,,,,,,,,,,,,,,,,,,,,,,
1732158204.297936,1732158204.301730,88.000000,0.000000,4324.871582,4246.025879,4317.692383,4306.666504,4293.717773,4283.205078,4334.230957,4408.205078,4312.179688,4299.871582,4508.846191,4537.436035,4386.538574,4475.256348,1706.000000,1.000000,21.000000,,,,0.000000,2.000000,2.000000,0.000000,4.000000,2.000000,2.000000,0.000000,0.000000,4.000000,4.000000,4.000000,4.000000,4.000000,4.000000,0.000000,,,,,,,,,,,,,,,,,22.000000,0.000000,0.501879,0.476685,-0.541260,0.477417,0.976193,-0.017580,-0.030277,-35.323696,45.330692,31.422686
1732158204.305744,1732158204.309538,89.000000,0.000000,4325.897461,4254.615234,4316.922852,4305.769043,4299.871582,4279.487305,4336.794922,4404.743652,4313.461426,4299.230957,4507.948730,4532.051270,4385.641113,4473.205078,1588.000000,1.000000,21.000000,,,,0.000000,2.000000,2.000000,0.000000,4.000000,2.000000,2.000000,0.000000,0.000000,4.000000,4.000000,4.000000,4.000000,4.000000,4.000000,0.000000,,,,,,,,,,,,,,,,,,,,,,,,,,,,
1732158204.313552,1732158204.317346,90.000000,0.000000,4327.436035,4258.205078,4318.205078,4309.102539,4268.589844,4282.307617,4336.410156,4400.769043,4313.717773,4303.333496,4509.871582,4535.897461,4387.051270,4476.538574,1546.000000,1.000000,21.000000,,,,0.000000,2.000000,2.000000,0.000000,4.000000,2.000000,2.000000,0.000000,0.000000,4.000000,4.000000,4.000000,4.000000,4.000000,4.000000,0.000000,,,,,,,,,,,,,,,,,,,,,,,,,,,,
1732158204.321360,1732158204.325155,91.000000,0.000000,4323.717773,4251.666504,4319.487305,4308.333496,4260.128418,4282.307617,4335.512695,4402.051270,4312.436035,4307.307617,4511.922852,4539.615234,4393.717773,4478.846191,1546.000000,1.000000,21.000000,,,,0.000000,2.000000,2.000000,0.000000,4.000000,2.000000,2.000000,0.000000,0.000000,4.000000,4.000000,4.000000,4.000000,4.000000,4.000000,0.000000,,,,,,,,,,,,,,,,,,,,,,,,,,,,
1732158204.329169,1732158204.332863,92.000000,0.000000,4318.974121,4250.769043,4318.589844,4302.692383,4291.153809,4278.461426,4336.025879,4402.820313,4314.102539,4304.871582,4510.641113,4536.538574,4390.128418,4475.641113,1706.000000,1.000000,21.000000,,,,0.000000,2.000000,2.000000,0.000000,4.000000,2.000000,2.000000,0.000000,0.000000,4.000000,4.000000,4.000000,4.000000,4.000000,4.000000,0.000000,,,,,,,,,,,,,,,,,23.000000,0.000000,0.502061,0.476746,-0.541199,0.477234,0.975217,-0.026370,-0.049322,-35.363857,45.281193,31.699041
1732158204.336977,1732158204.340671,93.000000,0.000000,4318.589844,4253.717773,4319.358887,4304.358887,4287.051270,4279.743652,4335.769043,4401.666504,4313.077148,4302.820313,4508.077148,4533.846191,4381.410156,4473.333496,1588.000000,1.000000,21.000000,,,,0.000000,2.000000,2.000000,0.000000,4.000000,2.000000,2.000000,0.000000,0.000000,4.000000,4.000000,4.000000,4.000000,4.000000,4.000000,0.000000,,,,,,,,,,,,,,,,,,,,,,,,,,,,
1732158204.344785,1732158204.348679,94.000000,0.000000,4318.461426,4256.153809,4320.000000,4309.487305,4260.512695,4282.948730,4335.512695,4403.205078,4312.307617,4303.846191,4507.948730,4532.436035,4382.051270,4472.179688,1546.000000,1.000000,21.000000,,,,0.000000,2.000000,2.000000,0.000000,4.000000,2.000000,2.000000,0.000000,0.000000,4.000000,4.000000,4.000000,4.000000,4.000000,4.000000,0.000000,,,,,,,,,,,,,,,,,,,,,,,,,,,,
1732158204.352594,1732158204.356487,95.000000,0.000000,4315.769043,4259.358887,4317.820313,4307.563965,4268.333496,4283.077148,4335.641113,4403.846191,4311.025879,4299.102539,4508.333496,4528.589844,4384.230957,4463.974121,1546.000000,1.000000,21.000000,,,,0.000000,2.000000,2.000000,0.000000,4.000000,2.000000,2.000000,0.000000,0.000000,4.000000,4.000000,4.000000,4.000000,4.000000,4.000000,0.000000,,,,,,,,,,,,,,,,,,,,,,,,,,,,
1732158204.360402,1732158204.364196,96.000000,0.000000,4316.922852,4255.641113,4316.410156,4306.794922,4285.000000,4281.282227,4335.512695,4403.205078,4308.333496,4293.589844,4508.717773,4528.589844,4382.307617,4459.615234,1706.000000,1.000000,21.000000,,,,0.000000,2.000000,2.000000,0.000000,4.000000,2.000000,2.000000,0.000000,0.000000,4.000000,4.000000,4.000000,4.000000,4.000000,4.000000,0.000000,,,,,,,,,,,,,,,,,24.000000,0.000000,0.502061,0.476746,-0.541199,0.477234,0.975217,-0.026370,-0.049322,-35.321392,45.121101,31.772890
1732158204.368210,1732158204.372004,97.000000,0.000000,4323.717773,4259.230957,4315.897461,4315.000000,4284.358887,4280.000000,4335.641113,4404.871582,4307.948730,4293.589844,4508.461426,4530.384766,4378.333496,4465.256348,1588.000000,1.000000,21.000000,,,,0.000000,2.000000,2.000000,0.000000,4.000000,2.000000,2.000000,0.000000,0.000000,4.000000,4.000000,4.000000,4.000000,4.000000,4.000000,0.000000,,,,,,,,,,,,,,,,,,,,,,,,,,,,
1732158204.376018,1732158204.379612,98.000000,0.000000,4326.282227,4270.512695,4317.436035,4317.051270,4277.436035,4279.871582,4335.641113,4407.692383,4307.563965,4292.820313,4507.307617,4526.025879,4377.820313,4465.641113,1546.000000,1.000000,21.000000,,,,0.000000,2.000000,2.000000,0.000000,4.000000,2.000000,2.000000,0.000000,0.000000,4.000000,4.000000,4.000000,4.000000,4.000000,4.000000,0.000000,,,,,,,,,,,,,,,,,,,,,,,,,,,,
1732158204.383826,1732158204.387420,99.000000,0.000000,4321.794922,4248.333496,4319.230957,4310.384766,4282.179688,4287.692383,4335.641113,4409.871582,4309.102539,4293.846191,4505.512695,4522.692383,4380.000000,4459.102539,1546.000000,1.000000,21.000000,,,,0.000000,2.000000,2.000000,0.000000,4.000000,2.000000,2.000000,0.000000,0.000000,4.000000,4.000000,4.000000,4.000000,4.000000,4.000000,0.000000,,,,,,,,,,,,,,,,,,,,,,,,,,,,
1732158204.391635,1732158204.395129,100.000000,0.000000,4315.000000,4205.256348,4319.487305,4309.230957,4308.461426,4298.717773,4335.641113,4408.717773,4316.794922,4301.153809,4503.589844,4525.384766,4378.846191,4458.077148,1706.000000,1.000000,21.000000,,,,0.000000,2.000000,2.000000,0.000000,4.000000,2.000000,2.000000,0.000000,0.000000,4.000000,4.000000,4.000000,4.000000,4.000000,4.000000,0.000000,,,,,,,,,,,,,,,,,25.000000,0.000000,0.501895,0.476807,-0.541138,0.477417,0.992797,-0.041997,-0.044439,-35.591995,45.068092,31.792707
1732158204.399443,1732158204.402937,101.000000,0.000000,4313.846191,4192.307617,4316.794922,4313.205078,4316.794922,4299.102539,4335.512695,4406.025879,4327.051270,4303.205078,4505.512695,4524.743652,4372.948730,4460.512695,1588.000000,1.000000,21.000000,,,,0.000000,2.000000,2.000000,0.000000,4.000000,2.000000,2.000000,0.000000,0.000000,4.000000,4.000000,4.000000,4.000000,4.000000,4.000000,0.000000,,,,,,,,,,,,,,,,,,,,,,,,,,,,
1732158204.407251,1732158204.410945,102.000000,0.000000,4318.333496,4201.922852,4315.512695,4313.077148,4289.871582,4295.384766,4335.769043,4405.769043,4326.666504,4297.179688,4508.077148,4523.717773,4371.666504,4460.512695,1546.000000,1.000000,21.000000,,,,0.000000,2.000000,2.000000,0.000000,4.000000,2.000000,2.000000,0.000000,0.000000,4.000000,4.000000,4.000000,4.000000,4.000000,4.000000,0.000000,,,,,,,,,,,,,,,,,,,,,,,,,,,,
1732158204.415059,1732158204.418753,103.000000,0.000000,4319.358887,4205.512695,4318.846191,4312.948730,4280.000000,4296.410156,4335.512695,4404.487305,4315.897461,4294.615234,4507.179688,4527.692383,4373.717773,4459.743652,1546.000000,1.000000,21.000000,,,,0.000000,2.000000,2.000000,0.000000,4.000000,2.000000,2.000000,0.000000,0.000000,4.000000,4.000000,4.000000,4.000000,4.000000,4.000000,0.000000,,,,,,,,,,,,,,,,,,,,,,,,,,,,
1732158204.422868,1732158204.426462,104.000000,0.000000,4317.948730,4211.410156,4320.512695,4320.769043,4297.051270,4296.153809,4334.871582,4405.769043,4310.384766,4296.282227,4505.256348,4530.641113,4371.153809,4462.948730,1706.000000,1.000000,21.000000,,,,0.000000,2.000000,2.000000,0.000000,4.000000,2.000000,2.000000,0.000000,0.000000,4.000000,4.000000,4.000000,4.000000,4.000000,4.000000,0.000000,,,,,,,,,,,,,,,,,26.000000,0.000000,0.501837,0.476807,-0.541138,0.477478,0.975217,-0.036137,-0.039067,-35.691181,45.216820,31.808760
1732158204.430676,1732158204.434270,105.000000,0.000000,4320.000000,4215.641113,4317.820313,4325.000000,4300.897461,4293.461426,4335.384766,4407.563965,4313.461426,4296.282227,4505.256348,4528.974121,4375.256348,4466.922852,1588.000000,1.000000,21.000000,,,,0.000000,2.000000,2.000000,0.000000,4.000000,2.000000,2.000000,0.000000,0.000000,4.000000,4.000000,4.000000,4.000000,4.000000,4.000000,0.000000,,,,,,,,,,,,,,,,,,,,,,,,,,,,
1732158204.438484,1732158204.441878,106.000000,0.000000,4319.743652,4213.717773,4315.384766,4317.436035,4290.512695,4295.256348,4336.538574,4403.461426,4314.487305,4297.307617,4507.307617,4528.589844,4382.307617,4466.153809,1546.000000,1.000000,21.000000,,,,0.000000,2.000000,2.000000,0.000000,4.000000,2.000000,2.000000,0.000000,0.000000,4.000000,4.000000,4.000000,4.000000,4.000000,4.000000,0.000000,,,,,,,,,,,,,,,,,,,,,,,,,,,,
1732158204.446293,1732158204.449686,107.000000,0.000000,4314.102539,4214.102539,4317.948730,4311.794922,4293.717773,4294.102539,4336.666504,4402.820313,4311.153809,4297.307617,4507.692383,4531.025879,4375.769043,4461.666504,1546.000000,1.000000,21.000000,,,,0.000000,2.000000,2.000000,0.000000,4.000000,2.000000,2.000000,0.000000,0.000000,4.000000,4.000000,4.000000,4.000000,4.000000,4.000000,0.000000,,,,,,,,,,,,,,,,,,,,,,,,,,,,
1732158204.454101,1732158204.457395,108.000000,0.000000,4315.256348,4214.102539,4320.512695,4316.025879,4302.563965,4283.717773,4336.410156,4406.922852,4309.615234,4294.230957,4506.666504,4531.025879,4371.025879,4461.922852,1706.000000,1.000000,21.000000,,,,0.000000,2.000000,2.000000,0.000000,4.000000,2.000000,2.000000,0.000000,0.000000,4.000000,4.000000,4.000000,4.000000,4.000000,4.000000,0.000000,,,,,,,,,,,,,,,,,27.000000,0.000000,0.501845,0.476807,-0.541077,0.477539,0.975217,-0.036137,-0.039067,-35.528191,44.985626,31.623428
1732158204.461909,1732158204.465203,109.000000,0.000000,4322.051270,4214.358887,4319.615234,4318.846191,4293.846191,4279.615234,4336.922852,4407.563965,4308.333496,4293.333496,4506.538574,4531.538574,4375.512695,4465.384766,1588.000000,1.000000,21.000000,,,,0.000000,2.000000,2.000000,0.000000,4.000000,2.000000,2.000000,0.000000,0.000000,4.000000,4.000000,4.000000,4.000000,4.000000,4.000000,0.000000,,,,,,,,,,,,,,,,,,,,,,,,,,,,
1732158204.469717,1732158204.472811,110.000000,0.000000,4320.384766,4217.051270,4316.922852,4316.538574,4272.436035,4289.487305,4336.410156,4406.922852,4307.307617,4294.358887,4507.179688,4535.128418,4376.153809,4463.846191,1546.000000,1.000000,21.000000,,,,0.000000,2.000000,2.000000,0.000000,4.000000,2.000000,2.000000,0.000000,0.000000,4.000000,4.000000,4.000000,4.000000,4.000000,4.000000,0.000000,,,,,,,,,,,,,,,,,,,,,,,,,,,,
1732158204.477525,1732158204.480619,111.000000,0.000000,4317.563965,4217.051270,4317.692383,4317.692383,4275.897461,4296.538574,4336.794922,4409.102539,4309.358887,4295.128418,4507.051270,4536.922852,4375.000000,4461.282227,1546.000000,1.000000,21.000000,,,,0.000000,2.000000,2.000000,0.000000,4.000000,2.000000,2.000000,0.000000,0.000000,4.000000,4.000000,4.000000,4.000000,4.000000,4.000000,0.000000,,,,,,,,,,,,,,,,,,,,,,,,,,,,
1732158204.485334,1732158204.488328,112.000000,0.000000,4323.846191,4217.436035,4319.487305,4320.769043,4301.282227,4291.538574,4339.743652,4407.948730,4307.307617,4293.077148,4506.538574,4531.538574,4376.538574,4462.948730,1706.000000,1.000000,21.000000,,,,0.000000,2.000000,2.000000,0.000000,4.000000,2.000000,2.000000,0.000000,0.000000,4.000000,4.000000,4.000000,4.000000,4.000000,4.000000,0.000000,,,,,,,,,,,,,,,,,28.000000,0.000000,0.501655,0.476685,-0.541199,0.477722,0.983030,-0.038579,-0.040532,-35.601170,45.175022,31.596643
1732158204.493142,1732158204.496136,113.000000,0.000000,4324.615234,4219.102539,4318.589844,4318.205078,4296.282227,4288.205078,4341.153809,4407.307617,4306.666504,4292.307617,4505.128418,4529.615234,4372.692383,4462.563965,1588.000000,1.000000,21.000000,,,,0.000000,2.000000,2.000000,0.000000,4.000000,2.000000,2.000000,0.000000,0.000000,4.000000,4.000000,4.000000,4.000000,4.000000,4.000000,0.000000,,,,,,,,,,,,,,,,,,,,,,,,,,,,
1732158204.500950,1732158204.504144,114.000000,0.000000,4316.794922,4218.589844,4319.615234,4316.922852,4275.000000,4292.820313,4338.077148,4406.025879,4315.256348,4297.436035,4504.615234,4531.666504,4371.282227,4459.615234,1546.000000,1.000000,21.000000,,,,0.000000,2.000000,2.000000,0.000000,4.000000,2.000000,2.000000,0.000000,0.000000,4.000000,4.000000,4.000000,4.000000,4.000000,4.000000,0.000000,,,,,,,,,,,,,,,,,,,,,,,,,,,,
1732158204.508758,1732158204.511952,115.000000,0.000000,4311.282227,4216.922852,4321.922852,4317.179688,4275.897461,4296.025879,4336.025879,4400.897461,4318.589844,4301.153809,4506.538574,4531.153809,4373.974121,4457.820313,1546.000000,1.000000,21.000000,,,,0.000000,2.000000,2.000000,0.000000,4.000000,2.000000,2.000000,0.000000,0.000000,4.000000,4.000000,4.000000,4.000000,4.000000,4.000000,0.000000,,,,,,,,,,,,,,,,,,,,,,,,,,,,
1732158204.516567,1732158204.519860,116.000000,0.000000,4310.641113,4216.922852,4317.948730,4313.333496,4283.205078,4294.358887,4336.025879,4400.256348,4313.589844,4298.846191,4505.384766,4530.897461,4367.692383,4453.974121,1706.000000,1.000000,21.000000,,,,0.000000,2.000000,2.000000,0.000000,4.000000,2.000000,2.000000,0.000000,0.000000,4.000000,4.000000,4.000000,4.000000,4.000000,4.000000,0.000000,,,,,,,,,,,,,,,,,29.000000,0.000000,0.501657,0.476257,-0.541626,0.477661,0.984007,-0.041509,-0.040044,-35.676945,45.228436,31.641615
1732158204.524375,1732158204.527669,117.000000,0.000000,4311.153809,4218.333496,4317.179688,4313.846191,4284.230957,4292.692383,4335.000000,4403.589844,4317.436035,4296.025879,4503.461426,4532.051270,4363.077148,4446.153809,1588.000000,1.000000,21.000000,,,,0.000000,2.000000,2.000000,0.000000,4.000000,2.000000,2.000000,0.000000,0.000000,4.000000,4.000000,4.000000,4.000000,4.000000,4.000000,0.000000,,,,,,,,,,,,,,,,,,,,,,,,,,,,
1732158204.532183,1732158204.535277,118.000000,0.000000,4304.871582,4217.436035,4322.307617,4314.615234,4287.436035,4294.871582,4336.922852,4404.487305,4322.692383,4297.948730,4504.615234,4531.153809,4366.282227,4440.512695,1546.000000,1.000000,21.000000,,,,0.000000,2.000000,2.000000,0.000000,4.000000,2.000000,2.000000,0.000000,0.000000,4.000000,4.000000,4.000000,4.000000,4.000000,4.000000,0.000000,,,,,,,,,,,,,,,,,,,,,,,,,,,,
1732158204.539992,1732158204.543085,119.000000,0.000000,4297.436035,4216.666504,4320.256348,4309.102539,4286.794922,4294.358887,4342.436035,4401.538574,4315.897461,4300.000000,4502.563965,4522.692383,4366.666504,4441.666504,1546.000000,1.000000,21.000000,,,,0.000000,2.000000,2.000000,0.000000,4.000000,2.000000,2.000000,0.000000,0.000000,4.000000,4.000000,4.000000,4.000000,4.000000,4.000000,0.000000,,,,,,,,,,,,,,,,,,,,,,,,,,,,
1732158204.547800,1732158204.550793,120.000000,0.000000,4296.794922,4219.743652,4315.512695,4307.307617,4292.179688,4291.922852,4341.794922,4400.256348,4310.769043,4297.563965,4496.922852,4520.256348,4366.025879,4443.589844,1706.000000,1.000000,21.000000,,,,0.000000,2.000000,2.000000,0.000000,4.000000,2.000000,2.000000,0.000000,0.000000,4.000000,4.000000,4.000000,4.000000,4.000000,4.000000,0.000000,,,,,,,,,,,,,,,,,30.000000,0.000000,0.501509,0.476074,-0.541870,0.477722,0.981077,-0.044927,-0.042974,-35.833324,45.185032,31.519709
1732158204.555608,1732158204.558602,121.000000,0.000000,4295.769043,4217.948730,4317.179688,4309.487305,4307.307617,4292.051270,4335.256348,4403.589844,4310.769043,4294.615234,4491.538574,4521.922852,4363.589844,4437.436035,1588.000000,1.000000,21.000000,,,,0.000000,2.000000,2.000000,0.000000,4.000000,2.000000,2.000000,0.000000,0.000000,4.000000,4.000000,4.000000,4.000000,4.000000,4.000000,0.000000,,,,,,,,,,,,,,,,,,,,,,,,,,,,
1732158204.563416,1732158204.566210,122.000000,0.000000,4295.000000,4217.436035,4320.000000,4311.410156,4296.025879,4295.897461,4334.102539,4405.256348,4311.794922,4296.282227,4494.743652,4521.025879,4362.436035,4434.230957,1546.000000,1.000000,21.000000,,,,0.000000,2.000000,2.000000,0.000000,4.000000,2.000000,2.000000,0.000000,0.000000,4.000000,4.000000,4.000000,4.000000,4.000000,4.000000,0.000000,,,,,,,,,,,,,,,,,,,,,,,,,,,,
1732158204.571224,1732158204.574018,123.000000,0.000000,4303.589844,4224.871582,4318.461426,4317.051270,4275.000000,4300.384766,4337.563965,4403.077148,4317.563965,4299.102539,4502.820313,4520.000000,4363.333496,4440.512695,1546.000000,1.000000,21.000000,,,,0.000000,2.000000,2.000000,0.000000,4.000000,2.000000,2.000000,0.000000,0.000000,4.000000,4.000000,4.000000,4.000000,4.000000,4.000000,0.000000,,,,,,,,,,,,,,,,,,,,,,,,,,,,
1732158204.579033,1732158204.581926,124.000000,0.000000,4307.948730,4225.512695,4318.205078,4315.897461,4278.589844,4294.358887,4338.333496,4402.307617,4317.307617,4297.563965,4504.743652,4520.897461,4359.102539,4442.563965,1706.000000,1.000000,21.000000,,,,0.000000,2.000000,2.000000,0.000000,4.000000,2.000000,2.000000,0.000000,0.000000,4.000000,4.000000,4.000000,4.000000,4.000000,4.000000,0.000000,,,,,,,,,,,,,,,,,31.000000,0.000000,0.501031,0.475281,-0.542847,0.477905,0.984495,-0.045904,-0.043951,-35.896660,45.118210,31.452631
1732158204.586841,1732158204.589735,125.000000,0.000000,4302.692383,4216.538574,4318.846191,4308.717773,4281.922852,4280.000000,4337.563965,4406.538574,4311.025879,4296.794922,4504.230957,4523.717773,4358.333496,4440.128418,1588.000000,1.000000,21.000000,,,,0.000000,2.000000,2.000000,0.000000,4.000000,2.000000,2.000000,0.000000,0.000000,4.000000,4.000000,4.000000,4.000000,4.000000,4.000000,0.000000,,,,,,,,,,,,,,,,,,,,,,,,,,,,
1732158204.594649,1732158204.597743,126.000000,0.000000,4306.282227,4218.333496,4319.102539,4310.128418,4276.922852,4281.922852,4337.820313,4407.563965,4313.077148,4298.077148,4506.282227,4524.615234,4363.717773,4443.333496,1546.000000,1.000000,21.000000,,,,0.000000,2.000000,2.000000,0.000000,4.000000,2.000000,2.000000,0.000000,0.000000,4.000000,4.000000,4.000000,4.000000,4.000000,4.000000,0.000000,,,,,,,,,,,,,,,,,,,,,,,,,,,,
1732158204.602457,1732158204.605551,127.000000,0.000000,4312.307617,4224.487305,4318.205078,4311.410156,4282.948730,4294.358887,4338.333496,4403.846191,4314.102539,4296.538574,4504.102539,4523.077148,4360.641113,4446.153809,21.000000,1.000000,21.000000,,,,0.000000,2.000000,2.000000,0.000000,4.000000,2.000000,2.000000,0.000000,0.000000,4.000000,4.000000,4.000000,4.000000,4.000000,4.000000,0.000000,,,,,,,,,,,,,,,,,,,,,,,,,,,,
1732158204.610266,1732158204.613459,0.000000,0.000000,4311.025879,4222.307617,4317.179688,4308.846191,4279.871582,4288.205078,4338.077148,4404.358887,4307.563965,4293.974121,4502.307617,4526.922852,4355.512695,4445.897461,0.000000,1.000000,21.000000,,,,0.000000,2.000000,2.000000,0.000000,4.000000,2.000000,2.000000,0.000000,0.000000,4.000000,4.000000,4.000000,4.000000,4.000000,4.000000,0.000000,,,,,,,,,,,,,,,,,0.000000,0.000000,0.500466,0.474365,-0.544006,0.478088,0.982542,-0.055671,-0.045416,-36.042961,45.077415,31.711630
1732158204.618074,1732158204.621267,1.000000,0.000000,4310.256348,4225.512695,4318.077148,4314.487305,4279.102539,4278.205078,4337.692383,4408.077148,4306.922852,4293.974121,4506.794922,4532.948730,4359.102539,4447.563965,1603.000000,1.000000,21.000000,,,,0.000000,2.000000,2.000000,0.000000,4.000000,2.000000,2.000000,0.000000,0.000000,4.000000,4.000000,4.000000,4.000000,4.000000,4.000000,0.000000,,,,,,,,,,,,,,,,,,,,,,,,,,,,
1732158204.625882,1732158204.629275,2.000000,0.000000,4310.512695,4233.846191,4320.128418,4316.922852,4300.769043,4284.743652,4337.948730,4408.589844,4312.051270,4294.487305,4501.922852,4527.948730,4356.538574,4447.563965,1357.000000,1.000000,21.000000,,,,0.000000,2.000000,2.000000,0.000000,4.000000,2.000000,2.000000,0.000000,0.000000,4.000000,4.000000,4.000000,4.000000,4.000000,4.000000,0.000000,,,,,,,,,,,,,,,,,,,,,,,,,,,,
1732158204.633690,1732158204.637083,3.000000,0.000000,4310.769043,4234.743652,4318.974121,4312.948730,4300.897461,4292.436035,4338.333496,4404.615234,4311.410156,4293.717773,4495.512695,4521.538574,4351.794922,4446.282227,1432.000000,1.000000,21.000000,,,,0.000000,2.000000,2.000000,0.000000,4.000000,2.000000,2.000000,0.000000,0.000000,4.000000,4.000000,4.000000,4.000000,4.000000,4.000000,0.000000,,,,,,,,,,,,,,,,,,,,,,,,,,,,
1732158204.641499,1732158204.644991,4.000000,0.000000,4311.282227,4233.974121,4317.436035,4317.051270,4275.769043,4290.769043,4336.153809,4406.025879,4308.846191,4295.512695,4501.922852,4523.461426,4356.025879,4446.153809,1421.000000,1.000000,21.000000,,,,0.000000,2.000000,2.000000,0.000000,4.000000,2.000000,2.000000,0.000000,0.000000,4.000000,4.000000,4.000000,4.000000,4.000000,4.000000,0.000000,,,,,,,,,,,,,,,,,1.000000,0.000000,0.500231,0.473938,-0.544434,0.478271,0.983030,-0.032719,-0.034672,-36.211468,45.234375,31.561420
1732158204.649307,1732158204.652800,5.000000,0.000000,4305.512695,4235.769043,4318.461426,4318.846191,4269.230957,4293.077148,4334.358887,4409.102539,4315.641113,4299.615234,4507.692383,4525.256348,4358.077148,4445.769043,1205.000000,1.000000,21.000000,,,,0.000000,2.000000,2.000000,0.000000,4.000000,2.000000,2.000000,0.000000,0.000000,4.000000,4.000000,4.000000,4.000000,4.000000,4.000000,0.000000,,,,,,,,,,,,,,,,,,,,,,,,,,,,
1732158204.657115,1732158204.660808,6.000000,0.000000,4296.794922,4233.461426,4317.436035,4310.000000,4288.589844,4293.589844,4338.717773,4403.717773,4319.487305,4298.461426,4506.282227,4523.461426,4360.384766,4446.025879,0.000000,1.000000,21.000000,,,,0.000000,2.000000,2.000000,0.000000,4.000000,2.000000,2.000000,0.000000,0.000000,4.000000,4.000000,4.000000,4.000000,4.000000,4.000000,0.000000,,,,,,,,,,,,,,,,,,,,,,,,,,,,
1732158204.664924,1732158204.668616,7.000000,0.000000,4295.897461,4232.307617,4316.025879,4309.102539,4301.282227,4287.692383,4339.358887,4398.974121,4316.922852,4295.128418,4496.922852,4521.538574,4360.384766,4442.436035,0.000000,1.000000,21.000000,,,,0.000000,2.000000,2.000000,0.000000,4.000000,2.000000,2.000000,0.000000,0.000000,4.000000,4.000000,4.000000,4.000000,4.000000,4.000000,0.000000,,,,,,,,,,,,,,,,,,,,,,,,,,,,
1732158204.672732,1732158204.676524,8.000000,0.000000,4298.333496,4238.205078,4317.307617,4315.769043,4289.743652,4287.307617,4336.282227,4402.948730,4318.333496,4297.051270,4491.922852,4518.717773,4352.179688,4438.717773,1529.000000,1.000000,21.000000,,,,0.000000,2.000000,2.000000,0.000000,4.000000,2.000000,2.000000,0.000000,0.000000,4.000000,4.000000,4.000000,4.000000,4.000000,4.000000,0.000000,,,,,,,,,,,,,,,,,2.000000,0.000000,0.499822,0.473938,-0.544434,0.478699,0.980588,-0.055183,-0.028324,-36.272953,45.211510,31.244751
1732158204.680540,1732158204.684332,9.000000,0.000000,4297.563965,4238.589844,4319.358887,4313.717773,4272.307617,4290.897461,4337.307617,4406.666504,4319.487305,4302.820313,4499.871582,4521.794922,4353.077148,4444.102539,1690.000000,1.000000,21.000000,,,,0.000000,2.000000,2.000000,0.000000,4.000000,2.000000,2.000000,0.000000,0.000000,4.000000,4.000000,4.000000,4.000000,4.000000,4.000000,0.000000,,,,,,,,,,,,,,,,,,,,,,,,,,,,
1732158204.688348,1732158204.692340,10.000000,0.000000,4296.153809,4234.743652,4319.743652,4310.128418,4280.128418,4292.692383,4337.436035,4403.461426,4311.538574,4299.871582,4503.461426,4526.025879,4360.641113,4443.589844,1539.000000,1.000000,21.000000,,,,0.000000,2.000000,2.000000,0.000000,4.000000,2.000000,2.000000,0.000000,0.000000,4.000000,4.000000,4.000000,4.000000,4.000000,4.000000,0.000000,,,,,,,,,,,,,,,,,,,,,,,,,,,,
1732158204.696156,1732158204.700148,11.000000,0.000000,4294.743652,4234.102539,4319.615234,4311.153809,4303.461426,4292.820313,4336.282227,4402.820313,4301.794922,4285.000000,4493.717773,4516.153809,4355.000000,4431.025879,1553.000000,1.000000,21.000000,,,,0.000000,2.000000,2.000000,0.000000,4.000000,2.000000,2.000000,0.000000,0.000000,4.000000,4.000000,4.000000,4.000000,4.000000,4.000000,0.000000,,,,,,,,,,,,,,,,,,,,,,,,,,,,
1732158204.703965,1732158204.708056,12.000000,0.000000,4293.333496,4234.102539,4318.077148,4311.410156,4298.333496,4296.025879,4339.230957,4407.051270,4305.128418,4284.743652,4490.384766,4507.692383,4347.436035,4426.410156,1705.000000,1.000000,21.000000,,,,0.000000,2.000000,2.000000,0.000000,4.000000,2.000000,2.000000,0.000000,0.000000,4.000000,4.000000,4.000000,4.000000,4.000000,4.000000,0.000000,,,,,,,,,,,,,,,,,3.000000,0.000000,0.499042,0.473450,-0.544983,0.479370,0.975705,-0.056159,-0.047857,-36.027760,44.956322,31.283249
1732158204.711773,1732158204.715865,13.000000,0.000000,4295.897461,4233.846191,4316.794922,4313.333496,4279.615234,4297.179688,4341.153809,4407.948730,4311.666504,4301.153809,4492.436035,4517.436035,4351.538574,4431.538574,1593.000000,1.000000,21.000000,,,,0.000000,2.000000,2.000000,0.000000,4.000000,2.000000,2.000000,0.000000,0.000000,4.000000,4.000000,4.000000,4.000000,4.000000,4.000000,0.000000,,,,,,,,,,,,,,,,,,,,,,,,,,,,
1732158204.719581,1732158204.723473,14.000000,0.000000,4298.205078,4236.025879,4317.692383,4311.282227,4280.641113,4294.487305,4338.974121,4404.871582,4313.077148,4303.333496,4494.230957,4527.179688,4356.025879,4432.051270,1539.000000,1.000000,21.000000,,,,0.000000,2.000000,2.000000,0.000000,4.000000,2.000000,2.000000,0.000000,0.000000,4.000000,4.000000,4.000000,4.000000,4.000000,4.000000,0.000000,1.000000,0.000000,2.000000,2.000000,0.000000,4.000000,2.000000,2.000000,0.000000,0.000000,4.000000,4.000000,4.000000,4.000000,3.000000,4.000000,,,,,,,,,,,,
1732158204.727389,1732158204.731281,15.000000,0.000000,4294.230957,4235.641113,4319.358887,4302.948730,4287.692383,4294.487305,4340.000000,4404.230957,4311.794922,4294.230957,4503.589844,4522.179688,4354.487305,4431.666504,1553.000000,1.000000,21.000000,,,,0.000000,2.000000,2.000000,0.000000,4.000000,2.000000,2.000000,0.000000,0.000000,4.000000,4.000000,4.000000,4.000000,4.000000,4.000000,0.000000,,,,,,,,,,,,,,,,,,,,,,,,,,,,
1732158204.735198,1732158204.739189,16.000000,0.000000,4292.436035,4233.461426,4318.717773,4302.563965,4281.666504,4294.743652,4339.487305,4405.512695,4312.307617,4299.358887,4506.153809,4520.641113,4353.846191,4437.051270,0.000000,1.000000,21.000000,,,,0.000000,2.000000,2.000000,0.000000,4.000000,2.000000,2.000000,0.000000,0.000000,4.000000,4.000000,4.000000,4.000000,4.000000,4.000000,0.000000,,,,,,,,,,,,,,,,,4.000000,0.000000,0.498983,0.473389,-0.544983,0.479492,0.969845,-0.055671,-0.033696,-36.020817,45.224621,31.272764
1732158204.743006,1732158204.746998,17.000000,0.000000,4296.410156,4234.358887,4318.205078,4310.128418,4285.769043,4293.717773,4335.641113,4404.743652,4313.205078,4306.025879,4493.333496,4526.282227,4355.769043,4441.538574,0.000000,1.000000,21.000000,,,,0.000000,2.000000,2.000000,0.000000,4.000000,2.000000,2.000000,0.000000,0.000000,4.000000,4.000000,4.000000,4.000000,4.000000,4.000000,0.000000,,,,,,,,,,,,,,,,,,,,,,,,,,,,
1732158204.750814,1732158204.754606,18.000000,0.000000,4296.282227,4234.102539,4318.589844,4310.000000,4305.512695,4291.666504,4335.641113,4403.846191,4311.410156,4299.487305,4489.487305,4521.153809,4356.282227,4439.487305,0.000000,1.000000,21.000000,,,,0.000000,2.000000,2.000000,0.000000,4.000000,2.000000,2.000000,0.000000,0.000000,4.000000,4.000000,4.000000,4.000000,4.000000,4.000000,0.000000,,,,,,,,,,,,,,,,,,,,,,,,,,,,
1732158204.758623,1732158204.762414,19.000000,0.000000,4293.333496,4233.333496,4319.230957,4303.077148,4296.282227,4293.846191,4335.897461,4404.487305,4310.000000,4295.384766,4499.743652,4514.230957,4354.615234,4437.563965,0.000000,1.000000,21.000000,,,,0.000000,2.000000,2.000000,0.000000,4.000000,2.000000,2.000000,0.000000,0.000000,4.000000,4.000000,4.000000,4.000000,4.000000,4.000000,0.000000,,,,,,,,,,,,,,,,,,,,,,,,,,,,
1732158204.766431,1732158204.770123,20.000000,0.000000,4295.384766,4234.102539,4317.820313,4305.512695,4273.461426,4296.282227,4335.000000,4403.846191,4311.922852,4302.948730,4506.153809,4518.461426,4360.128418,4443.077148,0.000000,1.000000,21.000000,,,,0.000000,2.000000,2.000000,0.000000,4.000000,2.000000,2.000000,0.000000,0.000000,4.000000,4.000000,4.000000,4.000000,4.000000,4.000000,0.000000,,,,,,,,,,,,,,,,,5.000000,0.000000,0.498925,0.473450,-0.544983,0.479492,0.970822,-0.045416,-0.046881,-35.731861,45.245277,31.347607
1732158204.774239,1732158204.777931,21.000000,0.000000,4298.589844,4235.128418,4317.563965,4309.743652,4275.897461,4294.743652,4334.487305,4405.128418,4318.717773,4311.282227,4504.487305,4524.615234,4365.256348,4446.666504,0.000000,1.000000,21.000000,,,,0.000000,2.000000,2.000000,0.000000,4.000000,2.000000,2.000000,0.000000,0.000000,4.000000,4.000000,4.000000,4.000000,4.000000,4.000000,0.000000,,,,,,,,,,,,,,,,,,,,,,,,,,,,
1732158204.782047,1732158204.785539,22.000000,0.000000,4296.538574,4236.153809,4318.333496,4304.615234,4281.794922,4295.256348,4335.897461,4406.922852,4318.461426,4308.717773,4503.846191,4524.102539,4361.025879,4436.922852,0.000000,1.000000,21.000000,,,,0.000000,2.000000,2.000000,0.000000,4.000000,2.000000,2.000000,0.000000,0.000000,4.000000,4.000000,4.000000,4.000000,4.000000,4.000000,0.000000,,,,,,,,,,,,,,,,,,,,,,,,,,,,
1732158204.789855,1732158204.793347,23.000000,0.000000,4294.743652,4234.102539,4317.948730,4299.871582,4287.692383,4294.102539,4337.179688,4405.641113,4310.256348,4298.333496,4505.256348,4520.384766,4356.922852,4429.871582,0.000000,1.000000,21.000000,,,,0.000000,2.000000,2.000000,0.000000,4.000000,2.000000,2.000000,0.000000,0.000000,4.000000,4.000000,4.000000,4.000000,4.000000,4.000000,0.000000,,,,,,,,,,,,,,,,,,,,,,,,,,,,
1732158204.797664,1732158204.801056,24.000000,0.000000,4296.666504,4232.692383,4317.820313,4304.871582,4297.179688,4290.897461,4336.410156,4406.794922,4311.410156,4296.282227,4505.769043,4521.794922,4354.102539,4435.000000,0.000000,1.000000,21.000000,,,,0.000000,2.000000,2.000000,0.000000,4.000000,2.000000,2.000000,0.000000,0.000000,4.000000,4.000000,4.000000,4.000000,4.000000,4.000000,0.000000,,,,,,,,,,,,,,,,,6.000000,0.000000,0.498966,0.473328,-0.545105,0.479431,0.967403,-0.050787,-0.036626,-35.774475,45.352009,31.378227
1732158204.805472,1732158204.808864,25.000000,0.000000,4297.692383,4240.769043,4317.820313,4311.922852,4288.846191,4293.205078,4335.384766,4407.436035,4320.000000,4303.461426,4506.025879,4524.358887,4354.230957,4434.871582,0.000000,1.000000,21.000000,,,,0.000000,2.000000,2.000000,0.000000,4.000000,2.000000,2.000000,0.000000,0.000000,4.000000,4.000000,4.000000,4.000000,4.000000,4.000000,0.000000,,,,,,,,,,,,,,,,,,,,,,,,,,,,
1732158204.813280,1732158204.816472,26.000000,0.000000,4297.692383,4248.974121,4318.717773,4312.307617,4274.358887,4298.461426,4335.769043,4404.871582,4319.615234,4307.436035,4503.717773,4524.871582,4357.692383,4429.487305,0.000000,1.000000,21.000000,,,,0.000000,2.000000,2.000000,0.000000,4.000000,2.000000,2.000000,0.000000,0.000000,4.000000,4.000000,4.000000,4.000000,4.000000,4.000000,0.000000,,,,,,,,,,,,,,,,,,,,,,,,,,,,
1732158204.821088,1732158204.824281,27.000000,0.000000,4296.282227,4245.384766,4318.846191,4308.717773,4281.410156,4296.410156,4336.538574,4404.615234,4311.410156,4301.922852,4501.410156,4523.077148,4357.436035,4429.615234,0.000000,1.000000,21.000000,,,,0.000000,2.000000,2.000000,0.000000,4.000000,2.000000,2.000000,0.000000,0.000000,4.000000,4.000000,4.000000,4.000000,4.000000,4.000000,0.000000,,,,,,,,,,,,,,,,,,,,,,,,,,,,
1732158204.828897,1732158204.832189,28.000000,0.000000,4294.358887,4244.487305,4319.358887,4305.897461,4285.256348,4293.846191,4336.025879,4405.000000,4310.897461,4298.077148,4505.256348,4519.743652,4356.922852,4431.538574,0.000000,1.000000,21.000000,,,,0.000000,2.000000,2.000000,0.000000,4.000000,2.000000,2.000000,0.000000,0.000000,4.000000,4.000000,4.000000,4.000000,4.000000,4.000000,0.000000,,,,,,,,,,,,,,,,,7.000000,0.000000,0.498751,0.473572,-0.544983,0.479553,0.988402,-0.063484,-0.042486,-35.925659,45.455128,31.336365
1732158204.836705,1732158204.839997,29.000000,0.000000,4294.358887,4247.563965,4318.077148,4306.153809,4283.205078,4297.307617,4335.512695,4402.820313,4316.025879,4302.307617,4502.436035,4520.769043,4360.384766,4428.974121,0.000000,1.000000,21.000000,,,,0.000000,2.000000,2.000000,0.000000,4.000000,2.000000,2.000000,0.000000,0.000000,4.000000,4.000000,4.000000,4.000000,4.000000,4.000000,0.000000,,,,,,,,,,,,,,,,,,,,,,,,,,,,
1732158204.844513,1732158204.847605,30.000000,0.000000,4294.487305,4243.077148,4316.410156,4304.230957,4301.025879,4293.205078,4335.769043,4402.436035,4314.871582,4302.307617,4493.077148,4522.948730,4355.512695,4426.666504,0.000000,1.000000,21.000000,,,,0.000000,2.000000,2.000000,0.000000,4.000000,2.000000,2.000000,0.000000,0.000000,4.000000,4.000000,4.000000,4.000000,4.000000,4.000000,0.000000,,,,,,,,,,,,,,,,,,,,,,,,,,,,
1732158204.852322,1732158204.855413,31.000000,0.000000,4293.846191,4241.282227,4317.179688,4300.384766,4300.897461,4288.333496,4335.769043,4402.692383,4310.897461,4295.897461,4494.358887,4517.307617,4349.743652,4426.922852,0.000000,1.000000,21.000000,,,,0.000000,2.000000,2.000000,0.000000,4.000000,2.000000,2.000000,0.000000,0.000000,4.000000,4.000000,4.000000,4.000000,4.000000,4.000000,0.000000,,,,,,,,,,,,,,,,,,,,,,,,,,,,
1732158204.860130,1732158204.863122,32.000000,0.000000,4294.102539,4243.589844,4319.358887,4300.769043,4270.769043,4293.333496,4335.641113,4403.589844,4310.256348,4294.871582,4497.051270,4513.717773,4355.769043,4427.948730,0.000000,1.000000,21.000000,,,,0.000000,2.000000,2.000000,0.000000,4.000000,2.000000,2.000000,0.000000,0.000000,4.000000,4.000000,4.000000,4.000000,4.000000,4.000000,0.000000,,,,,,,,,,,,,,,,,8.000000,0.000000,0.498651,0.473694,-0.544861,0.479675,0.984984,-0.056648,-0.038091,-35.988117,45.446987,31.339121
1732158204.867938,1732158204.870930,33.000000,0.000000,4293.205078,4240.384766,4318.333496,4300.384766,4264.871582,4296.922852,4335.769043,4405.000000,4312.179688,4296.282227,4494.102539,4517.820313,4357.051270,4428.717773,0.000000,1.000000,21.000000,,,,0.000000,2.000000,2.000000,0.000000,4.000000,2.000000,2.000000,0.000000,0.000000,4.000000,4.000000,4.000000,4.000000,4.000000,4.000000,0.000000,,,,,,,,,,,,,,,,,,,,,,,,,,,,
1732158204.875746,1732158204.878538,34.000000,0.000000,4292.179688,4241.282227,4316.922852,4297.820313,4283.974121,4295.384766,4335.769043,4405.256348,4318.974121,4296.922852,4501.025879,4520.897461,4350.897461,4425.384766,0.000000,1.000000,21.000000,,,,0.000000,2.000000,2.000000,0.000000,4.000000,2.000000,2.000000,0.000000,0.000000,4.000000,4.000000,4.000000,4.000000,4.000000,4.000000,0.000000,,,,,,,,,,,,,,,,,,,,,,,,,,,,
1732158204.883554,1732158204.886347,35.000000,0.000000,4294.102539,4248.846191,4318.589844,4299.615234,4284.871582,4296.538574,4335.769043,4404.358887,4322.179688,4298.205078,4506.153809,4520.897461,4349.871582,4423.461426,0.000000,1.000000,21.000000,,,,0.000000,2.000000,2.000000,0.000000,4.000000,2.000000,2.000000,0.000000,0.000000,4.000000,4.000000,4.000000,4.000000,4.000000,4.000000,0.000000,,,,,,,,,,,,,,,,,,,,,,,,,,,,
1732158204.891363,1732158204.894055,36.000000,0.000000,4290.384766,4241.794922,4318.717773,4299.358887,4282.948730,4298.333496,4335.769043,4405.769043,4313.846191,4296.282227,4496.153809,4521.794922,4351.538574,4421.410156,0.000000,1.000000,21.000000,,,,0.000000,2.000000,2.000000,0.000000,4.000000,2.000000,2.000000,0.000000,0.000000,4.000000,4.000000,4.000000,4.000000,4.000000,4.000000,0.000000,,,,,,,,,,,,,,,,,9.000000,0.000000,0.498593,0.473755,-0.544861,0.479675,0.973263,-0.041021,-0.038579,-35.958710,45.267059,31.306355
1732158204.899171,1732158204.901863,37.000000,0.000000,4280.000000,4232.307617,4317.948730,4295.000000,4303.205078,4295.000000,4335.769043,4406.922852,4308.077148,4290.256348,4490.512695,4521.153809,4349.871582,4414.871582,0.000000,1.000000,21.000000,,,,0.000000,2.000000,2.000000,0.000000,4.000000,2.000000,2.000000,0.000000,0.000000,4.000000,4.000000,4.000000,4.000000,4.000000,4.000000,0.000000,,,,,,,,,,,,,,,,,,,,,,,,,,,,
1732158204.906979,1732158204.909871,38.000000,0.000000,4280.641113,4238.077148,4319.358887,4296.410156,4300.897461,4294.743652,4335.641113,4403.205078,4316.410156,4293.333496,4494.871582,4521.538574,4350.128418,4418.333496,0.000000,1.000000,21.000000,,,,0.000000,2.000000,2.000000,0.000000,4.000000,2.000000,2.000000,0.000000,0.000000,4.000000,4.000000,4.000000,4.000000,4.000000,4.000000,0.000000,,,,,,,,,,,,,,,,,,,,,,,,,,,,
1732158204.914787,1732158204.917679,39.000000,0.000000,4288.589844,4243.077148,4321.153809,4298.205078,4272.820313,4299.487305,4335.384766,4400.769043,4323.077148,4299.871582,4494.871582,4524.358887,4350.769043,4425.128418,0.000000,1.000000,21.000000,,,,0.000000,2.000000,2.000000,0.000000,4.000000,2.000000,2.000000,0.000000,0.000000,4.000000,4.000000,4.000000,4.000000,4.000000,4.000000,0.000000,,,,,,,,,,,,,,,,,,,,,,,,,,,,
1732158204.922596,1732158204.925587,40.000000,0.000000,4285.641113,4239.230957,4320.641113,4296.794922,4275.000000,4298.974121,4335.897461,4402.692383,4315.384766,4297.436035,4491.153809,4522.820313,4350.256348,4423.717773,0.000000,1.000000,21.000000,,,,0.000000,2.000000,2.000000,0.000000,4.000000,2.000000,2.000000,0.000000,0.000000,4.000000,4.000000,4.000000,4.000000,4.000000,4.000000,0.000000,,,,,,,,,,,,,,,,,10.000000,0.000000,0.498543,0.473877,-0.544800,0.479675,0.975217,-0.049811,-0.036626,-35.881554,45.251316,31.454815
1732158204.930404,1732158204.933396,41.000000,0.000000,4282.179688,4234.871582,4318.589844,4296.282227,4292.820313,4293.589844,4335.769043,4404.487305,4308.205078,4293.077148,4492.948730,4521.538574,4351.282227,4423.077148,0.000000,1.000000,21.000000,,,,0.000000,2.000000,2.000000,0.000000,4.000000,2.000000,2.000000,0.000000,0.000000,4.000000,4.000000,4.000000,4.000000,4.000000,4.000000,0.000000,,,,,,,,,,,,,,,,,,,,,,,,,,,,
1732158204.938212,1732158204.941404,42.000000,0.000000,4282.948730,4235.128418,4319.102539,4294.230957,4281.922852,4292.820313,4335.128418,4403.077148,4317.051270,4295.512695,4496.794922,4521.153809,4350.897461,4423.205078,0.000000,1.000000,21.000000,,,,0.000000,2.000000,2.000000,0.000000,4.000000,2.000000,2.000000,0.000000,0.000000,4.000000,4.000000,4.000000,4.000000,4.000000,4.000000,0.000000,,,,,,,,,,,,,,,,,,,,,,,,,,,,
1732158204.946020,1732158204.949212,43.000000,0.000000,4283.974121,4237.051270,4319.871582,4295.641113,4267.820313,4297.179688,4337.179688,4403.205078,4323.974121,4300.256348,4496.538574,4521.410156,4350.000000,4420.641113,0.000000,1.000000,21.000000,,,,0.000000,2.000000,2.000000,0.000000,4.000000,2.000000,2.000000,0.000000,0.000000,4.000000,4.000000,4.000000,4.000000,4.000000,4.000000,0.000000,,,,,,,,,,,,,,,,,,,,,,,,,,,,
1732158204.953829,1732158204.956920,44.000000,0.000000,4290.769043,4244.743652,4318.077148,4304.615234,4278.333496,4296.538574,4340.384766,4404.102539,4314.615234,4295.128418,4492.179688,4524.743652,4350.128418,4419.102539,0.000000,1.000000,21.000000,,,,0.000000,2.000000,2.000000,0.000000,4.000000,2.000000,2.000000,0.000000,0.000000,4.000000,4.000000,4.000000,4.000000,4.000000,4.000000,0.000000,,,,,,,,,,,,,,,,,11.000000,0.000000,0.498527,0.473816,-0.544922,0.479614,0.966427,-0.055183,-0.043951,-35.635723,45.321899,31.491734
1732158204.961637,1732158204.964728,45.000000,0.000000,4291.794922,4249.358887,4317.692383,4304.615234,4284.230957,4292.307617,4339.871582,4404.871582,4306.922852,4284.615234,4488.974121,4517.692383,4350.256348,4416.794922,0.000000,1.000000,21.000000,,,,0.000000,2.000000,2.000000,0.000000,4.000000,2.000000,2.000000,0.000000,0.000000,4.000000,4.000000,4.000000,4.000000,4.000000,4.000000,0.000000,,,,,,,,,,,,,,,,,,,,,,,,,,,,
1732158204.969445,1732158204.972337,46.000000,0.000000,4282.307617,4246.153809,4318.077148,4296.025879,4283.077148,4292.692383,4339.743652,4405.128418,4310.897461,4286.025879,4489.487305,4505.641113,4349.743652,4413.077148,0.000000,1.000000,21.000000,,,,0.000000,2.000000,2.000000,0.000000,4.000000,2.000000,2.000000,0.000000,0.000000,4.000000,4.000000,4.000000,4.000000,4.000000,4.000000,0.000000,,,,,,,,,,,,,,,,,,,,,,,,,,,,
1732158204.977254,1732158204.980145,47.000000,0.000000,4279.230957,4245.897461,4319.615234,4295.897461,4284.615234,4296.410156,4339.487305,4401.666504,4314.615234,4295.128418,4491.282227,4509.615234,4351.153809,4414.871582,0.000000,1.000000,21.000000,,,,0.000000,2.000000,2.000000,0.000000,4.000000,2.000000,2.000000,0.000000,0.000000,4.000000,4.000000,4.000000,4.000000,4.000000,4.000000,0.000000,,,,,,,,,,,,,,,,,,,,,,,,,,,,
1732158204.985062,1732158204.988053,48.000000,0.000000,4283.461426,4247.563965,4320.256348,4298.589844,4291.282227,4297.692383,4337.051270,4399.102539,4311.666504,4291.282227,4491.025879,4515.128418,4351.025879,4414.871582,0.000000,1.000000,21.000000,,,,0.000000,2.000000,2.000000,0.000000,4.000000,2.000000,2.000000,0.000000,0.000000,4.000000,4.000000,4.000000,4.000000,4.000000,4.000000,0.000000,,,,,,,,,,,,,,,,,12.000000,0.000000,0.498527,0.473816,-0.544922,0.479614,0.979123,-0.047857,-0.046881,-35.703270,45.095737,31.524971
1732158204.992870,1732158204.995861,49.000000,0.000000,4281.666504,4246.538574,4320.897461,4295.641113,4304.487305,4294.871582,4337.307617,4403.974121,4309.743652,4280.000000,4488.205078,4511.153809,4345.256348,4410.128418,0.000000,1.000000,21.000000,,,,0.000000,2.000000,2.000000,0.000000,4.000000,2.000000,2.000000,0.000000,0.000000,4.000000,4.000000,4.000000,4.000000,4.000000,4.000000,0.000000,,,,,,,,,,,,,,,,,,,,,,,,,,,,
1732158205.000678,1732158205.003869,50.000000,0.000000,4280.641113,4245.384766,4319.230957,4297.692383,4300.128418,4298.461426,4340.769043,4408.205078,4316.538574,4286.025879,4489.743652,4513.589844,4343.333496,4412.307617,0.000000,1.000000,21.000000,,,,0.000000,2.000000,2.000000,0.000000,4.000000,2.000000,2.000000,0.000000,0.000000,4.000000,4.000000,4.000000,4.000000,4.000000,4.000000,0.000000,,,,,,,,,,,,,,,,,,,,,,,,,,,,
1732158205.008486,1732158205.011678,51.000000,0.000000,4283.333496,4248.077148,4318.974121,4301.025879,4276.794922,4304.230957,4341.282227,4403.974121,4321.282227,4295.769043,4492.948730,4520.769043,4343.333496,4415.384766,0.000000,1.000000,21.000000,,,,0.000000,2.000000,2.000000,0.000000,4.000000,2.000000,2.000000,0.000000,0.000000,4.000000,4.000000,4.000000,4.000000,4.000000,4.000000,0.000000,,,,,,,,,,,,,,,,,,,,,,,,,,,,
1732158205.016295,1732158205.019586,52.000000,0.000000,4280.769043,4247.436035,4318.717773,4298.461426,4272.563965,4300.641113,4337.820313,4401.410156,4314.743652,4287.820313,4490.256348,4517.307617,4340.641113,4415.256348,0.000000,1.000000,21.000000,,,,0.000000,2.000000,2.000000,0.000000,4.000000,2.000000,2.000000,0.000000,0.000000,4.000000,4.000000,4.000000,4.000000,4.000000,4.000000,0.000000,,,,,,,,,,,,,,,,,13.000000,0.000000,0.498535,0.473877,-0.544861,0.479614,0.973263,-0.040532,-0.043951,-35.886314,45.045883,31.551893
1732158205.024103,1732158205.027394,53.000000,0.000000,4279.743652,4247.051270,4317.179688,4297.051270,4283.717773,4294.615234,4335.128418,4403.974121,4309.102539,4278.077148,4489.230957,4517.436035,4341.025879,4415.641113,0.000000,1.000000,21.000000,,,,0.000000,2.000000,2.000000,0.000000,4.000000,2.000000,2.000000,0.000000,0.000000,4.000000,4.000000,4.000000,4.000000,4.000000,4.000000,0.000000,,,,,,,,,,,,,,,,,,,,,,,,,,,,
1732158205.031911,1732158205.035402,54.000000,0.000000,4279.487305,4248.077148,4317.820313,4296.538574,4284.615234,4294.871582,4335.384766,4402.307617,4310.512695,4279.743652,4489.358887,4517.948730,4338.974121,4415.000000,0.000000,1.000000,21.000000,,,,0.000000,2.000000,2.000000,0.000000,4.000000,2.000000,2.000000,0.000000,0.000000,4.000000,4.000000,4.000000,4.000000,4.000000,4.000000,0.000000,,,,,,,,,,,,,,,,,,,,,,,,,,,,
1732158205.039719,1732158205.043210,55.000000,0.000000,4278.846191,4241.538574,4318.205078,4295.897461,4282.436035,4296.922852,4336.410156,4399.615234,4311.153809,4283.717773,4487.436035,4514.615234,4333.846191,4412.563965,0.000000,1.000000,21.000000,,,,0.000000,2.000000,2.000000,0.000000,4.000000,2.000000,2.000000,0.000000,0.000000,4.000000,4.000000,4.000000,4.000000,4.000000,4.000000,0.000000,,,,,,,,,,,,,,,,,,,,,,,,,,,,
1732158205.047528,1732158205.051118,56.000000,0.000000,4279.743652,4238.205078,4317.948730,4295.769043,4297.307617,4297.051270,4336.025879,4404.358887,4311.538574,4283.333496,4488.333496,4516.282227,4333.846191,4410.384766,0.000000,1.000000,21.000000,,,,0.000000,2.000000,2.000000,0.000000,4.000000,2.000000,2.000000,0.000000,0.000000,4.000000,4.000000,4.000000,4.000000,4.000000,4.000000,0.000000,,,,,,,,,,,,,,,,,14.000000,0.000000,0.498394,0.474121,-0.544617,0.479797,0.967892,-0.035649,-0.034672,-35.721249,45.103832,31.377033
1732158205.055336,1732158205.058926,57.000000,0.000000,4279.871582,4245.641113,4317.179688,4294.743652,4312.948730,4296.538574,4335.641113,4405.897461,4312.820313,4281.410156,4489.743652,4517.051270,4334.743652,4410.769043,0.000000,1.000000,21.000000,,,,0.000000,2.000000,2.000000,0.000000,4.000000,2.000000,2.000000,0.000000,0.000000,4.000000,4.000000,4.000000,4.000000,4.000000,4.000000,0.000000,,,,,,,,,,,,,,,,,,,,,,,,,,,,
1732158205.063144,1732158205.066934,58.000000,0.000000,4282.436035,4250.128418,4318.077148,4295.641113,4299.358887,4295.897461,4334.871582,4399.615234,4312.179688,4281.025879,4487.948730,4519.230957,4335.128418,4413.333496,0.000000,1.000000,21.000000,,,,0.000000,2.000000,2.000000,0.000000,4.000000,2.000000,2.000000,0.000000,0.000000,4.000000,4.000000,4.000000,4.000000,4.000000,4.000000,0.000000,,,,,,,,,,,,,,,,,,,,,,,,,,,,
1732158205.070953,1732158205.074743,59.000000,0.000000,4286.025879,4247.948730,4318.846191,4301.538574,4274.615234,4298.333496,4334.487305,4399.743652,4313.333496,4284.871582,4490.769043,4523.846191,4341.538574,4415.128418,0.000000,1.000000,21.000000,,,,0.000000,2.000000,2.000000,0.000000,4.000000,2.000000,2.000000,0.000000,0.000000,4.000000,4.000000,4.000000,4.000000,4.000000,4.000000,0.000000,,,,,,,,,,,,,,,,,,,,,,,,,,,,
1732158205.078761,1732158205.082451,60.000000,0.000000,4283.461426,4247.307617,4318.333496,4302.436035,4278.589844,4300.128418,4338.717773,4405.256348,4312.948730,4284.743652,4495.256348,4523.205078,4341.666504,4412.692383,0.000000,1.000000,21.000000,,,,0.000000,2.000000,2.000000,0.000000,4.000000,2.000000,2.000000,0.000000,0.000000,4.000000,4.000000,4.000000,4.000000,4.000000,4.000000,0.000000,,,,,,,,,,,,,,,,,15.000000,0.000000,0.498310,0.474304,-0.544373,0.479980,0.986937,-0.050299,-0.030277,-35.697544,45.127438,31.282063
1732158205.086569,1732158205.090259,61.000000,0.000000,4279.871582,4246.666504,4318.589844,4295.512695,4288.077148,4296.794922,4339.358887,4403.717773,4309.487305,4279.230957,4491.410156,4520.128418,4337.307617,4411.666504,0.000000,1.000000,21.000000,,,,0.000000,2.000000,2.000000,0.000000,4.000000,2.000000,2.000000,0.000000,0.000000,4.000000,4.000000,4.000000,4.000000,4.000000,4.000000,0.000000,,,,,,,,,,,,,,,,,,,,,,,,,,,,
1732158205.094377,1732158205.097868,62.000000,0.000000,4281.282227,4246.410156,4319.615234,4292.563965,4280.256348,4294.743652,4334.358887,4403.333496,4311.025879,4280.512695,4487.436035,4522.179688,4341.410156,4413.974121,0.000000,1.000000,21.000000,,,,0.000000,2.000000,2.000000,0.000000,4.000000,2.000000,2.000000,0.000000,0.000000,4.000000,4.000000,4.000000,4.000000,4.000000,4.000000,0.000000,,,,,,,,,,,,,,,,,,,,,,,,,,,,
1732158205.102185,1732158205.105676,63.000000,0.000000,4279.871582,4250.000000,4317.051270,4294.615234,4295.000000,4296.153809,4335.769043,4408.974121,4313.333496,4282.436035,4487.179688,4518.589844,4338.461426,4408.461426,0.000000,1.000000,21.000000,,,,0.000000,2.000000,2.000000,0.000000,4.000000,2.000000,2.000000,0.000000,0.000000,4.000000,4.000000,4.000000,4.000000,4.000000,4.000000,0.000000,,,,,,,,,,,,,,,,,,,,,,,,,,,,
1732158205.109994,1732158205.113384,64.000000,0.000000,4276.025879,4250.000000,4316.025879,4295.641113,4310.128418,4296.025879,4340.384766,4409.358887,4308.589844,4279.615234,4488.077148,4512.051270,4332.948730,4404.102539,0.000000,1.000000,21.000000,,,,0.000000,2.000000,2.000000,0.000000,4.000000,2.000000,2.000000,0.000000,0.000000,4.000000,4.000000,4.000000,4.000000,4.000000,4.000000,0.000000,,,,,,,,,,,,,,,,,16.000000,0.000000,0.498202,0.474426,-0.544312,0.480042,0.977658,-0.038091,-0.045416,-35.913345,44.944889,31.070139
1732158205.117802,1732158205.121192,65.000000,0.000000,4277.307617,4247.948730,4318.974121,4295.512695,4287.051270,4298.846191,4340.512695,4403.974121,4308.461426,4280.512695,4489.102539,4517.436035,4338.589844,4407.948730,1608.000000,1.000000,21.000000,,,,0.000000,2.000000,2.000000,0.000000,4.000000,2.000000,2.000000,0.000000,0.000000,4.000000,4.000000,4.000000,4.000000,4.000000,4.000000,0.000000,,,,,,,,,,,,,,,,,,,,,,,,,,,,
1732158205.125610,1732158205.128801,66.000000,0.000000,4279.230957,4249.871582,4320.256348,4296.922852,4275.897461,4304.487305,4339.871582,4402.179688,4312.820313,4281.410156,4483.974121,4523.974121,4337.179688,4407.179688,1362.000000,1.000000,21.000000,,,,0.000000,2.000000,2.000000,0.000000,4.000000,2.000000,2.000000,0.000000,0.000000,4.000000,4.000000,4.000000,4.000000,4.000000,4.000000,0.000000,,,,,,,,,,,,,,,,,,,,,,,,,,,,
1732158205.133418,1732158205.136609,67.000000,0.000000,4279.487305,4250.512695,4318.974121,4297.692383,4290.512695,4301.666504,4338.846191,4401.666504,4305.641113,4277.563965,4479.487305,4518.461426,4328.589844,4405.897461,1432.000000,1.000000,21.000000,,,,0.000000,2.000000,2.000000,0.000000,4.000000,2.000000,2.000000,0.000000,0.000000,4.000000,4.000000,4.000000,4.000000,4.000000,4.000000,0.000000,,,,,,,,,,,,,,,,,,,,,,,,,,,,
1732158205.141227,1732158205.144517,68.000000,0.000000,4280.256348,4250.384766,4319.102539,4296.794922,4288.461426,4295.897461,4335.897461,4402.436035,4298.333496,4276.794922,4486.025879,4513.077148,4332.948730,4411.538574,1426.000000,1.000000,21.000000,,,,0.000000,2.000000,2.000000,0.000000,4.000000,2.000000,2.000000,0.000000,0.000000,4.000000,4.000000,4.000000,4.000000,4.000000,4.000000,0.000000,,,,,,,,,,,,,,,,,17.000000,0.000000,0.498160,0.474548,-0.544189,0.480103,0.988890,-0.039067,-0.041021,-35.886475,44.923695,31.088478
1732158205.149035,1732158205.152325,69.000000,0.000000,4279.871582,4253.717773,4319.615234,4295.641113,4288.205078,4295.384766,4334.615234,4405.769043,4306.794922,4280.384766,4491.794922,4520.641113,4342.307617,4410.000000,1205.000000,1.000000,21.000000,,,,0.000000,2.000000,2.000000,0.000000,4.000000,2.000000,2.000000,0.000000,0.000000,4.000000,4.000000,4.000000,4.000000,4.000000,4.000000,0.000000,,,,,,,,,,,,,,,,,,,,,,,,,,,,
1732158205.156843,1732158205.159934,70.000000,0.000000,4280.641113,4252.692383,4319.230957,4294.871582,4304.230957,4292.948730,4336.922852,4403.846191,4311.794922,4281.410156,4488.974121,4524.615234,4340.256348,4405.128418,0.000000,1.000000,21.000000,,,,0.000000,2.000000,2.000000,0.000000,4.000000,2.000000,2.000000,0.000000,0.000000,4.000000,4.000000,4.000000,4.000000,4.000000,4.000000,0.000000,,,,,,,,,,,,,,,,,,,,,,,,,,,,
1732158205.164652,1732158205.167742,71.000000,0.000000,4282.563965,4252.179688,4318.461426,4295.769043,4291.922852,4290.384766,4338.974121,4400.256348,4306.282227,4281.282227,4488.974121,4520.769043,4338.205078,4409.358887,0.000000,1.000000,21.000000,,,,0.000000,2.000000,2.000000,0.000000,4.000000,2.000000,2.000000,0.000000,0.000000,4.000000,4.000000,4.000000,4.000000,4.000000,4.000000,0.000000,,,,,,,,,,,,,,,,,,,,,,,,,,,,
1732158205.172460,1732158205.175450,72.000000,0.000000,4281.282227,4255.128418,4317.179688,4296.538574,4267.820313,4295.000000,4337.692383,4402.820313,4305.384766,4281.410156,4493.077148,4523.461426,4342.436035,4414.102539,1529.000000,1.000000,21.000000,,,,0.000000,2.000000,2.000000,0.000000,4.000000,2.000000,2.000000,0.000000,0.000000,4.000000,4.000000,4.000000,4.000000,4.000000,4.000000,0.000000,,,,,,,,,,,,,,,,,18.000000,0.000000,0.498202,0.474487,-0.544312,0.479980,0.967892,-0.041997,-0.044927,-35.856380,44.956528,31.186668
1732158205.180268,1732158205.183258,73.000000,0.000000,4279.230957,4254.102539,4317.179688,4293.461426,4277.307617,4295.897461,4332.692383,4404.358887,4304.230957,4279.743652,4492.051270,4526.153809,4341.410156,4409.358887,1691.000000,1.000000,21.000000,,,,0.000000,2.000000,2.000000,0.000000,4.000000,2.000000,2.000000,0.000000,0.000000,4.000000,4.000000,4.000000,4.000000,4.000000,4.000000,0.000000,,,,,,,,,,,,,,,,,,,,,,,,,,,,
1732158205.188076,1732158205.190867,74.000000,0.000000,4280.641113,4253.205078,4316.794922,4291.794922,4288.461426,4292.051270,4333.846191,4403.077148,4304.230957,4279.230957,4489.615234,4520.512695,4339.487305,4405.128418,1543.000000,1.000000,21.000000,,,,0.000000,2.000000,2.000000,0.000000,4.000000,2.000000,2.000000,0.000000,0.000000,4.000000,4.000000,4.000000,4.000000,4.000000,4.000000,0.000000,,,,,,,,,,,,,,,,,,,,,,,,,,,,
1732158205.195884,1732158205.198675,75.000000,0.000000,4279.358887,4254.615234,4317.179688,4294.615234,4284.230957,4295.000000,4340.897461,4407.436035,4308.333496,4280.128418,4489.102539,4515.128418,4340.128418,4408.333496,1561.000000,1.000000,21.000000,,,,0.000000,2.000000,2.000000,0.000000,4.000000,2.000000,2.000000,0.000000,0.000000,4.000000,4.000000,4.000000,4.000000,4.000000,4.000000,0.000000,,,,,,,,,,,,,,,,,,,,,,,,,,,,
1732158205.203693,1732158205.206383,76.000000,0.000000,4272.948730,4250.128418,4318.333496,4292.692383,4295.384766,4295.897461,4338.846191,4407.563965,4302.436035,4278.077148,4487.692383,4511.153809,4338.717773,4407.692383,1705.000000,1.000000,21.000000,,,,0.000000,2.000000,2.000000,0.000000,4.000000,2.000000,2.000000,0.000000,0.000000,4.000000,4.000000,4.000000,4.000000,4.000000,4.000000,0.000000,,,,,,,,,,,,,,,,,19.000000,0.000000,0.498253,0.474426,-0.544373,0.479919,0.967892,-0.041997,-0.044927,-36.042000,44.806454,31.309534
1732158205.211501,1732158205.214191,77.000000,0.000000,4272.948730,4247.436035,4317.307617,4288.333496,4299.743652,4291.794922,4335.641113,4400.897461,4295.256348,4275.512695,4485.769043,4510.384766,4334.358887,4403.205078,1591.000000,1.000000,21.000000,,,,0.000000,2.000000,2.000000,0.000000,4.000000,2.000000,2.000000,0.000000,0.000000,4.000000,4.000000,4.000000,4.000000,4.000000,4.000000,0.000000,,,,,,,,,,,,,,,,,,,,,,,,,,,,
1732158205.219309,1732158205.222199,78.000000,0.000000,4279.615234,4254.743652,4316.282227,4295.256348,4277.948730,4293.205078,4340.384766,4400.641113,4306.153809,4278.589844,4487.051270,4519.743652,4334.230957,4407.820313,1543.000000,1.000000,21.000000,,,,0.000000,2.000000,2.000000,0.000000,4.000000,2.000000,2.000000,0.000000,0.000000,4.000000,4.000000,4.000000,4.000000,4.000000,4.000000,0.000000,1.000000,0.000000,2.000000,2.000000,0.000000,4.000000,2.000000,2.000000,0.000000,0.000000,4.000000,4.000000,4.000000,4.000000,3.000000,4.000000,,,,,,,,,,,,
1732158205.227117,1732158205.230008,79.000000,0.000000,4282.692383,4257.051270,4318.846191,4302.436035,4272.051270,4297.563965,4341.538574,4404.230957,4313.077148,4283.717773,4491.025879,4526.794922,4336.666504,4417.307617,1561.000000,1.000000,21.000000,,,,0.000000,2.000000,2.000000,0.000000,4.000000,2.000000,2.000000,0.000000,0.000000,4.000000,4.000000,4.000000,4.000000,4.000000,4.000000,0.000000,,,,,,,,,,,,,,,,,,,,,,,,,,,,
1732158205.234926,1732158205.237716,80.000000,0.000000,4280.384766,4251.538574,4318.717773,4297.563965,4285.769043,4296.025879,4335.769043,4403.333496,4301.410156,4281.282227,4487.179688,4519.871582,4334.230957,4414.615234,1705.000000,1.000000,21.000000,,,,0.000000,2.000000,2.000000,0.000000,4.000000,2.000000,2.000000,0.000000,0.000000,4.000000,4.000000,4.000000,4.000000,4.000000,4.000000,0.000000,,,,,,,,,,,,,,,,,20.000000,0.000000,0.498311,0.474426,-0.544373,0.479858,0.985960,-0.039067,-0.027835,-36.072353,44.939892,31.399055
1732158205.242734,1732158205.245524,81.000000,0.000000,4275.128418,4249.743652,4317.179688,4294.230957,4281.794922,4295.000000,4333.589844,4402.051270,4294.102539,4278.846191,4477.948730,4513.461426,4331.922852,4403.205078,1591.000000,1.000000,21.000000,,,,0.000000,2.000000,2.000000,0.000000,4.000000,2.000000,2.000000,0.000000,0.000000,4.000000,4.000000,4.000000,4.000000,4.000000,4.000000,0.000000,,,,,,,,,,,,,,,,,,,,,,,,,,,,
1732158205.250542,1732158205.253133,82.000000,0.000000,4267.051270,4248.205078,4317.051270,4291.666504,4281.410156,4296.153809,4334.743652,4403.077148,4297.692383,4278.589844,4473.589844,4512.563965,4326.666504,4397.436035,1543.000000,1.000000,21.000000,,,,0.000000,2.000000,2.000000,0.000000,4.000000,2.000000,2.000000,0.000000,0.000000,4.000000,4.000000,4.000000,4.000000,4.000000,4.000000,0.000000,,,,,,,,,,,,,,,,,,,,,,,,,,,,
1732158205.258350,1732158205.260941,83.000000,0.000000,4262.820313,4246.666504,4316.410156,4283.974121,4300.769043,4297.051270,4333.205078,4405.512695,4301.666504,4269.615234,4473.846191,4510.384766,4319.358887,4395.128418,1561.000000,1.000000,21.000000,,,,0.000000,2.000000,2.000000,0.000000,4.000000,2.000000,2.000000,0.000000,0.000000,4.000000,4.000000,4.000000,4.000000,4.000000,4.000000,0.000000,,,,,,,,,,,,,,,,,,,,,,,,,,,,
1732158205.266159,1732158205.268649,84.000000,0.000000,4270.897461,4248.974121,4317.307617,4287.051270,4295.769043,4301.666504,4333.461426,4407.436035,4304.358887,4265.512695,4472.563965,4510.128418,4320.256348,4397.051270,1705.000000,1.000000,21.000000,,,,0.000000,2.000000,2.000000,0.000000,4.000000,2.000000,2.000000,0.000000,0.000000,4.000000,4.000000,4.000000,4.000000,4.000000,4.000000,0.000000,,,,,,,,,,,,,,,,,21.000000,0.000000,0.498194,0.474487,-0.544373,0.479919,0.972287,-0.046881,-0.049322,-35.926941,44.919647,31.316568
1732158205.273967,1732158205.276457,85.000000,0.000000,4279.871582,4250.384766,4317.948730,4299.487305,4274.743652,4302.692383,4333.589844,4404.743652,4303.077148,4276.025879,4474.743652,4516.025879,4327.948730,4401.922852,1591.000000,1.000000,21.000000,,,,0.000000,2.000000,2.000000,0.000000,4.000000,2.000000,2.000000,0.000000,0.000000,4.000000,4.000000,4.000000,4.000000,4.000000,4.000000,0.000000,,,,,,,,,,,,,,,,,,,,,,,,,,,,
1732158205.281775,1732158205.284066,86.000000,0.000000,4280.256348,4252.563965,4315.256348,4299.871582,4272.563965,4298.333496,4333.205078,4400.897461,4298.589844,4281.538574,4484.358887,4517.307617,4332.948730,4403.589844,1543.000000,1.000000,21.000000,,,,0.000000,2.000000,2.000000,0.000000,4.000000,2.000000,2.000000,0.000000,0.000000,4.000000,4.000000,4.000000,4.000000,4.000000,4.000000,0.000000,,,,,,,,,,,,,,,,,,,,,,,,,,,,
1732158205.289584,1732158205.291874,87.000000,0.000000,4277.692383,4254.871582,4316.666504,4293.077148,4288.077148,4293.589844,4333.717773,4401.153809,4297.948730,4276.794922,4486.794922,4513.461426,4331.794922,4399.487305,1561.000000,1.000000,21.000000,,,,0.000000,2.000000,2.000000,0.000000,4.000000,2.000000,2.000000,0.000000,0.000000,4.000000,4.000000,4.000000,4.000000,4.000000,4.000000,0.000000,,,,,,,,,,,,,,,,,,,,,,,,,,,,
1732158205.297392,1732158205.299582,88.000000,0.000000,4278.077148,4255.128418,4320.512695,4292.820313,4300.256348,4290.000000,4333.846191,4405.641113,4297.692383,4273.333496,4478.974121,4511.922852,4332.051270,4396.538574,1705.000000,1.000000,21.000000,,,,0.000000,2.000000,2.000000,0.000000,4.000000,2.000000,2.000000,0.000000,0.000000,4.000000,4.000000,4.000000,4.000000,4.000000,4.000000,0.000000,,,,,,,,,,,,,,,,,22.000000,0.000000,0.498153,0.474609,-0.544250,0.479980,0.972287,-0.046881,-0.049322,-35.785820,45.003246,31.146421
1732158205.305200,1732158205.307391,89.000000,0.000000,4279.487305,4253.846191,4316.922852,4294.743652,4286.794922,4290.641113,4332.820313,4407.563965,4293.846191,4274.871582,4475.641113,4514.487305,4329.743652,4401.794922,1591.000000,1.000000,21.000000,,,,0.000000,2.000000,2.000000,0.000000,4.000000,2.000000,2.000000,0.000000,0.000000,4.000000,4.000000,4.000000,4.000000,4.000000,4.000000,0.000000,,,,,,,,,,,,,,,,,,,,,,,,,,,,
1732158205.313008,1732158205.315399,90.000000,0.000000,4278.077148,4254.358887,4315.256348,4294.230957,4265.384766,4296.025879,4335.000000,4404.487305,4297.179688,4279.615234,4480.128418,4514.487305,4327.563965,4403.717773,1543.000000,1.000000,21.000000,,,,0.000000,2.000000,2.000000,0.000000,4.000000,2.000000,2.000000,0.000000,0.000000,4.000000,4.000000,4.000000,4.000000,4.000000,4.000000,0.000000,,,,,,,,,,,,,,,,,,,,,,,,,,,,
1732158205.320816,1732158205.323207,91.000000,0.000000,4277.179688,4257.307617,4317.692383,4294.358887,4273.077148,4295.000000,4339.743652,4401.282227,4300.641113,4278.717773,4479.743652,4507.820313,4330.641113,4399.358887,1561.000000,1.000000,21.000000,,,,0.000000,2.000000,2.000000,0.000000,4.000000,2.000000,2.000000,0.000000,0.000000,4.000000,4.000000,4.000000,4.000000,4.000000,4.000000,0.000000,,,,,,,,,,,,,,,,,,,,,,,,,,,,
1732158205.328625,1732158205.331115,92.000000,0.000000,4278.846191,4262.948730,4317.436035,4294.615234,4285.384766,4290.512695,4341.153809,4402.179688,4295.769043,4268.846191,4475.512695,4511.922852,4329.743652,4400.256348,1705.000000,1.000000,21.000000,,,,0.000000,2.000000,2.000000,0.000000,4.000000,2.000000,2.000000,0.000000,0.000000,4.000000,4.000000,4.000000,4.000000,4.000000,4.000000,0.000000,,,,,,,,,,,,,,,,,23.000000,0.000000,0.498077,0.474548,-0.544373,0.479980,0.982542,-0.047369,-0.045904,-35.731514,44.939297,31.340267
1732158205.336433,1732158205.338923,93.000000,0.000000,4279.615234,4262.563965,4315.512695,4294.743652,4277.820313,4294.487305,4339.871582,4402.051270,4293.589844,4264.102539,4476.538574,4518.974121,4326.538574,4403.077148,1591.000000,1.000000,21.000000,,,,0.000000,2.000000,2.000000,0.000000,4.000000,2.000000,2.000000,0.000000,0.000000,4.000000,4.000000,4.000000,4.000000,4.000000,4.000000,0.000000,,,,,,,,,,,,,,,,,,,,,,,,,,,,
1732158205.344241,1732158205.346931,94.000000,0.000000,4278.333496,4255.384766,4315.897461,4293.333496,4289.743652,4294.358887,4338.846191,4400.384766,4293.974121,4265.769043,4476.666504,4513.717773,4325.897461,4399.230957,1543.000000,1.000000,21.000000,,,,0.000000,2.000000,2.000000,0.000000,4.000000,2.000000,2.000000,0.000000,0.000000,4.000000,4.000000,4.000000,4.000000,4.000000,4.000000,0.000000,,,,,,,,,,,,,,,,,,,,,,,,,,,,
1732158205.352049,1732158205.354739,95.000000,0.000000,4279.230957,4254.487305,4314.615234,4293.461426,4298.333496,4290.384766,4339.358887,4402.436035,4294.743652,4271.153809,4476.794922,4514.871582,4328.333496,4396.153809,1561.000000,1.000000,21.000000,,,,0.000000,2.000000,2.000000,0.000000,4.000000,2.000000,2.000000,0.000000,0.000000,4.000000,4.000000,4.000000,4.000000,4.000000,4.000000,0.000000,,,,,,,,,,,,,,,,,,,,,,,,,,,,
1732158205.359858,1732158205.362448,96.000000,0.000000,4281.153809,4256.666504,4315.256348,4295.384766,4271.922852,4293.717773,4341.282227,4404.230957,4300.512695,4279.102539,4477.820313,4525.256348,4328.333496,4401.922852,1705.000000,1.000000,21.000000,,,,0.000000,2.000000,2.000000,0.000000,4.000000,2.000000,2.000000,0.000000,0.000000,4.000000,4.000000,4.000000,4.000000,4.000000,4.000000,0.000000,,,,,,,,,,,,,,,,,24.000000,0.000000,0.498011,0.474609,-0.544434,0.479919,0.979123,-0.049811,-0.042974,-35.934193,44.835831,31.315617
1732158205.367666,1732158205.370256,97.000000,0.000000,4279.102539,4253.333496,4318.717773,4294.487305,4264.230957,4295.512695,4338.974121,4404.102539,4303.589844,4280.641113,4479.615234,4521.282227,4326.410156,4403.077148,1591.000000,1.000000,21.000000,,,,0.000000,2.000000,2.000000,0.000000,4.000000,2.000000,2.000000,0.000000,0.000000,4.000000,4.000000,4.000000,4.000000,4.000000,4.000000,0.000000,,,,,,,,,,,,,,,,,,,,,,,,,,,,
1732158205.375474,1732158205.377864,98.000000,0.000000,4278.717773,4253.205078,4319.102539,4293.461426,4277.820313,4291.282227,4333.589844,4406.153809,4299.102539,4281.153809,4482.436035,4514.358887,4331.666504,4401.410156,1543.000000,1.000000,21.000000,,,,0.000000,2.000000,2.000000,0.000000,4.000000,2.000000,2.000000,0.000000,0.000000,4.000000,4.000000,4.000000,4.000000,4.000000,4.000000,0.000000,,,,,,,,,,,,,,,,,,,,,,,,,,,,
1732158205.383283,1732158205.385672,99.000000,0.000000,4280.128418,4258.717773,4316.794922,4295.256348,4281.025879,4291.025879,4333.974121,4406.410156,4296.025879,4278.846191,4481.282227,4516.794922,4335.641113,4403.333496,1561.000000,1.000000,21.000000,,,,0.000000,2.000000,2.000000,0.000000,4.000000,2.000000,2.000000,0.000000,0.000000,4.000000,4.000000,4.000000,4.000000,4.000000,4.000000,0.000000,,,,,,,,,,,,,,,,,,,,,,,,,,,,
1732158205.391091,1732158205.393580,100.000000,0.000000,4279.230957,4262.563965,4317.948730,4296.410156,4291.282227,4294.615234,4336.922852,4403.333496,4294.102539,4267.436035,4475.897461,4513.461426,4327.948730,4400.641113,1705.000000,1.000000,21.000000,,,,0.000000,2.000000,2.000000,0.000000,4.000000,2.000000,2.000000,0.000000,0.000000,4.000000,4.000000,4.000000,4.000000,4.000000,4.000000,0.000000,,,,,,,,,,,,,,,,,25.000000,0.000000,0.498161,0.474365,-0.544617,0.479797,0.988402,-0.052741,-0.037114,-35.978363,44.760357,31.412315
1732158205.398899,1732158205.401389,101.000000,0.000000,4279.743652,4262.563965,4318.205078,4296.025879,4292.051270,4294.230957,4336.153809,4400.641113,4294.487305,4261.538574,4473.974121,4516.410156,4324.102539,4395.897461,1591.000000,1.000000,21.000000,,,,0.000000,2.000000,2.000000,0.000000,4.000000,2.000000,2.000000,0.000000,0.000000,4.000000,4.000000,4.000000,4.000000,4.000000,4.000000,0.000000,,,,,,,,,,,,,,,,,,,,,,,,,,,,
