title:3six, start timestamp:1732158262.867747, stop timestamp:1732158303.127088, headset type:EPOCX, headset serial:E5020C3A, headset firmware:730, channels:67, sampling rate:eeg_128;mot_32, samples:5157      , version:2.2, 
Timestamp,OriginalTimestamp,EEG.Counter,EEG.Interpolated,EEG.AF3,EEG.F7,EEG.F3,EEG.FC5,EEG.T7,EEG.P7,EEG.O1,EEG.O2,EEG.P8,EEG.T8,EEG.FC6,EEG.F4,EEG.F8,EEG.AF4,EEG.RawCq,EEG.Battery,EEG.BatteryPercent,MarkerIndex,MarkerType,MarkerValueInt,EEG.MarkerHardware,CQ.AF3,CQ.F7,CQ.F3,CQ.FC5,CQ.T7,CQ.P7,CQ.O1,CQ.O2,CQ.P8,CQ.T8,CQ.FC6,CQ.F4,CQ.F8,CQ.AF4,CQ.Overall,EQ.SampleRateQuality,EQ.OVERALL,EQ.AF3,EQ.F7,EQ.F3,EQ.FC5,EQ.T7,EQ.P7,EQ.O1,EQ.O2,EQ.P8,EQ.T8,EQ.FC6,EQ.F4,EQ.F8,EQ.AF4,MOT.CounterMems,MOT.InterpolatedMems,MOT.Q0,MOT.Q1,MOT.Q2,MOT.Q3,MOT.AccX,MOT.AccY,MOT.AccZ,MOT.MagX,MOT.MagY,MOT.MagZ
1732158262.867747,1732158262.872701,37.000000,0.000000,4297.051270,4286.025879,4313.589844,4298.717773,4273.846191,4277.948730,4340.769043,4399.358887,4296.666504,4283.461426,4495.512695,4526.538574,4362.692383,4421.410156,0.000000,1.000000,21.000000,,,,0.000000,2.000000,2.000000,0.000000,4.000000,2.000000,2.000000,0.000000,0.000000,4.000000,4.000000,4.000000,4.000000,4.000000,4.000000,0.000000,,,,,,,,,,,,,,,,,,,,,,,,,,,,
1732158262.875555,1732158262.880309,38.000000,0.000000,4293.333496,4286.794922,4314.358887,4295.897461,4280.897461,4280.128418,4341.666504,4400.897461,4291.025879,4278.205078,4491.153809,4521.282227,4351.282227,4416.538574,0.000000,1.000000,21.000000,,,,0.000000,2.000000,2.000000,0.000000,4.000000,2.000000,2.000000,0.000000,0.000000,4.000000,4.000000,4.000000,4.000000,4.000000,4.000000,0.000000,,,,,,,,,,,,,,,,,,,,,,,,,,,,
1732158262.883363,1732158262.888117,39.000000,0.000000,4293.974121,4291.025879,4314.230957,4295.384766,4291.153809,4275.512695,4337.692383,4399.615234,4293.333496,4276.153809,4484.358887,4517.307617,4340.769043,4412.179688,0.000000,1.000000,21.000000,,,,0.000000,2.000000,2.000000,0.000000,4.000000,2.000000,2.000000,0.000000,0.000000,4.000000,4.000000,4.000000,4.000000,4.000000,4.000000,0.000000,,,,,,,,,,,,,,,,,,,,,,,,,,,,
1732158262.891172,1732158262.895825,40.000000,0.000000,4294.615234,4295.256348,4313.461426,4296.282227,4275.512695,4276.410156,4336.922852,4400.769043,4300.256348,4283.846191,4488.589844,4524.487305,4354.230957,4415.128418,0.000000,1.000000,21.000000,,,,0.000000,2.000000,2.000000,0.000000,4.000000,2.000000,2.000000,0.000000,0.000000,4.000000,4.000000,4.000000,4.000000,4.000000,4.000000,0.000000,,,,,,,,,,,,,,,,,10.000000,0.000000,0.520827,0.496155,-0.523315,0.456848,0.978635,0.040044,-0.027835,-34.923977,45.635456,31.559235
1732158262.898980,1732158262.903634,41.000000,0.000000,4291.153809,4296.538574,4314.871582,4299.358887,4258.589844,4280.128418,4338.333496,4401.794922,4298.205078,4282.051270,4491.282227,4521.282227,4361.538574,4415.512695,0.000000,1.000000,21.000000,,,,0.000000,2.000000,2.000000,0.000000,4.000000,2.000000,2.000000,0.000000,0.000000,4.000000,4.000000,4.000000,4.000000,4.000000,4.000000,0.000000,,,,,,,,,,,,,,,,,,,,,,,,,,,,
1732158262.906788,1732158262.911242,42.000000,0.000000,4286.153809,4297.307617,4316.025879,4301.666504,4271.025879,4282.179688,4339.230957,4400.256348,4295.897461,4279.230957,4479.871582,4512.179688,4344.358887,4410.128418,0.000000,1.000000,21.000000,,,,0.000000,2.000000,2.000000,0.000000,4.000000,2.000000,2.000000,0.000000,0.000000,4.000000,4.000000,4.000000,4.000000,4.000000,4.000000,0.000000,,,,,,,,,,,,,,,,,,,,,,,,,,,,
1732158262.914596,1732158262.919050,43.000000,0.000000,4282.307617,4298.205078,4313.974121,4297.563965,4284.230957,4283.205078,4338.974121,4400.256348,4302.436035,4288.846191,4472.436035,4512.051270,4337.820313,4408.846191,0.000000,1.000000,21.000000,,,,0.000000,2.000000,2.000000,0.000000,4.000000,2.000000,2.000000,0.000000,0.000000,4.000000,4.000000,4.000000,4.000000,4.000000,4.000000,0.000000,,,,,,,,,,,,,,,,,,,,,,,,,,,,
1732158262.922404,1732158262.926759,44.000000,0.000000,4281.025879,4302.051270,4312.692383,4290.897461,4276.025879,4283.589844,4336.538574,4402.692383,4307.820313,4291.538574,4479.230957,4513.717773,4355.256348,4413.846191,0.000000,1.000000,21.000000,,,,0.000000,2.000000,2.000000,0.000000,4.000000,2.000000,2.000000,0.000000,0.000000,4.000000,4.000000,4.000000,4.000000,4.000000,4.000000,0.000000,,,,,,,,,,,,,,,,,11.000000,0.000000,0.520827,0.496155,-0.523315,0.456848,0.971310,0.036626,-0.037602,-35.000088,45.584721,31.632980
1732158262.930213,1732158262.934567,45.000000,0.000000,4281.282227,4307.307617,4313.205078,4292.179688,4268.717773,4282.820313,4333.846191,4402.179688,4299.358887,4281.153809,4480.641113,4504.871582,4357.051270,4411.922852,0.000000,1.000000,21.000000,,,,0.000000,2.000000,2.000000,0.000000,4.000000,2.000000,2.000000,0.000000,0.000000,4.000000,4.000000,4.000000,4.000000,4.000000,4.000000,0.000000,,,,,,,,,,,,,,,,,,,,,,,,,,,,
1732158262.938021,1732158262.942175,46.000000,0.000000,4280.000000,4308.589844,4312.307617,4292.948730,4267.563965,4282.436035,4334.615234,4401.794922,4294.102539,4283.205078,4475.384766,4497.820313,4349.102539,4407.179688,0.000000,1.000000,21.000000,,,,0.000000,2.000000,2.000000,0.000000,4.000000,2.000000,2.000000,0.000000,0.000000,4.000000,4.000000,4.000000,4.000000,4.000000,4.000000,0.000000,,,,,,,,,,,,,,,,,,,,,,,,,,,,
1732158262.945829,1732158262.949983,47.000000,0.000000,4278.974121,4305.512695,4310.897461,4286.666504,4268.717773,4280.897461,4336.922852,4404.615234,4306.922852,4295.769043,4476.794922,4501.794922,4356.666504,4409.102539,0.000000,1.000000,21.000000,,,,0.000000,2.000000,2.000000,0.000000,4.000000,2.000000,2.000000,0.000000,0.000000,4.000000,4.000000,4.000000,4.000000,4.000000,4.000000,0.000000,,,,,,,,,,,,,,,,,,,,,,,,,,,,
1732158262.953637,1732158262.957692,48.000000,0.000000,4279.743652,4310.512695,4310.512695,4282.563965,4274.487305,4280.897461,4335.384766,4402.179688,4311.538574,4290.512695,4476.282227,4503.717773,4355.897461,4409.358887,0.000000,1.000000,21.000000,,,,0.000000,2.000000,2.000000,0.000000,4.000000,2.000000,2.000000,0.000000,0.000000,4.000000,4.000000,4.000000,4.000000,4.000000,4.000000,0.000000,,,,,,,,,,,,,,,,,12.000000,0.000000,0.522928,0.495605,-0.523071,0.455322,0.980100,0.076670,-0.025882,-35.086739,45.581955,31.767714
1732158262.961446,1732158262.965500,49.000000,0.000000,4278.589844,4326.922852,4311.922852,4283.974121,4271.922852,4282.307617,4335.000000,4397.563965,4298.205078,4278.205078,4473.077148,4496.922852,4344.487305,4404.487305,0.000000,1.000000,21.000000,,,,0.000000,2.000000,2.000000,0.000000,4.000000,2.000000,2.000000,0.000000,0.000000,4.000000,4.000000,4.000000,4.000000,4.000000,4.000000,0.000000,,,,,,,,,,,,,,,,,,,,,,,,,,,,
1732158262.969254,1732158262.973108,50.000000,0.000000,4277.692383,4336.538574,4313.333496,4285.128418,4261.922852,4281.666504,4336.025879,4400.000000,4293.077148,4278.846191,4474.102539,4492.179688,4344.230957,4402.563965,0.000000,1.000000,21.000000,,,,0.000000,2.000000,2.000000,0.000000,4.000000,2.000000,2.000000,0.000000,0.000000,4.000000,4.000000,4.000000,4.000000,4.000000,4.000000,0.000000,,,,,,,,,,,,,,,,,,,,,,,,,,,,
1732158262.977062,1732158262.980917,51.000000,0.000000,4279.230957,4337.948730,4313.333496,4286.922852,4264.358887,4282.436035,4336.410156,4402.051270,4302.051270,4280.128418,4474.230957,4497.692383,4346.922852,4403.077148,0.000000,1.000000,21.000000,,,,0.000000,2.000000,2.000000,0.000000,4.000000,2.000000,2.000000,0.000000,0.000000,4.000000,4.000000,4.000000,4.000000,4.000000,4.000000,0.000000,,,,,,,,,,,,,,,,,,,,,,,,,,,,
1732158262.984871,1732158262.988625,52.000000,0.000000,4280.384766,4342.692383,4312.820313,4292.820313,4276.025879,4283.205078,4337.179688,4401.153809,4304.230957,4275.897461,4472.820313,4506.794922,4344.102539,4407.820313,0.000000,1.000000,21.000000,,,,0.000000,2.000000,2.000000,0.000000,4.000000,2.000000,2.000000,0.000000,0.000000,4.000000,4.000000,4.000000,4.000000,4.000000,4.000000,0.000000,,,,,,,,,,,,,,,,,13.000000,0.000000,0.524769,0.496521,-0.521790,0.453674,0.965450,0.090343,-0.033696,-35.225258,45.551384,31.673515
1732158262.992679,1732158262.996433,53.000000,0.000000,4280.769043,4342.179688,4313.333496,4295.384766,4275.256348,4281.666504,4335.384766,4402.692383,4298.589844,4278.333496,4473.717773,4506.153809,4343.717773,4413.461426,0.000000,1.000000,21.000000,,,,0.000000,2.000000,2.000000,0.000000,4.000000,2.000000,2.000000,0.000000,0.000000,4.000000,4.000000,4.000000,4.000000,4.000000,4.000000,0.000000,,,,,,,,,,,,,,,,,,,,,,,,,,,,
1732158263.000487,1732158263.004041,54.000000,0.000000,4281.025879,4335.256348,4315.256348,4293.461426,4266.153809,4280.000000,4333.589844,4402.563965,4296.153809,4278.205078,4473.461426,4495.897461,4345.128418,4407.051270,0.000000,1.000000,21.000000,,,,0.000000,2.000000,2.000000,0.000000,4.000000,2.000000,2.000000,0.000000,0.000000,4.000000,4.000000,4.000000,4.000000,4.000000,4.000000,0.000000,,,,,,,,,,,,,,,,,,,,,,,,,,,,
1732158263.008295,1732158263.011850,55.000000,0.000000,4279.102539,4333.717773,4310.256348,4292.307617,4264.358887,4278.461426,4334.230957,4400.256348,4295.000000,4268.077148,4474.230957,4496.025879,4348.717773,4402.307617,0.000000,1.000000,21.000000,,,,0.000000,2.000000,2.000000,0.000000,4.000000,2.000000,2.000000,0.000000,0.000000,4.000000,4.000000,4.000000,4.000000,4.000000,4.000000,0.000000,,,,,,,,,,,,,,,,,,,,,,,,,,,,
1732158263.016104,1732158263.019758,56.000000,0.000000,4277.948730,4335.128418,4304.358887,4291.794922,4270.000000,4275.769043,4335.512695,4401.794922,4295.769043,4271.538574,4477.307617,4501.922852,4352.692383,4409.487305,0.000000,1.000000,21.000000,,,,0.000000,2.000000,2.000000,0.000000,4.000000,2.000000,2.000000,0.000000,0.000000,4.000000,4.000000,4.000000,4.000000,4.000000,4.000000,0.000000,,,,,,,,,,,,,,,,,14.000000,0.000000,0.524342,0.499084,-0.520142,0.453247,0.981077,0.065438,-0.030765,-35.110790,45.574955,31.420547
1732158263.023912,1732158263.027566,57.000000,0.000000,4280.897461,4334.871582,4308.974121,4298.333496,4275.512695,4276.794922,4334.487305,4403.077148,4298.333496,4278.461426,4475.769043,4499.102539,4350.641113,4408.974121,0.000000,1.000000,21.000000,,,,0.000000,2.000000,2.000000,0.000000,4.000000,2.000000,2.000000,0.000000,0.000000,4.000000,4.000000,4.000000,4.000000,4.000000,4.000000,0.000000,,,,,,,,,,,,,,,,,,,,,,,,,,,,
1732158263.031720,1732158263.035574,58.000000,0.000000,4282.948730,4341.538574,4311.922852,4307.692383,4276.922852,4277.820313,4333.077148,4400.512695,4293.077148,4269.615234,4472.820313,4500.512695,4351.666504,4403.717773,0.000000,1.000000,21.000000,,,,0.000000,2.000000,2.000000,0.000000,4.000000,2.000000,2.000000,0.000000,0.000000,4.000000,4.000000,4.000000,4.000000,4.000000,4.000000,0.000000,,,,,,,,,,,,,,,,,,,,,,,,,,,,
1732158263.039528,1732158263.043382,59.000000,0.000000,4283.077148,4342.436035,4307.179688,4306.410156,4277.436035,4275.256348,4333.077148,4398.717773,4283.205078,4266.410156,4473.333496,4506.538574,4352.436035,4404.102539,0.000000,1.000000,21.000000,,,,0.000000,2.000000,2.000000,0.000000,4.000000,2.000000,2.000000,0.000000,0.000000,4.000000,4.000000,4.000000,4.000000,4.000000,4.000000,0.000000,,,,,,,,,,,,,,,,,,,,,,,,,,,,
1732158263.047336,1732158263.051290,60.000000,0.000000,4284.615234,4331.538574,4306.666504,4300.000000,4277.179688,4276.666504,4332.692383,4398.077148,4285.128418,4277.563965,4475.128418,4504.230957,4349.487305,4403.077148,0.000000,1.000000,21.000000,,,,0.000000,2.000000,2.000000,0.000000,4.000000,2.000000,2.000000,0.000000,0.000000,4.000000,4.000000,4.000000,4.000000,4.000000,4.000000,0.000000,,,,,,,,,,,,,,,,,15.000000,0.000000,0.524342,0.499084,-0.520142,0.453247,0.981077,0.065438,-0.030765,-34.943073,45.474045,31.470642
1732158263.055145,1732158263.059099,61.000000,0.000000,4286.666504,4329.102539,4311.410156,4304.487305,4278.205078,4278.974121,4332.692383,4398.205078,4290.641113,4280.256348,4477.436035,4501.025879,4351.410156,4403.846191,0.000000,1.000000,21.000000,,,,0.000000,2.000000,2.000000,0.000000,4.000000,2.000000,2.000000,0.000000,0.000000,4.000000,4.000000,4.000000,4.000000,4.000000,4.000000,0.000000,,,,,,,,,,,,,,,,,,,,,,,,,,,,
1732158263.062953,1732158263.067107,62.000000,0.000000,4289.615234,4332.563965,4307.179688,4311.025879,4281.538574,4278.333496,4334.230957,4400.000000,4291.794922,4277.051270,4480.000000,4506.410156,4352.051270,4411.282227,0.000000,1.000000,21.000000,,,,0.000000,2.000000,2.000000,0.000000,4.000000,2.000000,2.000000,0.000000,0.000000,4.000000,4.000000,4.000000,4.000000,4.000000,4.000000,0.000000,,,,,,,,,,,,,,,,,,,,,,,,,,,,
1732158263.070761,1732158263.074915,63.000000,0.000000,4292.820313,4327.948730,4304.230957,4307.179688,4282.051270,4278.974121,4335.384766,4399.615234,4294.102539,4281.282227,4481.282227,4507.692383,4349.743652,4413.589844,0.000000,1.000000,21.000000,,,,0.000000,2.000000,2.000000,0.000000,4.000000,2.000000,2.000000,0.000000,0.000000,4.000000,4.000000,4.000000,4.000000,4.000000,4.000000,0.000000,,,,,,,,,,,,,,,,,,,,,,,,,,,,
1732158263.078570,1732158263.082623,64.000000,0.000000,4295.256348,4325.641113,4305.512695,4307.179688,4280.512695,4279.615234,4334.487305,4398.974121,4286.410156,4281.666504,4481.153809,4505.128418,4350.384766,4409.871582,0.000000,1.000000,21.000000,,,,0.000000,2.000000,2.000000,0.000000,4.000000,2.000000,2.000000,0.000000,0.000000,4.000000,4.000000,4.000000,4.000000,4.000000,4.000000,0.000000,,,,,,,,,,,,,,,,,16.000000,0.000000,0.522049,0.498413,-0.522766,0.453613,0.963985,0.023929,-0.042974,-34.675556,45.802311,31.424555
1732158263.086378,1732158263.090431,65.000000,0.000000,4295.769043,4325.512695,4304.487305,4310.641113,4283.974121,4277.948730,4333.205078,4398.461426,4278.461426,4279.743652,4483.461426,4504.871582,4349.230957,4410.897461,1606.000000,1.000000,21.000000,,,,0.000000,2.000000,2.000000,0.000000,4.000000,2.000000,2.000000,0.000000,0.000000,4.000000,4.000000,4.000000,4.000000,4.000000,4.000000,0.000000,,,,,,,,,,,,,,,,,,,,,,,,,,,,
1732158263.094186,1732158263.098439,66.000000,0.000000,4295.641113,4320.128418,4304.743652,4309.102539,4287.948730,4277.436035,4335.000000,4397.563965,4288.717773,4283.589844,4488.077148,4507.948730,4342.948730,4413.333496,1364.000000,1.000000,21.000000,,,,0.000000,2.000000,2.000000,0.000000,4.000000,2.000000,2.000000,0.000000,0.000000,4.000000,4.000000,4.000000,4.000000,4.000000,4.000000,0.000000,,,,,,,,,,,,,,,,,,,,,,,,,,,,
1732158263.101994,1732158263.106247,67.000000,0.000000,4298.333496,4316.410156,4306.410156,4307.820313,4285.256348,4277.179688,4336.538574,4398.333496,4294.743652,4289.102539,4490.000000,4510.384766,4340.897461,4416.410156,1424.000000,1.000000,21.000000,,,,0.000000,2.000000,2.000000,0.000000,4.000000,2.000000,2.000000,0.000000,0.000000,4.000000,4.000000,4.000000,4.000000,4.000000,4.000000,0.000000,,,,,,,,,,,,,,,,,,,,,,,,,,,,
1732158263.109803,1732158263.114156,68.000000,0.000000,4299.871582,4309.230957,4308.589844,4306.794922,4284.615234,4278.846191,4335.128418,4401.153809,4289.230957,4292.563965,4489.358887,4508.461426,4343.461426,4422.563965,1422.000000,1.000000,21.000000,,,,0.000000,2.000000,2.000000,0.000000,4.000000,2.000000,2.000000,0.000000,0.000000,4.000000,4.000000,4.000000,4.000000,4.000000,4.000000,0.000000,,,,,,,,,,,,,,,,,17.000000,0.000000,0.521512,0.497864,-0.523560,0.453918,0.952753,0.014650,-0.038091,-34.638866,45.596539,31.345556
1732158263.117611,1732158263.121964,69.000000,0.000000,4296.538574,4292.948730,4310.641113,4302.563965,4285.769043,4277.051270,4333.717773,4401.153809,4294.615234,4294.230957,4491.666504,4507.307617,4343.974121,4428.589844,1217.000000,1.000000,21.000000,,,,0.000000,2.000000,2.000000,0.000000,4.000000,2.000000,2.000000,0.000000,0.000000,4.000000,4.000000,4.000000,4.000000,4.000000,4.000000,0.000000,,,,,,,,,,,,,,,,,,,,,,,,,,,,
1732158263.125419,1732158263.129972,70.000000,0.000000,4297.179688,4284.743652,4312.179688,4301.666504,4284.743652,4270.000000,4334.102539,4397.948730,4298.589844,4293.846191,4491.282227,4512.179688,4339.102539,4428.077148,0.000000,1.000000,21.000000,,,,0.000000,2.000000,2.000000,0.000000,4.000000,2.000000,2.000000,0.000000,0.000000,4.000000,4.000000,4.000000,4.000000,4.000000,4.000000,0.000000,,,,,,,,,,,,,,,,,,,,,,,,,,,,
1732158263.133227,1732158263.137780,71.000000,0.000000,4307.692383,4286.153809,4312.179688,4309.871582,4287.563965,4272.307617,4333.846191,4398.205078,4293.077148,4294.358887,4490.897461,4517.307617,4338.077148,4429.102539,0.000000,1.000000,21.000000,,,,0.000000,2.000000,2.000000,0.000000,4.000000,2.000000,2.000000,0.000000,0.000000,4.000000,4.000000,4.000000,4.000000,4.000000,4.000000,0.000000,,,,,,,,,,,,,,,,,,,,,,,,,,,,
1732158263.141035,1732158263.145688,72.000000,0.000000,4311.922852,4283.589844,4314.487305,4313.974121,4290.769043,4276.282227,4334.230957,4400.769043,4297.179688,4298.077148,4498.589844,4518.717773,4346.153809,4438.333496,1549.000000,1.000000,21.000000,,,,0.000000,2.000000,2.000000,0.000000,4.000000,2.000000,2.000000,0.000000,0.000000,4.000000,4.000000,4.000000,4.000000,4.000000,4.000000,0.000000,,,,,,,,,,,,,,,,,18.000000,0.000000,0.521196,0.497192,-0.524353,0.454102,0.952753,0.014650,-0.038091,-34.635815,45.683197,31.421566
1732158263.148844,1732158263.153496,73.000000,0.000000,4311.666504,4287.563965,4315.897461,4310.769043,4286.794922,4268.974121,4335.769043,4399.743652,4298.846191,4296.538574,4506.538574,4521.538574,4353.974121,4447.051270,1706.000000,1.000000,21.000000,,,,0.000000,2.000000,2.000000,0.000000,4.000000,2.000000,2.000000,0.000000,0.000000,4.000000,4.000000,4.000000,4.000000,4.000000,4.000000,0.000000,,,,,,,,,,,,,,,,,,,,,,,,,,,,
1732158263.156652,1732158263.161504,74.000000,0.000000,4317.436035,4274.743652,4314.743652,4309.102539,4283.461426,4267.051270,4335.512695,4399.230957,4289.487305,4297.436035,4505.512695,4525.128418,4347.436035,4446.410156,1563.000000,1.000000,21.000000,,,,0.000000,2.000000,2.000000,0.000000,4.000000,2.000000,2.000000,0.000000,0.000000,4.000000,4.000000,4.000000,4.000000,4.000000,4.000000,0.000000,,,,,,,,,,,,,,,,,,,,,,,,,,,,
1732158263.164460,1732158263.169313,75.000000,0.000000,4321.025879,4230.641113,4314.102539,4310.256348,4291.153809,4276.794922,4334.871582,4400.897461,4290.769043,4301.025879,4500.000000,4523.846191,4339.871582,4445.641113,1556.000000,1.000000,21.000000,,,,0.000000,2.000000,2.000000,0.000000,4.000000,2.000000,2.000000,0.000000,0.000000,4.000000,4.000000,4.000000,4.000000,4.000000,4.000000,0.000000,,,,,,,,,,,,,,,,,,,,,,,,,,,,
1732158263.172269,1732158263.177221,76.000000,0.000000,4323.461426,4202.820313,4315.384766,4309.102539,4292.692383,4278.333496,4336.410156,4401.153809,4299.358887,4300.641113,4506.538574,4526.282227,4353.077148,4454.743652,1716.000000,1.000000,21.000000,,,,0.000000,2.000000,2.000000,0.000000,4.000000,2.000000,2.000000,0.000000,0.000000,4.000000,4.000000,4.000000,4.000000,4.000000,4.000000,0.000000,,,,,,,,,,,,,,,,,19.000000,0.000000,0.521255,0.493286,-0.528076,0.453979,0.986449,0.028324,-0.046881,-34.805012,45.858391,31.656469
1732158263.180077,1732158263.185029,77.000000,0.000000,4330.897461,4203.205078,4316.666504,4306.153809,4283.461426,4278.205078,4335.512695,4399.871582,4298.077148,4300.256348,4514.358887,4529.358887,4364.358887,4462.436035,1593.000000,1.000000,21.000000,,,,0.000000,2.000000,2.000000,0.000000,4.000000,2.000000,2.000000,0.000000,0.000000,4.000000,4.000000,4.000000,4.000000,4.000000,4.000000,0.000000,,,,,,,,,,,,,,,,,,,,,,,,,,,,
1732158263.187885,1732158263.192737,78.000000,0.000000,4336.410156,4201.410156,4316.666504,4308.589844,4282.307617,4277.307617,4333.717773,4399.615234,4293.333496,4298.205078,4511.153809,4529.615234,4358.205078,4465.769043,1563.000000,1.000000,21.000000,,,,0.000000,2.000000,2.000000,0.000000,4.000000,2.000000,2.000000,0.000000,0.000000,4.000000,4.000000,4.000000,4.000000,4.000000,4.000000,0.000000,1.000000,0.000000,2.000000,2.000000,0.000000,4.000000,2.000000,2.000000,0.000000,0.000000,4.000000,4.000000,4.000000,4.000000,4.000000,4.000000,,,,,,,,,,,,
1732158263.195693,1732158263.200545,79.000000,0.000000,4336.025879,4196.538574,4315.897461,4307.692383,4285.641113,4269.487305,4335.128418,4400.897461,4295.000000,4298.846191,4512.436035,4532.051270,4358.717773,4471.922852,1556.000000,1.000000,21.000000,,,,0.000000,2.000000,2.000000,0.000000,4.000000,2.000000,2.000000,0.000000,0.000000,4.000000,4.000000,4.000000,4.000000,4.000000,4.000000,0.000000,,,,,,,,,,,,,,,,,,,,,,,,,,,,
1732158263.203502,1732158263.208254,80.000000,0.000000,4337.563965,4200.897461,4317.563965,4301.922852,4282.563965,4273.846191,4336.538574,4401.922852,4297.948730,4307.563965,4522.563965,4538.974121,4372.436035,4475.769043,1716.000000,1.000000,21.000000,,,,0.000000,2.000000,2.000000,0.000000,4.000000,2.000000,2.000000,0.000000,0.000000,4.000000,4.000000,4.000000,4.000000,4.000000,4.000000,0.000000,,,,,,,,,,,,,,,,,20.000000,0.000000,0.521512,0.491760,-0.529297,0.453918,0.988402,0.045904,-0.049811,-34.892059,45.783627,31.713406
1732158263.211310,1732158263.216062,81.000000,0.000000,4341.794922,4201.794922,4318.717773,4300.641113,4278.461426,4278.077148,4334.871582,4400.128418,4296.922852,4309.871582,4524.487305,4543.461426,4379.871582,4475.384766,1593.000000,1.000000,21.000000,,,,0.000000,2.000000,2.000000,0.000000,4.000000,2.000000,2.000000,0.000000,0.000000,4.000000,4.000000,4.000000,4.000000,4.000000,4.000000,0.000000,,,,,,,,,,,,,,,,,,,,,,,,,,,,
1732158263.219118,1732158263.223670,82.000000,0.000000,4341.794922,4200.641113,4317.563965,4300.512695,4281.666504,4268.846191,4334.358887,4398.461426,4293.077148,4298.846191,4517.692383,4541.538574,4376.410156,4477.436035,1563.000000,1.000000,21.000000,,,,0.000000,2.000000,2.000000,0.000000,4.000000,2.000000,2.000000,0.000000,0.000000,4.000000,4.000000,4.000000,4.000000,4.000000,4.000000,0.000000,,,,,,,,,,,,,,,,,,,,,,,,,,,,
1732158263.226926,1732158263.231479,83.000000,0.000000,4342.179688,4202.307617,4317.948730,4297.820313,4279.487305,4261.410156,4335.769043,4401.282227,4294.615234,4303.589844,4527.563965,4544.358887,4378.846191,4486.922852,1556.000000,1.000000,21.000000,,,,0.000000,2.000000,2.000000,0.000000,4.000000,2.000000,2.000000,0.000000,0.000000,4.000000,4.000000,4.000000,4.000000,4.000000,4.000000,0.000000,,,,,,,,,,,,,,,,,,,,,,,,,,,,
1732158263.234735,1732158263.239187,84.000000,0.000000,4348.077148,4203.846191,4317.436035,4298.589844,4276.794922,4264.871582,4335.384766,4403.077148,4297.436035,4314.487305,4535.769043,4549.487305,4384.743652,4495.256348,1716.000000,1.000000,21.000000,,,,0.000000,2.000000,2.000000,0.000000,4.000000,2.000000,2.000000,0.000000,0.000000,4.000000,4.000000,4.000000,4.000000,4.000000,4.000000,0.000000,,,,,,,,,,,,,,,,,21.000000,0.000000,0.521556,0.491272,-0.529602,0.454041,0.973752,0.044439,-0.031254,-34.944233,45.888073,31.577860
1732158263.242543,1732158263.246995,85.000000,0.000000,4352.692383,4204.871582,4315.384766,4300.512695,4280.641113,4266.282227,4334.615234,4401.410156,4293.846191,4303.333496,4528.461426,4550.641113,4384.487305,4494.230957,1593.000000,1.000000,21.000000,,,,0.000000,2.000000,2.000000,0.000000,4.000000,2.000000,2.000000,0.000000,0.000000,4.000000,4.000000,4.000000,4.000000,4.000000,4.000000,0.000000,,,,,,,,,,,,,,,,,,,,,,,,,,,,
1732158263.250351,1732158263.255003,86.000000,0.000000,4347.948730,4199.358887,4314.102539,4297.179688,4280.769043,4264.102539,4334.871582,4401.282227,4295.256348,4300.512695,4529.102539,4551.025879,4382.179688,4491.282227,1563.000000,1.000000,21.000000,,,,0.000000,2.000000,2.000000,0.000000,4.000000,2.000000,2.000000,0.000000,0.000000,4.000000,4.000000,4.000000,4.000000,4.000000,4.000000,0.000000,,,,,,,,,,,,,,,,,,,,,,,,,,,,
1732158263.258159,1732158263.262811,87.000000,0.000000,4346.666504,4198.461426,4314.743652,4295.512695,4278.205078,4263.333496,4335.256348,4401.282227,4300.000000,4313.077148,4540.512695,4553.717773,4387.692383,4501.410156,1556.000000,1.000000,21.000000,,,,0.000000,2.000000,2.000000,0.000000,4.000000,2.000000,2.000000,0.000000,0.000000,4.000000,4.000000,4.000000,4.000000,4.000000,4.000000,0.000000,,,,,,,,,,,,,,,,,,,,,,,,,,,,
1732158263.265967,1732158263.270520,88.000000,0.000000,4350.000000,4201.922852,4314.358887,4298.974121,4278.846191,4262.692383,4335.384766,4403.205078,4297.820313,4314.102539,4543.333496,4557.051270,4393.589844,4508.717773,1716.000000,1.000000,21.000000,,,,0.000000,2.000000,2.000000,0.000000,4.000000,2.000000,2.000000,0.000000,0.000000,4.000000,4.000000,4.000000,4.000000,4.000000,4.000000,0.000000,,,,,,,,,,,,,,,,,22.000000,0.000000,0.521434,0.490356,-0.530151,0.454529,0.993285,0.064461,-0.040532,-34.511497,46.099339,31.594732
1732158263.273776,1732158263.278328,89.000000,0.000000,4346.153809,4201.282227,4314.102539,4297.307617,4283.077148,4265.897461,4335.512695,4407.436035,4294.102539,4307.948730,4536.538574,4554.230957,4389.230957,4499.615234,1593.000000,1.000000,21.000000,,,,0.000000,2.000000,2.000000,0.000000,4.000000,2.000000,2.000000,0.000000,0.000000,4.000000,4.000000,4.000000,4.000000,4.000000,4.000000,0.000000,,,,,,,,,,,,,,,,,,,,,,,,,,,,
1732158263.281584,1732158263.285936,90.000000,0.000000,4341.538574,4197.948730,4314.743652,4286.794922,4281.282227,4266.282227,4335.256348,4405.512695,4295.256348,4310.000000,4535.000000,4549.487305,4384.230957,4492.563965,1563.000000,1.000000,21.000000,,,,0.000000,2.000000,2.000000,0.000000,4.000000,2.000000,2.000000,0.000000,0.000000,4.000000,4.000000,4.000000,4.000000,4.000000,4.000000,0.000000,,,,,,,,,,,,,,,,,,,,,,,,,,,,
1732158263.289392,1732158263.293744,91.000000,0.000000,4343.205078,4195.256348,4316.538574,4280.769043,4280.128418,4265.256348,4335.641113,4400.256348,4295.000000,4309.615234,4537.179688,4551.538574,4384.102539,4495.256348,1556.000000,1.000000,21.000000,,,,0.000000,2.000000,2.000000,0.000000,4.000000,2.000000,2.000000,0.000000,0.000000,4.000000,4.000000,4.000000,4.000000,4.000000,4.000000,0.000000,,,,,,,,,,,,,,,,,,,,,,,,,,,,
1732158263.297201,1732158263.301453,92.000000,0.000000,4343.461426,4195.641113,4317.179688,4287.051270,4289.102539,4266.794922,4335.897461,4398.589844,4293.846191,4307.307617,4539.230957,4552.820313,4385.000000,4494.615234,1716.000000,1.000000,21.000000,,,,0.000000,2.000000,2.000000,0.000000,4.000000,2.000000,2.000000,0.000000,0.000000,4.000000,4.000000,4.000000,4.000000,4.000000,4.000000,0.000000,,,,,,,,,,,,,,,,,23.000000,0.000000,0.519132,0.490051,-0.531067,0.456421,0.978635,0.019045,-0.042974,-34.652645,45.910465,31.595066
1732158263.305009,1732158263.309261,93.000000,0.000000,4341.922852,4198.461426,4317.820313,4293.846191,4296.922852,4267.436035,4335.128418,4402.051270,4295.256348,4308.974121,4534.487305,4546.922852,4380.897461,4489.102539,1593.000000,1.000000,21.000000,,,,0.000000,2.000000,2.000000,0.000000,4.000000,2.000000,2.000000,0.000000,0.000000,4.000000,4.000000,4.000000,4.000000,4.000000,4.000000,0.000000,,,,,,,,,,,,,,,,,,,,,,,,,,,,
1732158263.312817,1732158263.316869,94.000000,0.000000,4342.179688,4208.333496,4319.487305,4296.410156,4297.436035,4265.384766,4333.974121,4403.974121,4294.615234,4310.256348,4529.102539,4542.436035,4376.153809,4487.692383,1563.000000,1.000000,21.000000,,,,0.000000,2.000000,2.000000,0.000000,4.000000,2.000000,2.000000,0.000000,0.000000,4.000000,4.000000,4.000000,4.000000,4.000000,4.000000,0.000000,,,,,,,,,,,,,,,,,,,,,,,,,,,,
1732158263.320625,1732158263.324678,95.000000,0.000000,4341.922852,4211.538574,4319.743652,4297.307617,4295.897461,4264.358887,4336.666504,4403.205078,4296.153809,4313.846191,4536.282227,4544.615234,4378.333496,4487.051270,1556.000000,1.000000,21.000000,,,,0.000000,2.000000,2.000000,0.000000,4.000000,2.000000,2.000000,0.000000,0.000000,4.000000,4.000000,4.000000,4.000000,4.000000,4.000000,0.000000,,,,,,,,,,,,,,,,,,,,,,,,,,,,
1732158263.328434,1732158263.332386,96.000000,0.000000,4341.666504,4203.589844,4319.358887,4297.179688,4296.282227,4266.794922,4339.102539,4403.589844,4299.358887,4318.589844,4536.922852,4544.102539,4376.153809,4482.948730,1716.000000,1.000000,21.000000,,,,0.000000,2.000000,2.000000,0.000000,4.000000,2.000000,2.000000,0.000000,0.000000,4.000000,4.000000,4.000000,4.000000,4.000000,4.000000,0.000000,,,,,,,,,,,,,,,,,24.000000,0.000000,0.517080,0.490173,-0.531799,0.457764,0.970822,0.004395,-0.062019,-34.563644,45.899143,31.657003
1732158263.336242,1732158263.340194,97.000000,0.000000,4341.794922,4205.512695,4318.846191,4296.282227,4297.436035,4266.025879,4337.051270,4405.000000,4294.871582,4323.333496,4525.256348,4539.743652,4367.563965,4478.461426,1593.000000,1.000000,21.000000,,,,0.000000,2.000000,2.000000,0.000000,4.000000,2.000000,2.000000,0.000000,0.000000,4.000000,4.000000,4.000000,4.000000,4.000000,4.000000,0.000000,,,,,,,,,,,,,,,,,,,,,,,,,,,,
1732158263.344050,1732158263.347802,98.000000,0.000000,4340.641113,4216.922852,4317.179688,4300.256348,4303.974121,4266.666504,4334.743652,4402.820313,4287.179688,4325.256348,4521.922852,4538.589844,4366.153809,4477.820313,1563.000000,1.000000,21.000000,,,,0.000000,2.000000,2.000000,0.000000,4.000000,2.000000,2.000000,0.000000,0.000000,4.000000,4.000000,4.000000,4.000000,4.000000,4.000000,0.000000,,,,,,,,,,,,,,,,,,,,,,,,,,,,
1732158263.351858,1732158263.355611,99.000000,0.000000,4341.282227,4217.692383,4317.436035,4304.358887,4310.128418,4273.333496,4334.743652,4402.307617,4287.307617,4321.666504,4524.102539,4538.333496,4367.179688,4478.461426,1556.000000,1.000000,21.000000,,,,0.000000,2.000000,2.000000,0.000000,4.000000,2.000000,2.000000,0.000000,0.000000,4.000000,4.000000,4.000000,4.000000,4.000000,4.000000,0.000000,,,,,,,,,,,,,,,,,,,,,,,,,,,,
1732158263.359666,1732158263.363319,100.000000,0.000000,4341.794922,4212.051270,4320.769043,4302.563965,4308.333496,4273.974121,4335.000000,4407.307617,4295.128418,4328.205078,4520.641113,4537.307617,4360.769043,4477.051270,1716.000000,1.000000,21.000000,,,,0.000000,2.000000,2.000000,0.000000,4.000000,2.000000,2.000000,0.000000,0.000000,4.000000,4.000000,4.000000,4.000000,4.000000,4.000000,0.000000,,,,,,,,,,,,,,,,,25.000000,0.000000,0.516166,0.490112,-0.532166,0.458435,0.967892,-0.008790,-0.047857,-34.724884,45.753307,31.728840
1732158263.367475,1732158263.371127,101.000000,0.000000,4339.615234,4213.974121,4318.589844,4301.666504,4305.769043,4266.410156,4335.256348,4405.641113,4298.974121,4347.563965,4522.051270,4539.102539,4357.820313,4477.563965,1593.000000,1.000000,21.000000,,,,0.000000,2.000000,2.000000,0.000000,4.000000,2.000000,2.000000,0.000000,0.000000,4.000000,4.000000,4.000000,4.000000,4.000000,4.000000,0.000000,,,,,,,,,,,,,,,,,,,,,,,,,,,,
1732158263.375283,1732158263.378736,102.000000,0.000000,4335.000000,4214.615234,4317.179688,4304.358887,4305.384766,4262.948730,4336.410156,4400.128418,4291.153809,4356.410156,4521.282227,4540.641113,4356.794922,4478.461426,1563.000000,1.000000,21.000000,,,,0.000000,2.000000,2.000000,0.000000,4.000000,2.000000,2.000000,0.000000,0.000000,4.000000,4.000000,4.000000,4.000000,4.000000,4.000000,0.000000,,,,,,,,,,,,,,,,,,,,,,,,,,,,
1732158263.383091,1732158263.386544,103.000000,0.000000,4332.948730,4215.384766,4322.307617,4308.461426,4307.948730,4268.717773,4336.410156,4400.769043,4283.974121,4353.205078,4510.384766,4532.563965,4350.256348,4471.922852,1556.000000,1.000000,21.000000,,,,0.000000,2.000000,2.000000,0.000000,4.000000,2.000000,2.000000,0.000000,0.000000,4.000000,4.000000,4.000000,4.000000,4.000000,4.000000,0.000000,,,,,,,,,,,,,,,,,,,,,,,,,,,,
1732158263.390900,1732158263.394252,104.000000,0.000000,4335.641113,4217.692383,4323.077148,4312.051270,4313.077148,4277.307617,4335.384766,4402.692383,4283.333496,4356.282227,4507.948730,4521.282227,4347.948730,4462.307617,1716.000000,1.000000,21.000000,,,,0.000000,2.000000,2.000000,0.000000,4.000000,2.000000,2.000000,0.000000,0.000000,4.000000,4.000000,4.000000,4.000000,4.000000,4.000000,0.000000,,,,,,,,,,,,,,,,,26.000000,0.000000,0.513577,0.489807,-0.533264,0.460388,0.981077,-0.009278,-0.043462,-34.978825,45.706844,31.717028
1732158263.398708,1732158263.402060,105.000000,0.000000,4332.563965,4215.897461,4317.436035,4309.615234,4314.230957,4277.820313,4334.871582,4401.922852,4281.025879,4359.230957,4512.051270,4520.256348,4351.538574,4460.897461,1593.000000,1.000000,21.000000,,,,0.000000,2.000000,2.000000,0.000000,4.000000,2.000000,2.000000,0.000000,0.000000,4.000000,4.000000,4.000000,4.000000,4.000000,4.000000,0.000000,,,,,,,,,,,,,,,,,,,,,,,,,,,,
1732158263.406516,1732158263.409669,106.000000,0.000000,4326.666504,4215.384766,4319.871582,4304.358887,4312.307617,4271.666504,4335.000000,4402.179688,4278.333496,4354.487305,4509.102539,4527.051270,4347.692383,4463.461426,1563.000000,1.000000,21.000000,,,,0.000000,2.000000,2.000000,0.000000,4.000000,2.000000,2.000000,0.000000,0.000000,4.000000,4.000000,4.000000,4.000000,4.000000,4.000000,0.000000,,,,,,,,,,,,,,,,,,,,,,,,,,,,
1732158263.414324,1732158263.417477,107.000000,0.000000,4330.256348,4216.153809,4323.974121,4304.487305,4313.461426,4273.205078,4335.769043,4402.179688,4281.666504,4353.461426,4506.666504,4531.153809,4340.128418,4462.051270,1556.000000,1.000000,21.000000,,,,0.000000,2.000000,2.000000,0.000000,4.000000,2.000000,2.000000,0.000000,0.000000,4.000000,4.000000,4.000000,4.000000,4.000000,4.000000,0.000000,,,,,,,,,,,,,,,,,,,,,,,,,,,,
1732158263.422133,1732158263.425185,108.000000,0.000000,4334.102539,4216.922852,4320.512695,4311.153809,4318.717773,4278.846191,4334.871582,4399.230957,4279.615234,4356.410156,4509.615234,4527.948730,4340.897461,4460.512695,1716.000000,1.000000,21.000000,,,,0.000000,2.000000,2.000000,0.000000,4.000000,2.000000,2.000000,0.000000,0.000000,4.000000,4.000000,4.000000,4.000000,4.000000,4.000000,0.000000,,,,,,,,,,,,,,,,,27.000000,0.000000,0.512165,0.489746,-0.533569,0.461670,0.989379,-0.003418,-0.055183,-35.061180,45.682545,31.674126
1732158263.429941,1732158263.432993,109.000000,0.000000,4327.692383,4217.820313,4318.974121,4312.948730,4320.897461,4279.487305,4333.717773,4399.102539,4277.436035,4353.461426,4507.179688,4521.794922,4337.436035,4458.333496,1593.000000,1.000000,21.000000,,,,0.000000,2.000000,2.000000,0.000000,4.000000,2.000000,2.000000,0.000000,0.000000,4.000000,4.000000,4.000000,4.000000,4.000000,4.000000,0.000000,,,,,,,,,,,,,,,,,,,,,,,,,,,,
1732158263.437749,1732158263.441001,110.000000,0.000000,4322.820313,4215.256348,4321.538574,4304.487305,4317.820313,4280.897461,4333.461426,4402.436035,4287.179688,4349.871582,4500.641113,4522.948730,4326.666504,4454.615234,1563.000000,1.000000,21.000000,,,,0.000000,2.000000,2.000000,0.000000,4.000000,2.000000,2.000000,0.000000,0.000000,4.000000,4.000000,4.000000,4.000000,4.000000,4.000000,0.000000,,,,,,,,,,,,,,,,,,,,,,,,,,,,
1732158263.445557,1732158263.448810,111.000000,0.000000,4325.384766,4214.230957,4320.000000,4297.692383,4311.410156,4281.410156,4334.358887,4403.333496,4291.153809,4356.025879,4502.179688,4528.205078,4329.871582,4456.538574,1556.000000,1.000000,21.000000,,,,0.000000,2.000000,2.000000,0.000000,4.000000,2.000000,2.000000,0.000000,0.000000,4.000000,4.000000,4.000000,4.000000,4.000000,4.000000,0.000000,,,,,,,,,,,,,,,,,,,,,,,,,,,,
1732158263.453366,1732158263.456518,112.000000,0.000000,4326.282227,4217.692383,4316.666504,4303.205078,4309.102539,4280.256348,4336.282227,4400.512695,4287.563965,4361.410156,4508.461426,4532.051270,4340.384766,4462.051270,1716.000000,1.000000,21.000000,,,,0.000000,2.000000,2.000000,0.000000,4.000000,2.000000,2.000000,0.000000,0.000000,4.000000,4.000000,4.000000,4.000000,4.000000,4.000000,0.000000,,,,,,,,,,,,,,,,,28.000000,0.000000,0.511199,0.489807,-0.533752,0.462463,0.981077,0.005860,-0.055671,-35.081223,45.552860,31.292707
1732158263.461174,1732158263.464326,113.000000,0.000000,4329.871582,4220.256348,4317.436035,4313.205078,4312.051270,4280.512695,4336.025879,4399.615234,4289.743652,4355.000000,4508.974121,4531.538574,4341.025879,4461.025879,1593.000000,1.000000,21.000000,,,,0.000000,2.000000,2.000000,0.000000,4.000000,2.000000,2.000000,0.000000,0.000000,4.000000,4.000000,4.000000,4.000000,4.000000,4.000000,0.000000,,,,,,,,,,,,,,,,,,,,,,,,,,,,
1732158263.468982,1732158263.472334,114.000000,0.000000,4333.461426,4221.922852,4318.461426,4310.128418,4307.307617,4279.871582,4333.589844,4401.794922,4293.589844,4351.153809,4506.282227,4530.641113,4339.358887,4457.948730,1563.000000,1.000000,21.000000,,,,0.000000,2.000000,2.000000,0.000000,4.000000,2.000000,2.000000,0.000000,0.000000,4.000000,4.000000,4.000000,4.000000,4.000000,4.000000,0.000000,,,,,,,,,,,,,,,,,,,,,,,,,,,,
1732158263.476790,1732158263.480142,115.000000,0.000000,4328.589844,4224.487305,4318.077148,4302.179688,4298.077148,4278.077148,4333.717773,4403.205078,4293.974121,4351.538574,4505.000000,4531.410156,4338.589844,4458.717773,1556.000000,1.000000,21.000000,,,,0.000000,2.000000,2.000000,0.000000,4.000000,2.000000,2.000000,0.000000,0.000000,4.000000,4.000000,4.000000,4.000000,4.000000,4.000000,0.000000,,,,,,,,,,,,,,,,,,,,,,,,,,,,
1732158263.484599,1732158263.488051,116.000000,0.000000,4325.128418,4217.307617,4318.205078,4303.205078,4299.102539,4279.358887,4335.769043,4401.538574,4293.974121,4346.025879,4504.230957,4529.743652,4337.436035,4454.615234,1716.000000,1.000000,21.000000,,,,0.000000,2.000000,2.000000,0.000000,4.000000,2.000000,2.000000,0.000000,0.000000,4.000000,4.000000,4.000000,4.000000,4.000000,4.000000,0.000000,,,,,,,,,,,,,,,,,29.000000,0.000000,0.509296,0.489441,-0.534424,0.464172,0.984007,-0.005860,-0.061043,-34.992458,45.482819,31.130426
1732158263.492407,1732158263.495859,117.000000,0.000000,4324.102539,4203.077148,4317.948730,4301.282227,4300.256348,4279.871582,4335.128418,4399.230957,4293.077148,4341.282227,4505.000000,4528.717773,4340.384766,4446.025879,1593.000000,1.000000,21.000000,,,,0.000000,2.000000,2.000000,0.000000,4.000000,2.000000,2.000000,0.000000,0.000000,4.000000,4.000000,4.000000,4.000000,4.000000,4.000000,0.000000,,,,,,,,,,,,,,,,,,,,,,,,,,,,
1732158263.500215,1732158263.503867,118.000000,0.000000,4320.769043,4196.922852,4315.000000,4296.410156,4293.205078,4278.846191,4332.692383,4400.769043,4294.487305,4341.538574,4506.410156,4528.846191,4342.692383,4448.205078,1563.000000,1.000000,21.000000,,,,0.000000,2.000000,2.000000,0.000000,4.000000,2.000000,2.000000,0.000000,0.000000,4.000000,4.000000,4.000000,4.000000,4.000000,4.000000,0.000000,,,,,,,,,,,,,,,,,,,,,,,,,,,,
1732158263.508023,1732158263.511675,119.000000,0.000000,4320.000000,4202.179688,4316.666504,4299.871582,4291.025879,4279.615234,4333.846191,4401.410156,4297.179688,4335.000000,4506.025879,4530.128418,4341.922852,4457.307617,1556.000000,1.000000,21.000000,,,,0.000000,2.000000,2.000000,0.000000,4.000000,2.000000,2.000000,0.000000,0.000000,4.000000,4.000000,4.000000,4.000000,4.000000,4.000000,0.000000,,,,,,,,,,,,,,,,,,,,,,,,,,,,
1732158263.515832,1732158263.519583,120.000000,0.000000,4325.256348,4211.282227,4325.384766,4303.589844,4292.948730,4279.615234,4339.230957,4401.794922,4293.846191,4324.487305,4505.512695,4534.615234,4342.948730,4457.692383,1716.000000,1.000000,21.000000,,,,0.000000,2.000000,2.000000,0.000000,4.000000,2.000000,2.000000,0.000000,0.000000,4.000000,4.000000,4.000000,4.000000,4.000000,4.000000,0.000000,,,,,,,,,,,,,,,,,30.000000,0.000000,0.505624,0.488953,-0.535217,0.467773,0.978147,-0.018069,-0.065926,-34.803890,45.526081,31.232313
1732158263.523640,1732158263.527391,121.000000,0.000000,4327.436035,4215.769043,4329.615234,4301.025879,4287.307617,4278.717773,4340.256348,4406.410156,4297.436035,4325.000000,4507.948730,4539.743652,4343.333496,4455.897461,1593.000000,1.000000,21.000000,,,,0.000000,2.000000,2.000000,0.000000,4.000000,2.000000,2.000000,0.000000,0.000000,4.000000,4.000000,4.000000,4.000000,4.000000,4.000000,0.000000,,,,,,,,,,,,,,,,,,,,,,,,,,,,
1732158263.531448,1732158263.535399,122.000000,0.000000,4325.641113,4216.538574,4324.102539,4303.846191,4284.871582,4280.000000,4335.384766,4406.410156,4304.102539,4328.846191,4509.102539,4540.641113,4341.153809,4458.077148,1563.000000,1.000000,21.000000,,,,0.000000,2.000000,2.000000,0.000000,4.000000,2.000000,2.000000,0.000000,0.000000,4.000000,4.000000,4.000000,4.000000,4.000000,4.000000,0.000000,,,,,,,,,,,,,,,,,,,,,,,,,,,,
1732158263.539256,1732158263.543207,123.000000,0.000000,4326.025879,4218.205078,4319.230957,4308.077148,4288.974121,4283.205078,4334.615234,4401.153809,4301.282227,4322.051270,4507.820313,4537.820313,4339.358887,4457.179688,1556.000000,1.000000,21.000000,,,,0.000000,2.000000,2.000000,0.000000,4.000000,2.000000,2.000000,0.000000,0.000000,4.000000,4.000000,4.000000,4.000000,4.000000,4.000000,0.000000,,,,,,,,,,,,,,,,,,,,,,,,,,,,
1732158263.547065,1732158263.551116,124.000000,0.000000,4325.769043,4219.230957,4318.333496,4305.256348,4285.897461,4283.461426,4337.307617,4400.384766,4295.256348,4312.563965,4506.282227,4536.153809,4337.820313,4455.512695,1716.000000,1.000000,21.000000,,,,0.000000,2.000000,2.000000,0.000000,4.000000,2.000000,2.000000,0.000000,0.000000,4.000000,4.000000,4.000000,4.000000,4.000000,4.000000,0.000000,,,,,,,,,,,,,,,,,31.000000,0.000000,0.504335,0.487549,-0.535950,0.469788,0.960078,-0.040532,-0.051276,-34.734486,45.627792,31.314840
1732158263.554873,1732158263.558924,125.000000,0.000000,4321.153809,4218.717773,4316.922852,4302.820313,4276.538574,4281.025879,4335.512695,4402.563965,4296.666504,4309.743652,4507.051270,4536.794922,4339.743652,4458.333496,1593.000000,1.000000,21.000000,,,,0.000000,2.000000,2.000000,0.000000,4.000000,2.000000,2.000000,0.000000,0.000000,4.000000,4.000000,4.000000,4.000000,4.000000,4.000000,0.000000,,,,,,,,,,,,,,,,,,,,,,,,,,,,
1732158263.562681,1732158263.566932,126.000000,0.000000,4316.410156,4218.717773,4314.615234,4302.692383,4283.846191,4284.487305,4333.717773,4401.025879,4299.871582,4304.230957,4507.692383,4540.897461,4341.922852,4459.487305,1563.000000,1.000000,21.000000,,,,0.000000,2.000000,2.000000,0.000000,4.000000,2.000000,2.000000,0.000000,0.000000,4.000000,4.000000,4.000000,4.000000,4.000000,4.000000,0.000000,,,,,,,,,,,,,,,,,,,,,,,,,,,,
1732158263.570489,1732158263.574740,127.000000,0.000000,4317.820313,4218.589844,4314.230957,4302.563965,4294.487305,4288.205078,4336.025879,4400.128418,4295.897461,4294.743652,4506.025879,4538.589844,4340.384766,4456.666504,21.000000,1.000000,21.000000,,,,0.000000,2.000000,2.000000,0.000000,4.000000,2.000000,2.000000,0.000000,0.000000,4.000000,4.000000,4.000000,4.000000,4.000000,4.000000,0.000000,,,,,,,,,,,,,,,,,,,,,,,,,,,,
1732158263.578298,1732158263.582448,0.000000,0.000000,4320.128418,4219.871582,4314.102539,4300.897461,4276.025879,4284.102539,4337.563965,4401.538574,4294.615234,4298.717773,4505.897461,4536.666504,4344.615234,4457.820313,0.000000,1.000000,21.000000,,,,0.000000,2.000000,2.000000,0.000000,4.000000,2.000000,2.000000,0.000000,0.000000,4.000000,4.000000,4.000000,4.000000,4.000000,4.000000,0.000000,,,,,,,,,,,,,,,,,0.000000,0.000000,0.504116,0.487061,-0.536011,0.470459,0.960078,-0.040532,-0.051276,-34.879932,46.015179,31.318354
1732158263.586106,1732158263.590257,1.000000,0.000000,4317.820313,4220.512695,4314.871582,4299.230957,4254.230957,4280.256348,4335.641113,4401.410156,4302.307617,4307.692383,4507.436035,4540.512695,4348.333496,4462.179688,1604.000000,1.000000,21.000000,,,,0.000000,2.000000,2.000000,0.000000,4.000000,2.000000,2.000000,0.000000,0.000000,4.000000,4.000000,4.000000,4.000000,4.000000,4.000000,0.000000,,,,,,,,,,,,,,,,,,,,,,,,,,,,
1732158263.593914,1732158263.597865,2.000000,0.000000,4320.000000,4220.000000,4316.538574,4302.051270,4259.102539,4282.307617,4333.717773,4401.666504,4305.256348,4305.000000,4506.410156,4541.025879,4345.769043,4461.282227,1359.000000,1.000000,21.000000,,,,0.000000,2.000000,2.000000,0.000000,4.000000,2.000000,2.000000,0.000000,0.000000,4.000000,4.000000,4.000000,4.000000,4.000000,4.000000,0.000000,,,,,,,,,,,,,,,,,,,,,,,,,,,,
1732158263.601722,1732158263.605673,3.000000,0.000000,4322.307617,4222.692383,4315.641113,4307.692383,4267.563965,4282.436035,4333.589844,4401.282227,4297.307617,4302.820313,4506.794922,4538.333496,4347.563965,4458.589844,1432.000000,1.000000,21.000000,,,,0.000000,2.000000,2.000000,0.000000,4.000000,2.000000,2.000000,0.000000,0.000000,4.000000,4.000000,4.000000,4.000000,4.000000,4.000000,0.000000,,,,,,,,,,,,,,,,,,,,,,,,,,,,
1732158263.609531,1732158263.613381,4.000000,0.000000,4317.051270,4222.051270,4314.871582,4306.410156,4263.717773,4283.077148,4334.871582,4401.282227,4293.974121,4306.410156,4508.846191,4536.794922,4351.794922,4457.820313,1424.000000,1.000000,21.000000,,,,0.000000,2.000000,2.000000,0.000000,4.000000,2.000000,2.000000,0.000000,0.000000,4.000000,4.000000,4.000000,4.000000,4.000000,4.000000,0.000000,,,,,,,,,,,,,,,,,1.000000,0.000000,0.503853,0.484375,-0.536865,0.472534,1.001587,-0.033207,-0.044927,-35.016079,45.998962,31.386200
1732158263.617339,1732158263.621190,5.000000,0.000000,4315.384766,4216.410156,4315.256348,4304.358887,4264.230957,4285.641113,4334.871582,4401.538574,4296.922852,4305.897461,4508.205078,4536.794922,4350.512695,4455.384766,1214.000000,1.000000,21.000000,,,,0.000000,2.000000,2.000000,0.000000,4.000000,2.000000,2.000000,0.000000,0.000000,4.000000,4.000000,4.000000,4.000000,4.000000,4.000000,0.000000,,,,,,,,,,,,,,,,,,,,,,,,,,,,
1732158263.625147,1732158263.628798,6.000000,0.000000,4319.230957,4217.436035,4316.666504,4308.974121,4265.384766,4283.846191,4334.615234,4401.153809,4295.769043,4302.051270,4506.282227,4532.051270,4350.897461,4448.846191,0.000000,1.000000,21.000000,,,,0.000000,2.000000,2.000000,0.000000,4.000000,2.000000,2.000000,0.000000,0.000000,4.000000,4.000000,4.000000,4.000000,4.000000,4.000000,0.000000,,,,,,,,,,,,,,,,,,,,,,,,,,,,
1732158263.632955,1732158263.636606,7.000000,0.000000,4315.512695,4220.384766,4316.410156,4310.512695,4264.102539,4283.077148,4335.000000,4401.666504,4297.179688,4300.128418,4503.974121,4525.641113,4349.358887,4443.717773,0.000000,1.000000,21.000000,,,,0.000000,2.000000,2.000000,0.000000,4.000000,2.000000,2.000000,0.000000,0.000000,4.000000,4.000000,4.000000,4.000000,4.000000,4.000000,0.000000,,,,,,,,,,,,,,,,,,,,,,,,,,,,
1732158263.640764,1732158263.644315,8.000000,0.000000,4310.128418,4217.692383,4317.307617,4306.410156,4267.563965,4286.410156,4335.128418,4401.794922,4304.230957,4302.307617,4501.794922,4527.051270,4343.077148,4449.615234,1548.000000,1.000000,21.000000,,,,0.000000,2.000000,2.000000,0.000000,4.000000,2.000000,2.000000,0.000000,0.000000,4.000000,4.000000,4.000000,4.000000,4.000000,4.000000,0.000000,,,,,,,,,,,,,,,,,2.000000,0.000000,0.504318,0.482727,-0.537537,0.472961,0.985960,-0.029789,-0.046392,-35.126358,45.935825,31.657822
1732158263.648572,1732158263.652123,9.000000,0.000000,4315.769043,4219.871582,4319.102539,4306.410156,4265.000000,4282.307617,4335.128418,4399.743652,4308.205078,4307.820313,4504.487305,4530.256348,4345.384766,4455.512695,1691.000000,1.000000,21.000000,,,,0.000000,2.000000,2.000000,0.000000,4.000000,2.000000,2.000000,0.000000,0.000000,4.000000,4.000000,4.000000,4.000000,4.000000,4.000000,0.000000,,,,,,,,,,,,,,,,,,,,,,,,,,,,
1732158263.656380,1732158263.659731,10.000000,0.000000,4319.358887,4225.512695,4318.846191,4311.666504,4263.974121,4278.589844,4334.487305,4399.358887,4305.000000,4307.436035,4505.769043,4528.077148,4352.179688,4448.717773,1551.000000,1.000000,21.000000,,,,0.000000,2.000000,2.000000,0.000000,4.000000,2.000000,2.000000,0.000000,0.000000,4.000000,4.000000,4.000000,4.000000,4.000000,4.000000,0.000000,,,,,,,,,,,,,,,,,,,,,,,,,,,,
1732158263.664188,1732158263.667539,11.000000,0.000000,4314.487305,4226.538574,4317.179688,4314.487305,4272.179688,4289.615234,4334.615234,4401.282227,4298.077148,4297.820313,4502.563965,4524.615234,4350.512695,4442.307617,1551.000000,1.000000,21.000000,,,,0.000000,2.000000,2.000000,0.000000,4.000000,2.000000,2.000000,0.000000,0.000000,4.000000,4.000000,4.000000,4.000000,4.000000,4.000000,0.000000,,,,,,,,,,,,,,,,,,,,,,,,,,,,
1732158263.671996,1732158263.675248,12.000000,0.000000,4312.436035,4228.846191,4316.410156,4313.077148,4275.000000,4297.179688,4336.153809,4401.153809,4295.897461,4294.743652,4503.205078,4524.743652,4347.563965,4445.512695,1706.000000,1.000000,21.000000,,,,0.000000,2.000000,2.000000,0.000000,4.000000,2.000000,2.000000,0.000000,0.000000,4.000000,4.000000,4.000000,4.000000,4.000000,4.000000,0.000000,,,,,,,,,,,,,,,,,3.000000,0.000000,0.504471,0.482056,-0.537781,0.473206,0.987914,-0.035161,-0.035649,-35.099014,45.796352,31.622835
1732158263.679805,1732158263.683056,13.000000,0.000000,4313.333496,4232.051270,4317.948730,4313.846191,4280.512695,4290.384766,4336.282227,4400.512695,4298.461426,4293.974121,4502.820313,4522.179688,4348.974121,4446.153809,1593.000000,1.000000,21.000000,,,,0.000000,2.000000,2.000000,0.000000,4.000000,2.000000,2.000000,0.000000,0.000000,4.000000,4.000000,4.000000,4.000000,4.000000,4.000000,0.000000,,,,,,,,,,,,,,,,,,,,,,,,,,,,
1732158263.687613,1732158263.690664,14.000000,0.000000,4315.512695,4232.051270,4318.589844,4317.307617,4286.794922,4285.384766,4334.743652,4402.179688,4297.692383,4288.589844,4498.974121,4521.410156,4347.948730,4444.102539,1551.000000,1.000000,21.000000,,,,0.000000,2.000000,2.000000,0.000000,4.000000,2.000000,2.000000,0.000000,0.000000,4.000000,4.000000,4.000000,4.000000,4.000000,4.000000,0.000000,1.000000,0.000000,2.000000,2.000000,0.000000,4.000000,2.000000,2.000000,0.000000,0.000000,4.000000,4.000000,4.000000,4.000000,4.000000,4.000000,,,,,,,,,,,,
1732158263.695421,1732158263.698473,15.000000,0.000000,4316.922852,4229.743652,4317.307617,4315.641113,4268.974121,4285.384766,4334.743652,4401.794922,4298.205078,4288.461426,4502.179688,4529.743652,4348.205078,4447.692383,1551.000000,1.000000,21.000000,,,,0.000000,2.000000,2.000000,0.000000,4.000000,2.000000,2.000000,0.000000,0.000000,4.000000,4.000000,4.000000,4.000000,4.000000,4.000000,0.000000,,,,,,,,,,,,,,,,,,,,,,,,,,,,
1732158263.703230,1732158263.706181,16.000000,0.000000,4314.102539,4229.615234,4318.589844,4310.000000,4244.358887,4281.666504,4335.256348,4400.769043,4305.641113,4295.641113,4508.589844,4536.922852,4355.128418,4449.230957,0.000000,1.000000,21.000000,,,,0.000000,2.000000,2.000000,0.000000,4.000000,2.000000,2.000000,0.000000,0.000000,4.000000,4.000000,4.000000,4.000000,4.000000,4.000000,0.000000,,,,,,,,,,,,,,,,,4.000000,0.000000,0.505082,0.480774,-0.538086,0.473511,0.972775,-0.019534,-0.030277,-35.111870,45.581711,31.251163
1732158263.711038,1732158263.713989,17.000000,0.000000,4310.897461,4231.666504,4322.179688,4307.692383,4247.051270,4279.102539,4334.615234,4403.461426,4311.153809,4296.666504,4508.974121,4537.563965,4358.846191,4449.358887,0.000000,1.000000,21.000000,,,,0.000000,2.000000,2.000000,0.000000,4.000000,2.000000,2.000000,0.000000,0.000000,4.000000,4.000000,4.000000,4.000000,4.000000,4.000000,0.000000,,,,,,,,,,,,,,,,,,,,,,,,,,,,
1732158263.718846,1732158263.721597,18.000000,0.000000,4315.256348,4230.641113,4319.871582,4309.871582,4260.000000,4281.410156,4334.102539,4404.358887,4311.538574,4293.205078,4508.077148,4537.179688,4353.974121,4449.871582,0.000000,1.000000,21.000000,,,,0.000000,2.000000,2.000000,0.000000,4.000000,2.000000,2.000000,0.000000,0.000000,4.000000,4.000000,4.000000,4.000000,4.000000,4.000000,0.000000,,,,,,,,,,,,,,,,,,,,,,,,,,,,
1732158263.726654,1732158263.729406,19.000000,0.000000,4320.641113,4233.461426,4316.153809,4315.000000,4261.410156,4287.051270,4334.743652,4401.153809,4309.871582,4294.743652,4506.666504,4538.333496,4351.666504,4447.692383,0.000000,1.000000,21.000000,,,,0.000000,2.000000,2.000000,0.000000,4.000000,2.000000,2.000000,0.000000,0.000000,4.000000,4.000000,4.000000,4.000000,4.000000,4.000000,0.000000,,,,,,,,,,,,,,,,,,,,,,,,,,,,
1732158263.734463,1732158263.737114,20.000000,0.000000,4317.948730,4241.282227,4319.615234,4318.717773,4262.179688,4293.077148,4335.769043,4400.000000,4310.000000,4293.974121,4503.974121,4535.128418,4354.743652,4446.538574,0.000000,1.000000,21.000000,,,,0.000000,2.000000,2.000000,0.000000,4.000000,2.000000,2.000000,0.000000,0.000000,4.000000,4.000000,4.000000,4.000000,4.000000,4.000000,0.000000,,,,,,,,,,,,,,,,,5.000000,0.000000,0.506030,0.478882,-0.538452,0.473999,0.980588,-0.017092,-0.037114,-35.137280,45.547852,31.263443
1732158263.742271,1732158263.744922,21.000000,0.000000,4312.179688,4238.589844,4322.436035,4313.333496,4263.589844,4292.820313,4336.025879,4401.666504,4310.512695,4286.410156,4503.717773,4532.563965,4353.461426,4446.666504,0.000000,1.000000,21.000000,,,,0.000000,2.000000,2.000000,0.000000,4.000000,2.000000,2.000000,0.000000,0.000000,4.000000,4.000000,4.000000,4.000000,4.000000,4.000000,0.000000,,,,,,,,,,,,,,,,,,,,,,,,,,,,
1732158263.750079,1732158263.752930,22.000000,0.000000,4309.358887,4229.487305,4317.820313,4309.615234,4263.333496,4290.384766,4335.256348,4401.538574,4310.128418,4277.179688,4503.205078,4532.820313,4350.256348,4446.025879,0.000000,1.000000,21.000000,,,,0.000000,2.000000,2.000000,0.000000,4.000000,2.000000,2.000000,0.000000,0.000000,4.000000,4.000000,4.000000,4.000000,4.000000,4.000000,0.000000,,,,,,,,,,,,,,,,,,,,,,,,,,,,
1732158263.757887,1732158263.760738,23.000000,0.000000,4310.641113,4235.256348,4314.358887,4315.256348,4263.974121,4289.102539,4335.769043,4399.230957,4310.769043,4274.743652,4502.820313,4533.589844,4350.000000,4446.410156,0.000000,1.000000,21.000000,,,,0.000000,2.000000,2.000000,0.000000,4.000000,2.000000,2.000000,0.000000,0.000000,4.000000,4.000000,4.000000,4.000000,4.000000,4.000000,0.000000,,,,,,,,,,,,,,,,,,,,,,,,,,,,
1732158263.765696,1732158263.768447,24.000000,0.000000,4312.820313,4242.563965,4315.897461,4314.358887,4262.948730,4284.615234,4336.922852,4399.102539,4311.153809,4275.512695,4504.358887,4538.333496,4351.153809,4447.051270,0.000000,1.000000,21.000000,,,,0.000000,2.000000,2.000000,0.000000,4.000000,2.000000,2.000000,0.000000,0.000000,4.000000,4.000000,4.000000,4.000000,4.000000,4.000000,0.000000,,,,,,,,,,,,,,,,,6.000000,0.000000,0.506480,0.477905,-0.538574,0.474365,0.987425,-0.036626,-0.029789,-35.242863,45.577095,31.230055
1732158263.773504,1732158263.776255,25.000000,0.000000,4309.358887,4236.025879,4316.538574,4308.077148,4263.333496,4282.948730,4336.282227,4400.512695,4311.025879,4269.358887,4504.871582,4540.897461,4351.282227,4445.000000,0.000000,1.000000,21.000000,,,,0.000000,2.000000,2.000000,0.000000,4.000000,2.000000,2.000000,0.000000,0.000000,4.000000,4.000000,4.000000,4.000000,4.000000,4.000000,0.000000,,,,,,,,,,,,,,,,,,,,,,,,,,,,
1732158263.781312,1732158263.783863,26.000000,0.000000,4303.717773,4237.436035,4315.384766,4308.461426,4262.563965,4287.436035,4335.128418,4401.922852,4307.948730,4262.820313,4503.589844,4533.461426,4349.102539,4443.974121,0.000000,1.000000,21.000000,,,,0.000000,2.000000,2.000000,0.000000,4.000000,2.000000,2.000000,0.000000,0.000000,4.000000,4.000000,4.000000,4.000000,4.000000,4.000000,0.000000,,,,,,,,,,,,,,,,,,,,,,,,,,,,
1732158263.789120,1732158263.791672,27.000000,0.000000,4309.102539,4249.487305,4316.538574,4311.794922,4259.230957,4286.922852,4334.615234,4403.589844,4303.846191,4262.948730,4504.871582,4530.641113,4351.666504,4444.615234,0.000000,1.000000,21.000000,,,,0.000000,2.000000,2.000000,0.000000,4.000000,2.000000,2.000000,0.000000,0.000000,4.000000,4.000000,4.000000,4.000000,4.000000,4.000000,0.000000,,,,,,,,,,,,,,,,,,,,,,,,,,,,
1732158263.796929,1732158263.799380,28.000000,0.000000,4318.205078,4252.692383,4318.205078,4315.000000,4259.487305,4281.025879,4334.743652,4403.461426,4305.384766,4265.384766,4507.307617,4534.871582,4358.333496,4448.589844,0.000000,1.000000,21.000000,,,,0.000000,2.000000,2.000000,0.000000,4.000000,2.000000,2.000000,0.000000,0.000000,4.000000,4.000000,4.000000,4.000000,4.000000,4.000000,0.000000,,,,,,,,,,,,,,,,,7.000000,0.000000,0.506581,0.477539,-0.538696,0.474487,0.980588,-0.024905,-0.035161,-35.798386,45.245781,31.249678
1732158263.804737,1732158263.807188,29.000000,0.000000,4315.384766,4249.358887,4318.589844,4317.692383,4263.717773,4281.794922,4335.512695,4401.410156,4310.256348,4264.615234,4507.051270,4532.820313,4360.000000,4452.436035,0.000000,1.000000,21.000000,,,,0.000000,2.000000,2.000000,0.000000,4.000000,2.000000,2.000000,0.000000,0.000000,4.000000,4.000000,4.000000,4.000000,4.000000,4.000000,0.000000,,,,,,,,,,,,,,,,,,,,,,,,,,,,
1732158263.812545,1732158263.814796,30.000000,0.000000,4310.128418,4249.230957,4318.333496,4317.692383,4264.358887,4283.461426,4335.128418,4401.666504,4310.384766,4263.461426,4504.358887,4526.025879,4357.563965,4448.077148,0.000000,1.000000,21.000000,,,,0.000000,2.000000,2.000000,0.000000,4.000000,2.000000,2.000000,0.000000,0.000000,4.000000,4.000000,4.000000,4.000000,4.000000,4.000000,0.000000,,,,,,,,,,,,,,,,,,,,,,,,,,,,
1732158263.820353,1732158263.822605,31.000000,0.000000,4312.436035,4251.153809,4316.794922,4316.922852,4263.205078,4282.820313,4334.615234,4404.230957,4308.717773,4263.205078,4503.461426,4521.794922,4357.179688,4442.948730,0.000000,1.000000,21.000000,,,,0.000000,2.000000,2.000000,0.000000,4.000000,2.000000,2.000000,0.000000,0.000000,4.000000,4.000000,4.000000,4.000000,4.000000,4.000000,0.000000,,,,,,,,,,,,,,,,,,,,,,,,,,,,
1732158263.828162,1732158263.830513,32.000000,0.000000,4313.461426,4251.153809,4315.769043,4318.205078,4265.128418,4282.179688,4335.512695,4403.846191,4311.025879,4261.922852,4503.461426,4520.384766,4360.769043,4443.333496,0.000000,1.000000,21.000000,,,,0.000000,2.000000,2.000000,0.000000,4.000000,2.000000,2.000000,0.000000,0.000000,4.000000,4.000000,4.000000,4.000000,4.000000,4.000000,0.000000,,,,,,,,,,,,,,,,,8.000000,0.000000,0.506367,0.476807,-0.539063,0.475037,0.989379,-0.050787,-0.029300,-35.888359,45.345749,31.087238
1732158263.835970,1732158263.838321,33.000000,0.000000,4311.794922,4251.282227,4317.051270,4317.307617,4265.256348,4283.717773,4335.769043,4399.615234,4310.384766,4261.666504,4503.333496,4522.179688,4364.871582,4447.692383,0.000000,1.000000,21.000000,,,,0.000000,2.000000,2.000000,0.000000,4.000000,2.000000,2.000000,0.000000,0.000000,4.000000,4.000000,4.000000,4.000000,4.000000,4.000000,0.000000,,,,,,,,,,,,,,,,,,,,,,,,,,,,
1732158263.843778,1732158263.846329,34.000000,0.000000,4312.820313,4251.410156,4318.333496,4313.846191,4263.333496,4283.974121,4335.000000,4400.512695,4307.436035,4262.436035,4504.743652,4530.000000,4368.333496,4451.666504,0.000000,1.000000,21.000000,,,,0.000000,2.000000,2.000000,0.000000,4.000000,2.000000,2.000000,0.000000,0.000000,4.000000,4.000000,4.000000,4.000000,4.000000,4.000000,0.000000,,,,,,,,,,,,,,,,,,,,,,,,,,,,
1732158263.851586,1732158263.854137,35.000000,0.000000,4313.461426,4248.974121,4316.666504,4312.307617,4264.743652,4282.051270,4336.025879,4406.153809,4309.615234,4264.358887,4506.666504,4539.743652,4370.512695,4449.743652,0.000000,1.000000,21.000000,,,,0.000000,2.000000,2.000000,0.000000,4.000000,2.000000,2.000000,0.000000,0.000000,4.000000,4.000000,4.000000,4.000000,4.000000,4.000000,0.000000,,,,,,,,,,,,,,,,,,,,,,,,,,,,
1732158263.859395,1732158263.862045,36.000000,0.000000,4312.563965,4250.641113,4316.410156,4314.102539,4261.025879,4282.307617,4336.922852,4403.974121,4311.410156,4266.025879,4506.538574,4538.333496,4369.487305,4443.333496,0.000000,1.000000,21.000000,,,,0.000000,2.000000,2.000000,0.000000,4.000000,2.000000,2.000000,0.000000,0.000000,4.000000,4.000000,4.000000,4.000000,4.000000,4.000000,0.000000,,,,,,,,,,,,,,,,,9.000000,0.000000,0.506054,0.476013,-0.539734,0.475403,0.980588,-0.029789,-0.032230,-35.902905,45.285057,30.997330
1732158263.867203,1732158263.869854,37.000000,0.000000,4312.307617,4257.436035,4317.307617,4311.794922,4261.153809,4281.794922,4335.256348,4399.615234,4309.615234,4263.974121,4505.384766,4527.179688,4368.846191,4442.436035,0.000000,1.000000,21.000000,,,,0.000000,2.000000,2.000000,0.000000,4.000000,2.000000,2.000000,0.000000,0.000000,4.000000,4.000000,4.000000,4.000000,4.000000,4.000000,0.000000,,,,,,,,,,,,,,,,,,,,,,,,,,,,
1732158263.875011,1732158263.877862,38.000000,0.000000,4310.128418,4256.025879,4317.948730,4303.974121,4278.205078,4279.358887,4334.487305,4404.743652,4309.230957,4262.948730,4505.128418,4526.794922,4371.794922,4444.102539,0.000000,1.000000,21.000000,,,,0.000000,2.000000,2.000000,0.000000,4.000000,2.000000,2.000000,0.000000,0.000000,4.000000,4.000000,4.000000,4.000000,4.000000,4.000000,0.000000,,,,,,,,,,,,,,,,,,,,,,,,,,,,
1732158263.882819,1732158263.885670,39.000000,0.000000,4310.641113,4254.871582,4317.820313,4306.410156,4277.820313,4283.589844,4334.871582,4405.128418,4310.769043,4269.871582,4506.922852,4538.205078,4378.589844,4444.615234,0.000000,1.000000,21.000000,,,,0.000000,2.000000,2.000000,0.000000,4.000000,2.000000,2.000000,0.000000,0.000000,4.000000,4.000000,4.000000,4.000000,4.000000,4.000000,0.000000,,,,,,,,,,,,,,,,,,,,,,,,,,,,
1732158263.890628,1732158263.893578,40.000000,0.000000,4313.974121,4264.230957,4318.461426,4317.692383,4253.589844,4289.102539,4334.871582,4399.102539,4310.384766,4272.436035,4508.974121,4540.384766,4383.461426,4449.358887,0.000000,1.000000,21.000000,,,,0.000000,2.000000,2.000000,0.000000,4.000000,2.000000,2.000000,0.000000,0.000000,4.000000,4.000000,4.000000,4.000000,4.000000,4.000000,0.000000,,,,,,,,,,,,,,,,,10.000000,0.000000,0.505794,0.475891,-0.539978,0.475525,0.980588,-0.029789,-0.032230,-35.826351,45.547562,31.061171
1732158263.898436,1732158263.901386,41.000000,0.000000,4312.820313,4269.871582,4318.333496,4319.871582,4251.666504,4283.717773,4334.615234,4400.384766,4308.846191,4264.487305,4508.333496,4531.410156,4380.384766,4450.000000,0.000000,1.000000,21.000000,,,,0.000000,2.000000,2.000000,0.000000,4.000000,2.000000,2.000000,0.000000,0.000000,4.000000,4.000000,4.000000,4.000000,4.000000,4.000000,0.000000,,,,,,,,,,,,,,,,,,,,,,,,,,,,
1732158263.906244,1732158263.909394,42.000000,0.000000,4308.846191,4264.871582,4318.205078,4314.487305,4268.717773,4280.769043,4334.743652,4403.846191,4310.000000,4263.077148,4505.641113,4530.384766,4374.871582,4443.846191,0.000000,1.000000,21.000000,,,,0.000000,2.000000,2.000000,0.000000,4.000000,2.000000,2.000000,0.000000,0.000000,4.000000,4.000000,4.000000,4.000000,4.000000,4.000000,0.000000,,,,,,,,,,,,,,,,,,,,,,,,,,,,
1732158263.914052,1732158263.917202,43.000000,0.000000,4308.717773,4265.000000,4317.563965,4312.692383,4268.077148,4289.102539,4334.743652,4401.282227,4312.307617,4267.436035,4504.615234,4533.846191,4374.102539,4442.820313,0.000000,1.000000,21.000000,,,,0.000000,2.000000,2.000000,0.000000,4.000000,2.000000,2.000000,0.000000,0.000000,4.000000,4.000000,4.000000,4.000000,4.000000,4.000000,0.000000,,,,,,,,,,,,,,,,,,,,,,,,,,,,
1732158263.921861,1732158263.925110,44.000000,0.000000,4310.000000,4269.615234,4315.641113,4312.307617,4261.025879,4289.743652,4335.000000,4402.051270,4311.794922,4265.256348,4504.615234,4529.487305,4373.333496,4446.282227,0.000000,1.000000,21.000000,,,,0.000000,2.000000,2.000000,0.000000,4.000000,2.000000,2.000000,0.000000,0.000000,4.000000,4.000000,4.000000,4.000000,4.000000,4.000000,0.000000,,,,,,,,,,,,,,,,,11.000000,0.000000,0.505598,0.475769,-0.540161,0.475647,0.986937,-0.035649,-0.041021,-35.816013,45.431858,30.972881
1732158263.929669,1732158263.932919,45.000000,0.000000,4309.871582,4268.974121,4315.000000,4311.153809,4264.615234,4281.025879,4334.615234,4406.025879,4309.230957,4267.948730,4504.487305,4524.615234,4370.384766,4445.512695,0.000000,1.000000,21.000000,,,,0.000000,2.000000,2.000000,0.000000,4.000000,2.000000,2.000000,0.000000,0.000000,4.000000,4.000000,4.000000,4.000000,4.000000,4.000000,0.000000,,,,,,,,,,,,,,,,,,,,,,,,,,,,
1732158263.937477,1732158263.940927,46.000000,0.000000,4308.717773,4265.769043,4317.948730,4311.153809,4265.384766,4278.846191,4334.743652,4403.974121,4309.487305,4278.589844,4504.615234,4530.769043,4370.641113,4443.205078,0.000000,1.000000,21.000000,,,,0.000000,2.000000,2.000000,0.000000,4.000000,2.000000,2.000000,0.000000,0.000000,4.000000,4.000000,4.000000,4.000000,4.000000,4.000000,0.000000,,,,,,,,,,,,,,,,,,,,,,,,,,,,
1732158263.945285,1732158263.948735,47.000000,0.000000,4304.615234,4266.153809,4319.615234,4310.641113,4265.512695,4282.948730,4336.025879,4399.358887,4311.538574,4279.743652,4504.871582,4534.743652,4367.948730,4442.051270,0.000000,1.000000,21.000000,,,,0.000000,2.000000,2.000000,0.000000,4.000000,2.000000,2.000000,0.000000,0.000000,4.000000,4.000000,4.000000,4.000000,4.000000,4.000000,0.000000,,,,,,,,,,,,,,,,,,,,,,,,,,,,
1732158263.953094,1732158263.956643,48.000000,0.000000,4301.282227,4271.666504,4317.692383,4312.820313,4268.205078,4288.589844,4336.410156,4398.846191,4311.282227,4276.025879,4503.974121,4524.871582,4364.487305,4436.410156,0.000000,1.000000,21.000000,,,,0.000000,2.000000,2.000000,0.000000,4.000000,2.000000,2.000000,0.000000,0.000000,4.000000,4.000000,4.000000,4.000000,4.000000,4.000000,0.000000,,,,,,,,,,,,,,,,,12.000000,0.000000,0.504466,0.475647,-0.540466,0.476624,0.968380,-0.046392,-0.026859,-35.632637,45.409805,30.926367
1732158263.960902,1732158263.964451,49.000000,0.000000,4301.410156,4272.051270,4318.205078,4315.384766,4271.282227,4293.974121,4335.256348,4402.307617,4312.563965,4278.846191,4502.948730,4521.025879,4366.025879,4431.410156,0.000000,1.000000,21.000000,,,,0.000000,2.000000,2.000000,0.000000,4.000000,2.000000,2.000000,0.000000,0.000000,4.000000,4.000000,4.000000,4.000000,4.000000,4.000000,0.000000,,,,,,,,,,,,,,,,,,,,,,,,,,,,
1732158263.968710,1732158263.972459,50.000000,0.000000,4303.461426,4266.025879,4319.871582,4312.948730,4272.948730,4293.846191,4334.743652,4401.922852,4314.102539,4283.205078,4505.512695,4527.307617,4365.769043,4435.641113,0.000000,1.000000,21.000000,,,,0.000000,2.000000,2.000000,0.000000,4.000000,2.000000,2.000000,0.000000,0.000000,4.000000,4.000000,4.000000,4.000000,4.000000,4.000000,0.000000,,,,,,,,,,,,,,,,,,,,,,,,,,,,
1732158263.976518,1732158263.980267,51.000000,0.000000,4302.692383,4264.487305,4319.102539,4308.846191,4273.461426,4290.769043,4335.128418,4400.897461,4306.282227,4278.077148,4502.948730,4525.512695,4365.000000,4437.692383,0.000000,1.000000,21.000000,,,,0.000000,2.000000,2.000000,0.000000,4.000000,2.000000,2.000000,0.000000,0.000000,4.000000,4.000000,4.000000,4.000000,4.000000,4.000000,0.000000,,,,,,,,,,,,,,,,,,,,,,,,,,,,
1732158263.984327,1732158263.988175,52.000000,0.000000,4297.563965,4268.717773,4317.307617,4309.358887,4277.563965,4292.692383,4335.000000,4407.307617,4305.512695,4269.615234,4494.230957,4520.384766,4364.615234,4431.025879,0.000000,1.000000,21.000000,,,,0.000000,2.000000,2.000000,0.000000,4.000000,2.000000,2.000000,0.000000,0.000000,4.000000,4.000000,4.000000,4.000000,4.000000,4.000000,0.000000,,,,,,,,,,,,,,,,,13.000000,0.000000,0.504285,0.475586,-0.540527,0.476807,0.968380,-0.046392,-0.026859,-35.510769,45.281944,30.915358
1732158263.992135,1732158263.995984,53.000000,0.000000,4298.205078,4269.743652,4317.307617,4312.307617,4275.384766,4295.769043,4334.743652,4411.282227,4312.948730,4266.410156,4492.948730,4525.384766,4359.871582,4432.563965,0.000000,1.000000,21.000000,,,,0.000000,2.000000,2.000000,0.000000,4.000000,2.000000,2.000000,0.000000,0.000000,4.000000,4.000000,4.000000,4.000000,4.000000,4.000000,0.000000,,,,,,,,,,,,,,,,,,,,,,,,,,,,
1732158263.999943,1732158264.003592,54.000000,0.000000,4301.794922,4266.282227,4317.948730,4311.153809,4274.615234,4291.794922,4335.000000,4406.153809,4304.358887,4265.512695,4495.256348,4529.358887,4355.256348,4439.743652,0.000000,1.000000,21.000000,,,,0.000000,2.000000,2.000000,0.000000,4.000000,2.000000,2.000000,0.000000,0.000000,4.000000,4.000000,4.000000,4.000000,4.000000,4.000000,0.000000,,,,,,,,,,,,,,,,,,,,,,,,,,,,
1732158264.007751,1732158264.011400,55.000000,0.000000,4298.461426,4264.615234,4318.589844,4308.589844,4283.205078,4281.538574,4334.871582,4400.641113,4293.205078,4268.077148,4494.358887,4527.820313,4356.666504,4441.025879,0.000000,1.000000,21.000000,,,,0.000000,2.000000,2.000000,0.000000,4.000000,2.000000,2.000000,0.000000,0.000000,4.000000,4.000000,4.000000,4.000000,4.000000,4.000000,0.000000,,,,,,,,,,,,,,,,,,,,,,,,,,,,
1732158264.015560,1732158264.019109,56.000000,0.000000,4299.230957,4268.077148,4318.205078,4312.820313,4277.692383,4275.769043,4334.487305,4400.641113,4304.743652,4277.948730,4499.743652,4532.820313,4363.333496,4441.794922,0.000000,1.000000,21.000000,,,,0.000000,2.000000,2.000000,0.000000,4.000000,2.000000,2.000000,0.000000,0.000000,4.000000,4.000000,4.000000,4.000000,4.000000,4.000000,0.000000,,,,,,,,,,,,,,,,,14.000000,0.000000,0.503576,0.475525,-0.540649,0.477478,0.965938,-0.042486,-0.013674,-35.508724,45.165039,31.153107
1732158264.023368,1732158264.026917,57.000000,0.000000,4306.025879,4269.615234,4319.230957,4316.282227,4255.384766,4278.589844,4335.256348,4404.358887,4314.743652,4283.461426,4507.820313,4536.794922,4367.692383,4446.922852,0.000000,1.000000,21.000000,,,,0.000000,2.000000,2.000000,0.000000,4.000000,2.000000,2.000000,0.000000,0.000000,4.000000,4.000000,4.000000,4.000000,4.000000,4.000000,0.000000,,,,,,,,,,,,,,,,,,,,,,,,,,,,
1732158264.031176,1732158264.034725,58.000000,0.000000,4301.794922,4265.512695,4319.358887,4311.410156,4252.563965,4283.077148,4336.410156,4405.128418,4307.436035,4278.846191,4501.794922,4529.743652,4362.563965,4445.000000,0.000000,1.000000,21.000000,,,,0.000000,2.000000,2.000000,0.000000,4.000000,2.000000,2.000000,0.000000,0.000000,4.000000,4.000000,4.000000,4.000000,4.000000,4.000000,0.000000,,,,,,,,,,,,,,,,,,,,,,,,,,,,
1732158264.038984,1732158264.042533,59.000000,0.000000,4295.897461,4265.128418,4318.333496,4310.128418,4266.666504,4280.384766,4335.769043,4402.692383,4306.282227,4277.563965,4493.205078,4521.666504,4356.922852,4435.769043,0.000000,1.000000,21.000000,,,,0.000000,2.000000,2.000000,0.000000,4.000000,2.000000,2.000000,0.000000,0.000000,4.000000,4.000000,4.000000,4.000000,4.000000,4.000000,0.000000,,,,,,,,,,,,,,,,,,,,,,,,,,,,
1732158264.046793,1732158264.050242,60.000000,0.000000,4296.538574,4268.333496,4316.794922,4312.692383,4267.179688,4277.179688,4334.487305,4400.641113,4313.077148,4283.205078,4495.128418,4517.948730,4358.846191,4430.256348,0.000000,1.000000,21.000000,,,,0.000000,2.000000,2.000000,0.000000,4.000000,2.000000,2.000000,0.000000,0.000000,4.000000,4.000000,4.000000,4.000000,4.000000,4.000000,0.000000,,,,,,,,,,,,,,,,,15.000000,0.000000,0.503089,0.475342,-0.540833,0.477966,0.981077,-0.044439,-0.039556,-35.617065,45.200348,31.170683
1732158264.054601,1732158264.058050,61.000000,0.000000,4290.256348,4266.025879,4317.948730,4308.974121,4266.666504,4283.717773,4334.871582,4402.307617,4313.333496,4282.563965,4496.153809,4517.948730,4357.563965,4428.589844,0.000000,1.000000,21.000000,,,,0.000000,2.000000,2.000000,0.000000,4.000000,2.000000,2.000000,0.000000,0.000000,4.000000,4.000000,4.000000,4.000000,4.000000,4.000000,0.000000,,,,,,,,,,,,,,,,,,,,,,,,,,,,
1732158264.062409,1732158264.065658,62.000000,0.000000,4283.589844,4261.794922,4318.205078,4306.666504,4276.794922,4293.589844,4335.769043,4403.589844,4310.512695,4277.307617,4493.974121,4518.333496,4351.538574,4427.436035,0.000000,1.000000,21.000000,,,,0.000000,2.000000,2.000000,0.000000,4.000000,2.000000,2.000000,0.000000,0.000000,4.000000,4.000000,4.000000,4.000000,4.000000,4.000000,0.000000,,,,,,,,,,,,,,,,,,,,,,,,,,,,
1732158264.070217,1732158264.073466,63.000000,0.000000,4287.307617,4264.358887,4315.384766,4310.897461,4283.077148,4295.641113,4336.410156,4403.205078,4304.743652,4275.897461,4491.922852,4513.717773,4348.717773,4424.871582,0.000000,1.000000,21.000000,,,,0.000000,2.000000,2.000000,0.000000,4.000000,2.000000,2.000000,0.000000,0.000000,4.000000,4.000000,4.000000,4.000000,4.000000,4.000000,0.000000,,,,,,,,,,,,,,,,,,,,,,,,,,,,
1732158264.078026,1732158264.081175,64.000000,0.000000,4292.179688,4267.948730,4316.153809,4311.410156,4281.025879,4290.897461,4336.794922,4406.666504,4300.769043,4277.051270,4490.512695,4512.179688,4350.769043,4425.256348,0.000000,1.000000,21.000000,,,,0.000000,2.000000,2.000000,0.000000,4.000000,2.000000,2.000000,0.000000,0.000000,4.000000,4.000000,4.000000,4.000000,4.000000,4.000000,0.000000,,,,,,,,,,,,,,,,,16.000000,0.000000,0.502926,0.475098,-0.541199,0.477966,0.980100,-0.038579,-0.037602,-35.671490,45.288948,31.219919
1732158264.085834,1732158264.088983,65.000000,0.000000,4293.077148,4268.333496,4317.051270,4310.256348,4279.230957,4287.051270,4335.641113,4407.436035,4305.769043,4277.563965,4492.692383,4520.384766,4354.358887,4429.358887,1599.000000,1.000000,21.000000,,,,0.000000,2.000000,2.000000,0.000000,4.000000,2.000000,2.000000,0.000000,0.000000,4.000000,4.000000,4.000000,4.000000,4.000000,4.000000,0.000000,,,,,,,,,,,,,,,,,,,,,,,,,,,,
1732158264.093642,1732158264.096991,66.000000,0.000000,4295.641113,4268.589844,4316.922852,4312.692383,4280.897461,4283.077148,4333.333496,4402.692383,4305.000000,4277.179688,4495.384766,4522.051270,4351.666504,4429.871582,1359.000000,1.000000,21.000000,,,,0.000000,2.000000,2.000000,0.000000,4.000000,2.000000,2.000000,0.000000,0.000000,4.000000,4.000000,4.000000,4.000000,4.000000,4.000000,0.000000,,,,,,,,,,,,,,,,,,,,,,,,,,,,
1732158264.101450,1732158264.104799,67.000000,0.000000,4295.512695,4267.307617,4318.974121,4310.769043,4274.615234,4279.358887,4333.461426,4399.871582,4296.282227,4276.666504,4490.769043,4514.615234,4345.000000,4424.615234,1432.000000,1.000000,21.000000,,,,0.000000,2.000000,2.000000,0.000000,4.000000,2.000000,2.000000,0.000000,0.000000,4.000000,4.000000,4.000000,4.000000,4.000000,4.000000,0.000000,,,,,,,,,,,,,,,,,,,,,,,,,,,,
1732158264.109259,1732158264.112507,68.000000,0.000000,4288.846191,4265.512695,4318.974121,4305.000000,4277.563965,4286.153809,4335.512695,4401.922852,4299.871582,4276.794922,4485.256348,4511.025879,4343.077148,4416.922852,1422.000000,1.000000,21.000000,,,,0.000000,2.000000,2.000000,0.000000,4.000000,2.000000,2.000000,0.000000,0.000000,4.000000,4.000000,4.000000,4.000000,4.000000,4.000000,0.000000,,,,,,,,,,,,,,,,,17.000000,0.000000,0.502686,0.475159,-0.541260,0.478088,0.988890,-0.029300,-0.040532,-35.638908,45.234051,31.178135
1732158264.117067,1732158264.120316,69.000000,0.000000,4286.922852,4261.794922,4315.769043,4299.743652,4292.436035,4290.641113,4335.897461,4403.717773,4312.051270,4278.461426,4487.307617,4510.897461,4341.153809,4416.922852,1209.000000,1.000000,21.000000,,,,0.000000,2.000000,2.000000,0.000000,4.000000,2.000000,2.000000,0.000000,0.000000,4.000000,4.000000,4.000000,4.000000,4.000000,4.000000,0.000000,,,,,,,,,,,,,,,,,,,,,,,,,,,,
1732158264.124875,1732158264.127924,70.000000,0.000000,4292.307617,4262.820313,4316.538574,4299.102539,4282.563965,4283.974121,4335.384766,4401.538574,4312.179688,4279.743652,4490.256348,4515.641113,4340.769043,4424.487305,0.000000,1.000000,21.000000,,,,0.000000,2.000000,2.000000,0.000000,4.000000,2.000000,2.000000,0.000000,0.000000,4.000000,4.000000,4.000000,4.000000,4.000000,4.000000,0.000000,,,,,,,,,,,,,,,,,,,,,,,,,,,,
1732158264.132683,1732158264.135732,71.000000,0.000000,4295.769043,4271.282227,4318.974121,4305.769043,4259.615234,4280.256348,4336.153809,4399.487305,4301.410156,4280.384766,4490.641113,4518.205078,4348.205078,4426.282227,0.000000,1.000000,21.000000,,,,0.000000,2.000000,2.000000,0.000000,4.000000,2.000000,2.000000,0.000000,0.000000,4.000000,4.000000,4.000000,4.000000,4.000000,4.000000,0.000000,,,,,,,,,,,,,,,,,,,,,,,,,,,,
1732158264.140492,1732158264.143441,72.000000,0.000000,4295.897461,4272.948730,4317.051270,4311.282227,4264.230957,4289.102539,4336.922852,4403.974121,4297.948730,4280.000000,4490.000000,4514.230957,4349.358887,4417.307617,1543.000000,1.000000,21.000000,,,,0.000000,2.000000,2.000000,0.000000,4.000000,2.000000,2.000000,0.000000,0.000000,4.000000,4.000000,4.000000,4.000000,4.000000,4.000000,0.000000,,,,,,,,,,,,,,,,,18.000000,0.000000,0.502099,0.475403,-0.541321,0.478394,0.980100,-0.039556,-0.027835,-35.679180,45.109581,31.085957
1732158264.148300,1732158264.151249,73.000000,0.000000,4295.000000,4264.615234,4315.256348,4308.461426,4279.102539,4295.000000,4337.563965,4409.102539,4303.589844,4277.820313,4488.461426,4513.205078,4342.436035,4415.256348,1693.000000,1.000000,21.000000,,,,0.000000,2.000000,2.000000,0.000000,4.000000,2.000000,2.000000,0.000000,0.000000,4.000000,4.000000,4.000000,4.000000,4.000000,4.000000,0.000000,,,,,,,,,,,,,,,,,,,,,,,,,,,,
1732158264.156108,1732158264.159257,74.000000,0.000000,4290.641113,4263.205078,4316.410156,4305.512695,4277.179688,4289.743652,4338.077148,4403.205078,4308.846191,4280.256348,4487.948730,4513.974121,4345.769043,4423.205078,1551.000000,1.000000,21.000000,,,,0.000000,2.000000,2.000000,0.000000,4.000000,2.000000,2.000000,0.000000,0.000000,4.000000,4.000000,4.000000,4.000000,4.000000,4.000000,0.000000,,,,,,,,,,,,,,,,,,,,,,,,,,,,
1732158264.163916,1732158264.167065,75.000000,0.000000,4289.358887,4272.436035,4317.820313,4308.589844,4275.769043,4287.563965,4336.794922,4399.487305,4310.384766,4285.000000,4487.563965,4510.256348,4352.051270,4423.205078,1551.000000,1.000000,21.000000,,,,0.000000,2.000000,2.000000,0.000000,4.000000,2.000000,2.000000,0.000000,0.000000,4.000000,4.000000,4.000000,4.000000,4.000000,4.000000,0.000000,,,,,,,,,,,,,,,,,,,,,,,,,,,,
1732158264.171725,1732158264.174773,76.000000,0.000000,4294.230957,4276.538574,4317.820313,4310.641113,4279.358887,4287.692383,4335.512695,4407.820313,4306.666504,4283.205078,4487.692383,4511.794922,4346.922852,4417.692383,1706.000000,1.000000,21.000000,,,,0.000000,2.000000,2.000000,0.000000,4.000000,2.000000,2.000000,0.000000,0.000000,4.000000,4.000000,4.000000,4.000000,4.000000,4.000000,0.000000,,,,,,,,,,,,,,,,,19.000000,0.000000,0.500848,0.475952,-0.541565,0.478882,0.979612,-0.039556,-0.040532,-35.860138,45.108761,31.069624
1732158264.179533,1732158264.182581,77.000000,0.000000,4295.256348,4278.077148,4316.282227,4310.512695,4279.358887,4285.512695,4336.153809,4409.230957,4298.846191,4278.974121,4488.589844,4517.820313,4341.410156,4417.051270,1583.000000,1.000000,21.000000,,,,0.000000,2.000000,2.000000,0.000000,4.000000,2.000000,2.000000,0.000000,0.000000,4.000000,4.000000,4.000000,4.000000,4.000000,4.000000,0.000000,,,,,,,,,,,,,,,,,,,,,,,,,,,,
1732158264.187341,1732158264.190589,78.000000,0.000000,4293.461426,4276.282227,4316.025879,4309.487305,4279.487305,4285.641113,4336.153809,4401.153809,4296.794922,4278.461426,4487.436035,4518.461426,4342.820313,4416.025879,1551.000000,1.000000,21.000000,,,,0.000000,2.000000,2.000000,0.000000,4.000000,2.000000,2.000000,0.000000,0.000000,4.000000,4.000000,4.000000,4.000000,4.000000,4.000000,0.000000,1.000000,0.000000,2.000000,2.000000,0.000000,4.000000,2.000000,2.000000,0.000000,0.000000,4.000000,3.000000,4.000000,4.000000,4.000000,4.000000,,,,,,,,,,,,
1732158264.195149,1732158264.198398,79.000000,0.000000,4292.948730,4272.692383,4316.666504,4306.282227,4274.615234,4286.282227,4334.871582,4399.487305,4306.922852,4279.358887,4487.820313,4517.307617,4343.846191,4414.871582,1551.000000,1.000000,21.000000,,,,0.000000,2.000000,2.000000,0.000000,4.000000,2.000000,2.000000,0.000000,0.000000,4.000000,4.000000,4.000000,4.000000,4.000000,4.000000,0.000000,,,,,,,,,,,,,,,,,,,,,,,,,,,,
1732158264.202958,1732158264.206306,80.000000,0.000000,4287.820313,4270.769043,4316.153809,4303.846191,4280.897461,4281.410156,4334.615234,4404.230957,4312.820313,4280.000000,4490.000000,4516.153809,4341.794922,4415.256348,1706.000000,1.000000,21.000000,,,,0.000000,2.000000,2.000000,0.000000,4.000000,2.000000,2.000000,0.000000,0.000000,4.000000,4.000000,4.000000,4.000000,4.000000,4.000000,0.000000,,,,,,,,,,,,,,,,,20.000000,0.000000,0.500558,0.476135,-0.541565,0.479004,0.968868,-0.051276,-0.050787,-35.985043,45.276428,31.066397
1732158264.210766,1732158264.214114,81.000000,0.000000,4282.692383,4270.769043,4318.333496,4303.589844,4297.051270,4282.179688,4335.128418,4406.025879,4311.666504,4280.641113,4489.487305,4515.256348,4339.487305,4414.871582,1583.000000,1.000000,21.000000,,,,0.000000,2.000000,2.000000,0.000000,4.000000,2.000000,2.000000,0.000000,0.000000,4.000000,4.000000,4.000000,4.000000,4.000000,4.000000,0.000000,,,,,,,,,,,,,,,,,,,,,,,,,,,,
1732158264.218574,1732158264.221722,82.000000,0.000000,4281.538574,4274.102539,4320.769043,4307.179688,4286.922852,4295.000000,4335.000000,4403.461426,4308.589844,4277.948730,4488.205078,4516.025879,4341.666504,4413.846191,1551.000000,1.000000,21.000000,,,,0.000000,2.000000,2.000000,0.000000,4.000000,2.000000,2.000000,0.000000,0.000000,4.000000,4.000000,4.000000,4.000000,4.000000,4.000000,0.000000,,,,,,,,,,,,,,,,,,,,,,,,,,,,
1732158264.226382,1732158264.229531,83.000000,0.000000,4281.922852,4275.512695,4319.358887,4310.512695,4264.358887,4298.077148,4334.871582,4399.743652,4303.333496,4276.282227,4488.974121,4514.871582,4344.358887,4414.743652,1551.000000,1.000000,21.000000,,,,0.000000,2.000000,2.000000,0.000000,4.000000,2.000000,2.000000,0.000000,0.000000,4.000000,4.000000,4.000000,4.000000,4.000000,4.000000,0.000000,,,,,,,,,,,,,,,,,,,,,,,,,,,,
1732158264.234191,1732158264.237439,84.000000,0.000000,4286.282227,4275.512695,4317.051270,4309.871582,4268.461426,4292.051270,4335.000000,4402.307617,4304.358887,4279.615234,4488.717773,4513.717773,4342.051270,4415.897461,1706.000000,1.000000,21.000000,,,,0.000000,2.000000,2.000000,0.000000,4.000000,2.000000,2.000000,0.000000,0.000000,4.000000,4.000000,4.000000,4.000000,4.000000,4.000000,0.000000,,,,,,,,,,,,,,,,,21.000000,0.000000,0.500018,0.476379,-0.541687,0.479187,0.990355,-0.061043,-0.046881,-36.114552,45.350574,31.243780
1732158264.241999,1732158264.245247,85.000000,0.000000,4287.436035,4277.051270,4319.102539,4311.153809,4285.128418,4291.025879,4335.000000,4407.307617,4305.769043,4279.743652,4487.692383,4511.666504,4340.512695,4414.230957,1583.000000,1.000000,21.000000,,,,0.000000,2.000000,2.000000,0.000000,4.000000,2.000000,2.000000,0.000000,0.000000,4.000000,4.000000,4.000000,4.000000,4.000000,4.000000,0.000000,,,,,,,,,,,,,,,,,,,,,,,,,,,,
1732158264.249807,1732158264.253255,86.000000,0.000000,4283.205078,4281.025879,4319.102539,4309.871582,4280.897461,4289.230957,4335.000000,4403.589844,4302.948730,4277.948730,4489.102539,4507.820313,4345.256348,4412.820313,1551.000000,1.000000,21.000000,,,,0.000000,2.000000,2.000000,0.000000,4.000000,2.000000,2.000000,0.000000,0.000000,4.000000,4.000000,4.000000,4.000000,4.000000,4.000000,0.000000,,,,,,,,,,,,,,,,,,,,,,,,,,,,
1732158264.257615,1732158264.261063,87.000000,0.000000,4284.871582,4280.384766,4315.769043,4302.692383,4266.153809,4282.948730,4335.000000,4403.461426,4307.948730,4281.153809,4492.948730,4513.589844,4351.025879,4421.282227,1551.000000,1.000000,21.000000,,,,0.000000,2.000000,2.000000,0.000000,4.000000,2.000000,2.000000,0.000000,0.000000,4.000000,4.000000,4.000000,4.000000,4.000000,4.000000,0.000000,,,,,,,,,,,,,,,,,,,,,,,,,,,,
1732158264.265424,1732158264.268971,88.000000,0.000000,4288.974121,4275.897461,4315.769043,4299.230957,4271.025879,4281.282227,4335.000000,4410.128418,4312.692383,4284.615234,4495.256348,4519.358887,4352.179688,4427.436035,1706.000000,1.000000,21.000000,,,,0.000000,2.000000,2.000000,0.000000,4.000000,2.000000,2.000000,0.000000,0.000000,4.000000,4.000000,4.000000,4.000000,4.000000,4.000000,0.000000,,,,,,,,,,,,,,,,,22.000000,0.000000,0.499319,0.476257,-0.542114,0.479553,0.984007,-0.057136,-0.041509,-36.001122,45.237297,31.289129
1732158264.273232,1732158264.276779,89.000000,0.000000,4285.000000,4277.563965,4318.205078,4303.974121,4291.153809,4281.282227,4334.871582,4410.512695,4305.384766,4281.410156,4492.307617,4513.589844,4347.692383,4418.974121,1583.000000,1.000000,21.000000,,,,0.000000,2.000000,2.000000,0.000000,4.000000,2.000000,2.000000,0.000000,0.000000,4.000000,4.000000,4.000000,4.000000,4.000000,4.000000,0.000000,,,,,,,,,,,,,,,,,,,,,,,,,,,,
1732158264.281040,1732158264.284787,90.000000,0.000000,4281.282227,4279.615234,4317.179688,4305.256348,4286.282227,4281.538574,4334.743652,4402.820313,4302.563965,4278.461426,4488.974121,4509.102539,4344.102539,4412.436035,1551.000000,1.000000,21.000000,,,,0.000000,2.000000,2.000000,0.000000,4.000000,2.000000,2.000000,0.000000,0.000000,4.000000,4.000000,4.000000,4.000000,4.000000,4.000000,0.000000,,,,,,,,,,,,,,,,,,,,,,,,,,,,
1732158264.288848,1732158264.292596,91.000000,0.000000,4280.769043,4278.846191,4316.666504,4300.000000,4262.307617,4290.256348,4334.743652,4402.179688,4306.666504,4281.282227,4488.717773,4510.384766,4348.461426,4416.282227,1551.000000,1.000000,21.000000,,,,0.000000,2.000000,2.000000,0.000000,4.000000,2.000000,2.000000,0.000000,0.000000,4.000000,4.000000,4.000000,4.000000,4.000000,4.000000,0.000000,,,,,,,,,,,,,,,,,,,,,,,,,,,,
1732158264.296657,1732158264.300504,92.000000,0.000000,4277.692383,4276.538574,4317.820313,4299.743652,4265.512695,4297.051270,4334.871582,4407.179688,4299.487305,4281.153809,4488.333496,4507.563965,4351.410156,4412.820313,1706.000000,1.000000,21.000000,,,,0.000000,2.000000,2.000000,0.000000,4.000000,2.000000,2.000000,0.000000,0.000000,4.000000,4.000000,4.000000,4.000000,4.000000,4.000000,0.000000,,,,,,,,,,,,,,,,,23.000000,0.000000,0.498870,0.476196,-0.542419,0.479736,0.976682,-0.056159,-0.041997,-36.052574,45.127213,31.265862
1732158264.304465,1732158264.308312,93.000000,0.000000,4277.307617,4277.563965,4316.922852,4303.077148,4281.410156,4294.230957,4334.615234,4405.769043,4292.563965,4279.487305,4487.692383,4501.282227,4345.384766,4406.410156,1583.000000,1.000000,21.000000,,,,0.000000,2.000000,2.000000,0.000000,4.000000,2.000000,2.000000,0.000000,0.000000,4.000000,4.000000,4.000000,4.000000,4.000000,4.000000,0.000000,,,,,,,,,,,,,,,,,,,,,,,,,,,,
1732158264.312273,1732158264.316320,94.000000,0.000000,4279.871582,4278.077148,4316.794922,4301.794922,4278.589844,4295.512695,4334.743652,4401.538574,4299.102539,4282.179688,4487.692383,4502.692383,4342.692383,4408.717773,1551.000000,1.000000,21.000000,,,,0.000000,2.000000,2.000000,0.000000,4.000000,2.000000,2.000000,0.000000,0.000000,4.000000,4.000000,4.000000,4.000000,4.000000,4.000000,0.000000,,,,,,,,,,,,,,,,,,,,,,,,,,,,
1732158264.320081,1732158264.324128,95.000000,0.000000,4280.000000,4276.922852,4317.948730,4296.282227,4278.461426,4294.615234,4335.897461,4400.512695,4304.615234,4282.692383,4487.436035,4506.666504,4348.333496,4411.538574,1551.000000,1.000000,21.000000,,,,0.000000,2.000000,2.000000,0.000000,4.000000,2.000000,2.000000,0.000000,0.000000,4.000000,4.000000,4.000000,4.000000,4.000000,4.000000,0.000000,,,,,,,,,,,,,,,,,,,,,,,,,,,,
1732158264.327890,1732158264.332036,96.000000,0.000000,4280.000000,4279.102539,4317.820313,4299.230957,4280.641113,4287.563965,4336.538574,4402.820313,4305.000000,4280.384766,4488.589844,4503.974121,4352.436035,4410.769043,1706.000000,1.000000,21.000000,,,,0.000000,2.000000,2.000000,0.000000,4.000000,2.000000,2.000000,0.000000,0.000000,4.000000,4.000000,4.000000,4.000000,4.000000,4.000000,0.000000,,,,,,,,,,,,,,,,,24.000000,0.000000,0.498862,0.476135,-0.542480,0.479736,0.970822,-0.059089,-0.034672,-35.915920,45.483040,31.405348
1732158264.335698,1732158264.339845,97.000000,0.000000,4282.051270,4280.256348,4317.179688,4305.641113,4279.487305,4287.307617,4336.282227,4402.820313,4302.820313,4280.512695,4489.102539,4497.563965,4349.230957,4408.333496,1583.000000,1.000000,21.000000,,,,0.000000,2.000000,2.000000,0.000000,4.000000,2.000000,2.000000,0.000000,0.000000,4.000000,4.000000,4.000000,4.000000,4.000000,4.000000,0.000000,,,,,,,,,,,,,,,,,,,,,,,,,,,,
1732158264.343506,1732158264.347853,98.000000,0.000000,4284.230957,4278.717773,4317.436035,4303.846191,4294.230957,4288.077148,4336.410156,4402.307617,4300.384766,4281.025879,4487.436035,4501.282227,4344.358887,4408.461426,1551.000000,1.000000,21.000000,,,,0.000000,2.000000,2.000000,0.000000,4.000000,2.000000,2.000000,0.000000,0.000000,4.000000,4.000000,4.000000,4.000000,4.000000,4.000000,0.000000,,,,,,,,,,,,,,,,,,,,,,,,,,,,
1732158264.351314,1732158264.355661,99.000000,0.000000,4283.846191,4279.358887,4317.436035,4302.179688,4295.641113,4284.615234,4336.794922,4405.256348,4302.051270,4280.897461,4488.333496,4509.871582,4346.025879,4411.538574,1551.000000,1.000000,21.000000,,,,0.000000,2.000000,2.000000,0.000000,4.000000,2.000000,2.000000,0.000000,0.000000,4.000000,4.000000,4.000000,4.000000,4.000000,4.000000,0.000000,,,,,,,,,,,,,,,,,,,,,,,,,,,,
1732158264.359123,1732158264.363569,100.000000,0.000000,4281.025879,4281.025879,4317.307617,4302.692383,4269.230957,4286.794922,4336.410156,4406.282227,4302.820313,4281.538574,4491.282227,4508.846191,4353.974121,4413.974121,1706.000000,1.000000,21.000000,,,,0.000000,2.000000,2.000000,0.000000,4.000000,2.000000,2.000000,0.000000,0.000000,4.000000,4.000000,4.000000,4.000000,4.000000,4.000000,0.000000,,,,,,,,,,,,,,,,,25.000000,0.000000,0.498947,0.475952,-0.542725,0.479553,0.972287,-0.051764,-0.051276,-36.008560,45.206264,31.409998
1732158264.366931,1732158264.371377,101.000000,0.000000,4280.897461,4280.384766,4316.153809,4302.692383,4263.974121,4294.358887,4336.153809,4404.487305,4301.538574,4281.666504,4490.769043,4506.794922,4356.538574,4414.615234,1583.000000,1.000000,21.000000,,,,0.000000,2.000000,2.000000,0.000000,4.000000,2.000000,2.000000,0.000000,0.000000,4.000000,4.000000,4.000000,4.000000,4.000000,4.000000,0.000000,,,,,,,,,,,,,,,,,,,,,,,,,,,,
1732158264.374739,1732158264.378985,102.000000,0.000000,4281.666504,4280.641113,4316.794922,4301.025879,4280.384766,4295.897461,4336.410156,4404.230957,4303.205078,4282.179688,4488.974121,4509.358887,4352.820313,4413.333496,1551.000000,1.000000,21.000000,,,,0.000000,2.000000,2.000000,0.000000,4.000000,2.000000,2.000000,0.000000,0.000000,4.000000,4.000000,4.000000,4.000000,4.000000,4.000000,0.000000,,,,,,,,,,,,,,,,,,,,,,,,,,,,
1732158264.382548,1732158264.386794,103.000000,0.000000,4278.846191,4281.025879,4318.717773,4299.615234,4281.282227,4291.666504,4336.666504,4405.256348,4303.846191,4280.641113,4486.794922,4504.230957,4350.641113,4410.128418,1551.000000,1.000000,21.000000,,,,0.000000,2.000000,2.000000,0.000000,4.000000,2.000000,2.000000,0.000000,0.000000,4.000000,4.000000,4.000000,4.000000,4.000000,4.000000,0.000000,,,,,,,,,,,,,,,,,,,,,,,,,,,,
1732158264.390356,1732158264.394702,104.000000,0.000000,4278.589844,4283.077148,4319.230957,4302.948730,4276.666504,4292.692383,4336.666504,4406.666504,4302.948730,4276.922852,4486.922852,4500.512695,4352.436035,4409.871582,1706.000000,1.000000,21.000000,,,,0.000000,2.000000,2.000000,0.000000,4.000000,2.000000,2.000000,0.000000,0.000000,4.000000,4.000000,4.000000,4.000000,4.000000,4.000000,0.000000,,,,,,,,,,,,,,,,,26.000000,0.000000,0.498989,0.475830,-0.542847,0.479492,0.976682,-0.048834,-0.038091,-36.016933,45.082073,31.430431
1732158264.398164,1732158264.402510,105.000000,0.000000,4282.179688,4285.897461,4318.461426,4307.436035,4287.436035,4296.025879,4336.282227,4406.410156,4307.692383,4279.102539,4489.871582,4509.871582,4355.641113,4414.358887,1583.000000,1.000000,21.000000,,,,0.000000,2.000000,2.000000,0.000000,4.000000,2.000000,2.000000,0.000000,0.000000,4.000000,4.000000,4.000000,4.000000,4.000000,4.000000,0.000000,,,,,,,,,,,,,,,,,,,,,,,,,,,,
1732158264.405972,1732158264.410118,106.000000,0.000000,4281.794922,4283.589844,4318.974121,4306.410156,4299.230957,4288.717773,4335.769043,4402.820313,4304.743652,4280.128418,4488.205078,4511.410156,4353.589844,4413.717773,1551.000000,1.000000,21.000000,,,,0.000000,2.000000,2.000000,0.000000,4.000000,2.000000,2.000000,0.000000,0.000000,4.000000,4.000000,4.000000,4.000000,4.000000,4.000000,0.000000,,,,,,,,,,,,,,,,,,,,,,,,,,,,
1732158264.413780,1732158264.417927,107.000000,0.000000,4280.769043,4283.717773,4320.000000,4305.256348,4291.153809,4279.102539,4335.769043,4400.641113,4296.153809,4273.974121,4483.974121,4503.333496,4349.230957,4410.384766,1551.000000,1.000000,21.000000,,,,0.000000,2.000000,2.000000,0.000000,4.000000,2.000000,2.000000,0.000000,0.000000,4.000000,4.000000,4.000000,4.000000,4.000000,4.000000,0.000000,,,,,,,,,,,,,,,,,,,,,,,,,,,,
1732158264.421589,1732158264.425835,108.000000,0.000000,4281.538574,4287.307617,4321.153809,4310.641113,4268.205078,4283.333496,4336.025879,4403.205078,4300.128418,4275.512695,4487.948730,4505.256348,4349.615234,4414.102539,1706.000000,1.000000,21.000000,,,,0.000000,2.000000,2.000000,0.000000,4.000000,2.000000,2.000000,0.000000,0.000000,4.000000,4.000000,4.000000,4.000000,4.000000,4.000000,0.000000,,,,,,,,,,,,,,,,,27.000000,0.000000,0.498973,0.475708,-0.542969,0.479492,0.995239,-0.040044,-0.051276,-36.042049,45.069813,31.498650
1732158264.429397,1732158264.433643,109.000000,0.000000,4281.410156,4286.410156,4319.615234,4311.153809,4262.820313,4285.384766,4335.512695,4404.615234,4303.589844,4281.794922,4494.358887,4510.512695,4353.461426,4421.282227,1583.000000,1.000000,21.000000,,,,0.000000,2.000000,2.000000,0.000000,4.000000,2.000000,2.000000,0.000000,0.000000,4.000000,4.000000,4.000000,4.000000,4.000000,4.000000,0.000000,,,,,,,,,,,,,,,,,,,,,,,,,,,,
1732158264.437205,1732158264.441251,110.000000,0.000000,4282.692383,4283.461426,4316.410156,4306.794922,4271.410156,4280.256348,4334.871582,4400.512695,4295.641113,4278.461426,4491.666504,4509.615234,4356.025879,4421.794922,1551.000000,1.000000,21.000000,,,,0.000000,2.000000,2.000000,0.000000,4.000000,2.000000,2.000000,0.000000,0.000000,4.000000,4.000000,4.000000,4.000000,4.000000,4.000000,0.000000,,,,,,,,,,,,,,,,,,,,,,,,,,,,
1732158264.445013,1732158264.449060,111.000000,0.000000,4285.128418,4283.077148,4316.153809,4306.538574,4272.051270,4279.871582,4334.743652,4399.871582,4295.897461,4275.384766,4489.102539,4511.153809,4353.974121,4417.563965,1551.000000,1.000000,21.000000,,,,0.000000,2.000000,2.000000,0.000000,4.000000,2.000000,2.000000,0.000000,0.000000,4.000000,4.000000,4.000000,4.000000,4.000000,4.000000,0.000000,,,,,,,,,,,,,,,,,,,,,,,,,,,,
1732158264.452822,1732158264.456768,112.000000,0.000000,4283.077148,4280.512695,4318.461426,4308.205078,4274.102539,4281.025879,4334.871582,4402.051270,4306.922852,4280.769043,4488.846191,4515.256348,4349.358887,4414.487305,1706.000000,1.000000,21.000000,,,,0.000000,2.000000,2.000000,0.000000,4.000000,2.000000,2.000000,0.000000,0.000000,4.000000,4.000000,4.000000,4.000000,4.000000,4.000000,0.000000,,,,,,,,,,,,,,,,,28.000000,0.000000,0.498923,0.475769,-0.542908,0.479553,0.982053,-0.051276,-0.053717,-35.749062,44.771549,31.372240
1732158264.460630,1732158264.464576,113.000000,0.000000,4281.153809,4280.256348,4319.487305,4308.205078,4277.179688,4284.358887,4334.871582,4402.563965,4306.282227,4282.948730,4483.333496,4508.846191,4348.846191,4409.871582,1583.000000,1.000000,21.000000,,,,0.000000,2.000000,2.000000,0.000000,4.000000,2.000000,2.000000,0.000000,0.000000,4.000000,4.000000,4.000000,4.000000,4.000000,4.000000,0.000000,,,,,,,,,,,,,,,,,,,,,,,,,,,,
1732158264.468438,1732158264.472584,114.000000,0.000000,4280.128418,4281.410156,4318.717773,4303.077148,4285.256348,4287.820313,4334.871582,4401.025879,4295.512695,4274.230957,4475.384766,4498.717773,4350.512695,4405.897461,1551.000000,1.000000,21.000000,,,,0.000000,2.000000,2.000000,0.000000,4.000000,2.000000,2.000000,0.000000,0.000000,4.000000,4.000000,4.000000,4.000000,4.000000,4.000000,0.000000,,,,,,,,,,,,,,,,,,,,,,,,,,,,
1732158264.476246,1732158264.480392,115.000000,0.000000,4278.974121,4280.769043,4318.589844,4298.461426,4297.948730,4286.153809,4334.871582,4400.769043,4295.384766,4270.256348,4475.000000,4498.333496,4346.538574,4409.358887,1551.000000,1.000000,21.000000,,,,0.000000,2.000000,2.000000,0.000000,4.000000,2.000000,2.000000,0.000000,0.000000,4.000000,4.000000,4.000000,4.000000,4.000000,4.000000,0.000000,,,,,,,,,,,,,,,,,,,,,,,,,,,,
1732158264.484055,1732158264.488101,116.000000,0.000000,4282.563965,4284.487305,4318.846191,4303.333496,4284.487305,4283.974121,4334.871582,4402.948730,4308.717773,4281.666504,4485.641113,4510.641113,4350.641113,4418.717773,1706.000000,1.000000,21.000000,,,,0.000000,2.000000,2.000000,0.000000,4.000000,2.000000,2.000000,0.000000,0.000000,4.000000,4.000000,4.000000,4.000000,4.000000,4.000000,0.000000,,,,,,,,,,,,,,,,,29.000000,0.000000,0.498797,0.475769,-0.542969,0.479614,0.976682,-0.051764,-0.046392,-35.825073,44.759953,31.368181
1732158264.491863,1732158264.495909,117.000000,0.000000,4286.282227,4288.589844,4319.102539,4310.128418,4259.871582,4285.384766,4334.871582,4403.205078,4315.384766,4288.333496,4493.846191,4522.179688,4364.487305,4421.794922,1583.000000,1.000000,21.000000,,,,0.000000,2.000000,2.000000,0.000000,4.000000,2.000000,2.000000,0.000000,0.000000,4.000000,4.000000,4.000000,4.000000,4.000000,4.000000,0.000000,,,,,,,,,,,,,,,,,,,,,,,,,,,,
1732158264.499671,1732158264.503517,118.000000,0.000000,4283.717773,4288.717773,4318.461426,4309.102539,4267.692383,4284.230957,4334.871582,4402.563965,4309.615234,4281.282227,4491.410156,4518.846191,4365.641113,4416.153809,1551.000000,1.000000,21.000000,,,,0.000000,2.000000,2.000000,0.000000,4.000000,2.000000,2.000000,0.000000,0.000000,4.000000,4.000000,4.000000,4.000000,4.000000,4.000000,0.000000,,,,,,,,,,,,,,,,,,,,,,,,,,,,
1732158264.507479,1732158264.511325,119.000000,0.000000,4279.615234,4285.641113,4319.102539,4303.205078,4282.307617,4283.461426,4334.871582,4404.358887,4308.589844,4278.589844,4487.436035,4510.384766,4357.948730,4411.282227,1551.000000,1.000000,21.000000,,,,0.000000,2.000000,2.000000,0.000000,4.000000,2.000000,2.000000,0.000000,0.000000,4.000000,4.000000,4.000000,4.000000,4.000000,4.000000,0.000000,,,,,,,,,,,,,,,,,,,,,,,,,,,,
1732158264.515288,1732158264.519234,120.000000,0.000000,4277.563965,4283.461426,4317.051270,4301.538574,4278.077148,4287.436035,4334.743652,4404.230957,4312.820313,4281.794922,4488.077148,4503.333496,4357.179688,4410.641113,1706.000000,1.000000,21.000000,,,,0.000000,2.000000,2.000000,0.000000,4.000000,2.000000,2.000000,0.000000,0.000000,4.000000,4.000000,4.000000,4.000000,4.000000,4.000000,0.000000,,,,,,,,,,,,,,,,,30.000000,0.000000,0.498739,0.475769,-0.542969,0.479675,0.977658,-0.044439,-0.051276,-35.836643,44.750565,31.364893
1732158264.523096,1732158264.527042,121.000000,0.000000,4278.717773,4284.871582,4313.589844,4302.051270,4279.743652,4286.153809,4335.000000,4401.153809,4309.487305,4280.897461,4485.384766,4497.692383,4359.615234,4412.436035,1583.000000,1.000000,21.000000,,,,0.000000,2.000000,2.000000,0.000000,4.000000,2.000000,2.000000,0.000000,0.000000,4.000000,4.000000,4.000000,4.000000,4.000000,4.000000,0.000000,,,,,,,,,,,,,,,,,,,,,,,,,,,,
1732158264.530904,1732158264.535050,122.000000,0.000000,4282.436035,4286.538574,4313.974121,4299.615234,4282.307617,4283.333496,4334.871582,4399.871582,4302.307617,4277.820313,4481.153809,4496.666504,4358.846191,4414.743652,1551.000000,1.000000,21.000000,,,,0.000000,2.000000,2.000000,0.000000,4.000000,2.000000,2.000000,0.000000,0.000000,4.000000,4.000000,4.000000,4.000000,4.000000,4.000000,0.000000,,,,,,,,,,,,,,,,,,,,,,,,,,,,
1732158264.538712,1732158264.542858,123.000000,0.000000,4283.333496,4283.846191,4317.948730,4301.153809,4274.230957,4287.179688,4334.615234,4400.897461,4297.692383,4273.205078,4480.000000,4501.666504,4358.333496,4417.436035,1551.000000,1.000000,21.000000,,,,0.000000,2.000000,2.000000,0.000000,4.000000,2.000000,2.000000,0.000000,0.000000,4.000000,4.000000,4.000000,4.000000,4.000000,4.000000,0.000000,,,,,,,,,,,,,,,,,,,,,,,,,,,,
1732158264.546521,1732158264.550766,124.000000,0.000000,4279.230957,4283.589844,4319.230957,4307.179688,4286.922852,4286.666504,4335.384766,4400.897461,4296.794922,4271.025879,4477.563965,4505.512695,4357.820313,4417.820313,1706.000000,1.000000,21.000000,,,,0.000000,2.000000,2.000000,0.000000,4.000000,2.000000,2.000000,0.000000,0.000000,4.000000,4.000000,4.000000,4.000000,4.000000,4.000000,0.000000,,,,,,,,,,,,,,,,,31.000000,0.000000,0.498739,0.475769,-0.542969,0.479675,0.977658,-0.044439,-0.051276,-36.216015,44.892956,31.200563
1732158264.554329,1732158264.558574,125.000000,0.000000,4279.743652,4289.615234,4317.948730,4306.538574,4302.179688,4279.743652,4336.538574,4400.897461,4305.256348,4277.051270,4481.410156,4506.282227,4356.282227,4416.025879,1583.000000,1.000000,21.000000,,,,0.000000,2.000000,2.000000,0.000000,4.000000,2.000000,2.000000,0.000000,0.000000,4.000000,4.000000,4.000000,4.000000,4.000000,4.000000,0.000000,,,,,,,,,,,,,,,,,,,,,,,,,,,,
1732158264.562137,1732158264.566582,126.000000,0.000000,4283.461426,4293.589844,4317.948730,4301.666504,4280.769043,4284.615234,4336.282227,4400.512695,4314.230957,4281.794922,4488.077148,4507.692383,4359.487305,4416.410156,1551.000000,1.000000,21.000000,,,,0.000000,2.000000,2.000000,0.000000,4.000000,2.000000,2.000000,0.000000,0.000000,4.000000,4.000000,4.000000,4.000000,4.000000,4.000000,0.000000,,,,,,,,,,,,,,,,,,,,,,,,,,,,
1732158264.569945,1732158264.574390,127.000000,0.000000,4280.897461,4290.897461,4318.205078,4303.205078,4256.025879,4295.128418,4335.641113,4400.512695,4312.051270,4280.769043,4488.717773,4501.538574,4362.948730,4415.512695,21.000000,1.000000,21.000000,,,,0.000000,2.000000,2.000000,0.000000,4.000000,2.000000,2.000000,0.000000,0.000000,4.000000,4.000000,4.000000,4.000000,4.000000,4.000000,0.000000,,,,,,,,,,,,,,,,,,,,,,,,,,,,
1732158264.577754,1732158264.582099,0.000000,0.000000,4276.794922,4287.563965,4318.333496,4303.461426,4267.051270,4288.589844,4335.641113,4402.563965,4311.282227,4280.769043,4487.563965,4492.436035,4360.897461,4412.051270,0.000000,1.000000,21.000000,,,,0.000000,2.000000,2.000000,0.000000,4.000000,2.000000,2.000000,0.000000,0.000000,4.000000,4.000000,4.000000,4.000000,4.000000,4.000000,0.000000,,,,,,,,,,,,,,,,,0.000000,0.000000,0.498411,0.475952,-0.542786,0.480042,0.972775,-0.053229,-0.028812,-36.046638,44.821629,31.059122
1732158264.585562,1732158264.589907,1.000000,0.000000,4277.820313,4289.487305,4318.717773,4299.230957,4284.487305,4279.230957,4336.025879,4403.461426,4312.436035,4281.538574,4489.102539,4491.922852,4361.025879,4410.641113,1601.000000,1.000000,21.000000,,,,0.000000,2.000000,2.000000,0.000000,4.000000,2.000000,2.000000,0.000000,0.000000,4.000000,4.000000,4.000000,4.000000,4.000000,4.000000,0.000000,,,,,,,,,,,,,,,,,,,,,,,,,,,,
1732158264.593370,1732158264.597515,2.000000,0.000000,4280.512695,4287.307617,4320.000000,4299.743652,4274.743652,4281.025879,4335.512695,4403.205078,4305.128418,4279.358887,4487.820313,4500.641113,4361.153809,4412.563965,1359.000000,1.000000,21.000000,,,,0.000000,2.000000,2.000000,0.000000,4.000000,2.000000,2.000000,0.000000,0.000000,4.000000,4.000000,4.000000,4.000000,4.000000,4.000000,0.000000,,,,,,,,,,,,,,,,,,,,,,,,,,,,
1732158264.601179,1732158264.605324,3.000000,0.000000,4279.871582,4281.794922,4318.461426,4300.384766,4270.897461,4284.871582,4334.871582,4403.333496,4301.025879,4278.589844,4483.461426,4506.922852,4357.179688,4414.487305,1431.000000,1.000000,21.000000,,,,0.000000,2.000000,2.000000,0.000000,4.000000,2.000000,2.000000,0.000000,0.000000,4.000000,4.000000,4.000000,4.000000,4.000000,4.000000,0.000000,,,,,,,,,,,,,,,,,,,,,,,,,,,,
1732158264.608987,1732158264.613232,4.000000,0.000000,4278.077148,4281.153809,4316.922852,4299.743652,4292.436035,4286.666504,4334.743652,4403.077148,4306.794922,4280.000000,4485.256348,4506.538574,4356.538574,4411.025879,1421.000000,1.000000,21.000000,,,,0.000000,2.000000,2.000000,0.000000,4.000000,2.000000,2.000000,0.000000,0.000000,4.000000,4.000000,4.000000,4.000000,4.000000,4.000000,0.000000,,,,,,,,,,,,,,,,,1.000000,0.000000,0.498410,0.475891,-0.542786,0.480103,0.970822,-0.054694,-0.042486,-35.979443,44.655518,30.861223
1732158264.616795,1732158264.621040,5.000000,0.000000,4276.666504,4282.820313,4318.077148,4304.358887,4293.974121,4292.820313,4335.000000,4402.307617,4310.641113,4282.436035,4488.333496,4506.410156,4357.563965,4404.487305,1207.000000,1.000000,21.000000,,,,0.000000,2.000000,2.000000,0.000000,4.000000,2.000000,2.000000,0.000000,0.000000,4.000000,4.000000,4.000000,4.000000,4.000000,4.000000,0.000000,,,,,,,,,,,,,,,,,,,,,,,,,,,,
1732158264.624603,1732158264.629048,6.000000,0.000000,4275.897461,4281.282227,4320.384766,4304.743652,4268.589844,4293.333496,4334.871582,4400.769043,4310.128418,4282.948730,4483.717773,4506.410156,4353.974121,4405.128418,0.000000,1.000000,21.000000,,,,0.000000,2.000000,2.000000,0.000000,4.000000,2.000000,2.000000,0.000000,0.000000,4.000000,4.000000,4.000000,4.000000,4.000000,4.000000,0.000000,,,,,,,,,,,,,,,,,,,,,,,,,,,,
1732158264.632411,1732158264.636856,7.000000,0.000000,4277.820313,4278.589844,4320.641113,4299.230957,4261.794922,4283.461426,4334.871582,4400.897461,4308.205078,4281.153809,4480.512695,4501.666504,4354.743652,4411.410156,0.000000,1.000000,21.000000,,,,0.000000,2.000000,2.000000,0.000000,4.000000,2.000000,2.000000,0.000000,0.000000,4.000000,4.000000,4.000000,4.000000,4.000000,4.000000,0.000000,,,,,,,,,,,,,,,,,,,,,,,,,,,,
1732158264.640220,1732158264.644764,8.000000,0.000000,4279.615234,4279.743652,4320.000000,4301.410156,4272.692383,4278.077148,4334.871582,4401.282227,4310.384766,4282.307617,4487.179688,4497.307617,4361.282227,4412.948730,1538.000000,1.000000,21.000000,,,,0.000000,2.000000,2.000000,0.000000,4.000000,2.000000,2.000000,0.000000,0.000000,4.000000,4.000000,4.000000,4.000000,4.000000,4.000000,0.000000,,,,,,,,,,,,,,,,,2.000000,0.000000,0.498335,0.475769,-0.542908,0.480164,0.990844,-0.050299,-0.045904,-35.906681,44.650970,31.035923
1732158264.648028,1732158264.652572,9.000000,0.000000,4280.897461,4287.948730,4318.717773,4307.820313,4272.820313,4282.051270,4334.871582,4399.615234,4313.974121,4283.717773,4491.153809,4501.153809,4361.025879,4410.897461,1695.000000,1.000000,21.000000,,,,0.000000,2.000000,2.000000,0.000000,4.000000,2.000000,2.000000,0.000000,0.000000,4.000000,4.000000,4.000000,4.000000,4.000000,4.000000,0.000000,,,,,,,,,,,,,,,,,,,,,,,,,,,,
1732158264.655836,1732158264.660580,10.000000,0.000000,4282.948730,4290.897461,4316.538574,4303.846191,4274.102539,4284.102539,4334.871582,4403.077148,4305.641113,4278.333496,4486.153809,4508.333496,4354.871582,4412.948730,1551.000000,1.000000,21.000000,,,,0.000000,2.000000,2.000000,0.000000,4.000000,2.000000,2.000000,0.000000,0.000000,4.000000,4.000000,4.000000,4.000000,4.000000,4.000000,0.000000,,,,,,,,,,,,,,,,,,,,,,,,,,,,
1732158264.663644,1732158264.668389,11.000000,0.000000,4283.974121,4282.692383,4317.436035,4298.461426,4279.358887,4279.230957,4334.871582,4406.666504,4297.948730,4273.846191,4486.666504,4514.102539,4354.358887,4416.410156,1551.000000,1.000000,21.000000,,,,0.000000,2.000000,2.000000,0.000000,4.000000,2.000000,2.000000,0.000000,0.000000,4.000000,4.000000,4.000000,4.000000,4.000000,4.000000,0.000000,,,,,,,,,,,,,,,,,,,,,,,,,,,,
1732158264.671453,1732158264.676297,12.000000,0.000000,4282.051270,4278.717773,4318.333496,4299.871582,4280.256348,4281.922852,4334.871582,4402.820313,4303.333496,4277.948730,4490.512695,4512.563965,4358.974121,4415.128418,1705.000000,1.000000,21.000000,,,,0.000000,2.000000,2.000000,0.000000,4.000000,2.000000,2.000000,0.000000,0.000000,4.000000,4.000000,4.000000,4.000000,4.000000,4.000000,0.000000,,,,,,,,,,,,,,,,,3.000000,0.000000,0.498276,0.475769,-0.542908,0.480225,0.982542,-0.058113,-0.042974,-35.892746,44.527287,30.997431
1732158264.679261,1732158264.684105,13.000000,0.000000,4277.692383,4280.512695,4316.922852,4299.487305,4285.769043,4290.384766,4334.871582,4400.641113,4301.410156,4279.358887,4485.256348,4504.615234,4355.000000,4407.692383,1589.000000,1.000000,21.000000,,,,0.000000,2.000000,2.000000,0.000000,4.000000,2.000000,2.000000,0.000000,0.000000,4.000000,4.000000,4.000000,4.000000,4.000000,4.000000,0.000000,,,,,,,,,,,,,,,,,,,,,,,,,,,,
1732158264.687069,1732158264.692113,14.000000,0.000000,4277.692383,4281.153809,4317.563965,4299.615234,4281.282227,4290.641113,4334.871582,4402.692383,4296.794922,4276.538574,4477.436035,4504.230957,4348.589844,4403.333496,1551.000000,1.000000,21.000000,,,,0.000000,2.000000,2.000000,0.000000,4.000000,2.000000,2.000000,0.000000,0.000000,4.000000,4.000000,4.000000,4.000000,4.000000,4.000000,0.000000,1.000000,0.000000,2.000000,2.000000,0.000000,4.000000,2.000000,2.000000,0.000000,0.000000,4.000000,1.000000,4.000000,4.000000,4.000000,4.000000,,,,,,,,,,,,
1732158264.694878,1732158264.699921,15.000000,0.000000,4280.128418,4281.025879,4318.974121,4298.717773,4279.358887,4282.948730,4334.871582,4402.051270,4305.000000,4280.769043,4476.153809,4505.256348,4355.000000,4407.948730,1551.000000,1.000000,21.000000,,,,0.000000,2.000000,2.000000,0.000000,4.000000,2.000000,2.000000,0.000000,0.000000,4.000000,4.000000,4.000000,4.000000,4.000000,4.000000,0.000000,,,,,,,,,,,,,,,,,,,,,,,,,,,,
1732158264.702686,1732158264.707829,16.000000,0.000000,4279.102539,4280.256348,4318.333496,4294.358887,4293.589844,4278.077148,4334.871582,4401.025879,4306.794922,4283.461426,4481.794922,4497.179688,4360.641113,4411.153809,0.000000,1.000000,21.000000,,,,0.000000,2.000000,2.000000,0.000000,4.000000,2.000000,2.000000,0.000000,0.000000,4.000000,4.000000,4.000000,4.000000,4.000000,4.000000,0.000000,,,,,,,,,,,,,,,,,4.000000,0.000000,0.498167,0.475830,-0.542847,0.480347,0.978635,-0.038091,-0.035649,-35.881458,44.593769,30.996254
1732158264.710494,1732158264.715637,17.000000,0.000000,4278.717773,4279.358887,4317.820313,4298.077148,4286.538574,4280.384766,4334.871582,4403.077148,4301.538574,4281.282227,4487.307617,4498.333496,4356.666504,4410.769043,0.000000,1.000000,21.000000,,,,0.000000,2.000000,2.000000,0.000000,4.000000,2.000000,2.000000,0.000000,0.000000,4.000000,4.000000,4.000000,4.000000,4.000000,4.000000,0.000000,,,,,,,,,,,,,,,,,,,,,,,,,,,,
1732158264.718302,1732158264.723246,18.000000,0.000000,4285.128418,4284.487305,4318.205078,4307.307617,4265.384766,4284.230957,4334.871582,4402.307617,4310.769043,4283.846191,4490.512695,4514.871582,4360.384766,4413.077148,0.000000,1.000000,21.000000,,,,0.000000,2.000000,2.000000,0.000000,4.000000,2.000000,2.000000,0.000000,0.000000,4.000000,4.000000,4.000000,4.000000,4.000000,4.000000,0.000000,,,,,,,,,,,,,,,,,,,,,,,,,,,,
1732158264.726110,1732158264.731054,19.000000,0.000000,4287.436035,4289.487305,4318.589844,4306.410156,4267.307617,4283.589844,4334.871582,4401.666504,4313.846191,4284.615234,4491.794922,4523.589844,4364.743652,4415.256348,0.000000,1.000000,21.000000,,,,0.000000,2.000000,2.000000,0.000000,4.000000,2.000000,2.000000,0.000000,0.000000,4.000000,4.000000,4.000000,4.000000,4.000000,4.000000,0.000000,,,,,,,,,,,,,,,,,,,,,,,,,,,,
1732158264.733919,1732158264.738762,20.000000,0.000000,4283.077148,4288.077148,4317.820313,4302.820313,4278.846191,4280.128418,4334.871582,4400.512695,4302.820313,4281.025879,4490.897461,4521.282227,4357.179688,4415.512695,0.000000,1.000000,21.000000,,,,0.000000,2.000000,2.000000,0.000000,4.000000,2.000000,2.000000,0.000000,0.000000,4.000000,4.000000,4.000000,4.000000,4.000000,4.000000,0.000000,,,,,,,,,,,,,,,,,5.000000,0.000000,0.498050,0.475891,-0.542847,0.480408,0.968380,-0.039067,-0.040044,-35.760647,44.619286,31.015299
1732158264.741727,1732158264.746571,21.000000,0.000000,4286.538574,4287.820313,4318.461426,4305.000000,4276.922852,4279.230957,4334.871582,4399.743652,4305.769043,4281.922852,4490.769043,4522.820313,4353.589844,4416.410156,0.000000,1.000000,21.000000,,,,0.000000,2.000000,2.000000,0.000000,4.000000,2.000000,2.000000,0.000000,0.000000,4.000000,4.000000,4.000000,4.000000,4.000000,4.000000,0.000000,,,,,,,,,,,,,,,,,,,,,,,,,,,,
1732158264.749535,1732158264.754179,22.000000,0.000000,4290.384766,4288.974121,4321.538574,4304.358887,4277.179688,4280.512695,4334.871582,4403.846191,4315.128418,4285.256348,4490.256348,4519.743652,4357.179688,4415.000000,0.000000,1.000000,21.000000,,,,0.000000,2.000000,2.000000,0.000000,4.000000,2.000000,2.000000,0.000000,0.000000,4.000000,4.000000,4.000000,4.000000,4.000000,4.000000,0.000000,,,,,,,,,,,,,,,,,,,,,,,,,,,,
1732158264.757343,1732158264.761987,23.000000,0.000000,4284.102539,4286.153809,4322.307617,4303.205078,4277.948730,4283.333496,4334.871582,4405.512695,4306.666504,4282.179688,4485.769043,4509.230957,4354.102539,4412.436035,0.000000,1.000000,21.000000,,,,0.000000,2.000000,2.000000,0.000000,4.000000,2.000000,2.000000,0.000000,0.000000,4.000000,4.000000,4.000000,4.000000,4.000000,4.000000,0.000000,,,,,,,,,,,,,,,,,,,,,,,,,,,,
1732158264.765152,1732158264.769895,24.000000,0.000000,4280.641113,4281.666504,4318.077148,4305.000000,4283.846191,4284.358887,4334.871582,4402.051270,4294.358887,4271.794922,4479.487305,4506.922852,4350.256348,4410.384766,0.000000,1.000000,21.000000,,,,0.000000,2.000000,2.000000,0.000000,4.000000,2.000000,2.000000,0.000000,0.000000,4.000000,4.000000,4.000000,4.000000,4.000000,4.000000,0.000000,,,,,,,,,,,,,,,,,6.000000,0.000000,0.498050,0.475891,-0.542847,0.480408,0.973263,-0.049322,-0.046881,-35.722790,44.744953,31.120726
1732158264.772960,1732158264.777704,25.000000,0.000000,4282.436035,4280.512695,4317.820313,4301.922852,4298.205078,4281.025879,4334.871582,4400.384766,4294.743652,4265.384766,4473.717773,4508.333496,4346.922852,4405.512695,0.000000,1.000000,21.000000,,,,0.000000,2.000000,2.000000,0.000000,4.000000,2.000000,2.000000,0.000000,0.000000,4.000000,4.000000,4.000000,4.000000,4.000000,4.000000,0.000000,,,,,,,,,,,,,,,,,,,,,,,,,,,,
1732158264.780768,1732158264.785312,26.000000,0.000000,4278.077148,4280.897461,4319.615234,4296.666504,4285.769043,4282.436035,4334.871582,4399.615234,4297.436035,4265.000000,4470.128418,4502.179688,4340.641113,4398.717773,0.000000,1.000000,21.000000,,,,0.000000,2.000000,2.000000,0.000000,4.000000,2.000000,2.000000,0.000000,0.000000,4.000000,4.000000,4.000000,4.000000,4.000000,4.000000,0.000000,,,,,,,,,,,,,,,,,,,,,,,,,,,,
1732158264.788576,1732158264.793120,27.000000,0.000000,4273.205078,4281.025879,4317.820313,4295.512695,4258.974121,4285.897461,4334.871582,4399.743652,4296.794922,4264.615234,4469.487305,4500.512695,4341.025879,4399.871582,0.000000,1.000000,21.000000,,,,0.000000,2.000000,2.000000,0.000000,4.000000,2.000000,2.000000,0.000000,0.000000,4.000000,4.000000,4.000000,4.000000,4.000000,4.000000,0.000000,,,,,,,,,,,,,,,,,,,,,,,,,,,,
1732158264.796385,1732158264.800829,28.000000,0.000000,4277.692383,4282.563965,4317.179688,4296.153809,4259.871582,4282.948730,4334.871582,4402.948730,4297.436035,4268.205078,4477.436035,4508.717773,4349.487305,4408.333496,0.000000,1.000000,21.000000,,,,0.000000,2.000000,2.000000,0.000000,4.000000,2.000000,2.000000,0.000000,0.000000,4.000000,4.000000,4.000000,4.000000,4.000000,4.000000,0.000000,,,,,,,,,,,,,,,,,7.000000,0.000000,0.498033,0.475708,-0.542969,0.480469,0.988890,-0.048834,-0.029789,-35.827126,44.761745,31.046120
1732158264.804193,1732158264.808637,29.000000,0.000000,4284.615234,4283.974121,4319.358887,4298.974121,4274.871582,4277.307617,4334.871582,4404.102539,4295.897461,4276.538574,4488.974121,4512.563965,4355.769043,4413.589844,0.000000,1.000000,21.000000,,,,0.000000,2.000000,2.000000,0.000000,4.000000,2.000000,2.000000,0.000000,0.000000,4.000000,4.000000,4.000000,4.000000,4.000000,4.000000,0.000000,,,,,,,,,,,,,,,,,,,,,,,,,,,,
1732158264.812001,1732158264.816245,30.000000,0.000000,4287.948730,4290.128418,4318.461426,4302.820313,4271.025879,4276.538574,4334.871582,4400.769043,4297.692383,4280.769043,4490.769043,4511.922852,4357.692383,4414.871582,0.000000,1.000000,21.000000,,,,0.000000,2.000000,2.000000,0.000000,4.000000,2.000000,2.000000,0.000000,0.000000,4.000000,4.000000,4.000000,4.000000,4.000000,4.000000,0.000000,,,,,,,,,,,,,,,,,,,,,,,,,,,,
1732158264.819810,1732158264.824053,31.000000,0.000000,4286.282227,4292.820313,4316.666504,4300.641113,4276.922852,4278.974121,4334.615234,4399.871582,4307.820313,4280.256348,4487.307617,4511.794922,4358.974121,4414.615234,0.000000,1.000000,21.000000,,,,0.000000,2.000000,2.000000,0.000000,4.000000,2.000000,2.000000,0.000000,0.000000,4.000000,4.000000,4.000000,4.000000,4.000000,4.000000,0.000000,,,,,,,,,,,,,,,,,,,,,,,,,,,,
1732158264.827618,1732158264.831762,32.000000,0.000000,4283.077148,4287.563965,4317.179688,4296.025879,4297.179688,4280.128418,4334.615234,4401.282227,4306.538574,4281.153809,4487.179688,4508.589844,4355.641113,4412.948730,0.000000,1.000000,21.000000,,,,0.000000,2.000000,2.000000,0.000000,4.000000,2.000000,2.000000,0.000000,0.000000,4.000000,4.000000,4.000000,4.000000,4.000000,4.000000,0.000000,,,,,,,,,,,,,,,,,8.000000,0.000000,0.497849,0.475769,-0.543030,0.480530,0.972775,-0.059578,-0.036137,-35.969975,44.925346,30.977358
1732158264.835426,1732158264.839570,33.000000,0.000000,4281.666504,4286.025879,4318.846191,4298.333496,4286.538574,4280.769043,4335.641113,4403.846191,4297.948730,4279.615234,4488.717773,4508.589844,4350.769043,4411.410156,0.000000,1.000000,21.000000,,,,0.000000,2.000000,2.000000,0.000000,4.000000,2.000000,2.000000,0.000000,0.000000,4.000000,4.000000,4.000000,4.000000,4.000000,4.000000,0.000000,,,,,,,,,,,,,,,,,,,,,,,,,,,,
1732158264.843234,1732158264.847178,34.000000,0.000000,4281.153809,4286.922852,4320.512695,4300.384766,4264.615234,4282.179688,4334.358887,4402.820313,4303.846191,4277.436035,4489.743652,4510.000000,4352.436035,4411.794922,0.000000,1.000000,21.000000,,,,0.000000,2.000000,2.000000,0.000000,4.000000,2.000000,2.000000,0.000000,0.000000,4.000000,4.000000,4.000000,4.000000,4.000000,4.000000,0.000000,,,,,,,,,,,,,,,,,,,,,,,,,,,,
1732158264.851042,1732158264.854986,35.000000,0.000000,4281.538574,4284.358887,4318.589844,4301.282227,4272.436035,4283.461426,4334.230957,4399.743652,4313.205078,4284.358887,4490.512695,4508.974121,4357.051270,4413.333496,0.000000,1.000000,21.000000,,,,0.000000,2.000000,2.000000,0.000000,4.000000,2.000000,2.000000,0.000000,0.000000,4.000000,4.000000,4.000000,4.000000,4.000000,4.000000,0.000000,,,,,,,,,,,,,,,,,,,,,,,,,,,,
1732158264.858851,1732158264.862895,36.000000,0.000000,4282.948730,4286.794922,4318.846191,4303.077148,4281.666504,4283.333496,4339.743652,4403.333496,4312.179688,4290.000000,4490.384766,4514.230957,4359.102539,4415.897461,0.000000,1.000000,21.000000,,,,0.000000,2.000000,2.000000,0.000000,4.000000,2.000000,2.000000,0.000000,0.000000,4.000000,4.000000,4.000000,4.000000,4.000000,4.000000,0.000000,,,,,,,,,,,,,,,,,9.000000,0.000000,0.497748,0.475891,-0.542908,0.480652,0.982542,-0.052741,-0.040044,-35.937344,45.059532,31.014994
1732158264.866659,1732158264.870703,37.000000,0.000000,4282.692383,4291.666504,4320.769043,4298.589844,4278.205078,4282.436035,4340.384766,4405.512695,4310.897461,4284.230957,4490.256348,4515.000000,4357.820313,4416.282227,0.000000,1.000000,21.000000,,,,0.000000,2.000000,2.000000,0.000000,4.000000,2.000000,2.000000,0.000000,0.000000,4.000000,4.000000,4.000000,4.000000,4.000000,4.000000,0.000000,,,,,,,,,,,,,,,,,,,,,,,,,,,,
1732158264.874467,1732158264.878711,38.000000,0.000000,4280.512695,4290.769043,4319.230957,4296.282227,4291.025879,4280.256348,4334.743652,4400.512695,4305.128418,4276.666504,4486.922852,4506.410156,4354.358887,4412.179688,0.000000,1.000000,21.000000,,,,0.000000,2.000000,2.000000,0.000000,4.000000,2.000000,2.000000,0.000000,0.000000,4.000000,4.000000,4.000000,4.000000,4.000000,4.000000,0.000000,,,,,,,,,,,,,,,,,,,,,,,,,,,,
1732158264.882275,1732158264.886519,39.000000,0.000000,4280.512695,4290.384766,4317.692383,4301.922852,4289.743652,4281.153809,4334.230957,4398.717773,4296.153809,4276.666504,4477.307617,4504.871582,4348.846191,4409.230957,0.000000,1.000000,21.000000,,,,0.000000,2.000000,2.000000,0.000000,4.000000,2.000000,2.000000,0.000000,0.000000,4.000000,4.000000,4.000000,4.000000,4.000000,4.000000,0.000000,,,,,,,,,,,,,,,,,,,,,,,,,,,,
1732158264.890084,1732158264.894227,40.000000,0.000000,4282.051270,4289.358887,4320.000000,4302.179688,4263.974121,4285.769043,4336.794922,4401.922852,4300.256348,4277.563965,4475.128418,4509.230957,4348.461426,4411.666504,0.000000,1.000000,21.000000,,,,0.000000,2.000000,2.000000,0.000000,4.000000,2.000000,2.000000,0.000000,0.000000,4.000000,4.000000,4.000000,4.000000,4.000000,4.000000,0.000000,,,,,,,,,,,,,,,,,10.000000,0.000000,0.497731,0.475769,-0.543030,0.480652,0.982542,-0.052741,-0.040044,-36.107582,44.889889,31.170477
1732158264.897892,1732158264.902036,41.000000,0.000000,4281.153809,4286.538574,4319.871582,4297.179688,4264.487305,4282.948730,4335.256348,4401.410156,4306.794922,4276.538574,4485.384766,4505.641113,4356.025879,4412.948730,0.000000,1.000000,21.000000,,,,0.000000,2.000000,2.000000,0.000000,4.000000,2.000000,2.000000,0.000000,0.000000,4.000000,4.000000,4.000000,4.000000,4.000000,4.000000,0.000000,,,,,,,,,,,,,,,,,,,,,,,,,,,,
