title:4six, start timestamp:1732158307.905742, stop timestamp:1732158358.909236, headset type:EPOCX, headset serial:E5020C3A, headset firmware:730, channels:67, sampling rate:eeg_128;mot_32, samples:6533      , version:2.2, 
Timestamp,OriginalTimestamp,EEG.Counter,EEG.Interpolated,EEG.AF3,EEG.F7,EEG.F3,EEG.FC5,EEG.T7,EEG.P7,EEG.O1,EEG.O2,EEG.P8,EEG.T8,EEG.FC6,EEG.F4,EEG.F8,EEG.AF4,EEG.RawCq,EEG.Battery,EEG.BatteryPercent,MarkerIndex,MarkerType,MarkerValueInt,EEG.MarkerHardware,CQ.AF3,CQ.F7,CQ.F3,CQ.FC5,CQ.T7,CQ.P7,CQ.O1,CQ.O2,CQ.P8,CQ.T8,CQ.FC6,CQ.F4,CQ.F8,CQ.AF4,CQ.Overall,EQ.SampleRateQuality,EQ.OVERALL,EQ.AF3,EQ.F7,EQ.F3,EQ.FC5,EQ.T7,EQ.P7,EQ.O1,EQ.O2,EQ.P8,EQ.T8,EQ.FC6,EQ.F4,EQ.F8,EQ.AF4,MOT.CounterMems,MOT.InterpolatedMems,MOT.Q0,MOT.Q1,MOT.Q2,MOT.Q3,MOT.AccX,MOT.AccY,MOT.AccZ,MOT.MagX,MOT.MagY,MOT.MagZ
1732158307.905742,1732158307.908149,45.000000,0.000000,4294.615234,4277.563965,4305.512695,4297.307617,4284.358887,4283.974121,4333.589844,4401.153809,4302.563965,4289.615234,4489.102539,4522.692383,4351.025879,4426.025879,0.000000,1.000000,21.000000,,,,0.000000,2.000000,2.000000,0.000000,4.000000,2.000000,2.000000,0.000000,0.000000,4.000000,4.000000,4.000000,4.000000,4.000000,4.000000,0.000000,,,,,,,,,,,,,,,,,,,,,,,,,,,,
1732158307.913551,1732158307.916157,46.000000,0.000000,4294.102539,4278.333496,4303.717773,4297.436035,4285.512695,4285.897461,4336.794922,4400.769043,4310.384766,4296.922852,4488.846191,4521.794922,4353.461426,4421.922852,0.000000,1.000000,21.000000,,,,0.000000,2.000000,2.000000,0.000000,4.000000,2.000000,2.000000,0.000000,0.000000,4.000000,4.000000,4.000000,4.000000,4.000000,4.000000,0.000000,,,,,,,,,,,,,,,,,,,,,,,,,,,,
1732158307.921359,1732158307.923966,47.000000,0.000000,4292.051270,4272.820313,4300.641113,4297.051270,4281.410156,4282.948730,4333.077148,4398.717773,4310.128418,4293.717773,4488.333496,4521.153809,4350.384766,4416.538574,0.000000,1.000000,21.000000,,,,0.000000,2.000000,2.000000,0.000000,4.000000,2.000000,2.000000,0.000000,0.000000,4.000000,4.000000,4.000000,4.000000,4.000000,4.000000,0.000000,,,,,,,,,,,,,,,,,,,,,,,,,,,,
1732158307.929167,1732158307.931674,48.000000,0.000000,4286.153809,4269.102539,4298.205078,4297.436035,4279.102539,4281.922852,4329.871582,4398.589844,4307.179688,4291.666504,4488.205078,4523.846191,4349.230957,4413.717773,0.000000,1.000000,21.000000,,,,0.000000,2.000000,2.000000,0.000000,4.000000,2.000000,2.000000,0.000000,0.000000,4.000000,4.000000,4.000000,4.000000,4.000000,4.000000,0.000000,,,,,,,,,,,,,,,,,12.000000,0.000000,0.517719,0.509521,-0.501709,0.469727,0.970333,0.020022,-0.017580,-34.145863,46.157959,31.018650
1732158307.936975,1732158307.939482,49.000000,0.000000,4283.461426,4274.487305,4299.102539,4296.538574,4280.384766,4283.205078,4332.179688,4400.128418,4309.102539,4292.051270,4488.333496,4522.307617,4350.769043,4414.358887,0.000000,1.000000,21.000000,,,,0.000000,2.000000,2.000000,0.000000,4.000000,2.000000,2.000000,0.000000,0.000000,4.000000,4.000000,4.000000,4.000000,4.000000,4.000000,0.000000,,,,,,,,,,,,,,,,,,,,,,,,,,,,
1732158307.944784,1732158307.947490,50.000000,0.000000,4287.307617,4277.051270,4300.384766,4296.794922,4281.922852,4282.307617,4333.077148,4397.307617,4309.871582,4288.974121,4488.333496,4519.487305,4350.000000,4416.282227,0.000000,1.000000,21.000000,,,,0.000000,2.000000,2.000000,0.000000,4.000000,2.000000,2.000000,0.000000,0.000000,4.000000,4.000000,4.000000,4.000000,4.000000,4.000000,0.000000,,,,,,,,,,,,,,,,,,,,,,,,,,,,
1732158307.952592,1732158307.955298,51.000000,0.000000,4290.256348,4275.641113,4299.230957,4299.871582,4281.410156,4282.179688,4327.563965,4396.025879,4308.205078,4286.282227,4488.077148,4521.538574,4348.589844,4416.025879,0.000000,1.000000,21.000000,,,,0.000000,2.000000,2.000000,0.000000,4.000000,2.000000,2.000000,0.000000,0.000000,4.000000,4.000000,4.000000,4.000000,4.000000,4.000000,0.000000,,,,,,,,,,,,,,,,,,,,,,,,,,,,
1732158307.960400,1732158307.963206,52.000000,0.000000,4290.769043,4279.358887,4297.563965,4302.948730,4281.538574,4282.692383,4322.179688,4398.333496,4306.794922,4288.974121,4488.205078,4519.102539,4349.102539,4413.974121,0.000000,1.000000,21.000000,,,,0.000000,2.000000,2.000000,0.000000,4.000000,2.000000,2.000000,0.000000,0.000000,4.000000,4.000000,4.000000,4.000000,4.000000,4.000000,0.000000,,,,,,,,,,,,,,,,,13.000000,0.000000,0.517821,0.509338,-0.502075,0.469421,0.958613,0.042486,-0.020999,-34.094814,46.207947,31.036774
1732158307.968208,1732158307.971015,53.000000,0.000000,4292.820313,4281.538574,4288.974121,4307.563965,4284.102539,4282.436035,4322.820313,4395.897461,4308.717773,4292.179688,4488.589844,4510.641113,4348.717773,4413.846191,0.000000,1.000000,21.000000,,,,0.000000,2.000000,2.000000,0.000000,4.000000,2.000000,2.000000,0.000000,0.000000,4.000000,4.000000,4.000000,4.000000,4.000000,4.000000,0.000000,,,,,,,,,,,,,,,,,,,,,,,,,,,,
1732158307.976017,1732158307.979023,54.000000,0.000000,4292.436035,4279.615234,4278.846191,4310.128418,4285.512695,4283.717773,4321.666504,4388.717773,4310.128418,4289.871582,4487.948730,4506.153809,4348.333496,4414.615234,0.000000,1.000000,21.000000,,,,0.000000,2.000000,2.000000,0.000000,4.000000,2.000000,2.000000,0.000000,0.000000,4.000000,4.000000,4.000000,4.000000,4.000000,4.000000,0.000000,,,,,,,,,,,,,,,,,,,,,,,,,,,,
1732158307.983825,1732158307.986831,55.000000,0.000000,4292.051270,4280.897461,4279.487305,4307.563965,4282.692383,4282.948730,4317.948730,4387.948730,4309.743652,4289.102539,4488.333496,4508.717773,4349.743652,4413.846191,0.000000,1.000000,21.000000,,,,0.000000,2.000000,2.000000,0.000000,4.000000,2.000000,2.000000,0.000000,0.000000,4.000000,4.000000,4.000000,4.000000,4.000000,4.000000,0.000000,,,,,,,,,,,,,,,,,,,,,,,,,,,,
1732158307.991633,1732158307.994739,56.000000,0.000000,4295.384766,4282.692383,4281.153809,4309.230957,4281.794922,4281.282227,4318.461426,4393.205078,4310.641113,4293.974121,4491.282227,4512.436035,4350.512695,4414.871582,0.000000,1.000000,21.000000,,,,0.000000,2.000000,2.000000,0.000000,4.000000,2.000000,2.000000,0.000000,0.000000,4.000000,4.000000,4.000000,4.000000,4.000000,4.000000,0.000000,,,,,,,,,,,,,,,,,14.000000,0.000000,0.518966,0.509766,-0.501770,0.468018,1.000122,0.084483,-0.008790,-34.120132,46.398438,30.984787
1732158307.999441,1732158308.002547,57.000000,0.000000,4296.666504,4281.666504,4279.230957,4312.307617,4282.820313,4281.538574,4319.102539,4393.077148,4310.512695,4294.743652,4491.666504,4509.871582,4349.743652,4414.358887,0.000000,1.000000,21.000000,,,,0.000000,2.000000,2.000000,0.000000,4.000000,2.000000,2.000000,0.000000,0.000000,4.000000,4.000000,4.000000,4.000000,4.000000,4.000000,0.000000,,,,,,,,,,,,,,,,,,,,,,,,,,,,
1732158308.007250,1732158308.010555,58.000000,0.000000,4294.102539,4281.922852,4288.333496,4306.794922,4281.025879,4281.410156,4319.102539,4391.922852,4311.410156,4291.410156,4489.358887,4511.025879,4350.512695,4412.820313,0.000000,1.000000,21.000000,,,,0.000000,2.000000,2.000000,0.000000,4.000000,2.000000,2.000000,0.000000,0.000000,4.000000,4.000000,4.000000,4.000000,4.000000,4.000000,0.000000,,,,,,,,,,,,,,,,,,,,,,,,,,,,
1732158308.015058,1732158308.018363,59.000000,0.000000,4292.948730,4282.179688,4301.282227,4305.000000,4280.128418,4280.128418,4327.563965,4395.897461,4308.846191,4289.358887,4489.487305,4517.179688,4351.282227,4416.410156,0.000000,1.000000,21.000000,,,,0.000000,2.000000,2.000000,0.000000,4.000000,2.000000,2.000000,0.000000,0.000000,4.000000,4.000000,4.000000,4.000000,4.000000,4.000000,0.000000,,,,,,,,,,,,,,,,,,,,,,,,,,,,
1732158308.022866,1732158308.026271,60.000000,0.000000,4296.410156,4281.282227,4301.153809,4310.641113,4281.025879,4279.871582,4332.692383,4398.589844,4304.230957,4285.128418,4491.025879,4515.769043,4350.384766,4418.333496,0.000000,1.000000,21.000000,,,,0.000000,2.000000,2.000000,0.000000,4.000000,2.000000,2.000000,0.000000,0.000000,4.000000,4.000000,4.000000,4.000000,4.000000,4.000000,0.000000,,,,,,,,,,,,,,,,,15.000000,0.000000,0.519665,0.510986,-0.501282,0.466431,1.001587,0.130875,-0.039556,-34.232307,46.536068,31.187677
1732158308.030674,1732158308.034080,61.000000,0.000000,4291.025879,4279.487305,4298.846191,4309.615234,4281.538574,4280.256348,4325.641113,4397.563965,4306.666504,4280.256348,4489.871582,4507.948730,4351.538574,4414.358887,0.000000,1.000000,21.000000,,,,0.000000,2.000000,2.000000,0.000000,4.000000,2.000000,2.000000,0.000000,0.000000,4.000000,4.000000,4.000000,4.000000,4.000000,4.000000,0.000000,,,,,,,,,,,,,,,,,,,,,,,,,,,,
1732158308.038483,1732158308.042088,62.000000,0.000000,4283.589844,4278.717773,4301.922852,4306.153809,4281.794922,4280.000000,4326.025879,4397.051270,4305.000000,4279.743652,4488.333496,4506.538574,4351.025879,4411.794922,0.000000,1.000000,21.000000,,,,0.000000,2.000000,2.000000,0.000000,4.000000,2.000000,2.000000,0.000000,0.000000,4.000000,4.000000,4.000000,4.000000,4.000000,4.000000,0.000000,,,,,,,,,,,,,,,,,,,,,,,,,,,,
1732158308.046291,1732158308.049896,63.000000,0.000000,4283.333496,4278.974121,4299.358887,4307.692383,4281.666504,4282.820313,4331.153809,4397.948730,4296.922852,4277.948730,4488.077148,4509.487305,4344.102539,4411.153809,0.000000,1.000000,21.000000,,,,0.000000,2.000000,2.000000,0.000000,4.000000,2.000000,2.000000,0.000000,0.000000,4.000000,4.000000,4.000000,4.000000,4.000000,4.000000,0.000000,,,,,,,,,,,,,,,,,,,,,,,,,,,,
1732158308.054099,1732158308.057804,64.000000,0.000000,4282.948730,4275.512695,4296.538574,4301.794922,4280.512695,4285.256348,4327.692383,4396.410156,4300.000000,4276.025879,4486.922852,4507.820313,4339.230957,4409.615234,0.000000,1.000000,21.000000,,,,0.000000,2.000000,2.000000,0.000000,4.000000,2.000000,2.000000,0.000000,0.000000,4.000000,4.000000,4.000000,4.000000,4.000000,4.000000,0.000000,,,,,,,,,,,,,,,,,16.000000,0.000000,0.519623,0.511658,-0.501038,0.466003,1.001587,0.130875,-0.039556,-34.219837,46.655880,31.215351
1732158308.061907,1732158308.065612,65.000000,0.000000,4283.077148,4274.871582,4298.333496,4296.794922,4279.358887,4283.205078,4326.153809,4394.871582,4306.666504,4278.333496,4485.897461,4506.153809,4344.358887,4409.230957,1606.000000,1.000000,21.000000,,,,0.000000,2.000000,2.000000,0.000000,4.000000,2.000000,2.000000,0.000000,0.000000,4.000000,4.000000,4.000000,4.000000,4.000000,4.000000,0.000000,,,,,,,,,,,,,,,,,,,,,,,,,,,,
1732158308.069716,1732158308.073620,66.000000,0.000000,4288.846191,4279.230957,4299.871582,4303.461426,4280.128418,4280.512695,4330.000000,4398.077148,4300.897461,4280.000000,4488.461426,4507.307617,4349.487305,4409.358887,1366.000000,1.000000,21.000000,,,,0.000000,2.000000,2.000000,0.000000,4.000000,2.000000,2.000000,0.000000,0.000000,4.000000,4.000000,4.000000,4.000000,4.000000,4.000000,0.000000,,,,,,,,,,,,,,,,,,,,,,,,,,,,
1732158308.077524,1732158308.081428,67.000000,0.000000,4293.717773,4281.794922,4296.153809,4308.461426,4282.307617,4281.025879,4328.717773,4400.000000,4295.384766,4279.487305,4491.153809,4509.230957,4348.589844,4411.153809,1426.000000,1.000000,21.000000,,,,0.000000,2.000000,2.000000,0.000000,4.000000,2.000000,2.000000,0.000000,0.000000,4.000000,4.000000,4.000000,4.000000,4.000000,4.000000,0.000000,,,,,,,,,,,,,,,,,,,,,,,,,,,,
1732158308.085332,1732158308.089237,68.000000,0.000000,4294.230957,4281.922852,4292.948730,4308.589844,4282.563965,4279.743652,4324.871582,4395.000000,4297.692383,4280.000000,4489.871582,4508.333496,4349.230957,4415.128418,1421.000000,1.000000,21.000000,,,,0.000000,2.000000,2.000000,0.000000,4.000000,2.000000,2.000000,0.000000,0.000000,4.000000,4.000000,4.000000,4.000000,4.000000,4.000000,0.000000,,,,,,,,,,,,,,,,,17.000000,0.000000,0.517235,0.513672,-0.502014,0.465393,0.994750,0.074716,-0.031254,-34.309734,46.479599,31.181101
1732158308.093140,1732158308.097045,69.000000,0.000000,4294.358887,4281.922852,4293.717773,4306.153809,4279.487305,4278.333496,4320.897461,4392.692383,4297.436035,4279.358887,4486.794922,4505.256348,4351.666504,4415.128418,1209.000000,1.000000,21.000000,,,,0.000000,2.000000,2.000000,0.000000,4.000000,2.000000,2.000000,0.000000,0.000000,4.000000,4.000000,4.000000,4.000000,4.000000,4.000000,0.000000,,,,,,,,,,,,,,,,,,,,,,,,,,,,
1732158308.100949,1732158308.104653,70.000000,0.000000,4291.922852,4280.384766,4286.794922,4304.615234,4277.563965,4280.769043,4318.589844,4394.102539,4297.948730,4279.102539,4485.769043,4505.128418,4349.743652,4411.666504,0.000000,1.000000,21.000000,,,,0.000000,2.000000,2.000000,0.000000,4.000000,2.000000,2.000000,0.000000,0.000000,4.000000,4.000000,4.000000,4.000000,4.000000,4.000000,0.000000,,,,,,,,,,,,,,,,,,,,,,,,,,,,
1732158308.108757,1732158308.112461,71.000000,0.000000,4291.922852,4280.000000,4276.666504,4308.846191,4279.743652,4281.025879,4319.230957,4389.230957,4297.692383,4280.769043,4486.922852,4504.743652,4347.948730,4409.487305,0.000000,1.000000,21.000000,,,,0.000000,2.000000,2.000000,0.000000,4.000000,2.000000,2.000000,0.000000,0.000000,4.000000,4.000000,4.000000,4.000000,4.000000,4.000000,0.000000,,,,,,,,,,,,,,,,,,,,,,,,,,,,
1732158308.116565,1732158308.120170,72.000000,0.000000,4296.025879,4282.051270,4275.897461,4313.205078,4281.025879,4279.615234,4320.256348,4384.102539,4298.077148,4281.410156,4488.461426,4504.871582,4350.128418,4411.025879,1533.000000,1.000000,21.000000,,,,0.000000,2.000000,2.000000,0.000000,4.000000,2.000000,2.000000,0.000000,0.000000,4.000000,4.000000,4.000000,4.000000,4.000000,4.000000,0.000000,,,,,,,,,,,,,,,,,18.000000,0.000000,0.515855,0.512939,-0.504517,0.465027,0.971310,0.050299,-0.051764,-34.302551,46.376808,31.110025
1732158308.124373,1732158308.127978,73.000000,0.000000,4295.769043,4281.794922,4277.948730,4312.436035,4280.769043,4281.025879,4320.769043,4386.666504,4302.307617,4280.641113,4487.948730,4507.051270,4348.461426,4414.615234,1696.000000,1.000000,21.000000,,,,0.000000,2.000000,2.000000,0.000000,4.000000,2.000000,2.000000,0.000000,0.000000,4.000000,4.000000,4.000000,4.000000,4.000000,4.000000,0.000000,,,,,,,,,,,,,,,,,,,,,,,,,,,,
1732158308.132182,1732158308.135586,74.000000,0.000000,4296.282227,4284.358887,4277.051270,4313.589844,4281.666504,4282.179688,4319.102539,4389.487305,4305.897461,4284.102539,4487.563965,4507.563965,4347.563965,4415.512695,1556.000000,1.000000,21.000000,,,,0.000000,2.000000,2.000000,0.000000,4.000000,2.000000,2.000000,0.000000,0.000000,4.000000,4.000000,4.000000,4.000000,4.000000,4.000000,0.000000,,,,,,,,,,,,,,,,,,,,,,,,,,,,
1732158308.139990,1732158308.143395,75.000000,0.000000,4297.436035,4287.948730,4282.563965,4315.641113,4283.077148,4281.410156,4319.230957,4387.563965,4303.717773,4287.307617,4490.128418,4507.948730,4350.769043,4413.717773,1561.000000,1.000000,21.000000,,,,0.000000,2.000000,2.000000,0.000000,4.000000,2.000000,2.000000,0.000000,0.000000,4.000000,4.000000,4.000000,4.000000,4.000000,4.000000,0.000000,,,,,,,,,,,,,,,,,,,,,,,,,,,,
1732158308.147798,1732158308.151303,76.000000,0.000000,4296.410156,4284.102539,4287.307617,4312.563965,4283.077148,4281.666504,4322.820313,4387.436035,4298.461426,4281.922852,4485.384766,4509.358887,4347.051270,4411.410156,1703.000000,1.000000,21.000000,,,,0.000000,2.000000,2.000000,0.000000,4.000000,2.000000,2.000000,0.000000,0.000000,4.000000,4.000000,4.000000,4.000000,4.000000,4.000000,0.000000,,,,,,,,,,,,,,,,,19.000000,0.000000,0.515136,0.512329,-0.505981,0.464905,0.949335,0.042486,-0.056648,-34.238400,46.285213,31.189121
1732158308.155606,1732158308.159111,77.000000,0.000000,4297.179688,4280.256348,4287.179688,4309.487305,4281.153809,4281.538574,4326.282227,4391.794922,4296.410156,4278.461426,4482.692383,4509.487305,4341.666504,4411.922852,1584.000000,1.000000,21.000000,,,,0.000000,2.000000,2.000000,0.000000,4.000000,2.000000,2.000000,0.000000,0.000000,4.000000,4.000000,4.000000,4.000000,4.000000,4.000000,0.000000,,,,,,,,,,,,,,,,,,,,,,,,,,,,
1732158308.163415,1732158308.166719,78.000000,0.000000,4298.846191,4282.051270,4290.897461,4309.358887,4278.974121,4280.128418,4326.666504,4393.077148,4297.563965,4285.256348,4488.333496,4510.128418,4348.333496,4415.512695,1556.000000,1.000000,21.000000,,,,0.000000,2.000000,2.000000,0.000000,4.000000,2.000000,2.000000,0.000000,0.000000,4.000000,4.000000,4.000000,4.000000,4.000000,4.000000,0.000000,1.000000,0.000000,2.000000,2.000000,0.000000,4.000000,2.000000,2.000000,0.000000,0.000000,4.000000,4.000000,4.000000,4.000000,4.000000,4.000000,,,,,,,,,,,,
1732158308.171223,1732158308.174527,79.000000,0.000000,4296.538574,4280.769043,4296.794922,4306.666504,4278.461426,4279.230957,4326.666504,4390.000000,4297.051270,4291.282227,4484.871582,4509.743652,4351.794922,4417.307617,1561.000000,1.000000,21.000000,,,,0.000000,2.000000,2.000000,0.000000,4.000000,2.000000,2.000000,0.000000,0.000000,4.000000,4.000000,4.000000,4.000000,4.000000,4.000000,0.000000,,,,,,,,,,,,,,,,,,,,,,,,,,,,
1732158308.179031,1732158308.182236,80.000000,0.000000,4294.102539,4278.461426,4299.230957,4302.692383,4278.717773,4279.487305,4330.256348,4392.820313,4294.487305,4288.077148,4480.897461,4507.692383,4343.077148,4412.692383,1703.000000,1.000000,21.000000,,,,0.000000,2.000000,2.000000,0.000000,4.000000,2.000000,2.000000,0.000000,0.000000,4.000000,4.000000,4.000000,4.000000,4.000000,4.000000,0.000000,,,,,,,,,,,,,,,,,20.000000,0.000000,0.514107,0.510254,-0.509338,0.464661,0.950800,0.051764,-0.058601,-34.541439,46.421024,31.438189
1732158308.186839,1732158308.190044,81.000000,0.000000,4292.307617,4281.153809,4301.922852,4301.922852,4277.051270,4280.128418,4332.051270,4398.077148,4295.000000,4282.051270,4486.410156,4505.256348,4340.256348,4406.794922,1584.000000,1.000000,21.000000,,,,0.000000,2.000000,2.000000,0.000000,4.000000,2.000000,2.000000,0.000000,0.000000,4.000000,4.000000,4.000000,4.000000,4.000000,4.000000,0.000000,,,,,,,,,,,,,,,,,,,,,,,,,,,,
1732158308.194648,1732158308.197652,82.000000,0.000000,4286.410156,4280.000000,4305.769043,4300.256348,4277.692383,4280.384766,4331.794922,4397.179688,4296.410156,4282.948730,4484.102539,4504.487305,4343.846191,4404.487305,1556.000000,1.000000,21.000000,,,,0.000000,2.000000,2.000000,0.000000,4.000000,2.000000,2.000000,0.000000,0.000000,4.000000,4.000000,4.000000,4.000000,4.000000,4.000000,0.000000,,,,,,,,,,,,,,,,,,,,,,,,,,,,
1732158308.202456,1732158308.205461,83.000000,0.000000,4281.538574,4275.512695,4308.717773,4296.666504,4279.102539,4281.025879,4333.589844,4397.179688,4293.717773,4284.871582,4473.589844,4504.487305,4342.436035,4402.948730,1561.000000,1.000000,21.000000,,,,0.000000,2.000000,2.000000,0.000000,4.000000,2.000000,2.000000,0.000000,0.000000,4.000000,4.000000,4.000000,4.000000,4.000000,4.000000,0.000000,,,,,,,,,,,,,,,,,,,,,,,,,,,,
1732158308.210264,1732158308.213369,84.000000,0.000000,4281.025879,4275.384766,4311.666504,4294.871582,4272.436035,4280.641113,4335.000000,4399.102539,4292.179688,4283.461426,4474.487305,4504.102539,4340.128418,4402.436035,1703.000000,1.000000,21.000000,,,,0.000000,2.000000,2.000000,0.000000,4.000000,2.000000,2.000000,0.000000,0.000000,4.000000,4.000000,4.000000,4.000000,4.000000,4.000000,0.000000,,,,,,,,,,,,,,,,,21.000000,0.000000,0.512569,0.504822,-0.515869,0.465088,0.962520,0.068368,-0.061531,-34.621899,46.489361,31.553265
1732158308.218072,1732158308.221177,85.000000,0.000000,4280.256348,4271.538574,4312.307617,4295.769043,4264.871582,4279.487305,4334.487305,4397.820313,4293.717773,4286.282227,4478.974121,4504.487305,4341.282227,4402.692383,1584.000000,1.000000,21.000000,,,,0.000000,2.000000,2.000000,0.000000,4.000000,2.000000,2.000000,0.000000,0.000000,4.000000,4.000000,4.000000,4.000000,4.000000,4.000000,0.000000,,,,,,,,,,,,,,,,,,,,,,,,,,,,
1732158308.225881,1732158308.229185,86.000000,0.000000,4282.307617,4266.794922,4313.333496,4296.025879,4265.128418,4278.846191,4334.743652,4397.307617,4293.461426,4292.179688,4475.641113,4505.000000,4343.205078,4405.384766,1556.000000,1.000000,21.000000,,,,0.000000,2.000000,2.000000,0.000000,4.000000,2.000000,2.000000,0.000000,0.000000,4.000000,4.000000,4.000000,4.000000,4.000000,4.000000,0.000000,,,,,,,,,,,,,,,,,,,,,,,,,,,,
1732158308.233689,1732158308.236993,87.000000,0.000000,4289.358887,4272.948730,4314.230957,4296.666504,4266.794922,4279.487305,4336.794922,4398.461426,4293.333496,4294.487305,4475.641113,4505.384766,4344.358887,4410.384766,1561.000000,1.000000,21.000000,,,,0.000000,2.000000,2.000000,0.000000,4.000000,2.000000,2.000000,0.000000,0.000000,4.000000,4.000000,4.000000,4.000000,4.000000,4.000000,0.000000,,,,,,,,,,,,,,,,,,,,,,,,,,,,
1732158308.241497,1732158308.244901,88.000000,0.000000,4294.230957,4280.769043,4312.563965,4298.589844,4265.897461,4280.897461,4336.282227,4398.205078,4297.563965,4295.256348,4477.820313,4505.769043,4344.358887,4411.666504,1703.000000,1.000000,21.000000,,,,0.000000,2.000000,2.000000,0.000000,4.000000,2.000000,2.000000,0.000000,0.000000,4.000000,4.000000,4.000000,4.000000,4.000000,4.000000,0.000000,,,,,,,,,,,,,,,,,22.000000,0.000000,0.511607,0.500793,-0.519470,0.466492,0.954706,0.063973,-0.064949,-34.735405,46.549717,31.813145
1732158308.249305,1732158308.252709,89.000000,0.000000,4294.230957,4278.846191,4313.205078,4298.333496,4266.025879,4281.794922,4335.512695,4397.307617,4291.153809,4294.743652,4476.410156,4506.410156,4342.307617,4412.436035,1584.000000,1.000000,21.000000,,,,0.000000,2.000000,2.000000,0.000000,4.000000,2.000000,2.000000,0.000000,0.000000,4.000000,4.000000,4.000000,4.000000,4.000000,4.000000,0.000000,,,,,,,,,,,,,,,,,,,,,,,,,,,,
1732158308.257114,1732158308.260318,90.000000,0.000000,4293.077148,4270.897461,4314.230957,4297.179688,4266.153809,4281.153809,4336.282227,4398.461426,4280.512695,4290.000000,4473.077148,4506.025879,4340.769043,4416.025879,1556.000000,1.000000,21.000000,,,,0.000000,2.000000,2.000000,0.000000,4.000000,2.000000,2.000000,0.000000,0.000000,4.000000,4.000000,4.000000,4.000000,4.000000,4.000000,0.000000,,,,,,,,,,,,,,,,,,,,,,,,,,,,
1732158308.264922,1732158308.268126,91.000000,0.000000,4292.563965,4267.820313,4313.974121,4296.153809,4264.871582,4278.717773,4336.153809,4398.846191,4289.487305,4291.153809,4473.589844,4503.589844,4344.743652,4415.641113,1561.000000,1.000000,21.000000,,,,0.000000,2.000000,2.000000,0.000000,4.000000,2.000000,2.000000,0.000000,0.000000,4.000000,4.000000,4.000000,4.000000,4.000000,4.000000,0.000000,,,,,,,,,,,,,,,,,,,,,,,,,,,,
1732158308.272730,1732158308.275834,92.000000,0.000000,4294.615234,4268.333496,4318.205078,4297.179688,4265.128418,4277.051270,4335.384766,4397.692383,4300.769043,4297.051270,4476.410156,4506.922852,4350.641113,4416.282227,1703.000000,1.000000,21.000000,,,,0.000000,2.000000,2.000000,0.000000,4.000000,2.000000,2.000000,0.000000,0.000000,4.000000,4.000000,4.000000,4.000000,4.000000,4.000000,0.000000,,,,,,,,,,,,,,,,,23.000000,0.000000,0.511382,0.499573,-0.520264,0.467163,0.967403,0.060066,-0.043951,-34.627342,46.255272,31.816980
1732158308.280538,1732158308.283643,93.000000,0.000000,4297.563965,4267.051270,4322.051270,4298.205078,4264.358887,4278.461426,4336.666504,4399.743652,4293.589844,4297.179688,4476.666504,4513.077148,4351.282227,4423.846191,1584.000000,1.000000,21.000000,,,,0.000000,2.000000,2.000000,0.000000,4.000000,2.000000,2.000000,0.000000,0.000000,4.000000,4.000000,4.000000,4.000000,4.000000,4.000000,0.000000,,,,,,,,,,,,,,,,,,,,,,,,,,,,
1732158308.288347,1732158308.291651,94.000000,0.000000,4298.461426,4265.128418,4320.256348,4297.051270,4263.846191,4279.230957,4340.256348,4403.205078,4286.538574,4290.769043,4477.692383,4512.179688,4349.358887,4425.256348,1556.000000,1.000000,21.000000,,,,0.000000,2.000000,2.000000,0.000000,4.000000,2.000000,2.000000,0.000000,0.000000,4.000000,4.000000,4.000000,4.000000,4.000000,4.000000,0.000000,,,,,,,,,,,,,,,,,,,,,,,,,,,,
1732158308.296155,1732158308.299459,95.000000,0.000000,4297.307617,4266.922852,4319.358887,4296.794922,4266.922852,4278.077148,4341.410156,4400.512695,4287.307617,4282.307617,4478.333496,4508.846191,4350.000000,4418.461426,1561.000000,1.000000,21.000000,,,,0.000000,2.000000,2.000000,0.000000,4.000000,2.000000,2.000000,0.000000,0.000000,4.000000,4.000000,4.000000,4.000000,4.000000,4.000000,0.000000,,,,,,,,,,,,,,,,,,,,,,,,,,,,
1732158308.303963,1732158308.307367,96.000000,0.000000,4297.948730,4266.922852,4323.333496,4295.000000,4270.641113,4277.692383,4340.256348,4397.436035,4281.282227,4277.436035,4474.743652,4506.922852,4349.230957,4417.051270,1703.000000,1.000000,21.000000,,,,0.000000,2.000000,2.000000,0.000000,4.000000,2.000000,2.000000,0.000000,0.000000,4.000000,4.000000,4.000000,4.000000,4.000000,4.000000,0.000000,,,,,,,,,,,,,,,,,24.000000,0.000000,0.511121,0.495483,-0.522339,0.469482,1.005494,0.020022,-0.028812,-34.814816,46.126770,31.888422
1732158308.311771,1732158308.315175,97.000000,0.000000,4300.256348,4264.102539,4324.487305,4293.461426,4268.717773,4280.256348,4340.128418,4399.358887,4282.307617,4278.974121,4477.563965,4504.230957,4349.871582,4425.128418,1584.000000,1.000000,21.000000,,,,0.000000,2.000000,2.000000,0.000000,4.000000,2.000000,2.000000,0.000000,0.000000,4.000000,4.000000,4.000000,4.000000,4.000000,4.000000,0.000000,,,,,,,,,,,,,,,,,,,,,,,,,,,,
1732158308.319580,1732158308.323183,98.000000,0.000000,4303.333496,4271.282227,4325.512695,4298.205078,4264.615234,4277.820313,4340.641113,4401.025879,4289.871582,4281.282227,4484.230957,4504.871582,4350.641113,4431.153809,1556.000000,1.000000,21.000000,,,,0.000000,2.000000,2.000000,0.000000,4.000000,2.000000,2.000000,0.000000,0.000000,4.000000,4.000000,4.000000,4.000000,4.000000,4.000000,0.000000,,,,,,,,,,,,,,,,,,,,,,,,,,,,
1732158308.327388,1732158308.330991,99.000000,0.000000,4307.563965,4280.000000,4324.230957,4304.615234,4266.025879,4271.025879,4340.256348,4400.769043,4284.871582,4278.974121,4479.358887,4508.461426,4347.307617,4429.871582,1561.000000,1.000000,21.000000,,,,0.000000,2.000000,2.000000,0.000000,4.000000,2.000000,2.000000,0.000000,0.000000,4.000000,4.000000,4.000000,4.000000,4.000000,4.000000,0.000000,,,,,,,,,,,,,,,,,,,,,,,,,,,,
1732158308.335196,1732158308.338899,100.000000,0.000000,4311.025879,4279.487305,4319.871582,4305.769043,4268.333496,4270.769043,4340.256348,4399.615234,4282.692383,4278.333496,4477.307617,4508.974121,4348.461426,4432.563965,1703.000000,1.000000,21.000000,,,,0.000000,2.000000,2.000000,0.000000,4.000000,2.000000,2.000000,0.000000,0.000000,4.000000,4.000000,4.000000,4.000000,4.000000,4.000000,0.000000,,,,,,,,,,,,,,,,,25.000000,0.000000,0.510193,0.492065,-0.524109,0.472107,0.987425,0.019045,-0.017092,-34.920002,46.007683,31.869621
1732158308.343004,1732158308.346708,101.000000,0.000000,4314.102539,4277.692383,4321.922852,4301.538574,4267.179688,4276.282227,4340.256348,4400.512695,4289.615234,4282.948730,4489.487305,4507.563965,4356.025879,4443.461426,1584.000000,1.000000,21.000000,,,,0.000000,2.000000,2.000000,0.000000,4.000000,2.000000,2.000000,0.000000,0.000000,4.000000,4.000000,4.000000,4.000000,4.000000,4.000000,0.000000,,,,,,,,,,,,,,,,,,,,,,,,,,,,
1732158308.350813,1732158308.354716,102.000000,0.000000,4313.333496,4280.000000,4326.025879,4296.538574,4264.743652,4275.512695,4340.256348,4403.205078,4284.871582,4282.563965,4496.666504,4507.051270,4362.692383,4447.051270,1556.000000,1.000000,21.000000,,,,0.000000,2.000000,2.000000,0.000000,4.000000,2.000000,2.000000,0.000000,0.000000,4.000000,4.000000,4.000000,4.000000,4.000000,4.000000,0.000000,,,,,,,,,,,,,,,,,,,,,,,,,,,,
1732158308.358621,1732158308.362524,103.000000,0.000000,4312.820313,4279.743652,4326.153809,4295.512695,4262.692383,4267.820313,4340.256348,4404.102539,4281.538574,4279.487305,4488.717773,4509.487305,4362.820313,4439.871582,1561.000000,1.000000,21.000000,,,,0.000000,2.000000,2.000000,0.000000,4.000000,2.000000,2.000000,0.000000,0.000000,4.000000,4.000000,4.000000,4.000000,4.000000,4.000000,0.000000,,,,,,,,,,,,,,,,,,,,,,,,,,,,
1732158308.366429,1732158308.370432,104.000000,0.000000,4321.153809,4277.948730,4322.820313,4297.820313,4262.051270,4264.102539,4340.256348,4400.769043,4293.589844,4287.563965,4489.487305,4514.358887,4365.384766,4444.358887,1703.000000,1.000000,21.000000,,,,0.000000,2.000000,2.000000,0.000000,4.000000,2.000000,2.000000,0.000000,0.000000,4.000000,4.000000,4.000000,4.000000,4.000000,4.000000,0.000000,,,,,,,,,,,,,,,,,26.000000,0.000000,0.509838,0.491150,-0.524597,0.472900,0.987425,0.019045,-0.017092,-34.903534,46.101223,31.672726
1732158308.374237,1732158308.378240,105.000000,0.000000,4329.230957,4280.384766,4320.769043,4297.051270,4263.205078,4265.000000,4340.256348,4400.000000,4295.897461,4296.153809,4501.922852,4518.077148,4376.538574,4458.846191,1584.000000,1.000000,21.000000,,,,0.000000,2.000000,2.000000,0.000000,4.000000,2.000000,2.000000,0.000000,0.000000,4.000000,4.000000,4.000000,4.000000,4.000000,4.000000,0.000000,,,,,,,,,,,,,,,,,,,,,,,,,,,,
1732158308.382046,1732158308.386248,106.000000,0.000000,4327.563965,4280.256348,4319.615234,4294.615234,4261.538574,4264.230957,4340.256348,4401.538574,4289.358887,4292.179688,4502.820313,4518.461426,4383.589844,4461.025879,1556.000000,1.000000,21.000000,,,,0.000000,2.000000,2.000000,0.000000,4.000000,2.000000,2.000000,0.000000,0.000000,4.000000,4.000000,4.000000,4.000000,4.000000,4.000000,0.000000,,,,,,,,,,,,,,,,,,,,,,,,,,,,
1732158308.389854,1732158308.394056,107.000000,0.000000,4326.410156,4275.512695,4319.230957,4295.384766,4261.410156,4261.922852,4340.256348,4400.384766,4291.794922,4289.102539,4499.230957,4519.615234,4381.410156,4459.230957,1561.000000,1.000000,21.000000,,,,0.000000,2.000000,2.000000,0.000000,4.000000,2.000000,2.000000,0.000000,0.000000,4.000000,4.000000,4.000000,4.000000,4.000000,4.000000,0.000000,,,,,,,,,,,,,,,,,,,,,,,,,,,,
1732158308.397662,1732158308.401964,108.000000,0.000000,4333.333496,4274.615234,4318.205078,4296.282227,4261.794922,4262.436035,4340.256348,4400.256348,4291.922852,4291.922852,4503.589844,4520.512695,4385.897461,4468.205078,1703.000000,1.000000,21.000000,,,,0.000000,2.000000,2.000000,0.000000,4.000000,2.000000,2.000000,0.000000,0.000000,4.000000,4.000000,4.000000,4.000000,4.000000,4.000000,0.000000,,,,,,,,,,,,,,,,,27.000000,0.000000,0.509660,0.490295,-0.524963,0.473572,1.000122,0.025394,-0.009767,-34.910194,45.943657,31.734909
1732158308.405470,1732158308.409773,109.000000,0.000000,4339.487305,4279.615234,4318.461426,4295.641113,4254.487305,4264.871582,4340.256348,4403.077148,4290.769043,4293.974121,4511.410156,4526.794922,4396.922852,4480.512695,1584.000000,1.000000,21.000000,,,,0.000000,2.000000,2.000000,0.000000,4.000000,2.000000,2.000000,0.000000,0.000000,4.000000,4.000000,4.000000,4.000000,4.000000,4.000000,0.000000,,,,,,,,,,,,,,,,,,,,,,,,,,,,
1732158308.413279,1732158308.417781,110.000000,0.000000,4342.820313,4281.538574,4319.743652,4295.256348,4247.948730,4263.717773,4340.256348,4402.307617,4295.641113,4295.641113,4515.641113,4531.666504,4398.077148,4487.436035,1556.000000,1.000000,21.000000,,,,0.000000,2.000000,2.000000,0.000000,4.000000,2.000000,2.000000,0.000000,0.000000,4.000000,4.000000,4.000000,4.000000,4.000000,4.000000,0.000000,,,,,,,,,,,,,,,,,,,,,,,,,,,,
1732158308.421087,1732158308.425589,111.000000,0.000000,4342.563965,4278.077148,4319.743652,4295.256348,4248.205078,4261.794922,4340.256348,4401.282227,4296.153809,4297.307617,4520.512695,4527.051270,4397.051270,4491.025879,1561.000000,1.000000,21.000000,,,,0.000000,2.000000,2.000000,0.000000,4.000000,2.000000,2.000000,0.000000,0.000000,4.000000,4.000000,4.000000,4.000000,4.000000,4.000000,0.000000,,,,,,,,,,,,,,,,,,,,,,,,,,,,
1732158308.428895,1732158308.433497,112.000000,0.000000,4342.307617,4277.436035,4319.743652,4295.256348,4249.487305,4263.205078,4340.256348,4405.000000,4292.179688,4294.743652,4523.077148,4528.974121,4400.512695,4492.051270,1703.000000,1.000000,21.000000,,,,0.000000,2.000000,2.000000,0.000000,4.000000,2.000000,2.000000,0.000000,0.000000,4.000000,4.000000,4.000000,4.000000,4.000000,4.000000,0.000000,,,,,,,,,,,,,,,,,28.000000,0.000000,0.508293,0.488037,-0.526184,0.476013,0.977170,0.008790,-0.010743,-35.165592,45.876030,31.850275
1732158308.436703,1732158308.441305,113.000000,0.000000,4346.282227,4280.128418,4319.102539,4296.794922,4251.666504,4265.000000,4340.256348,4404.230957,4295.384766,4291.538574,4520.641113,4539.487305,4400.641113,4493.717773,1584.000000,1.000000,21.000000,,,,0.000000,2.000000,2.000000,0.000000,4.000000,2.000000,2.000000,0.000000,0.000000,4.000000,4.000000,4.000000,4.000000,4.000000,4.000000,0.000000,,,,,,,,,,,,,,,,,,,,,,,,,,,,
1732158308.444512,1732158308.449113,114.000000,0.000000,4347.051270,4279.102539,4318.461426,4298.333496,4252.436035,4267.436035,4340.256348,4398.846191,4292.820313,4293.205078,4520.512695,4535.256348,4398.333496,4494.102539,1556.000000,1.000000,21.000000,,,,0.000000,2.000000,2.000000,0.000000,4.000000,2.000000,2.000000,0.000000,0.000000,4.000000,4.000000,4.000000,4.000000,4.000000,4.000000,0.000000,,,,,,,,,,,,,,,,,,,,,,,,,,,,
1732158308.452320,1732158308.456922,115.000000,0.000000,4342.051270,4277.051270,4319.871582,4297.051270,4249.102539,4264.743652,4340.256348,4399.102539,4282.692383,4293.205078,4520.512695,4524.230957,4398.461426,4491.410156,1561.000000,1.000000,21.000000,,,,0.000000,2.000000,2.000000,0.000000,4.000000,2.000000,2.000000,0.000000,0.000000,4.000000,4.000000,4.000000,4.000000,4.000000,4.000000,0.000000,,,,,,,,,,,,,,,,,,,,,,,,,,,,
1732158308.460128,1732158308.464630,116.000000,0.000000,4342.436035,4279.871582,4321.282227,4298.077148,4247.307617,4253.846191,4340.256348,4402.307617,4280.256348,4285.128418,4518.974121,4530.384766,4399.743652,4490.897461,1703.000000,1.000000,21.000000,,,,0.000000,2.000000,2.000000,0.000000,4.000000,2.000000,2.000000,0.000000,0.000000,4.000000,4.000000,4.000000,4.000000,4.000000,4.000000,0.000000,,,,,,,,,,,,,,,,,29.000000,0.000000,0.507756,0.487671,-0.526489,0.476624,0.977170,0.008790,-0.010743,-35.035797,45.902916,32.073723
1732158308.467936,1732158308.472438,117.000000,0.000000,4348.589844,4282.307617,4319.358887,4298.974121,4248.205078,4250.128418,4340.256348,4400.897461,4286.410156,4280.000000,4517.436035,4541.538574,4398.205078,4493.461426,1584.000000,1.000000,21.000000,,,,0.000000,2.000000,2.000000,0.000000,4.000000,2.000000,2.000000,0.000000,0.000000,4.000000,4.000000,4.000000,4.000000,4.000000,4.000000,0.000000,,,,,,,,,,,,,,,,,,,,,,,,,,,,
1732158308.475745,1732158308.480047,118.000000,0.000000,4351.153809,4281.794922,4317.563965,4297.307617,4247.563965,4258.461426,4340.256348,4400.000000,4293.717773,4291.025879,4518.333496,4538.333496,4398.846191,4500.256348,1556.000000,1.000000,21.000000,,,,0.000000,2.000000,2.000000,0.000000,4.000000,2.000000,2.000000,0.000000,0.000000,4.000000,4.000000,4.000000,4.000000,4.000000,4.000000,0.000000,,,,,,,,,,,,,,,,,,,,,,,,,,,,
1732158308.483553,1732158308.487855,119.000000,0.000000,4349.102539,4281.538574,4316.410156,4299.102539,4248.333496,4263.461426,4340.256348,4400.769043,4289.358887,4296.153809,4520.512695,4529.487305,4402.436035,4504.487305,1561.000000,1.000000,21.000000,,,,0.000000,2.000000,2.000000,0.000000,4.000000,2.000000,2.000000,0.000000,0.000000,4.000000,4.000000,4.000000,4.000000,4.000000,4.000000,0.000000,,,,,,,,,,,,,,,,,,,,,,,,,,,,
1732158308.491361,1732158308.495563,120.000000,0.000000,4348.205078,4280.897461,4317.307617,4301.282227,4249.615234,4262.692383,4340.384766,4401.282227,4280.000000,4283.974121,4519.871582,4527.820313,4401.922852,4497.179688,1703.000000,1.000000,21.000000,,,,0.000000,2.000000,2.000000,0.000000,4.000000,2.000000,2.000000,0.000000,0.000000,4.000000,4.000000,4.000000,4.000000,4.000000,4.000000,0.000000,,,,,,,,,,,,,,,,,30.000000,0.000000,0.505699,0.486755,-0.527710,0.478394,0.978635,-0.014162,-0.036137,-35.123993,46.048031,32.028049
1732158308.499169,1732158308.503371,121.000000,0.000000,4348.333496,4280.512695,4320.769043,4298.589844,4250.128418,4263.077148,4340.512695,4401.538574,4287.179688,4283.205078,4520.512695,4531.410156,4402.948730,4494.615234,1584.000000,1.000000,21.000000,,,,0.000000,2.000000,2.000000,0.000000,4.000000,2.000000,2.000000,0.000000,0.000000,4.000000,4.000000,4.000000,4.000000,4.000000,4.000000,0.000000,,,,,,,,,,,,,,,,,,,,,,,,,,,,
1732158308.506978,1732158308.510980,122.000000,0.000000,4346.410156,4280.897461,4320.897461,4296.666504,4251.410156,4261.794922,4339.743652,4401.282227,4296.153809,4296.282227,4523.205078,4533.333496,4408.846191,4504.358887,1556.000000,1.000000,21.000000,,,,0.000000,2.000000,2.000000,0.000000,4.000000,2.000000,2.000000,0.000000,0.000000,4.000000,4.000000,4.000000,4.000000,4.000000,4.000000,0.000000,,,,,,,,,,,,,,,,,,,,,,,,,,,,
1732158308.514786,1732158308.518788,123.000000,0.000000,4341.666504,4279.230957,4316.410156,4296.794922,4251.153809,4259.487305,4339.487305,4400.512695,4287.179688,4297.692383,4521.282227,4528.974121,4406.410156,4506.666504,1561.000000,1.000000,21.000000,,,,0.000000,2.000000,2.000000,0.000000,4.000000,2.000000,2.000000,0.000000,0.000000,4.000000,4.000000,4.000000,4.000000,4.000000,4.000000,0.000000,,,,,,,,,,,,,,,,,,,,,,,,,,,,
1732158308.522594,1732158308.526496,124.000000,0.000000,4339.743652,4278.589844,4317.436035,4295.384766,4250.000000,4262.051270,4341.410156,4400.384766,4283.333496,4292.051270,4519.615234,4526.538574,4400.256348,4500.769043,1703.000000,1.000000,21.000000,,,,0.000000,2.000000,2.000000,0.000000,4.000000,2.000000,2.000000,0.000000,0.000000,4.000000,4.000000,4.000000,4.000000,4.000000,4.000000,0.000000,,,,,,,,,,,,,,,,,31.000000,0.000000,0.502057,0.485168,-0.530090,0.481201,0.961543,-0.065926,-0.042486,-35.258770,45.987236,31.872721
1732158308.530402,1732158308.534304,125.000000,0.000000,4343.461426,4283.589844,4321.025879,4299.487305,4250.641113,4262.051270,4338.333496,4401.922852,4295.512695,4298.717773,4524.615234,4531.153809,4407.563965,4503.974121,1584.000000,1.000000,21.000000,,,,0.000000,2.000000,2.000000,0.000000,4.000000,2.000000,2.000000,0.000000,0.000000,4.000000,4.000000,4.000000,4.000000,4.000000,4.000000,0.000000,,,,,,,,,,,,,,,,,,,,,,,,,,,,
1732158308.538211,1732158308.541913,126.000000,0.000000,4346.794922,4284.871582,4315.512695,4305.256348,4252.179688,4261.153809,4332.563965,4402.307617,4300.769043,4305.769043,4526.153809,4535.769043,4415.769043,4508.974121,1556.000000,1.000000,21.000000,,,,0.000000,2.000000,2.000000,0.000000,4.000000,2.000000,2.000000,0.000000,0.000000,4.000000,4.000000,4.000000,4.000000,4.000000,4.000000,0.000000,,,,,,,,,,,,,,,,,,,,,,,,,,,,
1732158308.546019,1732158308.549721,127.000000,0.000000,4340.512695,4279.871582,4324.230957,4300.384766,4250.897461,4264.230957,4341.410156,4403.205078,4294.230957,4299.358887,4522.179688,4539.358887,4407.820313,4501.410156,21.000000,1.000000,21.000000,,,,0.000000,2.000000,2.000000,0.000000,4.000000,2.000000,2.000000,0.000000,0.000000,4.000000,4.000000,4.000000,4.000000,4.000000,4.000000,0.000000,,,,,,,,,,,,,,,,,,,,,,,,,,,,
1732158308.553827,1732158308.557429,0.000000,0.000000,4333.846191,4277.692383,4348.333496,4294.102539,4246.922852,4260.769043,4353.333496,4409.358887,4284.615234,4293.846191,4521.794922,4538.589844,4397.563965,4493.717773,0.000000,1.000000,21.000000,,,,0.000000,2.000000,2.000000,0.000000,4.000000,2.000000,2.000000,0.000000,0.000000,4.000000,4.000000,4.000000,4.000000,4.000000,4.000000,0.000000,,,,,,,,,,,,,,,,,0.000000,0.000000,0.500690,0.483582,-0.531555,0.482605,0.979612,-0.063973,-0.040044,-35.401268,45.896328,31.896904
1732158308.561635,1732158308.565238,1.000000,0.000000,4338.461426,4279.358887,4348.589844,4293.846191,4245.000000,4253.077148,4347.179688,4413.461426,4282.692383,4294.487305,4521.666504,4538.461426,4397.692383,4496.153809,1604.000000,1.000000,21.000000,,,,0.000000,2.000000,2.000000,0.000000,4.000000,2.000000,2.000000,0.000000,0.000000,4.000000,4.000000,4.000000,4.000000,4.000000,4.000000,0.000000,,,,,,,,,,,,,,,,,,,,,,,,,,,,
1732158308.569444,1732158308.572846,2.000000,0.000000,4342.307617,4280.512695,4328.077148,4294.871582,4248.333496,4257.436035,4336.282227,4407.563965,4292.051270,4297.179688,4522.692383,4538.717773,4401.282227,4498.205078,1361.000000,1.000000,21.000000,,,,0.000000,2.000000,2.000000,0.000000,4.000000,2.000000,2.000000,0.000000,0.000000,4.000000,4.000000,4.000000,4.000000,4.000000,4.000000,0.000000,,,,,,,,,,,,,,,,,,,,,,,,,,,,
1732158308.577252,1732158308.580654,3.000000,0.000000,4337.436035,4279.102539,4322.563965,4294.358887,4254.230957,4267.179688,4336.153809,4401.922852,4296.282227,4300.897461,4521.794922,4538.717773,4399.871582,4492.307617,1424.000000,1.000000,21.000000,,,,0.000000,2.000000,2.000000,0.000000,4.000000,2.000000,2.000000,0.000000,0.000000,4.000000,4.000000,4.000000,4.000000,4.000000,4.000000,0.000000,,,,,,,,,,,,,,,,,,,,,,,,,,,,
1732158308.585060,1732158308.588363,4.000000,0.000000,4332.436035,4277.948730,4323.333496,4295.000000,4250.512695,4267.179688,4336.410156,4405.769043,4293.717773,4305.512695,4512.179688,4538.974121,4396.666504,4489.230957,1422.000000,1.000000,21.000000,,,,0.000000,2.000000,2.000000,0.000000,4.000000,2.000000,2.000000,0.000000,0.000000,4.000000,4.000000,4.000000,4.000000,4.000000,4.000000,0.000000,,,,,,,,,,,,,,,,,1.000000,0.000000,0.500147,0.482666,-0.532288,0.483276,0.987425,-0.055671,-0.036137,-35.388363,45.852692,31.758158
1732158308.592868,1732158308.596171,5.000000,0.000000,4329.487305,4277.692383,4316.922852,4295.897461,4249.358887,4264.230957,4334.102539,4404.358887,4296.794922,4304.615234,4509.743652,4533.589844,4395.256348,4489.871582,1209.000000,1.000000,21.000000,,,,0.000000,2.000000,2.000000,0.000000,4.000000,2.000000,2.000000,0.000000,0.000000,4.000000,4.000000,4.000000,4.000000,4.000000,4.000000,0.000000,,,,,,,,,,,,,,,,,,,,,,,,,,,,
1732158308.600677,1732158308.603779,6.000000,0.000000,4326.922852,4279.230957,4316.538574,4293.717773,4264.487305,4263.589844,4335.897461,4399.230957,4296.410156,4306.410156,4519.487305,4525.512695,4396.922852,4488.717773,0.000000,1.000000,21.000000,,,,0.000000,2.000000,2.000000,0.000000,4.000000,2.000000,2.000000,0.000000,0.000000,4.000000,4.000000,4.000000,4.000000,4.000000,4.000000,0.000000,,,,,,,,,,,,,,,,,,,,,,,,,,,,
1732158308.608485,1732158308.611587,7.000000,0.000000,4328.077148,4281.025879,4320.128418,4293.461426,4267.051270,4262.307617,4337.563965,4401.794922,4295.897461,4310.897461,4521.794922,4529.230957,4400.512695,4488.461426,0.000000,1.000000,21.000000,,,,0.000000,2.000000,2.000000,0.000000,4.000000,2.000000,2.000000,0.000000,0.000000,4.000000,4.000000,4.000000,4.000000,4.000000,4.000000,0.000000,,,,,,,,,,,,,,,,,,,,,,,,,,,,
1732158308.616293,1732158308.619296,8.000000,0.000000,4328.461426,4279.230957,4318.717773,4295.384766,4249.230957,4264.102539,4336.794922,4403.846191,4300.769043,4307.051270,4518.077148,4533.974121,4397.563965,4488.077148,1533.000000,1.000000,21.000000,,,,0.000000,2.000000,2.000000,0.000000,4.000000,2.000000,2.000000,0.000000,0.000000,4.000000,4.000000,4.000000,4.000000,4.000000,4.000000,0.000000,,,,,,,,,,,,,,,,,2.000000,0.000000,0.499397,0.480652,-0.533813,0.484375,0.984495,-0.054694,-0.031254,-35.362907,45.682346,31.680775
1732158308.624102,1732158308.627104,9.000000,0.000000,4327.307617,4278.717773,4320.512695,4296.410156,4245.000000,4265.256348,4336.922852,4404.230957,4301.538574,4306.025879,4516.666504,4529.358887,4389.615234,4488.333496,1696.000000,1.000000,21.000000,,,,0.000000,2.000000,2.000000,0.000000,4.000000,2.000000,2.000000,0.000000,0.000000,4.000000,4.000000,4.000000,4.000000,4.000000,4.000000,0.000000,,,,,,,,,,,,,,,,,,,,,,,,,,,,
1732158308.631910,1732158308.635112,10.000000,0.000000,4330.384766,4281.794922,4322.692383,4299.358887,4252.820313,4264.102539,4335.769043,4406.153809,4297.179688,4309.615234,4511.922852,4533.205078,4390.641113,4489.358887,1548.000000,1.000000,21.000000,,,,0.000000,2.000000,2.000000,0.000000,4.000000,2.000000,2.000000,0.000000,0.000000,4.000000,4.000000,4.000000,4.000000,4.000000,4.000000,0.000000,,,,,,,,,,,,,,,,,,,,,,,,,,,,
1732158308.639718,1732158308.642920,11.000000,0.000000,4330.384766,4282.051270,4320.128418,4302.051270,4250.897461,4265.128418,4333.589844,4403.846191,4294.743652,4301.666504,4508.717773,4540.641113,4395.769043,4489.102539,1558.000000,1.000000,21.000000,,,,0.000000,2.000000,2.000000,0.000000,4.000000,2.000000,2.000000,0.000000,0.000000,4.000000,4.000000,4.000000,4.000000,4.000000,4.000000,0.000000,,,,,,,,,,,,,,,,,,,,,,,,,,,,
1732158308.647526,1732158308.650628,12.000000,0.000000,4327.307617,4281.666504,4317.179688,4299.743652,4253.717773,4266.025879,4336.794922,4397.948730,4294.871582,4292.692383,4510.384766,4532.179688,4392.436035,4486.025879,1703.000000,1.000000,21.000000,,,,0.000000,2.000000,2.000000,0.000000,4.000000,2.000000,2.000000,0.000000,0.000000,4.000000,4.000000,4.000000,4.000000,4.000000,4.000000,0.000000,,,,,,,,,,,,,,,,,3.000000,0.000000,0.498473,0.476746,-0.536011,0.486755,0.977170,-0.076181,-0.025394,-35.432289,45.399368,31.511427
1732158308.655334,1732158308.658437,13.000000,0.000000,4328.205078,4284.743652,4319.230957,4297.179688,4264.358887,4266.410156,4340.000000,4398.589844,4295.128418,4299.102539,4507.307617,4522.563965,4386.025879,4479.487305,1583.000000,1.000000,21.000000,,,,0.000000,2.000000,2.000000,0.000000,4.000000,2.000000,2.000000,0.000000,0.000000,4.000000,4.000000,4.000000,4.000000,4.000000,4.000000,0.000000,,,,,,,,,,,,,,,,,,,,,,,,,,,,
1732158308.663143,1732158308.666445,14.000000,0.000000,4327.051270,4284.230957,4322.436035,4297.307617,4263.974121,4265.128418,4335.641113,4400.769043,4294.615234,4303.461426,4507.307617,4523.333496,4387.692383,4478.589844,1548.000000,1.000000,21.000000,,,,0.000000,2.000000,2.000000,0.000000,4.000000,2.000000,2.000000,0.000000,0.000000,4.000000,4.000000,4.000000,4.000000,4.000000,4.000000,0.000000,1.000000,0.000000,2.000000,2.000000,0.000000,4.000000,2.000000,2.000000,0.000000,0.000000,4.000000,4.000000,3.000000,4.000000,3.000000,3.000000,,,,,,,,,,,,
1732158308.670951,1732158308.674253,15.000000,0.000000,4323.589844,4280.128418,4317.820313,4297.436035,4258.974121,4262.692383,4333.333496,4399.230957,4292.692383,4294.358887,4508.333496,4526.794922,4389.230957,4484.102539,1558.000000,1.000000,21.000000,,,,0.000000,2.000000,2.000000,0.000000,4.000000,2.000000,2.000000,0.000000,0.000000,4.000000,4.000000,4.000000,4.000000,4.000000,4.000000,0.000000,,,,,,,,,,,,,,,,,,,,,,,,,,,,
1732158308.678759,1732158308.682161,16.000000,0.000000,4326.538574,4281.794922,4313.717773,4298.846191,4258.461426,4261.794922,4335.769043,4400.641113,4291.153809,4291.410156,4506.410156,4528.974121,4387.436035,4489.230957,0.000000,1.000000,21.000000,,,,0.000000,2.000000,2.000000,0.000000,4.000000,2.000000,2.000000,0.000000,0.000000,4.000000,4.000000,4.000000,4.000000,4.000000,4.000000,0.000000,,,,,,,,,,,,,,,,,4.000000,0.000000,0.498242,0.476013,-0.536377,0.487305,1.003052,-0.078623,-0.027347,-35.653484,45.125156,31.374256
1732158308.686567,1732158308.689969,17.000000,0.000000,4328.333496,4283.461426,4317.820313,4298.205078,4262.051270,4261.282227,4334.871582,4402.436035,4292.179688,4298.974121,4512.948730,4530.897461,4390.897461,4489.871582,0.000000,1.000000,21.000000,,,,0.000000,2.000000,2.000000,0.000000,4.000000,2.000000,2.000000,0.000000,0.000000,4.000000,4.000000,4.000000,4.000000,4.000000,4.000000,0.000000,,,,,,,,,,,,,,,,,,,,,,,,,,,,
1732158308.694376,1732158308.697977,18.000000,0.000000,4325.769043,4281.922852,4321.538574,4296.794922,4265.769043,4261.666504,4333.717773,4402.179688,4296.025879,4301.538574,4518.333496,4530.769043,4390.641113,4483.846191,0.000000,1.000000,21.000000,,,,0.000000,2.000000,2.000000,0.000000,4.000000,2.000000,2.000000,0.000000,0.000000,4.000000,4.000000,4.000000,4.000000,4.000000,4.000000,0.000000,,,,,,,,,,,,,,,,,,,,,,,,,,,,
1732158308.702184,1732158308.705785,19.000000,0.000000,4324.102539,4282.179688,4319.615234,4300.897461,4261.922852,4263.717773,4335.641113,4401.410156,4298.589844,4296.538574,4509.871582,4528.974121,4382.563965,4474.743652,0.000000,1.000000,21.000000,,,,0.000000,2.000000,2.000000,0.000000,4.000000,2.000000,2.000000,0.000000,0.000000,4.000000,4.000000,4.000000,4.000000,4.000000,4.000000,0.000000,,,,,,,,,,,,,,,,,,,,,,,,,,,,
1732158308.709992,1732158308.713693,20.000000,0.000000,4319.230957,4282.051270,4319.871582,4302.307617,4267.051270,4269.487305,4336.410156,4403.077148,4298.461426,4295.512695,4502.948730,4527.051270,4378.717773,4471.538574,0.000000,1.000000,21.000000,,,,0.000000,2.000000,2.000000,0.000000,4.000000,2.000000,2.000000,0.000000,0.000000,4.000000,4.000000,4.000000,4.000000,4.000000,4.000000,0.000000,,,,,,,,,,,,,,,,,5.000000,0.000000,0.498205,0.474548,-0.536987,0.488098,0.972287,-0.069344,-0.019534,-35.497658,44.911377,31.334814
1732158308.717801,1732158308.721502,21.000000,0.000000,4315.897461,4281.666504,4321.794922,4295.128418,4286.922852,4269.615234,4335.256348,4405.769043,4298.846191,4295.769043,4504.358887,4524.871582,4382.563965,4472.948730,0.000000,1.000000,21.000000,,,,0.000000,2.000000,2.000000,0.000000,4.000000,2.000000,2.000000,0.000000,0.000000,4.000000,4.000000,4.000000,4.000000,4.000000,4.000000,0.000000,,,,,,,,,,,,,,,,,,,,,,,,,,,,
1732158308.725609,1732158308.729510,22.000000,0.000000,4318.846191,4281.794922,4321.153809,4294.102539,4283.974121,4265.384766,4335.512695,4403.846191,4299.230957,4293.846191,4505.128418,4527.179688,4383.846191,4472.307617,0.000000,1.000000,21.000000,,,,0.000000,2.000000,2.000000,0.000000,4.000000,2.000000,2.000000,0.000000,0.000000,4.000000,4.000000,4.000000,4.000000,4.000000,4.000000,0.000000,,,,,,,,,,,,,,,,,,,,,,,,,,,,
1732158308.733417,1732158308.737318,23.000000,0.000000,4320.897461,4282.051270,4319.615234,4306.922852,4262.820313,4272.179688,4337.563965,4402.820313,4303.846191,4299.615234,4512.051270,4534.871582,4382.948730,4472.563965,0.000000,1.000000,21.000000,,,,0.000000,2.000000,2.000000,0.000000,4.000000,2.000000,2.000000,0.000000,0.000000,4.000000,4.000000,4.000000,4.000000,4.000000,4.000000,0.000000,,,,,,,,,,,,,,,,,,,,,,,,,,,,
1732158308.741225,1732158308.745226,24.000000,0.000000,4319.743652,4283.589844,4316.153809,4312.820313,4261.922852,4278.589844,4338.717773,4402.692383,4305.769043,4305.128418,4520.000000,4539.615234,4384.871582,4476.410156,0.000000,1.000000,21.000000,,,,0.000000,2.000000,2.000000,0.000000,4.000000,2.000000,2.000000,0.000000,0.000000,4.000000,4.000000,4.000000,4.000000,4.000000,4.000000,0.000000,,,,,,,,,,,,,,,,,6.000000,0.000000,0.498476,0.472961,-0.537415,0.488892,0.986449,-0.063973,-0.011232,-35.913101,44.998215,31.242867
1732158308.749033,1732158308.753034,25.000000,0.000000,4316.666504,4282.948730,4315.384766,4300.897461,4270.256348,4268.974121,4336.282227,4399.743652,4296.282227,4298.974121,4513.461426,4533.333496,4385.512695,4476.794922,0.000000,1.000000,21.000000,,,,0.000000,2.000000,2.000000,0.000000,4.000000,2.000000,2.000000,0.000000,0.000000,4.000000,4.000000,4.000000,4.000000,4.000000,4.000000,0.000000,,,,,,,,,,,,,,,,,,,,,,,,,,,,
1732158308.756842,1732158308.761042,26.000000,0.000000,4311.410156,4279.102539,4320.897461,4291.282227,4266.025879,4260.641113,4333.717773,4401.410156,4289.871582,4292.820313,4505.897461,4525.256348,4382.436035,4469.358887,0.000000,1.000000,21.000000,,,,0.000000,2.000000,2.000000,0.000000,4.000000,2.000000,2.000000,0.000000,0.000000,4.000000,4.000000,4.000000,4.000000,4.000000,4.000000,0.000000,,,,,,,,,,,,,,,,,,,,,,,,,,,,
1732158308.764650,1732158308.768850,27.000000,0.000000,4310.000000,4278.077148,4321.922852,4295.897461,4262.563965,4268.205078,4334.871582,4404.487305,4296.410156,4293.333496,4504.871582,4520.128418,4375.384766,4461.666504,0.000000,1.000000,21.000000,,,,0.000000,2.000000,2.000000,0.000000,4.000000,2.000000,2.000000,0.000000,0.000000,4.000000,4.000000,4.000000,4.000000,4.000000,4.000000,0.000000,,,,,,,,,,,,,,,,,,,,,,,,,,,,
1732158308.772458,1732158308.776758,28.000000,0.000000,4312.179688,4279.102539,4319.871582,4296.794922,4266.410156,4276.794922,4336.538574,4401.282227,4300.256348,4294.230957,4501.666504,4514.230957,4370.256348,4460.897461,0.000000,1.000000,21.000000,,,,0.000000,2.000000,2.000000,0.000000,4.000000,2.000000,2.000000,0.000000,0.000000,4.000000,4.000000,4.000000,4.000000,4.000000,4.000000,0.000000,,,,,,,,,,,,,,,,,7.000000,0.000000,0.498352,0.472839,-0.537415,0.489136,0.985472,-0.060066,-0.024417,-36.226280,44.986885,31.228388
1732158308.780266,1732158308.784567,29.000000,0.000000,4311.153809,4284.358887,4320.256348,4294.487305,4274.487305,4278.974121,4336.410156,4397.820313,4297.563965,4293.461426,4501.922852,4515.512695,4373.333496,4461.282227,0.000000,1.000000,21.000000,,,,0.000000,2.000000,2.000000,0.000000,4.000000,2.000000,2.000000,0.000000,0.000000,4.000000,4.000000,4.000000,4.000000,4.000000,4.000000,0.000000,,,,,,,,,,,,,,,,,,,,,,,,,,,,
1732158308.788075,1732158308.792175,30.000000,0.000000,4311.410156,4290.000000,4317.563965,4304.102539,4279.102539,4277.692383,4335.897461,4400.128418,4296.153809,4294.102539,4507.692383,4522.051270,4379.358887,4460.897461,0.000000,1.000000,21.000000,,,,0.000000,2.000000,2.000000,0.000000,4.000000,2.000000,2.000000,0.000000,0.000000,4.000000,4.000000,4.000000,4.000000,4.000000,4.000000,0.000000,,,,,,,,,,,,,,,,,,,,,,,,,,,,
1732158308.795883,1732158308.799983,31.000000,0.000000,4314.487305,4291.153809,4314.743652,4307.563965,4271.922852,4274.743652,4335.641113,4401.922852,4298.205078,4293.974121,4505.769043,4519.615234,4379.102539,4460.897461,0.000000,1.000000,21.000000,,,,0.000000,2.000000,2.000000,0.000000,4.000000,2.000000,2.000000,0.000000,0.000000,4.000000,4.000000,4.000000,4.000000,4.000000,4.000000,0.000000,,,,,,,,,,,,,,,,,,,,,,,,,,,,
1732158308.803691,1732158308.807692,32.000000,0.000000,4311.922852,4286.282227,4316.538574,4295.384766,4270.000000,4275.641113,4336.538574,4401.282227,4300.769043,4293.461426,4501.922852,4511.922852,4370.897461,4458.333496,0.000000,1.000000,21.000000,,,,0.000000,2.000000,2.000000,0.000000,4.000000,2.000000,2.000000,0.000000,0.000000,4.000000,4.000000,4.000000,4.000000,4.000000,4.000000,0.000000,,,,,,,,,,,,,,,,,8.000000,0.000000,0.498240,0.472900,-0.537354,0.489258,0.988890,-0.047369,-0.020022,-36.183285,44.989380,31.184994
1732158308.811499,1732158308.815500,33.000000,0.000000,4311.153809,4286.025879,4319.230957,4296.153809,4278.077148,4279.358887,4336.666504,4401.538574,4299.615234,4293.974121,4505.641113,4517.051270,4369.871582,4460.000000,0.000000,1.000000,21.000000,,,,0.000000,2.000000,2.000000,0.000000,4.000000,2.000000,2.000000,0.000000,0.000000,4.000000,4.000000,4.000000,4.000000,4.000000,4.000000,0.000000,,,,,,,,,,,,,,,,,,,,,,,,,,,,
1732158308.819308,1732158308.823108,34.000000,0.000000,4318.205078,4291.025879,4318.461426,4309.743652,4276.538574,4277.307617,4335.897461,4398.846191,4302.307617,4297.692383,4507.692383,4524.487305,4378.205078,4465.641113,0.000000,1.000000,21.000000,,,,0.000000,2.000000,2.000000,0.000000,4.000000,2.000000,2.000000,0.000000,0.000000,4.000000,4.000000,4.000000,4.000000,4.000000,4.000000,0.000000,,,,,,,,,,,,,,,,,,,,,,,,,,,,
1732158308.827116,1732158308.830916,35.000000,0.000000,4318.974121,4289.230957,4318.205078,4307.563965,4279.358887,4266.666504,4335.000000,4397.692383,4304.743652,4301.153809,4503.846191,4521.410156,4380.000000,4463.717773,0.000000,1.000000,21.000000,,,,0.000000,2.000000,2.000000,0.000000,4.000000,2.000000,2.000000,0.000000,0.000000,4.000000,4.000000,4.000000,4.000000,4.000000,4.000000,0.000000,,,,,,,,,,,,,,,,,,,,,,,,,,,,
1732158308.834924,1732158308.838625,36.000000,0.000000,4311.538574,4285.641113,4316.794922,4300.384766,4287.179688,4264.230957,4334.487305,4398.974121,4300.128418,4299.358887,4504.487305,4518.717773,4375.128418,4459.615234,0.000000,1.000000,21.000000,,,,0.000000,2.000000,2.000000,0.000000,4.000000,2.000000,2.000000,0.000000,0.000000,4.000000,4.000000,4.000000,4.000000,4.000000,4.000000,0.000000,,,,,,,,,,,,,,,,,9.000000,0.000000,0.497944,0.473022,-0.537354,0.489441,0.976682,-0.052252,-0.019045,-36.258461,44.976395,31.293179
1732158308.842733,1732158308.846433,37.000000,0.000000,4308.461426,4283.205078,4313.461426,4303.589844,4274.487305,4276.153809,4334.743652,4399.871582,4300.256348,4296.153809,4504.743652,4516.922852,4370.769043,4460.000000,0.000000,1.000000,21.000000,,,,0.000000,2.000000,2.000000,0.000000,4.000000,2.000000,2.000000,0.000000,0.000000,4.000000,4.000000,4.000000,4.000000,4.000000,4.000000,0.000000,,,,,,,,,,,,,,,,,,,,,,,,,,,,
1732158308.850541,1732158308.854041,38.000000,0.000000,4310.128418,4282.692383,4316.922852,4307.179688,4261.282227,4283.717773,4335.641113,4399.871582,4306.538574,4294.743652,4497.436035,4509.871582,4367.307617,4455.128418,0.000000,1.000000,21.000000,,,,0.000000,2.000000,2.000000,0.000000,4.000000,2.000000,2.000000,0.000000,0.000000,4.000000,4.000000,4.000000,4.000000,4.000000,4.000000,0.000000,,,,,,,,,,,,,,,,,,,,,,,,,,,,
1732158308.858349,1732158308.861850,39.000000,0.000000,4309.487305,4289.358887,4323.461426,4310.897461,4272.948730,4281.025879,4336.666504,4401.410156,4307.436035,4295.384766,4491.410156,4504.358887,4365.641113,4446.025879,0.000000,1.000000,21.000000,,,,0.000000,2.000000,2.000000,0.000000,4.000000,2.000000,2.000000,0.000000,0.000000,4.000000,4.000000,4.000000,4.000000,4.000000,4.000000,0.000000,,,,,,,,,,,,,,,,,,,,,,,,,,,,
1732158308.866157,1732158308.869558,40.000000,0.000000,4307.820313,4295.641113,4321.410156,4309.615234,4290.000000,4280.000000,4336.282227,4404.358887,4307.436035,4295.128418,4489.871582,4504.102539,4364.358887,4441.282227,0.000000,1.000000,21.000000,,,,0.000000,2.000000,2.000000,0.000000,4.000000,2.000000,2.000000,0.000000,0.000000,4.000000,4.000000,4.000000,4.000000,4.000000,4.000000,0.000000,,,,,,,,,,,,,,,,,10.000000,0.000000,0.497098,0.473999,-0.537109,0.489624,0.979612,-0.056648,-0.024417,-36.336021,44.949215,31.364141
1732158308.873965,1732158308.877366,41.000000,0.000000,4307.563965,4294.615234,4318.717773,4301.794922,4283.717773,4280.000000,4336.794922,4403.974121,4311.922852,4295.256348,4494.487305,4509.102539,4363.333496,4443.974121,0.000000,1.000000,21.000000,,,,0.000000,2.000000,2.000000,0.000000,4.000000,2.000000,2.000000,0.000000,0.000000,4.000000,4.000000,4.000000,4.000000,4.000000,4.000000,0.000000,,,,,,,,,,,,,,,,,,,,,,,,,,,,
1732158308.881774,1732158308.884975,42.000000,0.000000,4309.615234,4292.179688,4321.025879,4302.692383,4265.128418,4277.948730,4337.179688,4402.179688,4312.179688,4300.897461,4503.717773,4517.179688,4369.358887,4454.615234,0.000000,1.000000,21.000000,,,,0.000000,2.000000,2.000000,0.000000,4.000000,2.000000,2.000000,0.000000,0.000000,4.000000,4.000000,4.000000,4.000000,4.000000,4.000000,0.000000,,,,,,,,,,,,,,,,,,,,,,,,,,,,
1732158308.889582,1732158308.892783,43.000000,0.000000,4312.948730,4294.487305,4319.487305,4308.846191,4260.769043,4280.256348,4335.000000,4402.692383,4311.538574,4305.384766,4509.358887,4521.282227,4376.153809,4464.487305,0.000000,1.000000,21.000000,,,,0.000000,2.000000,2.000000,0.000000,4.000000,2.000000,2.000000,0.000000,0.000000,4.000000,4.000000,4.000000,4.000000,4.000000,4.000000,0.000000,,,,,,,,,,,,,,,,,,,,,,,,,,,,
1732158308.897390,1732158308.900491,44.000000,0.000000,4310.897461,4290.641113,4315.256348,4299.743652,4266.538574,4276.794922,4334.743652,4402.307617,4306.153809,4299.871582,4503.077148,4515.641113,4367.820313,4457.563965,0.000000,1.000000,21.000000,,,,0.000000,2.000000,2.000000,0.000000,4.000000,2.000000,2.000000,0.000000,0.000000,4.000000,4.000000,4.000000,4.000000,4.000000,4.000000,0.000000,,,,,,,,,,,,,,,,,11.000000,0.000000,0.497027,0.473999,-0.537231,0.489563,0.989867,-0.057624,-0.020510,-36.332176,44.910530,31.554955
1732158308.905198,1732158308.908299,45.000000,0.000000,4308.077148,4287.307617,4319.871582,4292.307617,4269.615234,4268.846191,4336.282227,4401.025879,4296.410156,4293.333496,4491.922852,4512.563965,4360.256348,4447.820313,0.000000,1.000000,21.000000,,,,0.000000,2.000000,2.000000,0.000000,4.000000,2.000000,2.000000,0.000000,0.000000,4.000000,4.000000,4.000000,4.000000,4.000000,4.000000,0.000000,,,,,,,,,,,,,,,,,,,,,,,,,,,,
1732158308.913007,1732158308.916307,46.000000,0.000000,4311.025879,4289.743652,4322.820313,4301.282227,4268.205078,4271.794922,4335.897461,4400.897461,4298.461426,4295.641113,4492.436035,4517.692383,4366.410156,4454.102539,0.000000,1.000000,21.000000,,,,0.000000,2.000000,2.000000,0.000000,4.000000,2.000000,2.000000,0.000000,0.000000,4.000000,4.000000,4.000000,4.000000,4.000000,4.000000,0.000000,,,,,,,,,,,,,,,,,,,,,,,,,,,,
1732158308.920815,1732158308.924115,47.000000,0.000000,4312.563965,4287.307617,4316.282227,4304.743652,4278.846191,4281.794922,4335.256348,4401.282227,4305.000000,4298.589844,4498.717773,4516.410156,4369.487305,4459.487305,0.000000,1.000000,21.000000,,,,0.000000,2.000000,2.000000,0.000000,4.000000,2.000000,2.000000,0.000000,0.000000,4.000000,4.000000,4.000000,4.000000,4.000000,4.000000,0.000000,,,,,,,,,,,,,,,,,,,,,,,,,,,,
1732158308.928623,1732158308.932024,48.000000,0.000000,4308.589844,4283.205078,4315.641113,4298.846191,4289.871582,4282.307617,4336.922852,4399.743652,4299.487305,4295.897461,4494.871582,4505.512695,4358.589844,4450.897461,0.000000,1.000000,21.000000,,,,0.000000,2.000000,2.000000,0.000000,4.000000,2.000000,2.000000,0.000000,0.000000,4.000000,4.000000,4.000000,4.000000,4.000000,4.000000,0.000000,,,,,,,,,,,,,,,,,12.000000,0.000000,0.496962,0.474060,-0.537292,0.489502,0.974728,-0.062996,-0.029300,-36.194065,44.919197,31.457846
1732158308.936432,1732158308.939832,49.000000,0.000000,4308.589844,4287.179688,4319.358887,4301.794922,4280.256348,4276.666504,4336.666504,4400.000000,4294.743652,4296.538574,4488.333496,4506.794922,4353.589844,4443.461426,0.000000,1.000000,21.000000,,,,0.000000,2.000000,2.000000,0.000000,4.000000,2.000000,2.000000,0.000000,0.000000,4.000000,4.000000,4.000000,4.000000,4.000000,4.000000,0.000000,,,,,,,,,,,,,,,,,,,,,,,,,,,,
1732158308.944240,1732158308.947840,50.000000,0.000000,4312.692383,4295.128418,4317.179688,4310.384766,4263.974121,4279.487305,4335.000000,4402.563965,4300.512695,4302.051270,4493.205078,4519.230957,4362.692383,4445.256348,0.000000,1.000000,21.000000,,,,0.000000,2.000000,2.000000,0.000000,4.000000,2.000000,2.000000,0.000000,0.000000,4.000000,4.000000,4.000000,4.000000,4.000000,4.000000,0.000000,,,,,,,,,,,,,,,,,,,,,,,,,,,,
1732158308.952048,1732158308.955648,51.000000,0.000000,4310.897461,4297.051270,4315.897461,4310.128418,4260.897461,4280.512695,4335.128418,4401.153809,4300.256348,4304.743652,4496.282227,4517.948730,4368.205078,4447.307617,0.000000,1.000000,21.000000,,,,0.000000,2.000000,2.000000,0.000000,4.000000,2.000000,2.000000,0.000000,0.000000,4.000000,4.000000,4.000000,4.000000,4.000000,4.000000,0.000000,,,,,,,,,,,,,,,,,,,,,,,,,,,,
1732158308.959856,1732158308.963356,52.000000,0.000000,4306.922852,4294.102539,4321.410156,4304.743652,4268.461426,4273.077148,4335.256348,4399.615234,4293.461426,4305.769043,4497.436035,4512.563965,4365.769043,4448.717773,0.000000,1.000000,21.000000,,,,0.000000,2.000000,2.000000,0.000000,4.000000,2.000000,2.000000,0.000000,0.000000,4.000000,4.000000,4.000000,4.000000,4.000000,4.000000,0.000000,,,,,,,,,,,,,,,,,13.000000,0.000000,0.496455,0.474792,-0.537170,0.489441,0.974240,-0.053717,-0.035161,-36.125526,44.782883,31.560856
1732158308.967664,1732158308.971165,53.000000,0.000000,4307.179688,4294.102539,4321.282227,4306.282227,4274.358887,4273.333496,4335.128418,4400.897461,4296.922852,4309.615234,4506.025879,4513.205078,4367.179688,4449.743652,0.000000,1.000000,21.000000,,,,0.000000,2.000000,2.000000,0.000000,4.000000,2.000000,2.000000,0.000000,0.000000,4.000000,4.000000,4.000000,4.000000,4.000000,4.000000,0.000000,,,,,,,,,,,,,,,,,,,,,,,,,,,,
1732158308.975473,1732158308.978773,54.000000,0.000000,4304.102539,4295.384766,4316.666504,4308.974121,4280.384766,4280.897461,4336.025879,4400.769043,4304.615234,4310.384766,4503.333496,4510.769043,4367.051270,4446.410156,0.000000,1.000000,21.000000,,,,0.000000,2.000000,2.000000,0.000000,4.000000,2.000000,2.000000,0.000000,0.000000,4.000000,4.000000,4.000000,4.000000,4.000000,4.000000,0.000000,,,,,,,,,,,,,,,,,,,,,,,,,,,,
1732158308.983281,1732158308.986581,55.000000,0.000000,4297.307617,4294.615234,4318.461426,4306.410156,4282.948730,4283.461426,4336.538574,4399.871582,4306.025879,4312.179688,4492.179688,4508.205078,4361.153809,4443.589844,0.000000,1.000000,21.000000,,,,0.000000,2.000000,2.000000,0.000000,4.000000,2.000000,2.000000,0.000000,0.000000,4.000000,4.000000,4.000000,4.000000,4.000000,4.000000,0.000000,,,,,,,,,,,,,,,,,,,,,,,,,,,,
1732158308.991089,1732158308.994489,56.000000,0.000000,4294.743652,4290.641113,4320.256348,4301.794922,4281.538574,4280.641113,4335.897461,4402.436035,4301.153809,4312.436035,4490.384766,4507.820313,4356.922852,4442.051270,0.000000,1.000000,21.000000,,,,0.000000,2.000000,2.000000,0.000000,4.000000,2.000000,2.000000,0.000000,0.000000,4.000000,4.000000,4.000000,4.000000,4.000000,4.000000,0.000000,,,,,,,,,,,,,,,,,14.000000,0.000000,0.496633,0.474915,-0.537231,0.489075,0.967403,-0.048834,-0.029789,-36.270008,44.822468,31.577627
1732158308.998897,1732158309.002297,57.000000,0.000000,4297.820313,4289.615234,4317.563965,4305.128418,4284.615234,4281.538574,4338.333496,4403.717773,4299.615234,4302.051270,4487.948730,4506.410156,4356.538574,4440.641113,0.000000,1.000000,21.000000,,,,0.000000,2.000000,2.000000,0.000000,4.000000,2.000000,2.000000,0.000000,0.000000,4.000000,4.000000,4.000000,4.000000,4.000000,4.000000,0.000000,,,,,,,,,,,,,,,,,,,,,,,,,,,,
1732158309.006706,1732158309.010305,58.000000,0.000000,4303.461426,4294.487305,4318.717773,4312.307617,4284.615234,4283.333496,4338.846191,4402.179688,4307.820313,4298.461426,4487.948730,4506.282227,4360.769043,4443.077148,0.000000,1.000000,21.000000,,,,0.000000,2.000000,2.000000,0.000000,4.000000,2.000000,2.000000,0.000000,0.000000,4.000000,4.000000,4.000000,4.000000,4.000000,4.000000,0.000000,,,,,,,,,,,,,,,,,,,,,,,,,,,,
1732158309.014514,1732158309.018114,59.000000,0.000000,4305.000000,4295.769043,4320.128418,4311.025879,4291.282227,4282.051270,4337.436035,4401.922852,4307.307617,4308.205078,4499.102539,4508.205078,4366.153809,4445.000000,0.000000,1.000000,21.000000,,,,0.000000,2.000000,2.000000,0.000000,4.000000,2.000000,2.000000,0.000000,0.000000,4.000000,4.000000,4.000000,4.000000,4.000000,4.000000,0.000000,,,,,,,,,,,,,,,,,,,,,,,,,,,,
1732158309.022322,1732158309.026022,60.000000,0.000000,4306.153809,4292.307617,4316.922852,4307.563965,4299.102539,4279.102539,4336.666504,4402.563965,4295.769043,4308.974121,4505.512695,4511.538574,4367.051270,4446.153809,0.000000,1.000000,21.000000,,,,0.000000,2.000000,2.000000,0.000000,4.000000,2.000000,2.000000,0.000000,0.000000,4.000000,4.000000,4.000000,4.000000,4.000000,4.000000,0.000000,,,,,,,,,,,,,,,,,15.000000,0.000000,0.496592,0.475159,-0.537109,0.489014,0.967403,-0.048834,-0.029789,-36.440372,44.761200,31.436211
1732158309.030131,1732158309.033830,61.000000,0.000000,4311.794922,4292.179688,4316.025879,4309.615234,4289.230957,4276.538574,4336.410156,4404.871582,4299.230957,4306.410156,4504.615234,4518.333496,4367.563965,4450.897461,0.000000,1.000000,21.000000,,,,0.000000,2.000000,2.000000,0.000000,4.000000,2.000000,2.000000,0.000000,0.000000,4.000000,4.000000,4.000000,4.000000,4.000000,4.000000,0.000000,,,,,,,,,,,,,,,,,,,,,,,,,,,,
1732158309.037939,1732158309.041838,62.000000,0.000000,4308.461426,4295.512695,4317.820313,4313.846191,4274.358887,4281.153809,4337.948730,4406.153809,4316.538574,4314.743652,4503.461426,4517.563965,4366.025879,4450.256348,0.000000,1.000000,21.000000,,,,0.000000,2.000000,2.000000,0.000000,4.000000,2.000000,2.000000,0.000000,0.000000,4.000000,4.000000,4.000000,4.000000,4.000000,4.000000,0.000000,,,,,,,,,,,,,,,,,,,,,,,,,,,,
1732158309.045747,1732158309.049646,63.000000,0.000000,4297.820313,4294.871582,4316.410156,4311.922852,4276.538574,4293.205078,4341.282227,4402.820313,4312.563965,4310.641113,4493.589844,4509.743652,4359.358887,4442.307617,0.000000,1.000000,21.000000,,,,0.000000,2.000000,2.000000,0.000000,4.000000,2.000000,2.000000,0.000000,0.000000,4.000000,4.000000,4.000000,4.000000,4.000000,4.000000,0.000000,,,,,,,,,,,,,,,,,,,,,,,,,,,,
1732158309.053555,1732158309.057354,64.000000,0.000000,4295.384766,4292.179688,4317.051270,4308.205078,4296.538574,4294.358887,4340.256348,4400.000000,4297.692383,4296.794922,4485.512695,4506.410156,4358.205078,4439.871582,0.000000,1.000000,21.000000,,,,0.000000,2.000000,2.000000,0.000000,4.000000,2.000000,2.000000,0.000000,0.000000,4.000000,4.000000,4.000000,4.000000,4.000000,4.000000,0.000000,,,,,,,,,,,,,,,,,16.000000,0.000000,0.496224,0.475830,-0.536743,0.489136,0.974240,-0.035161,-0.039067,-36.426701,44.901573,31.258331
1732158309.061363,1732158309.065163,65.000000,0.000000,4296.794922,4293.077148,4322.307617,4311.025879,4303.589844,4283.589844,4334.615234,4402.820313,4303.717773,4303.077148,4496.794922,4508.974121,4365.000000,4442.820313,1599.000000,1.000000,21.000000,,,,0.000000,2.000000,2.000000,0.000000,4.000000,2.000000,2.000000,0.000000,0.000000,4.000000,4.000000,4.000000,4.000000,4.000000,4.000000,0.000000,,,,,,,,,,,,,,,,,,,,,,,,,,,,
1732158309.069172,1732158309.072771,66.000000,0.000000,4297.307617,4295.897461,4320.000000,4314.871582,4285.897461,4283.974121,4334.743652,4405.256348,4313.846191,4315.000000,4505.384766,4510.384766,4367.179688,4443.974121,1361.000000,1.000000,21.000000,,,,0.000000,2.000000,2.000000,0.000000,4.000000,2.000000,2.000000,0.000000,0.000000,4.000000,4.000000,4.000000,4.000000,4.000000,4.000000,0.000000,,,,,,,,,,,,,,,,,,,,,,,,,,,,
1732158309.076980,1732158309.080579,67.000000,0.000000,4303.589844,4295.512695,4316.410156,4311.153809,4272.436035,4289.615234,4337.692383,4402.051270,4310.897461,4310.512695,4498.717773,4508.589844,4366.025879,4442.179688,1419.000000,1.000000,21.000000,,,,0.000000,2.000000,2.000000,0.000000,4.000000,2.000000,2.000000,0.000000,0.000000,4.000000,4.000000,4.000000,4.000000,4.000000,4.000000,0.000000,,,,,,,,,,,,,,,,,,,,,,,,,,,,
1732158309.084788,1732158309.088487,68.000000,0.000000,4303.974121,4289.358887,4317.948730,4307.051270,4279.230957,4284.102539,4338.077148,4400.512695,4308.461426,4305.128418,4489.743652,4506.282227,4361.538574,4438.717773,1427.000000,1.000000,21.000000,,,,0.000000,2.000000,2.000000,0.000000,4.000000,2.000000,2.000000,0.000000,0.000000,4.000000,4.000000,4.000000,4.000000,4.000000,4.000000,0.000000,,,,,,,,,,,,,,,,,17.000000,0.000000,0.496333,0.475830,-0.536865,0.488892,0.986449,-0.035649,-0.032230,-36.450630,44.948605,31.180914
1732158309.092596,1732158309.096296,69.000000,0.000000,4296.153809,4285.769043,4317.051270,4310.897461,4285.512695,4280.256348,4337.436035,4401.922852,4311.794922,4309.358887,4492.051270,4506.025879,4359.871582,4442.436035,1209.000000,1.000000,21.000000,,,,0.000000,2.000000,2.000000,0.000000,4.000000,2.000000,2.000000,0.000000,0.000000,4.000000,4.000000,4.000000,4.000000,4.000000,4.000000,0.000000,,,,,,,,,,,,,,,,,,,,,,,,,,,,
1732158309.100405,1732158309.104304,70.000000,0.000000,4297.436035,4292.307617,4316.153809,4314.230957,4282.179688,4282.179688,4337.179688,4401.410156,4311.282227,4309.487305,4502.820313,4506.794922,4364.871582,4446.922852,0.000000,1.000000,21.000000,,,,0.000000,2.000000,2.000000,0.000000,4.000000,2.000000,2.000000,0.000000,0.000000,4.000000,4.000000,4.000000,4.000000,4.000000,4.000000,0.000000,,,,,,,,,,,,,,,,,,,,,,,,,,,,
1732158309.108213,1732158309.112112,71.000000,0.000000,4300.000000,4297.948730,4316.922852,4310.512695,4285.000000,4283.461426,4337.051270,4401.282227,4309.743652,4305.512695,4501.153809,4507.692383,4364.102539,4438.974121,0.000000,1.000000,21.000000,,,,0.000000,2.000000,2.000000,0.000000,4.000000,2.000000,2.000000,0.000000,0.000000,4.000000,4.000000,4.000000,4.000000,4.000000,4.000000,0.000000,,,,,,,,,,,,,,,,,,,,,,,,,,,,
1732158309.116021,1732158309.120020,72.000000,0.000000,4295.769043,4290.512695,4317.692383,4305.256348,4289.743652,4289.358887,4336.538574,4401.153809,4308.333496,4305.000000,4490.000000,4508.333496,4355.897461,4430.512695,1533.000000,1.000000,21.000000,,,,0.000000,2.000000,2.000000,0.000000,4.000000,2.000000,2.000000,0.000000,0.000000,4.000000,4.000000,4.000000,4.000000,4.000000,4.000000,0.000000,,,,,,,,,,,,,,,,,18.000000,0.000000,0.496333,0.475830,-0.536865,0.488892,0.986937,-0.038579,-0.018557,-36.463345,44.796703,31.344873
1732158309.123829,1732158309.127828,73.000000,0.000000,4295.000000,4285.128418,4320.384766,4304.487305,4292.820313,4295.128418,4336.794922,4401.922852,4306.282227,4306.666504,4490.000000,4509.743652,4354.615234,4435.641113,1695.000000,1.000000,21.000000,,,,0.000000,2.000000,2.000000,0.000000,4.000000,2.000000,2.000000,0.000000,0.000000,4.000000,4.000000,4.000000,4.000000,4.000000,4.000000,0.000000,,,,,,,,,,,,,,,,,,,,,,,,,,,,
1732158309.131638,1732158309.135836,74.000000,0.000000,4296.666504,4291.538574,4320.641113,4308.333496,4294.102539,4291.410156,4336.922852,4404.358887,4309.871582,4308.333496,4496.538574,4513.333496,4359.487305,4438.589844,1548.000000,1.000000,21.000000,,,,0.000000,2.000000,2.000000,0.000000,4.000000,2.000000,2.000000,0.000000,0.000000,4.000000,4.000000,4.000000,4.000000,4.000000,4.000000,0.000000,,,,,,,,,,,,,,,,,,,,,,,,,,,,
1732158309.139446,1732158309.143644,75.000000,0.000000,4291.538574,4288.461426,4318.846191,4306.538574,4294.358887,4287.307617,4336.410156,4405.384766,4312.051270,4307.948730,4494.743652,4511.538574,4356.153809,4431.538574,1558.000000,1.000000,21.000000,,,,0.000000,2.000000,2.000000,0.000000,4.000000,2.000000,2.000000,0.000000,0.000000,4.000000,4.000000,4.000000,4.000000,4.000000,4.000000,0.000000,,,,,,,,,,,,,,,,,,,,,,,,,,,,
1732158309.147254,1732158309.151552,76.000000,0.000000,4290.384766,4281.282227,4320.897461,4306.025879,4294.102539,4291.410156,4335.128418,4402.051270,4310.512695,4310.128418,4490.384766,4506.922852,4350.897461,4430.641113,1700.000000,1.000000,21.000000,,,,0.000000,2.000000,2.000000,0.000000,4.000000,2.000000,2.000000,0.000000,0.000000,4.000000,4.000000,4.000000,4.000000,4.000000,4.000000,0.000000,,,,,,,,,,,,,,,,,19.000000,0.000000,0.496341,0.475891,-0.536804,0.488892,0.979123,-0.050787,-0.022952,-36.248642,44.961998,31.311014
1732158309.155063,1732158309.159361,77.000000,0.000000,4297.563965,4289.743652,4323.205078,4313.589844,4291.153809,4292.692383,4334.871582,4401.153809,4310.641113,4309.615234,4490.128418,4507.307617,4350.256348,4436.282227,1586.000000,1.000000,21.000000,,,,0.000000,2.000000,2.000000,0.000000,4.000000,2.000000,2.000000,0.000000,0.000000,4.000000,4.000000,4.000000,4.000000,4.000000,4.000000,0.000000,,,,,,,,,,,,,,,,,,,,,,,,,,,,
1732158309.162871,1732158309.167369,78.000000,0.000000,4298.461426,4298.333496,4319.487305,4316.794922,4304.230957,4288.205078,4335.769043,4403.077148,4309.615234,4300.512695,4488.077148,4504.358887,4350.000000,4434.487305,1548.000000,1.000000,21.000000,,,,0.000000,2.000000,2.000000,0.000000,4.000000,2.000000,2.000000,0.000000,0.000000,4.000000,4.000000,4.000000,4.000000,4.000000,4.000000,0.000000,1.000000,0.000000,2.000000,2.000000,0.000000,4.000000,2.000000,2.000000,0.000000,0.000000,4.000000,4.000000,4.000000,4.000000,3.000000,4.000000,,,,,,,,,,,,
1732158309.170679,1732158309.175177,79.000000,0.000000,4295.384766,4295.000000,4317.692383,4312.692383,4312.179688,4287.692383,4335.897461,4402.179688,4306.410156,4301.153809,4488.717773,4498.717773,4353.717773,4435.256348,1558.000000,1.000000,21.000000,,,,0.000000,2.000000,2.000000,0.000000,4.000000,2.000000,2.000000,0.000000,0.000000,4.000000,4.000000,4.000000,4.000000,4.000000,4.000000,0.000000,,,,,,,,,,,,,,,,,,,,,,,,,,,,
1732158309.178487,1732158309.182885,80.000000,0.000000,4296.794922,4291.922852,4318.846191,4311.025879,4290.128418,4296.794922,4335.641113,4402.179688,4309.871582,4311.410156,4491.538574,4503.589844,4358.077148,4442.820313,1700.000000,1.000000,21.000000,,,,0.000000,2.000000,2.000000,0.000000,4.000000,2.000000,2.000000,0.000000,0.000000,4.000000,4.000000,4.000000,4.000000,4.000000,4.000000,0.000000,,,,,,,,,,,,,,,,,20.000000,0.000000,0.496275,0.475647,-0.537415,0.488525,0.985472,-0.054206,-0.039556,-36.163067,44.980885,31.448589
1732158309.186295,1732158309.190693,81.000000,0.000000,4297.179688,4292.436035,4316.794922,4311.538574,4275.512695,4299.102539,4335.512695,4402.563965,4311.922852,4306.153809,4492.436035,4511.153809,4355.769043,4440.897461,1586.000000,1.000000,21.000000,,,,0.000000,2.000000,2.000000,0.000000,4.000000,2.000000,2.000000,0.000000,0.000000,4.000000,4.000000,4.000000,4.000000,4.000000,4.000000,0.000000,,,,,,,,,,,,,,,,,,,,,,,,,,,,
1732158309.194104,1732158309.198701,82.000000,0.000000,4296.922852,4292.563965,4315.512695,4310.256348,4286.025879,4287.307617,4335.769043,4400.384766,4304.230957,4297.179688,4491.794922,4509.358887,4352.436035,4436.666504,1548.000000,1.000000,21.000000,,,,0.000000,2.000000,2.000000,0.000000,4.000000,2.000000,2.000000,0.000000,0.000000,4.000000,4.000000,4.000000,4.000000,4.000000,4.000000,0.000000,,,,,,,,,,,,,,,,,,,,,,,,,,,,
1732158309.201912,1732158309.206510,83.000000,0.000000,4299.871582,4294.615234,4318.717773,4311.666504,4287.051270,4282.820313,4336.025879,4400.128418,4303.077148,4306.153809,4492.307617,4509.871582,4356.794922,4440.512695,1558.000000,1.000000,21.000000,,,,0.000000,2.000000,2.000000,0.000000,4.000000,2.000000,2.000000,0.000000,0.000000,4.000000,4.000000,4.000000,4.000000,4.000000,4.000000,0.000000,,,,,,,,,,,,,,,,,,,,,,,,,,,,
1732158309.209720,1732158309.214218,84.000000,0.000000,4298.717773,4289.230957,4321.922852,4311.025879,4280.000000,4291.282227,4335.256348,4402.563965,4310.384766,4313.589844,4493.717773,4513.589844,4359.615234,4437.692383,1700.000000,1.000000,21.000000,,,,0.000000,2.000000,2.000000,0.000000,4.000000,2.000000,2.000000,0.000000,0.000000,4.000000,4.000000,4.000000,4.000000,4.000000,4.000000,0.000000,,,,,,,,,,,,,,,,,21.000000,0.000000,0.496010,0.475647,-0.537659,0.488525,0.976193,-0.052252,-0.022952,-36.252083,44.754517,31.551689
1732158309.217528,1732158309.222026,85.000000,0.000000,4295.000000,4278.461426,4319.871582,4307.307617,4288.589844,4296.153809,4336.538574,4402.948730,4312.563965,4310.384766,4495.384766,4510.256348,4356.410156,4432.307617,1586.000000,1.000000,21.000000,,,,0.000000,2.000000,2.000000,0.000000,4.000000,2.000000,2.000000,0.000000,0.000000,4.000000,4.000000,4.000000,4.000000,4.000000,4.000000,0.000000,,,,,,,,,,,,,,,,,,,,,,,,,,,,
1732158309.225337,1732158309.229635,86.000000,0.000000,4297.307617,4281.794922,4316.922852,4308.461426,4295.897461,4292.820313,4341.282227,4402.051270,4310.641113,4307.307617,4495.128418,4507.051270,4356.410156,4439.743652,1548.000000,1.000000,21.000000,,,,0.000000,2.000000,2.000000,0.000000,4.000000,2.000000,2.000000,0.000000,0.000000,4.000000,4.000000,4.000000,4.000000,4.000000,4.000000,0.000000,,,,,,,,,,,,,,,,,,,,,,,,,,,,
1732158309.233145,1732158309.237443,87.000000,0.000000,4299.230957,4291.922852,4316.922852,4310.897461,4296.410156,4288.333496,4343.461426,4403.205078,4309.487305,4307.563965,4494.743652,4508.333496,4358.077148,4446.282227,1558.000000,1.000000,21.000000,,,,0.000000,2.000000,2.000000,0.000000,4.000000,2.000000,2.000000,0.000000,0.000000,4.000000,4.000000,4.000000,4.000000,4.000000,4.000000,0.000000,,,,,,,,,,,,,,,,,,,,,,,,,,,,
1732158309.240953,1732158309.245351,88.000000,0.000000,4297.692383,4295.641113,4316.538574,4312.051270,4293.077148,4287.179688,4340.897461,4402.436035,4311.922852,4311.410156,4496.666504,4506.153809,4359.615234,4441.538574,1700.000000,1.000000,21.000000,,,,0.000000,2.000000,2.000000,0.000000,4.000000,2.000000,2.000000,0.000000,0.000000,4.000000,4.000000,4.000000,4.000000,4.000000,4.000000,0.000000,,,,,,,,,,,,,,,,,22.000000,0.000000,0.496010,0.475647,-0.537659,0.488525,0.969845,-0.046392,-0.038091,-36.369186,44.676159,31.605202
1732158309.248762,1732158309.253159,89.000000,0.000000,4297.179688,4293.846191,4316.794922,4311.410156,4293.461426,4289.871582,4339.230957,4403.333496,4308.333496,4305.769043,4495.128418,4501.922852,4358.846191,4432.948730,1586.000000,1.000000,21.000000,,,,0.000000,2.000000,2.000000,0.000000,4.000000,2.000000,2.000000,0.000000,0.000000,4.000000,4.000000,4.000000,4.000000,4.000000,4.000000,0.000000,,,,,,,,,,,,,,,,,,,,,,,,,,,,
1732158309.256570,1732158309.260768,90.000000,0.000000,4297.948730,4290.512695,4320.000000,4310.128418,4310.384766,4293.205078,4340.000000,4409.102539,4299.743652,4295.128418,4490.128418,4503.974121,4352.948730,4430.384766,1548.000000,1.000000,21.000000,,,,0.000000,2.000000,2.000000,0.000000,4.000000,2.000000,2.000000,0.000000,0.000000,4.000000,4.000000,4.000000,4.000000,4.000000,4.000000,0.000000,,,,,,,,,,,,,,,,,,,,,,,,,,,,
1732158309.264378,1732158309.268576,91.000000,0.000000,4298.205078,4291.794922,4321.794922,4310.769043,4308.205078,4292.051270,4339.871582,4410.256348,4301.666504,4302.820313,4491.025879,4510.000000,4353.077148,4438.846191,1558.000000,1.000000,21.000000,,,,0.000000,2.000000,2.000000,0.000000,4.000000,2.000000,2.000000,0.000000,0.000000,4.000000,4.000000,4.000000,4.000000,4.000000,4.000000,0.000000,,,,,,,,,,,,,,,,,,,,,,,,,,,,
1732158309.272186,1732158309.276284,92.000000,0.000000,4298.205078,4293.205078,4320.128418,4312.307617,4282.051270,4293.333496,4339.487305,4403.205078,4310.256348,4314.487305,4494.487305,4511.538574,4357.563965,4441.410156,1700.000000,1.000000,21.000000,,,,0.000000,2.000000,2.000000,0.000000,4.000000,2.000000,2.000000,0.000000,0.000000,4.000000,4.000000,4.000000,4.000000,4.000000,4.000000,0.000000,,,,,,,,,,,,,,,,,23.000000,0.000000,0.495371,0.475830,-0.538086,0.488525,0.974728,-0.060066,-0.031254,-36.040710,44.621021,31.595213
1732158309.279994,1732158309.284092,93.000000,0.000000,4296.922852,4286.025879,4318.205078,4310.512695,4278.589844,4297.051270,4339.615234,4403.205078,4310.897461,4311.666504,4492.948730,4508.974121,4353.717773,4431.153809,1586.000000,1.000000,21.000000,,,,0.000000,2.000000,2.000000,0.000000,4.000000,2.000000,2.000000,0.000000,0.000000,4.000000,4.000000,4.000000,4.000000,4.000000,4.000000,0.000000,,,,,,,,,,,,,,,,,,,,,,,,,,,,
1732158309.287803,1732158309.291701,94.000000,0.000000,4295.641113,4282.948730,4319.871582,4308.333496,4299.102539,4296.282227,4339.743652,4406.282227,4309.230957,4308.077148,4491.666504,4507.051270,4347.820313,4427.051270,1548.000000,1.000000,21.000000,,,,0.000000,2.000000,2.000000,0.000000,4.000000,2.000000,2.000000,0.000000,0.000000,4.000000,4.000000,4.000000,4.000000,4.000000,4.000000,0.000000,,,,,,,,,,,,,,,,,,,,,,,,,,,,
1732158309.295611,1732158309.299509,95.000000,0.000000,4297.307617,4291.410156,4322.692383,4313.205078,4296.538574,4296.153809,4339.615234,4402.820313,4311.794922,4311.410156,4493.205078,4502.051270,4351.538574,4431.922852,1558.000000,1.000000,21.000000,,,,0.000000,2.000000,2.000000,0.000000,4.000000,2.000000,2.000000,0.000000,0.000000,4.000000,4.000000,4.000000,4.000000,4.000000,4.000000,0.000000,,,,,,,,,,,,,,,,,,,,,,,,,,,,
1732158309.303419,1732158309.307217,96.000000,0.000000,4297.179688,4290.897461,4319.230957,4314.358887,4288.717773,4297.692383,4339.615234,4401.025879,4310.384766,4308.333496,4492.820313,4496.153809,4354.358887,4428.974121,1700.000000,1.000000,21.000000,,,,0.000000,2.000000,2.000000,0.000000,4.000000,2.000000,2.000000,0.000000,0.000000,4.000000,4.000000,4.000000,4.000000,4.000000,4.000000,0.000000,,,,,,,,,,,,,,,,,24.000000,0.000000,0.494823,0.476074,-0.538208,0.488708,0.980588,-0.049811,-0.030277,-35.751308,44.571362,31.498791
1732158309.311227,1732158309.315025,97.000000,0.000000,4292.179688,4280.512695,4316.025879,4307.563965,4308.974121,4294.615234,4340.128418,4403.333496,4307.179688,4299.487305,4489.743652,4494.871582,4348.717773,4423.461426,1586.000000,1.000000,21.000000,,,,0.000000,2.000000,2.000000,0.000000,4.000000,2.000000,2.000000,0.000000,0.000000,4.000000,4.000000,4.000000,4.000000,4.000000,4.000000,0.000000,,,,,,,,,,,,,,,,,,,,,,,,,,,,
1732158309.319036,1732158309.322634,98.000000,0.000000,4290.384766,4280.128418,4316.794922,4305.897461,4308.974121,4293.205078,4339.487305,4402.820313,4307.948730,4297.436035,4486.922852,4498.333496,4349.102539,4426.794922,1548.000000,1.000000,21.000000,,,,0.000000,2.000000,2.000000,0.000000,4.000000,2.000000,2.000000,0.000000,0.000000,4.000000,4.000000,4.000000,4.000000,4.000000,4.000000,0.000000,,,,,,,,,,,,,,,,,,,,,,,,,,,,
1732158309.326844,1732158309.330442,99.000000,0.000000,4292.436035,4283.205078,4317.051270,4307.051270,4281.025879,4297.820313,4339.102539,4404.615234,4308.461426,4305.384766,4489.230957,4504.871582,4353.205078,4428.846191,1558.000000,1.000000,21.000000,,,,0.000000,2.000000,2.000000,0.000000,4.000000,2.000000,2.000000,0.000000,0.000000,4.000000,4.000000,4.000000,4.000000,4.000000,4.000000,0.000000,,,,,,,,,,,,,,,,,,,,,,,,,,,,
1732158309.334652,1732158309.338350,100.000000,0.000000,4292.307617,4280.897461,4316.025879,4305.384766,4276.410156,4297.179688,4341.282227,4407.051270,4311.282227,4311.922852,4493.205078,4509.230957,4352.820313,4427.179688,1700.000000,1.000000,21.000000,,,,0.000000,2.000000,2.000000,0.000000,4.000000,2.000000,2.000000,0.000000,0.000000,4.000000,4.000000,4.000000,4.000000,4.000000,4.000000,0.000000,,,,,,,,,,,,,,,,,25.000000,0.000000,0.494274,0.476318,-0.538330,0.488892,0.972287,-0.058113,-0.032230,-35.560226,44.604469,31.419020
1732158309.342461,1732158309.346158,101.000000,0.000000,4292.563965,4280.256348,4314.743652,4307.692383,4289.615234,4289.871582,4340.769043,4403.846191,4313.333496,4308.974121,4493.333496,4505.769043,4352.051270,4429.102539,1586.000000,1.000000,21.000000,,,,0.000000,2.000000,2.000000,0.000000,4.000000,2.000000,2.000000,0.000000,0.000000,4.000000,4.000000,4.000000,4.000000,4.000000,4.000000,0.000000,,,,,,,,,,,,,,,,,,,,,,,,,,,,
1732158309.350269,1732158309.354166,102.000000,0.000000,4294.615234,4282.179688,4314.871582,4310.641113,4285.512695,4288.974121,4337.692383,4402.948730,4313.717773,4306.666504,4491.922852,4502.179688,4353.461426,4432.436035,1548.000000,1.000000,21.000000,,,,0.000000,2.000000,2.000000,0.000000,4.000000,2.000000,2.000000,0.000000,0.000000,4.000000,4.000000,4.000000,4.000000,4.000000,4.000000,0.000000,,,,,,,,,,,,,,,,,,,,,,,,,,,,
1732158309.358077,1732158309.361975,103.000000,0.000000,4295.000000,4281.153809,4317.307617,4305.512695,4277.307617,4291.538574,4338.717773,4404.615234,4312.436035,4306.794922,4492.948730,4512.179688,4353.205078,4431.282227,1558.000000,1.000000,21.000000,,,,0.000000,2.000000,2.000000,0.000000,4.000000,2.000000,2.000000,0.000000,0.000000,4.000000,4.000000,4.000000,4.000000,4.000000,4.000000,0.000000,,,,,,,,,,,,,,,,,,,,,,,,,,,,
1732158309.365885,1732158309.369683,104.000000,0.000000,4292.179688,4278.717773,4316.922852,4299.615234,4283.846191,4293.205078,4342.307617,4404.358887,4310.641113,4305.641113,4491.794922,4519.615234,4351.153809,4429.230957,1700.000000,1.000000,21.000000,,,,0.000000,2.000000,2.000000,0.000000,4.000000,2.000000,2.000000,0.000000,0.000000,4.000000,4.000000,4.000000,4.000000,4.000000,4.000000,0.000000,,,,,,,,,,,,,,,,,26.000000,0.000000,0.494094,0.476379,-0.538330,0.489014,0.972287,-0.058113,-0.032230,-35.390450,44.521286,31.244406
1732158309.373694,1732158309.377491,105.000000,0.000000,4286.922852,4279.615234,4314.743652,4300.128418,4292.820313,4295.641113,4340.641113,4407.179688,4312.948730,4306.153809,4488.974121,4510.769043,4351.025879,4429.102539,1586.000000,1.000000,21.000000,,,,0.000000,2.000000,2.000000,0.000000,4.000000,2.000000,2.000000,0.000000,0.000000,4.000000,4.000000,4.000000,4.000000,4.000000,4.000000,0.000000,,,,,,,,,,,,,,,,,,,,,,,,,,,,
1732158309.381502,1732158309.385099,106.000000,0.000000,4281.410156,4281.538574,4317.307617,4302.948730,4298.717773,4295.897461,4334.487305,4408.461426,4314.743652,4305.897461,4490.128418,4502.948730,4350.000000,4425.512695,1548.000000,1.000000,21.000000,,,,0.000000,2.000000,2.000000,0.000000,4.000000,2.000000,2.000000,0.000000,0.000000,4.000000,4.000000,4.000000,4.000000,4.000000,4.000000,0.000000,,,,,,,,,,,,,,,,,,,,,,,,,,,,
1732158309.389310,1732158309.392908,107.000000,0.000000,4280.256348,4282.692383,4318.333496,4303.717773,4293.846191,4295.512695,4333.717773,4405.000000,4312.051270,4303.205078,4490.384766,4506.922852,4348.717773,4422.820313,1558.000000,1.000000,21.000000,,,,0.000000,2.000000,2.000000,0.000000,4.000000,2.000000,2.000000,0.000000,0.000000,4.000000,4.000000,4.000000,4.000000,4.000000,4.000000,0.000000,,,,,,,,,,,,,,,,,,,,,,,,,,,,
1732158309.397118,1732158309.400616,108.000000,0.000000,4283.974121,4282.563965,4316.794922,4301.922852,4294.871582,4295.000000,4338.589844,4402.436035,4307.307617,4297.692383,4487.820313,4508.846191,4350.000000,4426.410156,1700.000000,1.000000,21.000000,,,,0.000000,2.000000,2.000000,0.000000,4.000000,2.000000,2.000000,0.000000,0.000000,4.000000,4.000000,4.000000,4.000000,4.000000,4.000000,0.000000,,,,,,,,,,,,,,,,,27.000000,0.000000,0.493848,0.476440,-0.538391,0.489136,0.968380,-0.061531,-0.031254,-35.641266,44.547241,31.374636
1732158309.404926,1732158309.408424,109.000000,0.000000,4289.743652,4280.641113,4318.974121,4304.230957,4305.256348,4291.538574,4340.769043,4402.051270,4305.000000,4294.358887,4488.846191,4509.743652,4350.641113,4429.102539,1586.000000,1.000000,21.000000,,,,0.000000,2.000000,2.000000,0.000000,4.000000,2.000000,2.000000,0.000000,0.000000,4.000000,4.000000,4.000000,4.000000,4.000000,4.000000,0.000000,,,,,,,,,,,,,,,,,,,,,,,,,,,,
1732158309.412735,1732158309.416432,110.000000,0.000000,4293.846191,4282.051270,4318.589844,4310.384766,4291.922852,4291.410156,4341.666504,4401.025879,4310.769043,4298.333496,4490.512695,4516.666504,4351.538574,4429.102539,1548.000000,1.000000,21.000000,,,,0.000000,2.000000,2.000000,0.000000,4.000000,2.000000,2.000000,0.000000,0.000000,4.000000,4.000000,4.000000,4.000000,4.000000,4.000000,0.000000,,,,,,,,,,,,,,,,,,,,,,,,,,,,
1732158309.420543,1732158309.424240,111.000000,0.000000,4294.102539,4285.897461,4317.436035,4312.436035,4274.230957,4297.692383,4343.077148,4402.051270,4319.102539,4305.000000,4488.974121,4517.692383,4351.153809,4430.000000,1558.000000,1.000000,21.000000,,,,0.000000,2.000000,2.000000,0.000000,4.000000,2.000000,2.000000,0.000000,0.000000,4.000000,4.000000,4.000000,4.000000,4.000000,4.000000,0.000000,,,,,,,,,,,,,,,,,,,,,,,,,,,,
1732158309.428351,1732158309.432149,112.000000,0.000000,4295.256348,4288.974121,4320.000000,4313.589844,4286.410156,4299.102539,4342.179688,4404.615234,4316.666504,4303.205078,4487.948730,4511.282227,4348.461426,4428.333496,1700.000000,1.000000,21.000000,,,,0.000000,2.000000,2.000000,0.000000,4.000000,2.000000,2.000000,0.000000,0.000000,4.000000,4.000000,4.000000,4.000000,4.000000,4.000000,0.000000,,,,,,,,,,,,,,,,,28.000000,0.000000,0.493722,0.476501,-0.538452,0.489136,0.975217,-0.058601,-0.027835,-35.686092,44.618267,31.280121
1732158309.436159,1732158309.439957,113.000000,0.000000,4297.563965,4289.871582,4317.436035,4315.384766,4299.358887,4295.000000,4339.102539,4404.487305,4307.948730,4296.666504,4488.333496,4508.333496,4348.205078,4426.538574,1586.000000,1.000000,21.000000,,,,0.000000,2.000000,2.000000,0.000000,4.000000,2.000000,2.000000,0.000000,0.000000,4.000000,4.000000,4.000000,4.000000,4.000000,4.000000,0.000000,,,,,,,,,,,,,,,,,,,,,,,,,,,,
1732158309.443968,1732158309.447965,114.000000,0.000000,4296.538574,4285.897461,4314.871582,4312.436035,4293.461426,4293.974121,4338.717773,4404.102539,4309.487305,4296.922852,4489.615234,4509.230957,4348.974121,4428.717773,1548.000000,1.000000,21.000000,,,,0.000000,2.000000,2.000000,0.000000,4.000000,2.000000,2.000000,0.000000,0.000000,4.000000,4.000000,4.000000,4.000000,4.000000,4.000000,0.000000,,,,,,,,,,,,,,,,,,,,,,,,,,,,
1732158309.451776,1732158309.455773,115.000000,0.000000,4293.333496,4280.769043,4317.436035,4310.256348,4288.461426,4296.025879,4337.307617,4404.615234,4313.205078,4298.205078,4488.333496,4508.974121,4345.641113,4424.358887,1558.000000,1.000000,21.000000,,,,0.000000,2.000000,2.000000,0.000000,4.000000,2.000000,2.000000,0.000000,0.000000,4.000000,4.000000,4.000000,4.000000,4.000000,4.000000,0.000000,,,,,,,,,,,,,,,,,,,,,,,,,,,,
1732158309.459584,1732158309.463681,116.000000,0.000000,4286.410156,4278.205078,4316.794922,4304.615234,4292.820313,4297.948730,4335.384766,4404.871582,4309.871582,4295.256348,4479.230957,4507.692383,4339.871582,4418.589844,1700.000000,1.000000,21.000000,,,,0.000000,2.000000,2.000000,0.000000,4.000000,2.000000,2.000000,0.000000,0.000000,4.000000,4.000000,4.000000,4.000000,4.000000,4.000000,0.000000,,,,,,,,,,,,,,,,,29.000000,0.000000,0.493543,0.476563,-0.538452,0.489258,0.975217,-0.058601,-0.027835,-35.884068,44.524128,31.348564
1732158309.467393,1732158309.471489,117.000000,0.000000,4279.743652,4277.436035,4316.025879,4296.538574,4305.769043,4295.641113,4338.461426,4403.077148,4306.153809,4291.282227,4472.307617,4505.128418,4335.256348,4422.820313,1586.000000,1.000000,21.000000,,,,0.000000,2.000000,2.000000,0.000000,4.000000,2.000000,2.000000,0.000000,0.000000,4.000000,4.000000,4.000000,4.000000,4.000000,4.000000,0.000000,,,,,,,,,,,,,,,,,,,,,,,,,,,,
1732158309.475201,1732158309.479098,118.000000,0.000000,4282.436035,4277.692383,4321.282227,4301.794922,4307.051270,4291.794922,4341.666504,4404.230957,4306.282227,4292.692383,4480.897461,4509.487305,4336.794922,4427.436035,1548.000000,1.000000,21.000000,,,,0.000000,2.000000,2.000000,0.000000,4.000000,2.000000,2.000000,0.000000,0.000000,4.000000,4.000000,4.000000,4.000000,4.000000,4.000000,0.000000,,,,,,,,,,,,,,,,,,,,,,,,,,,,
1732158309.483009,1732158309.486906,119.000000,0.000000,4292.307617,4281.153809,4320.256348,4313.461426,4284.102539,4295.256348,4341.410156,4405.128418,4308.846191,4300.000000,4492.051270,4516.025879,4347.179688,4427.820313,1558.000000,1.000000,21.000000,,,,0.000000,2.000000,2.000000,0.000000,4.000000,2.000000,2.000000,0.000000,0.000000,4.000000,4.000000,4.000000,4.000000,4.000000,4.000000,0.000000,,,,,,,,,,,,,,,,,,,,,,,,,,,,
1732158309.490817,1732158309.494814,120.000000,0.000000,4294.230957,4282.820313,4315.769043,4313.717773,4273.205078,4292.820313,4340.769043,4400.512695,4311.922852,4305.256348,4491.282227,4511.282227,4350.897461,4429.358887,1700.000000,1.000000,21.000000,,,,0.000000,2.000000,2.000000,0.000000,4.000000,2.000000,2.000000,0.000000,0.000000,4.000000,4.000000,4.000000,4.000000,4.000000,4.000000,0.000000,,,,,,,,,,,,,,,,,30.000000,0.000000,0.493059,0.476379,-0.539001,0.489319,0.978635,-0.062996,-0.043951,-35.916096,44.599545,31.450670
1732158309.498625,1732158309.502622,121.000000,0.000000,4288.974121,4280.512695,4316.922852,4308.333496,4284.230957,4281.153809,4342.820313,4396.666504,4313.717773,4303.461426,4488.205078,4503.589844,4345.641113,4429.871582,1586.000000,1.000000,21.000000,,,,0.000000,2.000000,2.000000,0.000000,4.000000,2.000000,2.000000,0.000000,0.000000,4.000000,4.000000,4.000000,4.000000,4.000000,4.000000,0.000000,,,,,,,,,,,,,,,,,,,,,,,,,,,,
1732158309.506434,1732158309.510630,122.000000,0.000000,4291.025879,4279.871582,4316.666504,4306.410156,4289.102539,4280.384766,4342.563965,4398.846191,4310.769043,4298.846191,4489.615234,4505.897461,4348.461426,4429.230957,1548.000000,1.000000,21.000000,,,,0.000000,2.000000,2.000000,0.000000,4.000000,2.000000,2.000000,0.000000,0.000000,4.000000,4.000000,4.000000,4.000000,4.000000,4.000000,0.000000,,,,,,,,,,,,,,,,,,,,,,,,,,,,
1732158309.514242,1732158309.518438,123.000000,0.000000,4296.538574,4279.615234,4316.794922,4308.077148,4283.077148,4291.922852,4335.128418,4402.692383,4307.692383,4297.820313,4491.666504,4517.563965,4351.794922,4433.333496,1558.000000,1.000000,21.000000,,,,0.000000,2.000000,2.000000,0.000000,4.000000,2.000000,2.000000,0.000000,0.000000,4.000000,4.000000,4.000000,4.000000,4.000000,4.000000,0.000000,,,,,,,,,,,,,,,,,,,,,,,,,,,,
1732158309.522050,1732158309.526346,124.000000,0.000000,4296.153809,4279.230957,4322.179688,4309.358887,4289.230957,4295.641113,4332.948730,4402.820313,4308.461426,4297.820313,4491.922852,4524.487305,4344.487305,4435.256348,1700.000000,1.000000,21.000000,,,,0.000000,2.000000,2.000000,0.000000,4.000000,2.000000,2.000000,0.000000,0.000000,4.000000,4.000000,4.000000,4.000000,4.000000,4.000000,0.000000,,,,,,,,,,,,,,,,,31.000000,0.000000,0.492745,0.476440,-0.539124,0.489441,0.968868,-0.067391,-0.042486,-35.875370,44.643963,31.433376
1732158309.529858,1732158309.534155,125.000000,0.000000,4293.717773,4279.230957,4322.307617,4306.025879,4308.333496,4295.128418,4339.743652,4403.589844,4308.717773,4294.358887,4491.025879,4522.563965,4338.974121,4433.461426,1586.000000,1.000000,21.000000,,,,0.000000,2.000000,2.000000,0.000000,4.000000,2.000000,2.000000,0.000000,0.000000,4.000000,4.000000,4.000000,4.000000,4.000000,4.000000,0.000000,,,,,,,,,,,,,,,,,,,,,,,,,,,,
1732158309.537667,1732158309.542163,126.000000,0.000000,4294.743652,4279.487305,4315.384766,4301.282227,4303.974121,4296.922852,4343.974121,4405.256348,4308.077148,4294.743652,4490.256348,4518.974121,4345.384766,4438.077148,1548.000000,1.000000,21.000000,,,,0.000000,2.000000,2.000000,0.000000,4.000000,2.000000,2.000000,0.000000,0.000000,4.000000,4.000000,4.000000,4.000000,4.000000,4.000000,0.000000,,,,,,,,,,,,,,,,,,,,,,,,,,,,
1732158309.545475,1732158309.549971,127.000000,0.000000,4295.512695,4279.487305,4315.256348,4302.307617,4278.717773,4287.051270,4339.358887,4404.615234,4307.692383,4300.769043,4491.666504,4520.641113,4351.282227,4444.230957,21.000000,1.000000,21.000000,,,,0.000000,2.000000,2.000000,0.000000,4.000000,2.000000,2.000000,0.000000,0.000000,4.000000,4.000000,4.000000,4.000000,4.000000,4.000000,0.000000,,,,,,,,,,,,,,,,,,,,,,,,,,,,
1732158309.553283,1732158309.557879,0.000000,0.000000,4294.230957,4281.025879,4320.128418,4306.666504,4268.205078,4277.436035,4335.512695,4405.897461,4309.487305,4301.666504,4492.436035,4523.077148,4346.538574,4444.743652,0.000000,1.000000,21.000000,,,,0.000000,2.000000,2.000000,0.000000,4.000000,2.000000,2.000000,0.000000,0.000000,4.000000,4.000000,4.000000,4.000000,4.000000,4.000000,0.000000,,,,,,,,,,,,,,,,,0.000000,0.000000,0.492587,0.476624,-0.538940,0.489624,0.981565,-0.068368,-0.037114,-35.740715,44.869946,31.097702
1732158309.561092,1732158309.565687,1.000000,0.000000,4295.000000,4283.461426,4319.871582,4311.153809,4278.717773,4282.820313,4337.820313,4404.102539,4310.384766,4294.871582,4489.102539,4521.922852,4340.512695,4442.692383,1599.000000,1.000000,21.000000,,,,0.000000,2.000000,2.000000,0.000000,4.000000,2.000000,2.000000,0.000000,0.000000,4.000000,4.000000,4.000000,4.000000,4.000000,4.000000,0.000000,,,,,,,,,,,,,,,,,,,,,,,,,,,,
1732158309.568900,1732158309.573296,2.000000,0.000000,4296.794922,4283.333496,4316.666504,4312.307617,4295.384766,4284.743652,4339.871582,4400.256348,4308.717773,4292.820313,4488.589844,4520.384766,4342.436035,4441.538574,1361.000000,1.000000,21.000000,,,,0.000000,2.000000,2.000000,0.000000,4.000000,2.000000,2.000000,0.000000,0.000000,4.000000,4.000000,4.000000,4.000000,4.000000,4.000000,0.000000,,,,,,,,,,,,,,,,,,,,,,,,,,,,
1732158309.576708,1732158309.581104,3.000000,0.000000,4298.461426,4282.179688,4315.897461,4310.128418,4299.358887,4279.871582,4340.256348,4401.794922,4308.974121,4294.743652,4492.820313,4522.820313,4345.641113,4443.205078,1419.000000,1.000000,21.000000,,,,0.000000,2.000000,2.000000,0.000000,4.000000,2.000000,2.000000,0.000000,0.000000,4.000000,4.000000,4.000000,4.000000,4.000000,4.000000,0.000000,,,,,,,,,,,,,,,,,,,,,,,,,,,,
1732158309.584516,1732158309.588912,4.000000,0.000000,4299.230957,4282.692383,4319.230957,4309.743652,4282.436035,4286.410156,4340.128418,4405.641113,4311.922852,4294.102539,4490.000000,4521.538574,4341.794922,4438.846191,1427.000000,1.000000,21.000000,,,,0.000000,2.000000,2.000000,0.000000,4.000000,2.000000,2.000000,0.000000,0.000000,4.000000,4.000000,4.000000,4.000000,4.000000,4.000000,0.000000,,,,,,,,,,,,,,,,,1.000000,0.000000,0.492282,0.476807,-0.539001,0.489685,0.965938,-0.048346,-0.045416,-35.948315,44.989655,31.142471
1732158309.592325,1732158309.596720,5.000000,0.000000,4296.025879,4283.333496,4321.410156,4309.230957,4274.358887,4296.538574,4340.000000,4402.820313,4310.000000,4293.589844,4479.615234,4509.871582,4337.563965,4428.974121,1209.000000,1.000000,21.000000,,,,0.000000,2.000000,2.000000,0.000000,4.000000,2.000000,2.000000,0.000000,0.000000,4.000000,4.000000,4.000000,4.000000,4.000000,4.000000,0.000000,,,,,,,,,,,,,,,,,,,,,,,,,,,,
1732158309.600133,1732158309.604628,6.000000,0.000000,4291.153809,4283.077148,4319.743652,4306.153809,4287.051270,4294.487305,4340.256348,4399.615234,4303.077148,4293.974121,4476.538574,4503.461426,4338.717773,4426.410156,0.000000,1.000000,21.000000,,,,0.000000,2.000000,2.000000,0.000000,4.000000,2.000000,2.000000,0.000000,0.000000,4.000000,4.000000,4.000000,4.000000,4.000000,4.000000,0.000000,,,,,,,,,,,,,,,,,,,,,,,,,,,,
1732158309.607941,1732158309.612437,7.000000,0.000000,4291.025879,4282.692383,4320.000000,4304.358887,4288.461426,4291.538574,4341.153809,4403.077148,4303.717773,4293.589844,4480.000000,4512.051270,4340.641113,4430.512695,0.000000,1.000000,21.000000,,,,0.000000,2.000000,2.000000,0.000000,4.000000,2.000000,2.000000,0.000000,0.000000,4.000000,4.000000,4.000000,4.000000,4.000000,4.000000,0.000000,,,,,,,,,,,,,,,,,,,,,,,,,,,,
1732158309.615749,1732158309.620145,8.000000,0.000000,4296.025879,4282.692383,4318.846191,4307.948730,4285.641113,4291.922852,4341.025879,4406.025879,4309.230957,4293.461426,4483.205078,4517.692383,4341.282227,4430.128418,1536.000000,1.000000,21.000000,,,,0.000000,2.000000,2.000000,0.000000,4.000000,2.000000,2.000000,0.000000,0.000000,4.000000,4.000000,4.000000,4.000000,4.000000,4.000000,0.000000,,,,,,,,,,,,,,,,,2.000000,0.000000,0.492162,0.476440,-0.539490,0.489624,0.985960,-0.057136,-0.037114,-35.808132,44.866619,31.320402
1732158309.623557,1732158309.627953,9.000000,0.000000,4297.563965,4282.436035,4317.179688,4312.179688,4288.077148,4291.153809,4340.000000,4403.589844,4308.589844,4294.358887,4488.974121,4516.794922,4342.692383,4428.846191,1695.000000,1.000000,21.000000,,,,0.000000,2.000000,2.000000,0.000000,4.000000,2.000000,2.000000,0.000000,0.000000,4.000000,4.000000,4.000000,4.000000,4.000000,4.000000,0.000000,,,,,,,,,,,,,,,,,,,,,,,,,,,,
1732158309.631366,1732158309.635562,10.000000,0.000000,4287.820313,4280.897461,4318.333496,4305.128418,4288.205078,4289.487305,4340.897461,4398.205078,4306.410156,4294.102539,4485.897461,4513.077148,4342.563965,4424.615234,1548.000000,1.000000,21.000000,,,,0.000000,2.000000,2.000000,0.000000,4.000000,2.000000,2.000000,0.000000,0.000000,4.000000,4.000000,4.000000,4.000000,4.000000,4.000000,0.000000,,,,,,,,,,,,,,,,,,,,,,,,,,,,
1732158309.639174,1732158309.643370,11.000000,0.000000,4278.461426,4278.717773,4318.461426,4295.641113,4302.436035,4285.384766,4339.743652,4400.128418,4308.205078,4292.820313,4476.410156,4507.948730,4340.256348,4416.410156,1558.000000,1.000000,21.000000,,,,0.000000,2.000000,2.000000,0.000000,4.000000,2.000000,2.000000,0.000000,0.000000,4.000000,4.000000,4.000000,4.000000,4.000000,4.000000,0.000000,,,,,,,,,,,,,,,,,,,,,,,,,,,,
1732158309.646982,1732158309.651078,12.000000,0.000000,4284.615234,4278.846191,4315.897461,4298.589844,4303.589844,4289.102539,4335.512695,4404.102539,4311.153809,4301.025879,4482.820313,4507.692383,4341.025879,4420.769043,1700.000000,1.000000,21.000000,,,,0.000000,2.000000,2.000000,0.000000,4.000000,2.000000,2.000000,0.000000,0.000000,4.000000,4.000000,4.000000,4.000000,4.000000,4.000000,0.000000,,,,,,,,,,,,,,,,,3.000000,0.000000,0.491877,0.476685,-0.539368,0.489807,0.960566,-0.061531,-0.034672,-35.659588,44.680294,31.349525
1732158309.654791,1732158309.658886,13.000000,0.000000,4296.153809,4279.871582,4316.153809,4305.384766,4278.461426,4295.641113,4334.358887,4400.512695,4311.153809,4310.384766,4487.820313,4511.666504,4342.820313,4431.025879,1591.000000,1.000000,21.000000,,,,0.000000,2.000000,2.000000,0.000000,4.000000,2.000000,2.000000,0.000000,0.000000,4.000000,4.000000,4.000000,4.000000,4.000000,4.000000,0.000000,,,,,,,,,,,,,,,,,,,,,,,,,,,,
1732158309.662599,1732158309.666495,14.000000,0.000000,4294.871582,4279.615234,4318.717773,4303.205078,4273.205078,4289.743652,4335.641113,4401.794922,4308.846191,4304.871582,4478.717773,4508.589844,4343.205078,4427.179688,1548.000000,1.000000,21.000000,,,,0.000000,2.000000,2.000000,0.000000,4.000000,2.000000,2.000000,0.000000,0.000000,4.000000,4.000000,4.000000,4.000000,4.000000,4.000000,0.000000,1.000000,0.000000,2.000000,2.000000,0.000000,4.000000,2.000000,2.000000,0.000000,0.000000,4.000000,4.000000,4.000000,4.000000,4.000000,4.000000,,,,,,,,,,,,
1732158309.670407,1732158309.674303,15.000000,0.000000,4285.256348,4278.333496,4320.128418,4301.922852,4292.820313,4286.282227,4335.512695,4405.897461,4307.179688,4296.794922,4478.461426,4506.922852,4342.051270,4422.563965,1558.000000,1.000000,21.000000,,,,0.000000,2.000000,2.000000,0.000000,4.000000,2.000000,2.000000,0.000000,0.000000,4.000000,4.000000,4.000000,4.000000,4.000000,4.000000,0.000000,,,,,,,,,,,,,,,,,,,,,,,,,,,,
1732158309.678215,1732158309.682011,16.000000,0.000000,4281.282227,4277.051270,4321.153809,4303.077148,4300.769043,4296.922852,4335.128418,4403.461426,4311.153809,4303.205078,4484.358887,4512.436035,4336.666504,4423.205078,0.000000,1.000000,21.000000,,,,0.000000,2.000000,2.000000,0.000000,4.000000,2.000000,2.000000,0.000000,0.000000,4.000000,4.000000,4.000000,4.000000,4.000000,4.000000,0.000000,,,,,,,,,,,,,,,,,4.000000,0.000000,0.491817,0.476685,-0.539368,0.489868,0.968380,-0.062508,-0.033696,-35.672600,44.576038,31.256449
1732158309.686024,1732158309.689819,17.000000,0.000000,4282.692383,4276.538574,4316.794922,4298.974121,4291.153809,4296.794922,4335.641113,4401.025879,4314.615234,4310.897461,4481.794922,4511.794922,4335.000000,4422.307617,0.000000,1.000000,21.000000,,,,0.000000,2.000000,2.000000,0.000000,4.000000,2.000000,2.000000,0.000000,0.000000,4.000000,4.000000,4.000000,4.000000,4.000000,4.000000,0.000000,,,,,,,,,,,,,,,,,,,,,,,,,,,,
1732158309.693832,1732158309.697428,18.000000,0.000000,4281.282227,4278.589844,4314.743652,4294.487305,4290.512695,4282.692383,4336.153809,4401.666504,4305.128418,4302.307617,4478.974121,4505.000000,4339.230957,4422.436035,0.000000,1.000000,21.000000,,,,0.000000,2.000000,2.000000,0.000000,4.000000,2.000000,2.000000,0.000000,0.000000,4.000000,4.000000,4.000000,4.000000,4.000000,4.000000,0.000000,,,,,,,,,,,,,,,,,,,,,,,,,,,,
1732158309.701640,1732158309.705236,19.000000,0.000000,4281.025879,4279.358887,4320.769043,4297.179688,4311.410156,4282.051270,4335.769043,4401.153809,4297.179688,4292.436035,4479.871582,4505.384766,4340.384766,4425.384766,0.000000,1.000000,21.000000,,,,0.000000,2.000000,2.000000,0.000000,4.000000,2.000000,2.000000,0.000000,0.000000,4.000000,4.000000,4.000000,4.000000,4.000000,4.000000,0.000000,,,,,,,,,,,,,,,,,,,,,,,,,,,,
1732158309.709448,1732158309.712944,20.000000,0.000000,4290.128418,4278.333496,4321.666504,4303.333496,4307.563965,4288.205078,4335.256348,4401.282227,4309.230957,4299.358887,4480.000000,4515.384766,4340.384766,4426.282227,0.000000,1.000000,21.000000,,,,0.000000,2.000000,2.000000,0.000000,4.000000,2.000000,2.000000,0.000000,0.000000,4.000000,4.000000,4.000000,4.000000,4.000000,4.000000,0.000000,,,,,,,,,,,,,,,,,5.000000,0.000000,0.491636,0.476746,-0.539368,0.489990,0.982542,-0.066414,-0.043951,-35.689804,44.856590,31.199390
1732158309.717256,1732158309.720753,21.000000,0.000000,4295.128418,4280.384766,4316.282227,4305.256348,4279.358887,4290.000000,4338.077148,4402.179688,4317.692383,4306.538574,4479.743652,4516.410156,4342.051270,4422.563965,0.000000,1.000000,21.000000,,,,0.000000,2.000000,2.000000,0.000000,4.000000,2.000000,2.000000,0.000000,0.000000,4.000000,4.000000,4.000000,4.000000,4.000000,4.000000,0.000000,,,,,,,,,,,,,,,,,,,,,,,,,,,,
1732158309.725065,1732158309.728361,22.000000,0.000000,4292.820313,4283.461426,4318.333496,4306.922852,4291.794922,4293.717773,4341.794922,4401.922852,4302.563965,4298.461426,4482.692383,4508.717773,4341.410156,4423.333496,0.000000,1.000000,21.000000,,,,0.000000,2.000000,2.000000,0.000000,4.000000,2.000000,2.000000,0.000000,0.000000,4.000000,4.000000,4.000000,4.000000,4.000000,4.000000,0.000000,,,,,,,,,,,,,,,,,,,,,,,,,,,,
1732158309.732873,1732158309.736169,23.000000,0.000000,4292.179688,4281.794922,4322.948730,4310.897461,4310.256348,4296.794922,4340.897461,4402.692383,4293.589844,4291.153809,4487.948730,4508.461426,4341.153809,4426.282227,0.000000,1.000000,21.000000,,,,0.000000,2.000000,2.000000,0.000000,4.000000,2.000000,2.000000,0.000000,0.000000,4.000000,4.000000,4.000000,4.000000,4.000000,4.000000,0.000000,,,,,,,,,,,,,,,,,,,,,,,,,,,,
1732158309.740681,1732158309.743877,24.000000,0.000000,4289.230957,4280.128418,4318.205078,4309.102539,4285.384766,4296.666504,4336.538574,4402.820313,4306.410156,4296.794922,4487.436035,4509.743652,4342.051270,4424.230957,0.000000,1.000000,21.000000,,,,0.000000,2.000000,2.000000,0.000000,4.000000,2.000000,2.000000,0.000000,0.000000,4.000000,4.000000,4.000000,4.000000,4.000000,4.000000,0.000000,,,,,,,,,,,,,,,,,6.000000,0.000000,0.491371,0.476868,-0.539612,0.489868,0.994262,-0.058601,-0.041021,-35.620411,45.000507,31.486506
1732158309.748490,1732158309.751686,25.000000,0.000000,4288.589844,4282.307617,4314.615234,4306.410156,4276.282227,4295.128418,4335.512695,4401.282227,4313.846191,4299.358887,4483.717773,4506.666504,4341.538574,4422.948730,0.000000,1.000000,21.000000,,,,0.000000,2.000000,2.000000,0.000000,4.000000,2.000000,2.000000,0.000000,0.000000,4.000000,4.000000,4.000000,4.000000,4.000000,4.000000,0.000000,,,,,,,,,,,,,,,,,,,,,,,,,,,,
1732158309.756298,1732158309.759694,26.000000,0.000000,4295.384766,4283.461426,4320.769043,4310.769043,4300.256348,4295.769043,4339.102539,4401.282227,4307.563965,4295.641113,4487.820313,4512.179688,4342.179688,4426.282227,0.000000,1.000000,21.000000,,,,0.000000,2.000000,2.000000,0.000000,4.000000,2.000000,2.000000,0.000000,0.000000,4.000000,4.000000,4.000000,4.000000,4.000000,4.000000,0.000000,,,,,,,,,,,,,,,,,,,,,,,,,,,,
1732158309.764106,1732158309.767502,27.000000,0.000000,4296.922852,4280.897461,4323.461426,4313.333496,4298.333496,4293.461426,4342.948730,4402.307617,4305.000000,4295.256348,4490.256348,4518.461426,4342.051270,4429.102539,0.000000,1.000000,21.000000,,,,0.000000,2.000000,2.000000,0.000000,4.000000,2.000000,2.000000,0.000000,0.000000,4.000000,4.000000,4.000000,4.000000,4.000000,4.000000,0.000000,,,,,,,,,,,,,,,,,,,,,,,,,,,,
1732158309.771914,1732158309.775210,28.000000,0.000000,4292.948730,4280.128418,4322.179688,4307.820313,4283.717773,4290.384766,4343.974121,4403.205078,4309.615234,4295.769043,4487.051270,4513.974121,4341.538574,4428.461426,0.000000,1.000000,21.000000,,,,0.000000,2.000000,2.000000,0.000000,4.000000,2.000000,2.000000,0.000000,0.000000,4.000000,4.000000,4.000000,4.000000,4.000000,4.000000,0.000000,,,,,,,,,,,,,,,,,7.000000,0.000000,0.491132,0.477051,-0.539612,0.489929,0.994262,-0.058601,-0.041021,-35.567532,44.887077,31.619070
1732158309.779723,1732158309.783018,29.000000,0.000000,4293.333496,4281.922852,4321.794922,4305.769043,4299.230957,4290.641113,4341.538574,4403.974121,4309.743652,4294.871582,4487.051270,4509.871582,4341.410156,4426.794922,0.000000,1.000000,21.000000,,,,0.000000,2.000000,2.000000,0.000000,4.000000,2.000000,2.000000,0.000000,0.000000,4.000000,4.000000,4.000000,4.000000,4.000000,4.000000,0.000000,,,,,,,,,,,,,,,,,,,,,,,,,,,,
1732158309.787531,1732158309.790627,30.000000,0.000000,4293.846191,4281.410156,4318.717773,4308.461426,4311.666504,4292.179688,4337.563965,4403.461426,4308.717773,4295.384766,4487.948730,4511.282227,4340.641113,4422.051270,0.000000,1.000000,21.000000,,,,0.000000,2.000000,2.000000,0.000000,4.000000,2.000000,2.000000,0.000000,0.000000,4.000000,4.000000,4.000000,4.000000,4.000000,4.000000,0.000000,,,,,,,,,,,,,,,,,,,,,,,,,,,,
1732158309.795339,1732158309.798435,31.000000,0.000000,4293.974121,4279.871582,4314.230957,4306.922852,4294.102539,4292.563965,4337.820313,4403.461426,4309.615234,4296.794922,4487.563965,4516.794922,4342.179688,4423.461426,0.000000,1.000000,21.000000,,,,0.000000,2.000000,2.000000,0.000000,4.000000,2.000000,2.000000,0.000000,0.000000,4.000000,4.000000,4.000000,4.000000,4.000000,4.000000,0.000000,,,,,,,,,,,,,,,,,,,,,,,,,,,,
1732158309.803147,1732158309.806343,32.000000,0.000000,4291.666504,4280.384766,4316.025879,4300.256348,4274.743652,4293.077148,4340.000000,4404.487305,4312.051270,4298.077148,4485.384766,4524.615234,4344.487305,4430.769043,0.000000,1.000000,21.000000,,,,0.000000,2.000000,2.000000,0.000000,4.000000,2.000000,2.000000,0.000000,0.000000,4.000000,4.000000,4.000000,4.000000,4.000000,4.000000,0.000000,,,,,,,,,,,,,,,,,8.000000,0.000000,0.490495,0.477600,-0.539429,0.490234,0.963008,-0.053717,-0.046392,-35.618034,44.846867,31.574780
1732158309.810956,1732158309.814151,33.000000,0.000000,4288.974121,4280.641113,4322.307617,4297.436035,4280.769043,4294.871582,4338.846191,4404.487305,4314.102539,4299.230957,4481.666504,4519.743652,4342.692383,4428.205078,0.000000,1.000000,21.000000,,,,0.000000,2.000000,2.000000,0.000000,4.000000,2.000000,2.000000,0.000000,0.000000,4.000000,4.000000,4.000000,4.000000,4.000000,4.000000,0.000000,,,,,,,,,,,,,,,,,,,,,,,,,,,,
1732158309.818764,1732158309.821760,34.000000,0.000000,4291.538574,4281.153809,4320.384766,4302.436035,4301.153809,4295.000000,4338.205078,4401.666504,4305.512695,4294.487305,4477.692383,4511.025879,4340.384766,4420.128418,0.000000,1.000000,21.000000,,,,0.000000,2.000000,2.000000,0.000000,4.000000,2.000000,2.000000,0.000000,0.000000,4.000000,4.000000,4.000000,4.000000,4.000000,4.000000,0.000000,,,,,,,,,,,,,,,,,,,,,,,,,,,,
1732158309.826572,1732158309.829568,35.000000,0.000000,4288.717773,4282.436035,4315.128418,4307.307617,4303.589844,4292.307617,4341.025879,4400.384766,4297.051270,4291.282227,4480.641113,4516.922852,4342.307617,4422.948730,0.000000,1.000000,21.000000,,,,0.000000,2.000000,2.000000,0.000000,4.000000,2.000000,2.000000,0.000000,0.000000,4.000000,4.000000,4.000000,4.000000,4.000000,4.000000,0.000000,,,,,,,,,,,,,,,,,,,,,,,,,,,,
1732158309.834380,1732158309.837476,36.000000,0.000000,4283.717773,4280.897461,4315.769043,4304.871582,4283.461426,4291.025879,4340.897461,4403.333496,4304.615234,4297.307617,4491.922852,4519.871582,4343.589844,4428.974121,0.000000,1.000000,21.000000,,,,0.000000,2.000000,2.000000,0.000000,4.000000,2.000000,2.000000,0.000000,0.000000,4.000000,4.000000,4.000000,4.000000,4.000000,4.000000,0.000000,,,,,,,,,,,,,,,,,9.000000,0.000000,0.489923,0.478149,-0.539185,0.490540,0.988402,-0.050787,-0.039556,-35.608940,44.780960,31.538906
1732158309.842188,1732158309.845284,37.000000,0.000000,4286.282227,4278.205078,4319.230957,4304.615234,4273.974121,4293.333496,4339.102539,4403.589844,4313.461426,4296.794922,4490.897461,4512.307617,4342.948730,4424.615234,0.000000,1.000000,21.000000,,,,0.000000,2.000000,2.000000,0.000000,4.000000,2.000000,2.000000,0.000000,0.000000,4.000000,4.000000,4.000000,4.000000,4.000000,4.000000,0.000000,,,,,,,,,,,,,,,,,,,,,,,,,,,,
1732158309.849997,1732158309.853292,38.000000,0.000000,4289.102539,4279.615234,4318.333496,4307.179688,4291.282227,4293.717773,4342.563965,4402.436035,4309.102539,4289.358887,4479.615234,4510.128418,4339.871582,4418.846191,0.000000,1.000000,21.000000,,,,0.000000,2.000000,2.000000,0.000000,4.000000,2.000000,2.000000,0.000000,0.000000,4.000000,4.000000,4.000000,4.000000,4.000000,4.000000,0.000000,,,,,,,,,,,,,,,,,,,,,,,,,,,,
1732158309.857805,1732158309.861100,39.000000,0.000000,4287.563965,4280.769043,4316.153809,4304.487305,4296.410156,4292.563965,4342.179688,4407.820313,4308.846191,4292.692383,4482.179688,4513.717773,4336.538574,4422.436035,0.000000,1.000000,21.000000,,,,0.000000,2.000000,2.000000,0.000000,4.000000,2.000000,2.000000,0.000000,0.000000,4.000000,4.000000,4.000000,4.000000,4.000000,4.000000,0.000000,,,,,,,,,,,,,,,,,,,,,,,,,,,,
1732158309.865613,1732158309.869009,40.000000,0.000000,4287.179688,4278.461426,4316.538574,4302.436035,4293.333496,4294.743652,4335.641113,4410.769043,4311.538574,4292.179688,4487.179688,4512.436035,4336.922852,4425.256348,0.000000,1.000000,21.000000,,,,0.000000,2.000000,2.000000,0.000000,4.000000,2.000000,2.000000,0.000000,0.000000,4.000000,4.000000,4.000000,4.000000,4.000000,4.000000,0.000000,,,,,,,,,,,,,,,,,10.000000,0.000000,0.490130,0.477905,-0.539490,0.490234,0.981565,-0.066903,-0.046392,-35.673241,44.744244,31.371513
1732158309.873422,1732158309.876817,41.000000,0.000000,4288.205078,4277.179688,4315.256348,4303.589844,4304.487305,4290.000000,4334.615234,4404.871582,4302.948730,4281.922852,4475.128418,4508.333496,4335.897461,4420.000000,0.000000,1.000000,21.000000,,,,0.000000,2.000000,2.000000,0.000000,4.000000,2.000000,2.000000,0.000000,0.000000,4.000000,4.000000,4.000000,4.000000,4.000000,4.000000,0.000000,,,,,,,,,,,,,,,,,,,,,,,,,,,,
1732158309.881230,1732158309.884425,42.000000,0.000000,4289.743652,4280.384766,4314.615234,4302.820313,4294.871582,4283.077148,4339.102539,4401.922852,4302.179688,4285.641113,4472.307617,4506.794922,4333.846191,4416.794922,0.000000,1.000000,21.000000,,,,0.000000,2.000000,2.000000,0.000000,4.000000,2.000000,2.000000,0.000000,0.000000,4.000000,4.000000,4.000000,4.000000,4.000000,4.000000,0.000000,,,,,,,,,,,,,,,,,,,,,,,,,,,,
1732158309.889038,1732158309.892233,43.000000,0.000000,4288.846191,4281.410156,4316.538574,4300.512695,4273.333496,4289.230957,4341.025879,4406.282227,4310.000000,4294.487305,4483.717773,4507.948730,4334.487305,4416.538574,0.000000,1.000000,21.000000,,,,0.000000,2.000000,2.000000,0.000000,4.000000,2.000000,2.000000,0.000000,0.000000,4.000000,4.000000,4.000000,4.000000,4.000000,4.000000,0.000000,,,,,,,,,,,,,,,,,,,,,,,,,,,,
1732158309.896846,1732158309.900142,44.000000,0.000000,4282.692383,4279.358887,4315.769043,4302.051270,4278.589844,4296.025879,4339.743652,4404.615234,4312.563965,4294.487305,4482.436035,4508.461426,4335.641113,4415.641113,0.000000,1.000000,21.000000,,,,0.000000,2.000000,2.000000,0.000000,4.000000,2.000000,2.000000,0.000000,0.000000,4.000000,4.000000,4.000000,4.000000,4.000000,4.000000,0.000000,,,,,,,,,,,,,,,,,11.000000,0.000000,0.490077,0.477966,-0.539429,0.490295,0.984007,-0.067391,-0.041509,-35.766994,44.919506,31.332592
1732158309.904655,1732158309.907950,45.000000,0.000000,4280.769043,4279.615234,4313.717773,4302.692383,4292.820313,4288.333496,4337.948730,4399.487305,4308.077148,4290.641113,4474.743652,4502.563965,4335.128418,4413.077148,0.000000,1.000000,21.000000,,,,0.000000,2.000000,2.000000,0.000000,4.000000,2.000000,2.000000,0.000000,0.000000,4.000000,4.000000,4.000000,4.000000,4.000000,4.000000,0.000000,,,,,,,,,,,,,,,,,,,,,,,,,,,,
1732158309.912463,1732158309.915958,46.000000,0.000000,4282.307617,4279.871582,4315.769043,4297.563965,4294.743652,4282.948730,4335.000000,4403.717773,4302.948730,4285.769043,4475.641113,4496.410156,4334.615234,4411.538574,0.000000,1.000000,21.000000,,,,0.000000,2.000000,2.000000,0.000000,4.000000,2.000000,2.000000,0.000000,0.000000,4.000000,4.000000,4.000000,4.000000,4.000000,4.000000,0.000000,,,,,,,,,,,,,,,,,,,,,,,,,,,,
1732158309.920271,1732158309.923766,47.000000,0.000000,4281.794922,4277.948730,4318.205078,4296.666504,4292.307617,4285.769043,4334.358887,4407.179688,4305.128418,4284.230957,4477.692383,4499.358887,4334.230957,4413.589844,0.000000,1.000000,21.000000,,,,0.000000,2.000000,2.000000,0.000000,4.000000,2.000000,2.000000,0.000000,0.000000,4.000000,4.000000,4.000000,4.000000,4.000000,4.000000,0.000000,,,,,,,,,,,,,,,,,,,,,,,,,,,,
1732158309.928079,1732158309.931674,48.000000,0.000000,4281.794922,4278.077148,4317.307617,4298.589844,4296.794922,4284.230957,4335.769043,4403.717773,4307.307617,4286.282227,4475.384766,4500.769043,4333.717773,4416.794922,0.000000,1.000000,21.000000,,,,0.000000,2.000000,2.000000,0.000000,4.000000,2.000000,2.000000,0.000000,0.000000,4.000000,4.000000,4.000000,4.000000,4.000000,4.000000,0.000000,,,,,,,,,,,,,,,,,12.000000,0.000000,0.490330,0.477600,-0.539856,0.489929,0.968380,-0.079111,-0.042974,-35.846264,44.803131,31.487734
1732158309.935887,1732158309.939482,49.000000,0.000000,4282.436035,4280.769043,4316.025879,4297.692383,4302.436035,4285.897461,4336.025879,4403.974121,4307.436035,4283.846191,4474.487305,4496.153809,4335.128418,4414.743652,0.000000,1.000000,21.000000,,,,0.000000,2.000000,2.000000,0.000000,4.000000,2.000000,2.000000,0.000000,0.000000,4.000000,4.000000,4.000000,4.000000,4.000000,4.000000,0.000000,,,,,,,,,,,,,,,,,,,,,,,,,,,,
