title:six2, start timestamp:1732081792.770173, stop timestamp:1732081821.410855, headset type:EPOCX, headset serial:E5020C3A, headset firmware:730, channels:67, sampling rate:eeg_128;mot_32, samples:3669      , version:2.2, 
Timestamp,OriginalTimestamp,EEG.Counter,EEG.Interpolated,EEG.AF3,EEG.F7,EEG.F3,EEG.FC5,EEG.T7,EEG.P7,EEG.O1,EEG.O2,EEG.P8,EEG.T8,EEG.FC6,EEG.F4,EEG.F8,EEG.AF4,EEG.RawCq,EEG.Battery,EEG.BatteryPercent,MarkerIndex,MarkerType,MarkerValueInt,EEG.MarkerHardware,CQ.AF3,CQ.F7,CQ.F3,CQ.FC5,CQ.T7,CQ.P7,CQ.O1,CQ.O2,CQ.P8,CQ.T8,CQ.FC6,CQ.F4,CQ.F8,CQ.AF4,CQ.Overall,EQ.SampleRateQuality,EQ.OVERALL,EQ.AF3,EQ.F7,EQ.F3,EQ.FC5,EQ.T7,EQ.P7,EQ.O1,EQ.O2,EQ.P8,EQ.T8,EQ.FC6,EQ.F4,EQ.F8,EQ.AF4,MOT.CounterMems,MOT.InterpolatedMems,MOT.Q0,MOT.Q1,MOT.Q2,MOT.Q3,MOT.AccX,MOT.AccY,MOT.AccZ,MOT.MagX,MOT.MagY,MOT.MagZ
1732081792.770173,1732081792.771429,53.000000,0.000000,4410.769043,4398.461426,4377.820313,4412.563965,4416.025879,4409.743652,4390.256348,4467.436035,4462.820313,4419.487305,4555.000000,4588.846191,4448.461426,4502.820313,0.000000,0.000000,12.000000,,,,0.000000,2.000000,2.000000,0.000000,2.000000,2.000000,2.000000,1.000000,2.000000,4.000000,4.000000,4.000000,4.000000,2.000000,4.000000,25.000000,,,,,,,,,,,,,,,,,,,,,,,,,,,,
1732081792.777982,1732081792.779038,54.000000,0.000000,4420.000000,4409.230957,4375.897461,4413.717773,4411.153809,4408.205078,4388.205078,4462.179688,4452.692383,4416.538574,4561.666504,4588.846191,4468.461426,4517.179688,0.000000,0.000000,12.000000,,,,0.000000,2.000000,2.000000,0.000000,2.000000,2.000000,2.000000,1.000000,2.000000,4.000000,4.000000,4.000000,4.000000,2.000000,4.000000,25.000000,,,,,,,,,,,,,,,,,,,,,,,,,,,,
1732081792.785790,1732081792.786846,55.000000,0.000000,4426.922852,4414.615234,4376.794922,4417.436035,4411.153809,4406.538574,4388.589844,4459.743652,4441.410156,4415.384766,4564.230957,4591.025879,4476.538574,4523.974121,0.000000,0.000000,12.000000,,,,0.000000,2.000000,2.000000,0.000000,2.000000,2.000000,2.000000,1.000000,2.000000,4.000000,4.000000,4.000000,4.000000,2.000000,4.000000,25.000000,,,,,,,,,,,,,,,,,,,,,,,,,,,,
1732081792.793598,1732081792.794754,56.000000,0.000000,4422.820313,4404.102539,4378.461426,4416.922852,4411.282227,4403.333496,4391.153809,4457.692383,4443.589844,4418.077148,4565.384766,4592.563965,4472.179688,4521.666504,0.000000,0.000000,12.000000,,,,0.000000,2.000000,2.000000,0.000000,2.000000,2.000000,2.000000,1.000000,2.000000,4.000000,4.000000,4.000000,4.000000,2.000000,4.000000,25.000000,,,,,,,,,,,,,,,,,14.000000,0.000000,0.630626,0.407043,-0.595642,0.286072,0.962031,0.154316,-0.029789,-74.268311,65.980255,28.547573
1732081792.801407,1732081792.802562,57.000000,0.000000,4413.461426,4395.641113,4377.179688,4410.128418,4411.153809,4401.922852,4389.358887,4459.871582,4447.563965,4417.307617,4563.974121,4592.948730,4468.974121,4520.384766,0.000000,0.000000,12.000000,,,,0.000000,2.000000,2.000000,0.000000,2.000000,2.000000,2.000000,1.000000,2.000000,4.000000,4.000000,4.000000,4.000000,2.000000,4.000000,25.000000,,,,,,,,,,,,,,,,,,,,,,,,,,,,
1732081792.809215,1732081792.810570,58.000000,0.000000,4409.358887,4398.333496,4375.641113,4407.179688,4407.307617,4407.179688,4386.025879,4462.307617,4453.077148,4420.128418,4565.512695,4593.333496,4470.384766,4521.794922,0.000000,0.000000,12.000000,,,,0.000000,2.000000,2.000000,0.000000,2.000000,2.000000,2.000000,1.000000,2.000000,4.000000,4.000000,4.000000,4.000000,2.000000,4.000000,25.000000,,,,,,,,,,,,,,,,,,,,,,,,,,,,
1732081792.817023,1732081792.818378,59.000000,0.000000,4408.974121,4401.153809,4375.897461,4409.102539,4410.512695,4410.128418,4392.820313,4460.769043,4460.256348,4429.358887,4570.641113,4597.948730,4473.589844,4520.512695,0.000000,0.000000,12.000000,,,,0.000000,2.000000,2.000000,0.000000,2.000000,2.000000,2.000000,1.000000,2.000000,4.000000,4.000000,4.000000,4.000000,2.000000,4.000000,25.000000,,,,,,,,,,,,,,,,,,,,,,,,,,,,
1732081792.824831,1732081792.826286,60.000000,0.000000,4406.410156,4397.051270,4371.538574,4409.102539,4423.974121,4408.589844,4395.128418,4465.641113,4462.820313,4434.743652,4568.846191,4601.666504,4475.000000,4515.000000,0.000000,0.000000,12.000000,,,,0.000000,2.000000,2.000000,0.000000,2.000000,2.000000,2.000000,1.000000,2.000000,4.000000,4.000000,4.000000,4.000000,2.000000,4.000000,25.000000,,,,,,,,,,,,,,,,,15.000000,0.000000,0.631049,0.408142,-0.594910,0.285095,0.964473,0.161152,-0.032719,-74.120667,66.030670,28.353535
1732081792.832640,1732081792.834095,61.000000,0.000000,4402.563965,4392.179688,4371.666504,4409.487305,4417.948730,4411.666504,4391.410156,4474.871582,4464.358887,4434.743652,4566.153809,4598.846191,4473.974121,4512.692383,0.000000,0.000000,12.000000,,,,0.000000,2.000000,2.000000,0.000000,2.000000,2.000000,2.000000,1.000000,2.000000,4.000000,4.000000,4.000000,4.000000,2.000000,4.000000,25.000000,,,,,,,,,,,,,,,,,,,,,,,,,,,,
1732081792.840448,1732081792.842103,62.000000,0.000000,4405.769043,4398.589844,4375.769043,4409.102539,4402.820313,4413.589844,4392.436035,4474.230957,4464.871582,4437.179688,4570.384766,4593.461426,4474.871582,4516.922852,0.000000,0.000000,12.000000,,,,0.000000,2.000000,2.000000,0.000000,2.000000,2.000000,2.000000,1.000000,2.000000,4.000000,4.000000,4.000000,4.000000,2.000000,4.000000,25.000000,,,,,,,,,,,,,,,,,,,,,,,,,,,,
1732081792.848256,1732081792.849911,63.000000,0.000000,4412.307617,4407.051270,4378.205078,4409.230957,4406.922852,4408.717773,4396.922852,4464.743652,4462.051270,4437.051270,4572.820313,4593.333496,4476.282227,4518.717773,0.000000,0.000000,12.000000,,,,0.000000,2.000000,2.000000,0.000000,2.000000,2.000000,2.000000,1.000000,2.000000,4.000000,4.000000,4.000000,4.000000,2.000000,4.000000,25.000000,,,,,,,,,,,,,,,,,,,,,,,,,,,,
1732081792.856064,1732081792.857819,64.000000,0.000000,4410.641113,4402.051270,4375.000000,4413.077148,4414.743652,4408.846191,4395.384766,4460.128418,4459.743652,4430.000000,4569.871582,4592.051270,4476.025879,4516.666504,0.000000,0.000000,12.000000,,,,0.000000,2.000000,2.000000,0.000000,2.000000,2.000000,2.000000,1.000000,2.000000,4.000000,4.000000,4.000000,4.000000,2.000000,4.000000,25.000000,,,,,,,,,,,,,,,,,16.000000,0.000000,0.631379,0.409058,-0.594543,0.283813,0.960078,0.177756,-0.052252,-73.937744,66.006508,28.151363
1732081792.863872,1732081792.865627,65.000000,0.000000,4405.512695,4395.897461,4376.922852,4412.179688,4410.000000,4413.717773,4393.461426,4461.282227,4453.461426,4424.230957,4569.102539,4587.820313,4475.000000,4514.102539,1280.000000,0.000000,12.000000,,,,0.000000,2.000000,2.000000,0.000000,2.000000,2.000000,2.000000,1.000000,2.000000,4.000000,4.000000,4.000000,4.000000,2.000000,4.000000,25.000000,,,,,,,,,,,,,,,,,,,,,,,,,,,,
1732081792.871681,1732081792.873635,66.000000,0.000000,4407.692383,4404.487305,4376.922852,4408.333496,4409.358887,4413.333496,4392.051270,4460.769043,4448.974121,4422.563965,4569.615234,4590.256348,4473.333496,4513.461426,1200.000000,0.000000,12.000000,,,,0.000000,2.000000,2.000000,0.000000,2.000000,2.000000,2.000000,1.000000,2.000000,4.000000,4.000000,4.000000,4.000000,2.000000,4.000000,25.000000,,,,,,,,,,,,,,,,,,,,,,,,,,,,
1732081792.879489,1732081792.881443,67.000000,0.000000,4409.358887,4408.077148,4375.256348,4407.820313,4412.307617,4410.897461,4392.179688,4459.487305,4456.025879,4426.025879,4569.743652,4589.871582,4476.025879,4518.077148,1148.000000,0.000000,12.000000,,,,0.000000,2.000000,2.000000,0.000000,2.000000,2.000000,2.000000,1.000000,2.000000,4.000000,4.000000,4.000000,4.000000,2.000000,4.000000,25.000000,,,,,,,,,,,,,,,,,,,,,,,,,,,,
1732081792.887297,1732081792.889351,68.000000,0.000000,4404.358887,4397.307617,4375.128418,4407.051270,4410.000000,4412.436035,4397.436035,4464.615234,4465.512695,4434.743652,4573.717773,4585.641113,4478.205078,4524.487305,1157.000000,0.000000,12.000000,,,,0.000000,2.000000,2.000000,0.000000,2.000000,2.000000,2.000000,1.000000,2.000000,4.000000,4.000000,4.000000,4.000000,2.000000,4.000000,25.000000,,,,,,,,,,,,,,,,,17.000000,0.000000,0.631482,0.409546,-0.594360,0.283264,0.960078,0.177756,-0.052252,-74.329567,66.195274,28.059271
1732081792.895105,1732081792.897160,69.000000,0.000000,4401.666504,4393.205078,4375.641113,4404.615234,4411.025879,4414.615234,4397.820313,4473.077148,4466.666504,4440.384766,4578.846191,4585.897461,4475.769043,4519.871582,1055.000000,0.000000,12.000000,,,,0.000000,2.000000,2.000000,0.000000,2.000000,2.000000,2.000000,1.000000,2.000000,4.000000,4.000000,4.000000,4.000000,2.000000,4.000000,25.000000,,,,,,,,,,,,,,,,,,,,,,,,,,,,
1732081792.902914,1732081792.905168,70.000000,0.000000,4400.128418,4397.563965,4374.871582,4405.769043,4412.179688,4413.333496,4393.333496,4475.641113,4466.153809,4436.025879,4576.153809,4583.717773,4475.641113,4511.666504,203.000000,0.000000,12.000000,,,,0.000000,2.000000,2.000000,0.000000,2.000000,2.000000,2.000000,1.000000,2.000000,4.000000,4.000000,4.000000,4.000000,2.000000,4.000000,25.000000,,,,,,,,,,,,,,,,,,,,,,,,,,,,
1732081792.910722,1732081792.912976,71.000000,0.000000,4396.410156,4398.461426,4373.589844,4408.974121,4411.538574,4413.077148,4393.717773,4470.000000,4465.897461,4428.974121,4569.230957,4573.717773,4476.922852,4512.948730,1185.000000,0.000000,12.000000,,,,0.000000,2.000000,2.000000,0.000000,2.000000,2.000000,2.000000,1.000000,2.000000,4.000000,4.000000,4.000000,4.000000,2.000000,4.000000,25.000000,,,,,,,,,,,,,,,,,,,,,,,,,,,,
1732081792.918530,1732081792.920884,72.000000,0.000000,4398.461426,4400.384766,4373.589844,4410.384766,4412.307617,4415.000000,4398.205078,4465.512695,4462.692383,4427.563965,4568.205078,4564.487305,4471.794922,4514.358887,1325.000000,0.000000,12.000000,,,,0.000000,2.000000,2.000000,0.000000,2.000000,2.000000,2.000000,1.000000,2.000000,4.000000,4.000000,4.000000,4.000000,2.000000,4.000000,25.000000,,,,,,,,,,,,,,,,,18.000000,0.000000,0.632784,0.411743,-0.593018,0.279968,0.948846,0.245147,-0.062508,-74.438622,66.226501,28.059675
1732081792.926339,1732081792.928692,73.000000,0.000000,4404.358887,4402.179688,4374.871582,4406.410156,4410.128418,4414.487305,4396.666504,4464.487305,4460.128418,4426.538574,4570.897461,4562.179688,4470.000000,4518.077148,1452.000000,0.000000,12.000000,,,,0.000000,2.000000,2.000000,0.000000,2.000000,2.000000,2.000000,1.000000,2.000000,4.000000,4.000000,4.000000,4.000000,2.000000,4.000000,25.000000,,,,,,,,,,,,,,,,,,,,,,,,,,,,
1732081792.934147,1732081792.936700,74.000000,0.000000,4402.307617,4399.743652,4376.922852,4402.436035,4407.692383,4412.179688,4394.615234,4462.820313,4458.589844,4421.666504,4571.153809,4566.794922,4474.230957,4525.512695,1344.000000,0.000000,12.000000,,,,0.000000,2.000000,2.000000,0.000000,2.000000,2.000000,2.000000,1.000000,2.000000,4.000000,4.000000,4.000000,4.000000,2.000000,4.000000,25.000000,,,,,,,,,,,,,,,,,,,,,,,,,,,,
1732081792.941955,1732081792.944508,75.000000,0.000000,4401.282227,4404.358887,4375.128418,4408.846191,4408.333496,4414.230957,4393.846191,4463.589844,4457.948730,4420.000000,4570.512695,4570.256348,4473.589844,4525.769043,1469.000000,0.000000,12.000000,,,,0.000000,2.000000,2.000000,0.000000,2.000000,2.000000,2.000000,1.000000,2.000000,4.000000,4.000000,4.000000,4.000000,2.000000,4.000000,25.000000,,,,,,,,,,,,,,,,,,,,,,,,,,,,
1732081792.949763,1732081792.952416,76.000000,0.000000,4406.922852,4410.641113,4375.384766,4412.563965,4403.846191,4416.922852,4395.256348,4464.230957,4457.948730,4424.487305,4570.128418,4566.922852,4472.436035,4520.256348,1696.000000,0.000000,12.000000,,,,0.000000,2.000000,2.000000,0.000000,2.000000,2.000000,2.000000,1.000000,2.000000,4.000000,4.000000,4.000000,4.000000,2.000000,4.000000,25.000000,,,,,,,,,,,,,,,,,19.000000,0.000000,0.634136,0.414185,-0.591675,0.276123,0.950800,0.247589,-0.067391,-74.581947,66.273468,28.151670
1732081792.957572,1732081792.960225,77.000000,0.000000,4410.769043,4408.077148,4375.769043,4408.077148,4399.871582,4414.230957,4393.974121,4461.410156,4456.538574,4427.051270,4569.358887,4562.820313,4474.615234,4519.230957,1671.000000,0.000000,12.000000,,,,0.000000,2.000000,2.000000,0.000000,2.000000,2.000000,2.000000,1.000000,2.000000,4.000000,4.000000,4.000000,4.000000,2.000000,4.000000,25.000000,,,,,,,,,,,,,,,,,,,,,,,,,,,,
1732081792.965380,1732081792.968233,78.000000,0.000000,4410.128418,4404.102539,4378.461426,4409.102539,4400.000000,4411.282227,4395.000000,4460.384766,4454.615234,4424.615234,4569.615234,4565.512695,4475.128418,4518.205078,1344.000000,0.000000,12.000000,,,,0.000000,2.000000,2.000000,0.000000,2.000000,2.000000,2.000000,1.000000,2.000000,4.000000,4.000000,4.000000,4.000000,2.000000,4.000000,25.000000,1.000000,25.000000,2.000000,2.000000,0.000000,2.000000,2.000000,2.000000,1.000000,2.000000,3.000000,4.000000,4.000000,4.000000,2.000000,4.000000,,,,,,,,,,,,
1732081792.973188,1732081792.976041,79.000000,0.000000,4410.384766,4401.538574,4378.589844,4412.051270,4394.358887,4412.051270,4397.436035,4462.820313,4455.769043,4423.205078,4571.282227,4570.641113,4475.641113,4516.282227,1469.000000,0.000000,12.000000,,,,0.000000,2.000000,2.000000,0.000000,2.000000,2.000000,2.000000,1.000000,2.000000,4.000000,4.000000,4.000000,4.000000,2.000000,4.000000,25.000000,,,,,,,,,,,,,,,,,,,,,,,,,,,,
1732081792.980996,1732081792.983949,80.000000,0.000000,4408.846191,4396.794922,4377.692383,4405.384766,4399.615234,4413.205078,4397.948730,4461.282227,4454.487305,4419.743652,4566.153809,4573.077148,4469.871582,4511.538574,1696.000000,0.000000,12.000000,,,,0.000000,2.000000,2.000000,0.000000,2.000000,2.000000,2.000000,1.000000,2.000000,4.000000,4.000000,4.000000,4.000000,2.000000,4.000000,25.000000,,,,,,,,,,,,,,,,,20.000000,0.000000,0.634136,0.414185,-0.591675,0.276123,0.984495,0.211940,-0.064949,-74.533043,66.371513,28.436186
1732081792.988805,1732081792.991757,81.000000,0.000000,4406.538574,4395.897461,4377.692383,4402.179688,4410.641113,4412.051270,4393.974121,4458.333496,4451.410156,4415.641113,4559.871582,4567.820313,4462.179688,4508.333496,1671.000000,0.000000,12.000000,,,,0.000000,2.000000,2.000000,0.000000,2.000000,2.000000,2.000000,1.000000,2.000000,4.000000,4.000000,4.000000,4.000000,2.000000,4.000000,25.000000,,,,,,,,,,,,,,,,,,,,,,,,,,,,
1732081792.996613,1732081792.999366,82.000000,0.000000,4410.512695,4398.333496,4379.871582,4410.769043,4398.077148,4412.436035,4393.974121,4460.897461,4452.436035,4415.512695,4560.769043,4562.179688,4463.974121,4510.897461,1344.000000,0.000000,12.000000,,,,0.000000,2.000000,2.000000,0.000000,2.000000,2.000000,2.000000,1.000000,2.000000,4.000000,4.000000,4.000000,4.000000,2.000000,4.000000,25.000000,,,,,,,,,,,,,,,,,,,,,,,,,,,,
1732081793.004421,1732081793.007174,83.000000,0.000000,4414.230957,4399.743652,4378.846191,4415.512695,4384.743652,4415.897461,4399.230957,4462.436035,4453.974121,4417.307617,4563.333496,4564.871582,4468.461426,4512.948730,1469.000000,0.000000,12.000000,,,,0.000000,2.000000,2.000000,0.000000,2.000000,2.000000,2.000000,1.000000,2.000000,4.000000,4.000000,4.000000,4.000000,2.000000,4.000000,25.000000,,,,,,,,,,,,,,,,,,,,,,,,,,,,
1732081793.012229,1732081793.014882,84.000000,0.000000,4412.307617,4400.897461,4377.948730,4411.153809,4397.051270,4414.358887,4396.922852,4461.410156,4453.077148,4421.794922,4560.512695,4568.333496,4467.179688,4509.615234,1696.000000,0.000000,12.000000,,,,0.000000,2.000000,2.000000,0.000000,2.000000,2.000000,2.000000,1.000000,2.000000,4.000000,4.000000,4.000000,4.000000,2.000000,4.000000,25.000000,,,,,,,,,,,,,,,,,21.000000,0.000000,0.634608,0.414429,-0.591736,0.274536,0.977658,0.181663,-0.055671,-74.140099,66.459259,28.291645
1732081793.020038,1732081793.022690,85.000000,0.000000,4413.974121,4398.077148,4379.743652,4408.846191,4402.179688,4407.948730,4391.025879,4458.974121,4457.820313,4428.461426,4562.692383,4570.128418,4471.538574,4510.769043,1671.000000,0.000000,12.000000,,,,0.000000,2.000000,2.000000,0.000000,2.000000,2.000000,2.000000,1.000000,2.000000,4.000000,4.000000,4.000000,4.000000,2.000000,4.000000,25.000000,,,,,,,,,,,,,,,,,,,,,,,,,,,,
1732081793.027846,1732081793.030299,86.000000,0.000000,4421.153809,4396.666504,4378.077148,4412.436035,4393.205078,4407.563965,4391.025879,4457.179688,4457.436035,4427.948730,4567.820313,4572.179688,4475.128418,4520.384766,1344.000000,0.000000,12.000000,,,,0.000000,2.000000,2.000000,0.000000,2.000000,2.000000,2.000000,1.000000,2.000000,4.000000,4.000000,4.000000,4.000000,2.000000,4.000000,25.000000,,,,,,,,,,,,,,,,,,,,,,,,,,,,
1732081793.035654,1732081793.038107,87.000000,0.000000,4422.307617,4397.948730,4378.717773,4411.922852,4396.538574,4416.153809,4397.051270,4457.820313,4447.948730,4418.077148,4566.153809,4574.871582,4465.512695,4522.051270,1469.000000,0.000000,12.000000,,,,0.000000,2.000000,2.000000,0.000000,2.000000,2.000000,2.000000,1.000000,2.000000,4.000000,4.000000,4.000000,4.000000,2.000000,4.000000,25.000000,,,,,,,,,,,,,,,,,,,,,,,,,,,,
1732081793.043462,1732081793.045815,88.000000,0.000000,4420.000000,4396.410156,4378.846191,4407.948730,4401.410156,4414.487305,4396.538574,4461.666504,4450.512695,4421.282227,4567.051270,4578.333496,4459.487305,4518.333496,1696.000000,0.000000,12.000000,,,,0.000000,2.000000,2.000000,0.000000,2.000000,2.000000,2.000000,1.000000,2.000000,4.000000,4.000000,4.000000,4.000000,2.000000,4.000000,25.000000,,,,,,,,,,,,,,,,,22.000000,0.000000,0.634846,0.408813,-0.594727,0.275940,0.952753,0.196313,-0.029300,-74.173477,66.703667,28.194565
1732081793.051271,1732081793.053623,89.000000,0.000000,4425.512695,4392.948730,4377.436035,4405.641113,4396.794922,4402.307617,4392.179688,4460.128418,4456.922852,4430.128418,4571.666504,4582.692383,4468.846191,4522.436035,1671.000000,0.000000,12.000000,,,,0.000000,2.000000,2.000000,0.000000,2.000000,2.000000,2.000000,1.000000,2.000000,4.000000,4.000000,4.000000,4.000000,2.000000,4.000000,25.000000,,,,,,,,,,,,,,,,,,,,,,,,,,,,
1732081793.059079,1732081793.061232,90.000000,0.000000,4435.897461,4396.794922,4376.153809,4409.487305,4397.179688,4401.410156,4388.461426,4453.717773,4447.948730,4418.974121,4567.563965,4585.256348,4473.077148,4527.307617,1344.000000,0.000000,12.000000,,,,0.000000,2.000000,2.000000,0.000000,2.000000,2.000000,2.000000,1.000000,2.000000,4.000000,4.000000,4.000000,4.000000,2.000000,4.000000,25.000000,,,,,,,,,,,,,,,,,,,,,,,,,,,,
1732081793.066887,1732081793.069040,91.000000,0.000000,4439.230957,4400.256348,4376.922852,4415.512695,4402.692383,4411.666504,4390.128418,4458.589844,4444.487305,4409.743652,4563.077148,4587.692383,4466.410156,4528.846191,1469.000000,0.000000,12.000000,,,,0.000000,2.000000,2.000000,0.000000,2.000000,2.000000,2.000000,1.000000,2.000000,4.000000,4.000000,4.000000,4.000000,2.000000,4.000000,25.000000,,,,,,,,,,,,,,,,,,,,,,,,,,,,
1732081793.074695,1732081793.076748,92.000000,0.000000,4437.692383,4396.410156,4373.077148,4412.948730,4402.179688,4412.692383,4391.410156,4464.358887,4454.743652,4420.641113,4568.205078,4589.102539,4468.205078,4532.948730,1696.000000,0.000000,12.000000,,,,0.000000,2.000000,2.000000,0.000000,2.000000,2.000000,2.000000,1.000000,2.000000,4.000000,4.000000,4.000000,4.000000,2.000000,4.000000,25.000000,,,,,,,,,,,,,,,,,23.000000,0.000000,0.635198,0.405884,-0.595703,0.277344,0.942010,0.181174,-0.034184,-74.108849,66.759972,28.365931
1732081793.082504,1732081793.084557,93.000000,0.000000,4443.461426,4396.410156,4371.666504,4407.179688,4397.692383,4402.692383,4387.563965,4455.769043,4455.384766,4421.538574,4573.205078,4584.615234,4477.307617,4539.871582,1671.000000,0.000000,12.000000,,,,0.000000,2.000000,2.000000,0.000000,2.000000,2.000000,2.000000,1.000000,2.000000,4.000000,4.000000,4.000000,4.000000,2.000000,4.000000,25.000000,,,,,,,,,,,,,,,,,,,,,,,,,,,,
1732081793.090312,1732081793.092165,94.000000,0.000000,4453.333496,4399.102539,4372.820313,4407.436035,4394.871582,4397.820313,4382.307617,4450.128418,4446.282227,4407.948730,4574.487305,4581.410156,4475.256348,4544.615234,1344.000000,0.000000,12.000000,,,,0.000000,2.000000,2.000000,0.000000,2.000000,2.000000,2.000000,1.000000,2.000000,4.000000,4.000000,4.000000,4.000000,2.000000,4.000000,25.000000,,,,,,,,,,,,,,,,,,,,,,,,,,,,
1732081793.098120,1732081793.099973,95.000000,0.000000,4457.692383,4394.743652,4372.820313,4405.897461,4391.538574,4399.358887,4386.025879,4458.589844,4448.333496,4410.769043,4580.000000,4589.487305,4475.128418,4551.153809,1469.000000,0.000000,12.000000,,,,0.000000,2.000000,2.000000,0.000000,2.000000,2.000000,2.000000,1.000000,2.000000,4.000000,4.000000,4.000000,4.000000,2.000000,4.000000,25.000000,,,,,,,,,,,,,,,,,,,,,,,,,,,,
1732081793.105929,1732081793.107682,96.000000,0.000000,4463.205078,4391.025879,4373.077148,4398.717773,4389.871582,4400.512695,4388.333496,4462.307617,4454.743652,4420.000000,4583.717773,4602.563965,4487.692383,4558.717773,1696.000000,0.000000,12.000000,,,,0.000000,2.000000,2.000000,0.000000,2.000000,2.000000,2.000000,1.000000,2.000000,4.000000,4.000000,4.000000,4.000000,2.000000,4.000000,25.000000,,,,,,,,,,,,,,,,,24.000000,0.000000,0.635198,0.405884,-0.595703,0.277344,0.951288,0.193383,-0.029789,-74.056503,66.805573,28.549738
1732081793.113737,1732081793.115490,97.000000,0.000000,4473.589844,4393.974121,4374.743652,4396.666504,4391.282227,4398.589844,4382.051270,4456.153809,4448.461426,4413.205078,4584.615234,4605.384766,4492.563965,4564.230957,1671.000000,0.000000,12.000000,,,,0.000000,2.000000,2.000000,0.000000,2.000000,2.000000,2.000000,1.000000,2.000000,4.000000,4.000000,4.000000,4.000000,2.000000,4.000000,25.000000,,,,,,,,,,,,,,,,,,,,,,,,,,,,
1732081793.121545,1732081793.123498,98.000000,0.000000,4480.897461,4395.000000,4377.179688,4400.512695,4391.666504,4396.282227,4380.769043,4456.025879,4443.974121,4406.794922,4583.589844,4601.794922,4489.743652,4571.410156,1344.000000,0.000000,12.000000,,,,0.000000,2.000000,2.000000,0.000000,2.000000,2.000000,2.000000,1.000000,2.000000,4.000000,4.000000,4.000000,4.000000,2.000000,4.000000,25.000000,,,,,,,,,,,,,,,,,,,,,,,,,,,,
1732081793.129353,1732081793.131306,99.000000,0.000000,4482.563965,4393.333496,4376.025879,4401.282227,4391.410156,4398.846191,4387.692383,4460.000000,4451.025879,4413.205078,4584.871582,4606.922852,4494.615234,4579.871582,1469.000000,0.000000,12.000000,,,,0.000000,2.000000,2.000000,0.000000,2.000000,2.000000,2.000000,1.000000,2.000000,4.000000,4.000000,4.000000,4.000000,2.000000,4.000000,25.000000,,,,,,,,,,,,,,,,,,,,,,,,,,,,
1732081793.137161,1732081793.139214,100.000000,0.000000,4484.358887,4394.871582,4376.282227,4397.948730,4391.922852,4395.128418,4388.077148,4460.000000,4451.794922,4420.128418,4593.077148,4617.051270,4500.128418,4584.102539,1696.000000,0.000000,12.000000,,,,0.000000,2.000000,2.000000,0.000000,2.000000,2.000000,2.000000,1.000000,2.000000,4.000000,4.000000,4.000000,4.000000,2.000000,4.000000,25.000000,,,,,,,,,,,,,,,,,25.000000,0.000000,0.635726,0.402588,-0.595459,0.281433,0.931754,0.187035,-0.025394,-73.947433,66.642517,28.653622
1732081793.144970,1732081793.147022,101.000000,0.000000,4490.641113,4393.333496,4379.871582,4395.512695,4387.051270,4389.743652,4382.563965,4458.846191,4445.384766,4418.461426,4596.410156,4623.974121,4502.820313,4585.641113,1671.000000,0.000000,12.000000,,,,0.000000,2.000000,2.000000,0.000000,2.000000,2.000000,2.000000,1.000000,2.000000,4.000000,4.000000,4.000000,4.000000,2.000000,4.000000,25.000000,,,,,,,,,,,,,,,,,,,,,,,,,,,,
1732081793.152778,1732081793.154631,102.000000,0.000000,4493.077148,4388.333496,4384.358887,4394.871582,4384.230957,4388.846191,4385.384766,4459.743652,4447.692383,4415.256348,4594.230957,4626.410156,4505.256348,4586.922852,1344.000000,0.000000,12.000000,,,,0.000000,2.000000,2.000000,0.000000,2.000000,2.000000,2.000000,1.000000,2.000000,4.000000,4.000000,4.000000,4.000000,2.000000,4.000000,25.000000,,,,,,,,,,,,,,,,,,,,,,,,,,,,
1732081793.160586,1732081793.162439,103.000000,0.000000,4490.769043,4386.282227,4380.512695,4394.358887,4396.794922,4387.436035,4389.358887,4460.897461,4453.846191,4417.820313,4594.487305,4624.487305,4503.717773,4584.615234,1469.000000,0.000000,12.000000,,,,0.000000,2.000000,2.000000,0.000000,2.000000,2.000000,2.000000,1.000000,2.000000,4.000000,4.000000,4.000000,4.000000,2.000000,4.000000,25.000000,,,,,,,,,,,,,,,,,,,,,,,,,,,,
1732081793.168394,1732081793.170347,104.000000,0.000000,4490.641113,4388.974121,4379.230957,4393.461426,4402.948730,4389.487305,4387.820313,4459.358887,4451.666504,4418.589844,4595.256348,4618.717773,4506.410156,4583.205078,1696.000000,0.000000,12.000000,,,,0.000000,2.000000,2.000000,0.000000,2.000000,2.000000,2.000000,1.000000,2.000000,4.000000,4.000000,4.000000,4.000000,2.000000,4.000000,25.000000,,,,,,,,,,,,,,,,,26.000000,0.000000,0.636044,0.403137,-0.592529,0.286072,0.984495,0.165548,-0.019534,-74.117424,66.682106,28.799433
1732081793.176203,1732081793.178155,105.000000,0.000000,4495.641113,4394.230957,4381.538574,4396.153809,4388.717773,4394.487305,4384.230957,4458.974121,4448.077148,4414.615234,4595.897461,4617.692383,4515.256348,4589.871582,1671.000000,0.000000,12.000000,,,,0.000000,2.000000,2.000000,0.000000,2.000000,2.000000,2.000000,1.000000,2.000000,4.000000,4.000000,4.000000,4.000000,2.000000,4.000000,25.000000,,,,,,,,,,,,,,,,,,,,,,,,,,,,
1732081793.184011,1732081793.185764,106.000000,0.000000,4496.538574,4394.358887,4382.563965,4399.102539,4383.333496,4394.358887,4386.922852,4460.641113,4448.846191,4414.487305,4594.743652,4624.230957,4511.153809,4593.589844,1344.000000,0.000000,12.000000,,,,0.000000,2.000000,2.000000,0.000000,2.000000,2.000000,2.000000,1.000000,2.000000,4.000000,4.000000,4.000000,4.000000,2.000000,4.000000,25.000000,,,,,,,,,,,,,,,,,,,,,,,,,,,,
1732081793.191819,1732081793.193572,107.000000,0.000000,4492.948730,4386.153809,4381.410156,4397.307617,4394.615234,4390.128418,4387.692383,4460.897461,4454.615234,4419.358887,4594.358887,4629.487305,4502.820313,4588.077148,1469.000000,0.000000,12.000000,,,,0.000000,2.000000,2.000000,0.000000,2.000000,2.000000,2.000000,1.000000,2.000000,4.000000,4.000000,4.000000,4.000000,2.000000,4.000000,25.000000,,,,,,,,,,,,,,,,,,,,,,,,,,,,
1732081793.199628,1732081793.201480,108.000000,0.000000,4491.538574,4383.846191,4383.589844,4392.692383,4395.897461,4389.230957,4386.153809,4460.641113,4458.846191,4420.897461,4597.051270,4626.922852,4507.436035,4589.230957,1696.000000,0.000000,12.000000,,,,0.000000,2.000000,2.000000,0.000000,2.000000,2.000000,2.000000,1.000000,2.000000,4.000000,4.000000,4.000000,4.000000,2.000000,4.000000,25.000000,,,,,,,,,,,,,,,,,27.000000,0.000000,0.635848,0.404907,-0.589478,0.290283,1.007447,0.129899,0.003907,-74.085114,66.624168,29.082541
1732081793.207436,1732081793.209288,109.000000,0.000000,4489.615234,4392.307617,4384.102539,4393.846191,4386.794922,4388.846191,4385.769043,4460.641113,4456.153809,4419.615234,4601.153809,4621.410156,4511.410156,4595.641113,1671.000000,0.000000,12.000000,,,,0.000000,2.000000,2.000000,0.000000,2.000000,2.000000,2.000000,1.000000,2.000000,4.000000,4.000000,4.000000,4.000000,2.000000,4.000000,25.000000,,,,,,,,,,,,,,,,,,,,,,,,,,,,
1732081793.215244,1732081793.217296,110.000000,0.000000,4490.641113,4392.563965,4384.487305,4398.589844,4381.410156,4387.820313,4388.846191,4459.743652,4452.436035,4421.666504,4600.769043,4621.794922,4509.743652,4593.461426,1344.000000,0.000000,12.000000,,,,0.000000,2.000000,2.000000,0.000000,2.000000,2.000000,2.000000,1.000000,2.000000,4.000000,4.000000,4.000000,4.000000,2.000000,4.000000,25.000000,,,,,,,,,,,,,,,,,,,,,,,,,,,,
1732081793.223052,1732081793.225104,111.000000,0.000000,4496.922852,4385.128418,4387.179688,4396.538574,4390.384766,4386.410156,4388.461426,4458.974121,4450.641113,4422.820313,4598.717773,4622.563965,4510.384766,4590.897461,1469.000000,0.000000,12.000000,,,,0.000000,2.000000,2.000000,0.000000,2.000000,2.000000,2.000000,1.000000,2.000000,4.000000,4.000000,4.000000,4.000000,2.000000,4.000000,25.000000,,,,,,,,,,,,,,,,,,,,,,,,,,,,
1732081793.230861,1732081793.233012,112.000000,0.000000,4498.589844,4386.666504,4390.000000,4396.538574,4400.512695,4382.692383,4385.641113,4460.256348,4450.897461,4421.153809,4598.846191,4623.333496,4512.307617,4596.153809,1696.000000,0.000000,12.000000,,,,0.000000,2.000000,2.000000,0.000000,2.000000,2.000000,2.000000,1.000000,2.000000,4.000000,4.000000,4.000000,4.000000,2.000000,4.000000,25.000000,,,,,,,,,,,,,,,,,28.000000,0.000000,0.635848,0.404907,-0.589478,0.290283,1.007447,0.129899,0.003907,-73.893944,66.427246,29.311857
1732081793.238669,1732081793.240821,113.000000,0.000000,4493.205078,4389.487305,4391.153809,4404.743652,4387.307617,4384.871582,4387.436035,4460.769043,4450.512695,4424.487305,4601.025879,4628.717773,4516.410156,4601.282227,1671.000000,0.000000,12.000000,,,,0.000000,2.000000,2.000000,0.000000,2.000000,2.000000,2.000000,1.000000,2.000000,4.000000,4.000000,4.000000,4.000000,2.000000,4.000000,25.000000,,,,,,,,,,,,,,,,,,,,,,,,,,,,
1732081793.246477,1732081793.248829,114.000000,0.000000,4488.717773,4385.641113,4389.230957,4405.000000,4376.025879,4389.871582,4391.410156,4457.436035,4448.589844,4426.666504,4602.948730,4630.384766,4520.384766,4599.743652,1344.000000,0.000000,12.000000,,,,0.000000,2.000000,2.000000,0.000000,2.000000,2.000000,2.000000,1.000000,2.000000,4.000000,4.000000,4.000000,4.000000,2.000000,4.000000,25.000000,,,,,,,,,,,,,,,,,,,,,,,,,,,,
1732081793.254285,1732081793.256637,115.000000,0.000000,4486.025879,4387.820313,4386.922852,4399.615234,4385.384766,4390.000000,4389.102539,4456.922852,4451.025879,4423.205078,4598.846191,4628.717773,4518.461426,4597.692383,1469.000000,0.000000,12.000000,,,,0.000000,2.000000,2.000000,0.000000,2.000000,2.000000,2.000000,1.000000,2.000000,4.000000,4.000000,4.000000,4.000000,2.000000,4.000000,25.000000,,,,,,,,,,,,,,,,,,,,,,,,,,,,
1732081793.262094,1732081793.264545,116.000000,0.000000,4486.794922,4393.333496,4388.717773,4399.743652,4391.025879,4386.666504,4383.461426,4456.153809,4452.563965,4426.794922,4600.128418,4629.871582,4519.487305,4597.948730,1696.000000,0.000000,12.000000,,,,0.000000,2.000000,2.000000,0.000000,2.000000,2.000000,2.000000,1.000000,2.000000,4.000000,4.000000,4.000000,4.000000,2.000000,4.000000,25.000000,,,,,,,,,,,,,,,,,29.000000,0.000000,0.634956,0.404907,-0.588074,0.295044,0.990844,0.104993,-0.001953,-74.025757,66.076065,29.205938
1732081793.269902,1732081793.272353,117.000000,0.000000,4491.666504,4392.179688,4392.051270,4404.230957,4393.846191,4380.641113,4383.333496,4450.128418,4448.205078,4431.153809,4602.179688,4631.794922,4523.333496,4598.974121,1671.000000,0.000000,12.000000,,,,0.000000,2.000000,2.000000,0.000000,2.000000,2.000000,2.000000,1.000000,2.000000,4.000000,4.000000,4.000000,4.000000,2.000000,4.000000,25.000000,,,,,,,,,,,,,,,,,,,,,,,,,,,,
1732081793.277710,1732081793.280361,118.000000,0.000000,4491.794922,4392.692383,4392.179688,4406.025879,4396.153809,4380.512695,4385.897461,4450.256348,4448.205078,4429.871582,4598.974121,4631.922852,4523.205078,4599.487305,1344.000000,0.000000,12.000000,,,,0.000000,2.000000,2.000000,0.000000,2.000000,2.000000,2.000000,1.000000,2.000000,4.000000,4.000000,4.000000,4.000000,2.000000,4.000000,25.000000,,,,,,,,,,,,,,,,,,,,,,,,,,,,
1732081793.285518,1732081793.288169,119.000000,0.000000,4488.205078,4398.077148,4390.897461,4403.589844,4388.717773,4389.358887,4386.922852,4456.794922,4452.436035,4428.205078,4598.589844,4635.641113,4521.025879,4595.641113,1469.000000,0.000000,12.000000,,,,0.000000,2.000000,2.000000,0.000000,2.000000,2.000000,2.000000,1.000000,2.000000,4.000000,4.000000,4.000000,4.000000,2.000000,4.000000,25.000000,,,,,,,,,,,,,,,,,,,,,,,,,,,,
1732081793.293327,1732081793.296078,120.000000,0.000000,4484.230957,4394.743652,4390.641113,4401.538574,4390.769043,4397.179688,4386.153809,4457.948730,4453.077148,4430.897461,4601.153809,4634.743652,4522.051270,4590.641113,1696.000000,0.000000,12.000000,,,,0.000000,2.000000,2.000000,0.000000,2.000000,2.000000,2.000000,1.000000,2.000000,4.000000,4.000000,4.000000,4.000000,2.000000,4.000000,25.000000,,,,,,,,,,,,,,,,,30.000000,0.000000,0.634160,0.404419,-0.588562,0.296448,0.981565,0.147967,0.012209,-74.064201,66.026619,29.218477
1732081793.301135,1732081793.303886,121.000000,0.000000,4477.051270,4386.794922,4392.692383,4406.538574,4401.922852,4398.461426,4389.487305,4459.230957,4453.333496,4430.128418,4599.871582,4630.256348,4520.384766,4585.641113,1671.000000,0.000000,12.000000,,,,0.000000,2.000000,2.000000,0.000000,2.000000,2.000000,2.000000,1.000000,2.000000,4.000000,4.000000,4.000000,4.000000,2.000000,4.000000,25.000000,,,,,,,,,,,,,,,,,,,,,,,,,,,,
1732081793.308943,1732081793.311894,122.000000,0.000000,4477.692383,4392.436035,4393.333496,4412.948730,4396.922852,4394.743652,4392.692383,4461.794922,4451.794922,4428.205078,4598.846191,4631.922852,4519.102539,4584.871582,1344.000000,0.000000,12.000000,,,,0.000000,2.000000,2.000000,0.000000,2.000000,2.000000,2.000000,1.000000,2.000000,4.000000,4.000000,4.000000,4.000000,2.000000,4.000000,25.000000,,,,,,,,,,,,,,,,,,,,,,,,,,,,
1732081793.316751,1732081793.319702,123.000000,0.000000,4480.256348,4400.000000,4391.922852,4412.692383,4394.102539,4393.846191,4392.948730,4457.948730,4447.948730,4427.563965,4601.153809,4631.025879,4520.897461,4586.410156,1469.000000,0.000000,12.000000,,,,0.000000,2.000000,2.000000,0.000000,2.000000,2.000000,2.000000,1.000000,2.000000,4.000000,4.000000,4.000000,4.000000,2.000000,4.000000,25.000000,,,,,,,,,,,,,,,,,,,,,,,,,,,,
1732081793.324560,1732081793.327410,124.000000,0.000000,4475.000000,4398.077148,4391.025879,4411.538574,4395.897461,4396.666504,4389.871582,4456.025879,4451.922852,4427.051270,4601.666504,4626.922852,4521.538574,4585.128418,1696.000000,0.000000,12.000000,,,,0.000000,2.000000,2.000000,0.000000,2.000000,2.000000,2.000000,1.000000,2.000000,4.000000,4.000000,4.000000,4.000000,2.000000,4.000000,25.000000,,,,,,,,,,,,,,,,,31.000000,0.000000,0.633869,0.404297,-0.588867,0.296631,0.981565,0.147967,0.012209,-74.020332,66.211555,29.273632
1732081793.332368,1732081793.335218,125.000000,0.000000,4473.717773,4397.051270,4393.333496,4410.641113,4391.153809,4392.436035,4388.846191,4457.051270,4451.794922,4426.666504,4602.436035,4626.538574,4521.794922,4583.077148,1671.000000,0.000000,12.000000,,,,0.000000,2.000000,2.000000,0.000000,2.000000,2.000000,2.000000,1.000000,2.000000,4.000000,4.000000,4.000000,4.000000,2.000000,4.000000,25.000000,,,,,,,,,,,,,,,,,,,,,,,,,,,,
1732081793.340176,1732081793.342827,126.000000,0.000000,4476.538574,4400.256348,4390.641113,4407.948730,4397.563965,4381.153809,4387.307617,4449.230957,4445.384766,4424.358887,4603.333496,4625.128418,4523.333496,4584.230957,1344.000000,0.000000,12.000000,,,,0.000000,2.000000,2.000000,0.000000,2.000000,2.000000,2.000000,1.000000,2.000000,4.000000,4.000000,4.000000,4.000000,2.000000,4.000000,25.000000,,,,,,,,,,,,,,,,,,,,,,,,,,,,
1732081793.347984,1732081793.350635,127.000000,0.000000,4473.333496,4400.256348,4387.436035,4406.666504,4400.256348,4378.974121,4386.538574,4446.410156,4447.179688,4426.538574,4602.692383,4621.153809,4525.384766,4586.922852,12.000000,0.000000,12.000000,,,,0.000000,2.000000,2.000000,0.000000,2.000000,2.000000,2.000000,1.000000,2.000000,4.000000,4.000000,4.000000,4.000000,2.000000,4.000000,25.000000,,,,,,,,,,,,,,,,,,,,,,,,,,,,
1732081793.355793,1732081793.358343,0.000000,0.000000,4471.794922,4398.333496,4386.410156,4407.179688,4386.922852,4387.307617,4386.025879,4454.743652,4450.512695,4430.641113,4602.307617,4617.692383,4525.256348,4585.000000,0.000000,0.000000,12.000000,,,,0.000000,2.000000,2.000000,0.000000,2.000000,2.000000,2.000000,1.000000,2.000000,4.000000,4.000000,4.000000,4.000000,2.000000,4.000000,25.000000,,,,,,,,,,,,,,,,,0.000000,0.000000,0.633113,0.405884,-0.589539,0.294739,0.963008,0.213893,-0.026370,-74.543137,66.363029,29.149977
1732081793.363601,1732081793.366152,1.000000,0.000000,4471.025879,4398.077148,4388.077148,4408.974121,4380.769043,4387.179688,4387.948730,4455.769043,4447.948730,4426.538574,4603.461426,4619.230957,4521.794922,4582.436035,1279.000000,0.000000,12.000000,,,,0.000000,2.000000,2.000000,0.000000,2.000000,2.000000,2.000000,1.000000,2.000000,4.000000,4.000000,4.000000,4.000000,2.000000,4.000000,25.000000,,,,,,,,,,,,,,,,,,,,,,,,,,,,
1732081793.371409,1732081793.373760,2.000000,0.000000,4470.000000,4401.410156,4392.179688,4415.769043,4386.794922,4381.538574,4389.230957,4451.922852,4444.487305,4420.897461,4603.205078,4626.025879,4522.051270,4586.538574,1195.000000,0.000000,12.000000,,,,0.000000,2.000000,2.000000,0.000000,2.000000,2.000000,2.000000,1.000000,2.000000,4.000000,4.000000,4.000000,4.000000,2.000000,4.000000,25.000000,,,,,,,,,,,,,,,,,,,,,,,,,,,,
1732081793.379218,1732081793.381568,3.000000,0.000000,4476.794922,4408.461426,4396.025879,4423.461426,4387.436035,4381.410156,4385.384766,4456.794922,4445.256348,4418.974121,4600.384766,4635.256348,4526.410156,4592.692383,1157.000000,0.000000,12.000000,,,,0.000000,2.000000,2.000000,0.000000,2.000000,2.000000,2.000000,1.000000,2.000000,4.000000,4.000000,4.000000,4.000000,2.000000,4.000000,25.000000,,,,,,,,,,,,,,,,,,,,,,,,,,,,
1732081793.387026,1732081793.389277,4.000000,0.000000,4480.769043,4409.487305,4394.102539,4424.230957,4386.282227,4383.077148,4382.692383,4460.128418,4444.358887,4415.384766,4604.230957,4637.563965,4528.205078,4592.051270,1179.000000,0.000000,12.000000,,,,0.000000,2.000000,2.000000,0.000000,2.000000,2.000000,2.000000,1.000000,2.000000,4.000000,4.000000,4.000000,4.000000,2.000000,4.000000,25.000000,,,,,,,,,,,,,,,,,1.000000,0.000000,0.632577,0.407776,-0.589539,0.293274,0.961055,0.224148,-0.044439,-74.716606,66.385719,29.116480
1732081793.394834,1732081793.397085,5.000000,0.000000,4476.666504,4406.922852,4394.102539,4422.948730,4390.384766,4382.179688,4384.871582,4449.487305,4438.589844,4410.897461,4612.820313,4632.820313,4531.922852,4592.820313,1063.000000,0.000000,12.000000,,,,0.000000,2.000000,2.000000,0.000000,2.000000,2.000000,2.000000,1.000000,2.000000,4.000000,4.000000,4.000000,4.000000,2.000000,4.000000,25.000000,,,,,,,,,,,,,,,,,,,,,,,,,,,,
1732081793.402642,1732081793.404693,6.000000,0.000000,4478.461426,4412.307617,4398.333496,4428.461426,4381.922852,4381.025879,4387.051270,4444.487305,4434.102539,4413.846191,4617.179688,4635.769043,4540.641113,4603.333496,210.000000,0.000000,12.000000,,,,0.000000,2.000000,2.000000,0.000000,2.000000,2.000000,2.000000,1.000000,2.000000,4.000000,4.000000,4.000000,4.000000,2.000000,4.000000,25.000000,,,,,,,,,,,,,,,,,,,,,,,,,,,,
1732081793.410450,1732081793.412501,7.000000,0.000000,4479.230957,4415.512695,4396.922852,4430.512695,4376.666504,4382.051270,4384.743652,4455.000000,4438.846191,4418.077148,4616.025879,4642.563965,4533.717773,4600.384766,1184.000000,0.000000,12.000000,,,,0.000000,2.000000,2.000000,0.000000,2.000000,2.000000,2.000000,1.000000,2.000000,4.000000,4.000000,4.000000,4.000000,2.000000,4.000000,25.000000,,,,,,,,,,,,,,,,,,,,,,,,,,,,
1732081793.418259,1732081793.420210,8.000000,0.000000,4471.410156,4407.563965,4391.538574,4417.179688,4390.512695,4378.974121,4384.743652,4455.769043,4445.128418,4422.051270,4617.948730,4647.307617,4525.384766,4588.717773,1325.000000,0.000000,12.000000,,,,0.000000,2.000000,2.000000,0.000000,2.000000,2.000000,2.000000,1.000000,2.000000,4.000000,4.000000,4.000000,4.000000,2.000000,4.000000,25.000000,,,,,,,,,,,,,,,,,2.000000,0.000000,0.632139,0.408936,-0.589539,0.292603,0.963008,0.215847,-0.050787,-74.422119,65.995766,28.967682
1732081793.426067,1732081793.428018,9.000000,0.000000,4465.897461,4402.436035,4392.307617,4407.820313,4391.410156,4377.563965,4388.205078,4448.589844,4445.384766,4428.077148,4617.948730,4651.922852,4534.743652,4590.641113,1451.000000,0.000000,12.000000,,,,0.000000,2.000000,2.000000,0.000000,2.000000,2.000000,2.000000,1.000000,2.000000,4.000000,4.000000,4.000000,4.000000,2.000000,4.000000,25.000000,,,,,,,,,,,,,,,,,,,,,,,,,,,,
1732081793.433875,1732081793.435626,10.000000,0.000000,4460.128418,4401.666504,4395.769043,4412.051270,4373.717773,4390.000000,4395.256348,4454.743652,4448.974121,4430.897461,4607.948730,4650.000000,4531.538574,4586.025879,1330.000000,0.000000,12.000000,,,,0.000000,2.000000,2.000000,0.000000,2.000000,2.000000,2.000000,1.000000,2.000000,4.000000,4.000000,4.000000,4.000000,2.000000,4.000000,25.000000,,,,,,,,,,,,,,,,,,,,,,,,,,,,
1732081793.441683,1732081793.443435,11.000000,0.000000,4453.717773,4399.743652,4394.230957,4414.487305,4374.615234,4398.077148,4395.512695,4462.948730,4448.717773,4426.410156,4598.077148,4639.230957,4511.666504,4569.102539,1467.000000,0.000000,12.000000,,,,0.000000,2.000000,2.000000,0.000000,2.000000,2.000000,2.000000,1.000000,2.000000,4.000000,4.000000,4.000000,4.000000,2.000000,4.000000,25.000000,,,,,,,,,,,,,,,,,,,,,,,,,,,,
1732081793.449492,1732081793.451343,12.000000,0.000000,4455.512695,4399.102539,4391.666504,4407.307617,4389.358887,4392.436035,4391.922852,4458.077148,4444.487305,4419.358887,4591.538574,4632.563965,4503.974121,4564.358887,1696.000000,0.000000,12.000000,,,,0.000000,2.000000,2.000000,0.000000,2.000000,2.000000,2.000000,1.000000,2.000000,4.000000,4.000000,4.000000,4.000000,2.000000,4.000000,25.000000,,,,,,,,,,,,,,,,,3.000000,0.000000,0.630271,0.412109,-0.589722,0.291809,0.975217,0.179709,-0.055183,-74.151917,66.091568,28.625490
1732081793.457300,1732081793.459151,13.000000,0.000000,4457.307617,4401.538574,4391.922852,4404.102539,4387.051270,4392.051270,4391.282227,4456.153809,4448.974121,4421.410156,4591.922852,4636.153809,4508.205078,4569.487305,1675.000000,0.000000,12.000000,,,,0.000000,2.000000,2.000000,0.000000,2.000000,2.000000,2.000000,1.000000,2.000000,4.000000,4.000000,4.000000,4.000000,2.000000,4.000000,25.000000,,,,,,,,,,,,,,,,,,,,,,,,,,,,
1732081793.465108,1732081793.467159,14.000000,0.000000,4454.615234,4401.666504,4396.538574,4410.769043,4381.922852,4396.794922,4390.512695,4458.461426,4452.051270,4427.563965,4599.615234,4638.205078,4512.307617,4570.000000,1330.000000,0.000000,12.000000,,,,0.000000,2.000000,2.000000,0.000000,2.000000,2.000000,2.000000,1.000000,2.000000,4.000000,4.000000,4.000000,4.000000,2.000000,4.000000,25.000000,1.000000,25.000000,2.000000,2.000000,0.000000,2.000000,2.000000,2.000000,1.000000,2.000000,4.000000,4.000000,4.000000,4.000000,2.000000,4.000000,,,,,,,,,,,,
1732081793.472916,1732081793.474967,15.000000,0.000000,4454.358887,4401.538574,4395.641113,4412.307617,4384.358887,4392.820313,4385.769043,4459.487305,4454.743652,4430.000000,4604.487305,4643.333496,4516.794922,4570.897461,1467.000000,0.000000,12.000000,,,,0.000000,2.000000,2.000000,0.000000,2.000000,2.000000,2.000000,1.000000,2.000000,4.000000,4.000000,4.000000,4.000000,2.000000,4.000000,25.000000,,,,,,,,,,,,,,,,,,,,,,,,,,,,
1732081793.480725,1732081793.482875,16.000000,0.000000,4451.282227,4400.641113,4392.436035,4406.666504,4384.615234,4394.871582,4390.000000,4460.897461,4458.974121,4431.666504,4598.974121,4651.922852,4514.230957,4568.461426,0.000000,0.000000,12.000000,,,,0.000000,2.000000,2.000000,0.000000,2.000000,2.000000,2.000000,1.000000,2.000000,4.000000,4.000000,4.000000,4.000000,2.000000,4.000000,25.000000,,,,,,,,,,,,,,,,,4.000000,0.000000,0.627539,0.412964,-0.591309,0.293274,0.958125,0.132340,-0.049322,-74.286385,66.119171,28.501646
1732081793.488533,1732081793.490683,17.000000,0.000000,4445.769043,4396.538574,4393.333496,4408.333496,4389.230957,4409.102539,4397.563965,4459.358887,4455.000000,4430.769043,4593.077148,4652.692383,4507.692383,4563.717773,0.000000,0.000000,12.000000,,,,0.000000,2.000000,2.000000,0.000000,2.000000,2.000000,2.000000,1.000000,2.000000,4.000000,4.000000,4.000000,4.000000,2.000000,4.000000,25.000000,,,,,,,,,,,,,,,,,,,,,,,,,,,,
1732081793.496341,1732081793.498292,18.000000,0.000000,4443.589844,4396.282227,4396.410156,4412.307617,4391.922852,4409.487305,4397.307617,4460.897461,4452.051270,4425.512695,4591.666504,4649.871582,4507.051270,4563.846191,0.000000,0.000000,12.000000,,,,0.000000,2.000000,2.000000,0.000000,2.000000,2.000000,2.000000,1.000000,2.000000,4.000000,4.000000,4.000000,4.000000,2.000000,4.000000,25.000000,,,,,,,,,,,,,,,,,,,,,,,,,,,,
1732081793.504150,1732081793.506100,19.000000,0.000000,4436.282227,4398.077148,4395.128418,4407.051270,4387.563965,4398.461426,4392.692383,4465.000000,4459.743652,4423.846191,4588.589844,4643.974121,4507.051270,4559.615234,0.000000,0.000000,12.000000,,,,0.000000,2.000000,2.000000,0.000000,2.000000,2.000000,2.000000,1.000000,2.000000,4.000000,4.000000,4.000000,4.000000,2.000000,4.000000,25.000000,,,,,,,,,,,,,,,,,,,,,,,,,,,,
1732081793.511958,1732081793.513808,20.000000,0.000000,4428.974121,4395.384766,4395.384766,4402.307617,4385.897461,4396.410156,4390.769043,4460.128418,4457.307617,4421.922852,4586.153809,4639.615234,4502.307617,4553.205078,0.000000,0.000000,12.000000,,,,0.000000,2.000000,2.000000,0.000000,2.000000,2.000000,2.000000,1.000000,2.000000,4.000000,4.000000,4.000000,4.000000,2.000000,4.000000,25.000000,,,,,,,,,,,,,,,,,5.000000,0.000000,0.626725,0.411621,-0.592712,0.294067,0.943475,0.138689,-0.049811,-74.268639,66.096527,28.427999
1732081793.519766,1732081793.521617,21.000000,0.000000,4431.794922,4393.205078,4396.666504,4407.307617,4388.846191,4397.692383,4393.205078,4458.333496,4447.436035,4413.461426,4585.769043,4649.487305,4498.333496,4553.077148,0.000000,0.000000,12.000000,,,,0.000000,2.000000,2.000000,0.000000,2.000000,2.000000,2.000000,1.000000,2.000000,4.000000,4.000000,4.000000,4.000000,2.000000,4.000000,25.000000,,,,,,,,,,,,,,,,,,,,,,,,,,,,
1732081793.527574,1732081793.529225,22.000000,0.000000,4435.641113,4392.692383,4396.922852,4408.461426,4382.948730,4395.641113,4392.307617,4462.436035,4451.153809,4415.641113,4589.487305,4661.666504,4502.563965,4557.820313,0.000000,0.000000,12.000000,,,,0.000000,2.000000,2.000000,0.000000,2.000000,2.000000,2.000000,1.000000,2.000000,4.000000,4.000000,4.000000,4.000000,2.000000,4.000000,25.000000,,,,,,,,,,,,,,,,,,,,,,,,,,,,
1732081793.535383,1732081793.537033,23.000000,0.000000,4432.436035,4391.538574,4396.282227,4400.769043,4380.512695,4396.153809,4388.077148,4457.948730,4454.230957,4422.563965,4591.666504,4653.846191,4504.102539,4559.358887,0.000000,0.000000,12.000000,,,,0.000000,2.000000,2.000000,0.000000,2.000000,2.000000,2.000000,1.000000,2.000000,4.000000,4.000000,4.000000,4.000000,2.000000,4.000000,25.000000,,,,,,,,,,,,,,,,,,,,,,,,,,,,
1732081793.543191,1732081793.544941,24.000000,0.000000,4425.000000,4385.641113,4394.615234,4395.256348,4400.384766,4399.871582,4388.077148,4452.436035,4450.769043,4412.436035,4582.692383,4639.615234,4488.846191,4547.307617,0.000000,0.000000,12.000000,,,,0.000000,2.000000,2.000000,0.000000,2.000000,2.000000,2.000000,1.000000,2.000000,4.000000,4.000000,4.000000,4.000000,2.000000,4.000000,25.000000,,,,,,,,,,,,,,,,,6.000000,0.000000,0.626449,0.410767,-0.593506,0.294250,0.938591,0.138689,-0.051764,-74.200928,65.924858,28.426680
1732081793.550999,1732081793.552749,25.000000,0.000000,4418.205078,4378.205078,4394.743652,4393.589844,4405.897461,4401.922852,4394.487305,4460.384766,4459.487305,4408.846191,4575.384766,4639.615234,4477.307617,4536.153809,0.000000,0.000000,12.000000,,,,0.000000,2.000000,2.000000,0.000000,2.000000,2.000000,2.000000,1.000000,2.000000,4.000000,4.000000,4.000000,4.000000,2.000000,4.000000,25.000000,,,,,,,,,,,,,,,,,,,,,,,,,,,,
1732081793.558807,1732081793.560757,26.000000,0.000000,4419.230957,4376.538574,4394.615234,4394.358887,4384.358887,4407.436035,4396.282227,4472.948730,4469.487305,4420.384766,4579.487305,4643.461426,4483.589844,4542.692383,0.000000,0.000000,12.000000,,,,0.000000,2.000000,2.000000,0.000000,2.000000,2.000000,2.000000,1.000000,2.000000,4.000000,4.000000,4.000000,4.000000,2.000000,4.000000,25.000000,,,,,,,,,,,,,,,,,,,,,,,,,,,,
1732081793.566615,1732081793.568566,27.000000,0.000000,4423.461426,4384.487305,4395.769043,4396.922852,4381.025879,4413.077148,4397.948730,4478.333496,4464.615234,4423.333496,4587.692383,4641.922852,4490.769043,4548.205078,0.000000,0.000000,12.000000,,,,0.000000,2.000000,2.000000,0.000000,2.000000,2.000000,2.000000,1.000000,2.000000,4.000000,4.000000,4.000000,4.000000,2.000000,4.000000,25.000000,,,,,,,,,,,,,,,,,,,,,,,,,,,,
1732081793.574424,1732081793.576474,28.000000,0.000000,4422.820313,4390.512695,4396.410156,4399.615234,4398.974121,4412.051270,4400.512695,4468.846191,4455.897461,4416.922852,4586.153809,4635.769043,4489.230957,4541.025879,0.000000,0.000000,12.000000,,,,0.000000,2.000000,2.000000,0.000000,2.000000,2.000000,2.000000,1.000000,2.000000,4.000000,4.000000,4.000000,4.000000,2.000000,4.000000,25.000000,,,,,,,,,,,,,,,,,7.000000,0.000000,0.626913,0.407837,-0.595215,0.293884,0.956171,0.165059,-0.073739,-74.439423,65.585800,28.330610
1732081793.582232,1732081793.584282,29.000000,0.000000,4418.461426,4388.333496,4395.384766,4401.025879,4401.410156,4410.769043,4398.205078,4458.461426,4452.307617,4410.000000,4574.615234,4621.794922,4479.871582,4536.153809,0.000000,0.000000,12.000000,,,,0.000000,2.000000,2.000000,0.000000,2.000000,2.000000,2.000000,1.000000,2.000000,4.000000,4.000000,4.000000,4.000000,2.000000,4.000000,25.000000,,,,,,,,,,,,,,,,,,,,,,,,,,,,
1732081793.590040,1732081793.592290,30.000000,0.000000,4411.922852,4387.563965,4390.641113,4400.897461,4393.846191,4411.922852,4397.051270,4468.077148,4457.820313,4412.179688,4572.563965,4615.512695,4474.230957,4535.512695,0.000000,0.000000,12.000000,,,,0.000000,2.000000,2.000000,0.000000,2.000000,2.000000,2.000000,1.000000,2.000000,4.000000,4.000000,4.000000,4.000000,2.000000,4.000000,25.000000,,,,,,,,,,,,,,,,,,,,,,,,,,,,
1732081793.597849,1732081793.600098,31.000000,0.000000,4412.436035,4391.410156,4392.436035,4401.922852,4392.820313,4407.948730,4399.487305,4473.205078,4460.000000,4418.974121,4583.333496,4631.282227,4479.230957,4537.692383,0.000000,0.000000,12.000000,,,,0.000000,2.000000,2.000000,0.000000,2.000000,2.000000,2.000000,1.000000,2.000000,4.000000,4.000000,4.000000,4.000000,2.000000,4.000000,25.000000,,,,,,,,,,,,,,,,,,,,,,,,,,,,
1732081793.605657,1732081793.607806,32.000000,0.000000,4423.974121,4395.000000,4397.692383,4407.307617,4395.641113,4396.666504,4394.358887,4457.820313,4449.358887,4414.615234,4585.256348,4637.563965,4480.641113,4541.538574,0.000000,0.000000,12.000000,,,,0.000000,2.000000,2.000000,0.000000,2.000000,2.000000,2.000000,1.000000,2.000000,4.000000,4.000000,4.000000,4.000000,2.000000,4.000000,25.000000,,,,,,,,,,,,,,,,,8.000000,0.000000,0.627345,0.406860,-0.595398,0.293945,0.974240,0.168478,-0.058113,-74.425934,65.477829,28.286129
1732081793.613465,1732081793.615615,33.000000,0.000000,4423.205078,4391.538574,4399.102539,4406.153809,4400.769043,4395.256348,4393.461426,4455.256348,4448.717773,4410.384766,4574.743652,4620.384766,4474.102539,4537.692383,0.000000,0.000000,12.000000,,,,0.000000,2.000000,2.000000,0.000000,2.000000,2.000000,2.000000,1.000000,2.000000,4.000000,4.000000,4.000000,4.000000,2.000000,4.000000,25.000000,,,,,,,,,,,,,,,,,,,,,,,,,,,,
1732081793.621273,1732081793.623623,34.000000,0.000000,4411.153809,4385.897461,4395.769043,4398.333496,4397.179688,4406.666504,4399.102539,4466.025879,4463.205078,4421.666504,4570.512695,4611.922852,4472.820313,4532.820313,0.000000,0.000000,12.000000,,,,0.000000,2.000000,2.000000,0.000000,2.000000,2.000000,2.000000,1.000000,2.000000,4.000000,4.000000,4.000000,4.000000,2.000000,4.000000,25.000000,,,,,,,,,,,,,,,,,,,,,,,,,,,,
1732081793.629082,1732081793.631431,35.000000,0.000000,4409.230957,4387.436035,4393.333496,4397.692383,4397.820313,4408.717773,4397.179688,4464.230957,4462.820313,4423.717773,4571.922852,4617.051270,4473.333496,4530.512695,0.000000,0.000000,12.000000,,,,0.000000,2.000000,2.000000,0.000000,2.000000,2.000000,2.000000,1.000000,2.000000,4.000000,4.000000,4.000000,4.000000,2.000000,4.000000,25.000000,,,,,,,,,,,,,,,,,,,,,,,,,,,,
1732081793.636890,1732081793.639339,36.000000,0.000000,4410.384766,4393.205078,4394.487305,4403.205078,4414.230957,4400.641113,4393.589844,4460.641113,4447.051270,4411.025879,4568.846191,4616.410156,4468.077148,4527.563965,0.000000,0.000000,12.000000,,,,0.000000,2.000000,2.000000,0.000000,2.000000,2.000000,2.000000,1.000000,2.000000,4.000000,4.000000,4.000000,4.000000,2.000000,4.000000,25.000000,,,,,,,,,,,,,,,,,9.000000,0.000000,0.627345,0.406860,-0.595398,0.293945,0.980100,0.164571,-0.045416,-74.430000,65.300377,28.340097
1732081793.644698,1732081793.647147,37.000000,0.000000,4409.358887,4391.153809,4395.128418,4400.384766,4411.538574,4403.974121,4398.333496,4469.743652,4451.794922,4415.512695,4570.256348,4615.256348,4467.948730,4527.436035,0.000000,0.000000,12.000000,,,,0.000000,2.000000,2.000000,0.000000,2.000000,2.000000,2.000000,1.000000,2.000000,4.000000,4.000000,4.000000,4.000000,2.000000,4.000000,25.000000,,,,,,,,,,,,,,,,,,,,,,,,,,,,
1732081793.652506,1732081793.655155,38.000000,0.000000,4412.692383,4384.615234,4393.077148,4394.871582,4394.102539,4417.692383,4402.436035,4476.282227,4465.256348,4427.948730,4575.769043,4619.615234,4473.974121,4532.692383,0.000000,0.000000,12.000000,,,,0.000000,2.000000,2.000000,0.000000,2.000000,2.000000,2.000000,1.000000,2.000000,4.000000,4.000000,4.000000,4.000000,2.000000,4.000000,25.000000,,,,,,,,,,,,,,,,,,,,,,,,,,,,
1732081793.660315,1732081793.662963,39.000000,0.000000,4414.358887,4391.025879,4394.487305,4398.717773,4398.461426,4414.743652,4396.666504,4466.794922,4457.051270,4422.436035,4573.589844,4618.333496,4474.615234,4532.179688,0.000000,0.000000,12.000000,,,,0.000000,2.000000,2.000000,0.000000,2.000000,2.000000,2.000000,1.000000,2.000000,4.000000,4.000000,4.000000,4.000000,2.000000,4.000000,25.000000,,,,,,,,,,,,,,,,,,,,,,,,,,,,
1732081793.668123,1732081793.670872,40.000000,0.000000,4416.410156,4398.717773,4398.333496,4404.871582,4404.615234,4391.282227,4389.358887,4450.512695,4442.179688,4414.615234,4569.358887,4615.512695,4471.153809,4530.000000,0.000000,0.000000,12.000000,,,,0.000000,2.000000,2.000000,0.000000,2.000000,2.000000,2.000000,1.000000,2.000000,4.000000,4.000000,4.000000,4.000000,2.000000,4.000000,25.000000,,,,,,,,,,,,,,,,,10.000000,0.000000,0.627894,0.405396,-0.595215,0.295166,0.991332,0.142596,-0.039556,-74.393303,65.276642,28.180479
1732081793.675931,1732081793.678680,41.000000,0.000000,4421.666504,4398.846191,4397.307617,4403.717773,4396.282227,4383.589844,4387.948730,4451.410156,4449.102539,4422.692383,4578.077148,4619.615234,4477.692383,4536.153809,0.000000,0.000000,12.000000,,,,0.000000,2.000000,2.000000,0.000000,2.000000,2.000000,2.000000,1.000000,2.000000,4.000000,4.000000,4.000000,4.000000,2.000000,4.000000,25.000000,,,,,,,,,,,,,,,,,,,,,,,,,,,,
1732081793.683739,1732081793.686688,42.000000,0.000000,4420.256348,4396.282227,4395.512695,4397.948730,4394.230957,4397.563965,4396.153809,4467.051270,4469.230957,4435.769043,4590.897461,4628.461426,4492.692383,4541.922852,0.000000,0.000000,12.000000,,,,0.000000,2.000000,2.000000,0.000000,2.000000,2.000000,2.000000,1.000000,2.000000,4.000000,4.000000,4.000000,4.000000,2.000000,4.000000,25.000000,,,,,,,,,,,,,,,,,,,,,,,,,,,,
1732081793.691548,1732081793.694496,43.000000,0.000000,4417.948730,4397.051270,4394.615234,4402.563965,4399.230957,4399.230957,4393.717773,4466.282227,4462.051270,4431.922852,4584.743652,4626.666504,4487.948730,4539.358887,0.000000,0.000000,12.000000,,,,0.000000,2.000000,2.000000,0.000000,2.000000,2.000000,2.000000,1.000000,2.000000,4.000000,4.000000,4.000000,4.000000,2.000000,4.000000,25.000000,,,,,,,,,,,,,,,,,,,,,,,,,,,,
1732081793.699356,1732081793.702404,44.000000,0.000000,4420.641113,4401.666504,4394.615234,4410.641113,4409.743652,4388.589844,4385.512695,4450.256348,4439.358887,4417.820313,4570.512695,4617.820313,4475.641113,4535.897461,0.000000,0.000000,12.000000,,,,0.000000,2.000000,2.000000,0.000000,2.000000,2.000000,2.000000,1.000000,2.000000,4.000000,4.000000,4.000000,4.000000,2.000000,4.000000,25.000000,,,,,,,,,,,,,,,,,11.000000,0.000000,0.628763,0.402161,-0.595581,0.296997,0.976193,0.119644,-0.023440,-74.430244,65.140747,28.184521
1732081793.707164,1732081793.710212,45.000000,0.000000,4416.538574,4398.461426,4391.922852,4401.282227,4415.384766,4393.846191,4391.410156,4459.487305,4450.000000,4421.666504,4570.128418,4616.410156,4483.846191,4533.205078,0.000000,0.000000,12.000000,,,,0.000000,2.000000,2.000000,0.000000,2.000000,2.000000,2.000000,1.000000,2.000000,4.000000,4.000000,4.000000,4.000000,2.000000,4.000000,25.000000,,,,,,,,,,,,,,,,,,,,,,,,,,,,
1732081793.714972,1732081793.718220,46.000000,0.000000,4406.282227,4389.102539,4391.025879,4391.025879,4406.282227,4403.589844,4397.820313,4475.000000,4465.256348,4427.436035,4570.128418,4608.333496,4485.256348,4524.615234,0.000000,0.000000,12.000000,,,,0.000000,2.000000,2.000000,0.000000,2.000000,2.000000,2.000000,1.000000,2.000000,4.000000,4.000000,4.000000,4.000000,2.000000,4.000000,25.000000,,,,,,,,,,,,,,,,,,,,,,,,,,,,
1732081793.722781,1732081793.726028,47.000000,0.000000,4409.102539,4392.563965,4393.717773,4399.871582,4404.358887,4400.897461,4390.512695,4462.307617,4448.974121,4421.410156,4568.333496,4593.205078,4474.871582,4524.871582,0.000000,0.000000,12.000000,,,,0.000000,2.000000,2.000000,0.000000,2.000000,2.000000,2.000000,1.000000,2.000000,4.000000,4.000000,4.000000,4.000000,2.000000,4.000000,25.000000,,,,,,,,,,,,,,,,,,,,,,,,,,,,
1732081793.730589,1732081793.733837,48.000000,0.000000,4416.794922,4403.205078,4397.051270,4409.487305,4410.512695,4399.871582,4389.615234,4451.153809,4435.897461,4420.512695,4573.461426,4591.410156,4484.230957,4533.461426,0.000000,0.000000,12.000000,,,,0.000000,2.000000,2.000000,0.000000,2.000000,2.000000,2.000000,1.000000,2.000000,4.000000,4.000000,4.000000,4.000000,2.000000,4.000000,25.000000,,,,,,,,,,,,,,,,,12.000000,0.000000,0.629587,0.399597,-0.596252,0.297363,0.964473,0.123550,-0.019534,-74.475166,65.124001,28.307795
1732081793.738397,1732081793.741645,49.000000,0.000000,4417.051270,4401.538574,4396.153809,4408.846191,4405.641113,4396.922852,4392.948730,4455.256348,4446.025879,4425.897461,4582.563965,4595.384766,4495.256348,4535.256348,0.000000,0.000000,12.000000,,,,0.000000,2.000000,2.000000,0.000000,2.000000,2.000000,2.000000,1.000000,2.000000,4.000000,4.000000,4.000000,4.000000,2.000000,4.000000,25.000000,,,,,,,,,,,,,,,,,,,,,,,,,,,,
1732081793.746205,1732081793.749253,50.000000,0.000000,4415.000000,4395.384766,4392.692383,4406.538574,4398.974121,4388.974121,4390.384766,4462.051270,4457.179688,4431.025879,4581.410156,4597.051270,4489.102539,4532.051270,0.000000,0.000000,12.000000,,,,0.000000,2.000000,2.000000,0.000000,2.000000,2.000000,2.000000,1.000000,2.000000,4.000000,4.000000,4.000000,4.000000,2.000000,4.000000,25.000000,,,,,,,,,,,,,,,,,,,,,,,,,,,,
1732081793.754014,1732081793.757062,51.000000,0.000000,4413.589844,4396.153809,4390.897461,4406.153809,4397.436035,4392.436035,4391.025879,4469.102539,4463.717773,4438.077148,4575.769043,4598.717773,4486.410156,4526.666504,0.000000,0.000000,12.000000,,,,0.000000,2.000000,2.000000,0.000000,2.000000,2.000000,2.000000,1.000000,2.000000,4.000000,4.000000,4.000000,4.000000,2.000000,4.000000,25.000000,,,,,,,,,,,,,,,,,,,,,,,,,,,,
1732081793.761822,1732081793.764770,52.000000,0.000000,4414.743652,4398.461426,4394.230957,4409.102539,4398.589844,4397.692383,4393.333496,4471.153809,4465.128418,4436.922852,4575.512695,4592.563965,4486.153809,4522.692383,0.000000,0.000000,12.000000,,,,0.000000,2.000000,2.000000,0.000000,2.000000,2.000000,2.000000,1.000000,2.000000,4.000000,4.000000,4.000000,4.000000,2.000000,4.000000,25.000000,,,,,,,,,,,,,,,,,13.000000,0.000000,0.630042,0.398743,-0.596436,0.297180,0.964473,0.123550,-0.019534,-74.606552,64.910439,28.660980
1732081793.769630,1732081793.772578,53.000000,0.000000,4416.282227,4400.512695,4396.666504,4413.461426,4412.692383,4393.333496,4391.410156,4460.769043,4450.512695,4420.384766,4571.794922,4583.846191,4476.282227,4523.974121,0.000000,0.000000,12.000000,,,,0.000000,2.000000,2.000000,0.000000,2.000000,2.000000,2.000000,1.000000,2.000000,4.000000,4.000000,4.000000,4.000000,2.000000,4.000000,25.000000,,,,,,,,,,,,,,,,,,,,,,,,,,,,
1732081793.777439,1732081793.780186,54.000000,0.000000,4413.461426,4397.051270,4393.846191,4406.922852,4417.307617,4395.512695,4394.358887,4453.077148,4440.769043,4413.717773,4567.948730,4583.461426,4474.230957,4522.948730,0.000000,0.000000,12.000000,,,,0.000000,2.000000,2.000000,0.000000,2.000000,2.000000,2.000000,1.000000,2.000000,4.000000,4.000000,4.000000,4.000000,2.000000,4.000000,25.000000,,,,,,,,,,,,,,,,,,,,,,,,,,,,
1732081793.785247,1732081793.787995,55.000000,0.000000,4408.974121,4391.538574,4389.743652,4398.717773,4401.153809,4406.794922,4399.487305,4460.641113,4451.282227,4417.820313,4567.692383,4584.487305,4478.461426,4514.102539,0.000000,0.000000,12.000000,,,,0.000000,2.000000,2.000000,0.000000,2.000000,2.000000,2.000000,1.000000,2.000000,4.000000,4.000000,4.000000,4.000000,2.000000,4.000000,25.000000,,,,,,,,,,,,,,,,,,,,,,,,,,,,
1732081793.793055,1732081793.795703,56.000000,0.000000,4411.538574,4393.077148,4389.743652,4402.563965,4397.307617,4407.820313,4395.897461,4462.307617,4455.769043,4413.077148,4568.589844,4582.563965,4475.000000,4515.769043,0.000000,0.000000,12.000000,,,,0.000000,2.000000,2.000000,0.000000,2.000000,2.000000,2.000000,1.000000,2.000000,4.000000,4.000000,4.000000,4.000000,2.000000,4.000000,25.000000,,,,,,,,,,,,,,,,,14.000000,0.000000,0.631236,0.397034,-0.596130,0.297546,0.963985,0.148456,-0.022952,-74.937973,64.962456,28.647060
1732081793.800863,1732081793.803511,57.000000,0.000000,4418.205078,4394.615234,4393.333496,4406.410156,4407.179688,4394.487305,4389.102539,4449.230957,4440.769043,4409.102539,4568.333496,4583.205078,4476.282227,4523.333496,0.000000,0.000000,12.000000,,,,0.000000,2.000000,2.000000,0.000000,2.000000,2.000000,2.000000,1.000000,2.000000,4.000000,4.000000,4.000000,4.000000,2.000000,4.000000,25.000000,,,,,,,,,,,,,,,,,,,,,,,,,,,,
1732081793.808671,1732081793.811120,58.000000,0.000000,4418.717773,4394.871582,4394.230957,4406.025879,4408.589844,4392.820313,4386.922852,4448.333496,4443.333496,4418.205078,4571.794922,4587.307617,4484.487305,4522.948730,0.000000,0.000000,12.000000,,,,0.000000,2.000000,2.000000,0.000000,2.000000,2.000000,2.000000,1.000000,2.000000,4.000000,4.000000,4.000000,4.000000,2.000000,4.000000,25.000000,,,,,,,,,,,,,,,,,,,,,,,,,,,,
1732081793.816480,1732081793.818928,59.000000,0.000000,4417.179688,4397.179688,4392.307617,4407.051270,4404.615234,4406.666504,4392.179688,4465.512695,4463.589844,4424.871582,4572.179688,4590.128418,4482.436035,4519.358887,0.000000,0.000000,12.000000,,,,0.000000,2.000000,2.000000,0.000000,2.000000,2.000000,2.000000,1.000000,2.000000,4.000000,4.000000,4.000000,4.000000,2.000000,4.000000,25.000000,,,,,,,,,,,,,,,,,,,,,,,,,,,,
1732081793.824288,1732081793.826636,60.000000,0.000000,4418.205078,4397.692383,4391.025879,4409.102539,4413.077148,4405.641113,4389.358887,4458.974121,4452.948730,4415.897461,4565.000000,4590.128418,4472.820313,4519.102539,0.000000,0.000000,12.000000,,,,0.000000,2.000000,2.000000,0.000000,2.000000,2.000000,2.000000,1.000000,2.000000,4.000000,4.000000,4.000000,4.000000,2.000000,4.000000,25.000000,,,,,,,,,,,,,,,,,15.000000,0.000000,0.631754,0.396667,-0.595886,0.297424,0.967403,0.146991,-0.035649,-74.936424,64.937927,28.377453
1732081793.832096,1732081793.834444,61.000000,0.000000,4417.051270,4394.102539,4393.846191,4405.641113,4414.487305,4388.589844,4386.410156,4447.948730,4438.205078,4412.307617,4568.846191,4601.282227,4476.282227,4521.282227,0.000000,0.000000,12.000000,,,,0.000000,2.000000,2.000000,0.000000,2.000000,2.000000,2.000000,1.000000,2.000000,4.000000,4.000000,4.000000,4.000000,2.000000,4.000000,25.000000,,,,,,,,,,,,,,,,,,,,,,,,,,,,
1732081793.839904,1732081793.842053,62.000000,0.000000,4409.230957,4387.436035,4392.563965,4397.563965,4396.922852,4390.128418,4390.256348,4467.692383,4455.128418,4424.230957,4571.538574,4609.487305,4481.666504,4514.743652,0.000000,0.000000,12.000000,,,,0.000000,2.000000,2.000000,0.000000,2.000000,2.000000,2.000000,1.000000,2.000000,4.000000,4.000000,4.000000,4.000000,2.000000,4.000000,25.000000,,,,,,,,,,,,,,,,,,,,,,,,,,,,
1732081793.847713,1732081793.849861,63.000000,0.000000,4401.794922,4385.256348,4389.871582,4396.025879,4390.128418,4405.256348,4394.743652,4473.589844,4466.666504,4428.717773,4559.615234,4591.666504,4472.436035,4505.384766,0.000000,0.000000,12.000000,,,,0.000000,2.000000,2.000000,0.000000,2.000000,2.000000,2.000000,1.000000,2.000000,4.000000,4.000000,4.000000,4.000000,2.000000,4.000000,25.000000,,,,,,,,,,,,,,,,,,,,,,,,,,,,
1732081793.855521,1732081793.857569,64.000000,0.000000,4404.743652,4390.512695,4390.128418,4400.512695,4405.641113,4406.282227,4395.641113,4459.615234,4459.487305,4419.230957,4552.179688,4582.563965,4468.077148,4505.384766,0.000000,0.000000,12.000000,,,,0.000000,2.000000,2.000000,0.000000,2.000000,2.000000,2.000000,1.000000,2.000000,4.000000,4.000000,4.000000,4.000000,2.000000,4.000000,25.000000,,,,,,,,,,,,,,,,,16.000000,0.000000,0.631917,0.396729,-0.595703,0.297363,0.972775,0.145526,-0.025394,-75.111839,64.778053,28.349070
1732081793.863329,1732081793.865377,65.000000,0.000000,4408.974121,4391.410156,4392.948730,4402.307617,4414.230957,4401.410156,4395.897461,4458.974121,4451.025879,4410.769043,4554.615234,4593.974121,4473.205078,4507.948730,1282.000000,0.000000,12.000000,,,,0.000000,2.000000,2.000000,0.000000,2.000000,2.000000,2.000000,1.000000,2.000000,4.000000,4.000000,4.000000,4.000000,2.000000,4.000000,25.000000,,,,,,,,,,,,,,,,,,,,,,,,,,,,
1732081793.871138,1732081793.873385,66.000000,0.000000,4410.641113,4390.512695,4393.717773,4403.717773,4400.384766,4397.820313,4391.153809,4457.820313,4445.512695,4415.769043,4559.615234,4594.358887,4475.897461,4509.102539,1204.000000,0.000000,12.000000,,,,0.000000,2.000000,2.000000,0.000000,2.000000,2.000000,2.000000,1.000000,2.000000,4.000000,4.000000,4.000000,4.000000,2.000000,4.000000,25.000000,,,,,,,,,,,,,,,,,,,,,,,,,,,,
1732081793.878946,1732081793.881194,67.000000,0.000000,4414.230957,4395.384766,4391.922852,4405.897461,4399.358887,4394.871582,4385.512695,4445.641113,4444.230957,4420.512695,4562.307617,4587.179688,4476.282227,4513.077148,1155.000000,0.000000,12.000000,,,,0.000000,2.000000,2.000000,0.000000,2.000000,2.000000,2.000000,1.000000,2.000000,4.000000,4.000000,4.000000,4.000000,2.000000,4.000000,25.000000,,,,,,,,,,,,,,,,,,,,,,,,,,,,
1732081793.886754,1732081793.889102,68.000000,0.000000,4410.000000,4395.128418,4389.230957,4401.282227,4417.563965,4401.666504,4390.641113,4446.922852,4443.205078,4413.717773,4558.333496,4586.794922,4475.512695,4510.769043,1187.000000,0.000000,12.000000,,,,0.000000,2.000000,2.000000,0.000000,2.000000,2.000000,2.000000,1.000000,2.000000,4.000000,4.000000,4.000000,4.000000,2.000000,4.000000,25.000000,,,,,,,,,,,,,,,,,17.000000,0.000000,0.632128,0.396667,-0.595581,0.297241,0.984495,0.141131,-0.024905,-75.217255,64.630219,28.441080
1732081793.894562,1732081793.896910,69.000000,0.000000,4399.743652,4384.743652,4390.769043,4396.282227,4416.153809,4404.615234,4393.589844,4458.974121,4446.666504,4410.512695,4552.307617,4584.871582,4469.615234,4500.769043,1047.000000,0.000000,12.000000,,,,0.000000,2.000000,2.000000,0.000000,2.000000,2.000000,2.000000,1.000000,2.000000,4.000000,4.000000,4.000000,4.000000,2.000000,4.000000,25.000000,,,,,,,,,,,,,,,,,,,,,,,,,,,,
1732081793.902371,1732081793.904518,70.000000,0.000000,4395.512695,4383.077148,4391.538574,4396.025879,4397.179688,4397.820313,4389.743652,4463.717773,4459.487305,4420.128418,4554.358887,4581.538574,4468.717773,4500.128418,198.000000,0.000000,12.000000,,,,0.000000,2.000000,2.000000,0.000000,2.000000,2.000000,2.000000,1.000000,2.000000,4.000000,4.000000,4.000000,4.000000,2.000000,4.000000,25.000000,,,,,,,,,,,,,,,,,,,,,,,,,,,,
1732081793.910179,1732081793.912327,71.000000,0.000000,4399.871582,4392.692383,4390.512695,4399.102539,4400.641113,4396.153809,4386.153809,4458.717773,4457.179688,4423.077148,4553.589844,4584.615234,4471.666504,4505.769043,1187.000000,0.000000,12.000000,,,,0.000000,2.000000,2.000000,0.000000,2.000000,2.000000,2.000000,1.000000,2.000000,4.000000,4.000000,4.000000,4.000000,2.000000,4.000000,25.000000,,,,,,,,,,,,,,,,,,,,,,,,,,,,
1732081793.917987,1732081793.920035,72.000000,0.000000,4400.641113,4393.461426,4390.512695,4402.051270,4418.846191,4400.128418,4388.717773,4454.487305,4443.717773,4416.794922,4547.563965,4582.436035,4468.717773,4505.512695,1319.000000,0.000000,12.000000,,,,0.000000,2.000000,2.000000,0.000000,2.000000,2.000000,2.000000,1.000000,2.000000,4.000000,4.000000,4.000000,4.000000,2.000000,4.000000,25.000000,,,,,,,,,,,,,,,,,18.000000,0.000000,0.631793,0.396973,-0.595520,0.297668,0.963985,0.136735,-0.023929,-75.124306,64.613815,28.452274
1732081793.925795,1732081793.927843,73.000000,0.000000,4397.307617,4387.436035,4390.000000,4400.512695,4415.769043,4400.256348,4391.410156,4458.205078,4446.922852,4415.641113,4549.230957,4574.615234,4467.436035,4502.563965,1446.000000,0.000000,12.000000,,,,0.000000,2.000000,2.000000,0.000000,2.000000,2.000000,2.000000,1.000000,2.000000,4.000000,4.000000,4.000000,4.000000,2.000000,4.000000,25.000000,,,,,,,,,,,,,,,,,,,,,,,,,,,,
1732081793.933604,1732081793.935452,74.000000,0.000000,4399.743652,4389.615234,4390.769043,4399.871582,4402.692383,4397.948730,4391.025879,4452.179688,4448.461426,4412.179688,4552.563965,4573.205078,4470.769043,4503.589844,1332.000000,0.000000,12.000000,,,,0.000000,2.000000,2.000000,0.000000,2.000000,2.000000,2.000000,1.000000,2.000000,4.000000,4.000000,4.000000,4.000000,2.000000,4.000000,25.000000,,,,,,,,,,,,,,,,,,,,,,,,,,,,
1732081793.941412,1732081793.943260,75.000000,0.000000,4402.179688,4395.000000,4393.461426,4401.794922,4405.769043,4397.307617,4389.487305,4442.307617,4440.384766,4408.717773,4554.102539,4579.615234,4474.743652,4506.922852,1471.000000,0.000000,12.000000,,,,0.000000,2.000000,2.000000,0.000000,2.000000,2.000000,2.000000,1.000000,2.000000,4.000000,4.000000,4.000000,4.000000,2.000000,4.000000,25.000000,,,,,,,,,,,,,,,,,,,,,,,,,,,,
1732081793.949220,1732081793.950968,76.000000,0.000000,4400.512695,4391.410156,4396.794922,4403.589844,4417.179688,4395.641113,4389.743652,4449.230957,4441.922852,4409.487305,4554.615234,4581.794922,4473.717773,4504.230957,1700.000000,0.000000,12.000000,,,,0.000000,2.000000,2.000000,0.000000,2.000000,2.000000,2.000000,1.000000,2.000000,4.000000,4.000000,4.000000,4.000000,2.000000,4.000000,25.000000,,,,,,,,,,,,,,,,,19.000000,0.000000,0.631793,0.396973,-0.595520,0.297668,0.959101,0.143084,-0.026370,-75.169022,64.630524,28.566343
1732081793.957028,1732081793.958776,77.000000,0.000000,4400.128418,4387.563965,4396.025879,4405.384766,4414.102539,4395.769043,4389.230957,4459.615234,4446.666504,4410.128418,4551.922852,4574.358887,4470.128418,4499.743652,1676.000000,0.000000,12.000000,,,,0.000000,2.000000,2.000000,0.000000,2.000000,2.000000,2.000000,1.000000,2.000000,4.000000,4.000000,4.000000,4.000000,2.000000,4.000000,25.000000,,,,,,,,,,,,,,,,,,,,,,,,,,,,
1732081793.964836,1732081793.966784,78.000000,0.000000,4402.563965,4392.307617,4395.769043,4405.256348,4395.128418,4399.230957,4388.333496,4459.358887,4445.000000,4407.948730,4551.538574,4577.051270,4470.000000,4502.692383,1332.000000,0.000000,12.000000,,,,0.000000,2.000000,2.000000,0.000000,2.000000,2.000000,2.000000,1.000000,2.000000,4.000000,4.000000,4.000000,4.000000,2.000000,4.000000,25.000000,1.000000,25.000000,2.000000,2.000000,0.000000,2.000000,2.000000,2.000000,1.000000,2.000000,4.000000,4.000000,4.000000,4.000000,2.000000,4.000000,,,,,,,,,,,,
1732081793.972645,1732081793.974592,79.000000,0.000000,4402.307617,4395.769043,4396.666504,4404.871582,4396.794922,4396.282227,4385.384766,4454.230957,4443.974121,4407.948730,4554.615234,4586.666504,4474.358887,4512.563965,1471.000000,0.000000,12.000000,,,,0.000000,2.000000,2.000000,0.000000,2.000000,2.000000,2.000000,1.000000,2.000000,4.000000,4.000000,4.000000,4.000000,2.000000,4.000000,25.000000,,,,,,,,,,,,,,,,,,,,,,,,,,,,
1732081793.980453,1732081793.982501,80.000000,0.000000,4398.333496,4394.358887,4396.538574,4400.641113,4415.641113,4391.282227,4386.922852,4453.077148,4447.692383,4415.641113,4557.948730,4586.153809,4477.179688,4515.897461,1700.000000,0.000000,12.000000,,,,0.000000,2.000000,2.000000,0.000000,2.000000,2.000000,2.000000,1.000000,2.000000,4.000000,4.000000,4.000000,4.000000,2.000000,4.000000,25.000000,,,,,,,,,,,,,,,,,20.000000,0.000000,0.631302,0.397522,-0.595093,0.298828,0.964962,0.147967,-0.030277,-75.041908,64.637390,28.585403
1732081793.988261,1732081793.990309,81.000000,0.000000,4397.563965,4392.436035,4394.358887,4395.000000,4409.871582,4394.871582,4391.538574,4455.769043,4448.589844,4416.538574,4555.897461,4583.589844,4473.974121,4510.641113,1676.000000,0.000000,12.000000,,,,0.000000,2.000000,2.000000,0.000000,2.000000,2.000000,2.000000,1.000000,2.000000,4.000000,4.000000,4.000000,4.000000,2.000000,4.000000,25.000000,,,,,,,,,,,,,,,,,,,,,,,,,,,,
1732081793.996070,1732081793.998317,82.000000,0.000000,4397.563965,4391.538574,4392.820313,4396.410156,4394.102539,4400.641113,4391.410156,4457.051270,4444.230957,4407.563965,4551.666504,4583.205078,4471.538574,4509.358887,1332.000000,0.000000,12.000000,,,,0.000000,2.000000,2.000000,0.000000,2.000000,2.000000,2.000000,1.000000,2.000000,4.000000,4.000000,4.000000,4.000000,2.000000,4.000000,25.000000,,,,,,,,,,,,,,,,,,,,,,,,,,,,
1732081794.003878,1732081794.006125,83.000000,0.000000,4397.051270,4393.077148,4391.794922,4399.487305,4400.128418,4399.615234,4388.205078,4453.461426,4443.717773,4408.717773,4558.846191,4577.179688,4475.897461,4514.615234,1471.000000,0.000000,12.000000,,,,0.000000,2.000000,2.000000,0.000000,2.000000,2.000000,2.000000,1.000000,2.000000,4.000000,4.000000,4.000000,4.000000,2.000000,4.000000,25.000000,,,,,,,,,,,,,,,,,,,,,,,,,,,,
1732081794.011686,1732081794.013833,84.000000,0.000000,4394.871582,4391.538574,4395.384766,4395.512695,4407.051270,4397.692383,4390.641113,4448.333496,4446.025879,4415.384766,4565.384766,4575.769043,4479.871582,4515.256348,1700.000000,0.000000,12.000000,,,,0.000000,2.000000,2.000000,0.000000,2.000000,2.000000,2.000000,1.000000,2.000000,4.000000,4.000000,4.000000,4.000000,2.000000,4.000000,25.000000,,,,,,,,,,,,,,,,,21.000000,0.000000,0.630875,0.398010,-0.594543,0.300171,0.965450,0.124039,-0.017092,-75.192276,64.351288,28.759178
1732081794.019494,1732081794.021642,85.000000,0.000000,4394.102539,4387.179688,4396.538574,4392.563965,4400.512695,4398.717773,4391.922852,4446.922852,4438.846191,4405.256348,4555.641113,4581.922852,4472.563965,4506.153809,1676.000000,0.000000,12.000000,,,,0.000000,2.000000,2.000000,0.000000,2.000000,2.000000,2.000000,1.000000,2.000000,4.000000,4.000000,4.000000,4.000000,2.000000,4.000000,25.000000,,,,,,,,,,,,,,,,,,,,,,,,,,,,
1732081794.027303,1732081794.029650,86.000000,0.000000,4394.230957,4387.948730,4393.205078,4396.922852,4408.333496,4395.000000,4385.512695,4448.205078,4429.487305,4393.717773,4547.563965,4574.358887,4466.153809,4503.205078,1332.000000,0.000000,12.000000,,,,0.000000,2.000000,2.000000,0.000000,2.000000,2.000000,2.000000,1.000000,2.000000,4.000000,4.000000,4.000000,4.000000,2.000000,4.000000,25.000000,,,,,,,,,,,,,,,,,,,,,,,,,,,,
1732081794.035111,1732081794.037458,87.000000,0.000000,4392.307617,4391.153809,4392.436035,4396.794922,4417.307617,4391.794922,4382.307617,4446.538574,4433.974121,4401.282227,4552.307617,4564.615234,4470.128418,4507.436035,1471.000000,0.000000,12.000000,,,,0.000000,2.000000,2.000000,0.000000,2.000000,2.000000,2.000000,1.000000,2.000000,4.000000,4.000000,4.000000,4.000000,2.000000,4.000000,25.000000,,,,,,,,,,,,,,,,,,,,,,,,,,,,
1732081794.042919,1732081794.045366,88.000000,0.000000,4389.871582,4388.077148,4397.820313,4392.948730,4398.846191,4396.538574,4383.974121,4442.307617,4441.922852,4408.717773,4550.256348,4567.051270,4467.820313,4501.794922,1700.000000,0.000000,12.000000,,,,0.000000,2.000000,2.000000,0.000000,2.000000,2.000000,2.000000,1.000000,2.000000,4.000000,4.000000,4.000000,4.000000,2.000000,4.000000,25.000000,,,,,,,,,,,,,,,,,22.000000,0.000000,0.631160,0.398376,-0.593872,0.300415,0.965450,0.148456,-0.018069,-75.247414,64.232872,28.999933
1732081794.050727,1732081794.053174,89.000000,0.000000,4385.000000,4381.794922,4398.589844,4392.692383,4388.717773,4400.897461,4385.769043,4447.051270,4443.717773,4406.153809,4547.179688,4569.230957,4459.615234,4492.307617,1676.000000,0.000000,12.000000,,,,0.000000,2.000000,2.000000,0.000000,2.000000,2.000000,2.000000,1.000000,2.000000,4.000000,4.000000,4.000000,4.000000,2.000000,4.000000,25.000000,,,,,,,,,,,,,,,,,,,,,,,,,,,,
1732081794.058536,1732081794.061182,90.000000,0.000000,4384.358887,4383.205078,4394.230957,4392.436035,4401.282227,4398.205078,4384.230957,4454.358887,4442.820313,4404.871582,4554.487305,4568.333496,4460.641113,4493.846191,1332.000000,0.000000,12.000000,,,,0.000000,2.000000,2.000000,0.000000,2.000000,2.000000,2.000000,1.000000,2.000000,4.000000,4.000000,4.000000,4.000000,2.000000,4.000000,25.000000,,,,,,,,,,,,,,,,,,,,,,,,,,,,
1732081794.066344,1732081794.068990,91.000000,0.000000,4384.871582,4385.256348,4393.461426,4390.256348,4401.410156,4396.666504,4386.410156,4452.307617,4441.538574,4406.282227,4552.692383,4565.512695,4461.025879,4495.128418,1471.000000,0.000000,12.000000,,,,0.000000,2.000000,2.000000,0.000000,2.000000,2.000000,2.000000,1.000000,2.000000,4.000000,4.000000,4.000000,4.000000,2.000000,4.000000,25.000000,,,,,,,,,,,,,,,,,,,,,,,,,,,,
1732081794.074152,1732081794.076898,92.000000,0.000000,4381.538574,4382.436035,4391.410156,4387.692383,4399.871582,4399.230957,4389.230957,4447.307617,4440.256348,4407.051270,4542.692383,4560.384766,4456.538574,4487.179688,1700.000000,0.000000,12.000000,,,,0.000000,2.000000,2.000000,0.000000,2.000000,2.000000,2.000000,1.000000,2.000000,4.000000,4.000000,4.000000,4.000000,2.000000,4.000000,25.000000,,,,,,,,,,,,,,,,,23.000000,0.000000,0.631351,0.398438,-0.593628,0.300415,0.965450,0.148456,-0.018069,-75.232071,64.283630,29.126614
1732081794.081960,1732081794.084707,93.000000,0.000000,4379.871582,4380.128418,4391.794922,4387.436035,4413.717773,4398.333496,4389.102539,4446.922852,4441.794922,4405.384766,4542.436035,4562.820313,4455.384766,4484.358887,1676.000000,0.000000,12.000000,,,,0.000000,2.000000,2.000000,0.000000,2.000000,2.000000,2.000000,1.000000,2.000000,4.000000,4.000000,4.000000,4.000000,2.000000,4.000000,25.000000,,,,,,,,,,,,,,,,,,,,,,,,,,,,
1732081794.089769,1732081794.092315,94.000000,0.000000,4384.230957,4384.102539,4394.358887,4390.512695,4409.358887,4395.641113,4384.358887,4446.410156,4441.282227,4405.769043,4553.205078,4570.384766,4461.025879,4488.717773,1332.000000,0.000000,12.000000,,,,0.000000,2.000000,2.000000,0.000000,2.000000,2.000000,2.000000,1.000000,2.000000,4.000000,4.000000,4.000000,4.000000,2.000000,4.000000,25.000000,,,,,,,,,,,,,,,,,,,,,,,,,,,,
1732081794.097577,1732081794.100123,95.000000,0.000000,4383.974121,4383.717773,4398.461426,4391.666504,4390.769043,4395.000000,4384.230957,4447.051270,4435.641113,4405.000000,4553.461426,4572.820313,4462.820313,4491.282227,1471.000000,0.000000,12.000000,,,,0.000000,2.000000,2.000000,0.000000,2.000000,2.000000,2.000000,1.000000,2.000000,4.000000,4.000000,4.000000,4.000000,2.000000,4.000000,25.000000,,,,,,,,,,,,,,,,,,,,,,,,,,,,
1732081794.105385,1732081794.107832,96.000000,0.000000,4378.846191,4378.974121,4398.461426,4391.025879,4394.487305,4396.282227,4386.410156,4450.000000,4434.102539,4400.512695,4539.230957,4573.333496,4455.256348,4490.897461,1700.000000,0.000000,12.000000,,,,0.000000,2.000000,2.000000,0.000000,2.000000,2.000000,2.000000,1.000000,2.000000,4.000000,4.000000,4.000000,4.000000,2.000000,4.000000,25.000000,,,,,,,,,,,,,,,,,24.000000,0.000000,0.631513,0.398499,-0.593384,0.300476,0.982542,0.125015,-0.022464,-75.254646,64.414742,29.025890
1732081794.113193,1732081794.115640,97.000000,0.000000,4381.282227,4381.282227,4396.538574,4391.794922,4406.794922,4398.205078,4384.102539,4446.538574,4435.384766,4398.077148,4532.948730,4569.358887,4448.461426,4483.589844,1676.000000,0.000000,12.000000,,,,0.000000,2.000000,2.000000,0.000000,2.000000,2.000000,2.000000,1.000000,2.000000,4.000000,4.000000,4.000000,4.000000,2.000000,4.000000,25.000000,,,,,,,,,,,,,,,,,,,,,,,,,,,,
1732081794.121002,1732081794.123248,98.000000,0.000000,4383.717773,4384.230957,4395.256348,4394.230957,4407.051270,4399.871582,4382.307617,4446.922852,4437.436035,4399.615234,4538.974121,4561.794922,4444.871582,4476.794922,1332.000000,0.000000,12.000000,,,,0.000000,2.000000,2.000000,0.000000,2.000000,2.000000,2.000000,1.000000,2.000000,4.000000,4.000000,4.000000,4.000000,2.000000,4.000000,25.000000,,,,,,,,,,,,,,,,,,,,,,,,,,,,
1732081794.128810,1732081794.131056,99.000000,0.000000,4379.230957,4382.820313,4396.666504,4392.436035,4407.436035,4399.743652,4383.974121,4456.794922,4438.846191,4400.256348,4538.461426,4561.153809,4442.436035,4476.922852,1471.000000,0.000000,12.000000,,,,0.000000,2.000000,2.000000,0.000000,2.000000,2.000000,2.000000,1.000000,2.000000,4.000000,4.000000,4.000000,4.000000,2.000000,4.000000,25.000000,,,,,,,,,,,,,,,,,,,,,,,,,,,,
1732081794.136618,1732081794.138765,100.000000,0.000000,4375.512695,4382.436035,4396.282227,4390.512695,4418.846191,4399.230957,4383.077148,4457.948730,4435.641113,4395.256348,4530.256348,4559.871582,4440.128418,4478.974121,1700.000000,0.000000,12.000000,,,,0.000000,2.000000,2.000000,0.000000,2.000000,2.000000,2.000000,1.000000,2.000000,4.000000,4.000000,4.000000,4.000000,2.000000,4.000000,25.000000,,,,,,,,,,,,,,,,,25.000000,0.000000,0.631642,0.398376,-0.592896,0.301331,0.984007,0.141619,-0.006348,-75.272926,64.554276,29.019304
1732081794.144426,1732081794.146573,101.000000,0.000000,4378.589844,4383.333496,4395.384766,4394.871582,4414.358887,4400.256348,4382.692383,4448.846191,4433.974121,4395.512695,4533.589844,4559.230957,4441.794922,4480.897461,1676.000000,0.000000,12.000000,,,,0.000000,2.000000,2.000000,0.000000,2.000000,2.000000,2.000000,1.000000,2.000000,4.000000,4.000000,4.000000,4.000000,2.000000,4.000000,25.000000,,,,,,,,,,,,,,,,,,,,,,,,,,,,
1732081794.152235,1732081794.154181,102.000000,0.000000,4382.563965,4382.179688,4395.000000,4395.256348,4397.948730,4399.615234,4386.410156,4445.897461,4436.538574,4402.563965,4540.897461,4566.922852,4444.743652,4485.641113,1332.000000,0.000000,12.000000,,,,0.000000,2.000000,2.000000,0.000000,2.000000,2.000000,2.000000,1.000000,2.000000,4.000000,4.000000,4.000000,4.000000,2.000000,4.000000,25.000000,,,,,,,,,,,,,,,,,,,,,,,,,,,,
1732081794.160043,1732081794.161989,103.000000,0.000000,4383.205078,4382.051270,4393.461426,4395.128418,4401.666504,4395.769043,4383.077148,4447.179688,4435.128418,4402.307617,4540.384766,4570.769043,4445.256348,4490.000000,1471.000000,0.000000,12.000000,,,,0.000000,2.000000,2.000000,0.000000,2.000000,2.000000,2.000000,1.000000,2.000000,4.000000,4.000000,4.000000,4.000000,2.000000,4.000000,25.000000,,,,,,,,,,,,,,,,,,,,,,,,,,,,
1732081794.167851,1732081794.169698,104.000000,0.000000,4385.000000,4382.820313,4393.077148,4399.358887,4408.846191,4396.025879,4379.615234,4441.153809,4427.820313,4396.153809,4537.051270,4564.102539,4445.128418,4491.538574,1700.000000,0.000000,12.000000,,,,0.000000,2.000000,2.000000,0.000000,2.000000,2.000000,2.000000,1.000000,2.000000,4.000000,4.000000,4.000000,4.000000,2.000000,4.000000,25.000000,,,,,,,,,,,,,,,,,26.000000,0.000000,0.631544,0.398254,-0.592896,0.301697,0.984007,0.141619,-0.006348,-75.347740,64.607292,28.983969
1732081794.175660,1732081794.177506,105.000000,0.000000,4384.102539,4382.563965,4395.384766,4397.820313,4405.897461,4396.794922,4382.436035,4442.051270,4427.436035,4397.948730,4535.769043,4562.307617,4445.128418,4489.230957,1676.000000,0.000000,12.000000,,,,0.000000,2.000000,2.000000,0.000000,2.000000,2.000000,2.000000,1.000000,2.000000,4.000000,4.000000,4.000000,4.000000,2.000000,4.000000,25.000000,,,,,,,,,,,,,,,,,,,,,,,,,,,,
1732081794.183468,1732081794.185114,106.000000,0.000000,4378.077148,4381.153809,4394.871582,4389.743652,4410.256348,4393.974121,4384.358887,4449.102539,4431.666504,4402.563965,4535.512695,4564.615234,4443.589844,4482.307617,1332.000000,0.000000,12.000000,,,,0.000000,2.000000,2.000000,0.000000,2.000000,2.000000,2.000000,1.000000,2.000000,4.000000,4.000000,4.000000,4.000000,2.000000,4.000000,25.000000,,,,,,,,,,,,,,,,,,,,,,,,,,,,
1732081794.191276,1732081794.192923,107.000000,0.000000,4376.025879,4380.512695,4392.820313,4389.743652,4408.333496,4393.077148,4380.897461,4446.025879,4432.436035,4401.666504,4531.538574,4560.512695,4442.179688,4481.922852,1471.000000,0.000000,12.000000,,,,0.000000,2.000000,2.000000,0.000000,2.000000,2.000000,2.000000,1.000000,2.000000,4.000000,4.000000,4.000000,4.000000,2.000000,4.000000,25.000000,,,,,,,,,,,,,,,,,,,,,,,,,,,,
1732081794.199084,1732081794.200631,108.000000,0.000000,4379.102539,4383.846191,4393.717773,4394.230957,4392.563965,4394.871582,4382.436035,4440.641113,4429.871582,4399.743652,4525.769043,4561.410156,4447.051270,4484.487305,1700.000000,0.000000,12.000000,,,,0.000000,2.000000,2.000000,0.000000,2.000000,2.000000,2.000000,1.000000,2.000000,4.000000,4.000000,4.000000,4.000000,2.000000,4.000000,25.000000,,,,,,,,,,,,,,,,,27.000000,0.000000,0.631193,0.397888,-0.593018,0.302673,0.966427,0.143084,0.002930,-75.313332,64.428574,28.955349
1732081794.206893,1732081794.208439,109.000000,0.000000,4375.384766,4383.205078,4391.922852,4389.871582,4393.205078,4394.102539,4383.461426,4445.769043,4428.846191,4401.282227,4528.846191,4567.179688,4450.384766,4483.333496,1676.000000,0.000000,12.000000,,,,0.000000,2.000000,2.000000,0.000000,2.000000,2.000000,2.000000,1.000000,2.000000,4.000000,4.000000,4.000000,4.000000,2.000000,4.000000,25.000000,,,,,,,,,,,,,,,,,,,,,,,,,,,,
1732081794.214701,1732081794.216447,110.000000,0.000000,4371.922852,4378.589844,4389.743652,4386.282227,4401.922852,4390.769043,4380.000000,4446.666504,4430.128418,4401.538574,4537.692383,4569.102539,4447.692383,4484.615234,1332.000000,0.000000,12.000000,,,,0.000000,2.000000,2.000000,0.000000,2.000000,2.000000,2.000000,1.000000,2.000000,4.000000,4.000000,4.000000,4.000000,2.000000,4.000000,25.000000,,,,,,,,,,,,,,,,,,,,,,,,,,,,
1732081794.222509,1732081794.224255,111.000000,0.000000,4377.948730,4382.307617,4390.256348,4390.128418,4398.846191,4386.153809,4377.563965,4433.205078,4428.333496,4398.333496,4538.205078,4568.846191,4449.743652,4489.743652,1471.000000,0.000000,12.000000,,,,0.000000,2.000000,2.000000,0.000000,2.000000,2.000000,2.000000,1.000000,2.000000,4.000000,4.000000,4.000000,4.000000,2.000000,4.000000,25.000000,,,,,,,,,,,,,,,,,,,,,,,,,,,,
1732081794.230317,1732081794.231964,112.000000,0.000000,4379.743652,4385.897461,4392.307617,4390.897461,4392.179688,4383.333496,4377.563965,4430.641113,4425.641113,4395.769043,4536.153809,4570.641113,4453.333496,4491.666504,1700.000000,0.000000,12.000000,,,,0.000000,2.000000,2.000000,0.000000,2.000000,2.000000,2.000000,1.000000,2.000000,4.000000,4.000000,4.000000,4.000000,2.000000,4.000000,25.000000,,,,,,,,,,,,,,,,,28.000000,0.000000,0.630675,0.397888,-0.593506,0.302795,0.965450,0.133317,-0.007813,-75.145470,64.320480,29.192165
1732081794.238125,1732081794.239772,113.000000,0.000000,4372.948730,4380.641113,4391.410156,4385.897461,4391.794922,4380.512695,4374.102539,4437.179688,4424.487305,4394.743652,4537.820313,4570.769043,4450.256348,4488.205078,1676.000000,0.000000,12.000000,,,,0.000000,2.000000,2.000000,0.000000,2.000000,2.000000,2.000000,1.000000,2.000000,4.000000,4.000000,4.000000,4.000000,2.000000,4.000000,25.000000,,,,,,,,,,,,,,,,,,,,,,,,,,,,
1732081794.245934,1732081794.247380,114.000000,0.000000,4370.000000,4379.102539,4392.051270,4383.461426,4399.102539,4378.333496,4375.512695,4433.333496,4426.153809,4396.538574,4539.230957,4569.487305,4447.051270,4488.846191,1332.000000,0.000000,12.000000,,,,0.000000,2.000000,2.000000,0.000000,2.000000,2.000000,2.000000,1.000000,2.000000,4.000000,4.000000,4.000000,4.000000,2.000000,4.000000,25.000000,,,,,,,,,,,,,,,,,,,,,,,,,,,,
1732081794.253742,1732081794.255189,115.000000,0.000000,4373.461426,4383.461426,4390.769043,4388.077148,4399.743652,4377.948730,4381.153809,4432.179688,4429.615234,4401.538574,4540.384766,4565.128418,4450.000000,4492.179688,1471.000000,0.000000,12.000000,,,,0.000000,2.000000,2.000000,0.000000,2.000000,2.000000,2.000000,1.000000,2.000000,4.000000,4.000000,4.000000,4.000000,2.000000,4.000000,25.000000,,,,,,,,,,,,,,,,,,,,,,,,,,,,
1732081794.261550,1732081794.262897,116.000000,0.000000,4371.794922,4383.846191,4390.641113,4395.641113,4394.487305,4382.948730,4379.615234,4442.179688,4427.692383,4398.461426,4533.461426,4555.769043,4443.846191,4481.666504,1700.000000,0.000000,12.000000,,,,0.000000,2.000000,2.000000,0.000000,2.000000,2.000000,2.000000,1.000000,2.000000,4.000000,4.000000,4.000000,4.000000,2.000000,4.000000,25.000000,,,,,,,,,,,,,,,,,29.000000,0.000000,0.630175,0.398315,-0.593750,0.302795,0.972775,0.135270,-0.024417,-75.086159,64.356255,29.253988
1732081794.269359,1732081794.270705,117.000000,0.000000,4365.384766,4382.820313,4391.794922,4398.461426,4400.512695,4390.641113,4376.794922,4446.538574,4425.897461,4387.051270,4518.589844,4552.051270,4430.512695,4460.641113,1676.000000,0.000000,12.000000,,,,0.000000,2.000000,2.000000,0.000000,2.000000,2.000000,2.000000,1.000000,2.000000,4.000000,4.000000,4.000000,4.000000,2.000000,4.000000,25.000000,,,,,,,,,,,,,,,,,,,,,,,,,,,,
1732081794.277167,1732081794.278313,118.000000,0.000000,4364.871582,4379.743652,4391.922852,4390.641113,4402.051270,4390.256348,4376.922852,4437.307617,4426.922852,4387.820313,4517.563965,4555.897461,4431.025879,4462.179688,1332.000000,0.000000,12.000000,,,,0.000000,2.000000,2.000000,0.000000,2.000000,2.000000,2.000000,1.000000,2.000000,4.000000,4.000000,4.000000,4.000000,2.000000,4.000000,25.000000,,,,,,,,,,,,,,,,,,,,,,,,,,,,
1732081794.284975,1732081794.286122,119.000000,0.000000,4367.051270,4376.282227,4391.025879,4385.384766,4396.666504,4381.922852,4374.358887,4429.230957,4422.051270,4390.000000,4523.077148,4556.666504,4435.256348,4479.102539,1471.000000,0.000000,12.000000,,,,0.000000,2.000000,2.000000,0.000000,2.000000,2.000000,2.000000,1.000000,2.000000,4.000000,4.000000,4.000000,4.000000,2.000000,4.000000,25.000000,,,,,,,,,,,,,,,,,,,,,,,,,,,,
1732081794.292783,1732081794.294030,120.000000,0.000000,4366.922852,4375.512695,4390.128418,4389.871582,4394.743652,4380.384766,4372.179688,4429.615234,4415.769043,4380.384766,4518.717773,4551.025879,4428.589844,4473.077148,1700.000000,0.000000,12.000000,,,,0.000000,2.000000,2.000000,0.000000,2.000000,2.000000,2.000000,1.000000,2.000000,4.000000,4.000000,4.000000,4.000000,2.000000,4.000000,25.000000,,,,,,,,,,,,,,,,,30.000000,0.000000,0.630010,0.398621,-0.593689,0.302856,0.965938,0.140642,-0.021487,-75.481461,64.161896,28.984064
1732081794.300592,1732081794.301838,121.000000,0.000000,4367.051270,4374.871582,4390.256348,4389.487305,4394.871582,4385.641113,4377.563965,4432.692383,4418.461426,4378.846191,4516.538574,4550.769043,4425.000000,4460.000000,1676.000000,0.000000,12.000000,,,,0.000000,2.000000,2.000000,0.000000,2.000000,2.000000,2.000000,1.000000,2.000000,4.000000,4.000000,4.000000,4.000000,2.000000,4.000000,25.000000,,,,,,,,,,,,,,,,,,,,,,,,,,,,
1732081794.308400,1732081794.309446,122.000000,0.000000,4369.615234,4373.846191,4391.153809,4382.307617,4400.000000,4383.846191,4377.948730,4432.307617,4420.897461,4386.410156,4521.282227,4554.358887,4431.538574,4465.897461,1332.000000,0.000000,12.000000,,,,0.000000,2.000000,2.000000,0.000000,2.000000,2.000000,2.000000,1.000000,2.000000,4.000000,4.000000,4.000000,4.000000,2.000000,4.000000,25.000000,,,,,,,,,,,,,,,,,,,,,,,,,,,,
1732081794.316208,1732081794.317255,123.000000,0.000000,4370.000000,4378.461426,4391.794922,4382.948730,4399.871582,4381.282227,4375.641113,4429.743652,4419.487305,4385.384766,4521.794922,4553.205078,4432.436035,4476.282227,1471.000000,0.000000,12.000000,,,,0.000000,2.000000,2.000000,0.000000,2.000000,2.000000,2.000000,1.000000,2.000000,4.000000,4.000000,4.000000,4.000000,2.000000,4.000000,25.000000,,,,,,,,,,,,,,,,,,,,,,,,,,,,
1732081794.324016,1732081794.324963,124.000000,0.000000,4369.871582,4381.794922,4387.820313,4390.384766,4386.025879,4383.974121,4376.922852,4430.000000,4418.846191,4383.717773,4521.922852,4552.948730,4430.128418,4475.769043,1700.000000,0.000000,12.000000,,,,0.000000,2.000000,2.000000,0.000000,2.000000,2.000000,2.000000,1.000000,2.000000,4.000000,4.000000,4.000000,4.000000,2.000000,4.000000,25.000000,,,,,,,,,,,,,,,,,31.000000,0.000000,0.629721,0.399170,-0.593689,0.302734,0.978635,0.134782,-0.011232,-75.563316,64.209473,28.838758
1732081794.331825,1732081794.332771,125.000000,0.000000,4366.538574,4377.179688,4386.538574,4388.461426,4386.410156,4385.384766,4378.333496,4433.077148,4418.077148,4384.230957,4522.692383,4556.922852,4432.051270,4468.077148,1676.000000,0.000000,12.000000,,,,0.000000,2.000000,2.000000,0.000000,2.000000,2.000000,2.000000,1.000000,2.000000,4.000000,4.000000,4.000000,4.000000,2.000000,4.000000,25.000000,,,,,,,,,,,,,,,,,,,,,,,,,,,,
1732081794.339633,1732081794.340779,126.000000,0.000000,4361.410156,4371.282227,4388.333496,4383.717773,4396.538574,4387.179688,4377.692383,4435.641113,4420.769043,4380.641113,4520.000000,4552.948730,4431.410156,4465.384766,1332.000000,0.000000,12.000000,,,,0.000000,2.000000,2.000000,0.000000,2.000000,2.000000,2.000000,1.000000,2.000000,4.000000,4.000000,4.000000,4.000000,2.000000,4.000000,25.000000,,,,,,,,,,,,,,,,,,,,,,,,,,,,
1732081794.347441,1732081794.348587,127.000000,0.000000,4361.794922,4371.922852,4389.358887,4385.769043,4392.692383,4388.589844,4379.487305,4432.563965,4422.179688,4380.641113,4519.487305,4541.153809,4430.000000,4468.974121,12.000000,0.000000,12.000000,,,,0.000000,2.000000,2.000000,0.000000,2.000000,2.000000,2.000000,1.000000,2.000000,4.000000,4.000000,4.000000,4.000000,2.000000,4.000000,25.000000,,,,,,,,,,,,,,,,,,,,,,,,,,,,
1732081794.355249,1732081794.356495,0.000000,0.000000,4362.563965,4376.410156,4387.563965,4388.974121,4397.563965,4390.641113,4377.948730,4429.487305,4417.948730,4381.922852,4519.615234,4536.410156,4431.794922,4470.256348,0.000000,0.000000,12.000000,,,,0.000000,2.000000,2.000000,0.000000,2.000000,2.000000,2.000000,1.000000,2.000000,4.000000,4.000000,4.000000,4.000000,2.000000,4.000000,25.000000,,,,,,,,,,,,,,,,,0.000000,0.000000,0.629263,0.400391,-0.593384,0.302673,0.977658,0.141131,-0.015627,-75.302948,64.233009,28.972727
1732081794.363057,1732081794.364304,1.000000,0.000000,4359.743652,4375.256348,4385.769043,4388.589844,4402.692383,4391.282227,4374.743652,4433.589844,4417.307617,4380.512695,4515.897461,4538.974121,4433.589844,4467.179688,1274.000000,0.000000,12.000000,,,,0.000000,2.000000,2.000000,0.000000,2.000000,2.000000,2.000000,1.000000,2.000000,4.000000,4.000000,4.000000,4.000000,2.000000,4.000000,25.000000,,,,,,,,,,,,,,,,,,,,,,,,,,,,
1732081794.370866,1732081794.372312,2.000000,0.000000,4357.051270,4371.025879,4383.461426,4386.922852,4382.051270,4387.820313,4374.615234,4435.897461,4420.769043,4381.538574,4515.256348,4533.846191,4430.256348,4464.487305,1204.000000,0.000000,12.000000,,,,0.000000,2.000000,2.000000,0.000000,2.000000,2.000000,2.000000,1.000000,2.000000,4.000000,4.000000,4.000000,4.000000,2.000000,4.000000,25.000000,,,,,,,,,,,,,,,,,,,,,,,,,,,,
1732081794.378674,1732081794.380120,3.000000,0.000000,4355.128418,4371.153809,4385.769043,4386.153809,4374.102539,4387.436035,4376.538574,4431.282227,4421.153809,4384.871582,4516.538574,4528.205078,4428.077148,4461.410156,1152.000000,0.000000,12.000000,,,,0.000000,2.000000,2.000000,0.000000,2.000000,2.000000,2.000000,1.000000,2.000000,4.000000,4.000000,4.000000,4.000000,2.000000,4.000000,25.000000,,,,,,,,,,,,,,,,,,,,,,,,,,,,
1732081794.386482,1732081794.388028,4.000000,0.000000,4357.563965,4372.436035,4387.948730,4382.051270,4392.948730,4390.256348,4375.769043,4430.384766,4423.461426,4386.666504,4518.333496,4534.487305,4429.743652,4458.589844,1155.000000,0.000000,12.000000,,,,0.000000,2.000000,2.000000,0.000000,2.000000,2.000000,2.000000,1.000000,2.000000,4.000000,4.000000,4.000000,4.000000,2.000000,4.000000,25.000000,,,,,,,,,,,,,,,,,1.000000,0.000000,0.629097,0.400696,-0.593323,0.302734,0.967403,0.132340,-0.028812,-75.047058,64.385399,29.081242
1732081794.394291,1732081794.395836,5.000000,0.000000,4359.102539,4370.128418,4387.563965,4377.948730,4396.025879,4386.410156,4374.487305,4433.077148,4422.820313,4386.538574,4517.692383,4540.897461,4428.589844,4460.512695,1058.000000,0.000000,12.000000,,,,0.000000,2.000000,2.000000,0.000000,2.000000,2.000000,2.000000,1.000000,2.000000,4.000000,4.000000,4.000000,4.000000,2.000000,4.000000,25.000000,,,,,,,,,,,,,,,,,,,,,,,,,,,,
1732081794.402099,1732081794.403844,6.000000,0.000000,4358.077148,4368.846191,4386.410156,4377.948730,4379.358887,4381.025879,4377.436035,4431.282227,4417.051270,4384.102539,4515.000000,4533.333496,4428.589844,4460.512695,202.000000,0.000000,12.000000,,,,0.000000,2.000000,2.000000,0.000000,2.000000,2.000000,2.000000,1.000000,2.000000,4.000000,4.000000,4.000000,4.000000,2.000000,4.000000,25.000000,,,,,,,,,,,,,,,,,,,,,,,,,,,,
1732081794.409907,1732081794.411652,7.000000,0.000000,4358.205078,4371.153809,4387.948730,4381.282227,4385.512695,4382.563965,4377.692383,4429.743652,4419.230957,4379.487305,4511.410156,4528.333496,4427.820313,4458.461426,1182.000000,0.000000,12.000000,,,,0.000000,2.000000,2.000000,0.000000,2.000000,2.000000,2.000000,1.000000,2.000000,4.000000,4.000000,4.000000,4.000000,2.000000,4.000000,25.000000,,,,,,,,,,,,,,,,,,,,,,,,,,,,
1732081794.417715,1732081794.419361,8.000000,0.000000,4357.948730,4374.230957,4389.615234,4383.717773,4402.179688,4383.205078,4374.743652,4430.128418,4421.538574,4378.846191,4508.333496,4531.153809,4423.589844,4457.307617,1325.000000,0.000000,12.000000,,,,0.000000,2.000000,2.000000,0.000000,2.000000,2.000000,2.000000,1.000000,2.000000,4.000000,4.000000,4.000000,4.000000,2.000000,4.000000,25.000000,,,,,,,,,,,,,,,,,2.000000,0.000000,0.628756,0.401184,-0.593323,0.302795,0.984984,0.121109,-0.024417,-74.974785,64.248840,28.812473
1732081794.425524,1732081794.427169,9.000000,0.000000,4356.153809,4376.410156,4388.077148,4384.871582,4391.794922,4383.589844,4373.205078,4429.102539,4416.794922,4378.461426,4507.563965,4531.922852,4423.205078,4457.436035,1462.000000,0.000000,12.000000,,,,0.000000,2.000000,2.000000,0.000000,2.000000,2.000000,2.000000,1.000000,2.000000,4.000000,4.000000,4.000000,4.000000,2.000000,4.000000,25.000000,,,,,,,,,,,,,,,,,,,,,,,,,,,,
1732081794.433332,1732081794.435177,10.000000,0.000000,4355.000000,4376.922852,4386.666504,4385.384766,4376.666504,4383.974121,4375.384766,4428.974121,4413.589844,4375.512695,4506.153809,4529.615234,4426.282227,4459.871582,1337.000000,0.000000,12.000000,,,,0.000000,2.000000,2.000000,0.000000,2.000000,2.000000,2.000000,1.000000,2.000000,4.000000,4.000000,4.000000,4.000000,2.000000,4.000000,25.000000,,,,,,,,,,,,,,,,,,,,,,,,,,,,
1732081794.441140,1732081794.442985,11.000000,0.000000,4358.461426,4377.692383,4385.641113,4385.512695,4378.974121,4382.051270,4372.948730,4430.897461,4414.230957,4375.256348,4506.538574,4531.794922,4421.666504,4461.538574,1481.000000,0.000000,12.000000,,,,0.000000,2.000000,2.000000,0.000000,2.000000,2.000000,2.000000,1.000000,2.000000,4.000000,4.000000,4.000000,4.000000,2.000000,4.000000,25.000000,,,,,,,,,,,,,,,,,,,,,,,,,,,,
1732081794.448949,1732081794.450893,12.000000,0.000000,4361.538574,4377.179688,4387.563965,4386.794922,4383.333496,4382.436035,4373.205078,4430.256348,4414.615234,4375.128418,4506.538574,4533.589844,4405.384766,4460.000000,1711.000000,0.000000,12.000000,,,,0.000000,2.000000,2.000000,0.000000,2.000000,2.000000,2.000000,1.000000,2.000000,4.000000,4.000000,4.000000,4.000000,2.000000,4.000000,25.000000,,,,,,,,,,,,,,,,,3.000000,0.000000,0.628524,0.401367,-0.593445,0.302795,0.964473,0.139177,-0.022464,-75.121239,64.439896,28.888103
1732081794.456757,1732081794.458701,13.000000,0.000000,4358.461426,4373.333496,4388.077148,4387.436035,4391.538574,4383.846191,4374.743652,4428.077148,4412.820313,4369.743652,4505.512695,4530.512695,4406.282227,4458.589844,1675.000000,0.000000,12.000000,,,,0.000000,2.000000,2.000000,0.000000,2.000000,2.000000,2.000000,1.000000,2.000000,4.000000,4.000000,4.000000,4.000000,2.000000,4.000000,25.000000,,,,,,,,,,,,,,,,,,,,,,,,,,,,
1732081794.464565,1732081794.466709,14.000000,0.000000,4353.589844,4370.384766,4387.051270,4385.512695,4396.282227,4380.256348,4373.333496,4427.563965,4407.820313,4366.410156,4505.000000,4530.128418,4422.179688,4460.641113,1337.000000,0.000000,12.000000,,,,0.000000,2.000000,2.000000,0.000000,2.000000,2.000000,2.000000,1.000000,2.000000,4.000000,4.000000,4.000000,4.000000,2.000000,4.000000,25.000000,1.000000,25.000000,2.000000,2.000000,0.000000,2.000000,2.000000,2.000000,1.000000,2.000000,4.000000,4.000000,4.000000,4.000000,2.000000,4.000000,,,,,,,,,,,,
1732081794.472373,1732081794.474518,15.000000,0.000000,4356.153809,4374.358887,4384.871582,4386.794922,4379.615234,4381.025879,4372.948730,4426.410156,4408.205078,4371.666504,4505.128418,4530.256348,4407.692383,4462.820313,1481.000000,0.000000,12.000000,,,,0.000000,2.000000,2.000000,0.000000,2.000000,2.000000,2.000000,1.000000,2.000000,4.000000,4.000000,4.000000,4.000000,2.000000,4.000000,25.000000,,,,,,,,,,,,,,,,,,,,,,,,,,,,
1732081794.480181,1732081794.482426,16.000000,0.000000,4351.666504,4367.307617,4383.333496,4376.153809,4365.000000,4381.922852,4373.205078,4423.846191,4410.384766,4369.743652,4501.666504,4524.487305,4443.205078,4457.692383,0.000000,0.000000,12.000000,,,,0.000000,2.000000,2.000000,0.000000,2.000000,2.000000,2.000000,1.000000,2.000000,4.000000,4.000000,4.000000,4.000000,2.000000,4.000000,25.000000,,,,,,,,,,,,,,,,,4.000000,0.000000,0.628313,0.401062,-0.593750,0.303040,0.983030,0.135270,-0.025882,-75.224869,64.526314,28.731030
1732081794.487990,1732081794.490234,17.000000,0.000000,4329.871582,4346.153809,4375.256348,4348.589844,4373.077148,4369.871582,4368.333496,4418.717773,4399.615234,4356.922852,4493.717773,4521.666504,4607.436035,4450.000000,0.000000,0.000000,12.000000,,,,0.000000,2.000000,2.000000,0.000000,2.000000,2.000000,2.000000,1.000000,2.000000,4.000000,4.000000,4.000000,4.000000,2.000000,4.000000,25.000000,,,,,,,,,,,,,,,,,,,,,,,,,,,,
1732081794.495798,1732081794.497842,18.000000,0.000000,4318.589844,4337.307617,4368.205078,4333.461426,4369.743652,4361.153809,4365.769043,4414.230957,4392.692383,4353.077148,4491.153809,4524.230957,4732.692383,4447.051270,0.000000,0.000000,12.000000,,,,0.000000,2.000000,2.000000,0.000000,2.000000,2.000000,2.000000,1.000000,2.000000,4.000000,4.000000,4.000000,4.000000,2.000000,4.000000,25.000000,,,,,,,,,,,,,,,,,,,,,,,,,,,,
1732081794.503606,1732081794.505651,19.000000,0.000000,4323.205078,4344.871582,4368.717773,4340.384766,4352.692383,4365.000000,4368.077148,4413.846191,4402.948730,4360.128418,4492.692383,4519.615234,4696.282227,4445.128418,0.000000,0.000000,12.000000,,,,0.000000,2.000000,2.000000,0.000000,2.000000,2.000000,2.000000,1.000000,2.000000,4.000000,4.000000,4.000000,4.000000,2.000000,4.000000,25.000000,,,,,,,,,,,,,,,,,,,,,,,,,,,,
1732081794.511414,1732081794.513359,20.000000,0.000000,4325.384766,4350.000000,4372.307617,4346.410156,4354.487305,4367.307617,4366.666504,4414.871582,4405.128418,4361.153809,4492.820313,4513.205078,4637.692383,4441.025879,0.000000,0.000000,12.000000,,,,0.000000,2.000000,2.000000,0.000000,2.000000,2.000000,2.000000,1.000000,2.000000,4.000000,4.000000,4.000000,4.000000,2.000000,4.000000,25.000000,,,,,,,,,,,,,,,,,5.000000,0.000000,0.628129,0.400940,-0.593933,0.303223,0.967403,0.129899,-0.020022,-75.340477,64.806313,28.813801
1732081794.519223,1732081794.521167,21.000000,0.000000,4326.025879,4349.615234,4372.307617,4345.000000,4362.820313,4365.897461,4365.384766,4417.307617,4400.000000,4359.615234,4490.769043,4513.717773,4635.256348,4438.461426,0.000000,0.000000,12.000000,,,,0.000000,2.000000,2.000000,0.000000,2.000000,2.000000,2.000000,1.000000,2.000000,4.000000,4.000000,4.000000,4.000000,2.000000,4.000000,25.000000,,,,,,,,,,,,,,,,,,,,,,,,,,,,
1732081794.527031,1732081794.528776,22.000000,0.000000,4329.230957,4351.025879,4373.846191,4348.589844,4362.820313,4366.410156,4366.538574,4418.333496,4405.256348,4363.846191,4490.769043,4509.487305,4622.692383,4439.230957,0.000000,0.000000,12.000000,,,,0.000000,2.000000,2.000000,0.000000,2.000000,2.000000,2.000000,1.000000,2.000000,4.000000,4.000000,4.000000,4.000000,2.000000,4.000000,25.000000,,,,,,,,,,,,,,,,,,,,,,,,,,,,
1732081794.534839,1732081794.536584,23.000000,0.000000,4332.179688,4351.666504,4376.153809,4352.948730,4371.153809,4366.153809,4366.922852,4416.153809,4406.794922,4365.128418,4493.461426,4506.282227,4598.846191,4440.769043,0.000000,0.000000,12.000000,,,,0.000000,2.000000,2.000000,0.000000,2.000000,2.000000,2.000000,1.000000,2.000000,4.000000,4.000000,4.000000,4.000000,2.000000,4.000000,25.000000,,,,,,,,,,,,,,,,,,,,,,,,,,,,
1732081794.542647,1732081794.544292,24.000000,0.000000,4337.051270,4355.256348,4376.538574,4353.589844,4376.153809,4365.000000,4365.641113,4413.461426,4398.077148,4360.128418,4492.051270,4509.230957,4584.487305,4443.333496,0.000000,0.000000,12.000000,,,,0.000000,2.000000,2.000000,0.000000,2.000000,2.000000,2.000000,1.000000,2.000000,4.000000,4.000000,4.000000,4.000000,2.000000,4.000000,25.000000,,,,,,,,,,,,,,,,,6.000000,0.000000,0.627849,0.400513,-0.594299,0.303650,0.970822,0.132829,-0.028324,-75.272453,64.846451,28.719179
1732081794.550456,1732081794.552100,25.000000,0.000000,4341.282227,4359.230957,4378.205078,4358.205078,4365.000000,4365.000000,4366.666504,4414.358887,4399.871582,4359.102539,4491.025879,4510.256348,4572.948730,4443.974121,0.000000,0.000000,12.000000,,,,0.000000,2.000000,2.000000,0.000000,2.000000,2.000000,2.000000,1.000000,2.000000,4.000000,4.000000,4.000000,4.000000,2.000000,4.000000,25.000000,,,,,,,,,,,,,,,,,,,,,,,,,,,,
1732081794.558264,1732081794.559709,26.000000,0.000000,4338.205078,4356.282227,4379.487305,4361.794922,4359.871582,4366.282227,4367.820313,4418.461426,4409.615234,4365.641113,4495.641113,4505.769043,4569.871582,4443.846191,0.000000,0.000000,12.000000,,,,0.000000,2.000000,2.000000,0.000000,2.000000,2.000000,2.000000,1.000000,2.000000,4.000000,4.000000,4.000000,4.000000,2.000000,4.000000,25.000000,,,,,,,,,,,,,,,,,,,,,,,,,,,,
1732081794.566072,1732081794.567517,27.000000,0.000000,4336.025879,4356.794922,4379.487305,4359.615234,4365.128418,4369.230957,4369.487305,4417.948730,4408.717773,4367.051270,4497.436035,4505.384766,4563.461426,4444.102539,0.000000,0.000000,12.000000,,,,0.000000,2.000000,2.000000,0.000000,2.000000,2.000000,2.000000,1.000000,2.000000,4.000000,4.000000,4.000000,4.000000,2.000000,4.000000,25.000000,,,,,,,,,,,,,,,,,,,,,,,,,,,,
1732081794.573881,1732081794.575225,28.000000,0.000000,4344.615234,4363.974121,4380.128418,4358.205078,4372.563965,4364.487305,4367.820313,4412.948730,4402.948730,4360.641113,4491.794922,4507.307617,4552.179688,4443.589844,0.000000,0.000000,12.000000,,,,0.000000,2.000000,2.000000,0.000000,2.000000,2.000000,2.000000,1.000000,2.000000,4.000000,4.000000,4.000000,4.000000,2.000000,4.000000,25.000000,,,,,,,,,,,,,,,,,7.000000,0.000000,0.627037,0.399780,-0.595337,0.304260,0.973752,0.138689,-0.028324,-75.267357,64.878960,28.725868
1732081794.581689,1732081794.583033,29.000000,0.000000,4352.051270,4367.563965,4383.333496,4361.153809,4377.436035,4358.589844,4365.897461,4412.307617,4402.692383,4357.692383,4490.000000,4505.897461,4545.384766,4444.871582,0.000000,0.000000,12.000000,,,,0.000000,2.000000,2.000000,0.000000,2.000000,2.000000,2.000000,1.000000,2.000000,4.000000,4.000000,4.000000,4.000000,2.000000,4.000000,25.000000,,,,,,,,,,,,,,,,,,,,,,,,,,,,
1732081794.589497,1732081794.590642,30.000000,0.000000,4348.589844,4362.820313,4382.051270,4361.025879,4366.922852,4365.256348,4366.410156,4414.615234,4403.846191,4360.512695,4498.461426,4508.717773,4541.410156,4444.615234,0.000000,0.000000,12.000000,,,,0.000000,2.000000,2.000000,0.000000,2.000000,2.000000,2.000000,1.000000,2.000000,4.000000,4.000000,4.000000,4.000000,2.000000,4.000000,25.000000,,,,,,,,,,,,,,,,,,,,,,,,,,,,
1732081794.597305,1732081794.598450,31.000000,0.000000,4345.512695,4358.717773,4380.897461,4357.307617,4351.666504,4368.333496,4367.051270,4412.948730,4404.358887,4361.922852,4501.922852,4519.871582,4534.871582,4443.077148,0.000000,0.000000,12.000000,,,,0.000000,2.000000,2.000000,0.000000,2.000000,2.000000,2.000000,1.000000,2.000000,4.000000,4.000000,4.000000,4.000000,2.000000,4.000000,25.000000,,,,,,,,,,,,,,,,,,,,,,,,,,,,
1732081794.605114,1732081794.606158,32.000000,0.000000,4349.358887,4362.563965,4382.563965,4360.256348,4359.358887,4358.589844,4364.102539,4412.436035,4401.666504,4361.025879,4494.615234,4523.461426,4524.871582,4442.179688,0.000000,0.000000,12.000000,,,,0.000000,2.000000,2.000000,0.000000,2.000000,2.000000,2.000000,1.000000,2.000000,4.000000,4.000000,4.000000,4.000000,2.000000,4.000000,25.000000,,,,,,,,,,,,,,,,,8.000000,0.000000,0.626774,0.399780,-0.595520,0.304443,0.979612,0.130875,-0.022952,-75.436562,64.875290,28.509621
1732081794.612922,1732081794.613967,33.000000,0.000000,4350.000000,4366.153809,4382.692383,4363.333496,4363.974121,4356.282227,4364.487305,4414.487305,4397.820313,4360.512695,4490.256348,4515.000000,4519.743652,4442.051270,0.000000,0.000000,12.000000,,,,0.000000,2.000000,2.000000,0.000000,2.000000,2.000000,2.000000,1.000000,2.000000,4.000000,4.000000,4.000000,4.000000,2.000000,4.000000,25.000000,,,,,,,,,,,,,,,,,,,,,,,,,,,,
1732081794.620730,1732081794.621575,34.000000,0.000000,4345.641113,4360.256348,4378.846191,4358.589844,4360.512695,4360.384766,4365.769043,4412.179688,4400.769043,4362.563965,4493.846191,4511.922852,4521.922852,4444.230957,0.000000,0.000000,12.000000,,,,0.000000,2.000000,2.000000,0.000000,2.000000,2.000000,2.000000,1.000000,2.000000,4.000000,4.000000,4.000000,4.000000,2.000000,4.000000,25.000000,,,,,,,,,,,,,,,,,,,,,,,,,,,,
1732081794.628538,1732081794.629383,35.000000,0.000000,4344.487305,4354.615234,4380.128418,4355.000000,4371.666504,4356.666504,4363.589844,4411.538574,4405.512695,4364.871582,4494.743652,4516.794922,4519.358887,4446.025879,0.000000,0.000000,12.000000,,,,0.000000,2.000000,2.000000,0.000000,2.000000,2.000000,2.000000,1.000000,2.000000,4.000000,4.000000,4.000000,4.000000,2.000000,4.000000,25.000000,,,,,,,,,,,,,,,,,,,,,,,,,,,,
1732081794.636346,1732081794.637091,36.000000,0.000000,4347.563965,4359.743652,4383.333496,4356.794922,4365.512695,4359.487305,4363.974121,4413.717773,4404.230957,4362.307617,4493.589844,4514.230957,4509.871582,4446.282227,0.000000,0.000000,12.000000,,,,0.000000,2.000000,2.000000,0.000000,2.000000,2.000000,2.000000,1.000000,2.000000,4.000000,4.000000,4.000000,4.000000,2.000000,4.000000,25.000000,,,,,,,,,,,,,,,,,9.000000,0.000000,0.626482,0.399597,-0.595825,0.304688,0.972287,0.117202,-0.031742,-75.430275,64.870651,28.487793
1732081794.644155,1732081794.644900,37.000000,0.000000,4346.794922,4361.794922,4381.538574,4358.205078,4352.051270,4368.077148,4366.025879,4413.333496,4404.358887,4359.358887,4495.000000,4505.897461,4505.641113,4444.743652,0.000000,0.000000,12.000000,,,,0.000000,2.000000,2.000000,0.000000,2.000000,2.000000,2.000000,1.000000,2.000000,4.000000,4.000000,4.000000,4.000000,2.000000,4.000000,25.000000,,,,,,,,,,,,,,,,,,,,,,,,,,,,
1732081794.651963,1732081794.652508,38.000000,0.000000,4341.794922,4359.230957,4378.717773,4354.871582,4366.410156,4363.077148,4363.333496,4411.025879,4402.820313,4361.666504,4493.077148,4503.205078,4504.487305,4440.256348,0.000000,0.000000,12.000000,,,,0.000000,2.000000,2.000000,0.000000,2.000000,2.000000,2.000000,1.000000,2.000000,4.000000,4.000000,4.000000,4.000000,2.000000,4.000000,25.000000,,,,,,,,,,,,,,,,,,,,,,,,,,,,
1732081794.659771,1732081794.660316,39.000000,0.000000,4344.358887,4362.179688,4378.717773,4352.436035,4370.769043,4355.512695,4359.487305,4408.846191,4397.692383,4364.102539,4490.000000,4505.512695,4499.615234,4437.692383,0.000000,0.000000,12.000000,,,,0.000000,2.000000,2.000000,0.000000,2.000000,2.000000,2.000000,1.000000,2.000000,4.000000,4.000000,4.000000,4.000000,2.000000,4.000000,25.000000,,,,,,,,,,,,,,,,,,,,,,,,,,,,
1732081794.667580,1732081794.668025,40.000000,0.000000,4350.512695,4364.358887,4381.666504,4355.384766,4356.538574,4360.512695,4361.153809,4409.487305,4397.179688,4360.897461,4492.563965,4506.410156,4492.179688,4442.692383,0.000000,0.000000,12.000000,,,,0.000000,2.000000,2.000000,0.000000,2.000000,2.000000,2.000000,1.000000,2.000000,4.000000,4.000000,4.000000,4.000000,2.000000,4.000000,25.000000,,,,,,,,,,,,,,,,,10.000000,0.000000,0.626001,0.400024,-0.595825,0.305115,0.966915,0.136735,-0.034184,-75.580193,64.605225,28.248446
1732081794.675388,1732081794.675833,41.000000,0.000000,4348.846191,4362.948730,4382.436035,4358.589844,4359.230957,4362.820313,4362.179688,4412.948730,4400.769043,4360.000000,4495.512695,4508.717773,4488.717773,4447.051270,0.000000,0.000000,12.000000,,,,0.000000,2.000000,2.000000,0.000000,2.000000,2.000000,2.000000,1.000000,2.000000,4.000000,4.000000,4.000000,4.000000,2.000000,4.000000,25.000000,,,,,,,,,,,,,,,,,,,,,,,,,,,,
1732081794.683196,1732081794.683441,42.000000,0.000000,4344.230957,4364.487305,4378.205078,4355.512695,4361.666504,4359.230957,4362.307617,4413.717773,4400.256348,4363.846191,4497.692383,4512.820313,4492.692383,4442.820313,0.000000,0.000000,12.000000,,,,0.000000,2.000000,2.000000,0.000000,2.000000,2.000000,2.000000,1.000000,2.000000,4.000000,4.000000,4.000000,4.000000,2.000000,4.000000,25.000000,,,,,,,,,,,,,,,,,,,,,,,,,,,,
1732081794.691004,1732081794.691249,43.000000,0.000000,4342.179688,4364.487305,4375.128418,4348.974121,4357.948730,4360.641113,4361.794922,4412.179688,4401.153809,4366.025879,4499.743652,4513.461426,4490.128418,4440.897461,0.000000,0.000000,12.000000,,,,0.000000,2.000000,2.000000,0.000000,2.000000,2.000000,2.000000,1.000000,2.000000,4.000000,4.000000,4.000000,4.000000,2.000000,4.000000,25.000000,,,,,,,,,,,,,,,,,,,,,,,,,,,,
1732081794.698813,1732081794.699158,44.000000,0.000000,4341.410156,4360.256348,4378.717773,4352.563965,4366.025879,4359.230957,4360.512695,4413.589844,4400.384766,4362.692383,4497.051270,4512.436035,4478.077148,4445.256348,0.000000,0.000000,12.000000,,,,0.000000,2.000000,2.000000,0.000000,2.000000,2.000000,2.000000,1.000000,2.000000,4.000000,4.000000,4.000000,4.000000,2.000000,4.000000,25.000000,,,,,,,,,,,,,,,,,11.000000,0.000000,0.625914,0.400208,-0.595825,0.305054,0.969845,0.119644,-0.037114,-75.618286,64.340233,28.004574
1732081794.706621,1732081794.706966,45.000000,0.000000,4347.307617,4362.948730,4382.948730,4360.256348,4357.948730,4355.000000,4358.974121,4412.820313,4395.384766,4357.692383,4492.179688,4509.615234,4473.974121,4447.179688,0.000000,0.000000,12.000000,,,,0.000000,2.000000,2.000000,0.000000,2.000000,2.000000,2.000000,1.000000,2.000000,4.000000,4.000000,4.000000,4.000000,2.000000,4.000000,25.000000,,,,,,,,,,,,,,,,,,,,,,,,,,,,
1732081794.714429,1732081794.714974,46.000000,0.000000,4356.153809,4368.717773,4384.358887,4361.794922,4344.102539,4359.358887,4362.563965,4406.538574,4394.487305,4356.666504,4492.820313,4507.820313,4475.000000,4445.641113,0.000000,0.000000,12.000000,,,,0.000000,2.000000,2.000000,0.000000,2.000000,2.000000,2.000000,1.000000,2.000000,4.000000,4.000000,4.000000,4.000000,2.000000,4.000000,25.000000,,,,,,,,,,,,,,,,,,,,,,,,,,,,
1732081794.722237,1732081794.722782,47.000000,0.000000,4356.794922,4366.666504,4381.410156,4360.384766,4359.743652,4361.025879,4360.897461,4402.307617,4395.256348,4355.128418,4493.461426,4508.589844,4468.461426,4445.000000,0.000000,0.000000,12.000000,,,,0.000000,2.000000,2.000000,0.000000,2.000000,2.000000,2.000000,1.000000,2.000000,4.000000,4.000000,4.000000,4.000000,2.000000,4.000000,25.000000,,,,,,,,,,,,,,,,,,,,,,,,,,,,
1732081794.730046,1732081794.730490,48.000000,0.000000,4353.974121,4361.538574,4381.410156,4360.641113,4365.512695,4354.230957,4356.666504,4403.205078,4395.384766,4353.205078,4489.615234,4506.794922,4460.512695,4445.769043,0.000000,0.000000,12.000000,,,,0.000000,2.000000,2.000000,0.000000,2.000000,2.000000,2.000000,1.000000,2.000000,4.000000,4.000000,4.000000,4.000000,2.000000,4.000000,25.000000,,,,,,,,,,,,,,,,,12.000000,0.000000,0.625855,0.400391,-0.595764,0.305054,0.969845,0.119644,-0.037114,-75.754150,64.243919,27.750372
1732081794.737854,1732081794.738298,49.000000,0.000000,4355.000000,4363.717773,4383.333496,4362.692383,4344.102539,4357.051270,4358.846191,4405.769043,4396.282227,4356.153809,4490.256348,4505.128418,4458.974121,4445.384766,0.000000,0.000000,12.000000,,,,0.000000,2.000000,2.000000,0.000000,2.000000,2.000000,2.000000,1.000000,2.000000,4.000000,4.000000,4.000000,4.000000,2.000000,4.000000,25.000000,,,,,,,,,,,,,,,,,,,,,,,,,,,,
1732081794.745662,1732081794.745907,50.000000,0.000000,4353.846191,4364.615234,4383.461426,4359.871582,4341.025879,4363.461426,4362.563965,4404.102539,4395.641113,4358.589844,4493.974121,4506.538574,4460.384766,4446.410156,0.000000,0.000000,12.000000,,,,0.000000,2.000000,2.000000,0.000000,2.000000,2.000000,2.000000,1.000000,2.000000,4.000000,4.000000,4.000000,4.000000,2.000000,4.000000,25.000000,,,,,,,,,,,,,,,,,,,,,,,,,,,,
1732081794.753470,1732081794.753715,51.000000,0.000000,4348.846191,4360.641113,4380.512695,4356.666504,4364.743652,4357.563965,4359.358887,4400.128418,4394.871582,4354.871582,4491.666504,4506.538574,4456.282227,4446.282227,0.000000,0.000000,12.000000,,,,0.000000,2.000000,2.000000,0.000000,2.000000,2.000000,2.000000,1.000000,2.000000,4.000000,4.000000,4.000000,4.000000,2.000000,4.000000,25.000000,,,,,,,,,,,,,,,,,,,,,,,,,,,,
1732081794.761279,1732081794.761623,52.000000,0.000000,4347.307617,4363.461426,4381.794922,4360.512695,4367.436035,4356.153809,4357.948730,4401.282227,4394.615234,4349.871582,4490.256348,4512.307617,4448.205078,4443.846191,0.000000,0.000000,12.000000,,,,0.000000,2.000000,2.000000,0.000000,2.000000,2.000000,2.000000,1.000000,2.000000,4.000000,4.000000,4.000000,4.000000,2.000000,4.000000,25.000000,,,,,,,,,,,,,,,,,13.000000,0.000000,0.625447,0.401611,-0.595215,0.305359,0.973752,0.121597,-0.037602,-75.659195,64.350914,27.751135
1732081794.769087,1732081794.769431,53.000000,0.000000,4349.743652,4364.743652,4382.820313,4363.077148,4346.538574,4361.922852,4361.794922,4404.487305,4394.615234,4353.461426,4491.410156,4519.487305,4446.410156,4445.769043,0.000000,0.000000,12.000000,,,,0.000000,2.000000,2.000000,0.000000,2.000000,2.000000,2.000000,1.000000,2.000000,4.000000,4.000000,4.000000,4.000000,2.000000,4.000000,25.000000,,,,,,,,,,,,,,,,,,,,,,,,,,,,
1732081794.776895,1732081794.777439,54.000000,0.000000,4342.307617,4355.384766,4381.410156,4354.871582,4341.794922,4360.641113,4360.000000,4403.461426,4393.846191,4358.333496,4490.128418,4512.820313,4447.436035,4442.692383,0.000000,0.000000,12.000000,,,,0.000000,2.000000,2.000000,0.000000,2.000000,2.000000,2.000000,1.000000,2.000000,4.000000,4.000000,4.000000,4.000000,2.000000,4.000000,25.000000,,,,,,,,,,,,,,,,,,,,,,,,,,,,
1732081794.784703,1732081794.785248,55.000000,0.000000,4333.974121,4353.589844,4378.846191,4348.846191,4351.666504,4360.512695,4356.538574,4401.410156,4395.256348,4359.358887,4490.769043,4506.922852,4445.128418,4436.153809,0.000000,0.000000,12.000000,,,,0.000000,2.000000,2.000000,0.000000,2.000000,2.000000,2.000000,1.000000,2.000000,4.000000,4.000000,4.000000,4.000000,2.000000,4.000000,25.000000,,,,,,,,,,,,,,,,,,,,,,,,,,,,
1732081794.792512,1732081794.793156,56.000000,0.000000,4336.153809,4360.256348,4376.410156,4351.538574,4359.615234,4362.051270,4357.179688,4401.410156,4393.461426,4358.589844,4489.358887,4510.897461,4444.487305,4438.205078,0.000000,0.000000,12.000000,,,,0.000000,2.000000,2.000000,0.000000,2.000000,2.000000,2.000000,1.000000,2.000000,4.000000,4.000000,4.000000,4.000000,2.000000,4.000000,25.000000,,,,,,,,,,,,,,,,,14.000000,0.000000,0.625318,0.402039,-0.595093,0.305298,0.963497,0.137224,-0.033696,-75.597282,64.430901,27.850086
1732081794.800320,1732081794.800964,57.000000,0.000000,4336.666504,4356.666504,4377.436035,4350.512695,4356.282227,4358.461426,4361.538574,4400.384766,4390.897461,4356.410156,4482.436035,4510.384766,4444.230957,4442.051270,0.000000,0.000000,12.000000,,,,0.000000,2.000000,2.000000,0.000000,2.000000,2.000000,2.000000,1.000000,2.000000,4.000000,4.000000,4.000000,4.000000,2.000000,4.000000,25.000000,,,,,,,,,,,,,,,,,,,,,,,,,,,,
