title:six3, start timestamp:1732083383.907768, stop timestamp:1732083434.411623, headset type:EPOCX, headset serial:E5020C3A, headset firmware:730, channels:67, sampling rate:eeg_128;mot_32, samples:6469      , version:2.2, 
Timestamp,OriginalTimestamp,EEG.Counter,EEG.Interpolated,EEG.AF3,EEG.F7,EEG.F3,EEG.FC5,EEG.T7,EEG.P7,EEG.O1,EEG.O2,EEG.P8,EEG.T8,EEG.FC6,EEG.F4,EEG.F8,EEG.AF4,EEG.RawCq,EEG.Battery,EEG.BatteryPercent,MarkerIndex,MarkerType,MarkerValueInt,EEG.MarkerHardware,CQ.AF3,CQ.F7,CQ.F3,CQ.FC5,CQ.T7,CQ.P7,CQ.O1,CQ.O2,CQ.P8,CQ.T8,CQ.FC6,CQ.F4,CQ.F8,CQ.AF4,CQ.Overall,EQ.SampleRateQuality,EQ.OVERALL,EQ.AF3,EQ.F7,EQ.F3,EQ.FC5,EQ.T7,EQ.P7,EQ.O1,EQ.O2,EQ.P8,EQ.T8,EQ.FC6,EQ.F4,EQ.F8,EQ.AF4,MOT.CounterMems,MOT.InterpolatedMems,MOT.Q0,MOT.Q1,MOT.Q2,MOT.Q3,MOT.AccX,MOT.AccY,MOT.AccZ,MOT.MagX,MOT.MagY,MOT.MagZ
1732083383.907768,1732083383.908821,53.000000,0.000000,4341.410156,4320.897461,4318.846191,4329.230957,4297.179688,4287.563965,4323.846191,4319.615234,4315.000000,4311.282227,4467.563965,4481.153809,4354.102539,4420.897461,0.000000,0.000000,6.000000,,,,0.000000,2.000000,2.000000,0.000000,2.000000,2.000000,2.000000,0.000000,2.000000,4.000000,4.000000,4.000000,4.000000,2.000000,4.000000,16.666666,,,,,,,,,,,,,,,,,,,,,,,,,,,,
1732083383.915576,1732083383.916430,54.000000,0.000000,4344.358887,4323.717773,4321.538574,4331.922852,4277.051270,4294.615234,4328.717773,4326.153809,4318.717773,4310.769043,4468.077148,4482.948730,4358.333496,4424.743652,0.000000,0.000000,6.000000,,,,0.000000,2.000000,2.000000,0.000000,2.000000,2.000000,2.000000,0.000000,2.000000,4.000000,4.000000,4.000000,4.000000,2.000000,4.000000,16.666666,,,,,,,,,,,,,,,,,,,,,,,,,,,,
1732083383.923385,1732083383.924238,55.000000,0.000000,4340.256348,4320.256348,4318.461426,4328.077148,4281.666504,4296.410156,4331.794922,4325.512695,4315.641113,4308.205078,4468.205078,4482.820313,4359.871582,4420.897461,0.000000,0.000000,6.000000,,,,0.000000,2.000000,2.000000,0.000000,2.000000,2.000000,2.000000,0.000000,2.000000,4.000000,4.000000,4.000000,4.000000,2.000000,4.000000,16.666666,,,,,,,,,,,,,,,,,,,,,,,,,,,,
1732083383.931193,1732083383.931946,56.000000,0.000000,4337.692383,4314.743652,4318.461426,4322.179688,4295.897461,4292.179688,4330.128418,4320.000000,4311.538574,4308.205078,4465.641113,4482.051270,4356.410156,4417.436035,0.000000,0.000000,6.000000,,,,0.000000,2.000000,2.000000,0.000000,2.000000,2.000000,2.000000,0.000000,2.000000,4.000000,4.000000,4.000000,4.000000,2.000000,4.000000,16.666666,,,,,,,,,,,,,,,,,14.000000,0.000000,0.638930,0.394531,-0.584656,0.307068,0.987425,0.102552,0.019045,-73.561775,64.407883,32.082066
1732083383.939001,1732083383.939755,57.000000,0.000000,4340.512695,4317.179688,4321.538574,4323.717773,4288.589844,4291.410156,4328.461426,4322.179688,4315.000000,4304.615234,4465.000000,4484.871582,4356.410156,4421.666504,0.000000,0.000000,6.000000,,,,0.000000,2.000000,2.000000,0.000000,2.000000,2.000000,2.000000,0.000000,2.000000,4.000000,4.000000,4.000000,4.000000,2.000000,4.000000,16.666666,,,,,,,,,,,,,,,,,,,,,,,,,,,,
1732083383.946809,1732083383.947363,58.000000,0.000000,4340.000000,4322.051270,4322.436035,4325.769043,4285.384766,4294.871582,4332.948730,4323.846191,4315.256348,4301.282227,4465.512695,4485.897461,4360.897461,4423.077148,0.000000,0.000000,6.000000,,,,0.000000,2.000000,2.000000,0.000000,2.000000,2.000000,2.000000,0.000000,2.000000,4.000000,4.000000,4.000000,4.000000,2.000000,4.000000,16.666666,,,,,,,,,,,,,,,,,,,,,,,,,,,,
1732083383.954618,1732083383.955171,59.000000,0.000000,4336.025879,4315.769043,4319.871582,4322.179688,4293.461426,4295.897461,4332.307617,4321.410156,4312.820313,4299.358887,4462.563965,4481.410156,4360.641113,4420.256348,0.000000,0.000000,6.000000,,,,0.000000,2.000000,2.000000,0.000000,2.000000,2.000000,2.000000,0.000000,2.000000,4.000000,4.000000,4.000000,4.000000,2.000000,4.000000,16.666666,,,,,,,,,,,,,,,,,,,,,,,,,,,,
1732083383.962426,1732083383.963079,60.000000,0.000000,4334.358887,4310.000000,4320.897461,4319.743652,4292.948730,4294.487305,4326.538574,4321.025879,4315.384766,4300.641113,4462.948730,4482.436035,4356.538574,4421.410156,0.000000,0.000000,6.000000,,,,0.000000,2.000000,2.000000,0.000000,2.000000,2.000000,2.000000,0.000000,2.000000,4.000000,4.000000,4.000000,4.000000,2.000000,4.000000,16.666666,,,,,,,,,,,,,,,,,15.000000,0.000000,0.635340,0.394470,-0.587219,0.309692,0.975705,0.126480,0.019534,-73.696709,64.133720,31.718140
1732083383.970234,1732083383.970887,61.000000,0.000000,4331.025879,4314.102539,4321.410156,4320.769043,4290.256348,4293.717773,4326.410156,4322.051270,4313.589844,4302.051270,4462.820313,4487.179688,4356.153809,4420.897461,0.000000,0.000000,6.000000,,,,0.000000,2.000000,2.000000,0.000000,2.000000,2.000000,2.000000,0.000000,2.000000,4.000000,4.000000,4.000000,4.000000,2.000000,4.000000,16.666666,,,,,,,,,,,,,,,,,,,,,,,,,,,,
1732083383.978042,1732083383.978895,62.000000,0.000000,4327.307617,4312.179688,4318.333496,4320.000000,4291.794922,4298.717773,4329.743652,4325.641113,4310.769043,4298.589844,4460.256348,4483.333496,4352.179688,4416.282227,0.000000,0.000000,6.000000,,,,0.000000,2.000000,2.000000,0.000000,2.000000,2.000000,2.000000,0.000000,2.000000,4.000000,4.000000,4.000000,4.000000,2.000000,4.000000,16.666666,,,,,,,,,,,,,,,,,,,,,,,,,,,,
1732083383.985851,1732083383.986704,63.000000,0.000000,4326.282227,4302.692383,4317.820313,4317.051270,4293.846191,4302.948730,4331.538574,4330.897461,4315.897461,4297.692383,4459.743652,4479.871582,4345.512695,4410.897461,0.000000,0.000000,6.000000,,,,0.000000,2.000000,2.000000,0.000000,2.000000,2.000000,2.000000,0.000000,2.000000,4.000000,4.000000,4.000000,4.000000,2.000000,4.000000,16.666666,,,,,,,,,,,,,,,,,,,,,,,,,,,,
1732083383.993659,1732083383.994612,64.000000,0.000000,4326.538574,4304.487305,4318.589844,4319.230957,4293.461426,4299.230957,4329.743652,4330.384766,4319.743652,4305.897461,4463.846191,4483.077148,4348.205078,4411.410156,0.000000,0.000000,6.000000,,,,0.000000,2.000000,2.000000,0.000000,2.000000,2.000000,2.000000,0.000000,2.000000,4.000000,4.000000,4.000000,4.000000,2.000000,4.000000,16.666666,,,,,,,,,,,,,,,,,16.000000,0.000000,0.635340,0.394470,-0.587219,0.309692,0.955683,0.140642,-0.003907,-73.971001,63.836647,31.498360
1732083384.001467,1732083384.002420,65.000000,0.000000,4330.769043,4315.000000,4319.743652,4322.307617,4291.794922,4293.717773,4328.077148,4323.846191,4315.000000,4306.025879,4462.948730,4483.974121,4355.000000,4417.307617,1317.000000,0.000000,6.000000,,,,0.000000,2.000000,2.000000,0.000000,2.000000,2.000000,2.000000,0.000000,2.000000,4.000000,4.000000,4.000000,4.000000,2.000000,4.000000,16.666666,,,,,,,,,,,,,,,,,,,,,,,,,,,,
1732083384.009276,1732083384.010428,66.000000,0.000000,4333.846191,4317.051270,4316.922852,4320.384766,4291.410156,4293.205078,4325.512695,4319.230957,4308.717773,4293.974121,4456.666504,4478.077148,4353.205078,4416.282227,1244.000000,0.000000,6.000000,,,,0.000000,2.000000,2.000000,0.000000,2.000000,2.000000,2.000000,0.000000,2.000000,4.000000,4.000000,4.000000,4.000000,2.000000,4.000000,16.666666,,,,,,,,,,,,,,,,,,,,,,,,,,,,
1732083384.017084,1732083384.018236,67.000000,0.000000,4331.666504,4314.102539,4319.743652,4319.871582,4290.384766,4294.358887,4328.846191,4317.692383,4307.179688,4294.230957,4457.820313,4477.051270,4353.461426,4415.256348,1192.000000,0.000000,6.000000,,,,0.000000,2.000000,2.000000,0.000000,2.000000,2.000000,2.000000,0.000000,2.000000,4.000000,4.000000,4.000000,4.000000,2.000000,4.000000,16.666666,,,,,,,,,,,,,,,,,,,,,,,,,,,,
1732083384.024892,1732083384.025945,68.000000,0.000000,4331.666504,4315.384766,4320.000000,4320.384766,4289.230957,4295.384766,4329.358887,4321.922852,4311.410156,4306.922852,4461.410156,4480.769043,4359.615234,4421.666504,1202.000000,0.000000,6.000000,,,,0.000000,2.000000,2.000000,0.000000,2.000000,2.000000,2.000000,0.000000,2.000000,4.000000,4.000000,4.000000,4.000000,2.000000,4.000000,16.666666,,,,,,,,,,,,,,,,,17.000000,0.000000,0.632539,0.395813,-0.589111,0.310120,0.932731,0.213405,-0.047857,-74.324844,63.582684,31.213671
1732083384.032700,1732083384.033753,69.000000,0.000000,4329.102539,4313.205078,4316.666504,4315.000000,4286.922852,4298.717773,4328.077148,4327.436035,4313.205078,4305.128418,4458.333496,4480.512695,4353.333496,4417.307617,1080.000000,0.000000,6.000000,,,,0.000000,2.000000,2.000000,0.000000,2.000000,2.000000,2.000000,0.000000,2.000000,4.000000,4.000000,4.000000,4.000000,2.000000,4.000000,16.666666,,,,,,,,,,,,,,,,,,,,,,,,,,,,
1732083384.040509,1732083384.041361,70.000000,0.000000,4323.205078,4310.000000,4313.205078,4313.461426,4286.410156,4298.589844,4328.077148,4328.077148,4310.769043,4297.179688,4459.615234,4479.358887,4348.333496,4412.563965,5.000000,0.000000,6.000000,,,,0.000000,2.000000,2.000000,0.000000,2.000000,2.000000,2.000000,0.000000,2.000000,4.000000,4.000000,4.000000,4.000000,2.000000,4.000000,16.666666,,,,,,,,,,,,,,,,,,,,,,,,,,,,
1732083384.048317,1732083384.049169,71.000000,0.000000,4326.538574,4312.692383,4319.230957,4318.077148,4284.358887,4293.974121,4331.538574,4324.871582,4311.794922,4303.333496,4466.794922,4482.436035,4359.743652,4424.871582,1177.000000,0.000000,6.000000,,,,0.000000,2.000000,2.000000,0.000000,2.000000,2.000000,2.000000,0.000000,2.000000,4.000000,4.000000,4.000000,4.000000,2.000000,4.000000,16.666666,,,,,,,,,,,,,,,,,,,,,,,,,,,,
1732083384.056125,1732083384.057077,72.000000,0.000000,4331.153809,4312.948730,4322.563965,4319.871582,4281.922852,4294.743652,4330.256348,4324.358887,4315.000000,4308.846191,4464.358887,4484.615234,4365.641113,4429.487305,1372.000000,0.000000,6.000000,,,,0.000000,2.000000,2.000000,0.000000,2.000000,2.000000,2.000000,0.000000,2.000000,4.000000,4.000000,4.000000,4.000000,2.000000,4.000000,16.666666,,,,,,,,,,,,,,,,,18.000000,0.000000,0.629096,0.402710,-0.588989,0.308472,0.963008,0.186058,-0.057624,-74.199791,63.288639,30.766407
1732083384.063933,1732083384.064886,73.000000,0.000000,4324.615234,4308.333496,4322.179688,4317.820313,4281.922852,4300.512695,4331.538574,4325.512695,4315.000000,4301.922852,4459.102539,4482.051270,4352.948730,4416.538574,1516.000000,0.000000,6.000000,,,,0.000000,2.000000,2.000000,0.000000,2.000000,2.000000,2.000000,0.000000,2.000000,4.000000,4.000000,4.000000,4.000000,2.000000,4.000000,16.666666,,,,,,,,,,,,,,,,,,,,,,,,,,,,
1732083384.071742,1732083384.072894,74.000000,0.000000,4322.436035,4308.846191,4320.256348,4318.589844,4281.153809,4298.846191,4334.743652,4325.897461,4314.615234,4300.128418,4461.922852,4479.487305,4344.615234,4411.538574,1384.000000,0.000000,6.000000,,,,0.000000,2.000000,2.000000,0.000000,2.000000,2.000000,2.000000,0.000000,2.000000,4.000000,4.000000,4.000000,4.000000,2.000000,4.000000,16.666666,,,,,,,,,,,,,,,,,,,,,,,,,,,,
1732083384.079550,1732083384.080702,75.000000,0.000000,4323.589844,4306.538574,4320.769043,4316.794922,4278.589844,4297.436035,4336.538574,4329.487305,4315.256348,4304.230957,4456.538574,4474.358887,4347.307617,4413.846191,1521.000000,0.000000,6.000000,,,,0.000000,2.000000,2.000000,0.000000,2.000000,2.000000,2.000000,0.000000,2.000000,4.000000,4.000000,4.000000,4.000000,2.000000,4.000000,16.666666,,,,,,,,,,,,,,,,,,,,,,,,,,,,
1732083384.087358,1732083384.088610,76.000000,0.000000,4318.333496,4301.025879,4323.846191,4310.641113,4278.589844,4307.179688,4335.769043,4331.922852,4312.948730,4298.717773,4446.666504,4469.230957,4345.128418,4410.000000,1746.000000,0.000000,6.000000,,,,0.000000,2.000000,2.000000,0.000000,2.000000,2.000000,2.000000,0.000000,2.000000,4.000000,4.000000,4.000000,4.000000,2.000000,4.000000,16.666666,,,,,,,,,,,,,,,,,19.000000,0.000000,0.626996,0.405334,-0.589172,0.308960,0.970333,0.135759,-0.042974,-73.980164,62.968800,30.494123
1732083384.095167,1732083384.096418,77.000000,0.000000,4317.436035,4305.128418,4325.512695,4311.794922,4283.077148,4308.205078,4335.128418,4326.538574,4308.589844,4293.461426,4450.384766,4474.871582,4346.410156,4412.179688,1588.000000,0.000000,6.000000,,,,0.000000,2.000000,2.000000,0.000000,2.000000,2.000000,2.000000,0.000000,2.000000,4.000000,4.000000,4.000000,4.000000,2.000000,4.000000,16.666666,,,,,,,,,,,,,,,,,,,,,,,,,,,,
1732083384.102975,1732083384.104426,78.000000,0.000000,4322.692383,4309.743652,4327.948730,4316.922852,4282.948730,4297.563965,4336.666504,4322.307617,4304.230957,4298.974121,4456.025879,4484.102539,4350.641113,4418.205078,1384.000000,0.000000,6.000000,,,,0.000000,2.000000,2.000000,0.000000,2.000000,2.000000,2.000000,0.000000,2.000000,4.000000,4.000000,4.000000,4.000000,2.000000,4.000000,16.666666,1.000000,16.666666,2.000000,2.000000,0.000000,2.000000,2.000000,2.000000,0.000000,2.000000,3.000000,4.000000,4.000000,4.000000,2.000000,4.000000,,,,,,,,,,,,
1732083384.110783,1732083384.112234,79.000000,0.000000,4324.743652,4305.641113,4326.794922,4317.436035,4279.743652,4296.538574,4333.717773,4321.922852,4302.563965,4301.666504,4454.871582,4482.692383,4350.897461,4415.897461,1521.000000,0.000000,6.000000,,,,0.000000,2.000000,2.000000,0.000000,2.000000,2.000000,2.000000,0.000000,2.000000,4.000000,4.000000,4.000000,4.000000,2.000000,4.000000,16.666666,,,,,,,,,,,,,,,,,,,,,,,,,,,,
1732083384.118591,1732083384.120143,80.000000,0.000000,4325.256348,4303.717773,4325.384766,4317.436035,4282.948730,4298.077148,4331.153809,4320.256348,4307.051270,4304.871582,4457.051270,4481.922852,4354.487305,4416.410156,1746.000000,0.000000,6.000000,,,,0.000000,2.000000,2.000000,0.000000,2.000000,2.000000,2.000000,0.000000,2.000000,4.000000,4.000000,4.000000,4.000000,2.000000,4.000000,16.666666,,,,,,,,,,,,,,,,,20.000000,0.000000,0.626076,0.405212,-0.589722,0.309937,0.970333,0.135759,-0.042974,-74.110596,62.689728,30.020239
1732083384.126400,1732083384.127951,81.000000,0.000000,4327.051270,4305.769043,4317.692383,4318.717773,4288.846191,4292.820313,4330.512695,4320.256348,4311.922852,4307.948730,4458.846191,4486.794922,4358.077148,4423.077148,1588.000000,0.000000,6.000000,,,,0.000000,2.000000,2.000000,0.000000,2.000000,2.000000,2.000000,0.000000,2.000000,4.000000,4.000000,4.000000,4.000000,2.000000,4.000000,16.666666,,,,,,,,,,,,,,,,,,,,,,,,,,,,
1732083384.134208,1732083384.135959,82.000000,0.000000,4323.974121,4300.897461,4318.717773,4314.102539,4288.333496,4294.230957,4334.102539,4326.794922,4310.897461,4295.000000,4451.025879,4485.128418,4348.333496,4417.179688,1384.000000,0.000000,6.000000,,,,0.000000,2.000000,2.000000,0.000000,2.000000,2.000000,2.000000,0.000000,2.000000,4.000000,4.000000,4.000000,4.000000,2.000000,4.000000,16.666666,,,,,,,,,,,,,,,,,,,,,,,,,,,,
1732083384.142016,1732083384.143767,83.000000,0.000000,4321.153809,4294.487305,4320.897461,4309.615234,4286.282227,4300.128418,4333.589844,4330.641113,4309.743652,4287.692383,4444.487305,4478.717773,4337.051270,4407.436035,1521.000000,0.000000,6.000000,,,,0.000000,2.000000,2.000000,0.000000,2.000000,2.000000,2.000000,0.000000,2.000000,4.000000,4.000000,4.000000,4.000000,2.000000,4.000000,16.666666,,,,,,,,,,,,,,,,,,,,,,,,,,,,
1732083384.149824,1732083384.151675,84.000000,0.000000,4320.512695,4295.256348,4320.128418,4309.487305,4286.153809,4298.717773,4333.717773,4330.641113,4312.051270,4298.717773,4445.769043,4480.000000,4340.769043,4413.461426,1746.000000,0.000000,6.000000,,,,0.000000,2.000000,2.000000,0.000000,2.000000,2.000000,2.000000,0.000000,2.000000,4.000000,4.000000,4.000000,4.000000,2.000000,4.000000,16.666666,,,,,,,,,,,,,,,,,21.000000,0.000000,0.625162,0.404663,-0.590393,0.311218,0.969357,0.119644,-0.028324,-74.192917,62.973679,29.829727
1732083384.157633,1732083384.159483,85.000000,0.000000,4320.897461,4298.205078,4314.358887,4312.563965,4285.641113,4298.717773,4332.820313,4327.051270,4311.153809,4302.051270,4446.794922,4477.436035,4344.871582,4417.179688,1588.000000,0.000000,6.000000,,,,0.000000,2.000000,2.000000,0.000000,2.000000,2.000000,2.000000,0.000000,2.000000,4.000000,4.000000,4.000000,4.000000,2.000000,4.000000,16.666666,,,,,,,,,,,,,,,,,,,,,,,,,,,,
1732083384.165441,1732083384.167491,86.000000,0.000000,4321.410156,4300.000000,4314.743652,4317.179688,4285.897461,4300.641113,4330.769043,4321.025879,4307.692383,4302.436035,4449.102539,4471.153809,4347.179688,4412.820313,1384.000000,0.000000,6.000000,,,,0.000000,2.000000,2.000000,0.000000,2.000000,2.000000,2.000000,0.000000,2.000000,4.000000,4.000000,4.000000,4.000000,2.000000,4.000000,16.666666,,,,,,,,,,,,,,,,,,,,,,,,,,,,
1732083384.173249,1732083384.175299,87.000000,0.000000,4325.512695,4303.205078,4312.948730,4319.358887,4288.717773,4297.179688,4325.256348,4320.000000,4310.384766,4313.846191,4456.153809,4473.589844,4356.025879,4421.025879,1521.000000,0.000000,6.000000,,,,0.000000,2.000000,2.000000,0.000000,2.000000,2.000000,2.000000,0.000000,2.000000,4.000000,4.000000,4.000000,4.000000,2.000000,4.000000,16.666666,,,,,,,,,,,,,,,,,,,,,,,,,,,,
1732083384.181057,1732083384.183208,88.000000,0.000000,4335.641113,4305.512695,4306.922852,4318.974121,4287.307617,4292.307617,4322.307617,4321.538574,4310.897461,4311.666504,4456.666504,4479.743652,4360.128418,4430.000000,1746.000000,0.000000,6.000000,,,,0.000000,2.000000,2.000000,0.000000,2.000000,2.000000,2.000000,0.000000,2.000000,4.000000,4.000000,4.000000,4.000000,2.000000,4.000000,16.666666,,,,,,,,,,,,,,,,,22.000000,0.000000,0.621353,0.398560,-0.594971,0.317932,0.979612,0.091808,-0.000488,-74.394600,62.880344,29.585413
1732083384.188866,1732083384.191016,89.000000,0.000000,4343.333496,4304.358887,4306.794922,4320.769043,4286.025879,4295.128418,4323.589844,4322.563965,4309.358887,4301.153809,4453.077148,4482.692383,4357.820313,4425.641113,1588.000000,0.000000,6.000000,,,,0.000000,2.000000,2.000000,0.000000,2.000000,2.000000,2.000000,0.000000,2.000000,4.000000,4.000000,4.000000,4.000000,2.000000,4.000000,16.666666,,,,,,,,,,,,,,,,,,,,,,,,,,,,
1732083384.196674,1732083384.199024,90.000000,0.000000,4342.948730,4302.820313,4309.102539,4319.743652,4291.538574,4301.153809,4325.897461,4326.282227,4312.436035,4300.000000,4452.820313,4483.333496,4354.102539,4424.871582,1384.000000,0.000000,6.000000,,,,0.000000,2.000000,2.000000,0.000000,2.000000,2.000000,2.000000,0.000000,2.000000,4.000000,4.000000,4.000000,4.000000,2.000000,4.000000,16.666666,,,,,,,,,,,,,,,,,,,,,,,,,,,,
1732083384.204482,1732083384.206832,91.000000,0.000000,4342.051270,4303.461426,4309.358887,4316.025879,4294.871582,4303.333496,4324.871582,4329.615234,4311.794922,4291.922852,4449.102539,4484.358887,4346.282227,4429.871582,1521.000000,0.000000,6.000000,,,,0.000000,2.000000,2.000000,0.000000,2.000000,2.000000,2.000000,0.000000,2.000000,4.000000,4.000000,4.000000,4.000000,2.000000,4.000000,16.666666,,,,,,,,,,,,,,,,,,,,,,,,,,,,
1732083384.212290,1732083384.214540,92.000000,0.000000,4348.205078,4305.000000,4304.615234,4319.358887,4293.333496,4304.102539,4322.051270,4328.205078,4307.692383,4286.666504,4445.512695,4483.333496,4347.179688,4429.743652,1746.000000,0.000000,6.000000,,,,0.000000,2.000000,2.000000,0.000000,2.000000,2.000000,2.000000,0.000000,2.000000,4.000000,4.000000,4.000000,4.000000,2.000000,4.000000,16.666666,,,,,,,,,,,,,,,,,23.000000,0.000000,0.620371,0.396606,-0.596252,0.319885,0.979612,0.091808,-0.000488,-74.556290,62.761414,29.319183
1732083384.220099,1732083384.222349,93.000000,0.000000,4357.563965,4308.077148,4309.358887,4324.102539,4289.743652,4300.641113,4321.538574,4326.153809,4309.230957,4297.051270,4452.948730,4485.769043,4361.538574,4431.025879,1588.000000,0.000000,6.000000,,,,0.000000,2.000000,2.000000,0.000000,2.000000,2.000000,2.000000,0.000000,2.000000,4.000000,4.000000,4.000000,4.000000,2.000000,4.000000,16.666666,,,,,,,,,,,,,,,,,,,,,,,,,,,,
1732083384.227907,1732083384.229957,94.000000,0.000000,4363.846191,4312.692383,4313.205078,4329.102539,4291.153809,4293.589844,4319.743652,4326.794922,4314.230957,4299.358887,4461.025879,4488.589844,4366.538574,4439.102539,1384.000000,0.000000,6.000000,,,,0.000000,2.000000,2.000000,0.000000,2.000000,2.000000,2.000000,0.000000,2.000000,4.000000,4.000000,4.000000,4.000000,2.000000,4.000000,16.666666,,,,,,,,,,,,,,,,,,,,,,,,,,,,
1732083384.235715,1732083384.237765,95.000000,0.000000,4367.307617,4314.743652,4313.589844,4330.897461,4295.769043,4295.128418,4319.487305,4325.897461,4313.589844,4290.256348,4462.179688,4490.000000,4361.666504,4445.769043,1521.000000,0.000000,6.000000,,,,0.000000,2.000000,2.000000,0.000000,2.000000,2.000000,2.000000,0.000000,2.000000,4.000000,4.000000,4.000000,4.000000,2.000000,4.000000,16.666666,,,,,,,,,,,,,,,,,,,,,,,,,,,,
1732083384.243523,1732083384.245473,96.000000,0.000000,4372.179688,4315.641113,4307.436035,4328.205078,4294.102539,4295.641113,4316.922852,4325.897461,4311.794922,4296.282227,4462.051270,4485.256348,4363.205078,4446.922852,1746.000000,0.000000,6.000000,,,,0.000000,2.000000,2.000000,0.000000,2.000000,2.000000,2.000000,0.000000,2.000000,4.000000,4.000000,4.000000,4.000000,2.000000,4.000000,16.666666,,,,,,,,,,,,,,,,,24.000000,0.000000,0.617839,0.390747,-0.600098,0.324768,0.983518,0.050787,0.014162,-74.703926,62.331745,29.036873
1732083384.251332,1732083384.253282,97.000000,0.000000,4377.307617,4314.615234,4310.897461,4326.153809,4287.563965,4287.051270,4318.974121,4325.897461,4309.487305,4302.051270,4462.563965,4485.128418,4366.538574,4446.794922,1588.000000,0.000000,6.000000,,,,0.000000,2.000000,2.000000,0.000000,2.000000,2.000000,2.000000,0.000000,2.000000,4.000000,4.000000,4.000000,4.000000,2.000000,4.000000,16.666666,,,,,,,,,,,,,,,,,,,,,,,,,,,,
1732083384.259140,1732083384.260890,98.000000,0.000000,4380.641113,4313.461426,4314.615234,4326.922852,4289.487305,4284.615234,4318.077148,4324.487305,4307.436035,4294.487305,4466.282227,4491.410156,4370.641113,4454.358887,1384.000000,0.000000,6.000000,,,,0.000000,2.000000,2.000000,0.000000,2.000000,2.000000,2.000000,0.000000,2.000000,4.000000,4.000000,4.000000,4.000000,2.000000,4.000000,16.666666,,,,,,,,,,,,,,,,,,,,,,,,,,,,
1732083384.266948,1732083384.268698,99.000000,0.000000,4383.333496,4316.794922,4313.974121,4327.179688,4295.128418,4290.000000,4313.717773,4324.230957,4308.333496,4292.307617,4469.487305,4493.846191,4373.589844,4461.538574,1521.000000,0.000000,6.000000,,,,0.000000,2.000000,2.000000,0.000000,2.000000,2.000000,2.000000,0.000000,2.000000,4.000000,4.000000,4.000000,4.000000,2.000000,4.000000,16.666666,,,,,,,,,,,,,,,,,,,,,,,,,,,,
1732083384.274757,1732083384.276407,100.000000,0.000000,4389.743652,4323.333496,4310.256348,4330.384766,4294.871582,4289.743652,4311.666504,4327.563965,4310.897461,4297.179688,4470.512695,4491.922852,4371.538574,4460.128418,1746.000000,0.000000,6.000000,,,,0.000000,2.000000,2.000000,0.000000,2.000000,2.000000,2.000000,0.000000,2.000000,4.000000,4.000000,4.000000,4.000000,2.000000,4.000000,16.666666,,,,,,,,,,,,,,,,,25.000000,0.000000,0.614691,0.386230,-0.603516,0.329773,0.961543,0.056648,0.021487,-74.873512,62.067047,29.019867
1732083384.282565,1732083384.284215,101.000000,0.000000,4392.436035,4321.666504,4310.000000,4332.051270,4293.461426,4288.846191,4319.102539,4326.025879,4309.871582,4297.051270,4468.205078,4491.538574,4369.743652,4457.563965,1588.000000,0.000000,6.000000,,,,0.000000,2.000000,2.000000,0.000000,2.000000,2.000000,2.000000,0.000000,2.000000,4.000000,4.000000,4.000000,4.000000,2.000000,4.000000,16.666666,,,,,,,,,,,,,,,,,,,,,,,,,,,,
1732083384.290373,1732083384.291823,102.000000,0.000000,4389.615234,4319.102539,4308.974121,4327.563965,4296.025879,4288.717773,4321.922852,4319.743652,4308.846191,4297.179688,4468.205078,4493.333496,4377.051270,4460.512695,1384.000000,0.000000,6.000000,,,,0.000000,2.000000,2.000000,0.000000,2.000000,2.000000,2.000000,0.000000,2.000000,4.000000,4.000000,4.000000,4.000000,2.000000,4.000000,16.666666,,,,,,,,,,,,,,,,,,,,,,,,,,,,
1732083384.298181,1732083384.299631,103.000000,0.000000,4390.384766,4324.615234,4311.922852,4327.563965,4296.922852,4288.205078,4320.512695,4319.230957,4310.000000,4297.820313,4472.436035,4490.641113,4381.538574,4463.333496,1521.000000,0.000000,6.000000,,,,0.000000,2.000000,2.000000,0.000000,2.000000,2.000000,2.000000,0.000000,2.000000,4.000000,4.000000,4.000000,4.000000,2.000000,4.000000,16.666666,,,,,,,,,,,,,,,,,,,,,,,,,,,,
1732083384.305990,1732083384.307340,104.000000,0.000000,4396.410156,4327.436035,4318.077148,4331.282227,4297.948730,4289.615234,4323.205078,4318.589844,4308.333496,4290.897461,4474.487305,4488.077148,4378.461426,4461.410156,1746.000000,0.000000,6.000000,,,,0.000000,2.000000,2.000000,0.000000,2.000000,2.000000,2.000000,0.000000,2.000000,4.000000,4.000000,4.000000,4.000000,2.000000,4.000000,16.666666,,,,,,,,,,,,,,,,,26.000000,0.000000,0.613198,0.386292,-0.604126,0.331360,0.956171,0.094250,-0.007325,-75.055878,61.794308,29.111092
1732083384.313798,1732083384.315148,105.000000,0.000000,4398.077148,4328.333496,4316.025879,4330.897461,4300.000000,4288.333496,4327.820313,4318.717773,4306.538574,4289.487305,4474.230957,4491.922852,4377.179688,4459.743652,1588.000000,0.000000,6.000000,,,,0.000000,2.000000,2.000000,0.000000,2.000000,2.000000,2.000000,0.000000,2.000000,4.000000,4.000000,4.000000,4.000000,2.000000,4.000000,16.666666,,,,,,,,,,,,,,,,,,,,,,,,,,,,
1732083384.321606,1732083384.322756,106.000000,0.000000,4392.436035,4328.205078,4315.897461,4327.948730,4295.512695,4285.897461,4327.692383,4323.974121,4309.230957,4296.538574,4474.871582,4497.692383,4379.358887,4463.461426,1384.000000,0.000000,6.000000,,,,0.000000,2.000000,2.000000,0.000000,2.000000,2.000000,2.000000,0.000000,2.000000,4.000000,4.000000,4.000000,4.000000,2.000000,4.000000,16.666666,,,,,,,,,,,,,,,,,,,,,,,,,,,,
1732083384.329414,1732083384.330565,107.000000,0.000000,4391.282227,4326.153809,4317.948730,4328.717773,4292.692383,4285.641113,4326.922852,4325.128418,4309.487305,4291.666504,4477.307617,4498.333496,4379.615234,4468.589844,1521.000000,0.000000,6.000000,,,,0.000000,2.000000,2.000000,0.000000,2.000000,2.000000,2.000000,0.000000,2.000000,4.000000,4.000000,4.000000,4.000000,2.000000,4.000000,16.666666,,,,,,,,,,,,,,,,,,,,,,,,,,,,
1732083384.337223,1732083384.338473,108.000000,0.000000,4395.128418,4327.692383,4320.256348,4331.666504,4296.922852,4286.282227,4329.871582,4320.384766,4308.205078,4284.743652,4476.538574,4498.974121,4379.230957,4467.436035,1746.000000,0.000000,6.000000,,,,0.000000,2.000000,2.000000,0.000000,2.000000,2.000000,2.000000,0.000000,2.000000,4.000000,4.000000,4.000000,4.000000,2.000000,4.000000,16.666666,,,,,,,,,,,,,,,,,27.000000,0.000000,0.612526,0.387085,-0.604065,0.331787,0.966915,0.088878,-0.012209,-75.235260,61.105057,28.994984
1732083384.345031,1732083384.346281,109.000000,0.000000,4395.256348,4330.384766,4319.230957,4332.948730,4297.948730,4286.153809,4330.256348,4320.000000,4311.794922,4292.179688,4474.871582,4500.769043,4379.743652,4462.051270,1588.000000,0.000000,6.000000,,,,0.000000,2.000000,2.000000,0.000000,2.000000,2.000000,2.000000,0.000000,2.000000,4.000000,4.000000,4.000000,4.000000,2.000000,4.000000,16.666666,,,,,,,,,,,,,,,,,,,,,,,,,,,,
1732083384.352839,1732083384.353889,110.000000,0.000000,4390.641113,4327.307617,4324.102539,4330.256348,4291.025879,4281.025879,4327.948730,4321.922852,4312.563965,4295.000000,4471.153809,4502.820313,4376.153809,4462.179688,1384.000000,0.000000,6.000000,,,,0.000000,2.000000,2.000000,0.000000,2.000000,2.000000,2.000000,0.000000,2.000000,4.000000,4.000000,4.000000,4.000000,2.000000,4.000000,16.666666,,,,,,,,,,,,,,,,,,,,,,,,,,,,
1732083384.360648,1732083384.361697,111.000000,0.000000,4393.846191,4327.436035,4325.256348,4328.974121,4287.948730,4283.077148,4327.563965,4321.025879,4309.743652,4291.282227,4472.563965,4506.794922,4377.436035,4463.077148,1521.000000,0.000000,6.000000,,,,0.000000,2.000000,2.000000,0.000000,2.000000,2.000000,2.000000,0.000000,2.000000,4.000000,4.000000,4.000000,4.000000,2.000000,4.000000,16.666666,,,,,,,,,,,,,,,,,,,,,,,,,,,,
1732083384.368456,1732083384.369406,112.000000,0.000000,4399.230957,4330.512695,4324.615234,4332.179688,4293.846191,4289.230957,4329.487305,4320.897461,4307.820313,4296.922852,4478.077148,4508.205078,4383.846191,4463.717773,1746.000000,0.000000,6.000000,,,,0.000000,2.000000,2.000000,0.000000,2.000000,2.000000,2.000000,0.000000,2.000000,4.000000,4.000000,4.000000,4.000000,2.000000,4.000000,16.666666,,,,,,,,,,,,,,,,,28.000000,0.000000,0.610712,0.389771,-0.603638,0.332764,0.981565,0.093273,-0.025394,-75.475563,60.780094,28.984270
1732083384.376264,1732083384.377214,113.000000,0.000000,4394.230957,4329.615234,4324.743652,4333.717773,4292.820313,4285.512695,4328.077148,4316.794922,4304.615234,4297.820313,4478.205078,4510.769043,4382.820313,4469.743652,1588.000000,0.000000,6.000000,,,,0.000000,2.000000,2.000000,0.000000,2.000000,2.000000,2.000000,0.000000,2.000000,4.000000,4.000000,4.000000,4.000000,2.000000,4.000000,16.666666,,,,,,,,,,,,,,,,,,,,,,,,,,,,
1732083384.384072,1732083384.385222,114.000000,0.000000,4393.077148,4328.974121,4324.743652,4335.000000,4285.384766,4278.205078,4331.282227,4314.358887,4302.179688,4288.461426,4475.769043,4515.000000,4380.000000,4474.743652,1384.000000,0.000000,6.000000,,,,0.000000,2.000000,2.000000,0.000000,2.000000,2.000000,2.000000,0.000000,2.000000,4.000000,4.000000,4.000000,4.000000,2.000000,4.000000,16.666666,,,,,,,,,,,,,,,,,,,,,,,,,,,,
1732083384.391881,1732083384.393030,115.000000,0.000000,4400.256348,4332.436035,4323.846191,4337.948730,4284.358887,4282.563965,4332.820313,4318.461426,4307.436035,4294.615234,4476.410156,4514.230957,4384.230957,4473.333496,1521.000000,0.000000,6.000000,,,,0.000000,2.000000,2.000000,0.000000,2.000000,2.000000,2.000000,0.000000,2.000000,4.000000,4.000000,4.000000,4.000000,2.000000,4.000000,16.666666,,,,,,,,,,,,,,,,,,,,,,,,,,,,
1732083384.399689,1732083384.400938,116.000000,0.000000,4398.333496,4332.307617,4326.153809,4339.743652,4288.974121,4286.025879,4330.897461,4319.358887,4311.153809,4302.692383,4478.461426,4511.794922,4384.230957,4473.717773,1746.000000,0.000000,6.000000,,,,0.000000,2.000000,2.000000,0.000000,2.000000,2.000000,2.000000,0.000000,2.000000,4.000000,4.000000,4.000000,4.000000,2.000000,4.000000,16.666666,,,,,,,,,,,,,,,,,29.000000,0.000000,0.606442,0.396790,-0.602356,0.334595,0.968380,0.109388,-0.025394,-75.825203,60.451878,28.718925
1732083384.407497,1732083384.408747,117.000000,0.000000,4389.743652,4327.179688,4328.333496,4337.948730,4289.871582,4291.282227,4330.000000,4320.641113,4307.563965,4295.897461,4476.922852,4510.897461,4374.102539,4474.358887,1588.000000,0.000000,6.000000,,,,0.000000,2.000000,2.000000,0.000000,2.000000,2.000000,2.000000,0.000000,2.000000,4.000000,4.000000,4.000000,4.000000,2.000000,4.000000,16.666666,,,,,,,,,,,,,,,,,,,,,,,,,,,,
1732083384.415305,1732083384.416755,118.000000,0.000000,4388.974121,4325.512695,4328.461426,4335.512695,4288.589844,4300.897461,4332.307617,4327.563965,4307.692383,4290.512695,4473.205078,4512.179688,4368.077148,4467.307617,1384.000000,0.000000,6.000000,,,,0.000000,2.000000,2.000000,0.000000,2.000000,2.000000,2.000000,0.000000,2.000000,4.000000,4.000000,4.000000,4.000000,2.000000,4.000000,16.666666,,,,,,,,,,,,,,,,,,,,,,,,,,,,
1732083384.423114,1732083384.424563,119.000000,0.000000,4392.179688,4327.820313,4326.538574,4336.922852,4288.333496,4290.641113,4328.461426,4327.948730,4312.563965,4291.794922,4473.077148,4515.128418,4373.846191,4465.897461,1521.000000,0.000000,6.000000,,,,0.000000,2.000000,2.000000,0.000000,2.000000,2.000000,2.000000,0.000000,2.000000,4.000000,4.000000,4.000000,4.000000,2.000000,4.000000,16.666666,,,,,,,,,,,,,,,,,,,,,,,,,,,,
1732083384.430922,1732083384.432471,120.000000,0.000000,4390.512695,4326.538574,4327.307617,4334.230957,4286.538574,4276.538574,4324.743652,4318.077148,4313.846191,4293.589844,4476.153809,4511.538574,4380.128418,4471.025879,1746.000000,0.000000,6.000000,,,,0.000000,2.000000,2.000000,0.000000,2.000000,2.000000,2.000000,0.000000,2.000000,4.000000,4.000000,4.000000,4.000000,2.000000,4.000000,16.666666,,,,,,,,,,,,,,,,,30.000000,0.000000,0.605508,0.398315,-0.602051,0.335022,0.981565,0.116713,-0.036137,-76.021751,60.452686,28.708996
1732083384.438730,1732083384.440279,121.000000,0.000000,4388.333496,4322.820313,4327.820313,4329.743652,4288.077148,4284.615234,4327.820313,4317.948730,4312.563965,4297.948730,4476.025879,4506.666504,4378.205078,4468.846191,1588.000000,0.000000,6.000000,,,,0.000000,2.000000,2.000000,0.000000,2.000000,2.000000,2.000000,0.000000,2.000000,4.000000,4.000000,4.000000,4.000000,2.000000,4.000000,16.666666,,,,,,,,,,,,,,,,,,,,,,,,,,,,
1732083384.446538,1732083384.448287,122.000000,0.000000,4384.358887,4320.897461,4326.794922,4330.128418,4287.307617,4295.128418,4333.589844,4326.922852,4314.230957,4301.538574,4474.487305,4507.820313,4375.000000,4462.948730,1384.000000,0.000000,6.000000,,,,0.000000,2.000000,2.000000,0.000000,2.000000,2.000000,2.000000,0.000000,2.000000,4.000000,4.000000,4.000000,4.000000,2.000000,4.000000,16.666666,,,,,,,,,,,,,,,,,,,,,,,,,,,,
1732083384.454347,1732083384.456095,123.000000,0.000000,4381.922852,4317.948730,4328.077148,4330.128418,4282.820313,4292.436035,4334.615234,4327.307617,4316.410156,4300.384766,4475.000000,4509.487305,4378.077148,4464.358887,1521.000000,0.000000,6.000000,,,,0.000000,2.000000,2.000000,0.000000,2.000000,2.000000,2.000000,0.000000,2.000000,4.000000,4.000000,4.000000,4.000000,2.000000,4.000000,16.666666,,,,,,,,,,,,,,,,,,,,,,,,,,,,
1732083384.462155,1732083384.464003,124.000000,0.000000,4383.461426,4315.000000,4333.077148,4328.846191,4282.948730,4286.538574,4331.922852,4321.282227,4317.436035,4299.358887,4473.974121,4507.436035,4378.974121,4467.307617,1746.000000,0.000000,6.000000,,,,0.000000,2.000000,2.000000,0.000000,2.000000,2.000000,2.000000,0.000000,2.000000,4.000000,4.000000,4.000000,4.000000,2.000000,4.000000,16.666666,,,,,,,,,,,,,,,,,31.000000,0.000000,0.603209,0.400757,-0.601990,0.336365,1.025516,0.101575,-0.033696,-76.239288,60.050011,28.162621
1732083384.469963,1732083384.471812,125.000000,0.000000,4381.153809,4315.128418,4337.307617,4329.487305,4281.794922,4286.538574,4331.794922,4318.333496,4315.128418,4300.641113,4473.333496,4508.589844,4373.205078,4463.461426,1588.000000,0.000000,6.000000,,,,0.000000,2.000000,2.000000,0.000000,2.000000,2.000000,2.000000,0.000000,2.000000,4.000000,4.000000,4.000000,4.000000,2.000000,4.000000,16.666666,,,,,,,,,,,,,,,,,,,,,,,,,,,,
1732083384.477771,1732083384.479820,126.000000,0.000000,4376.282227,4313.589844,4336.794922,4328.846191,4280.897461,4297.692383,4334.615234,4332.179688,4315.128418,4300.256348,4468.461426,4508.333496,4365.128418,4458.077148,1384.000000,0.000000,6.000000,,,,0.000000,2.000000,2.000000,0.000000,2.000000,2.000000,2.000000,0.000000,2.000000,4.000000,4.000000,4.000000,4.000000,2.000000,4.000000,16.666666,,,,,,,,,,,,,,,,,,,,,,,,,,,,
1732083384.485580,1732083384.487628,127.000000,0.000000,4376.666504,4312.051270,4336.538574,4325.128418,4287.820313,4309.615234,4338.077148,4347.051270,4323.205078,4301.025879,4463.717773,4506.666504,4362.948730,4455.256348,6.000000,0.000000,6.000000,,,,0.000000,2.000000,2.000000,0.000000,2.000000,2.000000,2.000000,0.000000,2.000000,4.000000,4.000000,4.000000,4.000000,2.000000,4.000000,16.666666,,,,,,,,,,,,,,,,,,,,,,,,,,,,
1732083384.493388,1732083384.495536,0.000000,0.000000,4380.512695,4316.794922,4336.282227,4327.820313,4293.717773,4296.922852,4332.436035,4332.307617,4322.051270,4302.436035,4468.589844,4508.205078,4371.538574,4457.692383,0.000000,0.000000,6.000000,,,,0.000000,2.000000,2.000000,0.000000,2.000000,2.000000,2.000000,0.000000,2.000000,4.000000,4.000000,4.000000,4.000000,2.000000,4.000000,16.666666,,,,,,,,,,,,,,,,,0.000000,0.000000,0.596394,0.402405,-0.606262,0.338867,1.002564,0.038091,-0.067879,-76.310486,59.972176,27.738390
1732083384.501196,1732083384.503344,1.000000,0.000000,4377.179688,4319.487305,4338.077148,4329.102539,4286.025879,4283.077148,4327.179688,4315.000000,4312.692383,4306.153809,4476.922852,4514.358887,4376.922852,4460.512695,1320.000000,0.000000,6.000000,,,,0.000000,2.000000,2.000000,0.000000,2.000000,2.000000,2.000000,0.000000,2.000000,4.000000,4.000000,4.000000,4.000000,2.000000,4.000000,16.666666,,,,,,,,,,,,,,,,,,,,,,,,,,,,
1732083384.509004,1732083384.511352,2.000000,0.000000,4374.102539,4313.461426,4338.974121,4322.051270,4285.256348,4289.230957,4327.948730,4322.948730,4316.538574,4309.743652,4481.025879,4520.641113,4377.051270,4465.897461,1242.000000,0.000000,6.000000,,,,0.000000,2.000000,2.000000,0.000000,2.000000,2.000000,2.000000,0.000000,2.000000,4.000000,4.000000,4.000000,4.000000,2.000000,4.000000,16.666666,,,,,,,,,,,,,,,,,,,,,,,,,,,,
1732083384.516813,1732083384.519160,3.000000,0.000000,4384.102539,4319.102539,4339.487305,4328.205078,4288.717773,4288.077148,4332.436035,4326.922852,4319.743652,4301.794922,4484.102539,4528.461426,4381.410156,4474.102539,1195.000000,0.000000,6.000000,,,,0.000000,2.000000,2.000000,0.000000,2.000000,2.000000,2.000000,0.000000,2.000000,4.000000,4.000000,4.000000,4.000000,2.000000,4.000000,16.666666,,,,,,,,,,,,,,,,,,,,,,,,,,,,
1732083384.524621,1732083384.527068,4.000000,0.000000,4392.563965,4330.897461,4338.589844,4342.051270,4283.333496,4283.846191,4331.025879,4320.128418,4310.128418,4293.333496,4487.948730,4536.153809,4381.794922,4475.641113,1219.000000,0.000000,6.000000,,,,0.000000,2.000000,2.000000,0.000000,2.000000,2.000000,2.000000,0.000000,2.000000,4.000000,4.000000,4.000000,4.000000,2.000000,4.000000,16.666666,,,,,,,,,,,,,,,,,1.000000,0.000000,0.589888,0.403564,-0.612000,0.338562,1.005982,0.073251,-0.096691,-76.523163,59.785793,27.439762
1732083384.532429,1732083384.534877,5.000000,0.000000,4385.769043,4326.153809,4339.615234,4333.974121,4279.743652,4290.897461,4332.692383,4326.153809,4313.461426,4306.538574,4491.282227,4534.102539,4382.307617,4474.871582,1080.000000,0.000000,6.000000,,,,0.000000,2.000000,2.000000,0.000000,2.000000,2.000000,2.000000,0.000000,2.000000,4.000000,4.000000,4.000000,4.000000,2.000000,4.000000,16.666666,,,,,,,,,,,,,,,,,,,,,,,,,,,,
1732083384.540238,1732083384.542485,6.000000,0.000000,4381.282227,4322.051270,4338.333496,4325.512695,4280.769043,4287.051270,4334.358887,4330.256348,4326.794922,4324.230957,4493.589844,4527.179688,4392.307617,4477.692383,1.000000,0.000000,6.000000,,,,0.000000,2.000000,2.000000,0.000000,2.000000,2.000000,2.000000,0.000000,2.000000,4.000000,4.000000,4.000000,4.000000,2.000000,4.000000,16.666666,,,,,,,,,,,,,,,,,,,,,,,,,,,,
1732083384.548046,1732083384.550293,7.000000,0.000000,4381.153809,4325.769043,4337.179688,4335.000000,4278.205078,4279.615234,4334.615234,4323.974121,4324.871582,4317.436035,4485.128418,4523.077148,4391.025879,4472.179688,1177.000000,0.000000,6.000000,,,,0.000000,2.000000,2.000000,0.000000,2.000000,2.000000,2.000000,0.000000,2.000000,4.000000,4.000000,4.000000,4.000000,2.000000,4.000000,16.666666,,,,,,,,,,,,,,,,,,,,,,,,,,,,
1732083384.555854,1732083384.558002,8.000000,0.000000,4371.538574,4319.871582,4336.410156,4333.077148,4278.077148,4290.512695,4334.487305,4326.538574,4319.743652,4307.051270,4475.256348,4517.820313,4379.230957,4461.153809,1362.000000,0.000000,6.000000,,,,0.000000,2.000000,2.000000,0.000000,2.000000,2.000000,2.000000,0.000000,2.000000,4.000000,4.000000,4.000000,4.000000,2.000000,4.000000,16.666666,,,,,,,,,,,,,,,,,2.000000,0.000000,0.587524,0.403931,-0.614197,0.338257,1.009401,0.061043,-0.117202,-76.518761,59.636494,26.944540
1732083384.563662,1732083384.565810,9.000000,0.000000,4362.436035,4316.922852,4335.128418,4319.615234,4288.205078,4300.000000,4335.128418,4327.692383,4317.307617,4304.871582,4472.307617,4507.820313,4375.128418,4455.897461,1514.000000,0.000000,6.000000,,,,0.000000,2.000000,2.000000,0.000000,2.000000,2.000000,2.000000,0.000000,2.000000,4.000000,4.000000,4.000000,4.000000,2.000000,4.000000,16.666666,,,,,,,,,,,,,,,,,,,,,,,,,,,,
1732083384.571471,1732083384.573418,10.000000,0.000000,4359.615234,4326.794922,4329.102539,4322.563965,4292.820313,4297.820313,4334.743652,4325.256348,4316.153809,4303.333496,4468.717773,4497.051270,4370.769043,4448.846191,1381.000000,0.000000,6.000000,,,,0.000000,2.000000,2.000000,0.000000,2.000000,2.000000,2.000000,0.000000,2.000000,4.000000,4.000000,4.000000,4.000000,2.000000,4.000000,16.666666,,,,,,,,,,,,,,,,,,,,,,,,,,,,
1732083384.579279,1732083384.581226,11.000000,0.000000,4353.717773,4327.692383,4321.410156,4327.948730,4290.128418,4302.948730,4332.692383,4325.384766,4319.743652,4309.230957,4470.384766,4492.179688,4368.717773,4441.153809,1514.000000,0.000000,6.000000,,,,0.000000,2.000000,2.000000,0.000000,2.000000,2.000000,2.000000,0.000000,2.000000,4.000000,4.000000,4.000000,4.000000,2.000000,4.000000,16.666666,,,,,,,,,,,,,,,,,,,,,,,,,,,,
1732083384.587087,1732083384.588935,12.000000,0.000000,4352.820313,4324.743652,4320.512695,4324.230957,4291.025879,4307.436035,4330.000000,4328.333496,4324.358887,4316.025879,4476.025879,4499.230957,4378.846191,4447.179688,1741.000000,0.000000,6.000000,,,,0.000000,2.000000,2.000000,0.000000,2.000000,2.000000,2.000000,0.000000,2.000000,4.000000,4.000000,4.000000,4.000000,2.000000,4.000000,16.666666,,,,,,,,,,,,,,,,,3.000000,0.000000,0.582421,0.404114,-0.619019,0.338074,0.975705,0.024905,-0.121597,-76.446861,59.405560,26.138411
1732083384.594895,1732083384.596743,13.000000,0.000000,4356.794922,4331.666504,4322.436035,4326.922852,4293.333496,4301.666504,4328.717773,4331.922852,4327.307617,4315.897461,4479.230957,4508.974121,4381.282227,4455.897461,1591.000000,0.000000,6.000000,,,,0.000000,2.000000,2.000000,0.000000,2.000000,2.000000,2.000000,0.000000,2.000000,4.000000,4.000000,4.000000,4.000000,2.000000,4.000000,16.666666,,,,,,,,,,,,,,,,,,,,,,,,,,,,
1732083384.602704,1732083384.604351,14.000000,0.000000,4353.205078,4336.025879,4322.948730,4329.871582,4293.205078,4296.922852,4328.333496,4330.000000,4325.000000,4314.487305,4479.871582,4506.666504,4376.666504,4454.743652,1381.000000,0.000000,6.000000,,,,0.000000,2.000000,2.000000,0.000000,2.000000,2.000000,2.000000,0.000000,2.000000,4.000000,4.000000,4.000000,4.000000,2.000000,4.000000,16.666666,1.000000,8.333333,2.000000,2.000000,0.000000,2.000000,2.000000,2.000000,0.000000,2.000000,1.000000,4.000000,4.000000,4.000000,2.000000,4.000000,,,,,,,,,,,,
1732083384.610512,1732083384.612160,15.000000,0.000000,4348.717773,4332.307617,4321.282227,4328.205078,4291.025879,4296.538574,4325.641113,4323.333496,4320.000000,4311.025879,4474.615234,4495.512695,4379.358887,4445.512695,1514.000000,0.000000,6.000000,,,,0.000000,2.000000,2.000000,0.000000,2.000000,2.000000,2.000000,0.000000,2.000000,4.000000,4.000000,4.000000,4.000000,2.000000,4.000000,16.666666,,,,,,,,,,,,,,,,,,,,,,,,,,,,
1732083384.618320,1732083384.619868,16.000000,0.000000,4347.051270,4328.333496,4321.922852,4329.743652,4295.384766,4297.179688,4328.461426,4321.794922,4320.769043,4303.461426,4463.077148,4488.717773,4373.205078,4434.487305,0.000000,0.000000,6.000000,,,,0.000000,2.000000,2.000000,0.000000,2.000000,2.000000,2.000000,0.000000,2.000000,4.000000,4.000000,4.000000,4.000000,2.000000,4.000000,16.666666,,,,,,,,,,,,,,,,,4.000000,0.000000,0.574619,0.402771,-0.627625,0.337158,0.931266,0.058113,-0.148456,-76.771957,59.135170,25.652113
1732083384.626129,1732083384.627676,17.000000,0.000000,4343.205078,4331.153809,4321.410156,4328.333496,4297.179688,4297.692383,4328.974121,4324.743652,4323.461426,4301.153809,4458.717773,4486.666504,4365.384766,4435.000000,0.000000,0.000000,6.000000,,,,0.000000,2.000000,2.000000,0.000000,2.000000,2.000000,2.000000,0.000000,2.000000,4.000000,4.000000,4.000000,4.000000,2.000000,4.000000,16.666666,,,,,,,,,,,,,,,,,,,,,,,,,,,,
1732083384.633937,1732083384.635284,18.000000,0.000000,4336.282227,4331.666504,4320.897461,4318.974121,4286.410156,4295.384766,4327.179688,4328.205078,4323.205078,4305.000000,4462.051270,4478.589844,4370.512695,4437.307617,0.000000,0.000000,6.000000,,,,0.000000,2.000000,2.000000,0.000000,2.000000,2.000000,2.000000,0.000000,2.000000,4.000000,4.000000,4.000000,4.000000,2.000000,4.000000,16.666666,,,,,,,,,,,,,,,,,,,,,,,,,,,,
1732083384.641745,1732083384.643093,19.000000,0.000000,4328.974121,4324.358887,4321.794922,4314.487305,4284.102539,4297.051270,4327.563965,4330.256348,4325.256348,4305.000000,4459.615234,4470.512695,4365.897461,4427.948730,0.000000,0.000000,6.000000,,,,0.000000,2.000000,2.000000,0.000000,2.000000,2.000000,2.000000,0.000000,2.000000,4.000000,4.000000,4.000000,4.000000,2.000000,4.000000,16.666666,,,,,,,,,,,,,,,,,,,,,,,,,,,,
1732083384.649553,1732083384.650801,20.000000,0.000000,4325.128418,4322.820313,4327.307617,4318.589844,4294.615234,4305.256348,4329.230957,4325.256348,4323.589844,4297.307617,4451.282227,4472.307617,4353.205078,4420.769043,0.000000,0.000000,6.000000,,,,0.000000,2.000000,2.000000,0.000000,2.000000,2.000000,2.000000,0.000000,2.000000,4.000000,4.000000,4.000000,4.000000,2.000000,4.000000,16.666666,,,,,,,,,,,,,,,,,5.000000,0.000000,0.573350,0.402710,-0.629150,0.336548,0.931266,0.058113,-0.148456,-76.968620,58.989487,25.451546
1732083384.657362,1732083384.658609,21.000000,0.000000,4324.230957,4326.282227,4325.641113,4321.794922,4299.230957,4307.179688,4327.179688,4325.000000,4317.436035,4291.666504,4448.461426,4472.563965,4354.358887,4422.948730,0.000000,0.000000,6.000000,,,,0.000000,2.000000,2.000000,0.000000,2.000000,2.000000,2.000000,0.000000,2.000000,4.000000,4.000000,4.000000,4.000000,2.000000,4.000000,16.666666,,,,,,,,,,,,,,,,,,,,,,,,,,,,
1732083384.665170,1732083384.666218,22.000000,0.000000,4321.666504,4321.282227,4322.563965,4318.077148,4295.128418,4303.333496,4331.153809,4333.589844,4322.563965,4293.077148,4456.282227,4468.717773,4360.256348,4425.256348,0.000000,0.000000,6.000000,,,,0.000000,2.000000,2.000000,0.000000,2.000000,2.000000,2.000000,0.000000,2.000000,4.000000,4.000000,4.000000,4.000000,2.000000,4.000000,16.666666,,,,,,,,,,,,,,,,,,,,,,,,,,,,
1732083384.672978,1732083384.674026,23.000000,0.000000,4322.179688,4318.846191,4324.230957,4313.974121,4295.128418,4305.512695,4333.717773,4334.615234,4331.922852,4294.615234,4462.179688,4466.153809,4359.358887,4427.051270,0.000000,0.000000,6.000000,,,,0.000000,2.000000,2.000000,0.000000,2.000000,2.000000,2.000000,0.000000,2.000000,4.000000,4.000000,4.000000,4.000000,2.000000,4.000000,16.666666,,,,,,,,,,,,,,,,,,,,,,,,,,,,
1732083384.680786,1732083384.681934,24.000000,0.000000,4321.410156,4320.256348,4323.333496,4312.820313,4297.307617,4312.820313,4331.025879,4332.820313,4333.846191,4299.230957,4457.820313,4466.922852,4362.051270,4425.128418,0.000000,0.000000,6.000000,,,,0.000000,2.000000,2.000000,0.000000,2.000000,2.000000,2.000000,0.000000,2.000000,4.000000,4.000000,4.000000,4.000000,2.000000,4.000000,16.666666,,,,,,,,,,,,,,,,,6.000000,0.000000,0.572237,0.402893,-0.630371,0.335938,0.934196,0.057624,-0.161152,-77.116249,58.571484,24.942417
1732083384.688595,1732083384.689742,25.000000,0.000000,4314.230957,4315.256348,4319.230957,4313.974121,4297.563965,4312.307617,4330.641113,4333.333496,4328.461426,4302.563965,4452.436035,4469.230957,4360.512695,4416.922852,0.000000,0.000000,6.000000,,,,0.000000,2.000000,2.000000,0.000000,2.000000,2.000000,2.000000,0.000000,2.000000,4.000000,4.000000,4.000000,4.000000,2.000000,4.000000,16.666666,,,,,,,,,,,,,,,,,,,,,,,,,,,,
1732083384.696403,1732083384.697750,26.000000,0.000000,4315.897461,4314.487305,4320.384766,4316.410156,4298.589844,4302.820313,4331.922852,4328.717773,4323.077148,4297.179688,4452.179688,4470.897461,4354.358887,4418.717773,0.000000,0.000000,6.000000,,,,0.000000,2.000000,2.000000,0.000000,2.000000,2.000000,2.000000,0.000000,2.000000,4.000000,4.000000,4.000000,4.000000,2.000000,4.000000,16.666666,,,,,,,,,,,,,,,,,,,,,,,,,,,,
1732083384.704211,1732083384.705558,27.000000,0.000000,4324.487305,4316.538574,4323.589844,4314.871582,4295.641113,4301.410156,4329.871582,4328.461426,4329.615234,4302.692383,4457.948730,4481.153809,4361.666504,4430.128418,0.000000,0.000000,6.000000,,,,0.000000,2.000000,2.000000,0.000000,2.000000,2.000000,2.000000,0.000000,2.000000,4.000000,4.000000,4.000000,4.000000,2.000000,4.000000,16.666666,,,,,,,,,,,,,,,,,,,,,,,,,,,,
1732083384.712019,1732083384.713466,28.000000,0.000000,4320.128418,4310.641113,4320.000000,4310.256348,4294.743652,4308.846191,4329.487305,4337.563965,4337.820313,4314.487305,4462.563965,4487.692383,4364.743652,4428.974121,0.000000,0.000000,6.000000,,,,0.000000,2.000000,2.000000,0.000000,2.000000,2.000000,2.000000,0.000000,2.000000,4.000000,4.000000,4.000000,4.000000,2.000000,4.000000,16.666666,,,,,,,,,,,,,,,,,7.000000,0.000000,0.568390,0.403625,-0.633667,0.335388,0.957148,0.001465,-0.146991,-77.190826,58.352901,24.593359
1732083384.719828,1732083384.721275,29.000000,0.000000,4312.436035,4307.563965,4318.974121,4309.743652,4296.410156,4308.077148,4332.051270,4336.666504,4332.436035,4305.641113,4456.282227,4478.461426,4351.922852,4420.000000,0.000000,0.000000,6.000000,,,,0.000000,2.000000,2.000000,0.000000,2.000000,2.000000,2.000000,0.000000,2.000000,4.000000,4.000000,4.000000,4.000000,2.000000,4.000000,16.666666,,,,,,,,,,,,,,,,,,,,,,,,,,,,
1732083384.727636,1732083384.728883,30.000000,0.000000,4317.436035,4310.384766,4322.948730,4315.128418,4294.358887,4302.179688,4330.769043,4324.615234,4325.128418,4298.333496,4451.922852,4472.563965,4351.410156,4422.820313,0.000000,0.000000,6.000000,,,,0.000000,2.000000,2.000000,0.000000,2.000000,2.000000,2.000000,0.000000,2.000000,4.000000,4.000000,4.000000,4.000000,2.000000,4.000000,16.666666,,,,,,,,,,,,,,,,,,,,,,,,,,,,
1732083384.735444,1732083384.736691,31.000000,0.000000,4318.589844,4311.282227,4326.666504,4323.589844,4296.666504,4306.153809,4330.128418,4320.000000,4319.743652,4300.769043,4449.230957,4477.692383,4356.153809,4424.102539,0.000000,0.000000,6.000000,,,,0.000000,2.000000,2.000000,0.000000,2.000000,2.000000,2.000000,0.000000,2.000000,4.000000,4.000000,4.000000,4.000000,2.000000,4.000000,16.666666,,,,,,,,,,,,,,,,,,,,,,,,,,,,
1732083384.743252,1732083384.744400,32.000000,0.000000,4311.922852,4309.743652,4327.051270,4326.282227,4301.153809,4312.179688,4330.512695,4327.436035,4316.922852,4293.846191,4440.769043,4474.615234,4346.282227,4414.743652,0.000000,0.000000,6.000000,,,,0.000000,2.000000,2.000000,0.000000,2.000000,2.000000,2.000000,0.000000,2.000000,4.000000,4.000000,4.000000,4.000000,2.000000,4.000000,16.666666,,,,,,,,,,,,,,,,,8.000000,0.000000,0.565868,0.401367,-0.636414,0.337158,0.950311,0.004883,-0.162618,-77.214569,58.040852,24.133953
1732083384.751061,1732083384.752208,33.000000,0.000000,4307.692383,4301.410156,4327.179688,4318.461426,4299.487305,4312.692383,4333.589844,4337.307617,4326.025879,4292.820313,4447.307617,4471.025879,4346.922852,4416.794922,0.000000,0.000000,6.000000,,,,0.000000,2.000000,2.000000,0.000000,2.000000,2.000000,2.000000,0.000000,2.000000,4.000000,4.000000,4.000000,4.000000,2.000000,4.000000,16.666666,,,,,,,,,,,,,,,,,,,,,,,,,,,,
1732083384.758869,1732083384.760216,34.000000,0.000000,4309.743652,4300.641113,4325.384766,4316.282227,4298.077148,4312.948730,4333.461426,4338.461426,4335.256348,4304.230957,4460.128418,4475.256348,4359.871582,4427.051270,0.000000,0.000000,6.000000,,,,0.000000,2.000000,2.000000,0.000000,2.000000,2.000000,2.000000,0.000000,2.000000,4.000000,4.000000,4.000000,4.000000,2.000000,4.000000,16.666666,,,,,,,,,,,,,,,,,,,,,,,,,,,,
1732083384.766677,1732083384.768024,35.000000,0.000000,4316.282227,4307.307617,4326.153809,4324.230957,4302.179688,4307.307617,4333.077148,4331.666504,4326.025879,4305.641113,4454.487305,4472.948730,4356.282227,4424.615234,0.000000,0.000000,6.000000,,,,0.000000,2.000000,2.000000,0.000000,2.000000,2.000000,2.000000,0.000000,2.000000,4.000000,4.000000,4.000000,4.000000,2.000000,4.000000,16.666666,,,,,,,,,,,,,,,,,,,,,,,,,,,,
1732083384.774485,1732083384.775932,36.000000,0.000000,4319.358887,4301.922852,4324.358887,4324.615234,4303.205078,4303.205078,4329.615234,4322.948730,4315.897461,4301.794922,4452.051270,4473.077148,4352.307617,4422.436035,0.000000,0.000000,6.000000,,,,0.000000,2.000000,2.000000,0.000000,2.000000,2.000000,2.000000,0.000000,2.000000,4.000000,4.000000,4.000000,4.000000,2.000000,4.000000,16.666666,,,,,,,,,,,,,,,,,9.000000,0.000000,0.565343,0.400391,-0.637268,0.337585,0.950311,0.004883,-0.162618,-77.047134,57.526424,23.823503
1732083384.782294,1732083384.783740,37.000000,0.000000,4308.461426,4292.563965,4321.153809,4313.333496,4298.589844,4308.589844,4329.871582,4326.025879,4324.487305,4305.897461,4457.948730,4476.410156,4354.743652,4423.974121,0.000000,0.000000,6.000000,,,,0.000000,2.000000,2.000000,0.000000,2.000000,2.000000,2.000000,0.000000,2.000000,4.000000,4.000000,4.000000,4.000000,2.000000,4.000000,16.666666,,,,,,,,,,,,,,,,,,,,,,,,,,,,
1732083384.790102,1732083384.791748,38.000000,0.000000,4296.282227,4293.333496,4318.589844,4306.282227,4297.436035,4310.128418,4331.410156,4338.717773,4332.692383,4307.179688,4447.436035,4472.051270,4345.897461,4413.846191,0.000000,0.000000,6.000000,,,,0.000000,2.000000,2.000000,0.000000,2.000000,2.000000,2.000000,0.000000,2.000000,4.000000,4.000000,4.000000,4.000000,2.000000,4.000000,16.666666,,,,,,,,,,,,,,,,,,,,,,,,,,,,
1732083384.797910,1732083384.799557,39.000000,0.000000,4301.025879,4296.153809,4320.897461,4313.077148,4302.307617,4304.358887,4331.666504,4328.974121,4321.025879,4300.769043,4440.256348,4469.230957,4345.128418,4409.615234,0.000000,0.000000,6.000000,,,,0.000000,2.000000,2.000000,0.000000,2.000000,2.000000,2.000000,0.000000,2.000000,4.000000,4.000000,4.000000,4.000000,2.000000,4.000000,16.666666,,,,,,,,,,,,,,,,,,,,,,,,,,,,
1732083384.805719,1732083384.807465,40.000000,0.000000,4317.307617,4299.487305,4323.333496,4323.974121,4307.307617,4305.384766,4330.000000,4307.948730,4311.410156,4304.487305,4455.512695,4474.487305,4364.871582,4424.871582,0.000000,0.000000,6.000000,,,,0.000000,2.000000,2.000000,0.000000,2.000000,2.000000,2.000000,0.000000,2.000000,4.000000,4.000000,4.000000,4.000000,2.000000,4.000000,16.666666,,,,,,,,,,,,,,,,,10.000000,0.000000,0.563437,0.395691,-0.640747,0.339722,0.978147,-0.034672,-0.139177,-77.121513,56.969734,23.495371
1732083384.813527,1732083384.815273,41.000000,0.000000,4323.077148,4303.589844,4321.538574,4323.205078,4308.589844,4312.051270,4331.410156,4322.179688,4321.538574,4308.077148,4458.077148,4473.077148,4370.897461,4427.563965,0.000000,0.000000,6.000000,,,,0.000000,2.000000,2.000000,0.000000,2.000000,2.000000,2.000000,0.000000,2.000000,4.000000,4.000000,4.000000,4.000000,2.000000,4.000000,16.666666,,,,,,,,,,,,,,,,,,,,,,,,,,,,
1732083384.821335,1732083384.823281,42.000000,0.000000,4312.051270,4299.358887,4318.974121,4315.641113,4312.692383,4312.307617,4333.333496,4341.794922,4328.589844,4300.897461,4449.230957,4464.487305,4358.846191,4415.128418,0.000000,0.000000,6.000000,,,,0.000000,2.000000,2.000000,0.000000,2.000000,2.000000,2.000000,0.000000,2.000000,4.000000,4.000000,4.000000,4.000000,2.000000,4.000000,16.666666,,,,,,,,,,,,,,,,,,,,,,,,,,,,
1732083384.829143,1732083384.831089,43.000000,0.000000,4307.051270,4296.410156,4320.769043,4317.436035,4313.077148,4312.307617,4334.230957,4325.000000,4321.538574,4306.153809,4455.897461,4467.692383,4361.153809,4418.461426,0.000000,0.000000,6.000000,,,,0.000000,2.000000,2.000000,0.000000,2.000000,2.000000,2.000000,0.000000,2.000000,4.000000,4.000000,4.000000,4.000000,2.000000,4.000000,16.666666,,,,,,,,,,,,,,,,,,,,,,,,,,,,
1732083384.836952,1732083384.838997,44.000000,0.000000,4313.077148,4298.846191,4325.000000,4318.333496,4312.179688,4310.256348,4331.922852,4309.615234,4318.461426,4319.487305,4459.615234,4471.794922,4369.102539,4426.922852,0.000000,0.000000,6.000000,,,,0.000000,2.000000,2.000000,0.000000,2.000000,2.000000,2.000000,0.000000,2.000000,4.000000,4.000000,4.000000,4.000000,2.000000,4.000000,16.666666,,,,,,,,,,,,,,,,,11.000000,0.000000,0.562918,0.391418,-0.643433,0.340454,0.973263,-0.035649,-0.126969,-77.073425,56.597153,23.141251
1732083384.844760,1732083384.846805,45.000000,0.000000,4312.307617,4299.102539,4321.282227,4311.922852,4322.051270,4302.307617,4326.922852,4326.153809,4327.051270,4320.384766,4454.615234,4466.410156,4366.025879,4423.077148,0.000000,0.000000,6.000000,,,,0.000000,2.000000,2.000000,0.000000,2.000000,2.000000,2.000000,0.000000,2.000000,4.000000,4.000000,4.000000,4.000000,2.000000,4.000000,16.666666,,,,,,,,,,,,,,,,,,,,,,,,,,,,
1732083384.852568,1732083384.854813,46.000000,0.000000,4310.897461,4299.743652,4322.051270,4314.871582,4321.153809,4304.615234,4329.743652,4337.307617,4332.692383,4320.000000,4456.538574,4470.128418,4364.743652,4423.077148,0.000000,0.000000,6.000000,,,,0.000000,2.000000,2.000000,0.000000,2.000000,2.000000,2.000000,0.000000,2.000000,4.000000,4.000000,4.000000,4.000000,2.000000,4.000000,16.666666,,,,,,,,,,,,,,,,,,,,,,,,,,,,
1732083384.860376,1732083384.862622,47.000000,0.000000,4315.897461,4300.128418,4326.153809,4323.333496,4305.641113,4309.871582,4331.538574,4325.512695,4326.410156,4327.692383,4461.538574,4479.487305,4369.358887,4427.692383,0.000000,0.000000,6.000000,,,,0.000000,2.000000,2.000000,0.000000,2.000000,2.000000,2.000000,0.000000,2.000000,4.000000,4.000000,4.000000,4.000000,2.000000,4.000000,16.666666,,,,,,,,,,,,,,,,,,,,,,,,,,,,
1732083384.868185,1732083384.870530,48.000000,0.000000,4318.205078,4298.077148,4323.974121,4321.794922,4303.717773,4303.589844,4330.897461,4321.538574,4324.487305,4330.128418,4461.025879,4478.846191,4370.256348,4425.641113,0.000000,0.000000,6.000000,,,,0.000000,2.000000,2.000000,0.000000,2.000000,2.000000,2.000000,0.000000,2.000000,4.000000,4.000000,4.000000,4.000000,2.000000,4.000000,16.666666,,,,,,,,,,,,,,,,,12.000000,0.000000,0.563091,0.388916,-0.644958,0.340149,0.968868,-0.026370,-0.134294,-77.359474,56.375359,22.867746
1732083384.875993,1732083384.878338,49.000000,0.000000,4317.051270,4298.077148,4321.794922,4318.974121,4314.615234,4302.820313,4331.794922,4330.769043,4332.436035,4327.307617,4461.666504,4475.128418,4370.641113,4423.077148,0.000000,0.000000,6.000000,,,,0.000000,2.000000,2.000000,0.000000,2.000000,2.000000,2.000000,0.000000,2.000000,4.000000,4.000000,4.000000,4.000000,2.000000,4.000000,16.666666,,,,,,,,,,,,,,,,,,,,,,,,,,,,
1732083384.883801,1732083384.886346,50.000000,0.000000,4316.794922,4299.487305,4326.410156,4321.794922,4311.410156,4312.051270,4334.743652,4335.641113,4330.128418,4325.256348,4460.128418,4472.436035,4367.307617,4420.256348,0.000000,0.000000,6.000000,,,,0.000000,2.000000,2.000000,0.000000,2.000000,2.000000,2.000000,0.000000,2.000000,4.000000,4.000000,4.000000,4.000000,2.000000,4.000000,16.666666,,,,,,,,,,,,,,,,,,,,,,,,,,,,
1732083384.891610,1732083384.894154,51.000000,0.000000,4318.205078,4296.666504,4326.282227,4324.871582,4313.205078,4313.333496,4332.563965,4334.102539,4324.487305,4320.769043,4456.794922,4470.512695,4365.256348,4419.102539,0.000000,0.000000,6.000000,,,,0.000000,2.000000,2.000000,0.000000,2.000000,2.000000,2.000000,0.000000,2.000000,4.000000,4.000000,4.000000,4.000000,2.000000,4.000000,16.666666,,,,,,,,,,,,,,,,,,,,,,,,,,,,
1732083384.899418,1732083384.902062,52.000000,0.000000,4317.692383,4298.205078,4323.717773,4325.641113,4330.128418,4308.717773,4332.307617,4333.333496,4329.102539,4314.743652,4455.897461,4475.769043,4368.974121,4421.666504,0.000000,0.000000,6.000000,,,,0.000000,2.000000,2.000000,0.000000,2.000000,2.000000,2.000000,0.000000,2.000000,4.000000,4.000000,4.000000,4.000000,2.000000,4.000000,16.666666,,,,,,,,,,,,,,,,,13.000000,0.000000,0.563091,0.388916,-0.644958,0.340149,0.968868,-0.026370,-0.134294,-77.711174,56.120708,22.721207
1732083384.907226,1732083384.909870,53.000000,0.000000,4314.743652,4302.563965,4323.333496,4325.000000,4323.077148,4310.384766,4331.794922,4336.282227,4333.846191,4315.256348,4453.589844,4476.153809,4367.948730,4419.358887,0.000000,0.000000,6.000000,,,,0.000000,2.000000,2.000000,0.000000,2.000000,2.000000,2.000000,0.000000,2.000000,4.000000,4.000000,4.000000,4.000000,2.000000,4.000000,16.666666,,,,,,,,,,,,,,,,,,,,,,,,,,,,
1732083384.915034,1732083384.917878,54.000000,0.000000,4313.974121,4301.794922,4324.487305,4325.128418,4307.820313,4312.563965,4332.179688,4333.846191,4327.307617,4317.692383,4449.230957,4465.256348,4361.025879,4413.205078,0.000000,0.000000,6.000000,,,,0.000000,2.000000,2.000000,0.000000,2.000000,2.000000,2.000000,0.000000,2.000000,4.000000,4.000000,4.000000,4.000000,2.000000,4.000000,16.666666,,,,,,,,,,,,,,,,,,,,,,,,,,,,
1732083384.922843,1732083384.925687,55.000000,0.000000,4316.922852,4304.230957,4325.641113,4327.563965,4320.000000,4312.051270,4332.692383,4323.717773,4315.512695,4310.256348,4443.846191,4461.025879,4359.230957,4412.692383,0.000000,0.000000,6.000000,,,,0.000000,2.000000,2.000000,0.000000,2.000000,2.000000,2.000000,0.000000,2.000000,4.000000,4.000000,4.000000,4.000000,2.000000,4.000000,16.666666,,,,,,,,,,,,,,,,,,,,,,,,,,,,
1732083384.930651,1732083384.933395,56.000000,0.000000,4313.333496,4301.922852,4327.179688,4324.743652,4324.871582,4312.692383,4333.717773,4323.333496,4315.000000,4312.563965,4443.589844,4462.820313,4365.128418,4415.384766,0.000000,0.000000,6.000000,,,,0.000000,2.000000,2.000000,0.000000,2.000000,2.000000,2.000000,0.000000,2.000000,4.000000,4.000000,4.000000,4.000000,2.000000,4.000000,16.666666,,,,,,,,,,,,,,,,,14.000000,0.000000,0.563963,0.385010,-0.647339,0.338623,0.974240,0.007325,-0.142596,-77.924385,55.699440,22.587511
1732083384.938459,1732083384.941203,57.000000,0.000000,4307.692383,4291.410156,4325.641113,4321.282227,4317.307617,4311.025879,4333.077148,4331.538574,4324.358887,4326.025879,4447.563965,4462.692383,4368.846191,4409.102539,0.000000,0.000000,6.000000,,,,0.000000,2.000000,2.000000,0.000000,2.000000,2.000000,2.000000,0.000000,2.000000,4.000000,4.000000,4.000000,4.000000,2.000000,4.000000,16.666666,,,,,,,,,,,,,,,,,,,,,,,,,,,,
1732083384.946267,1732083384.948812,58.000000,0.000000,4310.769043,4291.025879,4323.846191,4325.384766,4326.025879,4305.512695,4332.051270,4325.641113,4321.794922,4317.307617,4444.358887,4466.538574,4363.461426,4400.512695,0.000000,0.000000,6.000000,,,,0.000000,2.000000,2.000000,0.000000,2.000000,2.000000,2.000000,0.000000,2.000000,4.000000,4.000000,4.000000,4.000000,2.000000,4.000000,16.666666,,,,,,,,,,,,,,,,,,,,,,,,,,,,
1732083384.954076,1732083384.956620,59.000000,0.000000,4313.974121,4297.179688,4327.051270,4325.128418,4324.102539,4304.230957,4333.846191,4319.743652,4315.384766,4308.205078,4445.000000,4474.743652,4360.128418,4404.743652,0.000000,0.000000,6.000000,,,,0.000000,2.000000,2.000000,0.000000,2.000000,2.000000,2.000000,0.000000,2.000000,4.000000,4.000000,4.000000,4.000000,2.000000,4.000000,16.666666,,,,,,,,,,,,,,,,,,,,,,,,,,,,
1732083384.961884,1732083384.964328,60.000000,0.000000,4312.820313,4294.743652,4327.563965,4318.717773,4305.897461,4313.461426,4336.794922,4334.487305,4325.641113,4328.077148,4452.948730,4478.205078,4364.487305,4414.871582,0.000000,0.000000,6.000000,,,,0.000000,2.000000,2.000000,0.000000,2.000000,2.000000,2.000000,0.000000,2.000000,4.000000,4.000000,4.000000,4.000000,2.000000,4.000000,16.666666,,,,,,,,,,,,,,,,,15.000000,0.000000,0.564066,0.384399,-0.647644,0.338562,0.973263,0.010255,-0.136247,-78.102081,55.468212,22.377550
1732083384.969692,1732083384.972136,61.000000,0.000000,4309.102539,4291.794922,4326.153809,4316.922852,4309.230957,4314.358887,4336.153809,4345.256348,4336.666504,4332.563965,4452.051270,4474.871582,4364.487305,4410.384766,0.000000,0.000000,6.000000,,,,0.000000,2.000000,2.000000,0.000000,2.000000,2.000000,2.000000,0.000000,2.000000,4.000000,4.000000,4.000000,4.000000,2.000000,4.000000,16.666666,,,,,,,,,,,,,,,,,,,,,,,,,,,,
1732083384.977500,1732083384.979745,62.000000,0.000000,4310.641113,4293.589844,4325.128418,4319.615234,4314.230957,4303.333496,4331.666504,4335.897461,4333.717773,4315.256348,4449.871582,4475.256348,4364.230957,4405.512695,0.000000,0.000000,6.000000,,,,0.000000,2.000000,2.000000,0.000000,2.000000,2.000000,2.000000,0.000000,2.000000,4.000000,4.000000,4.000000,4.000000,2.000000,4.000000,16.666666,,,,,,,,,,,,,,,,,,,,,,,,,,,,
1732083384.985309,1732083384.987553,63.000000,0.000000,4315.897461,4296.153809,4326.410156,4322.948730,4310.769043,4306.153809,4331.538574,4324.358887,4320.384766,4306.410156,4449.487305,4473.077148,4365.000000,4409.871582,0.000000,0.000000,6.000000,,,,0.000000,2.000000,2.000000,0.000000,2.000000,2.000000,2.000000,0.000000,2.000000,4.000000,4.000000,4.000000,4.000000,2.000000,4.000000,16.666666,,,,,,,,,,,,,,,,,,,,,,,,,,,,
1732083384.993117,1732083384.995261,64.000000,0.000000,4314.102539,4296.922852,4325.897461,4323.846191,4318.205078,4311.666504,4332.436035,4322.820313,4310.769043,4303.846191,4441.666504,4463.205078,4357.051270,4406.282227,0.000000,0.000000,6.000000,,,,0.000000,2.000000,2.000000,0.000000,2.000000,2.000000,2.000000,0.000000,2.000000,4.000000,4.000000,4.000000,4.000000,2.000000,4.000000,16.666666,,,,,,,,,,,,,,,,,16.000000,0.000000,0.564066,0.384399,-0.647644,0.338562,0.969845,0.011720,-0.139665,-78.216019,55.250919,22.222483
1732083385.000925,1732083385.003069,65.000000,0.000000,4306.922852,4289.487305,4324.358887,4317.051270,4313.205078,4304.615234,4335.000000,4329.487305,4319.230957,4308.974121,4439.871582,4463.205078,4355.384766,4399.615234,1317.000000,0.000000,6.000000,,,,0.000000,2.000000,2.000000,0.000000,2.000000,2.000000,2.000000,0.000000,2.000000,4.000000,4.000000,4.000000,4.000000,2.000000,4.000000,16.666666,,,,,,,,,,,,,,,,,,,,,,,,,,,,
1732083385.008733,1732083385.011077,66.000000,0.000000,4305.128418,4285.769043,4322.051270,4313.461426,4307.692383,4301.666504,4333.333496,4333.589844,4326.410156,4316.922852,4447.307617,4472.307617,4362.179688,4402.436035,1244.000000,0.000000,6.000000,,,,0.000000,2.000000,2.000000,0.000000,2.000000,2.000000,2.000000,0.000000,2.000000,4.000000,4.000000,4.000000,4.000000,2.000000,4.000000,16.666666,,,,,,,,,,,,,,,,,,,,,,,,,,,,
1732083385.016542,1732083385.018886,67.000000,0.000000,4309.230957,4292.436035,4322.948730,4317.563965,4322.948730,4305.000000,4332.563965,4332.307617,4319.743652,4309.230957,4445.769043,4475.512695,4356.538574,4402.179688,1199.000000,0.000000,6.000000,,,,0.000000,2.000000,2.000000,0.000000,2.000000,2.000000,2.000000,0.000000,2.000000,4.000000,4.000000,4.000000,4.000000,2.000000,4.000000,16.666666,,,,,,,,,,,,,,,,,,,,,,,,,,,,
1732083385.024350,1732083385.026794,68.000000,0.000000,4308.974121,4292.948730,4323.589844,4317.436035,4317.820313,4308.461426,4335.897461,4336.538574,4324.358887,4306.153809,4441.282227,4469.487305,4347.948730,4395.000000,1207.000000,0.000000,6.000000,,,,0.000000,2.000000,2.000000,0.000000,2.000000,2.000000,2.000000,0.000000,2.000000,4.000000,4.000000,4.000000,4.000000,2.000000,4.000000,16.666666,,,,,,,,,,,,,,,,,17.000000,0.000000,0.563571,0.384155,-0.647644,0.339661,0.975705,-0.002442,-0.125015,-78.396645,55.354912,22.193544
1732083385.032158,1732083385.034602,69.000000,0.000000,4304.102539,4288.205078,4323.077148,4314.871582,4296.410156,4312.436035,4338.974121,4335.128418,4329.615234,4318.461426,4444.871582,4465.256348,4352.436035,4395.512695,1082.000000,0.000000,6.000000,,,,0.000000,2.000000,2.000000,0.000000,2.000000,2.000000,2.000000,0.000000,2.000000,4.000000,4.000000,4.000000,4.000000,2.000000,4.000000,16.666666,,,,,,,,,,,,,,,,,,,,,,,,,,,,
1732083385.039966,1732083385.042210,70.000000,0.000000,4304.743652,4291.410156,4322.692383,4317.436035,4301.794922,4312.563965,4334.230957,4325.769043,4319.871582,4316.282227,4446.922852,4465.000000,4357.692383,4401.794922,3.000000,0.000000,6.000000,,,,0.000000,2.000000,2.000000,0.000000,2.000000,2.000000,2.000000,0.000000,2.000000,4.000000,4.000000,4.000000,4.000000,2.000000,4.000000,16.666666,,,,,,,,,,,,,,,,,,,,,,,,,,,,
1732083385.047775,1732083385.050019,71.000000,0.000000,4306.794922,4294.871582,4323.077148,4318.461426,4316.794922,4310.641113,4334.358887,4328.589844,4319.487305,4302.179688,4445.000000,4464.102539,4355.000000,4398.333496,1174.000000,0.000000,6.000000,,,,0.000000,2.000000,2.000000,0.000000,2.000000,2.000000,2.000000,0.000000,2.000000,4.000000,4.000000,4.000000,4.000000,2.000000,4.000000,16.666666,,,,,,,,,,,,,,,,,,,,,,,,,,,,
1732083385.055583,1732083385.057727,72.000000,0.000000,4306.410156,4295.641113,4323.846191,4318.077148,4308.333496,4313.333496,4338.974121,4335.512695,4327.307617,4306.153809,4443.461426,4462.179688,4354.487305,4393.077148,1369.000000,0.000000,6.000000,,,,0.000000,2.000000,2.000000,0.000000,2.000000,2.000000,2.000000,0.000000,2.000000,4.000000,4.000000,4.000000,4.000000,2.000000,4.000000,16.666666,,,,,,,,,,,,,,,,,18.000000,0.000000,0.562939,0.384460,-0.647339,0.340942,0.973263,-0.020999,-0.130387,-78.426285,55.302479,22.058437
1732083385.063391,1732083385.065535,73.000000,0.000000,4309.102539,4298.205078,4326.666504,4322.307617,4309.743652,4308.717773,4337.179688,4330.000000,4322.692383,4310.000000,4446.282227,4460.256348,4359.743652,4396.153809,1516.000000,0.000000,6.000000,,,,0.000000,2.000000,2.000000,0.000000,2.000000,2.000000,2.000000,0.000000,2.000000,4.000000,4.000000,4.000000,4.000000,2.000000,4.000000,16.666666,,,,,,,,,,,,,,,,,,,,,,,,,,,,
1732083385.071200,1732083385.073144,74.000000,0.000000,4310.897461,4296.153809,4326.282227,4322.051270,4327.948730,4301.922852,4332.692383,4327.436035,4319.615234,4297.563965,4445.641113,4460.897461,4356.025879,4396.538574,1386.000000,0.000000,6.000000,,,,0.000000,2.000000,2.000000,0.000000,2.000000,2.000000,2.000000,0.000000,2.000000,4.000000,4.000000,4.000000,4.000000,2.000000,4.000000,16.666666,,,,,,,,,,,,,,,,,,,,,,,,,,,,
1732083385.079008,1732083385.080952,75.000000,0.000000,4303.077148,4293.077148,4323.846191,4315.769043,4319.743652,4308.589844,4334.743652,4335.256348,4328.846191,4296.666504,4441.538574,4459.230957,4346.538574,4392.179688,1518.000000,0.000000,6.000000,,,,0.000000,2.000000,2.000000,0.000000,2.000000,2.000000,2.000000,0.000000,2.000000,4.000000,4.000000,4.000000,4.000000,2.000000,4.000000,16.666666,,,,,,,,,,,,,,,,,,,,,,,,,,,,
1732083385.086816,1732083385.088860,76.000000,0.000000,4302.051270,4294.743652,4323.974121,4316.282227,4302.307617,4312.563965,4340.128418,4336.794922,4334.615234,4314.102539,4448.846191,4458.974121,4353.333496,4396.025879,1746.000000,0.000000,6.000000,,,,0.000000,2.000000,2.000000,0.000000,2.000000,2.000000,2.000000,0.000000,2.000000,4.000000,4.000000,4.000000,4.000000,2.000000,4.000000,16.666666,,,,,,,,,,,,,,,,,19.000000,0.000000,0.562202,0.385071,-0.646973,0.342163,0.963985,-0.014650,-0.122085,-78.378624,55.095009,21.955667
1732083385.094624,1732083385.096668,77.000000,0.000000,4310.128418,4297.179688,4325.384766,4322.820313,4304.743652,4310.641113,4339.871582,4334.871582,4329.102539,4317.820313,4457.692383,4468.205078,4364.230957,4402.179688,1593.000000,0.000000,6.000000,,,,0.000000,2.000000,2.000000,0.000000,2.000000,2.000000,2.000000,0.000000,2.000000,4.000000,4.000000,4.000000,4.000000,2.000000,4.000000,16.666666,,,,,,,,,,,,,,,,,,,,,,,,,,,,
1732083385.102433,1732083385.104676,78.000000,0.000000,4308.077148,4295.256348,4322.820313,4318.589844,4320.000000,4310.641113,4337.436035,4335.256348,4321.666504,4304.487305,4451.922852,4475.512695,4355.641113,4401.666504,1386.000000,0.000000,6.000000,,,,0.000000,2.000000,2.000000,0.000000,2.000000,2.000000,2.000000,0.000000,2.000000,4.000000,4.000000,4.000000,4.000000,2.000000,4.000000,16.666666,1.000000,16.666666,2.000000,2.000000,0.000000,2.000000,2.000000,2.000000,0.000000,2.000000,4.000000,4.000000,4.000000,4.000000,2.000000,4.000000,,,,,,,,,,,,
1732083385.110241,1732083385.112484,79.000000,0.000000,4304.487305,4294.871582,4320.512695,4310.897461,4322.820313,4308.974121,4334.102539,4333.333496,4321.794922,4300.384766,4442.051270,4468.333496,4346.666504,4402.307617,1518.000000,0.000000,6.000000,,,,0.000000,2.000000,2.000000,0.000000,2.000000,2.000000,2.000000,0.000000,2.000000,4.000000,4.000000,4.000000,4.000000,2.000000,4.000000,16.666666,,,,,,,,,,,,,,,,,,,,,,,,,,,,
1732083385.118049,1732083385.120392,80.000000,0.000000,4308.589844,4295.256348,4322.692383,4313.589844,4308.589844,4308.846191,4337.436035,4336.922852,4324.487305,4306.025879,4446.410156,4460.641113,4351.922852,4405.000000,1746.000000,0.000000,6.000000,,,,0.000000,2.000000,2.000000,0.000000,2.000000,2.000000,2.000000,0.000000,2.000000,4.000000,4.000000,4.000000,4.000000,2.000000,4.000000,16.666666,,,,,,,,,,,,,,,,,20.000000,0.000000,0.562202,0.385071,-0.646973,0.342163,0.963985,-0.014650,-0.122085,-78.325020,54.911957,21.977425
1732083385.125857,1732083385.128201,81.000000,0.000000,4310.128418,4293.461426,4323.717773,4315.384766,4303.589844,4313.461426,4339.102539,4340.641113,4323.205078,4304.358887,4453.461426,4467.692383,4353.205078,4405.256348,1593.000000,0.000000,6.000000,,,,0.000000,2.000000,2.000000,0.000000,2.000000,2.000000,2.000000,0.000000,2.000000,4.000000,4.000000,4.000000,4.000000,2.000000,4.000000,16.666666,,,,,,,,,,,,,,,,,,,,,,,,,,,,
1732083385.133666,1732083385.135809,82.000000,0.000000,4307.051270,4293.205078,4323.717773,4310.256348,4307.307617,4314.358887,4339.230957,4336.538574,4323.333496,4300.897461,4451.282227,4474.615234,4348.461426,4401.410156,1386.000000,0.000000,6.000000,,,,0.000000,2.000000,2.000000,0.000000,2.000000,2.000000,2.000000,0.000000,2.000000,4.000000,4.000000,4.000000,4.000000,2.000000,4.000000,16.666666,,,,,,,,,,,,,,,,,,,,,,,,,,,,
1732083385.141474,1732083385.143617,83.000000,0.000000,4307.307617,4294.487305,4321.922852,4311.922852,4312.692383,4308.205078,4338.077148,4333.077148,4329.743652,4307.692383,4452.179688,4471.666504,4348.333496,4396.410156,1518.000000,0.000000,6.000000,,,,0.000000,2.000000,2.000000,0.000000,2.000000,2.000000,2.000000,0.000000,2.000000,4.000000,4.000000,4.000000,4.000000,2.000000,4.000000,16.666666,,,,,,,,,,,,,,,,,,,,,,,,,,,,
1732083385.149282,1732083385.151326,84.000000,0.000000,4308.461426,4295.128418,4322.692383,4318.461426,4323.846191,4308.333496,4337.948730,4334.230957,4329.102539,4312.051270,4459.615234,4471.282227,4351.538574,4395.769043,1746.000000,0.000000,6.000000,,,,0.000000,2.000000,2.000000,0.000000,2.000000,2.000000,2.000000,0.000000,2.000000,4.000000,4.000000,4.000000,4.000000,2.000000,4.000000,16.666666,,,,,,,,,,,,,,,,,21.000000,0.000000,0.561871,0.384583,-0.647034,0.343140,0.991332,-0.015139,-0.132340,-78.341599,54.792019,21.965048
1732083385.157091,1732083385.159134,85.000000,0.000000,4305.897461,4292.948730,4323.077148,4315.512695,4324.487305,4315.897461,4337.692383,4336.025879,4326.153809,4308.077148,4460.769043,4474.102539,4353.333496,4397.307617,1593.000000,0.000000,6.000000,,,,0.000000,2.000000,2.000000,0.000000,2.000000,2.000000,2.000000,0.000000,2.000000,4.000000,4.000000,4.000000,4.000000,2.000000,4.000000,16.666666,,,,,,,,,,,,,,,,,,,,,,,,,,,,
1732083385.164899,1732083385.166742,86.000000,0.000000,4306.794922,4293.461426,4322.436035,4313.077148,4302.563965,4314.230957,4339.102539,4336.025879,4331.282227,4311.153809,4457.692383,4468.974121,4355.000000,4399.743652,1386.000000,0.000000,6.000000,,,,0.000000,2.000000,2.000000,0.000000,2.000000,2.000000,2.000000,0.000000,2.000000,4.000000,4.000000,4.000000,4.000000,2.000000,4.000000,16.666666,,,,,,,,,,,,,,,,,,,,,,,,,,,,
1732083385.172707,1732083385.174550,87.000000,0.000000,4310.641113,4297.179688,4321.282227,4319.487305,4299.615234,4308.717773,4338.205078,4333.717773,4332.820313,4315.641113,4459.615234,4465.000000,4357.051270,4402.692383,1518.000000,0.000000,6.000000,,,,0.000000,2.000000,2.000000,0.000000,2.000000,2.000000,2.000000,0.000000,2.000000,4.000000,4.000000,4.000000,4.000000,2.000000,4.000000,16.666666,,,,,,,,,,,,,,,,,,,,,,,,,,,,
1732083385.180515,1732083385.182458,88.000000,0.000000,4307.051270,4291.410156,4322.948730,4318.077148,4317.179688,4313.974121,4336.922852,4334.743652,4327.563965,4306.666504,4458.205078,4466.410156,4354.487305,4401.922852,1746.000000,0.000000,6.000000,,,,0.000000,2.000000,2.000000,0.000000,2.000000,2.000000,2.000000,0.000000,2.000000,4.000000,4.000000,4.000000,4.000000,2.000000,4.000000,16.666666,,,,,,,,,,,,,,,,,22.000000,0.000000,0.561667,0.384033,-0.647278,0.343628,0.955195,-0.010255,-0.125992,-78.356697,54.649868,21.840021
1732083385.188324,1732083385.190267,89.000000,0.000000,4300.897461,4283.846191,4322.948730,4311.538574,4307.692383,4318.077148,4338.077148,4341.666504,4329.358887,4301.282227,4452.820313,4467.179688,4349.615234,4395.256348,1593.000000,0.000000,6.000000,,,,0.000000,2.000000,2.000000,0.000000,2.000000,2.000000,2.000000,0.000000,2.000000,4.000000,4.000000,4.000000,4.000000,2.000000,4.000000,16.666666,,,,,,,,,,,,,,,,,,,,,,,,,,,,
1732083385.196132,1732083385.198275,90.000000,0.000000,4302.820313,4290.000000,4322.692383,4313.333496,4308.717773,4305.769043,4340.384766,4334.102539,4329.615234,4310.256348,4451.666504,4468.717773,4349.487305,4395.128418,1386.000000,0.000000,6.000000,,,,0.000000,2.000000,2.000000,0.000000,2.000000,2.000000,2.000000,0.000000,2.000000,4.000000,4.000000,4.000000,4.000000,2.000000,4.000000,16.666666,,,,,,,,,,,,,,,,,,,,,,,,,,,,
1732083385.203940,1732083385.206083,91.000000,0.000000,4307.307617,4299.230957,4323.589844,4315.769043,4328.205078,4300.256348,4338.974121,4323.205078,4325.128418,4316.282227,4454.358887,4471.410156,4353.846191,4399.358887,1518.000000,0.000000,6.000000,,,,0.000000,2.000000,2.000000,0.000000,2.000000,2.000000,2.000000,0.000000,2.000000,4.000000,4.000000,4.000000,4.000000,2.000000,4.000000,16.666666,,,,,,,,,,,,,,,,,,,,,,,,,,,,
1732083385.211748,1732083385.213991,92.000000,0.000000,4303.077148,4293.333496,4322.692383,4310.641113,4314.615234,4307.692383,4335.256348,4331.794922,4327.820313,4315.512695,4456.538574,4471.538574,4353.846191,4396.410156,1746.000000,0.000000,6.000000,,,,0.000000,2.000000,2.000000,0.000000,2.000000,2.000000,2.000000,0.000000,2.000000,4.000000,4.000000,4.000000,4.000000,2.000000,4.000000,16.666666,,,,,,,,,,,,,,,,,23.000000,0.000000,0.561651,0.383789,-0.647339,0.343811,0.955195,-0.010255,-0.125992,-78.490585,54.759727,21.733751
1732083385.219557,1732083385.221799,93.000000,0.000000,4299.615234,4285.641113,4320.384766,4309.743652,4297.436035,4306.025879,4337.563965,4336.282227,4328.589844,4313.589844,4456.025879,4472.436035,4355.641113,4392.563965,1593.000000,0.000000,6.000000,,,,0.000000,2.000000,2.000000,0.000000,2.000000,2.000000,2.000000,0.000000,2.000000,4.000000,4.000000,4.000000,4.000000,2.000000,4.000000,16.666666,,,,,,,,,,,,,,,,,,,,,,,,,,,,
1732083385.227365,1732083385.229807,94.000000,0.000000,4301.282227,4290.128418,4320.641113,4314.871582,4308.846191,4303.717773,4341.153809,4326.922852,4322.948730,4314.358887,4456.538574,4469.871582,4361.153809,4393.717773,1386.000000,0.000000,6.000000,,,,0.000000,2.000000,2.000000,0.000000,2.000000,2.000000,2.000000,0.000000,2.000000,4.000000,4.000000,4.000000,4.000000,2.000000,4.000000,16.666666,,,,,,,,,,,,,,,,,,,,,,,,,,,,
1732083385.235173,1732083385.237615,95.000000,0.000000,4303.461426,4297.563965,4322.307617,4315.641113,4316.666504,4308.205078,4337.307617,4321.922852,4318.974121,4313.974121,4459.615234,4461.410156,4359.871582,4398.333496,1518.000000,0.000000,6.000000,,,,0.000000,2.000000,2.000000,0.000000,2.000000,2.000000,2.000000,0.000000,2.000000,4.000000,4.000000,4.000000,4.000000,2.000000,4.000000,16.666666,,,,,,,,,,,,,,,,,,,,,,,,,,,,
1732083385.242981,1732083385.245524,96.000000,0.000000,4305.000000,4295.128418,4321.282227,4314.230957,4310.384766,4309.102539,4333.846191,4324.102539,4317.179688,4308.974121,4461.025879,4463.205078,4356.410156,4398.846191,1746.000000,0.000000,6.000000,,,,0.000000,2.000000,2.000000,0.000000,2.000000,2.000000,2.000000,0.000000,2.000000,4.000000,4.000000,4.000000,4.000000,2.000000,4.000000,16.666666,,,,,,,,,,,,,,,,,24.000000,0.000000,0.562048,0.382996,-0.647400,0.343933,0.967892,-0.031254,-0.127457,-78.494041,54.640377,21.764338
1732083385.250790,1732083385.253332,97.000000,0.000000,4303.077148,4286.538574,4323.205078,4313.205078,4309.102539,4311.410156,4342.692383,4328.846191,4319.871582,4307.948730,4458.717773,4474.230957,4355.769043,4397.948730,1593.000000,0.000000,6.000000,,,,0.000000,2.000000,2.000000,0.000000,2.000000,2.000000,2.000000,0.000000,2.000000,4.000000,4.000000,4.000000,4.000000,2.000000,4.000000,16.666666,,,,,,,,,,,,,,,,,,,,,,,,,,,,
1732083385.258598,1732083385.261340,98.000000,0.000000,4302.563965,4288.461426,4322.436035,4313.077148,4317.051270,4311.922852,4342.179688,4333.589844,4325.128418,4309.743652,4459.102539,4475.384766,4356.410156,4402.692383,1386.000000,0.000000,6.000000,,,,0.000000,2.000000,2.000000,0.000000,2.000000,2.000000,2.000000,0.000000,2.000000,4.000000,4.000000,4.000000,4.000000,2.000000,4.000000,16.666666,,,,,,,,,,,,,,,,,,,,,,,,,,,,
1732083385.266406,1732083385.269148,99.000000,0.000000,4306.282227,4298.717773,4321.282227,4317.436035,4325.512695,4303.461426,4336.153809,4329.871582,4321.282227,4305.128418,4460.897461,4471.282227,4357.692383,4405.512695,1518.000000,0.000000,6.000000,,,,0.000000,2.000000,2.000000,0.000000,2.000000,2.000000,2.000000,0.000000,2.000000,4.000000,4.000000,4.000000,4.000000,2.000000,4.000000,16.666666,,,,,,,,,,,,,,,,,,,,,,,,,,,,
1732083385.274214,1732083385.276856,100.000000,0.000000,4310.512695,4298.974121,4323.974121,4322.436035,4320.000000,4302.692383,4338.077148,4325.641113,4316.922852,4307.179688,4459.102539,4473.974121,4359.230957,4404.487305,1746.000000,0.000000,6.000000,,,,0.000000,2.000000,2.000000,0.000000,2.000000,2.000000,2.000000,0.000000,2.000000,4.000000,4.000000,4.000000,4.000000,2.000000,4.000000,16.666666,,,,,,,,,,,,,,,,,25.000000,0.000000,0.562429,0.382813,-0.647339,0.343628,0.977658,-0.023929,-0.121109,-78.396843,54.727039,21.639114
1732083385.282023,1732083385.284664,101.000000,0.000000,4309.102539,4290.256348,4327.051270,4320.897461,4304.487305,4312.307617,4342.307617,4330.256348,4321.922852,4313.846191,4455.000000,4478.205078,4355.512695,4401.666504,1593.000000,0.000000,6.000000,,,,0.000000,2.000000,2.000000,0.000000,2.000000,2.000000,2.000000,0.000000,2.000000,4.000000,4.000000,4.000000,4.000000,2.000000,4.000000,16.666666,,,,,,,,,,,,,,,,,,,,,,,,,,,,
1732083385.289831,1732083385.292672,102.000000,0.000000,4305.128418,4290.384766,4323.589844,4317.307617,4311.538574,4312.051270,4338.333496,4334.743652,4323.717773,4305.512695,4452.820313,4476.794922,4350.769043,4398.461426,1386.000000,0.000000,6.000000,,,,0.000000,2.000000,2.000000,0.000000,2.000000,2.000000,2.000000,0.000000,2.000000,4.000000,4.000000,4.000000,4.000000,2.000000,4.000000,16.666666,,,,,,,,,,,,,,,,,,,,,,,,,,,,
1732083385.297639,1732083385.300481,103.000000,0.000000,4306.282227,4297.692383,4324.615234,4318.077148,4318.846191,4309.743652,4339.102539,4334.487305,4321.922852,4300.641113,4456.538574,4475.769043,4353.589844,4398.974121,1518.000000,0.000000,6.000000,,,,0.000000,2.000000,2.000000,0.000000,2.000000,2.000000,2.000000,0.000000,2.000000,4.000000,4.000000,4.000000,4.000000,2.000000,4.000000,16.666666,,,,,,,,,,,,,,,,,,,,,,,,,,,,
1732083385.305447,1732083385.308389,104.000000,0.000000,4311.666504,4298.077148,4329.358887,4319.615234,4311.153809,4310.512695,4341.666504,4329.102539,4322.051270,4313.333496,4459.230957,4478.205078,4358.077148,4404.487305,1746.000000,0.000000,6.000000,,,,0.000000,2.000000,2.000000,0.000000,2.000000,2.000000,2.000000,0.000000,2.000000,4.000000,4.000000,4.000000,4.000000,2.000000,4.000000,16.666666,,,,,,,,,,,,,,,,,26.000000,0.000000,0.562578,0.382751,-0.647278,0.343567,0.961055,-0.010743,-0.123062,-78.384773,54.810570,21.771015
1732083385.313256,1732083385.316197,105.000000,0.000000,4307.948730,4293.077148,4326.666504,4315.128418,4318.461426,4307.563965,4338.077148,4326.538574,4320.641113,4313.205078,4452.436035,4478.461426,4355.000000,4403.461426,1593.000000,0.000000,6.000000,,,,0.000000,2.000000,2.000000,0.000000,2.000000,2.000000,2.000000,0.000000,2.000000,4.000000,4.000000,4.000000,4.000000,2.000000,4.000000,16.666666,,,,,,,,,,,,,,,,,,,,,,,,,,,,
1732083385.321064,1732083385.323805,106.000000,0.000000,4298.589844,4290.512695,4321.153809,4311.922852,4322.563965,4310.000000,4337.307617,4334.358887,4318.974121,4304.487305,4449.487305,4474.230957,4348.589844,4395.769043,1386.000000,0.000000,6.000000,,,,0.000000,2.000000,2.000000,0.000000,2.000000,2.000000,2.000000,0.000000,2.000000,4.000000,4.000000,4.000000,4.000000,2.000000,4.000000,16.666666,,,,,,,,,,,,,,,,,,,,,,,,,,,,
1732083385.328872,1732083385.331614,107.000000,0.000000,4302.436035,4293.717773,4322.436035,4316.282227,4307.436035,4312.820313,4340.769043,4333.205078,4316.538574,4306.922852,4453.333496,4471.666504,4349.615234,4396.538574,1518.000000,0.000000,6.000000,,,,0.000000,2.000000,2.000000,0.000000,2.000000,2.000000,2.000000,0.000000,2.000000,4.000000,4.000000,4.000000,4.000000,2.000000,4.000000,16.666666,,,,,,,,,,,,,,,,,,,,,,,,,,,,
1732083385.336681,1732083385.339322,108.000000,0.000000,4306.282227,4295.641113,4324.487305,4315.512695,4303.205078,4310.641113,4340.512695,4328.077148,4315.897461,4306.282227,4451.282227,4473.077148,4352.179688,4398.461426,1746.000000,0.000000,6.000000,,,,0.000000,2.000000,2.000000,0.000000,2.000000,2.000000,2.000000,0.000000,2.000000,4.000000,4.000000,4.000000,4.000000,2.000000,4.000000,16.666666,,,,,,,,,,,,,,,,,27.000000,0.000000,0.563200,0.382385,-0.647278,0.342957,0.965938,-0.001465,-0.123550,-78.406670,54.909893,21.656189
1732083385.344489,1732083385.347130,109.000000,0.000000,4297.179688,4290.641113,4323.077148,4307.948730,4313.205078,4312.820313,4336.922852,4335.512695,4320.384766,4299.871582,4443.974121,4476.153809,4347.820313,4394.487305,1593.000000,0.000000,6.000000,,,,0.000000,2.000000,2.000000,0.000000,2.000000,2.000000,2.000000,0.000000,2.000000,4.000000,4.000000,4.000000,4.000000,2.000000,4.000000,16.666666,,,,,,,,,,,,,,,,,,,,,,,,,,,,
1732083385.352297,1732083385.354739,110.000000,0.000000,4296.410156,4288.974121,4322.307617,4307.948730,4313.717773,4313.846191,4338.205078,4335.128418,4320.897461,4300.897461,4446.153809,4476.922852,4345.897461,4395.384766,1386.000000,0.000000,6.000000,,,,0.000000,2.000000,2.000000,0.000000,2.000000,2.000000,2.000000,0.000000,2.000000,4.000000,4.000000,4.000000,4.000000,2.000000,4.000000,16.666666,,,,,,,,,,,,,,,,,,,,,,,,,,,,
1732083385.360105,1732083385.362547,111.000000,0.000000,4307.948730,4293.205078,4323.589844,4312.436035,4304.487305,4309.487305,4338.846191,4322.436035,4318.205078,4307.563965,4452.820313,4475.769043,4351.025879,4399.615234,1518.000000,0.000000,6.000000,,,,0.000000,2.000000,2.000000,0.000000,2.000000,2.000000,2.000000,0.000000,2.000000,4.000000,4.000000,4.000000,4.000000,2.000000,4.000000,16.666666,,,,,,,,,,,,,,,,,,,,,,,,,,,,
1732083385.367914,1732083385.370255,112.000000,0.000000,4306.153809,4292.307617,4326.025879,4309.230957,4310.512695,4308.333496,4337.948730,4323.717773,4320.384766,4308.974121,4448.461426,4480.769043,4349.871582,4395.641113,1746.000000,0.000000,6.000000,,,,0.000000,2.000000,2.000000,0.000000,2.000000,2.000000,2.000000,0.000000,2.000000,4.000000,4.000000,4.000000,4.000000,2.000000,4.000000,16.666666,,,,,,,,,,,,,,,,,28.000000,0.000000,0.564005,0.381958,-0.647217,0.342224,0.948358,-0.014650,-0.124039,-78.241066,54.873680,21.688179
1732083385.375722,1732083385.378063,113.000000,0.000000,4297.179688,4288.589844,4325.769043,4307.563965,4321.922852,4306.922852,4336.025879,4334.358887,4323.333496,4306.153809,4442.563965,4489.871582,4342.179688,4391.153809,1593.000000,0.000000,6.000000,,,,0.000000,2.000000,2.000000,0.000000,2.000000,2.000000,2.000000,0.000000,2.000000,4.000000,4.000000,4.000000,4.000000,2.000000,4.000000,16.666666,,,,,,,,,,,,,,,,,,,,,,,,,,,,
1732083385.383530,1732083385.385672,114.000000,0.000000,4298.077148,4287.948730,4324.743652,4307.948730,4309.743652,4302.563965,4338.974121,4333.333496,4320.897461,4306.153809,4445.128418,4491.794922,4340.769043,4391.922852,1386.000000,0.000000,6.000000,,,,0.000000,2.000000,2.000000,0.000000,2.000000,2.000000,2.000000,0.000000,2.000000,4.000000,4.000000,4.000000,4.000000,2.000000,4.000000,16.666666,,,,,,,,,,,,,,,,,,,,,,,,,,,,
1732083385.391338,1732083385.393480,115.000000,0.000000,4301.282227,4289.871582,4322.692383,4306.666504,4290.512695,4306.538574,4339.358887,4327.436035,4319.102539,4309.487305,4449.615234,4487.563965,4343.846191,4392.692383,1518.000000,0.000000,6.000000,,,,0.000000,2.000000,2.000000,0.000000,2.000000,2.000000,2.000000,0.000000,2.000000,4.000000,4.000000,4.000000,4.000000,2.000000,4.000000,16.666666,,,,,,,,,,,,,,,,,,,,,,,,,,,,
1732083385.399147,1732083385.401188,116.000000,0.000000,4303.717773,4294.743652,4324.358887,4313.846191,4299.871582,4313.846191,4338.974121,4325.512695,4318.333496,4303.077148,4445.000000,4486.282227,4341.666504,4393.717773,1746.000000,0.000000,6.000000,,,,0.000000,2.000000,2.000000,0.000000,2.000000,2.000000,2.000000,0.000000,2.000000,4.000000,4.000000,4.000000,4.000000,2.000000,4.000000,16.666666,,,,,,,,,,,,,,,,,29.000000,0.000000,0.564338,0.381836,-0.647095,0.342041,0.989379,0.002930,-0.123062,-78.191933,54.756016,21.584093
1732083385.406955,1732083385.408996,117.000000,0.000000,4307.179688,4299.102539,4324.615234,4323.077148,4316.538574,4312.563965,4339.743652,4324.230957,4315.769043,4294.615234,4442.948730,4491.153809,4341.282227,4399.102539,1593.000000,0.000000,6.000000,,,,0.000000,2.000000,2.000000,0.000000,2.000000,2.000000,2.000000,0.000000,2.000000,4.000000,4.000000,4.000000,4.000000,2.000000,4.000000,16.666666,,,,,,,,,,,,,,,,,,,,,,,,,,,,
1732083385.414763,1732083385.416605,118.000000,0.000000,4306.410156,4295.897461,4323.205078,4317.563965,4310.641113,4308.205078,4342.051270,4327.820313,4318.589844,4303.333496,4453.333496,4495.641113,4349.102539,4402.436035,1386.000000,0.000000,6.000000,,,,0.000000,2.000000,2.000000,0.000000,2.000000,2.000000,2.000000,0.000000,2.000000,4.000000,4.000000,4.000000,4.000000,2.000000,4.000000,16.666666,,,,,,,,,,,,,,,,,,,,,,,,,,,,
1732083385.422572,1732083385.424413,119.000000,0.000000,4302.179688,4292.436035,4322.179688,4311.153809,4301.794922,4307.948730,4341.922852,4331.025879,4324.358887,4313.974121,4458.589844,4495.256348,4354.871582,4401.153809,1518.000000,0.000000,6.000000,,,,0.000000,2.000000,2.000000,0.000000,2.000000,2.000000,2.000000,0.000000,2.000000,4.000000,4.000000,4.000000,4.000000,2.000000,4.000000,16.666666,,,,,,,,,,,,,,,,,,,,,,,,,,,,
1732083385.430380,1732083385.432321,120.000000,0.000000,4301.282227,4294.615234,4324.615234,4313.589844,4312.436035,4306.922852,4340.641113,4327.948730,4322.179688,4311.025879,4449.871582,4490.256348,4348.205078,4396.794922,1746.000000,0.000000,6.000000,,,,0.000000,2.000000,2.000000,0.000000,2.000000,2.000000,2.000000,0.000000,2.000000,4.000000,4.000000,4.000000,4.000000,2.000000,4.000000,16.666666,,,,,,,,,,,,,,,,,30.000000,0.000000,0.564408,0.381836,-0.647034,0.342041,0.973752,-0.006837,-0.116225,-78.433800,54.577374,21.496449
1732083385.438188,1732083385.440129,121.000000,0.000000,4299.615234,4295.384766,4323.205078,4310.897461,4322.179688,4308.846191,4340.000000,4329.615234,4318.077148,4307.051270,4442.307617,4486.153809,4341.794922,4390.384766,1593.000000,0.000000,6.000000,,,,0.000000,2.000000,2.000000,0.000000,2.000000,2.000000,2.000000,0.000000,2.000000,4.000000,4.000000,4.000000,4.000000,2.000000,4.000000,16.666666,,,,,,,,,,,,,,,,,,,,,,,,,,,,
1732083385.445996,1732083385.447738,122.000000,0.000000,4297.948730,4294.358887,4319.871582,4307.948730,4308.205078,4316.538574,4340.384766,4337.307617,4322.692383,4314.102539,4446.153809,4489.102539,4346.410156,4388.461426,1386.000000,0.000000,6.000000,,,,0.000000,2.000000,2.000000,0.000000,2.000000,2.000000,2.000000,0.000000,2.000000,4.000000,4.000000,4.000000,4.000000,2.000000,4.000000,16.666666,,,,,,,,,,,,,,,,,,,,,,,,,,,,
1732083385.453805,1732083385.455546,123.000000,0.000000,4299.358887,4294.615234,4320.641113,4312.051270,4295.641113,4315.769043,4340.641113,4335.384766,4324.230957,4316.410156,4448.461426,4493.589844,4350.256348,4393.205078,1518.000000,0.000000,6.000000,,,,0.000000,2.000000,2.000000,0.000000,2.000000,2.000000,2.000000,0.000000,2.000000,4.000000,4.000000,4.000000,4.000000,2.000000,4.000000,16.666666,,,,,,,,,,,,,,,,,,,,,,,,,,,,
1732083385.461613,1732083385.463254,124.000000,0.000000,4299.871582,4295.641113,4321.410156,4313.974121,4300.128418,4310.256348,4341.922852,4334.102539,4322.820313,4310.256348,4445.512695,4493.846191,4345.384766,4393.974121,1746.000000,0.000000,6.000000,,,,0.000000,2.000000,2.000000,0.000000,2.000000,2.000000,2.000000,0.000000,2.000000,4.000000,4.000000,4.000000,4.000000,2.000000,4.000000,16.666666,,,,,,,,,,,,,,,,,31.000000,0.000000,0.564779,0.381104,-0.647400,0.341553,0.979612,-0.007325,-0.129410,-78.401375,54.846004,21.487123
1732083385.469421,1732083385.471062,125.000000,0.000000,4296.666504,4294.615234,4321.794922,4311.794922,4309.743652,4314.102539,4345.769043,4342.820313,4325.897461,4306.666504,4445.641113,4494.615234,4343.205078,4388.205078,1593.000000,0.000000,6.000000,,,,0.000000,2.000000,2.000000,0.000000,2.000000,2.000000,2.000000,0.000000,2.000000,4.000000,4.000000,4.000000,4.000000,2.000000,4.000000,16.666666,,,,,,,,,,,,,,,,,,,,,,,,,,,,
1732083385.477229,1732083385.478671,126.000000,0.000000,4295.769043,4294.230957,4323.846191,4313.205078,4325.000000,4312.948730,4342.563965,4337.051270,4320.384766,4309.615234,4446.666504,4494.487305,4345.897461,4385.128418,1386.000000,0.000000,6.000000,,,,0.000000,2.000000,2.000000,0.000000,2.000000,2.000000,2.000000,0.000000,2.000000,4.000000,4.000000,4.000000,4.000000,2.000000,4.000000,16.666666,,,,,,,,,,,,,,,,,,,,,,,,,,,,
1732083385.485038,1732083385.486479,127.000000,0.000000,4297.563965,4297.179688,4325.256348,4313.974121,4321.538574,4304.743652,4339.102539,4321.922852,4310.512695,4312.948730,4443.846191,4490.256348,4346.794922,4386.538574,6.000000,0.000000,6.000000,,,,0.000000,2.000000,2.000000,0.000000,2.000000,2.000000,2.000000,0.000000,2.000000,4.000000,4.000000,4.000000,4.000000,2.000000,4.000000,16.666666,,,,,,,,,,,,,,,,,,,,,,,,,,,,
1732083385.492846,1732083385.494187,0.000000,0.000000,4296.410156,4293.077148,4321.794922,4308.974121,4296.282227,4305.769043,4340.769043,4329.358887,4319.487305,4310.512695,4445.897461,4490.769043,4345.641113,4385.769043,0.000000,0.000000,6.000000,,,,0.000000,2.000000,2.000000,0.000000,2.000000,2.000000,2.000000,0.000000,2.000000,4.000000,4.000000,4.000000,4.000000,2.000000,4.000000,16.666666,,,,,,,,,,,,,,,,,0.000000,0.000000,0.564836,0.380920,-0.647522,0.341431,0.976682,-0.011720,-0.128434,-78.628448,54.833595,21.392902
1732083385.500654,1732083385.501996,1.000000,0.000000,4295.641113,4287.051270,4320.256348,4306.666504,4293.589844,4305.512695,4342.692383,4345.256348,4331.153809,4306.666504,4455.128418,4494.871582,4342.820313,4385.897461,1324.000000,0.000000,6.000000,,,,0.000000,2.000000,2.000000,0.000000,2.000000,2.000000,2.000000,0.000000,2.000000,4.000000,4.000000,4.000000,4.000000,2.000000,4.000000,16.666666,,,,,,,,,,,,,,,,,,,,,,,,,,,,
1732083385.508462,1732083385.510004,2.000000,0.000000,4302.820313,4291.538574,4323.077148,4310.641113,4311.282227,4302.307617,4339.615234,4339.743652,4323.461426,4307.436035,4456.922852,4491.025879,4343.717773,4392.051270,1249.000000,0.000000,6.000000,,,,0.000000,2.000000,2.000000,0.000000,2.000000,2.000000,2.000000,0.000000,2.000000,4.000000,4.000000,4.000000,4.000000,2.000000,4.000000,16.666666,,,,,,,,,,,,,,,,,,,,,,,,,,,,
1732083385.516271,1732083385.517812,3.000000,0.000000,4305.128418,4294.487305,4325.769043,4309.615234,4307.179688,4310.256348,4342.948730,4325.897461,4316.025879,4312.692383,4453.589844,4487.436035,4350.512695,4395.769043,1199.000000,0.000000,6.000000,,,,0.000000,2.000000,2.000000,0.000000,2.000000,2.000000,2.000000,0.000000,2.000000,4.000000,4.000000,4.000000,4.000000,2.000000,4.000000,16.666666,,,,,,,,,,,,,,,,,,,,,,,,,,,,
1732083385.524079,1732083385.525720,4.000000,0.000000,4298.589844,4288.717773,4323.333496,4302.051270,4296.282227,4312.436035,4343.846191,4323.717773,4318.461426,4315.128418,4456.410156,4490.384766,4352.948730,4395.256348,1204.000000,0.000000,6.000000,,,,0.000000,2.000000,2.000000,0.000000,2.000000,2.000000,2.000000,0.000000,2.000000,4.000000,4.000000,4.000000,4.000000,2.000000,4.000000,16.666666,,,,,,,,,,,,,,,,,1.000000,0.000000,0.564836,0.380920,-0.647522,0.341431,0.967403,-0.029300,-0.132340,-78.812378,54.853546,21.361586
1732083385.531887,1732083385.533528,5.000000,0.000000,4296.794922,4286.410156,4321.410156,4299.230957,4296.666504,4304.358887,4343.846191,4330.897461,4321.025879,4310.769043,4456.153809,4491.282227,4347.051270,4392.436035,1073.000000,0.000000,6.000000,,,,0.000000,2.000000,2.000000,0.000000,2.000000,2.000000,2.000000,0.000000,2.000000,4.000000,4.000000,4.000000,4.000000,2.000000,4.000000,16.666666,,,,,,,,,,,,,,,,,,,,,,,,,,,,
1732083385.539695,1732083385.541536,6.000000,0.000000,4296.922852,4288.717773,4322.179688,4301.410156,4302.307617,4304.487305,4343.461426,4335.641113,4321.666504,4305.769043,4447.563965,4489.615234,4343.077148,4388.461426,5.000000,0.000000,6.000000,,,,0.000000,2.000000,2.000000,0.000000,2.000000,2.000000,2.000000,0.000000,2.000000,4.000000,4.000000,4.000000,4.000000,2.000000,4.000000,16.666666,,,,,,,,,,,,,,,,,,,,,,,,,,,,
1732083385.547504,1732083385.549344,7.000000,0.000000,4290.128418,4287.051270,4322.307617,4299.487305,4316.538574,4306.025879,4343.589844,4333.589844,4318.589844,4301.922852,4441.794922,4483.846191,4337.948730,4381.794922,1177.000000,0.000000,6.000000,,,,0.000000,2.000000,2.000000,0.000000,2.000000,2.000000,2.000000,0.000000,2.000000,4.000000,4.000000,4.000000,4.000000,2.000000,4.000000,16.666666,,,,,,,,,,,,,,,,,,,,,,,,,,,,
1732083385.555312,1732083385.557053,8.000000,0.000000,4285.769043,4281.666504,4321.282227,4298.717773,4314.487305,4305.641113,4344.358887,4332.051270,4318.717773,4300.769043,4440.769043,4477.051270,4329.615234,4375.641113,1367.000000,0.000000,6.000000,,,,0.000000,2.000000,2.000000,0.000000,2.000000,2.000000,2.000000,0.000000,2.000000,4.000000,4.000000,4.000000,4.000000,2.000000,4.000000,16.666666,,,,,,,,,,,,,,,,,2.000000,0.000000,0.565066,0.380066,-0.647888,0.341309,0.982053,-0.006348,-0.127457,-78.816360,54.639706,21.361217
1732083385.563120,1732083385.564861,9.000000,0.000000,4285.512695,4278.974121,4323.077148,4298.205078,4295.128418,4312.436035,4343.333496,4335.128418,4321.153809,4298.333496,4439.615234,4474.102539,4330.769043,4377.948730,1514.000000,0.000000,6.000000,,,,0.000000,2.000000,2.000000,0.000000,2.000000,2.000000,2.000000,0.000000,2.000000,4.000000,4.000000,4.000000,4.000000,2.000000,4.000000,16.666666,,,,,,,,,,,,,,,,,,,,,,,,,,,,
1732083385.570928,1732083385.572469,10.000000,0.000000,4287.692383,4285.256348,4322.179688,4298.589844,4291.153809,4310.256348,4340.512695,4336.666504,4314.871582,4296.025879,4440.128418,4476.410156,4337.051270,4383.333496,1389.000000,0.000000,6.000000,,,,0.000000,2.000000,2.000000,0.000000,2.000000,2.000000,2.000000,0.000000,2.000000,4.000000,4.000000,4.000000,4.000000,2.000000,4.000000,16.666666,,,,,,,,,,,,,,,,,,,,,,,,,,,,
1732083385.578737,1732083385.580277,11.000000,0.000000,4295.384766,4296.153809,4320.256348,4303.333496,4298.974121,4300.000000,4340.897461,4331.666504,4311.794922,4300.512695,4444.871582,4485.000000,4339.487305,4386.666504,1523.000000,0.000000,6.000000,,,,0.000000,2.000000,2.000000,0.000000,2.000000,2.000000,2.000000,0.000000,2.000000,4.000000,4.000000,4.000000,4.000000,2.000000,4.000000,16.666666,,,,,,,,,,,,,,,,,,,,,,,,,,,,
1732083385.586545,1732083385.588186,12.000000,0.000000,4297.948730,4298.077148,4322.563965,4307.051270,4295.256348,4301.153809,4343.589844,4329.358887,4322.948730,4308.589844,4448.077148,4490.769043,4342.051270,4384.487305,1751.000000,0.000000,6.000000,,,,0.000000,2.000000,2.000000,0.000000,2.000000,2.000000,2.000000,0.000000,2.000000,4.000000,4.000000,4.000000,4.000000,2.000000,4.000000,16.666666,,,,,,,,,,,,,,,,,3.000000,0.000000,0.565366,0.378662,-0.648865,0.340515,0.966427,-0.011720,-0.131852,-78.652916,54.466496,21.610920
1732083385.594353,1732083385.595994,13.000000,0.000000,4294.487305,4293.846191,4323.333496,4304.358887,4300.384766,4307.820313,4340.641113,4326.794922,4324.743652,4312.948730,4445.512695,4482.436035,4343.846191,4380.512695,1591.000000,0.000000,6.000000,,,,0.000000,2.000000,2.000000,0.000000,2.000000,2.000000,2.000000,0.000000,2.000000,4.000000,4.000000,4.000000,4.000000,2.000000,4.000000,16.666666,,,,,,,,,,,,,,,,,,,,,,,,,,,,
1732083385.602162,1732083385.604002,14.000000,0.000000,4294.487305,4296.282227,4321.282227,4301.025879,4316.666504,4307.563965,4340.128418,4326.922852,4312.179688,4305.641113,4441.153809,4474.230957,4341.410156,4380.512695,1389.000000,0.000000,6.000000,,,,0.000000,2.000000,2.000000,0.000000,2.000000,2.000000,2.000000,0.000000,2.000000,4.000000,4.000000,4.000000,4.000000,2.000000,4.000000,16.666666,1.000000,16.666666,2.000000,2.000000,0.000000,2.000000,2.000000,2.000000,0.000000,2.000000,4.000000,4.000000,4.000000,4.000000,2.000000,4.000000,,,,,,,,,,,,
1732083385.609970,1732083385.611810,15.000000,0.000000,4297.436035,4304.487305,4319.743652,4306.922852,4306.410156,4310.128418,4343.589844,4332.436035,4312.692383,4292.692383,4441.410156,4477.948730,4337.948730,4382.948730,1523.000000,0.000000,6.000000,,,,0.000000,2.000000,2.000000,0.000000,2.000000,2.000000,2.000000,0.000000,2.000000,4.000000,4.000000,4.000000,4.000000,2.000000,4.000000,16.666666,,,,,,,,,,,,,,,,,,,,,,,,,,,,
1732083385.617778,1732083385.619718,16.000000,0.000000,4298.077148,4308.461426,4321.410156,4312.820313,4294.487305,4314.615234,4346.282227,4332.051270,4317.820313,4291.922852,4439.230957,4474.871582,4336.794922,4383.333496,0.000000,0.000000,6.000000,,,,0.000000,2.000000,2.000000,0.000000,2.000000,2.000000,2.000000,0.000000,2.000000,4.000000,4.000000,4.000000,4.000000,2.000000,4.000000,16.666666,,,,,,,,,,,,,,,,,4.000000,0.000000,0.565546,0.377930,-0.649231,0.340332,0.967403,-0.016115,-0.125992,-78.537193,54.334530,21.726511
1732083385.625586,1732083385.627526,17.000000,0.000000,4295.769043,4304.102539,4319.487305,4308.717773,4304.358887,4311.666504,4341.666504,4325.000000,4315.000000,4302.563965,4437.436035,4469.358887,4339.102539,4382.820313,0.000000,0.000000,6.000000,,,,0.000000,2.000000,2.000000,0.000000,2.000000,2.000000,2.000000,0.000000,2.000000,4.000000,4.000000,4.000000,4.000000,2.000000,4.000000,16.666666,,,,,,,,,,,,,,,,,,,,,,,,,,,,
1732083385.633395,1732083385.635534,18.000000,0.000000,4293.717773,4301.025879,4320.384766,4303.717773,4305.512695,4303.846191,4337.820313,4324.230957,4312.051270,4306.922852,4442.563965,4474.871582,4341.922852,4384.230957,0.000000,0.000000,6.000000,,,,0.000000,2.000000,2.000000,0.000000,2.000000,2.000000,2.000000,0.000000,2.000000,4.000000,4.000000,4.000000,4.000000,2.000000,4.000000,16.666666,,,,,,,,,,,,,,,,,,,,,,,,,,,,
1732083385.641203,1732083385.643343,19.000000,0.000000,4295.128418,4304.358887,4324.358887,4307.436035,4300.128418,4306.282227,4339.358887,4330.641113,4313.717773,4303.846191,4445.641113,4477.692383,4341.410156,4386.922852,0.000000,0.000000,6.000000,,,,0.000000,2.000000,2.000000,0.000000,2.000000,2.000000,2.000000,0.000000,2.000000,4.000000,4.000000,4.000000,4.000000,2.000000,4.000000,16.666666,,,,,,,,,,,,,,,,,,,,,,,,,,,,
1732083385.649011,1732083385.651251,20.000000,0.000000,4294.358887,4304.871582,4325.641113,4310.641113,4304.102539,4312.563965,4344.487305,4335.000000,4317.948730,4302.692383,4442.307617,4473.974121,4338.205078,4385.256348,0.000000,0.000000,6.000000,,,,0.000000,2.000000,2.000000,0.000000,2.000000,2.000000,2.000000,0.000000,2.000000,4.000000,4.000000,4.000000,4.000000,2.000000,4.000000,16.666666,,,,,,,,,,,,,,,,,5.000000,0.000000,0.565558,0.377808,-0.649292,0.340332,0.967403,-0.016115,-0.125992,-78.593460,54.460968,21.556807
1732083385.656819,1732083385.659059,21.000000,0.000000,4293.974121,4301.922852,4323.205078,4306.922852,4300.769043,4305.897461,4342.179688,4337.436035,4322.948730,4307.307617,4443.205078,4473.974121,4339.487305,4379.102539,0.000000,0.000000,6.000000,,,,0.000000,2.000000,2.000000,0.000000,2.000000,2.000000,2.000000,0.000000,2.000000,4.000000,4.000000,4.000000,4.000000,2.000000,4.000000,16.666666,,,,,,,,,,,,,,,,,,,,,,,,,,,,
1732083385.664628,1732083385.667067,22.000000,0.000000,4297.563965,4304.487305,4323.589844,4305.128418,4303.846191,4297.563965,4337.563965,4331.282227,4318.974121,4309.102539,4446.794922,4476.025879,4343.589844,4379.487305,0.000000,0.000000,6.000000,,,,0.000000,2.000000,2.000000,0.000000,2.000000,2.000000,2.000000,0.000000,2.000000,4.000000,4.000000,4.000000,4.000000,2.000000,4.000000,16.666666,,,,,,,,,,,,,,,,,,,,,,,,,,,,
1732083385.672436,1732083385.674875,23.000000,0.000000,4299.615234,4308.717773,4323.333496,4307.051270,4318.077148,4303.333496,4336.538574,4324.871582,4310.897461,4298.589844,4444.871582,4475.128418,4344.487305,4387.692383,0.000000,0.000000,6.000000,,,,0.000000,2.000000,2.000000,0.000000,2.000000,2.000000,2.000000,0.000000,2.000000,4.000000,4.000000,4.000000,4.000000,2.000000,4.000000,16.666666,,,,,,,,,,,,,,,,,,,,,,,,,,,,
1732083385.680244,1732083385.682583,24.000000,0.000000,4298.461426,4304.615234,4321.410156,4310.128418,4304.871582,4307.307617,4339.487305,4332.563965,4313.077148,4291.922852,4445.256348,4478.077148,4343.974121,4390.000000,0.000000,0.000000,6.000000,,,,0.000000,2.000000,2.000000,0.000000,2.000000,2.000000,2.000000,0.000000,2.000000,4.000000,4.000000,4.000000,4.000000,2.000000,4.000000,16.666666,,,,,,,,,,,,,,,,,6.000000,0.000000,0.565787,0.377319,-0.649536,0.340027,0.974240,-0.018557,-0.119155,-78.592369,54.418385,21.561014
1732083385.688053,1732083385.690392,25.000000,0.000000,4296.922852,4301.666504,4320.128418,4310.512695,4290.000000,4299.871582,4341.538574,4332.692383,4315.512695,4304.102539,4447.179688,4478.333496,4343.974121,4383.461426,0.000000,0.000000,6.000000,,,,0.000000,2.000000,2.000000,0.000000,2.000000,2.000000,2.000000,0.000000,2.000000,4.000000,4.000000,4.000000,4.000000,2.000000,4.000000,16.666666,,,,,,,,,,,,,,,,,,,,,,,,,,,,
1732083385.695861,1732083385.698000,26.000000,0.000000,4294.871582,4303.589844,4321.666504,4311.410156,4300.256348,4300.128418,4341.538574,4323.461426,4311.282227,4306.282227,4438.974121,4469.615234,4338.846191,4379.743652,0.000000,0.000000,6.000000,,,,0.000000,2.000000,2.000000,0.000000,2.000000,2.000000,2.000000,0.000000,2.000000,4.000000,4.000000,4.000000,4.000000,2.000000,4.000000,16.666666,,,,,,,,,,,,,,,,,,,,,,,,,,,,
1732083385.703669,1732083385.705808,27.000000,0.000000,4292.692383,4304.743652,4323.205078,4312.948730,4302.179688,4304.871582,4341.666504,4330.641113,4312.051270,4291.282227,4434.102539,4466.666504,4333.205078,4379.743652,0.000000,0.000000,6.000000,,,,0.000000,2.000000,2.000000,0.000000,2.000000,2.000000,2.000000,0.000000,2.000000,4.000000,4.000000,4.000000,4.000000,2.000000,4.000000,16.666666,,,,,,,,,,,,,,,,,,,,,,,,,,,,
1732083385.711477,1732083385.713517,28.000000,0.000000,4296.538574,4307.948730,4320.256348,4312.563965,4297.563965,4301.922852,4341.025879,4340.769043,4317.948730,4292.820313,4439.230957,4474.230957,4338.461426,4381.538574,0.000000,0.000000,6.000000,,,,0.000000,2.000000,2.000000,0.000000,2.000000,2.000000,2.000000,0.000000,2.000000,4.000000,4.000000,4.000000,4.000000,2.000000,4.000000,16.666666,,,,,,,,,,,,,,,,,7.000000,0.000000,0.565891,0.376953,-0.649658,0.340027,0.974240,-0.020022,-0.125992,-78.656487,54.335556,21.421087
1732083385.719286,1732083385.721325,29.000000,0.000000,4299.102539,4308.333496,4320.128418,4313.974121,4305.897461,4306.153809,4343.333496,4330.769043,4315.256348,4301.922852,4437.179688,4477.179688,4339.871582,4382.820313,0.000000,0.000000,6.000000,,,,0.000000,2.000000,2.000000,0.000000,2.000000,2.000000,2.000000,0.000000,2.000000,4.000000,4.000000,4.000000,4.000000,2.000000,4.000000,16.666666,,,,,,,,,,,,,,,,,,,,,,,,,,,,
1732083385.727094,1732083385.728933,30.000000,0.000000,4295.128418,4304.358887,4324.358887,4315.641113,4313.077148,4312.179688,4343.846191,4322.179688,4308.974121,4298.333496,4432.948730,4475.000000,4333.461426,4380.512695,0.000000,0.000000,6.000000,,,,0.000000,2.000000,2.000000,0.000000,2.000000,2.000000,2.000000,0.000000,2.000000,4.000000,4.000000,4.000000,4.000000,2.000000,4.000000,16.666666,,,,,,,,,,,,,,,,,,,,,,,,,,,,
1732083385.734902,1732083385.736741,31.000000,0.000000,4296.282227,4305.384766,4325.256348,4312.563965,4314.487305,4307.948730,4343.205078,4328.589844,4311.410156,4295.769043,4440.000000,4476.666504,4335.769043,4382.692383,0.000000,0.000000,6.000000,,,,0.000000,2.000000,2.000000,0.000000,2.000000,2.000000,2.000000,0.000000,2.000000,4.000000,4.000000,4.000000,4.000000,2.000000,4.000000,16.666666,,,,,,,,,,,,,,,,,,,,,,,,,,,,
1732083385.742710,1732083385.744450,32.000000,0.000000,4303.589844,4310.641113,4321.922852,4312.179688,4311.666504,4304.230957,4339.871582,4333.333496,4314.230957,4300.000000,4444.487305,4478.461426,4342.563965,4390.384766,0.000000,0.000000,6.000000,,,,0.000000,2.000000,2.000000,0.000000,2.000000,2.000000,2.000000,0.000000,2.000000,4.000000,4.000000,4.000000,4.000000,2.000000,4.000000,16.666666,,,,,,,,,,,,,,,,,8.000000,0.000000,0.565899,0.376831,-0.649658,0.340149,0.979612,-0.022464,-0.122085,-78.628418,54.335136,21.416080
1732083385.750519,1732083385.752258,33.000000,0.000000,4300.897461,4303.717773,4323.846191,4315.128418,4296.922852,4308.846191,4340.128418,4334.615234,4315.897461,4300.384766,4441.025879,4478.846191,4342.692383,4387.179688,0.000000,0.000000,6.000000,,,,0.000000,2.000000,2.000000,0.000000,2.000000,2.000000,2.000000,0.000000,2.000000,4.000000,4.000000,4.000000,4.000000,2.000000,4.000000,16.666666,,,,,,,,,,,,,,,,,,,,,,,,,,,,
1732083385.758327,1732083385.759866,34.000000,0.000000,4291.666504,4295.256348,4322.563965,4312.179688,4293.077148,4308.333496,4341.153809,4333.846191,4320.769043,4297.948730,4444.615234,4479.230957,4339.102539,4378.974121,0.000000,0.000000,6.000000,,,,0.000000,2.000000,2.000000,0.000000,2.000000,2.000000,2.000000,0.000000,2.000000,4.000000,4.000000,4.000000,4.000000,2.000000,4.000000,16.666666,,,,,,,,,,,,,,,,,,,,,,,,,,,,
1732083385.766135,1732083385.767674,35.000000,0.000000,4290.897461,4295.128418,4320.128418,4306.153809,4311.025879,4302.051270,4342.436035,4330.769043,4318.333496,4294.487305,4446.538574,4477.692383,4339.871582,4379.871582,0.000000,0.000000,6.000000,,,,0.000000,2.000000,2.000000,0.000000,2.000000,2.000000,2.000000,0.000000,2.000000,4.000000,4.000000,4.000000,4.000000,2.000000,4.000000,16.666666,,,,,,,,,,,,,,,,,,,,,,,,,,,,
1732083385.773943,1732083385.775383,36.000000,0.000000,4293.461426,4296.538574,4322.820313,4306.794922,4313.461426,4305.641113,4340.897461,4328.333496,4311.410156,4291.538574,4441.410156,4474.358887,4341.666504,4381.025879,0.000000,0.000000,6.000000,,,,0.000000,2.000000,2.000000,0.000000,2.000000,2.000000,2.000000,0.000000,2.000000,4.000000,4.000000,4.000000,4.000000,2.000000,4.000000,16.666666,,,,,,,,,,,,,,,,,9.000000,0.000000,0.566109,0.376465,-0.649719,0.340088,0.975705,-0.011720,-0.129899,-78.857353,54.144794,21.685360
1732083385.781752,1732083385.783191,37.000000,0.000000,4293.461426,4295.769043,4325.256348,4309.358887,4294.871582,4309.743652,4342.051270,4328.589844,4313.589844,4292.051270,4441.666504,4477.179688,4337.948730,4377.563965,0.000000,0.000000,6.000000,,,,0.000000,2.000000,2.000000,0.000000,2.000000,2.000000,2.000000,0.000000,2.000000,4.000000,4.000000,4.000000,4.000000,2.000000,4.000000,16.666666,,,,,,,,,,,,,,,,,,,,,,,,,,,,
1732083385.789560,1732083385.790799,38.000000,0.000000,4293.461426,4293.846191,4321.666504,4309.615234,4292.436035,4301.922852,4341.025879,4330.512695,4314.743652,4294.615234,4444.358887,4484.102539,4336.025879,4382.307617,0.000000,0.000000,6.000000,,,,0.000000,2.000000,2.000000,0.000000,2.000000,2.000000,2.000000,0.000000,2.000000,4.000000,4.000000,4.000000,4.000000,2.000000,4.000000,16.666666,,,,,,,,,,,,,,,,,,,,,,,,,,,,
1732083385.797368,1732083385.798608,39.000000,0.000000,4289.102539,4294.230957,4321.410156,4310.769043,4302.820313,4296.666504,4338.974121,4329.871582,4309.487305,4295.128418,4442.179688,4481.666504,4339.615234,4384.358887,0.000000,0.000000,6.000000,,,,0.000000,2.000000,2.000000,0.000000,2.000000,2.000000,2.000000,0.000000,2.000000,4.000000,4.000000,4.000000,4.000000,2.000000,4.000000,16.666666,,,,,,,,,,,,,,,,,,,,,,,,,,,,
1732083385.805176,1732083385.806316,40.000000,0.000000,4287.051270,4293.974121,4321.666504,4312.179688,4301.794922,4302.563965,4341.282227,4330.512695,4312.307617,4296.410156,4439.487305,4471.794922,4340.000000,4377.179688,0.000000,0.000000,6.000000,,,,0.000000,2.000000,2.000000,0.000000,2.000000,2.000000,2.000000,0.000000,2.000000,4.000000,4.000000,4.000000,4.000000,2.000000,4.000000,16.666666,,,,,,,,,,,,,,,,,10.000000,0.000000,0.566467,0.375366,-0.650330,0.339539,0.970333,-0.014162,-0.125504,-79.009460,54.173950,21.936808
1732083385.812985,1732083385.814124,41.000000,0.000000,4292.051270,4294.230957,4319.230957,4311.282227,4299.487305,4305.641113,4342.179688,4333.333496,4317.563965,4294.743652,4441.794922,4469.871582,4337.436035,4374.871582,0.000000,0.000000,6.000000,,,,0.000000,2.000000,2.000000,0.000000,2.000000,2.000000,2.000000,0.000000,2.000000,4.000000,4.000000,4.000000,4.000000,2.000000,4.000000,16.666666,,,,,,,,,,,,,,,,,,,,,,,,,,,,
1732083385.820793,1732083385.822132,42.000000,0.000000,4293.461426,4293.974121,4319.102539,4310.256348,4303.717773,4300.897461,4339.230957,4330.641113,4313.205078,4290.384766,4445.769043,4475.128418,4340.256348,4379.102539,0.000000,0.000000,6.000000,,,,0.000000,2.000000,2.000000,0.000000,2.000000,2.000000,2.000000,0.000000,2.000000,4.000000,4.000000,4.000000,4.000000,2.000000,4.000000,16.666666,,,,,,,,,,,,,,,,,,,,,,,,,,,,
1732083385.828601,1732083385.829940,43.000000,0.000000,4291.153809,4296.153809,4319.615234,4310.000000,4298.717773,4301.410156,4340.000000,4327.307617,4308.461426,4290.256348,4446.794922,4475.641113,4343.077148,4382.948730,0.000000,0.000000,6.000000,,,,0.000000,2.000000,2.000000,0.000000,2.000000,2.000000,2.000000,0.000000,2.000000,4.000000,4.000000,4.000000,4.000000,2.000000,4.000000,16.666666,,,,,,,,,,,,,,,,,,,,,,,,,,,,
1732083385.836409,1732083385.837649,44.000000,0.000000,4292.436035,4297.948730,4319.743652,4309.358887,4303.461426,4298.589844,4342.307617,4326.153809,4308.333496,4293.461426,4446.410156,4472.948730,4341.666504,4383.205078,0.000000,0.000000,6.000000,,,,0.000000,2.000000,2.000000,0.000000,2.000000,2.000000,2.000000,0.000000,2.000000,4.000000,4.000000,4.000000,4.000000,2.000000,4.000000,16.666666,,,,,,,,,,,,,,,,,11.000000,0.000000,0.566467,0.375366,-0.650330,0.339539,0.974240,-0.017580,-0.121109,-78.967659,54.227566,22.065481
1732083385.844218,1732083385.845457,45.000000,0.000000,4293.589844,4296.666504,4321.538574,4307.179688,4315.384766,4294.102539,4338.846191,4323.333496,4309.871582,4297.948730,4447.179688,4473.077148,4342.436035,4382.692383,0.000000,0.000000,6.000000,,,,0.000000,2.000000,2.000000,0.000000,2.000000,2.000000,2.000000,0.000000,2.000000,4.000000,4.000000,4.000000,4.000000,2.000000,4.000000,16.666666,,,,,,,,,,,,,,,,,,,,,,,,,,,,
1732083385.852026,1732083385.853065,46.000000,0.000000,4291.794922,4295.384766,4322.948730,4304.487305,4302.948730,4303.461426,4340.769043,4327.820313,4313.461426,4299.871582,4448.461426,4474.487305,4341.794922,4383.589844,0.000000,0.000000,6.000000,,,,0.000000,2.000000,2.000000,0.000000,2.000000,2.000000,2.000000,0.000000,2.000000,4.000000,4.000000,4.000000,4.000000,2.000000,4.000000,16.666666,,,,,,,,,,,,,,,,,,,,,,,,,,,,
1732083385.859834,1732083385.860874,47.000000,0.000000,4292.307617,4296.025879,4320.000000,4305.384766,4289.743652,4312.563965,4342.692383,4333.205078,4315.641113,4300.769043,4447.820313,4474.871582,4340.384766,4383.205078,0.000000,0.000000,6.000000,,,,0.000000,2.000000,2.000000,0.000000,2.000000,2.000000,2.000000,0.000000,2.000000,4.000000,4.000000,4.000000,4.000000,2.000000,4.000000,16.666666,,,,,,,,,,,,,,,,,,,,,,,,,,,,
1732083385.867643,1732083385.868582,48.000000,0.000000,4292.436035,4297.179688,4321.025879,4308.205078,4302.179688,4309.230957,4341.794922,4329.230957,4314.358887,4298.717773,4445.769043,4472.820313,4341.666504,4380.897461,0.000000,0.000000,6.000000,,,,0.000000,2.000000,2.000000,0.000000,2.000000,2.000000,2.000000,0.000000,2.000000,4.000000,4.000000,4.000000,4.000000,2.000000,4.000000,16.666666,,,,,,,,,,,,,,,,,12.000000,0.000000,0.566526,0.375061,-0.650391,0.339661,0.971310,-0.026370,-0.131364,-78.942139,54.374329,21.894707
1732083385.875451,1732083385.876390,49.000000,0.000000,4292.179688,4295.897461,4320.512695,4307.307617,4310.128418,4308.717773,4339.102539,4333.589844,4317.051270,4294.743652,4445.897461,4472.307617,4343.461426,4379.743652,0.000000,0.000000,6.000000,,,,0.000000,2.000000,2.000000,0.000000,2.000000,2.000000,2.000000,0.000000,2.000000,4.000000,4.000000,4.000000,4.000000,2.000000,4.000000,16.666666,,,,,,,,,,,,,,,,,,,,,,,,,,,,
1732083385.883259,1732083385.883998,50.000000,0.000000,4292.436035,4296.538574,4320.256348,4308.974121,4301.922852,4310.641113,4339.743652,4337.051270,4318.717773,4292.820313,4447.307617,4472.436035,4343.846191,4383.589844,0.000000,0.000000,6.000000,,,,0.000000,2.000000,2.000000,0.000000,2.000000,2.000000,2.000000,0.000000,2.000000,4.000000,4.000000,4.000000,4.000000,2.000000,4.000000,16.666666,,,,,,,,,,,,,,,,,,,,,,,,,,,,
1732083385.891067,1732083385.891807,51.000000,0.000000,4295.512695,4298.846191,4322.692383,4317.436035,4296.666504,4304.358887,4340.384766,4327.051270,4313.077148,4295.256348,4446.153809,4473.333496,4345.000000,4387.307617,0.000000,0.000000,6.000000,,,,0.000000,2.000000,2.000000,0.000000,2.000000,2.000000,2.000000,0.000000,2.000000,4.000000,4.000000,4.000000,4.000000,2.000000,4.000000,16.666666,,,,,,,,,,,,,,,,,,,,,,,,,,,,
1732083385.898876,1732083385.899515,52.000000,0.000000,4297.307617,4299.358887,4325.256348,4318.717773,4304.358887,4300.641113,4343.717773,4323.589844,4307.307617,4292.692383,4443.205078,4474.102539,4345.000000,4385.384766,0.000000,0.000000,6.000000,,,,0.000000,2.000000,2.000000,0.000000,2.000000,2.000000,2.000000,0.000000,2.000000,4.000000,4.000000,4.000000,4.000000,2.000000,4.000000,16.666666,,,,,,,,,,,,,,,,,13.000000,0.000000,0.566765,0.374451,-0.650757,0.339233,0.970333,-0.022952,-0.122574,-79.031464,54.349873,21.928045
1732083385.906684,1732083385.907323,53.000000,0.000000,4293.846191,4300.641113,4326.025879,4315.256348,4317.563965,4302.948730,4342.436035,4324.615234,4307.307617,4283.077148,4442.563965,4472.563965,4341.666504,4385.641113,0.000000,0.000000,6.000000,,,,0.000000,2.000000,2.000000,0.000000,2.000000,2.000000,2.000000,0.000000,2.000000,4.000000,4.000000,4.000000,4.000000,2.000000,4.000000,16.666666,,,,,,,,,,,,,,,,,,,,,,,,,,,,
1732083385.914492,1732083385.915331,54.000000,0.000000,4290.512695,4298.461426,4325.000000,4315.897461,4310.897461,4302.051270,4340.128418,4316.538574,4309.615234,4288.077148,4444.743652,4473.333496,4341.410156,4389.230957,0.000000,0.000000,6.000000,,,,0.000000,2.000000,2.000000,0.000000,2.000000,2.000000,2.000000,0.000000,2.000000,4.000000,4.000000,4.000000,4.000000,2.000000,4.000000,16.666666,,,,,,,,,,,,,,,,,,,,,,,,,,,,
1732083385.922300,1732083385.923139,55.000000,0.000000,4292.436035,4292.820313,4321.025879,4314.102539,4290.128418,4305.384766,4341.922852,4320.128418,4313.077148,4297.179688,4445.256348,4478.461426,4343.589844,4388.461426,0.000000,0.000000,6.000000,,,,0.000000,2.000000,2.000000,0.000000,2.000000,2.000000,2.000000,0.000000,2.000000,4.000000,4.000000,4.000000,4.000000,2.000000,4.000000,16.666666,,,,,,,,,,,,,,,,,,,,,,,,,,,,
1732083385.930109,1732083385.931047,56.000000,0.000000,4293.717773,4293.333496,4320.256348,4309.358887,4291.538574,4313.077148,4344.358887,4329.230957,4314.615234,4289.358887,4445.256348,4479.358887,4343.333496,4383.717773,0.000000,0.000000,6.000000,,,,0.000000,2.000000,2.000000,0.000000,2.000000,2.000000,2.000000,0.000000,2.000000,4.000000,4.000000,4.000000,4.000000,2.000000,4.000000,16.666666,,,,,,,,,,,,,,,,,14.000000,0.000000,0.566980,0.374023,-0.650879,0.339111,0.963985,-0.018557,-0.129899,-79.005486,54.265064,22.111717
1732083385.937917,1732083385.938856,57.000000,0.000000,4291.153809,4296.666504,4321.153809,4307.051270,4303.589844,4310.384766,4343.846191,4326.538574,4312.692383,4287.307617,4445.512695,4476.410156,4344.102539,4382.051270,0.000000,0.000000,6.000000,,,,0.000000,2.000000,2.000000,0.000000,2.000000,2.000000,2.000000,0.000000,2.000000,4.000000,4.000000,4.000000,4.000000,2.000000,4.000000,16.666666,,,,,,,,,,,,,,,,,,,,,,,,,,,,
