title:six4, start timestamp:1732083439.846242, stop timestamp:1732083487.258026, headset type:EPOCX, headset serial:E5020C3A, headset firmware:730, channels:67, sampling rate:eeg_128;mot_32, samples:6073      , version:2.2, 
Timestamp,OriginalTimestamp,EEG.Counter,EEG.Interpolated,EEG.AF3,EEG.F7,EEG.F3,EEG.FC5,EEG.T7,EEG.P7,EEG.O1,EEG.O2,EEG.P8,EEG.T8,EEG.FC6,EEG.F4,EEG.F8,EEG.AF4,EEG.RawCq,EEG.Battery,EEG.BatteryPercent,MarkerIndex,MarkerType,MarkerValueInt,EEG.MarkerHardware,CQ.AF3,CQ.F7,CQ.F3,CQ.FC5,CQ.T7,CQ.P7,CQ.O1,CQ.O2,CQ.P8,CQ.T8,CQ.FC6,CQ.F4,CQ.F8,CQ.AF4,CQ.Overall,EQ.SampleRateQuality,EQ.OVERALL,EQ.AF3,EQ.F7,EQ.F3,EQ.FC5,EQ.T7,EQ.P7,EQ.O1,EQ.O2,EQ.P8,EQ.T8,EQ.FC6,EQ.F4,EQ.F8,EQ.AF4,MOT.CounterMems,MOT.InterpolatedMems,MOT.Q0,MOT.Q1,MOT.Q2,MOT.Q3,MOT.AccX,MOT.AccY,MOT.AccZ,MOT.MagX,MOT.MagY,MOT.MagZ
1732083439.846242,1732083439.846927,49.000000,0.000000,4324.230957,4300.128418,4317.692383,4307.051270,4295.256348,4295.256348,4329.615234,4315.512695,4303.333496,4283.974121,4443.461426,4470.641113,4346.666504,4411.153809,0.000000,0.000000,6.000000,,,,0.000000,2.000000,2.000000,0.000000,2.000000,2.000000,2.000000,0.000000,2.000000,4.000000,4.000000,4.000000,4.000000,2.000000,4.000000,16.666666,,,,,,,,,,,,,,,,,,,,,,,,,,,,
1732083439.854050,1732083439.854535,50.000000,0.000000,4335.000000,4301.922852,4319.615234,4312.692383,4294.102539,4294.358887,4327.436035,4318.589844,4303.589844,4286.410156,4451.794922,4476.538574,4351.025879,4421.282227,0.000000,0.000000,6.000000,,,,0.000000,2.000000,2.000000,0.000000,2.000000,2.000000,2.000000,0.000000,2.000000,4.000000,4.000000,4.000000,4.000000,2.000000,4.000000,16.666666,,,,,,,,,,,,,,,,,,,,,,,,,,,,
1732083439.861858,1732083439.862343,51.000000,0.000000,4343.333496,4307.692383,4319.487305,4318.717773,4294.230957,4296.153809,4330.769043,4326.538574,4310.384766,4292.307617,4457.948730,4484.358887,4353.077148,4427.179688,0.000000,0.000000,6.000000,,,,0.000000,2.000000,2.000000,0.000000,2.000000,2.000000,2.000000,0.000000,2.000000,4.000000,4.000000,4.000000,4.000000,2.000000,4.000000,16.666666,,,,,,,,,,,,,,,,,,,,,,,,,,,,
1732083439.869667,1732083439.870052,52.000000,0.000000,4348.589844,4310.641113,4318.333496,4324.615234,4296.538574,4296.538574,4329.743652,4327.051270,4308.974121,4287.948730,4455.384766,4485.128418,4353.333496,4427.051270,0.000000,0.000000,6.000000,,,,0.000000,2.000000,2.000000,0.000000,2.000000,2.000000,2.000000,0.000000,2.000000,4.000000,4.000000,4.000000,4.000000,2.000000,4.000000,16.666666,,,,,,,,,,,,,,,,,13.000000,0.000000,0.627242,0.388550,-0.610413,0.288086,0.966915,0.122574,-0.023440,-74.135582,64.348473,30.549728
1732083439.877475,1732083439.877860,53.000000,0.000000,4349.102539,4307.563965,4321.666504,4325.000000,4299.230957,4294.871582,4328.077148,4323.717773,4308.589844,4289.487305,4454.102539,4480.384766,4354.358887,4426.282227,0.000000,0.000000,6.000000,,,,0.000000,2.000000,2.000000,0.000000,2.000000,2.000000,2.000000,0.000000,2.000000,4.000000,4.000000,4.000000,4.000000,2.000000,4.000000,16.666666,,,,,,,,,,,,,,,,,,,,,,,,,,,,
1732083439.885283,1732083439.885468,54.000000,0.000000,4348.846191,4306.153809,4321.794922,4320.000000,4298.077148,4297.179688,4327.692383,4325.384766,4312.563965,4296.282227,4457.436035,4480.256348,4358.077148,4427.436035,0.000000,0.000000,6.000000,,,,0.000000,2.000000,2.000000,0.000000,2.000000,2.000000,2.000000,0.000000,2.000000,4.000000,4.000000,4.000000,4.000000,2.000000,4.000000,16.666666,,,,,,,,,,,,,,,,,,,,,,,,,,,,
1732083439.893091,1732083439.893277,55.000000,0.000000,4351.538574,4310.256348,4321.410156,4320.512695,4297.179688,4298.717773,4328.333496,4323.205078,4309.358887,4289.487305,4457.563965,4482.051270,4360.512695,4428.589844,0.000000,0.000000,6.000000,,,,0.000000,2.000000,2.000000,0.000000,2.000000,2.000000,2.000000,0.000000,2.000000,4.000000,4.000000,4.000000,4.000000,2.000000,4.000000,16.666666,,,,,,,,,,,,,,,,,,,,,,,,,,,,
1732083439.900900,1732083439.901185,56.000000,0.000000,4351.410156,4313.974121,4320.384766,4322.436035,4298.205078,4294.871582,4329.102539,4317.563965,4304.871582,4282.948730,4453.205078,4478.589844,4356.025879,4429.358887,0.000000,0.000000,6.000000,,,,0.000000,2.000000,2.000000,0.000000,2.000000,2.000000,2.000000,0.000000,2.000000,4.000000,4.000000,4.000000,4.000000,2.000000,4.000000,16.666666,,,,,,,,,,,,,,,,,14.000000,0.000000,0.627242,0.388550,-0.610413,0.288086,0.966915,0.122574,-0.023440,-74.219818,63.907261,30.423613
1732083439.908708,1732083439.908993,57.000000,0.000000,4346.153809,4309.615234,4318.717773,4316.410156,4296.538574,4290.769043,4331.282227,4318.717773,4305.384766,4287.307617,4452.051270,4476.538574,4354.615234,4429.487305,0.000000,0.000000,6.000000,,,,0.000000,2.000000,2.000000,0.000000,2.000000,2.000000,2.000000,0.000000,2.000000,4.000000,4.000000,4.000000,4.000000,2.000000,4.000000,16.666666,,,,,,,,,,,,,,,,,,,,,,,,,,,,
1732083439.916516,1732083439.917001,58.000000,0.000000,4345.512695,4303.846191,4318.333496,4313.461426,4294.615234,4291.922852,4330.897461,4318.205078,4307.307617,4290.769043,4453.333496,4474.102539,4359.230957,4427.820313,0.000000,0.000000,6.000000,,,,0.000000,2.000000,2.000000,0.000000,2.000000,2.000000,2.000000,0.000000,2.000000,4.000000,4.000000,4.000000,4.000000,2.000000,4.000000,16.666666,,,,,,,,,,,,,,,,,,,,,,,,,,,,
1732083439.924324,1732083439.924809,59.000000,0.000000,4353.333496,4310.769043,4318.077148,4317.179688,4296.025879,4295.769043,4329.615234,4316.025879,4307.179688,4285.897461,4448.846191,4469.743652,4355.769043,4426.282227,0.000000,0.000000,6.000000,,,,0.000000,2.000000,2.000000,0.000000,2.000000,2.000000,2.000000,0.000000,2.000000,4.000000,4.000000,4.000000,4.000000,2.000000,4.000000,16.666666,,,,,,,,,,,,,,,,,,,,,,,,,,,,
1732083439.932133,1732083439.932717,60.000000,0.000000,4359.230957,4316.153809,4317.692383,4318.333496,4298.333496,4299.358887,4331.025879,4324.102539,4303.717773,4278.974121,4448.717773,4476.794922,4350.769043,4432.051270,0.000000,0.000000,6.000000,,,,0.000000,2.000000,2.000000,0.000000,2.000000,2.000000,2.000000,0.000000,2.000000,4.000000,4.000000,4.000000,4.000000,2.000000,4.000000,16.666666,,,,,,,,,,,,,,,,,15.000000,0.000000,0.619066,0.385925,-0.618225,0.292603,0.963497,0.179221,-0.099133,-74.628052,63.449883,30.246460
1732083439.939941,1732083439.940525,61.000000,0.000000,4360.128418,4311.666504,4318.846191,4320.256348,4293.461426,4295.256348,4331.410156,4324.230957,4300.000000,4278.333496,4456.282227,4486.282227,4360.641113,4442.948730,0.000000,0.000000,6.000000,,,,0.000000,2.000000,2.000000,0.000000,2.000000,2.000000,2.000000,0.000000,2.000000,4.000000,4.000000,4.000000,4.000000,2.000000,4.000000,16.666666,,,,,,,,,,,,,,,,,,,,,,,,,,,,
1732083439.947749,1732083439.948533,62.000000,0.000000,4363.461426,4314.102539,4321.153809,4325.128418,4283.589844,4283.589844,4326.794922,4308.589844,4297.692383,4286.410156,4459.615234,4481.666504,4371.025879,4446.282227,0.000000,0.000000,6.000000,,,,0.000000,2.000000,2.000000,0.000000,2.000000,2.000000,2.000000,0.000000,2.000000,4.000000,4.000000,4.000000,4.000000,2.000000,4.000000,16.666666,,,,,,,,,,,,,,,,,,,,,,,,,,,,
1732083439.955557,1732083439.956342,63.000000,0.000000,4368.461426,4318.974121,4319.615234,4324.102539,4280.256348,4280.128418,4325.512695,4305.769043,4294.230957,4290.128418,4455.641113,4476.025879,4366.922852,4445.769043,0.000000,0.000000,6.000000,,,,0.000000,2.000000,2.000000,0.000000,2.000000,2.000000,2.000000,0.000000,2.000000,4.000000,4.000000,4.000000,4.000000,2.000000,4.000000,16.666666,,,,,,,,,,,,,,,,,,,,,,,,,,,,
1732083439.963366,1732083439.964250,64.000000,0.000000,4363.205078,4308.205078,4321.666504,4315.000000,4282.307617,4291.794922,4331.410156,4317.436035,4295.384766,4282.051270,4452.051270,4481.025879,4355.384766,4445.512695,0.000000,0.000000,6.000000,,,,0.000000,2.000000,2.000000,0.000000,2.000000,2.000000,2.000000,0.000000,2.000000,4.000000,4.000000,4.000000,4.000000,2.000000,4.000000,16.666666,,,,,,,,,,,,,,,,,16.000000,0.000000,0.615417,0.386414,-0.621094,0.293579,0.942498,0.197290,-0.098645,-74.673721,63.161072,29.987967
1732083439.971174,1732083439.972058,65.000000,0.000000,4357.179688,4300.512695,4323.333496,4312.051270,4281.666504,4296.666504,4331.666504,4319.615234,4303.717773,4279.743652,4450.769043,4484.102539,4350.128418,4444.743652,1324.000000,0.000000,6.000000,,,,0.000000,2.000000,2.000000,0.000000,2.000000,2.000000,2.000000,0.000000,2.000000,4.000000,4.000000,4.000000,4.000000,2.000000,4.000000,16.666666,,,,,,,,,,,,,,,,,,,,,,,,,,,,
1732083439.978982,1732083439.980066,66.000000,0.000000,4361.922852,4312.820313,4324.743652,4318.717773,4279.871582,4289.743652,4331.538574,4320.512695,4305.641113,4292.307617,4451.794922,4483.333496,4357.820313,4447.563965,1249.000000,0.000000,6.000000,,,,0.000000,2.000000,2.000000,0.000000,2.000000,2.000000,2.000000,0.000000,2.000000,4.000000,4.000000,4.000000,4.000000,2.000000,4.000000,16.666666,,,,,,,,,,,,,,,,,,,,,,,,,,,,
1732083439.986791,1732083439.987874,67.000000,0.000000,4367.051270,4321.538574,4321.922852,4325.000000,4278.205078,4293.461426,4335.512695,4327.948730,4302.563965,4294.743652,4454.743652,4481.410156,4364.230957,4447.692383,1200.000000,0.000000,6.000000,,,,0.000000,2.000000,2.000000,0.000000,2.000000,2.000000,2.000000,0.000000,2.000000,4.000000,4.000000,4.000000,4.000000,2.000000,4.000000,16.666666,,,,,,,,,,,,,,,,,,,,,,,,,,,,
1732083439.994599,1732083439.995782,68.000000,0.000000,4369.102539,4318.589844,4323.333496,4326.282227,4276.025879,4295.128418,4335.000000,4324.487305,4300.128418,4278.205078,4453.974121,4482.563965,4360.897461,4445.128418,1222.000000,0.000000,6.000000,,,,0.000000,2.000000,2.000000,0.000000,2.000000,2.000000,2.000000,0.000000,2.000000,4.000000,4.000000,4.000000,4.000000,2.000000,4.000000,16.666666,,,,,,,,,,,,,,,,,17.000000,0.000000,0.615417,0.386414,-0.621094,0.293579,0.943963,0.209010,-0.101575,-74.725716,62.792133,29.718586
1732083440.002407,1732083440.003590,69.000000,0.000000,4378.077148,4321.282227,4324.358887,4329.230957,4275.641113,4281.666504,4327.948730,4311.794922,4295.769043,4277.179688,4457.820313,4488.461426,4367.051270,4455.000000,1078.000000,0.000000,6.000000,,,,0.000000,2.000000,2.000000,0.000000,2.000000,2.000000,2.000000,0.000000,2.000000,4.000000,4.000000,4.000000,4.000000,2.000000,4.000000,16.666666,,,,,,,,,,,,,,,,,,,,,,,,,,,,
1732083440.010215,1732083440.011598,70.000000,0.000000,4381.025879,4323.846191,4324.871582,4327.051270,4274.102539,4276.025879,4328.846191,4304.615234,4291.538574,4294.102539,4465.897461,4488.974121,4379.230957,4463.717773,0.000000,0.000000,6.000000,,,,0.000000,2.000000,2.000000,0.000000,2.000000,2.000000,2.000000,0.000000,2.000000,4.000000,4.000000,4.000000,4.000000,2.000000,4.000000,16.666666,,,,,,,,,,,,,,,,,,,,,,,,,,,,
1732083440.018024,1732083440.019407,71.000000,0.000000,4371.538574,4319.615234,4321.410156,4320.641113,4274.230957,4283.974121,4329.487305,4304.358887,4291.922852,4295.000000,4461.153809,4479.358887,4373.717773,4452.948730,1172.000000,0.000000,6.000000,,,,0.000000,2.000000,2.000000,0.000000,2.000000,2.000000,2.000000,0.000000,2.000000,4.000000,4.000000,4.000000,4.000000,2.000000,4.000000,16.666666,,,,,,,,,,,,,,,,,,,,,,,,,,,,
1732083440.025832,1732083440.027315,72.000000,0.000000,4366.666504,4320.641113,4316.922852,4322.051270,4280.128418,4287.563965,4329.358887,4306.153809,4293.333496,4283.205078,4455.000000,4475.384766,4365.641113,4446.282227,1369.000000,0.000000,6.000000,,,,0.000000,2.000000,2.000000,0.000000,2.000000,2.000000,2.000000,0.000000,2.000000,4.000000,4.000000,4.000000,4.000000,2.000000,4.000000,16.666666,,,,,,,,,,,,,,,,,18.000000,0.000000,0.609450,0.387878,-0.624634,0.296570,0.969845,0.080088,-0.087901,-74.861160,62.394962,29.405388
1732083440.033640,1732083440.035123,73.000000,0.000000,4369.230957,4325.256348,4318.589844,4326.410156,4281.922852,4286.666504,4329.743652,4313.077148,4294.871582,4286.538574,4463.333496,4486.153809,4373.461426,4457.563965,1514.000000,0.000000,6.000000,,,,0.000000,2.000000,2.000000,0.000000,2.000000,2.000000,2.000000,0.000000,2.000000,4.000000,4.000000,4.000000,4.000000,2.000000,4.000000,16.666666,,,,,,,,,,,,,,,,,,,,,,,,,,,,
1732083440.041448,1732083440.042731,74.000000,0.000000,4370.384766,4323.333496,4320.256348,4324.615234,4277.307617,4286.794922,4328.461426,4320.256348,4298.589844,4295.128418,4474.615234,4497.436035,4379.487305,4465.128418,1386.000000,0.000000,6.000000,,,,0.000000,2.000000,2.000000,0.000000,2.000000,2.000000,2.000000,0.000000,2.000000,4.000000,4.000000,4.000000,4.000000,2.000000,4.000000,16.666666,,,,,,,,,,,,,,,,,,,,,,,,,,,,
1732083440.049257,1732083440.050540,75.000000,0.000000,4374.487305,4322.179688,4320.256348,4323.461426,4275.769043,4283.589844,4328.589844,4319.487305,4301.794922,4294.102539,4474.871582,4498.974121,4374.871582,4462.051270,1514.000000,0.000000,6.000000,,,,0.000000,2.000000,2.000000,0.000000,2.000000,2.000000,2.000000,0.000000,2.000000,4.000000,4.000000,4.000000,4.000000,2.000000,4.000000,16.666666,,,,,,,,,,,,,,,,,,,,,,,,,,,,
1732083440.057065,1732083440.058248,76.000000,0.000000,4377.436035,4321.922852,4316.538574,4325.384766,4278.717773,4282.051270,4330.256348,4312.692383,4300.384766,4290.256348,4468.589844,4492.051270,4367.563965,4457.820313,1750.000000,0.000000,6.000000,,,,0.000000,2.000000,2.000000,0.000000,2.000000,2.000000,2.000000,0.000000,2.000000,4.000000,4.000000,4.000000,4.000000,2.000000,4.000000,16.666666,,,,,,,,,,,,,,,,,19.000000,0.000000,0.605071,0.384949,-0.628296,0.301575,0.973752,0.063973,-0.083506,-75.112541,62.176586,28.923365
1732083440.064873,1732083440.066056,77.000000,0.000000,4371.666504,4316.410156,4315.128418,4323.461426,4278.333496,4280.641113,4328.461426,4308.589844,4301.794922,4291.666504,4464.102539,4491.410156,4367.948730,4461.153809,1581.000000,0.000000,6.000000,,,,0.000000,2.000000,2.000000,0.000000,2.000000,2.000000,2.000000,0.000000,2.000000,4.000000,4.000000,4.000000,4.000000,2.000000,4.000000,16.666666,,,,,,,,,,,,,,,,,,,,,,,,,,,,
1732083440.072682,1732083440.073664,78.000000,0.000000,4367.692383,4315.256348,4310.769043,4320.641113,4278.205078,4284.487305,4327.820313,4314.102539,4309.743652,4304.487305,4468.717773,4496.282227,4376.538574,4468.846191,1386.000000,0.000000,6.000000,,,,0.000000,2.000000,2.000000,0.000000,2.000000,2.000000,2.000000,0.000000,2.000000,4.000000,4.000000,4.000000,4.000000,2.000000,4.000000,16.666666,1.000000,8.333333,2.000000,2.000000,0.000000,1.000000,2.000000,2.000000,0.000000,2.000000,4.000000,4.000000,4.000000,4.000000,2.000000,4.000000,,,,,,,,,,,,
1732083440.080490,1732083440.081473,79.000000,0.000000,4365.769043,4319.102539,4312.820313,4319.615234,4284.743652,4293.077148,4331.922852,4321.025879,4313.974121,4304.487305,4470.128418,4488.717773,4372.563965,4460.512695,1514.000000,0.000000,6.000000,,,,0.000000,2.000000,2.000000,0.000000,2.000000,2.000000,2.000000,0.000000,2.000000,4.000000,4.000000,4.000000,4.000000,2.000000,4.000000,16.666666,,,,,,,,,,,,,,,,,,,,,,,,,,,,
1732083440.088298,1732083440.089181,80.000000,0.000000,4359.358887,4318.205078,4309.487305,4318.205078,4288.205078,4290.256348,4324.102539,4322.563965,4311.922852,4288.717773,4457.820313,4468.589844,4358.077148,4441.538574,1750.000000,0.000000,6.000000,,,,0.000000,2.000000,2.000000,0.000000,2.000000,2.000000,2.000000,0.000000,2.000000,4.000000,4.000000,4.000000,4.000000,2.000000,4.000000,16.666666,,,,,,,,,,,,,,,,,20.000000,0.000000,0.600982,0.380249,-0.632141,0.307617,0.966427,0.010255,-0.056648,-75.559494,61.684700,28.451258
1732083440.096106,1732083440.096989,81.000000,0.000000,4363.205078,4318.077148,4308.333496,4319.358887,4285.384766,4279.487305,4317.307617,4316.666504,4306.153809,4286.410156,4454.102539,4472.436035,4360.384766,4445.256348,1581.000000,0.000000,6.000000,,,,0.000000,2.000000,2.000000,0.000000,2.000000,2.000000,2.000000,0.000000,2.000000,4.000000,4.000000,4.000000,4.000000,2.000000,4.000000,16.666666,,,,,,,,,,,,,,,,,,,,,,,,,,,,
1732083440.103915,1732083440.104598,82.000000,0.000000,4382.436035,4328.077148,4310.000000,4324.871582,4286.922852,4279.102539,4319.230957,4301.666504,4297.948730,4299.871582,4471.666504,4492.820313,4379.615234,4470.769043,1386.000000,0.000000,6.000000,,,,0.000000,2.000000,2.000000,0.000000,2.000000,2.000000,2.000000,0.000000,2.000000,4.000000,4.000000,4.000000,4.000000,2.000000,4.000000,16.666666,,,,,,,,,,,,,,,,,,,,,,,,,,,,
1732083440.111723,1732083440.112406,83.000000,0.000000,4385.000000,4333.974121,4311.410156,4325.897461,4290.128418,4282.820313,4320.897461,4294.487305,4296.794922,4302.307617,4480.641113,4493.846191,4386.282227,4479.358887,1514.000000,0.000000,6.000000,,,,0.000000,2.000000,2.000000,0.000000,2.000000,2.000000,2.000000,0.000000,2.000000,4.000000,4.000000,4.000000,4.000000,2.000000,4.000000,16.666666,,,,,,,,,,,,,,,,,,,,,,,,,,,,
1732083440.119531,1732083440.120114,84.000000,0.000000,4369.358887,4327.948730,4307.563965,4321.922852,4284.230957,4280.000000,4314.871582,4305.000000,4303.846191,4299.487305,4475.641113,4488.717773,4381.410156,4467.307617,1750.000000,0.000000,6.000000,,,,0.000000,2.000000,2.000000,0.000000,2.000000,2.000000,2.000000,0.000000,2.000000,4.000000,4.000000,4.000000,4.000000,2.000000,4.000000,16.666666,,,,,,,,,,,,,,,,,21.000000,0.000000,0.600982,0.380249,-0.632141,0.307617,0.966427,0.010255,-0.056648,-75.921524,61.091274,28.068853
1732083440.127339,1732083440.127922,85.000000,0.000000,4365.384766,4321.794922,4307.436035,4318.077148,4292.307617,4280.256348,4312.948730,4312.948730,4303.589844,4300.641113,4473.717773,4490.000000,4380.128418,4458.077148,1581.000000,0.000000,6.000000,,,,0.000000,2.000000,2.000000,0.000000,2.000000,2.000000,2.000000,0.000000,2.000000,4.000000,4.000000,4.000000,4.000000,2.000000,4.000000,16.666666,,,,,,,,,,,,,,,,,,,,,,,,,,,,
1732083440.135148,1732083440.135531,86.000000,0.000000,4373.461426,4323.717773,4310.512695,4319.487305,4309.487305,4281.794922,4314.615234,4309.102539,4302.948730,4298.974121,4476.538574,4489.487305,4379.615234,4458.589844,1386.000000,0.000000,6.000000,,,,0.000000,2.000000,2.000000,0.000000,2.000000,2.000000,2.000000,0.000000,2.000000,4.000000,4.000000,4.000000,4.000000,2.000000,4.000000,16.666666,,,,,,,,,,,,,,,,,,,,,,,,,,,,
1732083440.142956,1732083440.143339,87.000000,0.000000,4372.948730,4326.922852,4312.179688,4323.717773,4297.820313,4280.641113,4315.641113,4309.358887,4308.846191,4301.666504,4474.615234,4488.974121,4375.512695,4462.948730,1514.000000,0.000000,6.000000,,,,0.000000,2.000000,2.000000,0.000000,2.000000,2.000000,2.000000,0.000000,2.000000,4.000000,4.000000,4.000000,4.000000,2.000000,4.000000,16.666666,,,,,,,,,,,,,,,,,,,,,,,,,,,,
1732083440.150764,1732083440.151047,88.000000,0.000000,4369.358887,4323.589844,4312.820313,4323.846191,4285.256348,4288.205078,4317.051270,4317.820313,4311.153809,4302.051270,4470.384766,4487.692383,4369.615234,4460.641113,1750.000000,0.000000,6.000000,,,,0.000000,2.000000,2.000000,0.000000,2.000000,2.000000,2.000000,0.000000,2.000000,4.000000,4.000000,4.000000,4.000000,2.000000,4.000000,16.666666,,,,,,,,,,,,,,,,,22.000000,0.000000,0.596214,0.372986,-0.637024,0.315613,0.976193,-0.010255,-0.057624,-76.256432,60.298931,27.930771
1732083440.158572,1732083440.158855,89.000000,0.000000,4369.230957,4318.846191,4308.846191,4321.538574,4297.820313,4295.512695,4318.974121,4322.692383,4313.077148,4296.666504,4466.922852,4480.256348,4368.461426,4449.487305,1581.000000,0.000000,6.000000,,,,0.000000,2.000000,2.000000,0.000000,2.000000,2.000000,2.000000,0.000000,2.000000,4.000000,4.000000,4.000000,4.000000,2.000000,4.000000,16.666666,,,,,,,,,,,,,,,,,,,,,,,,,,,,
1732083440.166381,1732083440.166464,90.000000,0.000000,4363.846191,4320.128418,4310.000000,4318.846191,4306.282227,4293.589844,4318.717773,4319.871582,4314.743652,4299.358887,4462.179688,4476.153809,4369.871582,4441.538574,1386.000000,0.000000,6.000000,,,,0.000000,2.000000,2.000000,0.000000,2.000000,2.000000,2.000000,0.000000,2.000000,4.000000,4.000000,4.000000,4.000000,2.000000,4.000000,16.666666,,,,,,,,,,,,,,,,,,,,,,,,,,,,
1732083440.174189,1732083440.174272,91.000000,0.000000,4358.846191,4320.897461,4309.102539,4317.948730,4302.948730,4292.051270,4317.948730,4314.230957,4307.179688,4304.743652,4459.871582,4481.025879,4369.102539,4442.692383,1514.000000,0.000000,6.000000,,,,0.000000,2.000000,2.000000,0.000000,2.000000,2.000000,2.000000,0.000000,2.000000,4.000000,4.000000,4.000000,4.000000,2.000000,4.000000,16.666666,,,,,,,,,,,,,,,,,,,,,,,,,,,,
1732083440.181997,1732083440.181980,92.000000,0.000000,4359.871582,4316.153809,4310.641113,4315.000000,4300.128418,4291.025879,4319.358887,4312.436035,4299.230957,4298.717773,4462.948730,4484.102539,4370.512695,4446.922852,1750.000000,0.000000,6.000000,,,,0.000000,2.000000,2.000000,0.000000,2.000000,2.000000,2.000000,0.000000,2.000000,4.000000,4.000000,4.000000,4.000000,2.000000,4.000000,16.666666,,,,,,,,,,,,,,,,,23.000000,0.000000,0.594012,0.370239,-0.639221,0.318542,0.945428,-0.021487,-0.068368,-76.787712,59.405468,27.948925
1732083440.189805,1732083440.189789,93.000000,0.000000,4362.820313,4317.307617,4312.436035,4315.384766,4296.794922,4281.410156,4317.820313,4314.102539,4302.436035,4295.128418,4469.871582,4482.692383,4376.794922,4449.358887,1581.000000,0.000000,6.000000,,,,0.000000,2.000000,2.000000,0.000000,2.000000,2.000000,2.000000,0.000000,2.000000,4.000000,4.000000,4.000000,4.000000,2.000000,4.000000,16.666666,,,,,,,,,,,,,,,,,,,,,,,,,,,,
1732083440.197614,1732083440.197397,94.000000,0.000000,4363.333496,4323.205078,4316.794922,4316.282227,4294.615234,4277.820313,4316.538574,4312.307617,4306.922852,4300.641113,4474.487305,4486.410156,4381.538574,4448.461426,1386.000000,0.000000,6.000000,,,,0.000000,2.000000,2.000000,0.000000,2.000000,2.000000,2.000000,0.000000,2.000000,4.000000,4.000000,4.000000,4.000000,2.000000,4.000000,16.666666,,,,,,,,,,,,,,,,,,,,,,,,,,,,
1732083440.205422,1732083440.205205,95.000000,0.000000,4360.897461,4322.692383,4314.230957,4313.717773,4300.128418,4291.282227,4321.282227,4310.384766,4304.230957,4302.436035,4476.025879,4490.256348,4380.897461,4451.025879,1514.000000,0.000000,6.000000,,,,0.000000,2.000000,2.000000,0.000000,2.000000,2.000000,2.000000,0.000000,2.000000,4.000000,4.000000,4.000000,4.000000,2.000000,4.000000,16.666666,,,,,,,,,,,,,,,,,,,,,,,,,,,,
1732083440.213230,1732083440.212914,96.000000,0.000000,4360.897461,4321.666504,4315.512695,4313.333496,4298.461426,4292.179688,4326.153809,4310.256348,4301.666504,4298.717773,4477.051270,4492.820313,4378.846191,4458.461426,1750.000000,0.000000,6.000000,,,,0.000000,2.000000,2.000000,0.000000,2.000000,2.000000,2.000000,0.000000,2.000000,4.000000,4.000000,4.000000,4.000000,2.000000,4.000000,16.666666,,,,,,,,,,,,,,,,,24.000000,0.000000,0.592977,0.369263,-0.640076,0.319885,0.945428,-0.021487,-0.068368,-77.056381,58.928429,27.598629
1732083440.221038,1732083440.220722,97.000000,0.000000,4363.846191,4323.205078,4316.666504,4316.282227,4294.358887,4277.820313,4320.897461,4308.461426,4303.846191,4303.717773,4477.307617,4493.461426,4380.000000,4461.153809,1581.000000,0.000000,6.000000,,,,0.000000,2.000000,2.000000,0.000000,2.000000,2.000000,2.000000,0.000000,2.000000,4.000000,4.000000,4.000000,4.000000,2.000000,4.000000,16.666666,,,,,,,,,,,,,,,,,,,,,,,,,,,,
1732083440.228847,1732083440.228730,98.000000,0.000000,4361.025879,4320.256348,4318.717773,4316.666504,4296.922852,4282.948730,4322.051270,4310.512695,4305.000000,4306.025879,4476.153809,4493.077148,4383.461426,4460.128418,1386.000000,0.000000,6.000000,,,,0.000000,2.000000,2.000000,0.000000,2.000000,2.000000,2.000000,0.000000,2.000000,4.000000,4.000000,4.000000,4.000000,2.000000,4.000000,16.666666,,,,,,,,,,,,,,,,,,,,,,,,,,,,
1732083440.236655,1732083440.236538,99.000000,0.000000,4355.384766,4319.487305,4319.487305,4317.563965,4300.641113,4297.692383,4326.538574,4318.333496,4305.384766,4294.615234,4474.743652,4492.307617,4383.589844,4457.563965,1514.000000,0.000000,6.000000,,,,0.000000,2.000000,2.000000,0.000000,2.000000,2.000000,2.000000,0.000000,2.000000,4.000000,4.000000,4.000000,4.000000,2.000000,4.000000,16.666666,,,,,,,,,,,,,,,,,,,,,,,,,,,,
1732083440.244463,1732083440.244446,100.000000,0.000000,4353.717773,4323.205078,4320.128418,4322.692383,4302.563965,4291.922852,4326.410156,4322.051270,4309.102539,4290.384766,4470.256348,4489.743652,4376.282227,4447.563965,1750.000000,0.000000,6.000000,,,,0.000000,2.000000,2.000000,0.000000,2.000000,2.000000,2.000000,0.000000,2.000000,4.000000,4.000000,4.000000,4.000000,2.000000,4.000000,16.666666,,,,,,,,,,,,,,,,,25.000000,0.000000,0.588645,0.369812,-0.641235,0.324890,0.996215,0.002442,-0.117202,-77.278999,58.358696,27.478222
1732083440.252272,1732083440.252254,101.000000,0.000000,4355.128418,4324.102539,4319.743652,4325.384766,4298.717773,4284.102539,4323.077148,4318.846191,4310.897461,4305.256348,4468.205078,4482.179688,4373.974121,4437.948730,1581.000000,0.000000,6.000000,,,,0.000000,2.000000,2.000000,0.000000,2.000000,2.000000,2.000000,0.000000,2.000000,4.000000,4.000000,4.000000,4.000000,2.000000,4.000000,16.666666,,,,,,,,,,,,,,,,,,,,,,,,,,,,
1732083440.260080,1732083440.260262,102.000000,0.000000,4350.512695,4321.153809,4318.846191,4321.282227,4300.512695,4289.102539,4326.410156,4314.487305,4306.538574,4309.615234,4468.717773,4476.922852,4377.820313,4436.410156,1386.000000,0.000000,6.000000,,,,0.000000,2.000000,2.000000,0.000000,2.000000,2.000000,2.000000,0.000000,2.000000,4.000000,4.000000,4.000000,4.000000,2.000000,4.000000,16.666666,,,,,,,,,,,,,,,,,,,,,,,,,,,,
1732083440.267888,1732083440.268071,103.000000,0.000000,4343.974121,4320.256348,4321.538574,4320.256348,4314.358887,4288.589844,4328.333496,4309.743652,4303.846191,4296.025879,4463.205078,4483.205078,4373.333496,4436.153809,1514.000000,0.000000,6.000000,,,,0.000000,2.000000,2.000000,0.000000,2.000000,2.000000,2.000000,0.000000,2.000000,4.000000,4.000000,4.000000,4.000000,2.000000,4.000000,16.666666,,,,,,,,,,,,,,,,,,,,,,,,,,,,
1732083440.275696,1732083440.275979,104.000000,0.000000,4347.692383,4324.487305,4321.666504,4325.256348,4311.538574,4287.179688,4325.512695,4311.666504,4307.179688,4296.282227,4467.051270,4486.794922,4368.846191,4438.461426,1750.000000,0.000000,6.000000,,,,0.000000,2.000000,2.000000,0.000000,2.000000,2.000000,2.000000,0.000000,2.000000,4.000000,4.000000,4.000000,4.000000,2.000000,4.000000,16.666666,,,,,,,,,,,,,,,,,26.000000,0.000000,0.585883,0.370239,-0.642151,0.327576,0.966915,-0.009767,-0.090343,-77.459320,57.813877,27.264027
1732083440.283505,1732083440.283787,105.000000,0.000000,4355.128418,4326.410156,4322.179688,4325.641113,4291.282227,4288.333496,4323.461426,4319.230957,4309.871582,4307.051270,4478.077148,4487.051270,4375.641113,4443.589844,1581.000000,0.000000,6.000000,,,,0.000000,2.000000,2.000000,0.000000,2.000000,2.000000,2.000000,0.000000,2.000000,4.000000,4.000000,4.000000,4.000000,2.000000,4.000000,16.666666,,,,,,,,,,,,,,,,,,,,,,,,,,,,
1732083440.291313,1732083440.291395,106.000000,0.000000,4354.743652,4323.846191,4324.871582,4321.410156,4290.128418,4286.282227,4325.512695,4315.641113,4306.794922,4302.948730,4473.077148,4489.743652,4377.692383,4439.487305,1386.000000,0.000000,6.000000,,,,0.000000,2.000000,2.000000,0.000000,2.000000,2.000000,2.000000,0.000000,2.000000,4.000000,4.000000,4.000000,4.000000,2.000000,4.000000,16.666666,,,,,,,,,,,,,,,,,,,,,,,,,,,,
1732083440.299121,1732083440.299203,107.000000,0.000000,4352.307617,4322.307617,4327.051270,4325.000000,4300.769043,4290.256348,4328.205078,4310.000000,4300.512695,4292.307617,4462.948730,4491.282227,4367.436035,4431.025879,1514.000000,0.000000,6.000000,,,,0.000000,2.000000,2.000000,0.000000,2.000000,2.000000,2.000000,0.000000,2.000000,4.000000,4.000000,4.000000,4.000000,2.000000,4.000000,16.666666,,,,,,,,,,,,,,,,,,,,,,,,,,,,
1732083440.306929,1732083440.307112,108.000000,0.000000,4352.179688,4320.384766,4323.846191,4329.615234,4297.948730,4298.846191,4330.384766,4317.820313,4302.692383,4292.051270,4463.846191,4489.230957,4362.563965,4428.717773,1750.000000,0.000000,6.000000,,,,0.000000,2.000000,2.000000,0.000000,2.000000,2.000000,2.000000,0.000000,2.000000,4.000000,4.000000,4.000000,4.000000,2.000000,4.000000,16.666666,,,,,,,,,,,,,,,,,27.000000,0.000000,0.584554,0.370300,-0.642578,0.329041,0.952753,-0.032230,-0.079600,-77.815384,57.437572,27.055529
1732083440.314738,1732083440.314920,109.000000,0.000000,4348.205078,4315.512695,4325.000000,4321.410156,4293.717773,4297.948730,4332.820313,4321.922852,4309.358887,4295.128418,4467.179688,4487.948730,4368.077148,4433.846191,1581.000000,0.000000,6.000000,,,,0.000000,2.000000,2.000000,0.000000,2.000000,2.000000,2.000000,0.000000,2.000000,4.000000,4.000000,4.000000,4.000000,2.000000,4.000000,16.666666,,,,,,,,,,,,,,,,,,,,,,,,,,,,
1732083440.322546,1732083440.322928,110.000000,0.000000,4349.230957,4315.641113,4329.615234,4317.051270,4297.051270,4292.051270,4330.256348,4315.512695,4311.538574,4298.077148,4468.205078,4491.666504,4372.307617,4441.794922,1386.000000,0.000000,6.000000,,,,0.000000,2.000000,2.000000,0.000000,2.000000,2.000000,2.000000,0.000000,2.000000,4.000000,4.000000,4.000000,4.000000,2.000000,4.000000,16.666666,,,,,,,,,,,,,,,,,,,,,,,,,,,,
1732083440.330354,1732083440.330736,111.000000,0.000000,4350.512695,4317.307617,4329.230957,4320.769043,4297.563965,4294.102539,4328.589844,4312.179688,4308.333496,4300.000000,4465.769043,4492.307617,4368.717773,4440.000000,1514.000000,0.000000,6.000000,,,,0.000000,2.000000,2.000000,0.000000,2.000000,2.000000,2.000000,0.000000,2.000000,4.000000,4.000000,4.000000,4.000000,2.000000,4.000000,16.666666,,,,,,,,,,,,,,,,,,,,,,,,,,,,
1732083440.338163,1732083440.338644,112.000000,0.000000,4344.871582,4315.769043,4323.205078,4322.692383,4297.820313,4300.128418,4330.128418,4320.512695,4308.846191,4292.692383,4457.436035,4481.025879,4364.230957,4430.256348,1750.000000,0.000000,6.000000,,,,0.000000,2.000000,2.000000,0.000000,2.000000,2.000000,2.000000,0.000000,2.000000,4.000000,4.000000,4.000000,4.000000,2.000000,4.000000,16.666666,,,,,,,,,,,,,,,,,28.000000,0.000000,0.581054,0.370728,-0.643494,0.332947,0.943475,0.047857,-0.125504,-77.913795,56.847767,26.538311
1732083440.345971,1732083440.346452,113.000000,0.000000,4347.179688,4318.717773,4323.333496,4326.025879,4293.846191,4298.846191,4332.307617,4325.897461,4313.589844,4288.461426,4460.769043,4477.820313,4367.436035,4428.333496,1581.000000,0.000000,6.000000,,,,0.000000,2.000000,2.000000,0.000000,2.000000,2.000000,2.000000,0.000000,2.000000,4.000000,4.000000,4.000000,4.000000,2.000000,4.000000,16.666666,,,,,,,,,,,,,,,,,,,,,,,,,,,,
1732083440.353779,1732083440.354460,114.000000,0.000000,4353.974121,4324.102539,4326.794922,4330.769043,4302.692383,4294.487305,4330.641113,4317.179688,4310.897461,4295.641113,4470.512695,4487.948730,4373.589844,4433.461426,1386.000000,0.000000,6.000000,,,,0.000000,2.000000,2.000000,0.000000,2.000000,2.000000,2.000000,0.000000,2.000000,4.000000,4.000000,4.000000,4.000000,2.000000,4.000000,16.666666,,,,,,,,,,,,,,,,,,,,,,,,,,,,
1732083440.361587,1732083440.362268,115.000000,0.000000,4351.922852,4321.794922,4325.384766,4327.820313,4316.794922,4296.666504,4330.641113,4313.077148,4308.333496,4299.615234,4467.692383,4491.922852,4372.179688,4432.307617,1514.000000,0.000000,6.000000,,,,0.000000,2.000000,2.000000,0.000000,2.000000,2.000000,2.000000,0.000000,2.000000,4.000000,4.000000,4.000000,4.000000,2.000000,4.000000,16.666666,,,,,,,,,,,,,,,,,,,,,,,,,,,,
1732083440.369396,1732083440.370177,116.000000,0.000000,4351.794922,4323.205078,4322.563965,4327.692383,4305.512695,4298.205078,4330.000000,4317.051270,4310.897461,4296.282227,4466.153809,4490.512695,4375.000000,4433.461426,1750.000000,0.000000,6.000000,,,,0.000000,2.000000,2.000000,0.000000,2.000000,2.000000,2.000000,0.000000,2.000000,4.000000,4.000000,4.000000,4.000000,2.000000,4.000000,16.666666,,,,,,,,,,,,,,,,,29.000000,0.000000,0.577279,0.373779,-0.643188,0.336670,1.012819,0.061043,-0.128922,-78.193504,56.436691,26.181032
1732083440.377204,1732083440.377985,117.000000,0.000000,4353.333496,4328.077148,4324.230957,4332.948730,4289.230957,4296.153809,4330.128418,4322.563965,4315.641113,4298.974121,4473.589844,4493.461426,4380.897461,4436.666504,1581.000000,0.000000,6.000000,,,,0.000000,2.000000,2.000000,0.000000,2.000000,2.000000,2.000000,0.000000,2.000000,4.000000,4.000000,4.000000,4.000000,2.000000,4.000000,16.666666,,,,,,,,,,,,,,,,,,,,,,,,,,,,
1732083440.385012,1732083440.385993,118.000000,0.000000,4343.846191,4323.333496,4324.102539,4327.307617,4295.384766,4303.717773,4329.871582,4330.897461,4321.282227,4305.256348,4475.384766,4492.563965,4376.153809,4431.282227,1386.000000,0.000000,6.000000,,,,0.000000,2.000000,2.000000,0.000000,2.000000,2.000000,2.000000,0.000000,2.000000,4.000000,4.000000,4.000000,4.000000,2.000000,4.000000,16.666666,,,,,,,,,,,,,,,,,,,,,,,,,,,,
1732083440.392820,1732083440.393801,119.000000,0.000000,4334.615234,4317.820313,4321.538574,4321.922852,4303.205078,4310.897461,4328.589844,4330.384766,4317.307617,4304.615234,4467.948730,4483.846191,4369.615234,4427.179688,1514.000000,0.000000,6.000000,,,,0.000000,2.000000,2.000000,0.000000,2.000000,2.000000,2.000000,0.000000,2.000000,4.000000,4.000000,4.000000,4.000000,2.000000,4.000000,16.666666,,,,,,,,,,,,,,,,,,,,,,,,,,,,
1732083440.400629,1732083440.401709,120.000000,0.000000,4337.563965,4321.922852,4323.717773,4323.461426,4299.487305,4301.025879,4326.410156,4312.179688,4307.307617,4302.820313,4466.922852,4481.666504,4373.205078,4430.000000,1750.000000,0.000000,6.000000,,,,0.000000,2.000000,2.000000,0.000000,2.000000,2.000000,2.000000,0.000000,2.000000,4.000000,4.000000,4.000000,4.000000,2.000000,4.000000,16.666666,,,,,,,,,,,,,,,,,30.000000,0.000000,0.574283,0.374756,-0.643311,0.340454,1.030399,-0.000488,-0.131364,-78.481743,56.230389,25.761637
1732083440.408437,1732083440.409517,121.000000,0.000000,4337.051270,4326.410156,4323.333496,4319.102539,4295.000000,4292.179688,4326.922852,4306.666504,4309.358887,4307.563965,4469.743652,4486.153809,4374.743652,4430.256348,1581.000000,0.000000,6.000000,,,,0.000000,2.000000,2.000000,0.000000,2.000000,2.000000,2.000000,0.000000,2.000000,4.000000,4.000000,4.000000,4.000000,2.000000,4.000000,16.666666,,,,,,,,,,,,,,,,,,,,,,,,,,,,
1732083440.416245,1732083440.417326,122.000000,0.000000,4328.974121,4320.897461,4322.051270,4315.000000,4292.820313,4295.512695,4326.922852,4323.846191,4316.153809,4312.436035,4467.436035,4489.743652,4367.179688,4426.538574,1386.000000,0.000000,6.000000,,,,0.000000,2.000000,2.000000,0.000000,2.000000,2.000000,2.000000,0.000000,2.000000,4.000000,4.000000,4.000000,4.000000,2.000000,4.000000,16.666666,,,,,,,,,,,,,,,,,,,,,,,,,,,,
1732083440.424053,1732083440.425134,123.000000,0.000000,4331.794922,4317.820313,4325.384766,4322.179688,4304.358887,4293.077148,4324.615234,4323.717773,4309.871582,4304.487305,4464.487305,4489.230957,4364.615234,4428.205078,1514.000000,0.000000,6.000000,,,,0.000000,2.000000,2.000000,0.000000,2.000000,2.000000,2.000000,0.000000,2.000000,4.000000,4.000000,4.000000,4.000000,2.000000,4.000000,16.666666,,,,,,,,,,,,,,,,,,,,,,,,,,,,
1732083440.431862,1732083440.432842,124.000000,0.000000,4340.384766,4323.205078,4328.461426,4326.666504,4310.769043,4288.333496,4324.871582,4316.282227,4310.256348,4302.820313,4466.153809,4487.051270,4367.307617,4430.512695,1750.000000,0.000000,6.000000,,,,0.000000,2.000000,2.000000,0.000000,2.000000,2.000000,2.000000,0.000000,2.000000,4.000000,4.000000,4.000000,4.000000,2.000000,4.000000,16.666666,,,,,,,,,,,,,,,,,31.000000,0.000000,0.572524,0.374878,-0.643738,0.342468,1.000610,-0.024417,-0.117202,-78.726875,55.788280,25.408592
1732083440.439670,1732083440.440650,125.000000,0.000000,4339.102539,4324.871582,4328.846191,4321.794922,4295.769043,4298.205078,4330.384766,4325.641113,4322.179688,4313.846191,4467.563965,4483.333496,4367.307617,4425.128418,1581.000000,0.000000,6.000000,,,,0.000000,2.000000,2.000000,0.000000,2.000000,2.000000,2.000000,0.000000,2.000000,4.000000,4.000000,4.000000,4.000000,2.000000,4.000000,16.666666,,,,,,,,,,,,,,,,,,,,,,,,,,,,
1732083440.447478,1732083440.448259,126.000000,0.000000,4337.563965,4321.282227,4331.922852,4321.922852,4291.794922,4308.974121,4332.436035,4330.512695,4320.256348,4315.384766,4463.717773,4483.846191,4366.538574,4422.307617,1386.000000,0.000000,6.000000,,,,0.000000,2.000000,2.000000,0.000000,2.000000,2.000000,2.000000,0.000000,2.000000,4.000000,4.000000,4.000000,4.000000,2.000000,4.000000,16.666666,,,,,,,,,,,,,,,,,,,,,,,,,,,,
1732083440.455286,1732083440.456067,127.000000,0.000000,4340.641113,4320.641113,4333.077148,4326.666504,4305.000000,4307.563965,4329.615234,4320.641113,4311.025879,4305.769043,4460.512695,4482.051270,4365.000000,4425.769043,6.000000,0.000000,6.000000,,,,0.000000,2.000000,2.000000,0.000000,2.000000,2.000000,2.000000,0.000000,2.000000,4.000000,4.000000,4.000000,4.000000,2.000000,4.000000,16.666666,,,,,,,,,,,,,,,,,,,,,,,,,,,,
1732083440.463095,1732083440.463775,0.000000,0.000000,4337.051270,4322.307617,4329.615234,4327.179688,4307.307617,4307.051270,4331.922852,4316.538574,4307.307617,4298.974121,4461.410156,4477.436035,4363.461426,4424.871582,0.000000,0.000000,6.000000,,,,0.000000,2.000000,2.000000,0.000000,2.000000,2.000000,2.000000,0.000000,2.000000,4.000000,4.000000,4.000000,4.000000,2.000000,4.000000,16.666666,,,,,,,,,,,,,,,,,0.000000,0.000000,0.566311,0.373596,-0.646729,0.348511,0.970822,-0.065438,-0.096203,-78.952103,55.465172,25.157625
1732083440.470903,1732083440.471583,1.000000,0.000000,4333.589844,4320.256348,4328.333496,4326.538574,4301.794922,4311.666504,4333.205078,4325.512695,4312.051270,4299.230957,4465.384766,4483.077148,4360.128418,4421.153809,1324.000000,0.000000,6.000000,,,,0.000000,2.000000,2.000000,0.000000,2.000000,2.000000,2.000000,0.000000,2.000000,4.000000,4.000000,4.000000,4.000000,2.000000,4.000000,16.666666,,,,,,,,,,,,,,,,,,,,,,,,,,,,
1732083440.478711,1732083440.479192,2.000000,0.000000,4337.948730,4318.077148,4329.102539,4325.897461,4302.948730,4306.410156,4330.512695,4329.358887,4321.025879,4303.846191,4467.820313,4492.051270,4363.461426,4425.128418,1247.000000,0.000000,6.000000,,,,0.000000,2.000000,2.000000,0.000000,2.000000,2.000000,2.000000,0.000000,2.000000,4.000000,4.000000,4.000000,4.000000,2.000000,4.000000,16.666666,,,,,,,,,,,,,,,,,,,,,,,,,,,,
1732083440.486519,1732083440.487000,3.000000,0.000000,4338.333496,4318.974121,4326.153809,4322.563965,4303.077148,4296.666504,4327.179688,4325.000000,4321.538574,4311.410156,4471.538574,4490.512695,4373.077148,4428.846191,1197.000000,0.000000,6.000000,,,,0.000000,2.000000,2.000000,0.000000,2.000000,2.000000,2.000000,0.000000,2.000000,4.000000,4.000000,4.000000,4.000000,2.000000,4.000000,16.666666,,,,,,,,,,,,,,,,,,,,,,,,,,,,
1732083440.494328,1732083440.494708,4.000000,0.000000,4335.641113,4320.128418,4323.974121,4317.948730,4303.333496,4297.179688,4328.333496,4323.717773,4317.051270,4310.384766,4474.871582,4487.563965,4377.051270,4425.256348,1214.000000,0.000000,6.000000,,,,0.000000,2.000000,2.000000,0.000000,2.000000,2.000000,2.000000,0.000000,2.000000,4.000000,4.000000,4.000000,4.000000,2.000000,4.000000,16.666666,,,,,,,,,,,,,,,,,1.000000,0.000000,0.563847,0.372009,-0.648804,0.350342,0.946405,-0.077646,-0.104505,-79.091202,54.665123,24.774343
1732083440.502136,1732083440.502517,5.000000,0.000000,4339.358887,4323.077148,4326.794922,4319.615234,4300.897461,4299.487305,4328.717773,4326.794922,4320.128418,4309.230957,4472.820313,4492.179688,4374.615234,4425.384766,1073.000000,0.000000,6.000000,,,,0.000000,2.000000,2.000000,0.000000,2.000000,2.000000,2.000000,0.000000,2.000000,4.000000,4.000000,4.000000,4.000000,2.000000,4.000000,16.666666,,,,,,,,,,,,,,,,,,,,,,,,,,,,
1732083440.509944,1732083440.510125,6.000000,0.000000,4338.205078,4325.769043,4331.025879,4321.538574,4297.179688,4296.922852,4328.717773,4327.948730,4325.128418,4315.384766,4472.563965,4493.974121,4372.307617,4429.102539,0.000000,0.000000,6.000000,,,,0.000000,2.000000,2.000000,0.000000,2.000000,2.000000,2.000000,0.000000,2.000000,4.000000,4.000000,4.000000,4.000000,2.000000,4.000000,16.666666,,,,,,,,,,,,,,,,,,,,,,,,,,,,
1732083440.517753,1732083440.517933,7.000000,0.000000,4332.179688,4326.922852,4330.641113,4322.051270,4304.358887,4299.743652,4328.974121,4325.769043,4322.563965,4312.307617,4475.000000,4494.230957,4377.179688,4430.256348,1172.000000,0.000000,6.000000,,,,0.000000,2.000000,2.000000,0.000000,2.000000,2.000000,2.000000,0.000000,2.000000,4.000000,4.000000,4.000000,4.000000,2.000000,4.000000,16.666666,,,,,,,,,,,,,,,,,,,,,,,,,,,,
1732083440.525561,1732083440.525641,8.000000,0.000000,4329.615234,4324.102539,4328.077148,4321.538574,4304.871582,4311.538574,4334.230957,4327.307617,4322.692383,4303.077148,4472.436035,4494.743652,4378.333496,4426.794922,1374.000000,0.000000,6.000000,,,,0.000000,2.000000,2.000000,0.000000,2.000000,2.000000,2.000000,0.000000,2.000000,4.000000,4.000000,4.000000,4.000000,2.000000,4.000000,16.666666,,,,,,,,,,,,,,,,,2.000000,0.000000,0.562712,0.371399,-0.649841,0.350891,0.953241,-0.066414,-0.118667,-79.263878,54.032085,24.373884
1732083440.533369,1732083440.533450,9.000000,0.000000,4329.358887,4317.948730,4329.615234,4316.025879,4297.051270,4311.666504,4336.538574,4327.820313,4324.102539,4303.974121,4467.820313,4493.846191,4374.743652,4423.461426,1526.000000,0.000000,6.000000,,,,0.000000,2.000000,2.000000,0.000000,2.000000,2.000000,2.000000,0.000000,2.000000,4.000000,4.000000,4.000000,4.000000,2.000000,4.000000,16.666666,,,,,,,,,,,,,,,,,,,,,,,,,,,,
1732083440.541177,1732083440.541458,10.000000,0.000000,4328.717773,4317.051270,4332.820313,4310.256348,4307.820313,4301.153809,4334.102539,4327.051270,4321.794922,4309.487305,4471.282227,4493.589844,4376.025879,4425.641113,1386.000000,0.000000,6.000000,,,,0.000000,2.000000,2.000000,0.000000,2.000000,2.000000,2.000000,0.000000,2.000000,4.000000,4.000000,4.000000,4.000000,2.000000,4.000000,16.666666,,,,,,,,,,,,,,,,,,,,,,,,,,,,
1732083440.548986,1732083440.549266,11.000000,0.000000,4328.846191,4322.436035,4334.102539,4314.615234,4312.436035,4298.589844,4331.794922,4329.487305,4327.948730,4311.025879,4475.256348,4495.769043,4378.717773,4428.333496,1514.000000,0.000000,6.000000,,,,0.000000,2.000000,2.000000,0.000000,2.000000,2.000000,2.000000,0.000000,2.000000,4.000000,4.000000,4.000000,4.000000,2.000000,4.000000,16.666666,,,,,,,,,,,,,,,,,,,,,,,,,,,,
1732083440.556794,1732083440.556974,12.000000,0.000000,4331.410156,4326.538574,4335.128418,4323.589844,4289.487305,4303.717773,4332.436035,4329.871582,4330.769043,4313.717773,4475.769043,4496.922852,4379.487305,4430.000000,1750.000000,0.000000,6.000000,,,,0.000000,2.000000,2.000000,0.000000,2.000000,2.000000,2.000000,0.000000,2.000000,4.000000,4.000000,4.000000,4.000000,2.000000,4.000000,16.666666,,,,,,,,,,,,,,,,,3.000000,0.000000,0.560577,0.370850,-0.651733,0.351379,0.984495,-0.021487,-0.134782,-79.418739,53.704323,24.192846
1732083440.564602,1732083440.564782,13.000000,0.000000,4333.589844,4323.077148,4337.436035,4321.666504,4283.846191,4303.589844,4332.948730,4331.025879,4323.717773,4315.769043,4474.230957,4494.230957,4380.641113,4429.615234,1581.000000,0.000000,6.000000,,,,0.000000,2.000000,2.000000,0.000000,2.000000,2.000000,2.000000,0.000000,2.000000,4.000000,4.000000,4.000000,4.000000,2.000000,4.000000,16.666666,,,,,,,,,,,,,,,,,,,,,,,,,,,,
1732083440.572410,1732083440.572391,14.000000,0.000000,4333.974121,4322.307617,4336.538574,4316.025879,4299.743652,4299.487305,4331.153809,4332.563965,4323.589844,4314.358887,4473.077148,4492.948730,4381.025879,4428.717773,1386.000000,0.000000,6.000000,,,,0.000000,2.000000,2.000000,0.000000,2.000000,2.000000,2.000000,0.000000,2.000000,4.000000,4.000000,4.000000,4.000000,2.000000,4.000000,16.666666,1.000000,8.333333,2.000000,2.000000,0.000000,1.000000,2.000000,2.000000,0.000000,2.000000,4.000000,4.000000,4.000000,4.000000,2.000000,4.000000,,,,,,,,,,,,
1732083440.580219,1732083440.580199,15.000000,0.000000,4336.538574,4326.410156,4331.410156,4319.358887,4298.974121,4298.589844,4331.025879,4327.820313,4322.563965,4314.871582,4472.820313,4492.179688,4378.846191,4429.230957,1514.000000,0.000000,6.000000,,,,0.000000,2.000000,2.000000,0.000000,2.000000,2.000000,2.000000,0.000000,2.000000,4.000000,4.000000,4.000000,4.000000,2.000000,4.000000,16.666666,,,,,,,,,,,,,,,,,,,,,,,,,,,,
1732083440.588027,1732083440.588107,16.000000,0.000000,4339.487305,4327.179688,4324.615234,4324.358887,4292.179688,4301.794922,4330.769043,4322.820313,4314.487305,4315.384766,4469.102539,4490.641113,4378.717773,4429.230957,0.000000,0.000000,6.000000,,,,0.000000,2.000000,2.000000,0.000000,2.000000,2.000000,2.000000,0.000000,2.000000,4.000000,4.000000,4.000000,4.000000,2.000000,4.000000,16.666666,,,,,,,,,,,,,,,,,4.000000,0.000000,0.555864,0.371765,-0.654419,0.352905,0.959590,-0.036137,-0.130875,-79.344177,53.505501,24.062872
1732083440.595835,1732083440.595915,17.000000,0.000000,4335.256348,4326.922852,4324.871582,4322.179688,4297.436035,4309.615234,4332.307617,4323.589844,4313.717773,4310.256348,4463.974121,4489.615234,4375.512695,4426.410156,0.000000,0.000000,6.000000,,,,0.000000,2.000000,2.000000,0.000000,2.000000,2.000000,2.000000,0.000000,2.000000,4.000000,4.000000,4.000000,4.000000,2.000000,4.000000,16.666666,,,,,,,,,,,,,,,,,,,,,,,,,,,,
1732083440.603644,1732083440.603923,18.000000,0.000000,4332.179688,4328.205078,4326.666504,4320.769043,4296.410156,4311.666504,4329.615234,4321.282227,4319.230957,4305.000000,4465.641113,4489.358887,4372.948730,4425.256348,0.000000,0.000000,6.000000,,,,0.000000,2.000000,2.000000,0.000000,2.000000,2.000000,2.000000,0.000000,2.000000,4.000000,4.000000,4.000000,4.000000,2.000000,4.000000,16.666666,,,,,,,,,,,,,,,,,,,,,,,,,,,,
1732083440.611452,1732083440.611732,19.000000,0.000000,4332.692383,4321.922852,4325.384766,4320.512695,4291.025879,4301.282227,4329.102539,4327.179688,4324.615234,4308.589844,4472.179688,4490.128418,4377.563965,4428.205078,0.000000,0.000000,6.000000,,,,0.000000,2.000000,2.000000,0.000000,2.000000,2.000000,2.000000,0.000000,2.000000,4.000000,4.000000,4.000000,4.000000,2.000000,4.000000,16.666666,,,,,,,,,,,,,,,,,,,,,,,,,,,,
1732083440.619260,1732083440.619640,20.000000,0.000000,4327.563965,4313.205078,4321.794922,4315.512695,4292.307617,4294.230957,4328.205078,4337.436035,4328.461426,4317.436035,4474.102539,4491.922852,4375.512695,4426.794922,0.000000,0.000000,6.000000,,,,0.000000,2.000000,2.000000,0.000000,2.000000,2.000000,2.000000,0.000000,2.000000,4.000000,4.000000,4.000000,4.000000,2.000000,4.000000,16.666666,,,,,,,,,,,,,,,,,5.000000,0.000000,0.551671,0.372192,-0.656433,0.355286,0.979612,-0.059089,-0.156757,-79.422119,53.247787,23.970926
1732083440.627068,1732083440.627448,21.000000,0.000000,4322.692383,4316.538574,4324.102539,4315.000000,4288.846191,4295.128418,4326.025879,4325.384766,4325.897461,4312.948730,4469.358887,4492.820313,4370.384766,4424.615234,0.000000,0.000000,6.000000,,,,0.000000,2.000000,2.000000,0.000000,2.000000,2.000000,2.000000,0.000000,2.000000,4.000000,4.000000,4.000000,4.000000,2.000000,4.000000,16.666666,,,,,,,,,,,,,,,,,,,,,,,,,,,,
1732083440.634877,1732083440.635456,22.000000,0.000000,4323.846191,4322.563965,4327.307617,4316.794922,4286.538574,4299.102539,4323.461426,4311.410156,4320.512695,4305.128418,4464.743652,4491.794922,4372.051270,4425.641113,0.000000,0.000000,6.000000,,,,0.000000,2.000000,2.000000,0.000000,2.000000,2.000000,2.000000,0.000000,2.000000,4.000000,4.000000,4.000000,4.000000,2.000000,4.000000,16.666666,,,,,,,,,,,,,,,,,,,,,,,,,,,,
1732083440.642685,1732083440.643264,23.000000,0.000000,4325.384766,4320.641113,4326.153809,4314.615234,4300.641113,4296.538574,4322.692383,4317.692383,4319.743652,4310.384766,4462.436035,4492.051270,4371.153809,4423.717773,0.000000,0.000000,6.000000,,,,0.000000,2.000000,2.000000,0.000000,2.000000,2.000000,2.000000,0.000000,2.000000,4.000000,4.000000,4.000000,4.000000,2.000000,4.000000,16.666666,,,,,,,,,,,,,,,,,,,,,,,,,,,,
1732083440.650493,1732083440.651172,24.000000,0.000000,4325.769043,4318.717773,4327.179688,4315.641113,4306.794922,4295.769043,4324.487305,4325.897461,4317.563965,4316.282227,4461.794922,4492.692383,4367.948730,4422.179688,0.000000,0.000000,6.000000,,,,0.000000,2.000000,2.000000,0.000000,2.000000,2.000000,2.000000,0.000000,2.000000,4.000000,4.000000,4.000000,4.000000,2.000000,4.000000,16.666666,,,,,,,,,,,,,,,,,6.000000,0.000000,0.550291,0.372009,-0.657166,0.356262,0.979612,-0.059089,-0.156757,-79.690247,52.884041,23.818117
1732083440.658301,1732083440.658980,25.000000,0.000000,4324.358887,4317.563965,4329.358887,4317.179688,4291.153809,4306.794922,4329.743652,4322.820313,4313.589844,4313.205078,4462.179688,4491.922852,4368.974121,4421.410156,0.000000,0.000000,6.000000,,,,0.000000,2.000000,2.000000,0.000000,2.000000,2.000000,2.000000,0.000000,2.000000,4.000000,4.000000,4.000000,4.000000,2.000000,4.000000,16.666666,,,,,,,,,,,,,,,,,,,,,,,,,,,,
1732083440.666110,1732083440.666988,26.000000,0.000000,4317.948730,4314.871582,4329.358887,4314.102539,4286.282227,4311.410156,4332.948730,4322.692383,4316.794922,4311.922852,4461.282227,4490.128418,4370.256348,4416.282227,0.000000,0.000000,6.000000,,,,0.000000,2.000000,2.000000,0.000000,2.000000,2.000000,2.000000,0.000000,2.000000,4.000000,4.000000,4.000000,4.000000,2.000000,4.000000,16.666666,,,,,,,,,,,,,,,,,,,,,,,,,,,,
1732083440.673918,1732083440.674797,27.000000,0.000000,4317.820313,4314.230957,4327.436035,4313.077148,4296.410156,4302.563965,4329.615234,4327.436035,4321.922852,4315.769043,4460.897461,4488.974121,4370.256348,4413.333496,0.000000,0.000000,6.000000,,,,0.000000,2.000000,2.000000,0.000000,2.000000,2.000000,2.000000,0.000000,2.000000,4.000000,4.000000,4.000000,4.000000,2.000000,4.000000,16.666666,,,,,,,,,,,,,,,,,,,,,,,,,,,,
1732083440.681726,1732083440.682705,28.000000,0.000000,4323.589844,4316.666504,4326.025879,4314.743652,4296.922852,4298.974121,4325.769043,4326.922852,4321.410156,4315.000000,4462.692383,4490.769043,4371.153809,4419.230957,0.000000,0.000000,6.000000,,,,0.000000,2.000000,2.000000,0.000000,2.000000,2.000000,2.000000,0.000000,2.000000,4.000000,4.000000,4.000000,4.000000,2.000000,4.000000,16.666666,,,,,,,,,,,,,,,,,7.000000,0.000000,0.543785,0.370178,-0.660706,0.361572,0.980588,-0.097668,-0.156757,-79.822433,52.377739,23.417675
1732083440.689534,1732083440.690513,29.000000,0.000000,4323.589844,4317.436035,4325.512695,4313.717773,4293.333496,4300.384766,4325.384766,4323.846191,4319.102539,4313.589844,4463.333496,4489.615234,4374.487305,4418.974121,0.000000,0.000000,6.000000,,,,0.000000,2.000000,2.000000,0.000000,2.000000,2.000000,2.000000,0.000000,2.000000,4.000000,4.000000,4.000000,4.000000,2.000000,4.000000,16.666666,,,,,,,,,,,,,,,,,,,,,,,,,,,,
1732083440.697343,1732083440.698521,30.000000,0.000000,4323.461426,4315.512695,4324.358887,4314.358887,4293.717773,4298.077148,4323.205078,4323.461426,4324.358887,4315.641113,4464.102539,4488.589844,4378.589844,4415.000000,0.000000,0.000000,6.000000,,,,0.000000,2.000000,2.000000,0.000000,2.000000,2.000000,2.000000,0.000000,2.000000,4.000000,4.000000,4.000000,4.000000,2.000000,4.000000,16.666666,,,,,,,,,,,,,,,,,,,,,,,,,,,,
1732083440.705151,1732083440.706329,31.000000,0.000000,4328.589844,4317.051270,4320.769043,4317.820313,4295.897461,4298.846191,4320.128418,4325.256348,4329.102539,4318.077148,4465.256348,4490.641113,4380.256348,4421.153809,0.000000,0.000000,6.000000,,,,0.000000,2.000000,2.000000,0.000000,2.000000,2.000000,2.000000,0.000000,2.000000,4.000000,4.000000,4.000000,4.000000,2.000000,4.000000,16.666666,,,,,,,,,,,,,,,,,,,,,,,,,,,,
1732083440.712959,1732083440.714237,32.000000,0.000000,4330.897461,4320.512695,4319.615234,4319.102539,4297.436035,4300.512695,4321.410156,4323.077148,4319.615234,4315.384766,4466.153809,4492.692383,4381.538574,4426.794922,0.000000,0.000000,6.000000,,,,0.000000,2.000000,2.000000,0.000000,2.000000,2.000000,2.000000,0.000000,2.000000,4.000000,4.000000,4.000000,4.000000,2.000000,4.000000,16.666666,,,,,,,,,,,,,,,,,8.000000,0.000000,0.540634,0.367798,-0.663208,0.364136,0.959101,-0.143572,-0.167501,-79.917839,51.807636,22.869984
1732083440.720767,1732083440.722045,33.000000,0.000000,4327.051270,4318.077148,4321.794922,4318.077148,4293.077148,4299.358887,4323.717773,4320.897461,4317.051270,4310.128418,4468.717773,4489.487305,4383.077148,4423.205078,0.000000,0.000000,6.000000,,,,0.000000,2.000000,2.000000,0.000000,2.000000,2.000000,2.000000,0.000000,2.000000,4.000000,4.000000,4.000000,4.000000,2.000000,4.000000,16.666666,,,,,,,,,,,,,,,,,,,,,,,,,,,,
1732083440.728576,1732083440.730053,34.000000,0.000000,4322.436035,4313.717773,4322.692383,4314.615234,4303.077148,4306.538574,4327.948730,4322.436035,4326.025879,4311.153809,4469.230957,4484.487305,4377.692383,4418.077148,0.000000,0.000000,6.000000,,,,0.000000,2.000000,2.000000,0.000000,2.000000,2.000000,2.000000,0.000000,2.000000,4.000000,4.000000,4.000000,4.000000,2.000000,4.000000,16.666666,,,,,,,,,,,,,,,,,,,,,,,,,,,,
1732083440.736384,1732083440.737862,35.000000,0.000000,4323.205078,4314.358887,4324.102539,4312.179688,4320.512695,4310.000000,4328.461426,4325.256348,4328.974121,4317.436035,4463.846191,4485.769043,4374.102539,4420.512695,0.000000,0.000000,6.000000,,,,0.000000,2.000000,2.000000,0.000000,2.000000,2.000000,2.000000,0.000000,2.000000,4.000000,4.000000,4.000000,4.000000,2.000000,4.000000,16.666666,,,,,,,,,,,,,,,,,,,,,,,,,,,,
1732083440.744192,1732083440.745770,36.000000,0.000000,4324.743652,4315.000000,4327.820313,4315.512695,4308.589844,4304.487305,4328.205078,4326.666504,4323.974121,4319.871582,4462.436035,4491.410156,4378.846191,4421.538574,0.000000,0.000000,6.000000,,,,0.000000,2.000000,2.000000,0.000000,2.000000,2.000000,2.000000,0.000000,2.000000,4.000000,4.000000,4.000000,4.000000,2.000000,4.000000,16.666666,,,,,,,,,,,,,,,,,9.000000,0.000000,0.539090,0.366638,-0.664368,0.365479,0.957148,-0.134782,-0.154804,-79.948448,51.527519,22.496353
1732083440.752000,1732083440.753578,37.000000,0.000000,4324.358887,4312.948730,4326.282227,4318.589844,4287.307617,4301.666504,4329.102539,4324.743652,4321.666504,4317.436035,4467.179688,4492.179688,4381.922852,4417.948730,0.000000,0.000000,6.000000,,,,0.000000,2.000000,2.000000,0.000000,2.000000,2.000000,2.000000,0.000000,2.000000,4.000000,4.000000,4.000000,4.000000,2.000000,4.000000,16.666666,,,,,,,,,,,,,,,,,,,,,,,,,,,,
1732083440.759809,1732083440.761586,38.000000,0.000000,4321.922852,4312.692383,4324.102539,4313.717773,4292.692383,4302.563965,4333.717773,4323.846191,4324.358887,4315.769043,4465.769043,4483.589844,4379.743652,4415.384766,0.000000,0.000000,6.000000,,,,0.000000,2.000000,2.000000,0.000000,2.000000,2.000000,2.000000,0.000000,2.000000,4.000000,4.000000,4.000000,4.000000,2.000000,4.000000,16.666666,,,,,,,,,,,,,,,,,,,,,,,,,,,,
1732083440.767617,1732083440.769394,39.000000,0.000000,4318.589844,4311.538574,4325.897461,4312.179688,4306.922852,4309.871582,4332.692383,4324.743652,4324.743652,4310.512695,4458.333496,4477.436035,4374.615234,4413.589844,0.000000,0.000000,6.000000,,,,0.000000,2.000000,2.000000,0.000000,2.000000,2.000000,2.000000,0.000000,2.000000,4.000000,4.000000,4.000000,4.000000,2.000000,4.000000,16.666666,,,,,,,,,,,,,,,,,,,,,,,,,,,,
1732083440.775425,1732083440.777302,40.000000,0.000000,4314.102539,4309.358887,4324.487305,4316.922852,4305.256348,4315.641113,4328.077148,4329.743652,4325.512695,4306.794922,4456.410156,4477.820313,4370.512695,4410.256348,0.000000,0.000000,6.000000,,,,0.000000,2.000000,2.000000,0.000000,2.000000,2.000000,2.000000,0.000000,2.000000,4.000000,4.000000,4.000000,4.000000,2.000000,4.000000,16.666666,,,,,,,,,,,,,,,,,10.000000,0.000000,0.536478,0.364014,-0.666809,0.367493,0.961055,-0.137224,-0.161641,-79.831581,51.395622,22.243713
1732083440.783234,1732083440.785111,41.000000,0.000000,4313.077148,4311.794922,4323.333496,4313.333496,4297.051270,4305.769043,4326.153809,4335.384766,4328.077148,4312.179688,4458.846191,4478.846191,4375.128418,4407.307617,0.000000,0.000000,6.000000,,,,0.000000,2.000000,2.000000,0.000000,2.000000,2.000000,2.000000,0.000000,2.000000,4.000000,4.000000,4.000000,4.000000,2.000000,4.000000,16.666666,,,,,,,,,,,,,,,,,,,,,,,,,,,,
1732083440.791042,1732083440.793119,42.000000,0.000000,4318.461426,4318.333496,4324.358887,4312.436035,4298.717773,4296.922852,4326.025879,4324.871582,4323.077148,4315.897461,4462.179688,4479.358887,4386.794922,4411.410156,0.000000,0.000000,6.000000,,,,0.000000,2.000000,2.000000,0.000000,2.000000,2.000000,2.000000,0.000000,2.000000,4.000000,4.000000,4.000000,4.000000,2.000000,4.000000,16.666666,,,,,,,,,,,,,,,,,,,,,,,,,,,,
1732083440.798850,1732083440.800927,43.000000,0.000000,4323.974121,4324.102539,4325.641113,4321.410156,4308.333496,4302.948730,4325.769043,4310.769043,4318.974121,4310.384766,4466.666504,4484.743652,4388.205078,4415.256348,0.000000,0.000000,6.000000,,,,0.000000,2.000000,2.000000,0.000000,2.000000,2.000000,2.000000,0.000000,2.000000,4.000000,4.000000,4.000000,4.000000,2.000000,4.000000,16.666666,,,,,,,,,,,,,,,,,,,,,,,,,,,,
1732083440.806658,1732083440.808835,44.000000,0.000000,4324.743652,4325.641113,4325.000000,4323.205078,4310.897461,4311.153809,4328.205078,4319.358887,4326.410156,4310.769043,4469.358887,4486.025879,4383.205078,4415.512695,0.000000,0.000000,6.000000,,,,0.000000,2.000000,2.000000,0.000000,2.000000,2.000000,2.000000,0.000000,2.000000,4.000000,4.000000,4.000000,4.000000,2.000000,4.000000,16.666666,,,,,,,,,,,,,,,,,11.000000,0.000000,0.532988,0.358337,-0.671082,0.370361,0.964473,-0.144061,-0.158711,-79.885246,50.842121,21.840740
1732083440.814467,1732083440.816643,45.000000,0.000000,4323.717773,4321.794922,4325.384766,4320.000000,4308.077148,4310.641113,4332.051270,4331.666504,4324.615234,4317.179688,4466.282227,4484.743652,4382.948730,4417.436035,0.000000,0.000000,6.000000,,,,0.000000,2.000000,2.000000,0.000000,2.000000,2.000000,2.000000,0.000000,2.000000,4.000000,4.000000,4.000000,4.000000,2.000000,4.000000,16.666666,,,,,,,,,,,,,,,,,,,,,,,,,,,,
1732083440.822275,1732083440.824251,46.000000,0.000000,4324.102539,4318.846191,4324.358887,4323.974121,4312.692383,4305.641113,4330.641113,4323.846191,4312.948730,4310.128418,4463.461426,4487.692383,4382.563965,4422.307617,0.000000,0.000000,6.000000,,,,0.000000,2.000000,2.000000,0.000000,2.000000,2.000000,2.000000,0.000000,2.000000,4.000000,4.000000,4.000000,4.000000,2.000000,4.000000,16.666666,,,,,,,,,,,,,,,,,,,,,,,,,,,,
1732083440.830083,1732083440.832060,47.000000,0.000000,4322.692383,4320.128418,4324.871582,4322.051270,4315.000000,4305.256348,4328.846191,4321.794922,4322.307617,4303.205078,4463.205078,4488.205078,4380.256348,4421.282227,0.000000,0.000000,6.000000,,,,0.000000,2.000000,2.000000,0.000000,2.000000,2.000000,2.000000,0.000000,2.000000,4.000000,4.000000,4.000000,4.000000,2.000000,4.000000,16.666666,,,,,,,,,,,,,,,,,,,,,,,,,,,,
1732083440.837891,1732083440.839968,48.000000,0.000000,4321.025879,4319.358887,4325.897461,4316.922852,4309.358887,4313.205078,4329.743652,4333.461426,4333.205078,4309.102539,4460.769043,4487.307617,4379.358887,4413.461426,0.000000,0.000000,6.000000,,,,0.000000,2.000000,2.000000,0.000000,2.000000,2.000000,2.000000,0.000000,2.000000,4.000000,4.000000,4.000000,4.000000,2.000000,4.000000,16.666666,,,,,,,,,,,,,,,,,12.000000,0.000000,0.531593,0.354309,-0.673950,0.371033,0.954218,-0.134782,-0.155781,-80.117050,50.467117,21.532667
1732083440.845700,1732083440.847776,49.000000,0.000000,4324.230957,4317.436035,4324.871582,4318.717773,4304.102539,4312.948730,4329.102539,4332.820313,4323.461426,4315.256348,4462.692383,4489.230957,4381.025879,4414.230957,0.000000,0.000000,6.000000,,,,0.000000,2.000000,2.000000,0.000000,2.000000,2.000000,2.000000,0.000000,2.000000,4.000000,4.000000,4.000000,4.000000,2.000000,4.000000,16.666666,,,,,,,,,,,,,,,,,,,,,,,,,,,,
1732083440.853508,1732083440.855384,50.000000,0.000000,4329.358887,4322.948730,4323.846191,4320.256348,4310.000000,4292.820313,4321.410156,4318.974121,4315.769043,4317.051270,4472.820313,4489.487305,4385.897461,4426.666504,0.000000,0.000000,6.000000,,,,0.000000,2.000000,2.000000,0.000000,2.000000,2.000000,2.000000,0.000000,2.000000,4.000000,4.000000,4.000000,4.000000,2.000000,4.000000,16.666666,,,,,,,,,,,,,,,,,,,,,,,,,,,,
1732083440.861316,1732083440.863193,51.000000,0.000000,4332.051270,4327.563965,4326.922852,4319.615234,4314.358887,4280.512695,4319.487305,4315.897461,4318.846191,4316.410156,4477.436035,4492.051270,4389.358887,4433.589844,0.000000,0.000000,6.000000,,,,0.000000,2.000000,2.000000,0.000000,2.000000,2.000000,2.000000,0.000000,2.000000,4.000000,4.000000,4.000000,4.000000,2.000000,4.000000,16.666666,,,,,,,,,,,,,,,,,,,,,,,,,,,,
1732083440.869125,1732083440.870901,52.000000,0.000000,4332.948730,4328.077148,4329.615234,4324.615234,4304.102539,4292.436035,4325.128418,4326.410156,4321.025879,4309.615234,4473.077148,4497.563965,4380.897461,4426.922852,0.000000,0.000000,6.000000,,,,0.000000,2.000000,2.000000,0.000000,2.000000,2.000000,2.000000,0.000000,2.000000,4.000000,4.000000,4.000000,4.000000,2.000000,4.000000,16.666666,,,,,,,,,,,,,,,,,13.000000,0.000000,0.531593,0.354309,-0.673950,0.371033,0.963008,-0.119644,-0.151874,-80.439812,50.073364,21.418127
1732083440.876933,1732083440.878709,53.000000,0.000000,4334.871582,4328.077148,4327.179688,4330.256348,4296.153809,4304.487305,4332.179688,4328.717773,4320.384766,4307.307617,4473.461426,4497.563965,4376.538574,4428.974121,0.000000,0.000000,6.000000,,,,0.000000,2.000000,2.000000,0.000000,2.000000,2.000000,2.000000,0.000000,2.000000,4.000000,4.000000,4.000000,4.000000,2.000000,4.000000,16.666666,,,,,,,,,,,,,,,,,,,,,,,,,,,,
1732083440.884741,1732083440.886318,54.000000,0.000000,4335.512695,4324.102539,4324.871582,4326.794922,4302.051270,4303.974121,4330.641113,4319.743652,4318.205078,4311.794922,4480.384766,4497.563965,4390.256348,4442.307617,0.000000,0.000000,6.000000,,,,0.000000,2.000000,2.000000,0.000000,2.000000,2.000000,2.000000,0.000000,2.000000,4.000000,4.000000,4.000000,4.000000,2.000000,4.000000,16.666666,,,,,,,,,,,,,,,,,,,,,,,,,,,,
1732083440.892549,1732083440.894126,55.000000,0.000000,4332.307617,4322.820313,4326.922852,4324.743652,4308.589844,4301.153809,4330.256348,4316.794922,4312.692383,4306.410156,4477.051270,4497.307617,4389.102539,4438.205078,0.000000,0.000000,6.000000,,,,0.000000,2.000000,2.000000,0.000000,2.000000,2.000000,2.000000,0.000000,2.000000,4.000000,4.000000,4.000000,4.000000,2.000000,4.000000,16.666666,,,,,,,,,,,,,,,,,,,,,,,,,,,,
1732083440.900358,1732083440.901834,56.000000,0.000000,4331.794922,4324.358887,4330.384766,4328.717773,4308.205078,4303.589844,4331.922852,4322.051270,4316.282227,4309.743652,4471.410156,4494.358887,4377.051270,4428.077148,0.000000,0.000000,6.000000,,,,0.000000,2.000000,2.000000,0.000000,2.000000,2.000000,2.000000,0.000000,2.000000,4.000000,4.000000,4.000000,4.000000,2.000000,4.000000,16.666666,,,,,,,,,,,,,,,,,14.000000,0.000000,0.530779,0.350708,-0.676270,0.371399,0.954706,-0.130875,-0.162129,-80.477913,49.522758,21.178682
1732083440.908166,1732083440.909642,57.000000,0.000000,4334.743652,4321.794922,4327.436035,4327.307617,4307.307617,4304.230957,4333.333496,4329.743652,4325.384766,4323.205078,4478.461426,4496.025879,4382.820313,4432.692383,0.000000,0.000000,6.000000,,,,0.000000,2.000000,2.000000,0.000000,2.000000,2.000000,2.000000,0.000000,2.000000,4.000000,4.000000,4.000000,4.000000,2.000000,4.000000,16.666666,,,,,,,,,,,,,,,,,,,,,,,,,,,,
1732083440.915974,1732083440.917251,58.000000,0.000000,4330.641113,4320.897461,4325.000000,4322.563965,4306.153809,4303.205078,4331.282227,4329.487305,4319.230957,4315.000000,4473.717773,4494.615234,4382.307617,4429.743652,0.000000,0.000000,6.000000,,,,0.000000,2.000000,2.000000,0.000000,2.000000,2.000000,2.000000,0.000000,2.000000,4.000000,4.000000,4.000000,4.000000,2.000000,4.000000,16.666666,,,,,,,,,,,,,,,,,,,,,,,,,,,,
1732083440.923782,1732083440.925059,59.000000,0.000000,4322.563965,4322.436035,4326.794922,4322.307617,4316.025879,4304.487305,4327.948730,4317.820313,4310.000000,4301.025879,4458.205078,4486.025879,4368.077148,4413.846191,0.000000,0.000000,6.000000,,,,0.000000,2.000000,2.000000,0.000000,2.000000,2.000000,2.000000,0.000000,2.000000,4.000000,4.000000,4.000000,4.000000,2.000000,4.000000,16.666666,,,,,,,,,,,,,,,,,,,,,,,,,,,,
1732083440.931591,1732083440.932967,60.000000,0.000000,4323.077148,4319.615234,4326.922852,4321.538574,4322.948730,4303.717773,4327.307617,4316.538574,4318.589844,4309.230957,4462.051270,4487.436035,4367.692383,4413.974121,0.000000,0.000000,6.000000,,,,0.000000,2.000000,2.000000,0.000000,2.000000,2.000000,2.000000,0.000000,2.000000,4.000000,4.000000,4.000000,4.000000,2.000000,4.000000,16.666666,,,,,,,,,,,,,,,,,15.000000,0.000000,0.530324,0.348267,-0.677551,0.372009,0.959590,-0.141619,-0.154316,-80.535439,49.040104,20.971399
1732083440.939399,1732083440.940775,61.000000,0.000000,4327.692383,4317.948730,4323.333496,4317.563965,4305.512695,4304.871582,4329.358887,4336.153809,4332.692383,4321.153809,4477.051270,4495.512695,4373.333496,4424.615234,0.000000,0.000000,6.000000,,,,0.000000,2.000000,2.000000,0.000000,2.000000,2.000000,2.000000,0.000000,2.000000,4.000000,4.000000,4.000000,4.000000,2.000000,4.000000,16.666666,,,,,,,,,,,,,,,,,,,,,,,,,,,,
1732083440.947207,1732083440.948783,62.000000,0.000000,4329.358887,4321.538574,4322.820313,4318.077148,4293.589844,4310.769043,4331.025879,4343.205078,4330.897461,4315.641113,4476.410156,4494.487305,4368.717773,4422.179688,0.000000,0.000000,6.000000,,,,0.000000,2.000000,2.000000,0.000000,2.000000,2.000000,2.000000,0.000000,2.000000,4.000000,4.000000,4.000000,4.000000,2.000000,4.000000,16.666666,,,,,,,,,,,,,,,,,,,,,,,,,,,,
1732083440.955015,1732083440.956591,63.000000,0.000000,4325.897461,4320.256348,4323.333496,4320.256348,4302.307617,4313.589844,4330.128418,4331.666504,4329.487305,4307.820313,4465.641113,4488.333496,4363.974121,4411.666504,0.000000,0.000000,6.000000,,,,0.000000,2.000000,2.000000,0.000000,2.000000,2.000000,2.000000,0.000000,2.000000,4.000000,4.000000,4.000000,4.000000,2.000000,4.000000,16.666666,,,,,,,,,,,,,,,,,,,,,,,,,,,,
1732083440.962824,1732083440.964500,64.000000,0.000000,4320.128418,4317.307617,4323.846191,4317.820313,4310.000000,4309.615234,4332.051270,4330.769043,4334.358887,4310.897461,4462.948730,4482.436035,4362.948730,4407.692383,0.000000,0.000000,6.000000,,,,0.000000,2.000000,2.000000,0.000000,2.000000,2.000000,2.000000,0.000000,2.000000,4.000000,4.000000,4.000000,4.000000,2.000000,4.000000,16.666666,,,,,,,,,,,,,,,,,16.000000,0.000000,0.530036,0.347839,-0.677795,0.372375,0.959590,-0.141619,-0.154316,-80.845375,48.937481,20.818501
1732083440.970632,1732083440.972308,65.000000,0.000000,4320.769043,4320.256348,4325.256348,4316.794922,4310.769043,4305.000000,4330.128418,4325.512695,4325.769043,4312.820313,4464.743652,4476.666504,4366.410156,4411.153809,1322.000000,0.000000,6.000000,,,,0.000000,2.000000,2.000000,0.000000,2.000000,2.000000,2.000000,0.000000,2.000000,4.000000,4.000000,4.000000,4.000000,2.000000,4.000000,16.666666,,,,,,,,,,,,,,,,,,,,,,,,,,,,
1732083440.978440,1732083440.979916,66.000000,0.000000,4324.487305,4321.794922,4325.000000,4320.000000,4309.487305,4305.128418,4325.769043,4310.128418,4313.461426,4303.077148,4461.538574,4473.846191,4370.512695,4409.487305,1245.000000,0.000000,6.000000,,,,0.000000,2.000000,2.000000,0.000000,2.000000,2.000000,2.000000,0.000000,2.000000,4.000000,4.000000,4.000000,4.000000,2.000000,4.000000,16.666666,,,,,,,,,,,,,,,,,,,,,,,,,,,,
1732083440.986248,1732083440.987724,67.000000,0.000000,4324.102539,4318.205078,4322.948730,4318.205078,4310.384766,4302.307617,4324.102539,4313.974121,4316.153809,4299.358887,4459.102539,4477.051270,4366.153809,4406.282227,1189.000000,0.000000,6.000000,,,,0.000000,2.000000,2.000000,0.000000,2.000000,2.000000,2.000000,0.000000,2.000000,4.000000,4.000000,4.000000,4.000000,2.000000,4.000000,16.666666,,,,,,,,,,,,,,,,,,,,,,,,,,,,
1732083440.994057,1732083440.995433,68.000000,0.000000,4323.461426,4313.333496,4323.846191,4310.256348,4317.051270,4297.179688,4327.051270,4324.871582,4321.794922,4305.000000,4462.436035,4479.743652,4364.743652,4407.051270,1230.000000,0.000000,6.000000,,,,0.000000,2.000000,2.000000,0.000000,2.000000,2.000000,2.000000,0.000000,2.000000,4.000000,4.000000,4.000000,4.000000,2.000000,4.000000,16.666666,,,,,,,,,,,,,,,,,17.000000,0.000000,0.529748,0.347290,-0.678101,0.372742,0.955195,-0.146991,-0.162618,-80.709755,48.392693,20.656319
1732083441.001865,1732083441.003241,69.000000,0.000000,4325.769043,4311.666504,4325.769043,4307.692383,4310.897461,4299.871582,4325.897461,4321.922852,4320.000000,4300.641113,4462.820313,4480.897461,4367.563965,4406.538574,1075.000000,0.000000,6.000000,,,,0.000000,2.000000,2.000000,0.000000,2.000000,2.000000,2.000000,0.000000,2.000000,4.000000,4.000000,4.000000,4.000000,2.000000,4.000000,16.666666,,,,,,,,,,,,,,,,,,,,,,,,,,,,
1732083441.009673,1732083441.011249,70.000000,0.000000,4320.897461,4313.333496,4325.256348,4311.282227,4292.820313,4308.589844,4326.922852,4326.666504,4324.102539,4295.256348,4457.820313,4482.051270,4362.563965,4403.717773,0.000000,0.000000,6.000000,,,,0.000000,2.000000,2.000000,0.000000,2.000000,2.000000,2.000000,0.000000,2.000000,4.000000,4.000000,4.000000,4.000000,2.000000,4.000000,16.666666,,,,,,,,,,,,,,,,,,,,,,,,,,,,
1732083441.017481,1732083441.019057,71.000000,0.000000,4315.000000,4310.897461,4325.897461,4307.692383,4295.897461,4312.948730,4332.051270,4337.436035,4331.025879,4306.153809,4457.820313,4483.333496,4360.128418,4403.333496,1167.000000,0.000000,6.000000,,,,0.000000,2.000000,2.000000,0.000000,2.000000,2.000000,2.000000,0.000000,2.000000,4.000000,4.000000,4.000000,4.000000,2.000000,4.000000,16.666666,,,,,,,,,,,,,,,,,,,,,,,,,,,,
1732083441.025290,1732083441.026965,72.000000,0.000000,4312.948730,4300.384766,4325.897461,4302.948730,4308.077148,4313.461426,4334.871582,4333.717773,4331.794922,4309.743652,4460.128418,4482.179688,4363.974121,4400.256348,1369.000000,0.000000,6.000000,,,,0.000000,2.000000,2.000000,0.000000,2.000000,2.000000,2.000000,0.000000,2.000000,4.000000,4.000000,4.000000,4.000000,2.000000,4.000000,16.666666,,,,,,,,,,,,,,,,,18.000000,0.000000,0.528883,0.344849,-0.679382,0.373901,0.964473,-0.160664,-0.158222,-81.126564,47.959747,20.721619
1732083441.033098,1732083441.034773,73.000000,0.000000,4312.948730,4300.897461,4325.512695,4306.794922,4304.230957,4312.307617,4332.436035,4335.897461,4334.871582,4298.333496,4459.102539,4483.461426,4365.641113,4397.692383,1528.000000,0.000000,6.000000,,,,0.000000,2.000000,2.000000,0.000000,2.000000,2.000000,2.000000,0.000000,2.000000,4.000000,4.000000,4.000000,4.000000,2.000000,4.000000,16.666666,,,,,,,,,,,,,,,,,,,,,,,,,,,,
1732083441.040906,1732083441.042781,74.000000,0.000000,4319.230957,4309.743652,4324.743652,4309.358887,4302.692383,4313.333496,4333.205078,4344.230957,4335.897461,4298.077148,4458.717773,4483.589844,4362.948730,4400.897461,1379.000000,0.000000,6.000000,,,,0.000000,2.000000,2.000000,0.000000,2.000000,2.000000,2.000000,0.000000,2.000000,4.000000,4.000000,4.000000,4.000000,2.000000,4.000000,16.666666,,,,,,,,,,,,,,,,,,,,,,,,,,,,
1732083441.048715,1732083441.050590,75.000000,0.000000,4326.922852,4306.410156,4324.102539,4308.846191,4306.538574,4317.307617,4336.282227,4335.128418,4330.769043,4307.179688,4462.051270,4478.846191,4358.461426,4398.846191,1521.000000,0.000000,6.000000,,,,0.000000,2.000000,2.000000,0.000000,2.000000,2.000000,2.000000,0.000000,2.000000,4.000000,4.000000,4.000000,4.000000,2.000000,4.000000,16.666666,,,,,,,,,,,,,,,,,,,,,,,,,,,,
1732083441.056523,1732083441.058498,76.000000,0.000000,4328.974121,4303.589844,4323.974121,4308.333496,4310.384766,4317.692383,4333.333496,4318.333496,4325.128418,4303.846191,4460.769043,4476.794922,4357.563965,4396.153809,1753.000000,0.000000,6.000000,,,,0.000000,2.000000,2.000000,0.000000,2.000000,2.000000,2.000000,0.000000,2.000000,4.000000,4.000000,4.000000,4.000000,2.000000,4.000000,16.666666,,,,,,,,,,,,,,,,,19.000000,0.000000,0.528672,0.344238,-0.679688,0.374207,0.964473,-0.160664,-0.158222,-81.302521,47.664063,20.757843
1732083441.064331,1732083441.066306,77.000000,0.000000,4326.666504,4312.436035,4325.769043,4305.897461,4323.589844,4310.256348,4327.948730,4318.205078,4321.410156,4291.794922,4449.102539,4478.461426,4356.025879,4396.282227,1589.000000,0.000000,6.000000,,,,0.000000,2.000000,2.000000,0.000000,2.000000,2.000000,2.000000,0.000000,2.000000,4.000000,4.000000,4.000000,4.000000,2.000000,4.000000,16.666666,,,,,,,,,,,,,,,,,,,,,,,,,,,,
1732083441.072139,1732083441.074314,78.000000,0.000000,4327.820313,4311.666504,4325.897461,4301.922852,4316.538574,4303.333496,4326.666504,4329.358887,4325.897461,4296.153809,4449.358887,4483.077148,4355.769043,4398.974121,1379.000000,0.000000,6.000000,,,,0.000000,2.000000,2.000000,0.000000,2.000000,2.000000,2.000000,0.000000,2.000000,4.000000,4.000000,4.000000,4.000000,2.000000,4.000000,16.666666,1.000000,16.666666,2.000000,2.000000,0.000000,2.000000,2.000000,2.000000,0.000000,2.000000,4.000000,3.000000,4.000000,4.000000,2.000000,4.000000,,,,,,,,,,,,
1732083441.079948,1732083441.082122,79.000000,0.000000,4323.333496,4300.512695,4322.692383,4300.512695,4293.333496,4306.666504,4328.846191,4334.615234,4333.205078,4307.179688,4461.794922,4488.974121,4360.256348,4400.641113,1521.000000,0.000000,6.000000,,,,0.000000,2.000000,2.000000,0.000000,2.000000,2.000000,2.000000,0.000000,2.000000,4.000000,4.000000,4.000000,4.000000,2.000000,4.000000,16.666666,,,,,,,,,,,,,,,,,,,,,,,,,,,,
1732083441.087756,1732083441.089830,80.000000,0.000000,4312.563965,4297.051270,4320.769043,4302.051270,4298.974121,4314.102539,4330.641113,4334.358887,4331.538574,4305.256348,4462.436035,4486.025879,4356.410156,4397.179688,1753.000000,0.000000,6.000000,,,,0.000000,2.000000,2.000000,0.000000,2.000000,2.000000,2.000000,0.000000,2.000000,4.000000,4.000000,4.000000,4.000000,2.000000,4.000000,16.666666,,,,,,,,,,,,,,,,,20.000000,0.000000,0.527906,0.342834,-0.680420,0.375244,0.953241,-0.161641,-0.148944,-81.593376,47.537891,20.455521
1732083441.095564,1732083441.097639,81.000000,0.000000,4310.769043,4298.717773,4322.179688,4303.717773,4316.153809,4313.974121,4332.307617,4332.948730,4328.974121,4303.077148,4457.563965,4479.102539,4347.307617,4394.743652,1589.000000,0.000000,6.000000,,,,0.000000,2.000000,2.000000,0.000000,2.000000,2.000000,2.000000,0.000000,2.000000,4.000000,4.000000,4.000000,4.000000,2.000000,4.000000,16.666666,,,,,,,,,,,,,,,,,,,,,,,,,,,,
1732083441.103372,1732083441.105647,82.000000,0.000000,4313.974121,4297.692383,4323.461426,4303.717773,4307.692383,4311.794922,4331.666504,4337.948730,4338.846191,4308.333496,4457.563965,4482.820313,4353.974121,4396.025879,1379.000000,0.000000,6.000000,,,,0.000000,2.000000,2.000000,0.000000,2.000000,2.000000,2.000000,0.000000,2.000000,4.000000,4.000000,4.000000,4.000000,2.000000,4.000000,16.666666,,,,,,,,,,,,,,,,,,,,,,,,,,,,
1732083441.111181,1732083441.113455,83.000000,0.000000,4311.794922,4295.000000,4321.538574,4301.410156,4297.820313,4316.410156,4333.589844,4345.000000,4342.307617,4307.820313,4460.256348,4485.897461,4366.538574,4397.948730,1521.000000,0.000000,6.000000,,,,0.000000,2.000000,2.000000,0.000000,2.000000,2.000000,2.000000,0.000000,2.000000,4.000000,4.000000,4.000000,4.000000,2.000000,4.000000,16.666666,,,,,,,,,,,,,,,,,,,,,,,,,,,,
1732083441.118989,1732083441.121363,84.000000,0.000000,4315.769043,4298.461426,4319.743652,4305.512695,4312.179688,4313.717773,4332.307617,4339.358887,4332.051270,4306.153809,4467.179688,4482.692383,4369.230957,4402.179688,1753.000000,0.000000,6.000000,,,,0.000000,2.000000,2.000000,0.000000,2.000000,2.000000,2.000000,0.000000,2.000000,4.000000,4.000000,4.000000,4.000000,2.000000,4.000000,16.666666,,,,,,,,,,,,,,,,,21.000000,0.000000,0.527500,0.341187,-0.681091,0.376099,0.957636,-0.182151,-0.161152,-81.543968,47.264027,20.242304
1732083441.126797,1732083441.129171,85.000000,0.000000,4325.512695,4304.743652,4322.307617,4313.461426,4322.948730,4304.743652,4327.948730,4325.769043,4328.077148,4316.666504,4474.871582,4488.717773,4371.025879,4409.615234,1589.000000,0.000000,6.000000,,,,0.000000,2.000000,2.000000,0.000000,2.000000,2.000000,2.000000,0.000000,2.000000,4.000000,4.000000,4.000000,4.000000,2.000000,4.000000,16.666666,,,,,,,,,,,,,,,,,,,,,,,,,,,,
1732083441.134606,1732083441.137179,86.000000,0.000000,4318.205078,4298.333496,4324.102539,4312.692383,4311.282227,4312.179688,4327.692383,4325.000000,4336.538574,4325.384766,4475.384766,4496.153809,4372.051270,4409.743652,1379.000000,0.000000,6.000000,,,,0.000000,2.000000,2.000000,0.000000,2.000000,2.000000,2.000000,0.000000,2.000000,4.000000,4.000000,4.000000,4.000000,2.000000,4.000000,16.666666,,,,,,,,,,,,,,,,,,,,,,,,,,,,
1732083441.142414,1732083441.144987,87.000000,0.000000,4306.538574,4292.820313,4322.692383,4309.487305,4296.153809,4318.717773,4333.333496,4339.615234,4340.512695,4319.743652,4474.102539,4490.256348,4367.948730,4402.948730,1521.000000,0.000000,6.000000,,,,0.000000,2.000000,2.000000,0.000000,2.000000,2.000000,2.000000,0.000000,2.000000,4.000000,4.000000,4.000000,4.000000,2.000000,4.000000,16.666666,,,,,,,,,,,,,,,,,,,,,,,,,,,,
1732083441.150222,1732083441.152895,88.000000,0.000000,4317.692383,4302.307617,4323.974121,4315.769043,4303.205078,4311.922852,4331.538574,4343.461426,4333.717773,4311.153809,4473.077148,4486.410156,4364.487305,4404.743652,1753.000000,0.000000,6.000000,,,,0.000000,2.000000,2.000000,0.000000,2.000000,2.000000,2.000000,0.000000,2.000000,4.000000,4.000000,4.000000,4.000000,2.000000,4.000000,16.666666,,,,,,,,,,,,,,,,,22.000000,0.000000,0.527788,0.340332,-0.681396,0.375916,0.956660,-0.155292,-0.164083,-81.570610,47.020527,20.302933
1732083441.158030,1732083441.160704,89.000000,0.000000,4328.974121,4307.948730,4325.897461,4318.333496,4311.410156,4313.589844,4329.230957,4335.256348,4331.666504,4310.512695,4474.358887,4489.615234,4366.410156,4407.436035,1589.000000,0.000000,6.000000,,,,0.000000,2.000000,2.000000,0.000000,2.000000,2.000000,2.000000,0.000000,2.000000,4.000000,4.000000,4.000000,4.000000,2.000000,4.000000,16.666666,,,,,,,,,,,,,,,,,,,,,,,,,,,,
1732083441.165839,1732083441.168312,90.000000,0.000000,4320.897461,4302.307617,4325.000000,4312.051270,4310.000000,4320.000000,4332.051270,4330.000000,4333.333496,4313.461426,4474.615234,4485.641113,4366.922852,4401.922852,1379.000000,0.000000,6.000000,,,,0.000000,2.000000,2.000000,0.000000,2.000000,2.000000,2.000000,0.000000,2.000000,4.000000,4.000000,4.000000,4.000000,2.000000,4.000000,16.666666,,,,,,,,,,,,,,,,,,,,,,,,,,,,
1732083441.173647,1732083441.176120,91.000000,0.000000,4313.589844,4300.897461,4324.615234,4310.000000,4323.589844,4315.384766,4331.794922,4330.897461,4335.384766,4311.410156,4463.589844,4477.307617,4362.307617,4394.487305,1521.000000,0.000000,6.000000,,,,0.000000,2.000000,2.000000,0.000000,2.000000,2.000000,2.000000,0.000000,2.000000,4.000000,4.000000,4.000000,4.000000,2.000000,4.000000,16.666666,,,,,,,,,,,,,,,,,,,,,,,,,,,,
1732083441.181455,1732083441.183829,92.000000,0.000000,4316.282227,4305.897461,4326.922852,4314.487305,4325.769043,4312.436035,4329.743652,4331.666504,4332.051270,4306.922852,4459.871582,4479.230957,4360.384766,4395.897461,1753.000000,0.000000,6.000000,,,,0.000000,2.000000,2.000000,0.000000,2.000000,2.000000,2.000000,0.000000,2.000000,4.000000,4.000000,4.000000,4.000000,2.000000,4.000000,16.666666,,,,,,,,,,,,,,,,,23.000000,0.000000,0.528076,0.339844,-0.681519,0.375732,0.963497,-0.147479,-0.170431,-81.747200,46.604961,20.308710
1732083441.189263,1732083441.191637,93.000000,0.000000,4315.000000,4304.871582,4327.563965,4313.333496,4302.820313,4317.948730,4329.871582,4336.666504,4332.563965,4312.692383,4465.641113,4483.333496,4365.512695,4400.128418,1589.000000,0.000000,6.000000,,,,0.000000,2.000000,2.000000,0.000000,2.000000,2.000000,2.000000,0.000000,2.000000,4.000000,4.000000,4.000000,4.000000,2.000000,4.000000,16.666666,,,,,,,,,,,,,,,,,,,,,,,,,,,,
1732083441.197072,1732083441.199345,94.000000,0.000000,4310.769043,4300.641113,4325.512695,4309.230957,4300.000000,4318.205078,4329.102539,4341.025879,4341.794922,4320.000000,4467.692383,4481.666504,4370.128418,4397.436035,1379.000000,0.000000,6.000000,,,,0.000000,2.000000,2.000000,0.000000,2.000000,2.000000,2.000000,0.000000,2.000000,4.000000,4.000000,4.000000,4.000000,2.000000,4.000000,16.666666,,,,,,,,,,,,,,,,,,,,,,,,,,,,
1732083441.204880,1732083441.207153,95.000000,0.000000,4310.256348,4305.512695,4325.128418,4312.563965,4316.922852,4315.641113,4329.871582,4337.692383,4340.897461,4310.769043,4466.025879,4481.282227,4364.871582,4393.974121,1521.000000,0.000000,6.000000,,,,0.000000,2.000000,2.000000,0.000000,2.000000,2.000000,2.000000,0.000000,2.000000,4.000000,4.000000,4.000000,4.000000,2.000000,4.000000,16.666666,,,,,,,,,,,,,,,,,,,,,,,,,,,,
1732083441.212688,1732083441.214862,96.000000,0.000000,4312.820313,4311.538574,4326.282227,4314.615234,4316.153809,4313.589844,4333.461426,4341.922852,4330.641113,4303.333496,4464.487305,4485.128418,4360.769043,4396.922852,1753.000000,0.000000,6.000000,,,,0.000000,2.000000,2.000000,0.000000,2.000000,2.000000,2.000000,0.000000,2.000000,4.000000,4.000000,4.000000,4.000000,2.000000,4.000000,16.666666,,,,,,,,,,,,,,,,,24.000000,0.000000,0.528606,0.339111,-0.681641,0.375427,0.963985,-0.149921,-0.161641,-81.666893,46.605019,20.363388
1732083441.220496,1732083441.222670,97.000000,0.000000,4316.538574,4310.512695,4324.743652,4313.333496,4302.692383,4309.743652,4330.384766,4346.282227,4328.461426,4314.230957,4467.179688,4485.897461,4365.384766,4403.461426,1589.000000,0.000000,6.000000,,,,0.000000,2.000000,2.000000,0.000000,2.000000,2.000000,2.000000,0.000000,2.000000,4.000000,4.000000,4.000000,4.000000,2.000000,4.000000,16.666666,,,,,,,,,,,,,,,,,,,,,,,,,,,,
1732083441.228305,1732083441.230278,98.000000,0.000000,4318.974121,4308.589844,4322.307617,4316.538574,4303.077148,4308.077148,4328.205078,4336.153809,4333.333496,4323.077148,4473.846191,4484.743652,4369.615234,4405.769043,1379.000000,0.000000,6.000000,,,,0.000000,2.000000,2.000000,0.000000,2.000000,2.000000,2.000000,0.000000,2.000000,4.000000,4.000000,4.000000,4.000000,2.000000,4.000000,16.666666,,,,,,,,,,,,,,,,,,,,,,,,,,,,
1732083441.236113,1732083441.238087,99.000000,0.000000,4318.717773,4310.384766,4325.128418,4321.794922,4319.743652,4304.615234,4328.333496,4325.128418,4328.461426,4317.948730,4476.410156,4487.307617,4371.666504,4406.153809,1521.000000,0.000000,6.000000,,,,0.000000,2.000000,2.000000,0.000000,2.000000,2.000000,2.000000,0.000000,2.000000,4.000000,4.000000,4.000000,4.000000,2.000000,4.000000,16.666666,,,,,,,,,,,,,,,,,,,,,,,,,,,,
1732083441.243921,1732083441.245795,100.000000,0.000000,4321.153809,4310.384766,4327.563965,4320.256348,4321.282227,4304.743652,4327.436035,4327.563965,4322.948730,4315.000000,4472.820313,4488.974121,4377.051270,4409.230957,1753.000000,0.000000,6.000000,,,,0.000000,2.000000,2.000000,0.000000,2.000000,2.000000,2.000000,0.000000,2.000000,4.000000,4.000000,4.000000,4.000000,2.000000,4.000000,16.666666,,,,,,,,,,,,,,,,,25.000000,0.000000,0.529625,0.337646,-0.681946,0.374756,0.958613,-0.147479,-0.156757,-81.841850,46.371731,20.461012
1732083441.251729,1732083441.253603,101.000000,0.000000,4324.615234,4310.641113,4326.025879,4317.563965,4300.641113,4311.666504,4326.153809,4331.025879,4324.487305,4316.922852,4473.333496,4489.358887,4383.461426,4411.410156,1589.000000,0.000000,6.000000,,,,0.000000,2.000000,2.000000,0.000000,2.000000,2.000000,2.000000,0.000000,2.000000,4.000000,4.000000,4.000000,4.000000,2.000000,4.000000,16.666666,,,,,,,,,,,,,,,,,,,,,,,,,,,,
1732083441.259538,1732083441.261611,102.000000,0.000000,4320.256348,4308.589844,4324.358887,4321.794922,4297.179688,4313.077148,4330.384766,4333.589844,4328.974121,4318.333496,4475.641113,4490.000000,4379.743652,4409.871582,1379.000000,0.000000,6.000000,,,,0.000000,2.000000,2.000000,0.000000,2.000000,2.000000,2.000000,0.000000,2.000000,4.000000,4.000000,4.000000,4.000000,2.000000,4.000000,16.666666,,,,,,,,,,,,,,,,,,,,,,,,,,,,
1732083441.267346,1732083441.269419,103.000000,0.000000,4314.102539,4301.282227,4324.743652,4324.487305,4312.179688,4312.563965,4330.769043,4343.717773,4338.589844,4319.615234,4476.538574,4488.717773,4377.307617,4407.948730,1521.000000,0.000000,6.000000,,,,0.000000,2.000000,2.000000,0.000000,2.000000,2.000000,2.000000,0.000000,2.000000,4.000000,4.000000,4.000000,4.000000,2.000000,4.000000,16.666666,,,,,,,,,,,,,,,,,,,,,,,,,,,,
1732083441.275154,1732083441.277327,104.000000,0.000000,4312.307617,4297.179688,4325.512695,4319.743652,4309.487305,4311.153809,4327.563965,4340.641113,4337.948730,4319.743652,4477.820313,4486.794922,4379.487305,4408.589844,1753.000000,0.000000,6.000000,,,,0.000000,2.000000,2.000000,0.000000,2.000000,2.000000,2.000000,0.000000,2.000000,4.000000,4.000000,4.000000,4.000000,2.000000,4.000000,16.666666,,,,,,,,,,,,,,,,,26.000000,0.000000,0.529624,0.337402,-0.682068,0.374756,0.961055,-0.146991,-0.161641,-81.693565,46.446102,20.448420
1732083441.282962,1732083441.285136,105.000000,0.000000,4312.820313,4297.179688,4324.743652,4315.769043,4297.179688,4303.846191,4325.000000,4324.102539,4326.282227,4320.256348,4474.358887,4486.153809,4375.769043,4405.641113,1589.000000,0.000000,6.000000,,,,0.000000,2.000000,2.000000,0.000000,2.000000,2.000000,2.000000,0.000000,2.000000,4.000000,4.000000,4.000000,4.000000,2.000000,4.000000,16.666666,,,,,,,,,,,,,,,,,,,,,,,,,,,,
1732083441.290771,1732083441.292744,106.000000,0.000000,4316.538574,4298.846191,4323.333496,4318.717773,4308.974121,4297.692383,4325.512695,4318.846191,4319.102539,4315.256348,4473.589844,4485.641113,4376.538574,4401.282227,1379.000000,0.000000,6.000000,,,,0.000000,2.000000,2.000000,0.000000,2.000000,2.000000,2.000000,0.000000,2.000000,4.000000,4.000000,4.000000,4.000000,2.000000,4.000000,16.666666,,,,,,,,,,,,,,,,,,,,,,,,,,,,
1732083441.298579,1732083441.300552,107.000000,0.000000,4315.897461,4296.666504,4323.461426,4317.051270,4321.922852,4301.538574,4327.563965,4330.512695,4326.794922,4311.025879,4475.641113,4486.025879,4383.077148,4403.205078,1521.000000,0.000000,6.000000,,,,0.000000,2.000000,2.000000,0.000000,2.000000,2.000000,2.000000,0.000000,2.000000,4.000000,4.000000,4.000000,4.000000,2.000000,4.000000,16.666666,,,,,,,,,,,,,,,,,,,,,,,,,,,,
1732083441.306387,1732083441.308260,108.000000,0.000000,4310.897461,4290.512695,4325.769043,4310.000000,4304.615234,4308.461426,4327.051270,4335.000000,4331.538574,4318.333496,4475.641113,4486.282227,4380.256348,4406.153809,1753.000000,0.000000,6.000000,,,,0.000000,2.000000,2.000000,0.000000,2.000000,2.000000,2.000000,0.000000,2.000000,4.000000,4.000000,4.000000,4.000000,2.000000,4.000000,16.666666,,,,,,,,,,,,,,,,,27.000000,0.000000,0.529705,0.336792,-0.682373,0.374634,0.961055,-0.142596,-0.147967,-81.973457,46.329678,20.553219
1732083441.314196,1732083441.316069,109.000000,0.000000,4307.179688,4286.410156,4326.794922,4308.205078,4292.820313,4311.153809,4326.025879,4335.000000,4331.794922,4328.846191,4475.128418,4484.487305,4371.538574,4400.641113,1589.000000,0.000000,6.000000,,,,0.000000,2.000000,2.000000,0.000000,2.000000,2.000000,2.000000,0.000000,2.000000,4.000000,4.000000,4.000000,4.000000,2.000000,4.000000,16.666666,,,,,,,,,,,,,,,,,,,,,,,,,,,,
1732083441.322004,1732083441.323677,110.000000,0.000000,4308.205078,4287.307617,4324.743652,4311.282227,4313.333496,4311.794922,4329.230957,4340.256348,4336.666504,4326.025879,4467.692383,4484.102539,4370.256348,4393.589844,1379.000000,0.000000,6.000000,,,,0.000000,2.000000,2.000000,0.000000,2.000000,2.000000,2.000000,0.000000,2.000000,4.000000,4.000000,4.000000,4.000000,2.000000,4.000000,16.666666,,,,,,,,,,,,,,,,,,,,,,,,,,,,
1732083441.329812,1732083441.331485,111.000000,0.000000,4308.589844,4288.846191,4324.358887,4314.358887,4317.820313,4316.538574,4333.589844,4337.051270,4334.615234,4315.641113,4461.922852,4483.205078,4374.615234,4394.358887,1521.000000,0.000000,6.000000,,,,0.000000,2.000000,2.000000,0.000000,2.000000,2.000000,2.000000,0.000000,2.000000,4.000000,4.000000,4.000000,4.000000,2.000000,4.000000,16.666666,,,,,,,,,,,,,,,,,,,,,,,,,,,,
1732083441.337620,1732083441.339194,112.000000,0.000000,4309.230957,4290.897461,4326.666504,4317.948730,4297.436035,4320.641113,4330.256348,4333.461426,4328.717773,4315.897461,4465.641113,4485.897461,4374.871582,4395.384766,1753.000000,0.000000,6.000000,,,,0.000000,2.000000,2.000000,0.000000,2.000000,2.000000,2.000000,0.000000,2.000000,4.000000,4.000000,4.000000,4.000000,2.000000,4.000000,16.666666,,,,,,,,,,,,,,,,,28.000000,0.000000,0.529519,0.336182,-0.682617,0.375000,0.944451,-0.157246,-0.164571,-81.940163,46.223705,20.523108
1732083441.345429,1732083441.347002,113.000000,0.000000,4311.666504,4292.179688,4327.436035,4320.769043,4301.153809,4314.102539,4328.846191,4333.333496,4328.333496,4322.436035,4467.436035,4491.922852,4372.179688,4397.179688,1589.000000,0.000000,6.000000,,,,0.000000,2.000000,2.000000,0.000000,2.000000,2.000000,2.000000,0.000000,2.000000,4.000000,4.000000,4.000000,4.000000,2.000000,4.000000,16.666666,,,,,,,,,,,,,,,,,,,,,,,,,,,,
1732083441.353237,1732083441.355010,114.000000,0.000000,4311.666504,4286.538574,4326.538574,4318.077148,4315.128418,4307.436035,4329.871582,4332.820313,4331.666504,4325.256348,4467.051270,4493.589844,4377.820313,4407.692383,1379.000000,0.000000,6.000000,,,,0.000000,2.000000,2.000000,0.000000,2.000000,2.000000,2.000000,0.000000,2.000000,4.000000,4.000000,4.000000,4.000000,2.000000,4.000000,16.666666,,,,,,,,,,,,,,,,,,,,,,,,,,,,
1732083441.361045,1732083441.362818,115.000000,0.000000,4309.871582,4285.256348,4325.512695,4316.922852,4311.410156,4312.051270,4327.820313,4339.615234,4331.153809,4316.922852,4466.922852,4486.025879,4377.820313,4407.820313,1521.000000,0.000000,6.000000,,,,0.000000,2.000000,2.000000,0.000000,2.000000,2.000000,2.000000,0.000000,2.000000,4.000000,4.000000,4.000000,4.000000,2.000000,4.000000,16.666666,,,,,,,,,,,,,,,,,,,,,,,,,,,,
1732083441.368853,1732083441.370726,116.000000,0.000000,4307.948730,4289.743652,4322.692383,4321.538574,4306.153809,4312.692383,4324.615234,4338.974121,4327.436035,4309.615234,4457.051270,4480.641113,4362.436035,4393.974121,1753.000000,0.000000,6.000000,,,,0.000000,2.000000,2.000000,0.000000,2.000000,2.000000,2.000000,0.000000,2.000000,4.000000,4.000000,4.000000,4.000000,2.000000,4.000000,16.666666,,,,,,,,,,,,,,,,,29.000000,0.000000,0.529435,0.335999,-0.682739,0.375061,0.963008,-0.152851,-0.162129,-81.993202,46.146202,20.607050
1732083441.376662,1732083441.378534,117.000000,0.000000,4307.563965,4285.897461,4320.897461,4320.128418,4313.974121,4306.538574,4327.179688,4319.358887,4322.563965,4309.102539,4448.846191,4478.717773,4357.563965,4390.641113,1589.000000,0.000000,6.000000,,,,0.000000,2.000000,2.000000,0.000000,2.000000,2.000000,2.000000,0.000000,2.000000,4.000000,4.000000,4.000000,4.000000,2.000000,4.000000,16.666666,,,,,,,,,,,,,,,,,,,,,,,,,,,,
1732083441.384470,1732083441.386143,118.000000,0.000000,4309.102539,4280.512695,4322.436035,4312.948730,4320.000000,4307.692383,4326.538574,4312.307617,4319.871582,4308.077148,4455.384766,4474.743652,4367.436035,4398.589844,1379.000000,0.000000,6.000000,,,,0.000000,2.000000,2.000000,0.000000,2.000000,2.000000,2.000000,0.000000,2.000000,4.000000,4.000000,4.000000,4.000000,2.000000,4.000000,16.666666,,,,,,,,,,,,,,,,,,,,,,,,,,,,
1732083441.392278,1732083441.393951,119.000000,0.000000,4305.512695,4282.692383,4322.307617,4315.384766,4312.563965,4314.871582,4326.538574,4322.820313,4321.282227,4307.820313,4458.589844,4473.205078,4368.717773,4399.230957,1521.000000,0.000000,6.000000,,,,0.000000,2.000000,2.000000,0.000000,2.000000,2.000000,2.000000,0.000000,2.000000,4.000000,4.000000,4.000000,4.000000,2.000000,4.000000,16.666666,,,,,,,,,,,,,,,,,,,,,,,,,,,,
1732083441.400087,1732083441.401859,120.000000,0.000000,4298.589844,4284.102539,4321.666504,4319.743652,4306.410156,4319.230957,4329.615234,4327.436035,4324.615234,4310.128418,4453.717773,4472.692383,4362.307617,4395.000000,1753.000000,0.000000,6.000000,,,,0.000000,2.000000,2.000000,0.000000,2.000000,2.000000,2.000000,0.000000,2.000000,4.000000,4.000000,4.000000,4.000000,2.000000,4.000000,16.666666,,,,,,,,,,,,,,,,,30.000000,0.000000,0.529558,0.335693,-0.682861,0.374939,0.956660,-0.167013,-0.167989,-81.994492,45.833424,20.808378
1732083441.407895,1732083441.409667,121.000000,0.000000,4294.743652,4279.358887,4321.794922,4311.410156,4313.717773,4320.897461,4331.794922,4331.410156,4329.615234,4312.820313,4453.461426,4472.563965,4359.871582,4393.461426,1589.000000,0.000000,6.000000,,,,0.000000,2.000000,2.000000,0.000000,2.000000,2.000000,2.000000,0.000000,2.000000,4.000000,4.000000,4.000000,4.000000,2.000000,4.000000,16.666666,,,,,,,,,,,,,,,,,,,,,,,,,,,,
1732083441.415703,1732083441.417276,122.000000,0.000000,4296.153809,4280.256348,4322.051270,4310.769043,4316.410156,4320.128418,4330.256348,4334.358887,4329.230957,4313.333496,4454.102539,4477.948730,4359.871582,4392.051270,1379.000000,0.000000,6.000000,,,,0.000000,2.000000,2.000000,0.000000,2.000000,2.000000,2.000000,0.000000,2.000000,4.000000,4.000000,4.000000,4.000000,2.000000,4.000000,16.666666,,,,,,,,,,,,,,,,,,,,,,,,,,,,
1732083441.423511,1732083441.425084,123.000000,0.000000,4301.282227,4284.487305,4324.358887,4321.922852,4308.589844,4315.384766,4329.358887,4330.256348,4325.897461,4315.128418,4455.897461,4483.205078,4364.358887,4395.128418,1521.000000,0.000000,6.000000,,,,0.000000,2.000000,2.000000,0.000000,2.000000,2.000000,2.000000,0.000000,2.000000,4.000000,4.000000,4.000000,4.000000,2.000000,4.000000,16.666666,,,,,,,,,,,,,,,,,,,,,,,,,,,,
1732083441.431320,1732083441.432992,124.000000,0.000000,4304.871582,4282.563965,4325.000000,4319.102539,4316.025879,4310.000000,4329.358887,4331.025879,4329.615234,4315.897461,4458.974121,4481.666504,4367.820313,4400.769043,1753.000000,0.000000,6.000000,,,,0.000000,2.000000,2.000000,0.000000,2.000000,2.000000,2.000000,0.000000,2.000000,4.000000,4.000000,4.000000,4.000000,2.000000,4.000000,16.666666,,,,,,,,,,,,,,,,,31.000000,0.000000,0.529516,0.335815,-0.682800,0.375000,0.953730,-0.165548,-0.164571,-81.928871,45.946739,20.663118
1732083441.439128,1732083441.440800,125.000000,0.000000,4308.077148,4284.230957,4324.358887,4313.589844,4323.717773,4308.974121,4327.820313,4337.179688,4331.922852,4315.769043,4458.717773,4484.743652,4365.897461,4401.025879,1589.000000,0.000000,6.000000,,,,0.000000,2.000000,2.000000,0.000000,2.000000,2.000000,2.000000,0.000000,2.000000,4.000000,4.000000,4.000000,4.000000,2.000000,4.000000,16.666666,,,,,,,,,,,,,,,,,,,,,,,,,,,,
1732083441.446936,1732083441.448808,126.000000,0.000000,4314.615234,4294.743652,4325.256348,4326.922852,4311.025879,4311.153809,4327.436035,4336.794922,4329.358887,4315.128418,4460.384766,4496.410156,4366.538574,4400.641113,1379.000000,0.000000,6.000000,,,,0.000000,2.000000,2.000000,0.000000,2.000000,2.000000,2.000000,0.000000,2.000000,4.000000,4.000000,4.000000,4.000000,2.000000,4.000000,16.666666,,,,,,,,,,,,,,,,,,,,,,,,,,,,
1732083441.454744,1732083441.456616,127.000000,0.000000,4313.589844,4293.846191,4325.000000,4329.487305,4304.358887,4312.820313,4328.205078,4335.512695,4331.153809,4310.128418,4458.077148,4493.846191,4365.769043,4399.487305,6.000000,0.000000,6.000000,,,,0.000000,2.000000,2.000000,0.000000,2.000000,2.000000,2.000000,0.000000,2.000000,4.000000,4.000000,4.000000,4.000000,2.000000,4.000000,16.666666,,,,,,,,,,,,,,,,,,,,,,,,,,,,
1732083441.462553,1732083441.464525,0.000000,0.000000,4300.000000,4281.025879,4323.077148,4313.461426,4312.692383,4312.179688,4329.487305,4334.615234,4331.025879,4310.641113,4451.410156,4482.051270,4364.102539,4396.410156,0.000000,0.000000,6.000000,,,,0.000000,2.000000,2.000000,0.000000,2.000000,2.000000,2.000000,0.000000,2.000000,4.000000,4.000000,4.000000,4.000000,2.000000,4.000000,16.666666,,,,,,,,,,,,,,,,,0.000000,0.000000,0.529723,0.335693,-0.682800,0.374817,0.952753,-0.161152,-0.147967,-81.959053,45.955193,20.845459
1732083441.470361,1732083441.472333,1.000000,0.000000,4294.615234,4279.230957,4325.128418,4310.256348,4313.333496,4309.615234,4327.436035,4330.641113,4325.256348,4319.102539,4454.230957,4481.794922,4366.025879,4397.563965,1324.000000,0.000000,6.000000,,,,0.000000,2.000000,2.000000,0.000000,2.000000,2.000000,2.000000,0.000000,2.000000,4.000000,4.000000,4.000000,4.000000,2.000000,4.000000,16.666666,,,,,,,,,,,,,,,,,,,,,,,,,,,,
1732083441.478169,1732083441.480341,2.000000,0.000000,4302.692383,4284.358887,4327.179688,4318.589844,4308.846191,4307.820313,4326.922852,4327.692383,4324.615234,4319.871582,4458.974121,4484.743652,4363.205078,4397.820313,1249.000000,0.000000,6.000000,,,,0.000000,2.000000,2.000000,0.000000,2.000000,2.000000,2.000000,0.000000,2.000000,4.000000,4.000000,4.000000,4.000000,2.000000,4.000000,16.666666,,,,,,,,,,,,,,,,,,,,,,,,,,,,
1732083441.485978,1732083441.488149,3.000000,0.000000,4308.461426,4283.077148,4324.871582,4320.000000,4311.794922,4307.307617,4326.922852,4324.487305,4326.922852,4315.384766,4457.820313,4483.205078,4357.948730,4395.128418,1199.000000,0.000000,6.000000,,,,0.000000,2.000000,2.000000,0.000000,2.000000,2.000000,2.000000,0.000000,2.000000,4.000000,4.000000,4.000000,4.000000,2.000000,4.000000,16.666666,,,,,,,,,,,,,,,,,,,,,,,,,,,,
1732083441.493786,1732083441.496057,4.000000,0.000000,4304.615234,4281.538574,4322.051270,4320.128418,4310.641113,4309.615234,4330.641113,4326.025879,4324.102539,4314.102539,4457.820313,4481.922852,4358.974121,4393.717773,1224.000000,0.000000,6.000000,,,,0.000000,2.000000,2.000000,0.000000,2.000000,2.000000,2.000000,0.000000,2.000000,4.000000,4.000000,4.000000,4.000000,2.000000,4.000000,16.666666,,,,,,,,,,,,,,,,,1.000000,0.000000,0.529759,0.335815,-0.682678,0.374878,0.961543,-0.167501,-0.159687,-81.825165,45.770370,20.609823
1732083441.501594,1732083441.503865,5.000000,0.000000,4297.179688,4282.436035,4321.666504,4317.563965,4316.153809,4311.922852,4330.384766,4330.256348,4322.948730,4310.641113,4459.230957,4483.333496,4360.512695,4393.589844,1075.000000,0.000000,6.000000,,,,0.000000,2.000000,2.000000,0.000000,2.000000,2.000000,2.000000,0.000000,2.000000,4.000000,4.000000,4.000000,4.000000,2.000000,4.000000,16.666666,,,,,,,,,,,,,,,,,,,,,,,,,,,,
1732083441.509402,1732083441.511873,6.000000,0.000000,4295.769043,4281.153809,4321.794922,4315.384766,4325.769043,4310.384766,4328.589844,4331.153809,4325.769043,4308.461426,4457.820313,4484.230957,4357.307617,4391.794922,0.000000,0.000000,6.000000,,,,0.000000,2.000000,2.000000,0.000000,2.000000,2.000000,2.000000,0.000000,2.000000,4.000000,4.000000,4.000000,4.000000,2.000000,4.000000,16.666666,,,,,,,,,,,,,,,,,,,,,,,,,,,,
1732083441.517210,1732083441.519682,7.000000,0.000000,4297.948730,4281.410156,4320.897461,4320.384766,4319.230957,4310.769043,4329.487305,4332.692383,4325.512695,4314.487305,4457.307617,4485.769043,4355.897461,4392.307617,1163.000000,0.000000,6.000000,,,,0.000000,2.000000,2.000000,0.000000,2.000000,2.000000,2.000000,0.000000,2.000000,4.000000,4.000000,4.000000,4.000000,2.000000,4.000000,16.666666,,,,,,,,,,,,,,,,,,,,,,,,,,,,
1732083441.525019,1732083441.527590,8.000000,0.000000,4296.282227,4280.769043,4321.153809,4317.820313,4305.769043,4314.871582,4332.307617,4337.563965,4324.615234,4313.077148,4454.871582,4486.410156,4355.512695,4393.717773,1366.000000,0.000000,6.000000,,,,0.000000,2.000000,2.000000,0.000000,2.000000,2.000000,2.000000,0.000000,2.000000,4.000000,4.000000,4.000000,4.000000,2.000000,4.000000,16.666666,,,,,,,,,,,,,,,,,2.000000,0.000000,0.529674,0.335938,-0.682617,0.375000,0.960078,-0.170919,-0.143572,-81.731720,45.540668,20.500624
1732083441.532827,1732083441.535398,9.000000,0.000000,4293.077148,4277.692383,4322.436035,4310.641113,4306.410156,4323.461426,4330.641113,4342.563965,4328.205078,4305.256348,4446.025879,4486.025879,4349.487305,4388.974121,1513.000000,0.000000,6.000000,,,,0.000000,2.000000,2.000000,0.000000,2.000000,2.000000,2.000000,0.000000,2.000000,4.000000,4.000000,4.000000,4.000000,2.000000,4.000000,16.666666,,,,,,,,,,,,,,,,,,,,,,,,,,,,
1732083441.540635,1732083441.543406,10.000000,0.000000,4291.922852,4276.666504,4322.436035,4313.846191,4323.333496,4329.358887,4328.333496,4343.846191,4332.051270,4309.615234,4441.922852,4485.641113,4347.563965,4384.615234,1371.000000,0.000000,6.000000,,,,0.000000,2.000000,2.000000,0.000000,2.000000,2.000000,2.000000,0.000000,2.000000,4.000000,4.000000,4.000000,4.000000,2.000000,4.000000,16.666666,,,,,,,,,,,,,,,,,,,,,,,,,,,,
1732083441.548443,1732083441.551214,11.000000,0.000000,4290.000000,4277.820313,4323.077148,4315.128418,4328.589844,4325.769043,4329.615234,4351.025879,4333.717773,4316.153809,4449.487305,4482.692383,4351.922852,4387.436035,1514.000000,0.000000,6.000000,,,,0.000000,2.000000,2.000000,0.000000,2.000000,2.000000,2.000000,0.000000,2.000000,4.000000,4.000000,4.000000,4.000000,2.000000,4.000000,16.666666,,,,,,,,,,,,,,,,,,,,,,,,,,,,
1732083441.556252,1732083441.559122,12.000000,0.000000,4293.974121,4279.487305,4327.051270,4313.077148,4312.692383,4319.230957,4331.025879,4355.128418,4335.000000,4318.077148,4459.358887,4485.641113,4354.743652,4394.615234,1735.000000,0.000000,6.000000,,,,0.000000,2.000000,2.000000,0.000000,2.000000,2.000000,2.000000,0.000000,2.000000,4.000000,4.000000,4.000000,4.000000,2.000000,4.000000,16.666666,,,,,,,,,,,,,,,,,3.000000,0.000000,0.529673,0.335815,-0.682678,0.375000,0.960566,-0.165548,-0.160664,-81.782692,45.564610,20.405504
1732083441.564060,1732083441.566930,13.000000,0.000000,4303.333496,4280.512695,4327.307617,4318.205078,4305.000000,4315.769043,4328.717773,4338.205078,4331.282227,4322.692383,4461.410156,4493.717773,4360.769043,4399.871582,1579.000000,0.000000,6.000000,,,,0.000000,2.000000,2.000000,0.000000,2.000000,2.000000,2.000000,0.000000,2.000000,4.000000,4.000000,4.000000,4.000000,2.000000,4.000000,16.666666,,,,,,,,,,,,,,,,,,,,,,,,,,,,
1732083441.571868,1732083441.574539,14.000000,0.000000,4308.077148,4285.128418,4323.077148,4322.820313,4309.487305,4313.205078,4324.487305,4319.102539,4320.128418,4320.641113,4459.871582,4493.589844,4366.922852,4403.077148,1371.000000,0.000000,6.000000,,,,0.000000,2.000000,2.000000,0.000000,2.000000,2.000000,2.000000,0.000000,2.000000,4.000000,4.000000,4.000000,4.000000,2.000000,4.000000,16.666666,1.000000,16.666666,2.000000,2.000000,0.000000,2.000000,2.000000,2.000000,0.000000,2.000000,4.000000,4.000000,4.000000,4.000000,2.000000,4.000000,,,,,,,,,,,,
1732083441.579677,1732083441.582347,15.000000,0.000000,4305.512695,4286.025879,4322.436035,4319.615234,4313.974121,4309.102539,4326.282227,4324.871582,4316.410156,4313.205078,4459.615234,4484.615234,4362.563965,4403.461426,1514.000000,0.000000,6.000000,,,,0.000000,2.000000,2.000000,0.000000,2.000000,2.000000,2.000000,0.000000,2.000000,4.000000,4.000000,4.000000,4.000000,2.000000,4.000000,16.666666,,,,,,,,,,,,,,,,,,,,,,,,,,,,
1732083441.587485,1732083441.590055,16.000000,0.000000,4298.205078,4282.179688,4325.641113,4316.025879,4319.230957,4308.974121,4329.743652,4335.128418,4323.333496,4311.025879,4459.230957,4484.871582,4354.102539,4397.820313,0.000000,0.000000,6.000000,,,,0.000000,2.000000,2.000000,0.000000,2.000000,2.000000,2.000000,0.000000,2.000000,4.000000,4.000000,4.000000,4.000000,2.000000,4.000000,16.666666,,,,,,,,,,,,,,,,,4.000000,0.000000,0.529630,0.335815,-0.682678,0.375061,0.964473,-0.159687,-0.145037,-81.740646,45.667332,20.295126
1732083441.595293,1732083441.597863,17.000000,0.000000,4297.948730,4283.589844,4325.256348,4317.179688,4319.487305,4316.794922,4331.153809,4337.179688,4327.179688,4314.230957,4461.153809,4491.282227,4356.538574,4396.153809,0.000000,0.000000,6.000000,,,,0.000000,2.000000,2.000000,0.000000,2.000000,2.000000,2.000000,0.000000,2.000000,4.000000,4.000000,4.000000,4.000000,2.000000,4.000000,16.666666,,,,,,,,,,,,,,,,,,,,,,,,,,,,
1732083441.603101,1732083441.605472,18.000000,0.000000,4305.000000,4286.922852,4325.000000,4319.615234,4310.769043,4321.282227,4329.487305,4342.563965,4327.051270,4321.794922,4462.563965,4494.743652,4363.333496,4405.256348,0.000000,0.000000,6.000000,,,,0.000000,2.000000,2.000000,0.000000,2.000000,2.000000,2.000000,0.000000,2.000000,4.000000,4.000000,4.000000,4.000000,2.000000,4.000000,16.666666,,,,,,,,,,,,,,,,,,,,,,,,,,,,
1732083441.610910,1732083441.613280,19.000000,0.000000,4306.538574,4283.205078,4326.538574,4320.000000,4308.461426,4318.461426,4329.230957,4337.820313,4323.717773,4319.358887,4458.077148,4495.128418,4360.897461,4406.538574,0.000000,0.000000,6.000000,,,,0.000000,2.000000,2.000000,0.000000,2.000000,2.000000,2.000000,0.000000,2.000000,4.000000,4.000000,4.000000,4.000000,2.000000,4.000000,16.666666,,,,,,,,,,,,,,,,,,,,,,,,,,,,
1732083441.618718,1732083441.620988,20.000000,0.000000,4303.333496,4280.512695,4324.871582,4318.077148,4314.358887,4317.820313,4327.051270,4324.487305,4318.205078,4303.589844,4455.000000,4490.769043,4355.769043,4396.922852,0.000000,0.000000,6.000000,,,,0.000000,2.000000,2.000000,0.000000,2.000000,2.000000,2.000000,0.000000,2.000000,4.000000,4.000000,4.000000,4.000000,2.000000,4.000000,16.666666,,,,,,,,,,,,,,,,,5.000000,0.000000,0.529630,0.335815,-0.682678,0.375061,0.964473,-0.159687,-0.145037,-81.884926,45.920540,20.397385
1732083441.626526,1732083441.628797,21.000000,0.000000,4300.256348,4286.538574,4323.717773,4319.358887,4326.282227,4319.871582,4327.051270,4327.692383,4320.384766,4307.820313,4458.717773,4488.333496,4358.077148,4393.974121,0.000000,0.000000,6.000000,,,,0.000000,2.000000,2.000000,0.000000,2.000000,2.000000,2.000000,0.000000,2.000000,4.000000,4.000000,4.000000,4.000000,2.000000,4.000000,16.666666,,,,,,,,,,,,,,,,,,,,,,,,,,,,
1732083441.634334,1732083441.636405,22.000000,0.000000,4303.717773,4290.128418,4326.025879,4322.307617,4328.461426,4318.461426,4329.230957,4343.589844,4330.769043,4324.871582,4461.794922,4495.512695,4360.897461,4398.333496,0.000000,0.000000,6.000000,,,,0.000000,2.000000,2.000000,0.000000,2.000000,2.000000,2.000000,0.000000,2.000000,4.000000,4.000000,4.000000,4.000000,2.000000,4.000000,16.666666,,,,,,,,,,,,,,,,,,,,,,,,,,,,
1732083441.642143,1732083441.644213,23.000000,0.000000,4308.077148,4287.436035,4324.871582,4321.794922,4310.256348,4319.487305,4332.436035,4345.512695,4332.692383,4321.538574,4460.512695,4498.717773,4357.179688,4399.615234,0.000000,0.000000,6.000000,,,,0.000000,2.000000,2.000000,0.000000,2.000000,2.000000,2.000000,0.000000,2.000000,4.000000,4.000000,4.000000,4.000000,2.000000,4.000000,16.666666,,,,,,,,,,,,,,,,,,,,,,,,,,,,
1732083441.649951,1732083441.651922,24.000000,0.000000,4303.974121,4286.282227,4323.205078,4319.615234,4303.717773,4317.820313,4330.000000,4332.692383,4325.384766,4316.025879,4459.230957,4490.384766,4357.179688,4396.538574,0.000000,0.000000,6.000000,,,,0.000000,2.000000,2.000000,0.000000,2.000000,2.000000,2.000000,0.000000,2.000000,4.000000,4.000000,4.000000,4.000000,2.000000,4.000000,16.666666,,,,,,,,,,,,,,,,,6.000000,0.000000,0.529617,0.335754,-0.682617,0.375244,0.959590,-0.165548,-0.155781,-82.011787,45.932304,20.498549
1732083441.657759,1732083441.659730,25.000000,0.000000,4297.948730,4287.307617,4325.000000,4319.230957,4315.512695,4313.077148,4329.871582,4335.512695,4324.358887,4320.128418,4461.410156,4490.256348,4358.461426,4395.769043,0.000000,0.000000,6.000000,,,,0.000000,2.000000,2.000000,0.000000,2.000000,2.000000,2.000000,0.000000,2.000000,4.000000,4.000000,4.000000,4.000000,2.000000,4.000000,16.666666,,,,,,,,,,,,,,,,,,,,,,,,,,,,
1732083441.665568,1732083441.667338,26.000000,0.000000,4298.461426,4287.948730,4325.897461,4320.384766,4314.358887,4317.179688,4333.205078,4347.948730,4329.102539,4319.230957,4461.538574,4496.025879,4352.563965,4397.948730,0.000000,0.000000,6.000000,,,,0.000000,2.000000,2.000000,0.000000,2.000000,2.000000,2.000000,0.000000,2.000000,4.000000,4.000000,4.000000,4.000000,2.000000,4.000000,16.666666,,,,,,,,,,,,,,,,,,,,,,,,,,,,
1732083441.673376,1732083441.675146,27.000000,0.000000,4300.897461,4287.051270,4324.102539,4319.102539,4311.794922,4317.563965,4329.358887,4339.102539,4325.000000,4312.179688,4454.230957,4486.922852,4348.846191,4396.153809,0.000000,0.000000,6.000000,,,,0.000000,2.000000,2.000000,0.000000,2.000000,2.000000,2.000000,0.000000,2.000000,4.000000,4.000000,4.000000,4.000000,2.000000,4.000000,16.666666,,,,,,,,,,,,,,,,,,,,,,,,,,,,
1732083441.681184,1732083441.683054,28.000000,0.000000,4297.563965,4287.051270,4321.666504,4317.948730,4313.717773,4310.384766,4324.871582,4321.922852,4316.410156,4303.717773,4447.563965,4477.563965,4349.615234,4391.410156,0.000000,0.000000,6.000000,,,,0.000000,2.000000,2.000000,0.000000,2.000000,2.000000,2.000000,0.000000,2.000000,4.000000,4.000000,4.000000,4.000000,2.000000,4.000000,16.666666,,,,,,,,,,,,,,,,,7.000000,0.000000,0.529613,0.335693,-0.682617,0.375305,0.960566,-0.158222,-0.159199,-81.992882,45.865166,20.608824
1732083441.688992,1732083441.690863,29.000000,0.000000,4291.538574,4287.820313,4321.666504,4318.846191,4309.743652,4312.179688,4326.922852,4326.410156,4319.102539,4302.948730,4448.717773,4480.641113,4350.384766,4391.282227,0.000000,0.000000,6.000000,,,,0.000000,2.000000,2.000000,0.000000,2.000000,2.000000,2.000000,0.000000,2.000000,4.000000,4.000000,4.000000,4.000000,2.000000,4.000000,16.666666,,,,,,,,,,,,,,,,,,,,,,,,,,,,
1732083441.696801,1732083441.698471,30.000000,0.000000,4286.922852,4288.461426,4324.871582,4315.512695,4320.769043,4314.102539,4327.436035,4334.615234,4323.589844,4310.769043,4450.384766,4483.461426,4351.922852,4392.692383,0.000000,0.000000,6.000000,,,,0.000000,2.000000,2.000000,0.000000,2.000000,2.000000,2.000000,0.000000,2.000000,4.000000,4.000000,4.000000,4.000000,2.000000,4.000000,16.666666,,,,,,,,,,,,,,,,,,,,,,,,,,,,
1732083441.704609,1732083441.706279,31.000000,0.000000,4291.153809,4285.897461,4324.743652,4312.051270,4327.692383,4310.641113,4325.256348,4334.615234,4321.153809,4309.743652,4445.000000,4481.153809,4349.230957,4387.948730,0.000000,0.000000,6.000000,,,,0.000000,2.000000,2.000000,0.000000,2.000000,2.000000,2.000000,0.000000,2.000000,4.000000,4.000000,4.000000,4.000000,2.000000,4.000000,16.666666,,,,,,,,,,,,,,,,,,,,,,,,,,,,
1732083441.712417,1732083441.713988,32.000000,0.000000,4298.205078,4284.743652,4320.512695,4315.000000,4308.333496,4311.922852,4328.717773,4337.948730,4321.410156,4304.358887,4442.051270,4481.025879,4344.487305,4382.692383,0.000000,0.000000,6.000000,,,,0.000000,2.000000,2.000000,0.000000,2.000000,2.000000,2.000000,0.000000,2.000000,4.000000,4.000000,4.000000,4.000000,2.000000,4.000000,16.666666,,,,,,,,,,,,,,,,,8.000000,0.000000,0.529524,0.335449,-0.682739,0.375427,0.966915,-0.158711,-0.146502,-81.929237,45.887451,20.541481
1732083441.720225,1732083441.721796,33.000000,0.000000,4296.153809,4287.436035,4322.436035,4319.487305,4298.589844,4315.128418,4330.512695,4339.230957,4325.641113,4311.538574,4452.436035,4480.256348,4350.000000,4388.333496,0.000000,0.000000,6.000000,,,,0.000000,2.000000,2.000000,0.000000,2.000000,2.000000,2.000000,0.000000,2.000000,4.000000,4.000000,4.000000,4.000000,2.000000,4.000000,16.666666,,,,,,,,,,,,,,,,,,,,,,,,,,,,
1732083441.728034,1732083441.729404,34.000000,0.000000,4295.256348,4289.615234,4326.025879,4320.512695,4311.922852,4317.820313,4332.563965,4335.897461,4323.205078,4310.000000,4460.512695,4479.615234,4356.666504,4397.563965,0.000000,0.000000,6.000000,,,,0.000000,2.000000,2.000000,0.000000,2.000000,2.000000,2.000000,0.000000,2.000000,4.000000,4.000000,4.000000,4.000000,2.000000,4.000000,16.666666,,,,,,,,,,,,,,,,,,,,,,,,,,,,
1732083441.735842,1732083441.737212,35.000000,0.000000,4299.487305,4290.641113,4324.358887,4319.615234,4317.307617,4318.077148,4330.897461,4335.128418,4320.512695,4296.538574,4452.563965,4482.051270,4351.153809,4395.256348,0.000000,0.000000,6.000000,,,,0.000000,2.000000,2.000000,0.000000,2.000000,2.000000,2.000000,0.000000,2.000000,4.000000,4.000000,4.000000,4.000000,2.000000,4.000000,16.666666,,,,,,,,,,,,,,,,,,,,,,,,,,,,
1732083441.743650,1732083441.744921,36.000000,0.000000,4298.717773,4286.538574,4322.948730,4315.897461,4305.769043,4312.563965,4326.666504,4336.410156,4324.743652,4303.077148,4445.000000,4480.512695,4348.333496,4387.051270,0.000000,0.000000,6.000000,,,,0.000000,2.000000,2.000000,0.000000,2.000000,2.000000,2.000000,0.000000,2.000000,4.000000,4.000000,4.000000,4.000000,2.000000,4.000000,16.666666,,,,,,,,,,,,,,,,,9.000000,0.000000,0.529559,0.335449,-0.682678,0.375488,0.956660,-0.158711,-0.155781,-82.227676,46.288834,20.406933
1732083441.751459,1732083441.752729,37.000000,0.000000,4294.102539,4283.974121,4323.589844,4312.436035,4306.282227,4311.666504,4326.025879,4334.102539,4321.922852,4311.025879,4449.358887,4474.230957,4354.230957,4386.538574,0.000000,0.000000,6.000000,,,,0.000000,2.000000,2.000000,0.000000,2.000000,2.000000,2.000000,0.000000,2.000000,4.000000,4.000000,4.000000,4.000000,2.000000,4.000000,16.666666,,,,,,,,,,,,,,,,,,,,,,,,,,,,
1732083441.759267,1732083441.760737,38.000000,0.000000,4295.897461,4288.974121,4322.051270,4312.692383,4319.871582,4313.846191,4327.179688,4325.769043,4309.358887,4296.666504,4449.102539,4469.743652,4354.102539,4388.461426,0.000000,0.000000,6.000000,,,,0.000000,2.000000,2.000000,0.000000,2.000000,2.000000,2.000000,0.000000,2.000000,4.000000,4.000000,4.000000,4.000000,2.000000,4.000000,16.666666,,,,,,,,,,,,,,,,,,,,,,,,,,,,
1732083441.767075,1732083441.768545,39.000000,0.000000,4297.051270,4288.077148,4320.641113,4312.051270,4313.717773,4309.743652,4324.230957,4322.692383,4309.487305,4293.974121,4443.717773,4470.641113,4348.717773,4386.282227,0.000000,0.000000,6.000000,,,,0.000000,2.000000,2.000000,0.000000,2.000000,2.000000,2.000000,0.000000,2.000000,4.000000,4.000000,4.000000,4.000000,2.000000,4.000000,16.666666,,,,,,,,,,,,,,,,,,,,,,,,,,,,
1732083441.774883,1732083441.776453,40.000000,0.000000,4290.128418,4285.769043,4321.922852,4313.846191,4295.256348,4307.563965,4325.641113,4329.615234,4321.410156,4306.922852,4443.974121,4470.897461,4348.974121,4385.641113,0.000000,0.000000,6.000000,,,,0.000000,2.000000,2.000000,0.000000,2.000000,2.000000,2.000000,0.000000,2.000000,4.000000,4.000000,4.000000,4.000000,2.000000,4.000000,16.666666,,,,,,,,,,,,,,,,,10.000000,0.000000,0.529513,0.335205,-0.682800,0.375549,0.963985,-0.166524,-0.162618,-82.082756,46.138958,20.444616
1732083441.782692,1732083441.784262,41.000000,0.000000,4288.461426,4292.563965,4323.461426,4320.000000,4295.128418,4311.410156,4329.743652,4333.717773,4320.256348,4304.102539,4445.256348,4472.051270,4351.153809,4386.282227,0.000000,0.000000,6.000000,,,,0.000000,2.000000,2.000000,0.000000,2.000000,2.000000,2.000000,0.000000,2.000000,4.000000,4.000000,4.000000,4.000000,2.000000,4.000000,16.666666,,,,,,,,,,,,,,,,,,,,,,,,,,,,
1732083441.790500,1732083441.792270,42.000000,0.000000,4294.615234,4289.871582,4322.307617,4317.563965,4303.205078,4313.461426,4331.922852,4333.974121,4315.128418,4296.794922,4445.256348,4479.102539,4349.743652,4384.871582,0.000000,0.000000,6.000000,,,,0.000000,2.000000,2.000000,0.000000,2.000000,2.000000,2.000000,0.000000,2.000000,4.000000,4.000000,4.000000,4.000000,2.000000,4.000000,16.666666,,,,,,,,,,,,,,,,,,,,,,,,,,,,
1732083441.798308,1732083441.800078,43.000000,0.000000,4296.410156,4278.846191,4320.512695,4309.230957,4310.897461,4311.153809,4329.230957,4334.358887,4319.871582,4300.641113,4446.538574,4483.974121,4348.974121,4387.051270,0.000000,0.000000,6.000000,,,,0.000000,2.000000,2.000000,0.000000,2.000000,2.000000,2.000000,0.000000,2.000000,4.000000,4.000000,4.000000,4.000000,2.000000,4.000000,16.666666,,,,,,,,,,,,,,,,,,,,,,,,,,,,
1732083441.806116,1732083441.807986,44.000000,0.000000,4295.000000,4284.871582,4320.897461,4312.436035,4316.153809,4308.717773,4326.666504,4332.820313,4320.256348,4298.974121,4447.820313,4479.871582,4351.153809,4391.410156,0.000000,0.000000,6.000000,,,,0.000000,2.000000,2.000000,0.000000,2.000000,2.000000,2.000000,0.000000,2.000000,4.000000,4.000000,4.000000,4.000000,2.000000,4.000000,16.666666,,,,,,,,,,,,,,,,,11.000000,0.000000,0.529473,0.335144,-0.682861,0.375549,0.953241,-0.163106,-0.154316,-81.865364,46.034222,20.375139
1732083441.813924,1732083441.815794,45.000000,0.000000,4297.563965,4292.436035,4320.769043,4318.974121,4310.384766,4315.897461,4331.282227,4330.641113,4313.205078,4295.000000,4450.384766,4472.820313,4351.922852,4389.102539,0.000000,0.000000,6.000000,,,,0.000000,2.000000,2.000000,0.000000,2.000000,2.000000,2.000000,0.000000,2.000000,4.000000,4.000000,4.000000,4.000000,2.000000,4.000000,16.666666,,,,,,,,,,,,,,,,,,,,,,,,,,,,
1732083441.821733,1732083441.823802,46.000000,0.000000,4298.846191,4284.230957,4318.717773,4314.358887,4305.000000,4320.897461,4332.436035,4335.769043,4318.333496,4299.615234,4451.794922,4467.692383,4350.897461,4381.410156,0.000000,0.000000,6.000000,,,,0.000000,2.000000,2.000000,0.000000,2.000000,2.000000,2.000000,0.000000,2.000000,4.000000,4.000000,4.000000,4.000000,2.000000,4.000000,16.666666,,,,,,,,,,,,,,,,,,,,,,,,,,,,
1732083441.829541,1732083441.831610,47.000000,0.000000,4292.948730,4279.358887,4317.051270,4308.974121,4305.128418,4313.461426,4326.922852,4343.974121,4329.615234,4301.538574,4449.230957,4463.333496,4349.871582,4381.794922,0.000000,0.000000,6.000000,,,,0.000000,2.000000,2.000000,0.000000,2.000000,2.000000,2.000000,0.000000,2.000000,4.000000,4.000000,4.000000,4.000000,2.000000,4.000000,16.666666,,,,,,,,,,,,,,,,,,,,,,,,,,,,
1732083441.837349,1732083441.839518,48.000000,0.000000,4288.974121,4281.410156,4317.307617,4309.743652,4295.897461,4311.025879,4325.128418,4337.051270,4321.282227,4299.615234,4445.641113,4466.410156,4349.102539,4387.563965,0.000000,0.000000,6.000000,,,,0.000000,2.000000,2.000000,0.000000,2.000000,2.000000,2.000000,0.000000,2.000000,4.000000,4.000000,4.000000,4.000000,2.000000,4.000000,16.666666,,,,,,,,,,,,,,,,,12.000000,0.000000,0.529473,0.335144,-0.682861,0.375549,0.963497,-0.157246,-0.151386,-81.779282,45.979385,20.393862
1732083441.845158,1732083441.847327,49.000000,0.000000,4292.179688,4281.666504,4316.922852,4310.128418,4290.000000,4313.077148,4328.333496,4323.717773,4310.256348,4303.077148,4450.897461,4472.436035,4350.512695,4386.794922,0.000000,0.000000,6.000000,,,,0.000000,2.000000,2.000000,0.000000,2.000000,2.000000,2.000000,0.000000,2.000000,4.000000,4.000000,4.000000,4.000000,2.000000,4.000000,16.666666,,,,,,,,,,,,,,,,,,,,,,,,,,,,
1732083441.852966,1732083441.855335,50.000000,0.000000,4297.948730,4283.077148,4319.487305,4310.000000,4298.717773,4309.230957,4325.384766,4323.717773,4317.692383,4307.051270,4458.589844,4473.077148,4353.461426,4385.641113,0.000000,0.000000,6.000000,,,,0.000000,2.000000,2.000000,0.000000,2.000000,2.000000,2.000000,0.000000,2.000000,4.000000,4.000000,4.000000,4.000000,2.000000,4.000000,16.666666,,,,,,,,,,,,,,,,,,,,,,,,,,,,
1732083441.860774,1732083441.863143,51.000000,0.000000,4300.384766,4284.102539,4321.153809,4313.077148,4298.974121,4306.025879,4325.641113,4331.153809,4323.846191,4307.692383,4454.102539,4468.589844,4353.717773,4389.487305,0.000000,0.000000,6.000000,,,,0.000000,2.000000,2.000000,0.000000,2.000000,2.000000,2.000000,0.000000,2.000000,4.000000,4.000000,4.000000,4.000000,2.000000,4.000000,16.666666,,,,,,,,,,,,,,,,,,,,,,,,,,,,
1732083441.868582,1732083441.871051,52.000000,0.000000,4299.743652,4282.692383,4319.743652,4314.871582,4291.410156,4304.615234,4324.615234,4329.102539,4320.769043,4307.820313,4449.743652,4467.948730,4351.153809,4393.077148,0.000000,0.000000,6.000000,,,,0.000000,2.000000,2.000000,0.000000,2.000000,2.000000,2.000000,0.000000,2.000000,4.000000,4.000000,4.000000,4.000000,2.000000,4.000000,16.666666,,,,,,,,,,,,,,,,,13.000000,0.000000,0.529672,0.334717,-0.682983,0.375427,0.960566,-0.165548,-0.154316,-81.766212,46.009968,20.492361
1732083441.876391,1732083441.878859,53.000000,0.000000,4296.538574,4282.307617,4320.256348,4313.846191,4299.743652,4300.384766,4321.794922,4327.436035,4319.358887,4300.128418,4453.846191,4470.897461,4351.794922,4396.538574,0.000000,0.000000,6.000000,,,,0.000000,2.000000,2.000000,0.000000,2.000000,2.000000,2.000000,0.000000,2.000000,4.000000,4.000000,4.000000,4.000000,2.000000,4.000000,16.666666,,,,,,,,,,,,,,,,,,,,,,,,,,,,
