title:six, start timestamp:1732081753.697677, stop timestamp:1732081781.651234, headset type:EPOCX, headset serial:E5020C3A, headset firmware:730, channels:67, sampling rate:eeg_128;mot_32, samples:3581      , version:2.2, 
Timestamp,OriginalTimestamp,EEG.Counter,EEG.Interpolated,EEG.AF3,EEG.F7,EEG.F3,EEG.FC5,EEG.T7,EEG.P7,EEG.O1,EEG.O2,EEG.P8,EEG.T8,EEG.FC6,EEG.F4,EEG.F8,EEG.AF4,EEG.RawCq,EEG.Battery,EEG.BatteryPercent,MarkerIndex,MarkerType,MarkerValueInt,EEG.MarkerHardware,CQ.AF3,CQ.F7,CQ.F3,CQ.FC5,CQ.T7,CQ.P7,CQ.O1,CQ.O2,CQ.P8,CQ.T8,CQ.FC6,CQ.F4,CQ.F8,CQ.AF4,CQ.Overall,EQ.SampleRateQuality,EQ.OVERALL,EQ.AF3,EQ.F7,EQ.F3,EQ.FC5,EQ.T7,EQ.P7,EQ.O1,EQ.O2,EQ.P8,EQ.T8,EQ.FC6,EQ.F4,EQ.F8,EQ.AF4,MOT.CounterMems,MOT.InterpolatedMems,MOT.Q0,MOT.Q1,MOT.Q2,MOT.Q3,MOT.AccX,MOT.AccY,MOT.AccZ,MOT.MagX,MOT.MagY,MOT.MagZ
1732081753.697677,1732081753.699253,41.000000,0.000000,4336.538574,4335.769043,4324.358887,4351.153809,4343.589844,4336.666504,4331.410156,4371.282227,4362.820313,4348.205078,4474.615234,4512.692383,4488.717773,4422.563965,0.000000,0.000000,12.000000,,,,0.000000,2.000000,2.000000,0.000000,2.000000,2.000000,2.000000,1.000000,2.000000,4.000000,4.000000,4.000000,4.000000,2.000000,4.000000,25.000000,,,,,,,,,,,,,,,,,,,,,,,,,,,,
1732081753.705485,1732081753.707261,42.000000,0.000000,4341.410156,4337.436035,4323.846191,4352.436035,4345.512695,4336.025879,4332.179688,4373.205078,4361.666504,4346.922852,4476.922852,4511.153809,4479.102539,4424.743652,0.000000,0.000000,12.000000,,,,0.000000,2.000000,2.000000,0.000000,2.000000,2.000000,2.000000,1.000000,2.000000,4.000000,4.000000,4.000000,4.000000,2.000000,4.000000,25.000000,,,,,,,,,,,,,,,,,,,,,,,,,,,,
1732081753.713293,1732081753.715070,43.000000,0.000000,4342.820313,4334.615234,4324.102539,4347.436035,4342.563965,4337.563965,4331.922852,4368.846191,4358.717773,4349.743652,4478.205078,4512.436035,4476.153809,4428.974121,0.000000,0.000000,12.000000,,,,0.000000,2.000000,2.000000,0.000000,2.000000,2.000000,2.000000,1.000000,2.000000,4.000000,4.000000,4.000000,4.000000,2.000000,4.000000,25.000000,,,,,,,,,,,,,,,,,,,,,,,,,,,,
1732081753.721102,1732081753.722978,44.000000,0.000000,4341.538574,4332.948730,4326.153809,4346.794922,4346.794922,4338.589844,4332.436035,4365.000000,4359.102539,4352.179688,4481.538574,4512.051270,4470.769043,4427.820313,0.000000,0.000000,12.000000,,,,0.000000,2.000000,2.000000,0.000000,2.000000,2.000000,2.000000,1.000000,2.000000,4.000000,4.000000,4.000000,4.000000,2.000000,4.000000,25.000000,,,,,,,,,,,,,,,,,11.000000,0.000000,0.620410,0.405029,-0.612976,0.274414,0.969357,0.139177,-0.066414,-74.731133,66.381577,27.476561
1732081753.728910,1732081753.730786,45.000000,0.000000,4341.025879,4338.333496,4329.102539,4348.461426,4342.820313,4337.692383,4334.871582,4367.307617,4359.230957,4350.000000,4480.897461,4513.589844,4468.333496,4427.692383,0.000000,0.000000,12.000000,,,,0.000000,2.000000,2.000000,0.000000,2.000000,2.000000,2.000000,1.000000,2.000000,4.000000,4.000000,4.000000,4.000000,2.000000,4.000000,25.000000,,,,,,,,,,,,,,,,,,,,,,,,,,,,
1732081753.736718,1732081753.738794,46.000000,0.000000,4341.794922,4339.615234,4327.436035,4343.333496,4345.512695,4339.358887,4333.205078,4372.051270,4359.230957,4352.179688,4480.128418,4516.153809,4460.512695,4430.512695,0.000000,0.000000,12.000000,,,,0.000000,2.000000,2.000000,0.000000,2.000000,2.000000,2.000000,1.000000,2.000000,4.000000,4.000000,4.000000,4.000000,2.000000,4.000000,25.000000,,,,,,,,,,,,,,,,,,,,,,,,,,,,
1732081753.744527,1732081753.746602,47.000000,0.000000,4340.897461,4333.589844,4326.025879,4339.743652,4357.948730,4340.641113,4332.820313,4373.974121,4365.769043,4357.692383,4486.538574,4517.051270,4455.769043,4433.205078,0.000000,0.000000,12.000000,,,,0.000000,2.000000,2.000000,0.000000,2.000000,2.000000,2.000000,1.000000,2.000000,4.000000,4.000000,4.000000,4.000000,2.000000,4.000000,25.000000,,,,,,,,,,,,,,,,,,,,,,,,,,,,
1732081753.752335,1732081753.754510,48.000000,0.000000,4342.692383,4338.974121,4326.538574,4348.974121,4352.179688,4340.769043,4332.307617,4373.974121,4371.794922,4360.128418,4489.487305,4512.820313,4456.794922,4436.153809,0.000000,0.000000,12.000000,,,,0.000000,2.000000,2.000000,0.000000,2.000000,2.000000,2.000000,1.000000,2.000000,4.000000,4.000000,4.000000,4.000000,2.000000,4.000000,25.000000,,,,,,,,,,,,,,,,,12.000000,0.000000,0.620258,0.404602,-0.613220,0.274841,0.964962,0.154804,-0.087901,-74.873886,66.280746,27.422680
1732081753.760143,1732081753.762318,49.000000,0.000000,4344.871582,4348.077148,4331.282227,4354.615234,4338.589844,4341.538574,4332.948730,4373.589844,4369.615234,4358.974121,4487.948730,4509.871582,4455.384766,4437.692383,0.000000,0.000000,12.000000,,,,0.000000,2.000000,2.000000,0.000000,2.000000,2.000000,2.000000,1.000000,2.000000,4.000000,4.000000,4.000000,4.000000,2.000000,4.000000,25.000000,,,,,,,,,,,,,,,,,,,,,,,,,,,,
1732081753.767951,1732081753.770326,50.000000,0.000000,4343.846191,4344.615234,4328.717773,4352.051270,4344.615234,4341.922852,4333.205078,4372.051270,4365.769043,4358.077148,4488.461426,4514.230957,4450.128418,4436.410156,0.000000,0.000000,12.000000,,,,0.000000,2.000000,2.000000,0.000000,2.000000,2.000000,2.000000,1.000000,2.000000,4.000000,4.000000,4.000000,4.000000,2.000000,4.000000,25.000000,,,,,,,,,,,,,,,,,,,,,,,,,,,,
1732081753.775760,1732081753.778135,51.000000,0.000000,4341.153809,4340.897461,4323.974121,4354.230957,4351.538574,4341.794922,4334.230957,4372.307617,4368.333496,4357.692383,4488.077148,4518.846191,4447.179688,4437.307617,0.000000,0.000000,12.000000,,,,0.000000,2.000000,2.000000,0.000000,2.000000,2.000000,2.000000,1.000000,2.000000,4.000000,4.000000,4.000000,4.000000,2.000000,4.000000,25.000000,,,,,,,,,,,,,,,,,,,,,,,,,,,,
1732081753.783568,1732081753.786043,52.000000,0.000000,4343.717773,4346.922852,4325.512695,4359.615234,4346.282227,4341.922852,4332.692383,4376.282227,4370.512695,4358.333496,4486.794922,4514.743652,4445.256348,4440.512695,0.000000,0.000000,12.000000,,,,0.000000,2.000000,2.000000,0.000000,2.000000,2.000000,2.000000,1.000000,2.000000,4.000000,4.000000,4.000000,4.000000,2.000000,4.000000,25.000000,,,,,,,,,,,,,,,,,13.000000,0.000000,0.620036,0.404419,-0.613647,0.274658,0.962520,0.157246,-0.101087,-75.139511,66.099068,27.312370
1732081753.791376,1732081753.793851,53.000000,0.000000,4345.512695,4349.871582,4329.487305,4358.974121,4345.000000,4340.769043,4333.846191,4375.897461,4367.820313,4358.589844,4484.358887,4512.051270,4440.512695,4437.563965,0.000000,0.000000,12.000000,,,,0.000000,2.000000,2.000000,0.000000,2.000000,2.000000,2.000000,1.000000,2.000000,4.000000,4.000000,4.000000,4.000000,2.000000,4.000000,25.000000,,,,,,,,,,,,,,,,,,,,,,,,,,,,
1732081753.799184,1732081753.801459,54.000000,0.000000,4342.179688,4342.692383,4326.410156,4352.307617,4348.589844,4342.820313,4334.743652,4373.205078,4366.666504,4358.077148,4485.769043,4521.538574,4439.743652,4436.025879,0.000000,0.000000,12.000000,,,,0.000000,2.000000,2.000000,0.000000,2.000000,2.000000,2.000000,1.000000,2.000000,4.000000,4.000000,4.000000,4.000000,2.000000,4.000000,25.000000,,,,,,,,,,,,,,,,,,,,,,,,,,,,
1732081753.806993,1732081753.809268,55.000000,0.000000,4342.307617,4338.589844,4327.820313,4347.692383,4348.717773,4347.820313,4333.846191,4376.538574,4368.461426,4360.000000,4487.820313,4527.179688,4437.436035,4438.205078,0.000000,0.000000,12.000000,,,,0.000000,2.000000,2.000000,0.000000,2.000000,2.000000,2.000000,1.000000,2.000000,4.000000,4.000000,4.000000,4.000000,2.000000,4.000000,25.000000,,,,,,,,,,,,,,,,,,,,,,,,,,,,
1732081753.814801,1732081753.816976,56.000000,0.000000,4344.871582,4341.666504,4330.641113,4353.717773,4344.743652,4349.487305,4335.000000,4381.922852,4372.051270,4360.512695,4483.589844,4518.461426,4426.410156,4435.897461,0.000000,0.000000,12.000000,,,,0.000000,2.000000,2.000000,0.000000,2.000000,2.000000,2.000000,1.000000,2.000000,4.000000,4.000000,4.000000,4.000000,2.000000,4.000000,25.000000,,,,,,,,,,,,,,,,,14.000000,0.000000,0.620016,0.404297,-0.613831,0.274475,0.933708,0.176291,-0.099133,-75.106339,66.136909,27.338020
1732081753.822609,1732081753.824784,57.000000,0.000000,4347.436035,4343.717773,4328.589844,4358.846191,4348.717773,4347.307617,4335.512695,4379.230957,4372.692383,4360.641113,4484.871582,4513.846191,4428.077148,4437.179688,0.000000,0.000000,12.000000,,,,0.000000,2.000000,2.000000,0.000000,2.000000,2.000000,2.000000,1.000000,2.000000,4.000000,4.000000,4.000000,4.000000,2.000000,4.000000,25.000000,,,,,,,,,,,,,,,,,,,,,,,,,,,,
1732081753.830417,1732081753.832393,58.000000,0.000000,4355.384766,4348.461426,4328.846191,4357.692383,4355.384766,4343.717773,4334.871582,4374.615234,4369.615234,4366.538574,4499.230957,4523.461426,4444.743652,4448.589844,0.000000,0.000000,12.000000,,,,0.000000,2.000000,2.000000,0.000000,2.000000,2.000000,2.000000,1.000000,2.000000,4.000000,4.000000,4.000000,4.000000,2.000000,4.000000,25.000000,,,,,,,,,,,,,,,,,,,,,,,,,,,,
1732081753.838226,1732081753.840201,59.000000,0.000000,4361.282227,4353.205078,4331.538574,4359.871582,4346.794922,4342.820313,4334.615234,4378.333496,4369.615234,4373.333496,4507.436035,4529.743652,4444.358887,4454.102539,0.000000,0.000000,12.000000,,,,0.000000,2.000000,2.000000,0.000000,2.000000,2.000000,2.000000,1.000000,2.000000,4.000000,4.000000,4.000000,4.000000,2.000000,4.000000,25.000000,,,,,,,,,,,,,,,,,,,,,,,,,,,,
1732081753.846034,1732081753.847909,60.000000,0.000000,4354.230957,4347.692383,4333.333496,4363.589844,4337.820313,4345.769043,4338.461426,4383.589844,4369.871582,4368.205078,4498.717773,4525.769043,4428.333496,4447.307617,0.000000,0.000000,12.000000,,,,0.000000,2.000000,2.000000,0.000000,2.000000,2.000000,2.000000,1.000000,2.000000,4.000000,4.000000,4.000000,4.000000,2.000000,4.000000,25.000000,,,,,,,,,,,,,,,,,15.000000,0.000000,0.620266,0.404480,-0.613647,0.274048,0.925406,0.188988,-0.109388,-75.002800,66.122566,27.272131
1732081753.853842,1732081753.855717,61.000000,0.000000,4349.871582,4343.589844,4331.282227,4363.846191,4344.358887,4345.384766,4337.692383,4380.512695,4366.922852,4360.256348,4492.051270,4526.153809,4424.230957,4448.333496,0.000000,0.000000,12.000000,,,,0.000000,2.000000,2.000000,0.000000,2.000000,2.000000,2.000000,1.000000,2.000000,4.000000,4.000000,4.000000,4.000000,2.000000,4.000000,25.000000,,,,,,,,,,,,,,,,,,,,,,,,,,,,
1732081753.861650,1732081753.863326,62.000000,0.000000,4355.512695,4349.743652,4332.179688,4359.358887,4347.563965,4341.794922,4336.025879,4376.282227,4368.077148,4364.358887,4495.256348,4532.436035,4427.820313,4452.820313,0.000000,0.000000,12.000000,,,,0.000000,2.000000,2.000000,0.000000,2.000000,2.000000,2.000000,1.000000,2.000000,4.000000,4.000000,4.000000,4.000000,2.000000,4.000000,25.000000,,,,,,,,,,,,,,,,,,,,,,,,,,,,
1732081753.869459,1732081753.871134,63.000000,0.000000,4358.333496,4353.589844,4331.538574,4357.051270,4343.717773,4344.230957,4335.384766,4379.871582,4373.077148,4368.974121,4500.769043,4535.641113,4427.307617,4454.487305,0.000000,0.000000,12.000000,,,,0.000000,2.000000,2.000000,0.000000,2.000000,2.000000,2.000000,1.000000,2.000000,4.000000,4.000000,4.000000,4.000000,2.000000,4.000000,25.000000,,,,,,,,,,,,,,,,,,,,,,,,,,,,
1732081753.877267,1732081753.878842,64.000000,0.000000,4356.922852,4349.230957,4333.333496,4359.615234,4346.025879,4350.512695,4337.307617,4382.948730,4373.077148,4364.743652,4502.692383,4533.974121,4426.922852,4456.922852,0.000000,0.000000,12.000000,,,,0.000000,2.000000,2.000000,0.000000,2.000000,2.000000,2.000000,1.000000,2.000000,4.000000,4.000000,4.000000,4.000000,2.000000,4.000000,25.000000,,,,,,,,,,,,,,,,,16.000000,0.000000,0.621715,0.405884,-0.611877,0.272644,0.953241,0.182151,-0.102063,-74.818932,65.942612,27.345425
1732081753.885075,1732081753.886650,65.000000,0.000000,4360.512695,4349.743652,4332.692383,4363.717773,4342.820313,4349.743652,4338.333496,4381.282227,4372.563965,4364.615234,4503.589844,4530.256348,4428.589844,4459.871582,1274.000000,0.000000,12.000000,,,,0.000000,2.000000,2.000000,0.000000,2.000000,2.000000,2.000000,1.000000,2.000000,4.000000,4.000000,4.000000,4.000000,2.000000,4.000000,25.000000,,,,,,,,,,,,,,,,,,,,,,,,,,,,
1732081753.892883,1732081753.894259,66.000000,0.000000,4362.436035,4355.384766,4334.230957,4365.897461,4344.102539,4344.743652,4338.205078,4377.820313,4371.025879,4367.436035,4505.000000,4528.461426,4424.358887,4461.410156,1205.000000,0.000000,12.000000,,,,0.000000,2.000000,2.000000,0.000000,2.000000,2.000000,2.000000,1.000000,2.000000,4.000000,4.000000,4.000000,4.000000,2.000000,4.000000,25.000000,,,,,,,,,,,,,,,,,,,,,,,,,,,,
1732081753.900692,1732081753.902067,67.000000,0.000000,4361.794922,4358.205078,4336.410156,4367.436035,4354.743652,4344.615234,4336.282227,4377.051270,4370.256348,4364.102539,4505.256348,4527.563965,4419.487305,4459.743652,1152.000000,0.000000,12.000000,,,,0.000000,2.000000,2.000000,0.000000,2.000000,2.000000,2.000000,1.000000,2.000000,4.000000,4.000000,4.000000,4.000000,2.000000,4.000000,25.000000,,,,,,,,,,,,,,,,,,,,,,,,,,,,
1732081753.908500,1732081753.909775,68.000000,0.000000,4363.333496,4356.794922,4337.692383,4368.974121,4347.436035,4351.282227,4340.000000,4381.794922,4376.025879,4366.410156,4502.948730,4528.846191,4420.641113,4456.794922,1190.000000,0.000000,12.000000,,,,0.000000,2.000000,2.000000,0.000000,2.000000,2.000000,2.000000,1.000000,2.000000,4.000000,4.000000,4.000000,4.000000,2.000000,4.000000,25.000000,,,,,,,,,,,,,,,,,17.000000,0.000000,0.622667,0.406067,-0.610596,0.273071,0.948846,0.188988,-0.089366,-74.753334,65.663513,27.404795
1732081753.916308,1732081753.917584,69.000000,0.000000,4363.333496,4355.641113,4337.307617,4368.461426,4337.563965,4356.538574,4345.512695,4387.307617,4382.307617,4375.384766,4499.871582,4530.512695,4418.846191,4453.717773,1067.000000,0.000000,12.000000,,,,0.000000,2.000000,2.000000,0.000000,2.000000,2.000000,2.000000,1.000000,2.000000,4.000000,4.000000,4.000000,4.000000,2.000000,4.000000,25.000000,,,,,,,,,,,,,,,,,,,,,,,,,,,,
1732081753.924116,1732081753.925592,70.000000,0.000000,4362.820313,4356.538574,4336.410156,4367.307617,4345.256348,4356.025879,4344.230957,4388.077148,4380.512695,4373.205078,4495.641113,4529.230957,4411.538574,4450.384766,212.000000,0.000000,12.000000,,,,0.000000,2.000000,2.000000,0.000000,2.000000,2.000000,2.000000,1.000000,2.000000,4.000000,4.000000,4.000000,4.000000,2.000000,4.000000,25.000000,,,,,,,,,,,,,,,,,,,,,,,,,,,,
1732081753.931925,1732081753.933400,71.000000,0.000000,4366.410156,4355.256348,4336.794922,4363.333496,4351.282227,4354.743652,4341.922852,4385.384766,4378.974121,4369.487305,4495.000000,4527.436035,4411.025879,4452.948730,1189.000000,0.000000,12.000000,,,,0.000000,2.000000,2.000000,0.000000,2.000000,2.000000,2.000000,1.000000,2.000000,4.000000,4.000000,4.000000,4.000000,2.000000,4.000000,25.000000,,,,,,,,,,,,,,,,,,,,,,,,,,,,
1732081753.939733,1732081753.941308,72.000000,0.000000,4368.974121,4355.769043,4336.282227,4361.538574,4346.538574,4356.666504,4342.436035,4382.307617,4381.025879,4377.436035,4499.871582,4531.666504,4417.051270,4458.974121,1336.000000,0.000000,12.000000,,,,0.000000,2.000000,2.000000,0.000000,2.000000,2.000000,2.000000,1.000000,2.000000,4.000000,4.000000,4.000000,4.000000,2.000000,4.000000,25.000000,,,,,,,,,,,,,,,,,18.000000,0.000000,0.623317,0.406006,-0.609863,0.273315,0.948846,0.188988,-0.089366,-74.831871,66.012451,27.771217
1732081753.947541,1732081753.949116,73.000000,0.000000,4364.230957,4356.538574,4336.538574,4364.102539,4347.820313,4354.230957,4339.487305,4379.487305,4379.358887,4377.563965,4495.384766,4534.871582,4413.589844,4453.717773,1459.000000,0.000000,12.000000,,,,0.000000,2.000000,2.000000,0.000000,2.000000,2.000000,2.000000,1.000000,2.000000,4.000000,4.000000,4.000000,4.000000,2.000000,4.000000,25.000000,,,,,,,,,,,,,,,,,,,,,,,,,,,,
1732081753.955350,1732081753.956724,74.000000,0.000000,4362.307617,4353.205078,4333.974121,4364.871582,4349.743652,4348.077148,4333.461426,4379.230957,4376.922852,4367.436035,4487.563965,4528.589844,4407.820313,4450.000000,1349.000000,0.000000,12.000000,,,,0.000000,2.000000,2.000000,0.000000,2.000000,2.000000,2.000000,1.000000,2.000000,4.000000,4.000000,4.000000,4.000000,2.000000,4.000000,25.000000,,,,,,,,,,,,,,,,,,,,,,,,,,,,
1732081753.963158,1732081753.964533,75.000000,0.000000,4368.461426,4354.743652,4336.410156,4364.230957,4346.922852,4356.282227,4338.717773,4383.846191,4377.563965,4367.051270,4488.846191,4525.769043,4410.512695,4460.769043,1482.000000,0.000000,12.000000,,,,0.000000,2.000000,2.000000,0.000000,2.000000,2.000000,2.000000,1.000000,2.000000,4.000000,4.000000,4.000000,4.000000,2.000000,4.000000,25.000000,,,,,,,,,,,,,,,,,,,,,,,,,,,,
1732081753.970966,1732081753.972241,76.000000,0.000000,4374.358887,4360.384766,4340.000000,4368.717773,4351.282227,4366.025879,4343.974121,4389.102539,4379.743652,4374.743652,4493.461426,4532.179688,4412.436035,4465.000000,1721.000000,0.000000,12.000000,,,,0.000000,2.000000,2.000000,0.000000,2.000000,2.000000,2.000000,1.000000,2.000000,4.000000,4.000000,4.000000,4.000000,2.000000,4.000000,25.000000,,,,,,,,,,,,,,,,,19.000000,0.000000,0.627636,0.405396,-0.605164,0.274780,0.950311,0.160664,-0.053717,-74.835480,65.840080,27.608019
1732081753.978774,1732081753.980049,77.000000,0.000000,4372.820313,4358.205078,4340.512695,4366.794922,4352.692383,4358.846191,4340.000000,4387.179688,4380.512695,4375.769043,4491.922852,4536.794922,4408.077148,4459.358887,1681.000000,0.000000,12.000000,,,,0.000000,2.000000,2.000000,0.000000,2.000000,2.000000,2.000000,1.000000,2.000000,4.000000,4.000000,4.000000,4.000000,2.000000,4.000000,25.000000,,,,,,,,,,,,,,,,,,,,,,,,,,,,
1732081753.986582,1732081753.987658,78.000000,0.000000,4371.666504,4353.846191,4334.871582,4360.000000,4348.205078,4350.769043,4332.692383,4381.153809,4378.717773,4372.692383,4489.102539,4531.538574,4406.410156,4460.769043,1349.000000,0.000000,12.000000,,,,0.000000,2.000000,2.000000,0.000000,2.000000,2.000000,2.000000,1.000000,2.000000,4.000000,4.000000,4.000000,4.000000,2.000000,4.000000,25.000000,1.000000,25.000000,2.000000,2.000000,0.000000,2.000000,2.000000,2.000000,1.000000,2.000000,4.000000,3.000000,4.000000,4.000000,2.000000,4.000000,,,,,,,,,,,,
1732081753.994391,1732081753.995466,79.000000,0.000000,4378.846191,4357.820313,4339.358887,4364.230957,4349.615234,4353.077148,4336.282227,4381.410156,4377.948730,4373.846191,4490.000000,4534.102539,4407.436035,4463.077148,1482.000000,0.000000,12.000000,,,,0.000000,2.000000,2.000000,0.000000,2.000000,2.000000,2.000000,1.000000,2.000000,4.000000,4.000000,4.000000,4.000000,2.000000,4.000000,25.000000,,,,,,,,,,,,,,,,,,,,,,,,,,,,
1732081754.002199,1732081754.003374,80.000000,0.000000,4383.461426,4360.128418,4345.897461,4372.820313,4359.743652,4360.256348,4343.077148,4388.333496,4380.128418,4377.563965,4491.410156,4538.205078,4404.358887,4460.384766,1721.000000,0.000000,12.000000,,,,0.000000,2.000000,2.000000,0.000000,2.000000,2.000000,2.000000,1.000000,2.000000,4.000000,4.000000,4.000000,4.000000,2.000000,4.000000,25.000000,,,,,,,,,,,,,,,,,20.000000,0.000000,0.631497,0.403748,-0.601318,0.276794,0.967892,0.142596,-0.025882,-74.748405,65.690468,27.527496
1732081754.010007,1732081754.011182,81.000000,0.000000,4380.128418,4357.948730,4345.000000,4373.077148,4366.538574,4366.153809,4346.922852,4389.615234,4378.717773,4371.025879,4487.179688,4525.000000,4401.794922,4457.948730,1681.000000,0.000000,12.000000,,,,0.000000,2.000000,2.000000,0.000000,2.000000,2.000000,2.000000,1.000000,2.000000,4.000000,4.000000,4.000000,4.000000,2.000000,4.000000,25.000000,,,,,,,,,,,,,,,,,,,,,,,,,,,,
1732081754.017815,1732081754.019190,82.000000,0.000000,4382.692383,4360.256348,4343.205078,4374.487305,4363.717773,4369.230957,4345.384766,4385.128418,4374.487305,4361.922852,4482.563965,4516.410156,4403.717773,4455.769043,1349.000000,0.000000,12.000000,,,,0.000000,2.000000,2.000000,0.000000,2.000000,2.000000,2.000000,1.000000,2.000000,4.000000,4.000000,4.000000,4.000000,2.000000,4.000000,25.000000,,,,,,,,,,,,,,,,,,,,,,,,,,,,
1732081754.025624,1732081754.026998,83.000000,0.000000,4395.512695,4360.512695,4346.025879,4377.692383,4357.563965,4362.820313,4340.512695,4383.333496,4375.128418,4366.282227,4486.538574,4529.230957,4406.666504,4460.384766,1482.000000,0.000000,12.000000,,,,0.000000,2.000000,2.000000,0.000000,2.000000,2.000000,2.000000,1.000000,2.000000,4.000000,4.000000,4.000000,4.000000,2.000000,4.000000,25.000000,,,,,,,,,,,,,,,,,,,,,,,,,,,,
1732081754.033432,1732081754.034906,84.000000,0.000000,4406.025879,4358.205078,4345.000000,4374.743652,4361.666504,4350.256348,4336.282227,4383.717773,4378.077148,4372.179688,4493.717773,4536.666504,4409.487305,4470.128418,1721.000000,0.000000,12.000000,,,,0.000000,2.000000,2.000000,0.000000,2.000000,2.000000,2.000000,1.000000,2.000000,4.000000,4.000000,4.000000,4.000000,2.000000,4.000000,25.000000,,,,,,,,,,,,,,,,,21.000000,0.000000,0.634304,0.402100,-0.598816,0.278198,0.937126,0.139665,0.007325,-74.644547,65.934280,27.745605
1732081754.041240,1732081754.042715,85.000000,0.000000,4410.641113,4357.948730,4340.000000,4370.641113,4365.384766,4349.230957,4335.769043,4384.871582,4377.051270,4368.846191,4497.307617,4530.256348,4412.307617,4476.922852,1681.000000,0.000000,12.000000,,,,0.000000,2.000000,2.000000,0.000000,2.000000,2.000000,2.000000,1.000000,2.000000,4.000000,4.000000,4.000000,4.000000,2.000000,4.000000,25.000000,,,,,,,,,,,,,,,,,,,,,,,,,,,,
1732081754.049049,1732081754.050323,86.000000,0.000000,4416.153809,4355.769043,4342.563965,4368.077148,4350.897461,4355.897461,4338.974121,4382.179688,4375.128418,4366.538574,4499.487305,4535.000000,4413.589844,4481.410156,1349.000000,0.000000,12.000000,,,,0.000000,2.000000,2.000000,0.000000,2.000000,2.000000,2.000000,1.000000,2.000000,4.000000,4.000000,4.000000,4.000000,2.000000,4.000000,25.000000,,,,,,,,,,,,,,,,,,,,,,,,,,,,
1732081754.056857,1732081754.058131,87.000000,0.000000,4424.871582,4355.000000,4346.153809,4366.922852,4343.589844,4355.128418,4342.307617,4383.717773,4379.487305,4370.641113,4502.307617,4542.948730,4415.641113,4487.692383,1482.000000,0.000000,12.000000,,,,0.000000,2.000000,2.000000,0.000000,2.000000,2.000000,2.000000,1.000000,2.000000,4.000000,4.000000,4.000000,4.000000,2.000000,4.000000,25.000000,,,,,,,,,,,,,,,,,,,,,,,,,,,,
1732081754.064665,1732081754.065840,88.000000,0.000000,4432.436035,4359.615234,4347.436035,4372.051270,4359.102539,4349.743652,4343.589844,4389.871582,4384.615234,4374.230957,4507.051270,4541.922852,4419.358887,4495.128418,1721.000000,0.000000,12.000000,,,,0.000000,2.000000,2.000000,0.000000,2.000000,2.000000,2.000000,1.000000,2.000000,4.000000,4.000000,4.000000,4.000000,2.000000,4.000000,25.000000,,,,,,,,,,,,,,,,,22.000000,0.000000,0.635906,0.401245,-0.597290,0.279053,0.956660,0.134294,0.029789,-74.332077,66.041763,27.730606
1732081754.072473,1732081754.073648,89.000000,0.000000,4438.717773,4363.461426,4345.384766,4378.333496,4368.077148,4353.717773,4342.179688,4392.820313,4382.948730,4374.615234,4509.743652,4540.641113,4424.102539,4500.128418,1681.000000,0.000000,12.000000,,,,0.000000,2.000000,2.000000,0.000000,2.000000,2.000000,2.000000,1.000000,2.000000,4.000000,4.000000,4.000000,4.000000,2.000000,4.000000,25.000000,,,,,,,,,,,,,,,,,,,,,,,,,,,,
1732081754.080282,1732081754.081656,90.000000,0.000000,4447.436035,4362.563965,4347.307617,4379.230957,4359.487305,4356.794922,4344.487305,4391.410156,4378.205078,4371.794922,4513.974121,4545.000000,4428.846191,4510.000000,1349.000000,0.000000,12.000000,,,,0.000000,2.000000,2.000000,0.000000,2.000000,2.000000,2.000000,1.000000,2.000000,4.000000,4.000000,4.000000,4.000000,2.000000,4.000000,25.000000,,,,,,,,,,,,,,,,,,,,,,,,,,,,
1732081754.088090,1732081754.089464,91.000000,0.000000,4453.589844,4363.846191,4345.256348,4379.102539,4357.179688,4350.256348,4343.974121,4388.205078,4379.615234,4367.307617,4519.358887,4550.256348,4431.922852,4517.820313,1482.000000,0.000000,12.000000,,,,0.000000,2.000000,2.000000,0.000000,2.000000,2.000000,2.000000,1.000000,2.000000,4.000000,4.000000,4.000000,4.000000,2.000000,4.000000,25.000000,,,,,,,,,,,,,,,,,,,,,,,,,,,,
1732081754.095898,1732081754.097372,92.000000,0.000000,4454.743652,4364.615234,4344.487305,4378.333496,4361.794922,4349.871582,4342.051270,4390.000000,4381.025879,4366.794922,4516.922852,4548.717773,4431.153809,4514.743652,1721.000000,0.000000,12.000000,,,,0.000000,2.000000,2.000000,0.000000,2.000000,2.000000,2.000000,1.000000,2.000000,4.000000,4.000000,4.000000,4.000000,2.000000,4.000000,25.000000,,,,,,,,,,,,,,,,,23.000000,0.000000,0.641108,0.398987,-0.591492,0.282715,0.992309,0.169943,-0.001465,-74.318985,66.097160,27.778458
1732081754.103706,1732081754.105180,93.000000,0.000000,4454.743652,4363.461426,4346.282227,4376.922852,4363.717773,4355.384766,4342.051270,4393.717773,4381.025879,4370.641113,4516.538574,4546.410156,4428.333496,4517.307617,1681.000000,0.000000,12.000000,,,,0.000000,2.000000,2.000000,0.000000,2.000000,2.000000,2.000000,1.000000,2.000000,4.000000,4.000000,4.000000,4.000000,2.000000,4.000000,25.000000,,,,,,,,,,,,,,,,,,,,,,,,,,,,
1732081754.111515,1732081754.113188,94.000000,0.000000,4453.717773,4361.410156,4349.487305,4376.666504,4364.615234,4353.589844,4345.128418,4392.692383,4382.563965,4372.179688,4523.333496,4548.077148,4427.948730,4525.384766,1349.000000,0.000000,12.000000,,,,0.000000,2.000000,2.000000,0.000000,2.000000,2.000000,2.000000,1.000000,2.000000,4.000000,4.000000,4.000000,4.000000,2.000000,4.000000,25.000000,,,,,,,,,,,,,,,,,,,,,,,,,,,,
1732081754.119323,1732081754.120997,95.000000,0.000000,4457.436035,4362.692383,4346.666504,4379.230957,4363.461426,4348.461426,4341.538574,4391.794922,4381.794922,4371.410156,4523.717773,4551.922852,4433.205078,4523.333496,1482.000000,0.000000,12.000000,,,,0.000000,2.000000,2.000000,0.000000,2.000000,2.000000,2.000000,1.000000,2.000000,4.000000,4.000000,4.000000,4.000000,2.000000,4.000000,25.000000,,,,,,,,,,,,,,,,,,,,,,,,,,,,
1732081754.127131,1732081754.128905,96.000000,0.000000,4462.179688,4366.794922,4345.256348,4377.563965,4362.307617,4347.051270,4338.205078,4396.153809,4381.538574,4374.743652,4525.769043,4558.205078,4439.102539,4525.384766,1721.000000,0.000000,12.000000,,,,0.000000,2.000000,2.000000,0.000000,2.000000,2.000000,2.000000,1.000000,2.000000,4.000000,4.000000,4.000000,4.000000,2.000000,4.000000,25.000000,,,,,,,,,,,,,,,,,24.000000,0.000000,0.642152,0.399841,-0.588928,0.284485,0.997680,0.193871,0.003907,-74.348381,66.103699,27.947218
1732081754.134939,1732081754.136713,97.000000,0.000000,4461.794922,4365.512695,4348.974121,4376.025879,4362.436035,4350.128418,4341.922852,4397.948730,4384.743652,4382.051270,4535.256348,4562.692383,4440.128418,4535.641113,1681.000000,0.000000,12.000000,,,,0.000000,2.000000,2.000000,0.000000,2.000000,2.000000,2.000000,1.000000,2.000000,4.000000,4.000000,4.000000,4.000000,2.000000,4.000000,25.000000,,,,,,,,,,,,,,,,,,,,,,,,,,,,
1732081754.142748,1732081754.144721,98.000000,0.000000,4461.666504,4362.820313,4350.000000,4381.794922,4363.205078,4352.692383,4345.641113,4395.000000,4386.410156,4384.358887,4539.102539,4562.307617,4441.025879,4532.179688,1349.000000,0.000000,12.000000,,,,0.000000,2.000000,2.000000,0.000000,2.000000,2.000000,2.000000,1.000000,2.000000,4.000000,4.000000,4.000000,4.000000,2.000000,4.000000,25.000000,,,,,,,,,,,,,,,,,,,,,,,,,,,,
1732081754.150556,1732081754.152529,99.000000,0.000000,4463.717773,4365.256348,4347.820313,4385.256348,4362.436035,4351.922852,4344.102539,4397.948730,4386.410156,4381.666504,4536.794922,4561.153809,4442.436035,4525.641113,1482.000000,0.000000,12.000000,,,,0.000000,2.000000,2.000000,0.000000,2.000000,2.000000,2.000000,1.000000,2.000000,4.000000,4.000000,4.000000,4.000000,2.000000,4.000000,25.000000,,,,,,,,,,,,,,,,,,,,,,,,,,,,
1732081754.158364,1732081754.160437,100.000000,0.000000,4462.179688,4365.769043,4346.794922,4380.000000,4360.128418,4350.384766,4342.563965,4398.974121,4384.871582,4379.871582,4532.948730,4561.025879,4437.820313,4529.230957,1721.000000,0.000000,12.000000,,,,0.000000,2.000000,2.000000,0.000000,2.000000,2.000000,2.000000,1.000000,2.000000,4.000000,4.000000,4.000000,4.000000,2.000000,4.000000,25.000000,,,,,,,,,,,,,,,,,25.000000,0.000000,0.642152,0.399841,-0.588928,0.284485,1.002075,0.169454,0.019045,-74.282188,65.988998,28.083914
1732081754.166172,1732081754.168245,101.000000,0.000000,4462.692383,4362.948730,4350.384766,4376.410156,4356.794922,4351.538574,4344.487305,4396.153809,4381.410156,4382.179688,4530.384766,4561.538574,4437.692383,4531.794922,1681.000000,0.000000,12.000000,,,,0.000000,2.000000,2.000000,0.000000,2.000000,2.000000,2.000000,1.000000,2.000000,4.000000,4.000000,4.000000,4.000000,2.000000,4.000000,25.000000,,,,,,,,,,,,,,,,,,,,,,,,,,,,
1732081754.173981,1732081754.176253,102.000000,0.000000,4465.897461,4361.666504,4354.358887,4379.743652,4355.897461,4354.102539,4347.948730,4397.820313,4381.794922,4384.871582,4534.871582,4566.153809,4440.256348,4535.769043,1349.000000,0.000000,12.000000,,,,0.000000,2.000000,2.000000,0.000000,2.000000,2.000000,2.000000,1.000000,2.000000,4.000000,4.000000,4.000000,4.000000,2.000000,4.000000,25.000000,,,,,,,,,,,,,,,,,,,,,,,,,,,,
1732081754.181789,1732081754.184062,103.000000,0.000000,4463.333496,4361.922852,4355.769043,4380.128418,4358.974121,4355.128418,4348.974121,4399.871582,4384.615234,4379.743652,4539.230957,4568.461426,4436.025879,4538.717773,1482.000000,0.000000,12.000000,,,,0.000000,2.000000,2.000000,0.000000,2.000000,2.000000,2.000000,1.000000,2.000000,4.000000,4.000000,4.000000,4.000000,2.000000,4.000000,25.000000,,,,,,,,,,,,,,,,,,,,,,,,,,,,
1732081754.189597,1732081754.191970,104.000000,0.000000,4462.820313,4362.948730,4354.230957,4377.692383,4362.820313,4354.615234,4343.717773,4398.077148,4384.743652,4376.794922,4538.205078,4562.307617,4436.153809,4535.897461,1721.000000,0.000000,12.000000,,,,0.000000,2.000000,2.000000,0.000000,2.000000,2.000000,2.000000,1.000000,2.000000,4.000000,4.000000,4.000000,4.000000,2.000000,4.000000,25.000000,,,,,,,,,,,,,,,,,26.000000,0.000000,0.642044,0.401245,-0.586365,0.288025,1.020632,0.115737,0.029789,-74.201904,66.056091,28.512970
1732081754.197405,1732081754.199778,105.000000,0.000000,4464.230957,4363.077148,4354.230957,4377.051270,4362.179688,4350.769043,4342.179688,4397.307617,4386.410156,4383.589844,4538.205078,4562.436035,4444.358887,4539.871582,1681.000000,0.000000,12.000000,,,,0.000000,2.000000,2.000000,0.000000,2.000000,2.000000,2.000000,1.000000,2.000000,4.000000,4.000000,4.000000,4.000000,2.000000,4.000000,25.000000,,,,,,,,,,,,,,,,,,,,,,,,,,,,
1732081754.205214,1732081754.207786,106.000000,0.000000,4462.307617,4360.897461,4354.615234,4381.025879,4360.384766,4349.743652,4345.769043,4398.974121,4389.871582,4388.974121,4540.128418,4573.077148,4442.307617,4546.538574,1349.000000,0.000000,12.000000,,,,0.000000,2.000000,2.000000,0.000000,2.000000,2.000000,2.000000,1.000000,2.000000,4.000000,4.000000,4.000000,4.000000,2.000000,4.000000,25.000000,,,,,,,,,,,,,,,,,,,,,,,,,,,,
1732081754.213022,1732081754.215594,107.000000,0.000000,4459.871582,4362.051270,4355.384766,4386.794922,4370.897461,4351.922852,4347.179688,4400.128418,4392.179688,4384.487305,4540.769043,4579.871582,4432.179688,4541.922852,1482.000000,0.000000,12.000000,,,,0.000000,2.000000,2.000000,0.000000,2.000000,2.000000,2.000000,1.000000,2.000000,4.000000,4.000000,4.000000,4.000000,2.000000,4.000000,25.000000,,,,,,,,,,,,,,,,,,,,,,,,,,,,
1732081754.220830,1732081754.223502,108.000000,0.000000,4459.358887,4361.922852,4352.948730,4384.743652,4379.615234,4350.000000,4345.512695,4400.000000,4392.692383,4384.358887,4543.717773,4574.230957,4433.077148,4539.487305,1721.000000,0.000000,12.000000,,,,0.000000,2.000000,2.000000,0.000000,2.000000,2.000000,2.000000,1.000000,2.000000,4.000000,4.000000,4.000000,4.000000,2.000000,4.000000,25.000000,,,,,,,,,,,,,,,,,27.000000,0.000000,0.639563,0.400818,-0.587769,0.291260,1.012331,0.098645,0.025882,-74.293541,66.090431,28.623838
1732081754.228639,1732081754.231310,109.000000,0.000000,4460.000000,4360.256348,4351.025879,4379.615234,4367.307617,4350.512695,4346.282227,4400.000000,4394.871582,4392.051270,4543.974121,4570.384766,4435.897461,4541.410156,1681.000000,0.000000,12.000000,,,,0.000000,2.000000,2.000000,0.000000,2.000000,2.000000,2.000000,1.000000,2.000000,4.000000,4.000000,4.000000,4.000000,2.000000,4.000000,25.000000,,,,,,,,,,,,,,,,,,,,,,,,,,,,
1732081754.236447,1732081754.238919,110.000000,0.000000,4458.205078,4362.948730,4352.948730,4381.666504,4357.692383,4354.487305,4346.666504,4399.487305,4396.922852,4395.384766,4539.871582,4572.051270,4433.333496,4539.871582,1349.000000,0.000000,12.000000,,,,0.000000,2.000000,2.000000,0.000000,2.000000,2.000000,2.000000,1.000000,2.000000,4.000000,4.000000,4.000000,4.000000,2.000000,4.000000,25.000000,,,,,,,,,,,,,,,,,,,,,,,,,,,,
1732081754.244255,1732081754.246727,111.000000,0.000000,4453.461426,4362.436035,4358.205078,4383.974121,4373.589844,4353.333496,4346.410156,4400.769043,4393.461426,4393.461426,4537.179688,4570.769043,4430.256348,4537.563965,1482.000000,0.000000,12.000000,,,,0.000000,2.000000,2.000000,0.000000,2.000000,2.000000,2.000000,1.000000,2.000000,4.000000,4.000000,4.000000,4.000000,2.000000,4.000000,25.000000,,,,,,,,,,,,,,,,,,,,,,,,,,,,
1732081754.252063,1732081754.254435,112.000000,0.000000,4452.179688,4360.897461,4358.333496,4378.205078,4381.922852,4352.179688,4345.384766,4400.769043,4391.153809,4392.436035,4537.948730,4568.205078,4429.230957,4537.820313,1721.000000,0.000000,12.000000,,,,0.000000,2.000000,2.000000,0.000000,2.000000,2.000000,2.000000,1.000000,2.000000,4.000000,4.000000,4.000000,4.000000,2.000000,4.000000,25.000000,,,,,,,,,,,,,,,,,28.000000,0.000000,0.635956,0.400330,-0.591125,0.293030,0.977658,0.142596,-0.004395,-74.511101,66.073250,28.640308
1732081754.259871,1732081754.262244,113.000000,0.000000,4452.692383,4364.230957,4357.948730,4377.179688,4366.410156,4358.333496,4347.436035,4400.641113,4394.743652,4393.461426,4540.512695,4568.589844,4429.871582,4537.307617,1681.000000,0.000000,12.000000,,,,0.000000,2.000000,2.000000,0.000000,2.000000,2.000000,2.000000,1.000000,2.000000,4.000000,4.000000,4.000000,4.000000,2.000000,4.000000,25.000000,,,,,,,,,,,,,,,,,,,,,,,,,,,,
1732081754.267680,1732081754.269852,114.000000,0.000000,4452.692383,4367.051270,4358.974121,4389.230957,4361.153809,4362.179688,4347.563965,4402.820313,4397.820313,4394.487305,4540.384766,4570.641113,4430.256348,4536.922852,1349.000000,0.000000,12.000000,,,,0.000000,2.000000,2.000000,0.000000,2.000000,2.000000,2.000000,1.000000,2.000000,4.000000,4.000000,4.000000,4.000000,2.000000,4.000000,25.000000,,,,,,,,,,,,,,,,,,,,,,,,,,,,
1732081754.275488,1732081754.277660,115.000000,0.000000,4456.282227,4366.282227,4357.948730,4396.666504,4370.769043,4359.358887,4346.666504,4401.153809,4397.179688,4394.487305,4540.384766,4570.512695,4431.025879,4538.205078,1482.000000,0.000000,12.000000,,,,0.000000,2.000000,2.000000,0.000000,2.000000,2.000000,2.000000,1.000000,2.000000,4.000000,4.000000,4.000000,4.000000,2.000000,4.000000,25.000000,,,,,,,,,,,,,,,,,,,,,,,,,,,,
1732081754.283296,1732081754.285368,116.000000,0.000000,4461.538574,4369.102539,4356.794922,4392.563965,4375.128418,4358.333496,4346.410156,4401.410156,4397.307617,4392.563965,4545.384766,4570.897461,4432.307617,4540.641113,1721.000000,0.000000,12.000000,,,,0.000000,2.000000,2.000000,0.000000,2.000000,2.000000,2.000000,1.000000,2.000000,4.000000,4.000000,4.000000,4.000000,2.000000,4.000000,25.000000,,,,,,,,,,,,,,,,,29.000000,0.000000,0.635956,0.400330,-0.591125,0.293030,0.977658,0.142596,-0.004395,-74.642326,66.089333,28.803650
1732081754.291104,1732081754.293177,117.000000,0.000000,4462.820313,4373.077148,4358.205078,4391.666504,4373.974121,4361.153809,4344.102539,4409.230957,4398.205078,4391.538574,4552.179688,4577.820313,4434.743652,4543.077148,1681.000000,0.000000,12.000000,,,,0.000000,2.000000,2.000000,0.000000,2.000000,2.000000,2.000000,1.000000,2.000000,4.000000,4.000000,4.000000,4.000000,2.000000,4.000000,25.000000,,,,,,,,,,,,,,,,,,,,,,,,,,,,
1732081754.298913,1732081754.300785,118.000000,0.000000,4460.897461,4372.436035,4358.205078,4394.487305,4374.358887,4363.717773,4340.769043,4411.153809,4398.846191,4391.282227,4555.256348,4584.102539,4435.641113,4542.692383,1349.000000,0.000000,12.000000,,,,0.000000,2.000000,2.000000,0.000000,2.000000,2.000000,2.000000,1.000000,2.000000,4.000000,4.000000,4.000000,4.000000,2.000000,4.000000,25.000000,,,,,,,,,,,,,,,,,,,,,,,,,,,,
1732081754.306721,1732081754.308593,119.000000,0.000000,4461.153809,4371.410156,4353.846191,4392.948730,4374.358887,4363.461426,4342.692383,4408.589844,4399.871582,4387.692383,4552.179688,4580.512695,4433.333496,4540.512695,1482.000000,0.000000,12.000000,,,,0.000000,2.000000,2.000000,0.000000,2.000000,2.000000,2.000000,1.000000,2.000000,4.000000,4.000000,4.000000,4.000000,2.000000,4.000000,25.000000,,,,,,,,,,,,,,,,,,,,,,,,,,,,
1732081754.314529,1732081754.316302,120.000000,0.000000,4460.769043,4371.794922,4347.563965,4389.871582,4372.948730,4361.922852,4343.717773,4409.871582,4399.358887,4387.948730,4551.153809,4580.256348,4434.230957,4537.179688,1721.000000,0.000000,12.000000,,,,0.000000,2.000000,2.000000,0.000000,2.000000,2.000000,2.000000,1.000000,2.000000,4.000000,4.000000,4.000000,4.000000,2.000000,4.000000,25.000000,,,,,,,,,,,,,,,,,30.000000,0.000000,0.630157,0.405579,-0.593933,0.292664,0.937126,0.192406,-0.049811,-74.666954,66.029022,28.617624
1732081754.322338,1732081754.324110,121.000000,0.000000,4456.282227,4370.769043,4346.153809,4388.205078,4368.717773,4361.666504,4341.538574,4409.615234,4401.153809,4392.563965,4555.769043,4588.717773,4436.025879,4536.410156,1681.000000,0.000000,12.000000,,,,0.000000,2.000000,2.000000,0.000000,2.000000,2.000000,2.000000,1.000000,2.000000,4.000000,4.000000,4.000000,4.000000,2.000000,4.000000,25.000000,,,,,,,,,,,,,,,,,,,,,,,,,,,,
1732081754.330146,1732081754.332118,122.000000,0.000000,4453.205078,4372.179688,4349.102539,4388.333496,4371.153809,4362.820313,4343.974121,4405.256348,4401.410156,4391.153809,4555.384766,4583.846191,4432.307617,4536.922852,1349.000000,0.000000,12.000000,,,,0.000000,2.000000,2.000000,0.000000,2.000000,2.000000,2.000000,1.000000,2.000000,4.000000,4.000000,4.000000,4.000000,2.000000,4.000000,25.000000,,,,,,,,,,,,,,,,,,,,,,,,,,,,
1732081754.337954,1732081754.339926,123.000000,0.000000,4453.333496,4377.820313,4347.307617,4391.153809,4381.538574,4360.128418,4342.307617,4405.256348,4396.410156,4383.589844,4551.025879,4573.589844,4432.307617,4535.897461,1482.000000,0.000000,12.000000,,,,0.000000,2.000000,2.000000,0.000000,2.000000,2.000000,2.000000,1.000000,2.000000,4.000000,4.000000,4.000000,4.000000,2.000000,4.000000,25.000000,,,,,,,,,,,,,,,,,,,,,,,,,,,,
1732081754.345762,1732081754.347834,124.000000,0.000000,4455.512695,4380.384766,4345.641113,4393.077148,4372.692383,4357.307617,4337.820313,4406.282227,4397.563965,4383.077148,4552.307617,4574.871582,4442.563965,4536.410156,1721.000000,0.000000,12.000000,,,,0.000000,2.000000,2.000000,0.000000,2.000000,2.000000,2.000000,1.000000,2.000000,4.000000,4.000000,4.000000,4.000000,2.000000,4.000000,25.000000,,,,,,,,,,,,,,,,,31.000000,0.000000,0.629107,0.407471,-0.593811,0.292542,0.944451,0.178733,-0.071786,-74.740227,66.080177,28.633608
1732081754.353571,1732081754.355642,125.000000,0.000000,4454.743652,4378.205078,4350.897461,4395.769043,4358.717773,4363.205078,4337.948730,4405.641113,4403.846191,4391.025879,4557.179688,4578.461426,4446.410156,4539.487305,1681.000000,0.000000,12.000000,,,,0.000000,2.000000,2.000000,0.000000,2.000000,2.000000,2.000000,1.000000,2.000000,4.000000,4.000000,4.000000,4.000000,2.000000,4.000000,25.000000,,,,,,,,,,,,,,,,,,,,,,,,,,,,
1732081754.361379,1732081754.363251,126.000000,0.000000,4452.179688,4378.846191,4355.128418,4401.666504,4362.820313,4368.717773,4341.922852,4407.051270,4402.820313,4390.897461,4556.410156,4578.589844,4439.358887,4540.512695,1349.000000,0.000000,12.000000,,,,0.000000,2.000000,2.000000,0.000000,2.000000,2.000000,2.000000,1.000000,2.000000,4.000000,4.000000,4.000000,4.000000,2.000000,4.000000,25.000000,,,,,,,,,,,,,,,,,,,,,,,,,,,,
1732081754.369187,1732081754.371059,127.000000,0.000000,4451.282227,4381.922852,4352.051270,4402.307617,4370.512695,4366.025879,4343.717773,4408.974121,4399.743652,4383.461426,4554.615234,4575.897461,4440.256348,4538.461426,12.000000,0.000000,12.000000,,,,0.000000,2.000000,2.000000,0.000000,2.000000,2.000000,2.000000,1.000000,2.000000,4.000000,4.000000,4.000000,4.000000,2.000000,4.000000,25.000000,,,,,,,,,,,,,,,,,,,,,,,,,,,,
1732081754.376995,1732081754.378767,0.000000,0.000000,4450.384766,4382.436035,4348.846191,4398.461426,4365.000000,4366.794922,4345.256348,4412.307617,4405.000000,4385.384766,4554.871582,4570.512695,4442.436035,4538.717773,0.000000,0.000000,12.000000,,,,0.000000,2.000000,2.000000,0.000000,2.000000,2.000000,2.000000,1.000000,2.000000,4.000000,4.000000,4.000000,4.000000,2.000000,4.000000,25.000000,,,,,,,,,,,,,,,,,0.000000,0.000000,0.628080,0.409363,-0.593567,0.292603,0.944451,0.178733,-0.071786,-74.694588,66.136612,28.556557
1732081754.384804,1732081754.386576,1.000000,0.000000,4445.000000,4381.666504,4350.384766,4396.666504,4363.717773,4376.025879,4343.205078,4412.692383,4409.743652,4393.717773,4553.333496,4569.743652,4433.461426,4536.538574,1267.000000,0.000000,12.000000,,,,0.000000,2.000000,2.000000,0.000000,2.000000,2.000000,2.000000,1.000000,2.000000,4.000000,4.000000,4.000000,4.000000,2.000000,4.000000,25.000000,,,,,,,,,,,,,,,,,,,,,,,,,,,,
1732081754.392612,1732081754.394184,2.000000,0.000000,4439.871582,4381.153809,4355.128418,4393.205078,4374.871582,4376.538574,4341.794922,4406.025879,4406.538574,4390.641113,4552.692383,4577.436035,4428.205078,4531.410156,1195.000000,0.000000,12.000000,,,,0.000000,2.000000,2.000000,0.000000,2.000000,2.000000,2.000000,1.000000,2.000000,4.000000,4.000000,4.000000,4.000000,2.000000,4.000000,25.000000,,,,,,,,,,,,,,,,,,,,,,,,,,,,
1732081754.400420,1732081754.401992,3.000000,0.000000,4442.436035,4383.589844,4356.282227,4395.256348,4374.615234,4372.179688,4341.794922,4404.871582,4406.153809,4386.666504,4554.487305,4583.846191,4432.307617,4532.948730,1152.000000,0.000000,12.000000,,,,0.000000,2.000000,2.000000,0.000000,2.000000,2.000000,2.000000,1.000000,2.000000,4.000000,4.000000,4.000000,4.000000,2.000000,4.000000,25.000000,,,,,,,,,,,,,,,,,,,,,,,,,,,,
1732081754.408228,1732081754.409700,4.000000,0.000000,4443.846191,4385.641113,4355.128418,4401.922852,4361.025879,4377.179688,4344.230957,4412.820313,4408.461426,4394.615234,4557.051270,4587.563965,4432.307617,4535.769043,1189.000000,0.000000,12.000000,,,,0.000000,2.000000,2.000000,0.000000,2.000000,2.000000,2.000000,1.000000,2.000000,4.000000,4.000000,4.000000,4.000000,2.000000,4.000000,25.000000,,,,,,,,,,,,,,,,,1.000000,0.000000,0.624514,0.414612,-0.593506,0.292969,0.974728,0.143572,-0.072274,-74.569283,66.023987,28.355810
1732081754.416036,1732081754.417509,5.000000,0.000000,4440.512695,4381.538574,4356.153809,4400.384766,4358.333496,4383.333496,4349.615234,4417.051270,4409.102539,4398.205078,4557.179688,4583.974121,4429.487305,4535.256348,1065.000000,0.000000,12.000000,,,,0.000000,2.000000,2.000000,0.000000,2.000000,2.000000,2.000000,1.000000,2.000000,4.000000,4.000000,4.000000,4.000000,2.000000,4.000000,25.000000,,,,,,,,,,,,,,,,,,,,,,,,,,,,
1732081754.423845,1732081754.425517,6.000000,0.000000,4437.948730,4377.692383,4360.384766,4396.410156,4368.589844,4382.948730,4353.333496,4413.333496,4409.743652,4392.563965,4551.666504,4573.589844,4430.128418,4529.102539,212.000000,0.000000,12.000000,,,,0.000000,2.000000,2.000000,0.000000,2.000000,2.000000,2.000000,1.000000,2.000000,4.000000,4.000000,4.000000,4.000000,2.000000,4.000000,25.000000,,,,,,,,,,,,,,,,,,,,,,,,,,,,
1732081754.431653,1732081754.433325,7.000000,0.000000,4439.743652,4379.358887,4360.641113,4398.205078,4368.589844,4380.769043,4351.666504,4413.333496,4410.897461,4391.410156,4546.794922,4570.641113,4429.871582,4527.563965,1189.000000,0.000000,12.000000,,,,0.000000,2.000000,2.000000,0.000000,2.000000,2.000000,2.000000,1.000000,2.000000,4.000000,4.000000,4.000000,4.000000,2.000000,4.000000,25.000000,,,,,,,,,,,,,,,,,,,,,,,,,,,,
1732081754.439461,1732081754.441233,8.000000,0.000000,4441.794922,4380.897461,4363.077148,4397.179688,4364.358887,4377.692383,4349.743652,4414.743652,4413.077148,4395.512695,4550.128418,4570.641113,4431.538574,4531.538574,1336.000000,0.000000,12.000000,,,,0.000000,2.000000,2.000000,0.000000,2.000000,2.000000,2.000000,1.000000,2.000000,4.000000,4.000000,4.000000,4.000000,2.000000,4.000000,25.000000,,,,,,,,,,,,,,,,,2.000000,0.000000,0.623310,0.415466,-0.593872,0.293579,0.971798,0.132340,-0.069833,-74.551117,65.932762,28.059874
1732081754.447270,1732081754.449041,9.000000,0.000000,4436.794922,4378.589844,4365.000000,4393.333496,4363.589844,4373.333496,4349.615234,4410.512695,4414.102539,4397.051270,4556.025879,4569.487305,4432.692383,4533.461426,1461.000000,0.000000,12.000000,,,,0.000000,2.000000,2.000000,0.000000,2.000000,2.000000,2.000000,1.000000,2.000000,4.000000,4.000000,4.000000,4.000000,2.000000,4.000000,25.000000,,,,,,,,,,,,,,,,,,,,,,,,,,,,
1732081754.455078,1732081754.457049,10.000000,0.000000,4433.205078,4380.384766,4365.128418,4397.692383,4368.974121,4371.153809,4348.461426,4405.769043,4413.974121,4395.641113,4550.384766,4569.358887,4429.487305,4530.897461,1332.000000,0.000000,12.000000,,,,0.000000,2.000000,2.000000,0.000000,2.000000,2.000000,2.000000,1.000000,2.000000,4.000000,4.000000,4.000000,4.000000,2.000000,4.000000,25.000000,,,,,,,,,,,,,,,,,,,,,,,,,,,,
1732081754.462886,1732081754.464857,11.000000,0.000000,4432.563965,4382.820313,4363.333496,4400.384766,4383.205078,4372.692383,4351.153809,4407.051270,4410.769043,4392.820313,4540.769043,4566.794922,4425.384766,4524.358887,1464.000000,0.000000,12.000000,,,,0.000000,2.000000,2.000000,0.000000,2.000000,2.000000,2.000000,1.000000,2.000000,4.000000,4.000000,4.000000,4.000000,2.000000,4.000000,25.000000,,,,,,,,,,,,,,,,,,,,,,,,,,,,
1732081754.470694,1732081754.472566,12.000000,0.000000,4430.256348,4381.025879,4362.179688,4397.051270,4378.077148,4376.666504,4354.102539,4411.153809,4410.000000,4392.948730,4543.205078,4565.769043,4427.307617,4520.897461,1708.000000,0.000000,12.000000,,,,0.000000,2.000000,2.000000,0.000000,2.000000,2.000000,2.000000,1.000000,2.000000,4.000000,4.000000,4.000000,4.000000,2.000000,4.000000,25.000000,,,,,,,,,,,,,,,,,3.000000,0.000000,0.622904,0.415466,-0.594177,0.293823,0.948846,0.122574,-0.073251,-74.794739,65.945541,28.016830
1732081754.478503,1732081754.480374,13.000000,0.000000,4429.487305,4379.102539,4363.461426,4398.333496,4358.077148,4381.153809,4354.230957,4413.717773,4414.615234,4395.897461,4553.333496,4568.589844,4430.769043,4521.794922,1673.000000,0.000000,12.000000,,,,0.000000,2.000000,2.000000,0.000000,2.000000,2.000000,2.000000,1.000000,2.000000,4.000000,4.000000,4.000000,4.000000,2.000000,4.000000,25.000000,,,,,,,,,,,,,,,,,,,,,,,,,,,,
1732081754.486311,1732081754.488382,14.000000,0.000000,4428.205078,4380.512695,4364.358887,4400.641113,4368.846191,4382.307617,4350.897461,4413.589844,4413.461426,4395.000000,4552.307617,4564.871582,4428.974121,4522.820313,1332.000000,0.000000,12.000000,,,,0.000000,2.000000,2.000000,0.000000,2.000000,2.000000,2.000000,1.000000,2.000000,4.000000,4.000000,4.000000,4.000000,2.000000,4.000000,25.000000,1.000000,16.666666,2.000000,2.000000,0.000000,2.000000,2.000000,2.000000,1.000000,1.000000,3.000000,3.000000,4.000000,4.000000,2.000000,3.000000,,,,,,,,,,,,
1732081754.494119,1732081754.496190,15.000000,0.000000,4424.102539,4383.333496,4364.487305,4399.871582,4388.846191,4380.384766,4351.153809,4411.922852,4407.563965,4391.153809,4544.743652,4560.128418,4425.769043,4522.051270,1464.000000,0.000000,12.000000,,,,0.000000,2.000000,2.000000,0.000000,2.000000,2.000000,2.000000,1.000000,2.000000,4.000000,4.000000,4.000000,4.000000,2.000000,4.000000,25.000000,,,,,,,,,,,,,,,,,,,,,,,,,,,,
1732081754.501928,1732081754.504098,16.000000,0.000000,4422.563965,4379.871582,4360.897461,4402.307617,4373.333496,4381.025879,4351.025879,4413.461426,4410.641113,4393.589844,4548.589844,4567.563965,4428.589844,4522.307617,0.000000,0.000000,12.000000,,,,0.000000,2.000000,2.000000,0.000000,2.000000,2.000000,2.000000,1.000000,2.000000,4.000000,4.000000,4.000000,4.000000,2.000000,4.000000,25.000000,,,,,,,,,,,,,,,,,4.000000,0.000000,0.622806,0.414124,-0.595276,0.293701,0.908314,0.144061,-0.060554,-74.643738,65.955887,28.076965
1732081754.509736,1732081754.511906,17.000000,0.000000,4419.871582,4375.897461,4361.410156,4404.230957,4358.974121,4382.307617,4350.384766,4415.000000,4420.641113,4400.512695,4556.922852,4572.692383,4433.077148,4521.794922,0.000000,0.000000,12.000000,,,,0.000000,2.000000,2.000000,0.000000,2.000000,2.000000,2.000000,1.000000,2.000000,4.000000,4.000000,4.000000,4.000000,2.000000,4.000000,25.000000,,,,,,,,,,,,,,,,,,,,,,,,,,,,
1732081754.517544,1732081754.519914,18.000000,0.000000,4414.871582,4376.922852,4360.512695,4400.384766,4371.538574,4382.307617,4351.025879,4417.051270,4424.743652,4401.410156,4554.358887,4566.410156,4429.871582,4517.692383,0.000000,0.000000,12.000000,,,,0.000000,2.000000,2.000000,0.000000,2.000000,2.000000,2.000000,1.000000,2.000000,4.000000,4.000000,4.000000,4.000000,2.000000,4.000000,25.000000,,,,,,,,,,,,,,,,,,,,,,,,,,,,
1732081754.525352,1732081754.527723,19.000000,0.000000,4413.333496,4375.512695,4358.205078,4399.102539,4379.358887,4382.692383,4353.077148,4421.410156,4423.333496,4397.179688,4547.307617,4564.615234,4426.153809,4514.230957,0.000000,0.000000,12.000000,,,,0.000000,2.000000,2.000000,0.000000,2.000000,2.000000,2.000000,1.000000,2.000000,4.000000,4.000000,4.000000,4.000000,2.000000,4.000000,25.000000,,,,,,,,,,,,,,,,,,,,,,,,,,,,
1732081754.533160,1732081754.535631,20.000000,0.000000,4418.205078,4375.384766,4360.384766,4403.717773,4375.897461,4383.589844,4352.820313,4421.282227,4421.922852,4394.615234,4547.179688,4571.025879,4427.179688,4512.307617,0.000000,0.000000,12.000000,,,,0.000000,2.000000,2.000000,0.000000,2.000000,2.000000,2.000000,1.000000,2.000000,4.000000,4.000000,4.000000,4.000000,2.000000,4.000000,25.000000,,,,,,,,,,,,,,,,,5.000000,0.000000,0.625430,0.412720,-0.594849,0.290955,0.945428,0.194848,-0.055671,-74.541428,66.185936,27.872343
1732081754.540969,1732081754.543439,21.000000,0.000000,4419.743652,4381.410156,4365.897461,4401.282227,4376.282227,4384.615234,4353.461426,4415.769043,4417.820313,4389.102539,4546.666504,4572.179688,4427.436035,4510.897461,0.000000,0.000000,12.000000,,,,0.000000,2.000000,2.000000,0.000000,2.000000,2.000000,2.000000,1.000000,2.000000,4.000000,4.000000,4.000000,4.000000,2.000000,4.000000,25.000000,,,,,,,,,,,,,,,,,,,,,,,,,,,,
1732081754.548777,1732081754.551447,22.000000,0.000000,4415.128418,4383.205078,4362.820313,4395.384766,4382.179688,4387.692383,4353.974121,4412.563965,4414.358887,4385.641113,4544.487305,4567.307617,4428.333496,4511.538574,0.000000,0.000000,12.000000,,,,0.000000,2.000000,2.000000,0.000000,2.000000,2.000000,2.000000,1.000000,2.000000,4.000000,4.000000,4.000000,4.000000,2.000000,4.000000,25.000000,,,,,,,,,,,,,,,,,,,,,,,,,,,,
1732081754.556585,1732081754.559255,23.000000,0.000000,4414.230957,4378.205078,4361.538574,4396.282227,4377.948730,4389.615234,4351.794922,4415.000000,4415.256348,4390.128418,4545.256348,4573.077148,4429.743652,4511.153809,0.000000,0.000000,12.000000,,,,0.000000,2.000000,2.000000,0.000000,2.000000,2.000000,2.000000,1.000000,2.000000,4.000000,4.000000,4.000000,4.000000,2.000000,4.000000,25.000000,,,,,,,,,,,,,,,,,,,,,,,,,,,,
1732081754.564393,1732081754.567163,24.000000,0.000000,4417.563965,4378.589844,4364.743652,4397.692383,4375.000000,4385.641113,4352.692383,4421.410156,4420.000000,4394.230957,4548.461426,4579.358887,4427.563965,4511.538574,0.000000,0.000000,12.000000,,,,0.000000,2.000000,2.000000,0.000000,2.000000,2.000000,2.000000,1.000000,2.000000,4.000000,4.000000,4.000000,4.000000,2.000000,4.000000,25.000000,,,,,,,,,,,,,,,,,6.000000,0.000000,0.627011,0.413452,-0.593567,0.289124,0.962520,0.209010,-0.053717,-74.400223,66.372276,27.673264
1732081754.572202,1732081754.574971,25.000000,0.000000,4418.333496,4382.307617,4368.077148,4397.820313,4386.538574,4381.153809,4355.000000,4423.205078,4420.897461,4393.846191,4546.153809,4574.358887,4425.512695,4517.820313,0.000000,0.000000,12.000000,,,,0.000000,2.000000,2.000000,0.000000,2.000000,2.000000,2.000000,1.000000,2.000000,4.000000,4.000000,4.000000,4.000000,2.000000,4.000000,25.000000,,,,,,,,,,,,,,,,,,,,,,,,,,,,
1732081754.580010,1732081754.582979,26.000000,0.000000,4417.051270,4382.563965,4367.307617,4404.358887,4385.512695,4382.179688,4356.666504,4418.077148,4415.000000,4394.102539,4545.384766,4575.000000,4427.436035,4522.948730,0.000000,0.000000,12.000000,,,,0.000000,2.000000,2.000000,0.000000,2.000000,2.000000,2.000000,1.000000,2.000000,4.000000,4.000000,4.000000,4.000000,2.000000,4.000000,25.000000,,,,,,,,,,,,,,,,,,,,,,,,,,,,
1732081754.587818,1732081754.590788,27.000000,0.000000,4416.666504,4382.051270,4366.538574,4408.717773,4367.436035,4383.974121,4357.307617,4417.692383,4412.692383,4396.282227,4549.358887,4578.717773,4427.051270,4520.769043,0.000000,0.000000,12.000000,,,,0.000000,2.000000,2.000000,0.000000,2.000000,2.000000,2.000000,1.000000,2.000000,4.000000,4.000000,4.000000,4.000000,2.000000,4.000000,25.000000,,,,,,,,,,,,,,,,,,,,,,,,,,,,
1732081754.595626,1732081754.598496,28.000000,0.000000,4416.282227,4382.179688,4367.051270,4407.820313,4368.717773,4383.974121,4355.769043,4422.307617,4417.692383,4398.205078,4548.717773,4571.538574,4425.897461,4517.948730,0.000000,0.000000,12.000000,,,,0.000000,2.000000,2.000000,0.000000,2.000000,2.000000,2.000000,1.000000,2.000000,4.000000,4.000000,4.000000,4.000000,2.000000,4.000000,25.000000,,,,,,,,,,,,,,,,,7.000000,0.000000,0.627717,0.413940,-0.592896,0.288269,0.967892,0.223172,-0.055671,-74.219185,66.334877,27.495344
1732081754.603435,1732081754.606304,29.000000,0.000000,4419.487305,4384.102539,4368.846191,4408.589844,4380.384766,4384.230957,4352.179688,4421.922852,4420.384766,4399.871582,4545.512695,4565.512695,4428.974121,4521.538574,0.000000,0.000000,12.000000,,,,0.000000,2.000000,2.000000,0.000000,2.000000,2.000000,2.000000,1.000000,2.000000,4.000000,4.000000,4.000000,4.000000,2.000000,4.000000,25.000000,,,,,,,,,,,,,,,,,,,,,,,,,,,,
1732081754.611243,1732081754.613913,30.000000,0.000000,4418.205078,4384.358887,4368.333496,4406.538574,4383.205078,4385.256348,4352.436035,4418.846191,4417.692383,4399.871582,4546.282227,4569.230957,4430.000000,4517.563965,0.000000,0.000000,12.000000,,,,0.000000,2.000000,2.000000,0.000000,2.000000,2.000000,2.000000,1.000000,2.000000,4.000000,4.000000,4.000000,4.000000,2.000000,4.000000,25.000000,,,,,,,,,,,,,,,,,,,,,,,,,,,,
1732081754.619051,1732081754.621721,31.000000,0.000000,4411.538574,4382.436035,4365.384766,4400.256348,4391.666504,4387.948730,4353.461426,4417.307617,4417.436035,4401.922852,4546.922852,4570.769043,4426.794922,4507.179688,0.000000,0.000000,12.000000,,,,0.000000,2.000000,2.000000,0.000000,2.000000,2.000000,2.000000,1.000000,2.000000,4.000000,4.000000,4.000000,4.000000,2.000000,4.000000,25.000000,,,,,,,,,,,,,,,,,,,,,,,,,,,,
1732081754.626860,1732081754.629429,32.000000,0.000000,4412.051270,4383.333496,4369.487305,4402.692383,4391.025879,4394.230957,4356.153809,4420.000000,4422.692383,4406.794922,4544.487305,4571.025879,4427.307617,4507.436035,0.000000,0.000000,12.000000,,,,0.000000,2.000000,2.000000,0.000000,2.000000,2.000000,2.000000,1.000000,2.000000,4.000000,4.000000,4.000000,4.000000,2.000000,4.000000,25.000000,,,,,,,,,,,,,,,,,8.000000,0.000000,0.628969,0.415894,-0.590820,0.286987,0.995239,0.204615,-0.050787,-74.227539,66.701248,27.662895
1732081754.634668,1732081754.637237,33.000000,0.000000,4415.128418,4385.897461,4369.487305,4407.820313,4376.410156,4397.948730,4356.538574,4426.666504,4425.512695,4409.230957,4549.102539,4570.512695,4429.871582,4511.666504,0.000000,0.000000,12.000000,,,,0.000000,2.000000,2.000000,0.000000,2.000000,2.000000,2.000000,1.000000,2.000000,4.000000,4.000000,4.000000,4.000000,2.000000,4.000000,25.000000,,,,,,,,,,,,,,,,,,,,,,,,,,,,
1732081754.642476,1732081754.644846,34.000000,0.000000,4412.820313,4387.820313,4366.922852,4405.384766,4380.897461,4395.000000,4358.333496,4424.102539,4422.436035,4409.871582,4551.666504,4570.256348,4429.615234,4510.769043,0.000000,0.000000,12.000000,,,,0.000000,2.000000,2.000000,0.000000,2.000000,2.000000,2.000000,1.000000,2.000000,4.000000,4.000000,4.000000,4.000000,2.000000,4.000000,25.000000,,,,,,,,,,,,,,,,,,,,,,,,,,,,
1732081754.650284,1732081754.652654,35.000000,0.000000,4411.794922,4385.128418,4367.563965,4402.436035,4389.615234,4395.256348,4360.641113,4416.153809,4419.615234,4410.384766,4543.461426,4571.410156,4427.948730,4509.102539,0.000000,0.000000,12.000000,,,,0.000000,2.000000,2.000000,0.000000,2.000000,2.000000,2.000000,1.000000,2.000000,4.000000,4.000000,4.000000,4.000000,2.000000,4.000000,25.000000,,,,,,,,,,,,,,,,,,,,,,,,,,,,
1732081754.658093,1732081754.660362,36.000000,0.000000,4414.230957,4381.666504,4370.769043,4401.922852,4386.153809,4399.615234,4360.128418,4420.128418,4418.333496,4406.025879,4536.794922,4562.436035,4421.153809,4505.256348,0.000000,0.000000,12.000000,,,,0.000000,2.000000,2.000000,0.000000,2.000000,2.000000,2.000000,1.000000,2.000000,4.000000,4.000000,4.000000,4.000000,2.000000,4.000000,25.000000,,,,,,,,,,,,,,,,,9.000000,0.000000,0.628871,0.416138,-0.590515,0.287476,0.980588,0.186058,-0.040532,-74.295975,66.818008,27.711945
1732081754.665901,1732081754.668171,37.000000,0.000000,4410.384766,4385.256348,4368.589844,4402.563965,4394.487305,4396.282227,4356.922852,4425.769043,4419.743652,4403.589844,4534.871582,4551.410156,4410.897461,4497.179688,0.000000,0.000000,12.000000,,,,0.000000,2.000000,2.000000,0.000000,2.000000,2.000000,2.000000,1.000000,2.000000,4.000000,4.000000,4.000000,4.000000,2.000000,4.000000,25.000000,,,,,,,,,,,,,,,,,,,,,,,,,,,,
1732081754.673709,1732081754.675779,38.000000,0.000000,4404.871582,4388.589844,4367.179688,4405.000000,4397.051270,4390.384766,4358.589844,4424.358887,4421.794922,4409.102539,4536.666504,4552.692383,4410.641113,4493.974121,0.000000,0.000000,12.000000,,,,0.000000,2.000000,2.000000,0.000000,2.000000,2.000000,2.000000,1.000000,2.000000,4.000000,4.000000,4.000000,4.000000,2.000000,4.000000,25.000000,,,,,,,,,,,,,,,,,,,,,,,,,,,,
1732081754.681517,1732081754.683587,39.000000,0.000000,4405.769043,4389.615234,4368.205078,4409.615234,4385.769043,4392.436035,4360.256348,4424.102539,4424.358887,4413.846191,4537.948730,4556.538574,4420.384766,4497.948730,0.000000,0.000000,12.000000,,,,0.000000,2.000000,2.000000,0.000000,2.000000,2.000000,2.000000,1.000000,2.000000,4.000000,4.000000,4.000000,4.000000,2.000000,4.000000,25.000000,,,,,,,,,,,,,,,,,,,,,,,,,,,,
1732081754.689325,1732081754.691295,40.000000,0.000000,4404.102539,4389.358887,4368.974121,4412.051270,4387.051270,4398.846191,4358.846191,4424.743652,4426.410156,4410.641113,4537.307617,4552.179688,4423.077148,4497.948730,0.000000,0.000000,12.000000,,,,0.000000,2.000000,2.000000,0.000000,2.000000,2.000000,2.000000,1.000000,2.000000,4.000000,4.000000,4.000000,4.000000,2.000000,4.000000,25.000000,,,,,,,,,,,,,,,,,10.000000,0.000000,0.628648,0.416138,-0.590515,0.287964,0.983030,0.166524,-0.040044,-74.334740,66.820923,27.418343
1732081754.697134,1732081754.699104,41.000000,0.000000,4397.820313,4388.461426,4367.692383,4409.743652,4397.051270,4399.230957,4360.897461,4423.461426,4423.333496,4407.051270,4536.410156,4548.846191,4422.179688,4498.333496,0.000000,0.000000,12.000000,,,,0.000000,2.000000,2.000000,0.000000,2.000000,2.000000,2.000000,1.000000,2.000000,4.000000,4.000000,4.000000,4.000000,2.000000,4.000000,25.000000,,,,,,,,,,,,,,,,,,,,,,,,,,,,
1732081754.704942,1732081754.706712,42.000000,0.000000,4397.563965,4387.948730,4368.589844,4408.077148,4401.538574,4396.666504,4361.025879,4426.282227,4423.077148,4408.589844,4540.128418,4556.538574,4425.000000,4498.974121,0.000000,0.000000,12.000000,,,,0.000000,2.000000,2.000000,0.000000,2.000000,2.000000,2.000000,1.000000,2.000000,4.000000,4.000000,4.000000,4.000000,2.000000,4.000000,25.000000,,,,,,,,,,,,,,,,,,,,,,,,,,,,
1732081754.712750,1732081754.714520,43.000000,0.000000,4402.948730,4388.205078,4369.230957,4409.230957,4395.897461,4397.179688,4361.666504,4430.000000,4428.205078,4409.871582,4539.615234,4561.538574,4422.820313,4498.333496,0.000000,0.000000,12.000000,,,,0.000000,2.000000,2.000000,0.000000,2.000000,2.000000,2.000000,1.000000,2.000000,4.000000,4.000000,4.000000,4.000000,2.000000,4.000000,25.000000,,,,,,,,,,,,,,,,,,,,,,,,,,,,
1732081754.720559,1732081754.722428,44.000000,0.000000,4401.794922,4385.128418,4367.436035,4406.922852,4384.358887,4397.179688,4363.974121,4427.692383,4430.769043,4409.615234,4536.794922,4560.769043,4416.282227,4497.948730,0.000000,0.000000,12.000000,,,,0.000000,2.000000,2.000000,0.000000,2.000000,2.000000,2.000000,1.000000,2.000000,4.000000,4.000000,4.000000,4.000000,2.000000,4.000000,25.000000,,,,,,,,,,,,,,,,,11.000000,0.000000,0.628364,0.415710,-0.590820,0.288574,0.964962,0.171408,-0.038091,-74.184471,66.991615,27.587191
1732081754.728367,1732081754.730237,45.000000,0.000000,4394.743652,4380.384766,4366.922852,4399.230957,4383.077148,4398.205078,4365.641113,4427.179688,4428.974121,4409.230957,4536.794922,4561.794922,4416.282227,4494.871582,0.000000,0.000000,12.000000,,,,0.000000,2.000000,2.000000,0.000000,2.000000,2.000000,2.000000,1.000000,2.000000,4.000000,4.000000,4.000000,4.000000,2.000000,4.000000,25.000000,,,,,,,,,,,,,,,,,,,,,,,,,,,,
1732081754.736175,1732081754.737845,46.000000,0.000000,4392.820313,4382.436035,4368.461426,4398.205078,4390.256348,4397.692383,4363.717773,4430.128418,4429.358887,4408.589844,4536.153809,4565.384766,4418.077148,4494.358887,0.000000,0.000000,12.000000,,,,0.000000,2.000000,2.000000,0.000000,2.000000,2.000000,2.000000,1.000000,2.000000,4.000000,4.000000,4.000000,4.000000,2.000000,4.000000,25.000000,,,,,,,,,,,,,,,,,,,,,,,,,,,,
1732081754.743983,1732081754.745653,47.000000,0.000000,4399.871582,4384.615234,4370.769043,4401.538574,4388.717773,4391.153809,4362.563965,4427.820313,4426.666504,4404.487305,4537.436035,4561.922852,4416.025879,4504.102539,0.000000,0.000000,12.000000,,,,0.000000,2.000000,2.000000,0.000000,2.000000,2.000000,2.000000,1.000000,2.000000,4.000000,4.000000,4.000000,4.000000,2.000000,4.000000,25.000000,,,,,,,,,,,,,,,,,,,,,,,,,,,,
1732081754.751792,1732081754.753561,48.000000,0.000000,4402.436035,4385.769043,4367.692383,4402.948730,4387.436035,4390.384766,4362.820313,4425.897461,4423.461426,4401.666504,4540.769043,4559.230957,4416.153809,4509.487305,0.000000,0.000000,12.000000,,,,0.000000,2.000000,2.000000,0.000000,2.000000,2.000000,2.000000,1.000000,2.000000,4.000000,4.000000,4.000000,4.000000,2.000000,4.000000,25.000000,,,,,,,,,,,,,,,,,12.000000,0.000000,0.628501,0.415283,-0.591064,0.288391,0.943475,0.183128,-0.035649,-74.079422,67.163208,27.623959
1732081754.759600,1732081754.761370,49.000000,0.000000,4393.974121,4385.384766,4367.563965,4401.794922,4390.384766,4397.948730,4365.128418,4428.589844,4425.000000,4402.307617,4540.256348,4567.051270,4416.538574,4499.743652,0.000000,0.000000,12.000000,,,,0.000000,2.000000,2.000000,0.000000,2.000000,2.000000,2.000000,1.000000,2.000000,4.000000,4.000000,4.000000,4.000000,2.000000,4.000000,25.000000,,,,,,,,,,,,,,,,,,,,,,,,,,,,
1732081754.767408,1732081754.768978,50.000000,0.000000,4389.487305,4381.282227,4371.538574,4397.179688,4395.897461,4398.717773,4363.333496,4429.743652,4424.230957,4400.897461,4538.717773,4571.666504,4413.974121,4496.153809,0.000000,0.000000,12.000000,,,,0.000000,2.000000,2.000000,0.000000,2.000000,2.000000,2.000000,1.000000,2.000000,4.000000,4.000000,4.000000,4.000000,2.000000,4.000000,25.000000,,,,,,,,,,,,,,,,,,,,,,,,,,,,
1732081754.775216,1732081754.776786,51.000000,0.000000,4392.179688,4381.666504,4373.461426,4396.794922,4400.256348,4395.384766,4361.025879,4427.179688,4423.077148,4398.717773,4540.512695,4568.974121,4412.948730,4501.922852,0.000000,0.000000,12.000000,,,,0.000000,2.000000,2.000000,0.000000,2.000000,2.000000,2.000000,1.000000,2.000000,4.000000,4.000000,4.000000,4.000000,2.000000,4.000000,25.000000,,,,,,,,,,,,,,,,,,,,,,,,,,,,
1732081754.783025,1732081754.784494,52.000000,0.000000,4394.230957,4385.384766,4368.333496,4403.846191,4390.128418,4396.922852,4362.563965,4426.794922,4424.487305,4401.153809,4541.922852,4567.436035,4415.256348,4498.974121,0.000000,0.000000,12.000000,,,,0.000000,2.000000,2.000000,0.000000,2.000000,2.000000,2.000000,1.000000,2.000000,4.000000,4.000000,4.000000,4.000000,2.000000,4.000000,25.000000,,,,,,,,,,,,,,,,,13.000000,0.000000,0.629792,0.415833,-0.589600,0.287781,0.954706,0.197290,-0.040532,-74.074333,67.160530,27.457073
1732081754.790833,1732081754.792303,53.000000,0.000000,4395.769043,4383.077148,4367.563965,4402.051270,4376.794922,4394.871582,4364.871582,4427.563965,4425.256348,4402.436035,4541.282227,4571.410156,4415.897461,4494.102539,0.000000,0.000000,12.000000,,,,0.000000,2.000000,2.000000,0.000000,2.000000,2.000000,2.000000,1.000000,2.000000,4.000000,4.000000,4.000000,4.000000,2.000000,4.000000,25.000000,,,,,,,,,,,,,,,,,,,,,,,,,,,,
1732081754.798641,1732081754.799911,54.000000,0.000000,4397.692383,4378.461426,4369.102539,4393.461426,4381.153809,4391.025879,4363.333496,4427.820313,4425.641113,4400.512695,4540.512695,4576.794922,4413.461426,4496.410156,0.000000,0.000000,12.000000,,,,0.000000,2.000000,2.000000,0.000000,2.000000,2.000000,2.000000,1.000000,2.000000,4.000000,4.000000,4.000000,4.000000,2.000000,4.000000,25.000000,,,,,,,,,,,,,,,,,,,,,,,,,,,,
1732081754.806449,1732081754.807719,55.000000,0.000000,4394.487305,4378.589844,4367.948730,4393.333496,4398.077148,4390.256348,4363.974121,4430.128418,4423.846191,4401.282227,4539.358887,4573.846191,4413.589844,4495.512695,0.000000,0.000000,12.000000,,,,0.000000,2.000000,2.000000,0.000000,2.000000,2.000000,2.000000,1.000000,2.000000,4.000000,4.000000,4.000000,4.000000,2.000000,4.000000,25.000000,,,,,,,,,,,,,,,,,,,,,,,,,,,,
1732081754.814258,1732081754.815428,56.000000,0.000000,4392.051270,4378.461426,4365.384766,4394.358887,4399.358887,4391.538574,4364.358887,4431.922852,4422.820313,4405.641113,4540.512695,4567.692383,4414.358887,4492.563965,0.000000,0.000000,12.000000,,,,0.000000,2.000000,2.000000,0.000000,2.000000,2.000000,2.000000,1.000000,2.000000,4.000000,4.000000,4.000000,4.000000,2.000000,4.000000,25.000000,,,,,,,,,,,,,,,,,14.000000,0.000000,0.630358,0.416138,-0.588928,0.287476,0.954706,0.197290,-0.040532,-74.060211,67.636696,27.528563
1732081754.822066,1732081754.823236,57.000000,0.000000,4393.974121,4379.871582,4365.000000,4393.846191,4389.358887,4394.871582,4360.897461,4430.769043,4423.974121,4405.769043,4541.922852,4570.897461,4413.717773,4496.666504,0.000000,0.000000,12.000000,,,,0.000000,2.000000,2.000000,0.000000,2.000000,2.000000,2.000000,1.000000,2.000000,4.000000,4.000000,4.000000,4.000000,2.000000,4.000000,25.000000,,,,,,,,,,,,,,,,,,,,,,,,,,,,
1732081754.829874,1732081754.831244,58.000000,0.000000,4396.025879,4383.846191,4365.000000,4399.743652,4388.077148,4400.256348,4362.307617,4429.358887,4426.025879,4401.025879,4540.128418,4578.846191,4414.102539,4496.410156,0.000000,0.000000,12.000000,,,,0.000000,2.000000,2.000000,0.000000,2.000000,2.000000,2.000000,1.000000,2.000000,4.000000,4.000000,4.000000,4.000000,2.000000,4.000000,25.000000,,,,,,,,,,,,,,,,,,,,,,,,,,,,
1732081754.837682,1732081754.839052,59.000000,0.000000,4392.820313,4382.436035,4366.922852,4401.025879,4395.000000,4404.230957,4365.897461,4429.487305,4424.230957,4401.666504,4538.717773,4575.897461,4412.307617,4488.205078,0.000000,0.000000,12.000000,,,,0.000000,2.000000,2.000000,0.000000,2.000000,2.000000,2.000000,1.000000,2.000000,4.000000,4.000000,4.000000,4.000000,2.000000,4.000000,25.000000,,,,,,,,,,,,,,,,,,,,,,,,,,,,
1732081754.845491,1732081754.846960,60.000000,0.000000,4389.487305,4379.871582,4368.974121,4398.461426,4404.230957,4401.025879,4365.384766,4427.820313,4421.410156,4404.358887,4538.333496,4567.948730,4406.794922,4484.487305,0.000000,0.000000,12.000000,,,,0.000000,2.000000,2.000000,0.000000,2.000000,2.000000,2.000000,1.000000,2.000000,4.000000,4.000000,4.000000,4.000000,2.000000,4.000000,25.000000,,,,,,,,,,,,,,,,,15.000000,0.000000,0.633260,0.416321,-0.586304,0.286194,0.958125,0.190941,-0.029300,-73.942101,67.749062,27.509802
1732081754.853299,1732081754.854768,61.000000,0.000000,4391.410156,4380.897461,4368.205078,4402.692383,4405.512695,4395.897461,4362.820313,4426.538574,4423.589844,4402.436035,4535.384766,4567.692383,4403.333496,4482.179688,0.000000,0.000000,12.000000,,,,0.000000,2.000000,2.000000,0.000000,2.000000,2.000000,2.000000,1.000000,2.000000,4.000000,4.000000,4.000000,4.000000,2.000000,4.000000,25.000000,,,,,,,,,,,,,,,,,,,,,,,,,,,,
1732081754.861107,1732081754.862776,62.000000,0.000000,4393.461426,4380.897461,4368.589844,4404.230957,4393.461426,4396.794922,4366.794922,4429.102539,4425.000000,4400.641113,4534.871582,4571.922852,4406.794922,4478.717773,0.000000,0.000000,12.000000,,,,0.000000,2.000000,2.000000,0.000000,2.000000,2.000000,2.000000,1.000000,2.000000,4.000000,4.000000,4.000000,4.000000,2.000000,4.000000,25.000000,,,,,,,,,,,,,,,,,,,,,,,,,,,,
1732081754.868915,1732081754.870585,63.000000,0.000000,4395.512695,4382.563965,4370.512695,4398.846191,4386.410156,4403.205078,4368.717773,4430.897461,4423.717773,4402.820313,4538.589844,4572.436035,4410.256348,4484.230957,0.000000,0.000000,12.000000,,,,0.000000,2.000000,2.000000,0.000000,2.000000,2.000000,2.000000,1.000000,2.000000,4.000000,4.000000,4.000000,4.000000,2.000000,4.000000,25.000000,,,,,,,,,,,,,,,,,,,,,,,,,,,,
1732081754.876724,1732081754.878293,64.000000,0.000000,4398.974121,4384.487305,4373.461426,4399.743652,4399.871582,4401.922852,4366.282227,4427.563965,4422.820313,4400.769043,4535.256348,4570.000000,4408.205078,4487.307617,0.000000,0.000000,12.000000,,,,0.000000,2.000000,2.000000,0.000000,2.000000,2.000000,2.000000,1.000000,2.000000,4.000000,4.000000,4.000000,4.000000,2.000000,4.000000,25.000000,,,,,,,,,,,,,,,,,16.000000,0.000000,0.634833,0.415588,-0.585449,0.285522,0.969845,0.194360,-0.012209,-74.064766,67.675072,27.637939
1732081754.884532,1732081754.886101,65.000000,0.000000,4400.000000,4384.230957,4370.769043,4406.410156,4401.410156,4396.922852,4365.128418,4425.769043,4424.102539,4397.820313,4530.512695,4571.025879,4408.077148,4481.794922,1275.000000,0.000000,12.000000,,,,0.000000,2.000000,2.000000,0.000000,2.000000,2.000000,2.000000,1.000000,2.000000,4.000000,4.000000,4.000000,4.000000,2.000000,4.000000,25.000000,,,,,,,,,,,,,,,,,,,,,,,,,,,,
1732081754.892340,1732081754.894109,66.000000,0.000000,4400.641113,4384.102539,4369.615234,4408.589844,4392.692383,4397.692383,4366.922852,4428.974121,4424.102539,4401.922852,4536.153809,4573.333496,4411.538574,4486.153809,1195.000000,0.000000,12.000000,,,,0.000000,2.000000,2.000000,0.000000,2.000000,2.000000,2.000000,1.000000,2.000000,4.000000,4.000000,4.000000,4.000000,2.000000,4.000000,25.000000,,,,,,,,,,,,,,,,,,,,,,,,,,,,
1732081754.900149,1732081754.901917,67.000000,0.000000,4403.717773,4383.589844,4369.743652,4404.615234,4407.563965,4396.025879,4363.333496,4430.000000,4422.948730,4402.820313,4539.871582,4568.846191,4412.051270,4492.051270,1152.000000,0.000000,12.000000,,,,0.000000,2.000000,2.000000,0.000000,2.000000,2.000000,2.000000,1.000000,2.000000,4.000000,4.000000,4.000000,4.000000,2.000000,4.000000,25.000000,,,,,,,,,,,,,,,,,,,,,,,,,,,,
1732081754.907957,1732081754.909825,68.000000,0.000000,4403.717773,4380.769043,4371.666504,4402.436035,4410.512695,4395.897461,4364.358887,4427.563965,4422.692383,4399.102539,4535.641113,4564.487305,4410.256348,4487.820313,1182.000000,0.000000,12.000000,,,,0.000000,2.000000,2.000000,0.000000,2.000000,2.000000,2.000000,1.000000,2.000000,4.000000,4.000000,4.000000,4.000000,2.000000,4.000000,25.000000,,,,,,,,,,,,,,,,,17.000000,0.000000,0.635437,0.415222,-0.585083,0.285461,0.967403,0.188988,-0.018069,-73.879128,67.601807,27.681730
1732081754.915765,1732081754.917634,69.000000,0.000000,4401.410156,4378.205078,4371.538574,4405.128418,4394.743652,4401.153809,4370.128418,4428.717773,4422.820313,4401.922852,4540.641113,4562.179688,4412.179688,4487.563965,1062.000000,0.000000,12.000000,,,,0.000000,2.000000,2.000000,0.000000,2.000000,2.000000,2.000000,1.000000,2.000000,4.000000,4.000000,4.000000,4.000000,2.000000,4.000000,25.000000,,,,,,,,,,,,,,,,,,,,,,,,,,,,
1732081754.923573,1732081754.925642,70.000000,0.000000,4399.871582,4375.641113,4372.820313,4401.538574,4397.051270,4401.410156,4370.000000,4431.794922,4426.794922,4405.512695,4547.436035,4559.230957,4412.563965,4487.051270,213.000000,0.000000,12.000000,,,,0.000000,2.000000,2.000000,0.000000,2.000000,2.000000,2.000000,1.000000,2.000000,4.000000,4.000000,4.000000,4.000000,2.000000,4.000000,25.000000,,,,,,,,,,,,,,,,,,,,,,,,,,,,
1732081754.931382,1732081754.933450,71.000000,0.000000,4394.230957,4376.666504,4372.563965,4396.410156,4399.743652,4397.563965,4367.820313,4430.897461,4429.487305,4406.025879,4541.153809,4563.205078,4409.871582,4481.410156,1187.000000,0.000000,12.000000,,,,0.000000,2.000000,2.000000,0.000000,2.000000,2.000000,2.000000,1.000000,2.000000,4.000000,4.000000,4.000000,4.000000,2.000000,4.000000,25.000000,,,,,,,,,,,,,,,,,,,,,,,,,,,,
1732081754.939190,1732081754.941358,72.000000,0.000000,4394.230957,4379.230957,4371.025879,4397.948730,4397.692383,4398.205078,4369.871582,4428.205078,4429.230957,4407.948730,4535.384766,4569.743652,4410.641113,4482.692383,1334.000000,0.000000,12.000000,,,,0.000000,2.000000,2.000000,0.000000,2.000000,2.000000,2.000000,1.000000,2.000000,4.000000,4.000000,4.000000,4.000000,2.000000,4.000000,25.000000,,,,,,,,,,,,,,,,,18.000000,0.000000,0.636478,0.414185,-0.584717,0.285400,0.958613,0.204615,-0.016115,-73.775429,67.740799,27.678869
1732081754.946998,1732081754.949166,73.000000,0.000000,4399.615234,4379.487305,4371.153809,4399.358887,4409.871582,4398.717773,4370.384766,4428.717773,4428.077148,4407.948730,4542.820313,4565.384766,4412.563965,4489.230957,1461.000000,0.000000,12.000000,,,,0.000000,2.000000,2.000000,0.000000,2.000000,2.000000,2.000000,1.000000,2.000000,4.000000,4.000000,4.000000,4.000000,2.000000,4.000000,25.000000,,,,,,,,,,,,,,,,,,,,,,,,,,,,
1732081754.954806,1732081754.956775,74.000000,0.000000,4394.358887,4376.666504,4372.179688,4398.461426,4410.512695,4395.128418,4367.307617,4429.615234,4427.948730,4407.179688,4544.871582,4561.282227,4412.563965,4486.666504,1344.000000,0.000000,12.000000,,,,0.000000,2.000000,2.000000,0.000000,2.000000,2.000000,2.000000,1.000000,2.000000,4.000000,4.000000,4.000000,4.000000,2.000000,4.000000,25.000000,,,,,,,,,,,,,,,,,,,,,,,,,,,,
1732081754.962614,1732081754.964583,75.000000,0.000000,4388.461426,4376.922852,4372.692383,4401.922852,4391.794922,4395.256348,4366.666504,4428.461426,4428.333496,4414.102539,4541.153809,4569.230957,4412.692383,4480.384766,1464.000000,0.000000,12.000000,,,,0.000000,2.000000,2.000000,0.000000,2.000000,2.000000,2.000000,1.000000,2.000000,4.000000,4.000000,4.000000,4.000000,2.000000,4.000000,25.000000,,,,,,,,,,,,,,,,,,,,,,,,,,,,
1732081754.970423,1732081754.972291,76.000000,0.000000,4392.820313,4378.077148,4373.333496,4404.487305,4389.230957,4397.051270,4366.922852,4428.461426,4429.230957,4418.077148,4547.820313,4574.487305,4417.436035,4484.230957,1701.000000,0.000000,12.000000,,,,0.000000,2.000000,2.000000,0.000000,2.000000,2.000000,2.000000,1.000000,2.000000,4.000000,4.000000,4.000000,4.000000,2.000000,4.000000,25.000000,,,,,,,,,,,,,,,,,19.000000,0.000000,0.637572,0.411987,-0.584839,0.285889,0.965450,0.204126,-0.008790,-73.681427,67.711716,27.776550
1732081754.978231,1732081754.980099,77.000000,0.000000,4391.538574,4378.717773,4372.820313,4398.589844,4401.025879,4396.410156,4369.743652,4428.333496,4428.974121,4411.025879,4551.153809,4571.794922,4417.692383,4486.282227,1670.000000,0.000000,12.000000,,,,0.000000,2.000000,2.000000,0.000000,2.000000,2.000000,2.000000,1.000000,2.000000,4.000000,4.000000,4.000000,4.000000,2.000000,4.000000,25.000000,,,,,,,,,,,,,,,,,,,,,,,,,,,,
1732081754.986039,1732081754.987708,78.000000,0.000000,4383.461426,4378.333496,4367.820313,4394.743652,4409.871582,4396.538574,4370.128418,4427.948730,4426.922852,4406.666504,4541.794922,4568.461426,4412.051270,4478.333496,1344.000000,0.000000,12.000000,,,,0.000000,2.000000,2.000000,0.000000,2.000000,2.000000,2.000000,1.000000,2.000000,4.000000,4.000000,4.000000,4.000000,2.000000,4.000000,25.000000,1.000000,16.666666,2.000000,2.000000,0.000000,2.000000,2.000000,2.000000,1.000000,1.000000,3.000000,3.000000,4.000000,4.000000,2.000000,4.000000,,,,,,,,,,,,
1732081754.993847,1732081754.995516,79.000000,0.000000,4384.102539,4374.102539,4367.692383,4394.743652,4409.358887,4396.410156,4370.128418,4429.871582,4424.102539,4406.410156,4537.051270,4567.307617,4411.538574,4474.230957,1464.000000,0.000000,12.000000,,,,0.000000,2.000000,2.000000,0.000000,2.000000,2.000000,2.000000,1.000000,2.000000,4.000000,4.000000,4.000000,4.000000,2.000000,4.000000,25.000000,,,,,,,,,,,,,,,,,,,,,,,,,,,,
1732081755.001656,1732081755.003224,80.000000,0.000000,4387.179688,4371.282227,4371.025879,4393.717773,4398.205078,4395.512695,4368.589844,4430.512695,4425.000000,4406.153809,4541.153809,4567.692383,4415.128418,4481.794922,1701.000000,0.000000,12.000000,,,,0.000000,2.000000,2.000000,0.000000,2.000000,2.000000,2.000000,1.000000,2.000000,4.000000,4.000000,4.000000,4.000000,2.000000,4.000000,25.000000,,,,,,,,,,,,,,,,,20.000000,0.000000,0.637887,0.410645,-0.584961,0.286865,0.965450,0.191430,-0.012209,-73.491959,67.586487,27.879005
1732081755.009464,1732081755.011032,81.000000,0.000000,4385.641113,4374.615234,4371.153809,4394.230957,4390.769043,4396.922852,4367.436035,4429.615234,4427.948730,4407.563965,4540.897461,4571.025879,4415.769043,4485.897461,1670.000000,0.000000,12.000000,,,,0.000000,2.000000,2.000000,0.000000,2.000000,2.000000,2.000000,1.000000,2.000000,4.000000,4.000000,4.000000,4.000000,2.000000,4.000000,25.000000,,,,,,,,,,,,,,,,,,,,,,,,,,,,
1732081755.017272,1732081755.018641,82.000000,0.000000,4387.948730,4377.820313,4369.871582,4398.717773,4403.333496,4396.538574,4366.666504,4430.641113,4429.487305,4408.589844,4538.846191,4571.153809,4416.025879,4484.102539,1344.000000,0.000000,12.000000,,,,0.000000,2.000000,2.000000,0.000000,2.000000,2.000000,2.000000,1.000000,2.000000,4.000000,4.000000,4.000000,4.000000,2.000000,4.000000,25.000000,,,,,,,,,,,,,,,,,,,,,,,,,,,,
1732081755.025081,1732081755.026449,83.000000,0.000000,4389.487305,4374.871582,4372.307617,4397.692383,4413.077148,4390.128418,4370.128418,4431.025879,4429.743652,4408.589844,4540.384766,4566.666504,4417.051270,4484.615234,1464.000000,0.000000,12.000000,,,,0.000000,2.000000,2.000000,0.000000,2.000000,2.000000,2.000000,1.000000,2.000000,4.000000,4.000000,4.000000,4.000000,2.000000,4.000000,25.000000,,,,,,,,,,,,,,,,,,,,,,,,,,,,
1732081755.032889,1732081755.034157,84.000000,0.000000,4389.102539,4373.461426,4371.025879,4392.307617,4404.230957,4389.102539,4369.743652,4430.512695,4429.615234,4410.128418,4539.487305,4567.820313,4416.794922,4484.230957,1701.000000,0.000000,12.000000,,,,0.000000,2.000000,2.000000,0.000000,2.000000,2.000000,2.000000,1.000000,2.000000,4.000000,4.000000,4.000000,4.000000,2.000000,4.000000,25.000000,,,,,,,,,,,,,,,,,21.000000,0.000000,0.637802,0.410217,-0.585144,0.287292,0.975705,0.183616,-0.014650,-73.556816,67.380051,27.996994
1732081755.040697,1732081755.041966,85.000000,0.000000,4389.358887,4376.922852,4369.230957,4394.230957,4392.051270,4396.153809,4367.563965,4430.769043,4429.487305,4409.102539,4540.641113,4572.179688,4417.563965,4484.230957,1670.000000,0.000000,12.000000,,,,0.000000,2.000000,2.000000,0.000000,2.000000,2.000000,2.000000,1.000000,2.000000,4.000000,4.000000,4.000000,4.000000,2.000000,4.000000,25.000000,,,,,,,,,,,,,,,,,,,,,,,,,,,,
1732081755.048505,1732081755.049574,86.000000,0.000000,4384.615234,4376.922852,4370.512695,4397.307617,4396.410156,4397.820313,4369.743652,4430.000000,4429.102539,4404.871582,4541.666504,4566.666504,4416.282227,4481.410156,1344.000000,0.000000,12.000000,,,,0.000000,2.000000,2.000000,0.000000,2.000000,2.000000,2.000000,1.000000,2.000000,4.000000,4.000000,4.000000,4.000000,2.000000,4.000000,25.000000,,,,,,,,,,,,,,,,,,,,,,,,,,,,
1732081755.056314,1732081755.057382,87.000000,0.000000,4378.974121,4371.666504,4371.666504,4393.589844,4402.436035,4396.282227,4371.282227,4429.358887,4428.077148,4403.077148,4533.846191,4561.410156,4410.384766,4474.102539,1464.000000,0.000000,12.000000,,,,0.000000,2.000000,2.000000,0.000000,2.000000,2.000000,2.000000,1.000000,2.000000,4.000000,4.000000,4.000000,4.000000,2.000000,4.000000,25.000000,,,,,,,,,,,,,,,,,,,,,,,,,,,,
1732081755.064122,1732081755.065090,88.000000,0.000000,4385.512695,4372.051270,4370.384766,4391.538574,4396.282227,4397.436035,4369.102539,4429.615234,4428.461426,4401.282227,4529.487305,4561.922852,4411.282227,4474.871582,1701.000000,0.000000,12.000000,,,,0.000000,2.000000,2.000000,0.000000,2.000000,2.000000,2.000000,1.000000,2.000000,4.000000,4.000000,4.000000,4.000000,2.000000,4.000000,25.000000,,,,,,,,,,,,,,,,,22.000000,0.000000,0.637538,0.409424,-0.585266,0.288757,0.979123,0.176779,-0.007813,-73.571022,67.332848,28.155899
1732081755.071930,1732081755.072899,89.000000,0.000000,4396.282227,4378.205078,4370.384766,4396.025879,4405.641113,4394.487305,4367.948730,4428.846191,4427.692383,4399.230957,4538.205078,4562.307617,4418.333496,4481.410156,1670.000000,0.000000,12.000000,,,,0.000000,2.000000,2.000000,0.000000,2.000000,2.000000,2.000000,1.000000,2.000000,4.000000,4.000000,4.000000,4.000000,2.000000,4.000000,25.000000,,,,,,,,,,,,,,,,,,,,,,,,,,,,
1732081755.079738,1732081755.080507,90.000000,0.000000,4394.487305,4379.102539,4371.153809,4399.487305,4418.205078,4391.410156,4372.179688,4427.051270,4424.743652,4398.333496,4543.205078,4562.179688,4421.794922,4481.666504,1344.000000,0.000000,12.000000,,,,0.000000,2.000000,2.000000,0.000000,2.000000,2.000000,2.000000,1.000000,2.000000,4.000000,4.000000,4.000000,4.000000,2.000000,4.000000,25.000000,,,,,,,,,,,,,,,,,,,,,,,,,,,,
1732081755.087547,1732081755.088315,91.000000,0.000000,4387.436035,4376.025879,4372.563965,4399.230957,4401.410156,4393.974121,4373.717773,4425.897461,4424.871582,4396.794922,4537.307617,4564.615234,4417.436035,4484.102539,1464.000000,0.000000,12.000000,,,,0.000000,2.000000,2.000000,0.000000,2.000000,2.000000,2.000000,1.000000,2.000000,4.000000,4.000000,4.000000,4.000000,2.000000,4.000000,25.000000,,,,,,,,,,,,,,,,,,,,,,,,,,,,
1732081755.095355,1732081755.096024,92.000000,0.000000,4386.538574,4377.820313,4374.102539,4397.179688,4392.563965,4396.922852,4371.410156,4427.436035,4428.333496,4397.692383,4538.333496,4566.538574,4415.512695,4489.230957,1701.000000,0.000000,12.000000,,,,0.000000,2.000000,2.000000,0.000000,2.000000,2.000000,2.000000,1.000000,2.000000,4.000000,4.000000,4.000000,4.000000,2.000000,4.000000,25.000000,,,,,,,,,,,,,,,,,23.000000,0.000000,0.637223,0.408569,-0.585693,0.289795,0.962520,0.168966,-0.004395,-73.695862,67.207939,28.317945
1732081755.103163,1732081755.103832,93.000000,0.000000,4388.974121,4378.589844,4371.410156,4393.333496,4411.153809,4395.512695,4368.205078,4429.743652,4428.589844,4403.077148,4546.153809,4568.974121,4422.179688,4490.384766,1670.000000,0.000000,12.000000,,,,0.000000,2.000000,2.000000,0.000000,2.000000,2.000000,2.000000,1.000000,2.000000,4.000000,4.000000,4.000000,4.000000,2.000000,4.000000,25.000000,,,,,,,,,,,,,,,,,,,,,,,,,,,,
1732081755.110971,1732081755.111440,94.000000,0.000000,4387.563965,4373.717773,4370.769043,4387.948730,4412.820313,4392.179688,4367.820313,4429.230957,4428.205078,4405.384766,4543.333496,4573.205078,4422.820313,4488.717773,1344.000000,0.000000,12.000000,,,,0.000000,2.000000,2.000000,0.000000,2.000000,2.000000,2.000000,1.000000,2.000000,4.000000,4.000000,4.000000,4.000000,2.000000,4.000000,25.000000,,,,,,,,,,,,,,,,,,,,,,,,,,,,
1732081755.118780,1732081755.119248,95.000000,0.000000,4386.025879,4371.794922,4371.922852,4384.102539,4390.384766,4392.179688,4370.000000,4429.102539,4430.769043,4404.871582,4537.563965,4581.025879,4415.897461,4490.256348,1464.000000,0.000000,12.000000,,,,0.000000,2.000000,2.000000,0.000000,2.000000,2.000000,2.000000,1.000000,2.000000,4.000000,4.000000,4.000000,4.000000,2.000000,4.000000,25.000000,,,,,,,,,,,,,,,,,,,,,,,,,,,,
1732081755.126588,1732081755.127157,96.000000,0.000000,4386.153809,4371.794922,4373.205078,4388.717773,4389.743652,4397.820313,4375.256348,4431.410156,4430.000000,4405.897461,4540.256348,4584.358887,4414.102539,4486.922852,1701.000000,0.000000,12.000000,,,,0.000000,2.000000,2.000000,0.000000,2.000000,2.000000,2.000000,1.000000,2.000000,4.000000,4.000000,4.000000,4.000000,2.000000,4.000000,25.000000,,,,,,,,,,,,,,,,,24.000000,0.000000,0.637056,0.408569,-0.585693,0.290161,0.962520,0.168966,-0.004395,-73.595314,67.295097,28.225868
1732081755.134396,1732081755.134965,97.000000,0.000000,4384.102539,4370.128418,4372.436035,4393.333496,4410.128418,4396.666504,4374.487305,4430.769043,4426.025879,4403.846191,4540.512695,4576.153809,4416.282227,4481.922852,1670.000000,0.000000,12.000000,,,,0.000000,2.000000,2.000000,0.000000,2.000000,2.000000,2.000000,1.000000,2.000000,4.000000,4.000000,4.000000,4.000000,2.000000,4.000000,25.000000,,,,,,,,,,,,,,,,,,,,,,,,,,,,
1732081755.142204,1732081755.142973,98.000000,0.000000,4381.282227,4368.077148,4372.692383,4388.461426,4410.128418,4390.641113,4370.128418,4428.077148,4426.538574,4401.282227,4537.436035,4575.128418,4415.897461,4486.666504,1344.000000,0.000000,12.000000,,,,0.000000,2.000000,2.000000,0.000000,2.000000,2.000000,2.000000,1.000000,2.000000,4.000000,4.000000,4.000000,4.000000,2.000000,4.000000,25.000000,,,,,,,,,,,,,,,,,,,,,,,,,,,,
1732081755.150013,1732081755.150781,99.000000,0.000000,4384.358887,4368.846191,4372.307617,4385.897461,4388.461426,4393.333496,4370.641113,4430.641113,4429.358887,4404.871582,4544.871582,4581.410156,4417.179688,4493.589844,1464.000000,0.000000,12.000000,,,,0.000000,2.000000,2.000000,0.000000,2.000000,2.000000,2.000000,1.000000,2.000000,4.000000,4.000000,4.000000,4.000000,2.000000,4.000000,25.000000,,,,,,,,,,,,,,,,,,,,,,,,,,,,
1732081755.157821,1732081755.158689,100.000000,0.000000,4384.871582,4370.128418,4373.846191,4389.615234,4392.563965,4396.922852,4373.846191,4433.077148,4428.974121,4405.512695,4548.717773,4573.333496,4418.717773,4489.102539,1701.000000,0.000000,12.000000,,,,0.000000,2.000000,2.000000,0.000000,2.000000,2.000000,2.000000,1.000000,2.000000,4.000000,4.000000,4.000000,4.000000,2.000000,4.000000,25.000000,,,,,,,,,,,,,,,,,25.000000,0.000000,0.636890,0.408569,-0.585693,0.290527,0.967403,0.162618,-0.010743,-73.768875,67.359024,28.394621
1732081755.165629,1732081755.166497,101.000000,0.000000,4380.384766,4371.410156,4372.307617,4391.153809,4411.794922,4391.922852,4370.512695,4429.487305,4427.948730,4401.025879,4538.846191,4565.769043,4414.230957,4481.282227,1670.000000,0.000000,12.000000,,,,0.000000,2.000000,2.000000,0.000000,2.000000,2.000000,2.000000,1.000000,2.000000,4.000000,4.000000,4.000000,4.000000,2.000000,4.000000,25.000000,,,,,,,,,,,,,,,,,,,,,,,,,,,,
1732081755.173437,1732081755.174505,102.000000,0.000000,4379.615234,4372.436035,4370.000000,4387.820313,4401.666504,4388.974121,4367.051270,4427.051270,4427.692383,4398.717773,4536.153809,4575.256348,4413.333496,4485.897461,1344.000000,0.000000,12.000000,,,,0.000000,2.000000,2.000000,0.000000,2.000000,2.000000,2.000000,1.000000,2.000000,4.000000,4.000000,4.000000,4.000000,2.000000,4.000000,25.000000,,,,,,,,,,,,,,,,,,,,,,,,,,,,
1732081755.181246,1732081755.182313,103.000000,0.000000,4376.666504,4366.922852,4369.487305,4382.179688,4386.666504,4393.077148,4370.384766,4430.512695,4429.230957,4403.205078,4542.179688,4579.358887,4416.538574,4491.025879,1464.000000,0.000000,12.000000,,,,0.000000,2.000000,2.000000,0.000000,2.000000,2.000000,2.000000,1.000000,2.000000,4.000000,4.000000,4.000000,4.000000,2.000000,4.000000,25.000000,,,,,,,,,,,,,,,,,,,,,,,,,,,,
1732081755.189054,1732081755.190022,104.000000,0.000000,4375.128418,4363.461426,4370.512695,4376.538574,4393.589844,4392.436035,4373.461426,4431.922852,4432.692383,4408.205078,4541.922852,4576.922852,4418.717773,4489.102539,1701.000000,0.000000,12.000000,,,,0.000000,2.000000,2.000000,0.000000,2.000000,2.000000,2.000000,1.000000,2.000000,4.000000,4.000000,4.000000,4.000000,2.000000,4.000000,25.000000,,,,,,,,,,,,,,,,,26.000000,0.000000,0.636325,0.408447,-0.585815,0.291687,0.965450,0.172873,-0.014650,-74.031120,67.457481,28.489643
1732081755.196862,1732081755.197830,105.000000,0.000000,4379.743652,4369.615234,4371.794922,4380.641113,4391.666504,4389.743652,4373.205078,4429.743652,4430.641113,4403.333496,4538.589844,4578.077148,4416.153809,4488.333496,1670.000000,0.000000,12.000000,,,,0.000000,2.000000,2.000000,0.000000,2.000000,2.000000,2.000000,1.000000,2.000000,4.000000,4.000000,4.000000,4.000000,2.000000,4.000000,25.000000,,,,,,,,,,,,,,,,,,,,,,,,,,,,
1732081755.204671,1732081755.205438,106.000000,0.000000,4380.512695,4375.256348,4374.102539,4389.230957,4388.461426,4392.436035,4371.922852,4428.974121,4425.897461,4398.205078,4539.487305,4576.025879,4412.563965,4489.871582,1344.000000,0.000000,12.000000,,,,0.000000,2.000000,2.000000,0.000000,2.000000,2.000000,2.000000,1.000000,2.000000,4.000000,4.000000,4.000000,4.000000,2.000000,4.000000,25.000000,,,,,,,,,,,,,,,,,,,,,,,,,,,,
1732081755.212479,1732081755.213247,107.000000,0.000000,4376.025879,4373.974121,4373.077148,4389.102539,4406.794922,4391.538574,4371.922852,4428.077148,4427.307617,4397.820313,4540.897461,4574.743652,4415.256348,4490.000000,1464.000000,0.000000,12.000000,,,,0.000000,2.000000,2.000000,0.000000,2.000000,2.000000,2.000000,1.000000,2.000000,4.000000,4.000000,4.000000,4.000000,2.000000,4.000000,25.000000,,,,,,,,,,,,,,,,,,,,,,,,,,,,
1732081755.220287,1732081755.221155,108.000000,0.000000,4377.948730,4375.256348,4370.256348,4392.692383,4407.307617,4387.179688,4371.282227,4425.897461,4429.230957,4397.948730,4539.230957,4572.948730,4415.769043,4483.974121,1701.000000,0.000000,12.000000,,,,0.000000,2.000000,2.000000,0.000000,2.000000,2.000000,2.000000,1.000000,2.000000,4.000000,4.000000,4.000000,4.000000,2.000000,4.000000,25.000000,,,,,,,,,,,,,,,,,27.000000,0.000000,0.636263,0.408325,-0.585938,0.291748,0.965450,0.172873,-0.014650,-74.468544,67.402222,28.776611
1732081755.228095,1732081755.228963,109.000000,0.000000,4381.025879,4378.717773,4371.410156,4397.948730,4388.205078,4390.897461,4372.563965,4425.897461,4427.436035,4397.692383,4538.077148,4570.384766,4413.333496,4478.205078,1670.000000,0.000000,12.000000,,,,0.000000,2.000000,2.000000,0.000000,2.000000,2.000000,2.000000,1.000000,2.000000,4.000000,4.000000,4.000000,4.000000,2.000000,4.000000,25.000000,,,,,,,,,,,,,,,,,,,,,,,,,,,,
1732081755.235903,1732081755.236971,110.000000,0.000000,4381.410156,4378.205078,4372.051270,4395.384766,4392.820313,4396.794922,4372.307617,4428.589844,4427.692383,4400.128418,4541.666504,4571.794922,4420.128418,4484.358887,1344.000000,0.000000,12.000000,,,,0.000000,2.000000,2.000000,0.000000,2.000000,2.000000,2.000000,1.000000,2.000000,4.000000,4.000000,4.000000,4.000000,2.000000,4.000000,25.000000,,,,,,,,,,,,,,,,,,,,,,,,,,,,
1732081755.243712,1732081755.244779,111.000000,0.000000,4385.897461,4379.743652,4373.717773,4396.666504,4400.256348,4393.205078,4371.794922,4429.743652,4430.512695,4400.897461,4542.692383,4573.717773,4425.641113,4489.358887,1464.000000,0.000000,12.000000,,,,0.000000,2.000000,2.000000,0.000000,2.000000,2.000000,2.000000,1.000000,2.000000,4.000000,4.000000,4.000000,4.000000,2.000000,4.000000,25.000000,,,,,,,,,,,,,,,,,,,,,,,,,,,,
1732081755.251520,1732081755.252687,112.000000,0.000000,4384.615234,4380.769043,4374.230957,4402.692383,4398.333496,4388.333496,4370.000000,4428.717773,4429.102539,4399.743652,4539.871582,4571.538574,4417.948730,4480.641113,1701.000000,0.000000,12.000000,,,,0.000000,2.000000,2.000000,0.000000,2.000000,2.000000,2.000000,1.000000,2.000000,4.000000,4.000000,4.000000,4.000000,2.000000,4.000000,25.000000,,,,,,,,,,,,,,,,,28.000000,0.000000,0.636033,0.408203,-0.585938,0.292419,0.969845,0.164571,-0.007325,-74.632851,67.674133,28.755720
1732081755.259328,1732081755.260495,113.000000,0.000000,4375.641113,4378.717773,4372.820313,4398.077148,4407.948730,4389.743652,4368.974121,4428.974121,4424.487305,4397.692383,4539.487305,4568.846191,4413.461426,4474.871582,1670.000000,0.000000,12.000000,,,,0.000000,2.000000,2.000000,0.000000,2.000000,2.000000,2.000000,1.000000,2.000000,4.000000,4.000000,4.000000,4.000000,2.000000,4.000000,25.000000,,,,,,,,,,,,,,,,,,,,,,,,,,,,
1732081755.267136,1732081755.268503,114.000000,0.000000,4375.000000,4379.487305,4371.153809,4393.077148,4407.563965,4391.922852,4367.563965,4429.487305,4423.846191,4393.717773,4537.692383,4563.974121,4417.179688,4477.436035,1344.000000,0.000000,12.000000,,,,0.000000,2.000000,2.000000,0.000000,2.000000,2.000000,2.000000,1.000000,2.000000,4.000000,4.000000,4.000000,4.000000,2.000000,4.000000,25.000000,,,,,,,,,,,,,,,,,,,,,,,,,,,,
1732081755.274945,1732081755.276312,115.000000,0.000000,4377.820313,4378.205078,4373.974121,4396.153809,4388.077148,4392.307617,4369.230957,4428.974121,4423.974121,4391.538574,4534.358887,4558.077148,4414.358887,4475.769043,1464.000000,0.000000,12.000000,,,,0.000000,2.000000,2.000000,0.000000,2.000000,2.000000,2.000000,1.000000,2.000000,4.000000,4.000000,4.000000,4.000000,2.000000,4.000000,25.000000,,,,,,,,,,,,,,,,,,,,,,,,,,,,
1732081755.282753,1732081755.284220,116.000000,0.000000,4377.563965,4376.153809,4375.512695,4392.948730,4389.358887,4390.769043,4371.410156,4427.692383,4422.820313,4391.666504,4537.051270,4565.512695,4411.282227,4475.000000,1701.000000,0.000000,12.000000,,,,0.000000,2.000000,2.000000,0.000000,2.000000,2.000000,2.000000,1.000000,2.000000,4.000000,4.000000,4.000000,4.000000,2.000000,4.000000,25.000000,,,,,,,,,,,,,,,,,29.000000,0.000000,0.635598,0.407654,-0.586304,0.293396,0.978147,0.151386,-0.011232,-74.557610,67.544380,28.663801
1732081755.290561,1732081755.292028,117.000000,0.000000,4377.436035,4379.871582,4375.000000,4390.384766,4399.615234,4389.358887,4372.436035,4427.563965,4423.205078,4393.461426,4541.794922,4579.102539,4414.871582,4479.230957,1670.000000,0.000000,12.000000,,,,0.000000,2.000000,2.000000,0.000000,2.000000,2.000000,2.000000,1.000000,2.000000,4.000000,4.000000,4.000000,4.000000,2.000000,4.000000,25.000000,,,,,,,,,,,,,,,,,,,,,,,,,,,,
1732081755.298370,1732081755.300036,118.000000,0.000000,4374.358887,4378.589844,4373.974121,4392.179688,4394.102539,4392.179688,4372.179688,4427.692383,4426.410156,4396.282227,4541.794922,4580.000000,4414.615234,4478.846191,1344.000000,0.000000,12.000000,,,,0.000000,2.000000,2.000000,0.000000,2.000000,2.000000,2.000000,1.000000,2.000000,4.000000,4.000000,4.000000,4.000000,2.000000,4.000000,25.000000,,,,,,,,,,,,,,,,,,,,,,,,,,,,
1732081755.306178,1732081755.307844,119.000000,0.000000,4365.897461,4369.102539,4373.974121,4385.512695,4397.307617,4390.897461,4370.128418,4426.922852,4427.563965,4395.000000,4536.282227,4568.717773,4412.692383,4474.358887,1464.000000,0.000000,12.000000,,,,0.000000,2.000000,2.000000,0.000000,2.000000,2.000000,2.000000,1.000000,2.000000,4.000000,4.000000,4.000000,4.000000,2.000000,4.000000,25.000000,,,,,,,,,,,,,,,,,,,,,,,,,,,,
1732081755.313986,1732081755.315752,120.000000,0.000000,4362.307617,4370.384766,4373.077148,4384.358887,4402.051270,4386.922852,4370.641113,4426.666504,4425.384766,4392.436035,4530.512695,4561.025879,4413.589844,4470.769043,1701.000000,0.000000,12.000000,,,,0.000000,2.000000,2.000000,0.000000,2.000000,2.000000,2.000000,1.000000,2.000000,4.000000,4.000000,4.000000,4.000000,2.000000,4.000000,25.000000,,,,,,,,,,,,,,,,,30.000000,0.000000,0.635191,0.407410,-0.586609,0.294006,0.977658,0.161152,-0.017092,-74.351662,67.509285,28.647678
1732081755.321794,1732081755.323561,121.000000,0.000000,4363.461426,4376.538574,4371.025879,4392.948730,4387.051270,4389.487305,4372.948730,4428.205078,4425.384766,4394.230957,4530.897461,4564.743652,4413.846191,4472.179688,1670.000000,0.000000,12.000000,,,,0.000000,2.000000,2.000000,0.000000,2.000000,2.000000,2.000000,1.000000,2.000000,4.000000,4.000000,4.000000,4.000000,2.000000,4.000000,25.000000,,,,,,,,,,,,,,,,,,,,,,,,,,,,
1732081755.329603,1732081755.331469,122.000000,0.000000,4361.410156,4373.717773,4368.717773,4390.641113,4378.846191,4394.871582,4372.436035,4429.871582,4428.589844,4396.922852,4535.128418,4571.666504,4411.794922,4476.282227,1344.000000,0.000000,12.000000,,,,0.000000,2.000000,2.000000,0.000000,2.000000,2.000000,2.000000,1.000000,2.000000,4.000000,4.000000,4.000000,4.000000,2.000000,4.000000,25.000000,,,,,,,,,,,,,,,,,,,,,,,,,,,,
1732081755.337411,1732081755.339277,123.000000,0.000000,4362.051270,4373.717773,4368.974121,4380.256348,4393.461426,4390.769043,4367.948730,4429.102539,4427.436035,4396.794922,4534.230957,4570.384766,4412.820313,4477.692383,1464.000000,0.000000,12.000000,,,,0.000000,2.000000,2.000000,0.000000,2.000000,2.000000,2.000000,1.000000,2.000000,4.000000,4.000000,4.000000,4.000000,2.000000,4.000000,25.000000,,,,,,,,,,,,,,,,,,,,,,,,,,,,
1732081755.345219,1732081755.346985,124.000000,0.000000,4363.077148,4372.051270,4369.358887,4376.538574,4395.897461,4382.307617,4368.461426,4429.230957,4423.461426,4395.384766,4533.461426,4570.000000,4415.000000,4476.538574,1701.000000,0.000000,12.000000,,,,0.000000,2.000000,2.000000,0.000000,2.000000,2.000000,2.000000,1.000000,2.000000,4.000000,4.000000,4.000000,4.000000,2.000000,4.000000,25.000000,,,,,,,,,,,,,,,,,31.000000,0.000000,0.634987,0.407288,-0.586731,0.294373,0.968868,0.164571,-0.010743,-74.506516,67.507523,28.619619
1732081755.353027,1732081755.354793,125.000000,0.000000,4356.153809,4363.589844,4368.846191,4377.307617,4381.410156,4384.871582,4372.948730,4430.384766,4427.307617,4398.846191,4534.615234,4570.897461,4413.717773,4474.743652,1670.000000,0.000000,12.000000,,,,0.000000,2.000000,2.000000,0.000000,2.000000,2.000000,2.000000,1.000000,2.000000,4.000000,4.000000,4.000000,4.000000,2.000000,4.000000,25.000000,,,,,,,,,,,,,,,,,,,,,,,,,,,,
1732081755.360836,1732081755.362402,126.000000,0.000000,4352.563965,4365.769043,4371.794922,4379.487305,4380.897461,4389.871582,4374.615234,4428.717773,4431.153809,4401.410156,4531.666504,4563.461426,4413.846191,4473.333496,1344.000000,0.000000,12.000000,,,,0.000000,2.000000,2.000000,0.000000,2.000000,2.000000,2.000000,1.000000,2.000000,4.000000,4.000000,4.000000,4.000000,2.000000,4.000000,25.000000,,,,,,,,,,,,,,,,,,,,,,,,,,,,
1732081755.368644,1732081755.370210,127.000000,0.000000,4360.897461,4375.641113,4371.410156,4383.717773,4385.128418,4387.179688,4369.230957,4426.538574,4426.794922,4396.410156,4530.256348,4559.615234,4416.666504,4473.205078,12.000000,0.000000,12.000000,,,,0.000000,2.000000,2.000000,0.000000,2.000000,2.000000,2.000000,1.000000,2.000000,4.000000,4.000000,4.000000,4.000000,2.000000,4.000000,25.000000,,,,,,,,,,,,,,,,,,,,,,,,,,,,
1732081755.376452,1732081755.377918,0.000000,0.000000,4368.846191,4374.230957,4369.615234,4384.230957,4376.025879,4383.333496,4368.974121,4428.846191,4425.769043,4395.769043,4534.871582,4570.384766,4418.846191,4478.846191,0.000000,0.000000,12.000000,,,,0.000000,2.000000,2.000000,0.000000,2.000000,2.000000,2.000000,1.000000,2.000000,4.000000,4.000000,4.000000,4.000000,2.000000,4.000000,25.000000,,,,,,,,,,,,,,,,,0.000000,0.000000,0.634482,0.407104,-0.587097,0.294983,0.967892,0.162618,-0.012209,-74.323608,67.236092,28.560225
1732081755.384260,1732081755.385727,1.000000,0.000000,4370.641113,4369.615234,4371.282227,4383.589844,4377.820313,4385.256348,4371.410156,4431.410156,4427.820313,4402.436035,4539.615234,4575.128418,4419.871582,4483.077148,1279.000000,0.000000,12.000000,,,,0.000000,2.000000,2.000000,0.000000,2.000000,2.000000,2.000000,1.000000,2.000000,4.000000,4.000000,4.000000,4.000000,2.000000,4.000000,25.000000,,,,,,,,,,,,,,,,,,,,,,,,,,,,
1732081755.392069,1732081755.393335,2.000000,0.000000,4366.538574,4372.307617,4373.974121,4383.974121,4393.077148,4383.846191,4370.769043,4428.974121,4425.897461,4400.000000,4538.717773,4568.461426,4418.461426,4479.487305,1209.000000,0.000000,12.000000,,,,0.000000,2.000000,2.000000,0.000000,2.000000,2.000000,2.000000,1.000000,2.000000,4.000000,4.000000,4.000000,4.000000,2.000000,4.000000,25.000000,,,,,,,,,,,,,,,,,,,,,,,,,,,,
1732081755.399877,1732081755.401143,3.000000,0.000000,4362.820313,4375.128418,4372.179688,4386.538574,4388.461426,4381.153809,4370.000000,4425.000000,4425.769043,4395.256348,4537.051270,4565.641113,4415.384766,4475.641113,1152.000000,0.000000,12.000000,,,,0.000000,2.000000,2.000000,0.000000,2.000000,2.000000,2.000000,1.000000,2.000000,4.000000,4.000000,4.000000,4.000000,2.000000,4.000000,25.000000,,,,,,,,,,,,,,,,,,,,,,,,,,,,
1732081755.407685,1732081755.408851,4.000000,0.000000,4363.846191,4375.512695,4373.333496,4388.846191,4373.846191,4384.102539,4372.692383,4425.641113,4425.128418,4399.743652,4537.307617,4567.307617,4413.974121,4474.102539,1179.000000,0.000000,12.000000,,,,0.000000,2.000000,2.000000,0.000000,2.000000,2.000000,2.000000,1.000000,2.000000,4.000000,4.000000,4.000000,4.000000,2.000000,4.000000,25.000000,,,,,,,,,,,,,,,,,1.000000,0.000000,0.633392,0.406860,-0.587891,0.296082,0.967403,0.157734,-0.015627,-74.312126,67.272903,28.608782
1732081755.415493,1732081755.416660,5.000000,0.000000,4366.282227,4375.769043,4373.077148,4389.743652,4376.282227,4383.205078,4371.410156,4428.205078,4423.077148,4400.384766,4537.179688,4568.589844,4414.615234,4477.692383,1058.000000,0.000000,12.000000,,,,0.000000,2.000000,2.000000,0.000000,2.000000,2.000000,2.000000,1.000000,2.000000,4.000000,4.000000,4.000000,4.000000,2.000000,4.000000,25.000000,,,,,,,,,,,,,,,,,,,,,,,,,,,,
1732081755.423302,1732081755.424268,6.000000,0.000000,4364.871582,4375.512695,4370.256348,4387.692383,4382.179688,4379.615234,4369.358887,4425.128418,4421.538574,4395.128418,4536.538574,4570.000000,4415.897461,4483.333496,210.000000,0.000000,12.000000,,,,0.000000,2.000000,2.000000,0.000000,2.000000,2.000000,2.000000,1.000000,2.000000,4.000000,4.000000,4.000000,4.000000,2.000000,4.000000,25.000000,,,,,,,,,,,,,,,,,,,,,,,,,,,,
1732081755.431110,1732081755.432076,7.000000,0.000000,4363.077148,4376.922852,4370.000000,4383.205078,4383.333496,4381.153809,4372.179688,4422.307617,4420.256348,4393.974121,4535.384766,4568.205078,4416.025879,4482.307617,1177.000000,0.000000,12.000000,,,,0.000000,2.000000,2.000000,0.000000,2.000000,2.000000,2.000000,1.000000,2.000000,4.000000,4.000000,4.000000,4.000000,2.000000,4.000000,25.000000,,,,,,,,,,,,,,,,,,,,,,,,,,,,
1732081755.438918,1732081755.439785,8.000000,0.000000,4364.743652,4378.333496,4375.641113,4382.692383,4382.692383,4384.487305,4372.307617,4424.230957,4418.461426,4393.589844,4535.641113,4568.717773,4414.871582,4476.922852,1329.000000,0.000000,12.000000,,,,0.000000,2.000000,2.000000,0.000000,2.000000,2.000000,2.000000,1.000000,2.000000,4.000000,4.000000,4.000000,4.000000,2.000000,4.000000,25.000000,,,,,,,,,,,,,,,,,2.000000,0.000000,0.633119,0.406799,-0.588135,0.296265,0.972775,0.171408,-0.032230,-74.597824,67.031052,28.639780
1732081755.446726,1732081755.447593,9.000000,0.000000,4366.025879,4377.948730,4376.538574,4390.256348,4387.820313,4381.538574,4366.410156,4422.051270,4417.820313,4392.692383,4535.256348,4572.179688,4415.000000,4480.128418,1452.000000,0.000000,12.000000,,,,0.000000,2.000000,2.000000,0.000000,2.000000,2.000000,2.000000,1.000000,2.000000,4.000000,4.000000,4.000000,4.000000,2.000000,4.000000,25.000000,,,,,,,,,,,,,,,,,,,,,,,,,,,,
1732081755.454535,1732081755.455201,10.000000,0.000000,4363.974121,4378.974121,4370.256348,4394.358887,4396.794922,4378.974121,4363.205078,4418.077148,4417.436035,4390.641113,4531.794922,4572.307617,4412.179688,4484.615234,1344.000000,0.000000,12.000000,,,,0.000000,2.000000,2.000000,0.000000,2.000000,2.000000,2.000000,1.000000,2.000000,4.000000,4.000000,4.000000,4.000000,2.000000,4.000000,25.000000,,,,,,,,,,,,,,,,,,,,,,,,,,,,
1732081755.462343,1732081755.463009,11.000000,0.000000,4363.077148,4376.025879,4369.871582,4387.692383,4397.692383,4382.820313,4369.871582,4423.077148,4415.384766,4386.282227,4526.538574,4565.512695,4408.205078,4478.846191,1466.000000,0.000000,12.000000,,,,0.000000,2.000000,2.000000,0.000000,2.000000,2.000000,2.000000,1.000000,2.000000,4.000000,4.000000,4.000000,4.000000,2.000000,4.000000,25.000000,,,,,,,,,,,,,,,,,,,,,,,,,,,,
1732081755.470151,1732081755.470718,12.000000,0.000000,4361.282227,4369.102539,4373.974121,4382.820313,4385.000000,4387.692383,4375.128418,4428.589844,4417.051270,4385.384766,4523.205078,4558.461426,4407.692383,4472.692383,1701.000000,0.000000,12.000000,,,,0.000000,2.000000,2.000000,0.000000,2.000000,2.000000,2.000000,1.000000,2.000000,4.000000,4.000000,4.000000,4.000000,2.000000,4.000000,25.000000,,,,,,,,,,,,,,,,,3.000000,0.000000,0.632657,0.406677,-0.588623,0.296448,0.971310,0.165548,-0.015139,-74.737564,66.581818,28.581556
1732081755.477960,1732081755.478526,13.000000,0.000000,4355.384766,4366.666504,4370.897461,4383.589844,4376.538574,4388.077148,4372.179688,4427.948730,4418.077148,4386.794922,4522.051270,4560.128418,4407.948730,4472.563965,1666.000000,0.000000,12.000000,,,,0.000000,2.000000,2.000000,0.000000,2.000000,2.000000,2.000000,1.000000,2.000000,4.000000,4.000000,4.000000,4.000000,2.000000,4.000000,25.000000,,,,,,,,,,,,,,,,,,,,,,,,,,,,
1732081755.485768,1732081755.486134,14.000000,0.000000,4352.692383,4367.563965,4368.205078,4381.922852,4380.128418,4386.922852,4367.692383,4427.436035,4415.512695,4387.307617,4526.153809,4566.025879,4406.538574,4472.692383,1344.000000,0.000000,12.000000,,,,0.000000,2.000000,2.000000,0.000000,2.000000,2.000000,2.000000,1.000000,2.000000,4.000000,4.000000,4.000000,4.000000,2.000000,4.000000,25.000000,1.000000,16.666666,2.000000,2.000000,0.000000,2.000000,2.000000,2.000000,1.000000,2.000000,3.000000,3.000000,4.000000,4.000000,1.000000,4.000000,,,,,,,,,,,,
1732081755.493576,1732081755.493943,15.000000,0.000000,4359.230957,4368.461426,4373.333496,4378.846191,4380.897461,4385.384766,4369.358887,4423.205078,4416.153809,4392.820313,4536.153809,4569.871582,4413.846191,4477.820313,1466.000000,0.000000,12.000000,,,,0.000000,2.000000,2.000000,0.000000,2.000000,2.000000,2.000000,1.000000,2.000000,4.000000,4.000000,4.000000,4.000000,2.000000,4.000000,25.000000,,,,,,,,,,,,,,,,,,,,,,,,,,,,
1732081755.501384,1732081755.501851,16.000000,0.000000,4361.794922,4371.410156,4372.051270,4381.666504,4379.358887,4381.153809,4368.974121,4418.333496,4420.769043,4398.205078,4540.897461,4570.512695,4424.487305,4487.692383,0.000000,0.000000,12.000000,,,,0.000000,2.000000,2.000000,0.000000,2.000000,2.000000,2.000000,1.000000,2.000000,4.000000,4.000000,4.000000,4.000000,2.000000,4.000000,25.000000,,,,,,,,,,,,,,,,,4.000000,0.000000,0.631383,0.407104,-0.589233,0.297363,0.962031,0.153827,-0.019045,-74.795761,66.576271,28.656059
1732081755.509192,1732081755.509659,17.000000,0.000000,4359.230957,4372.436035,4368.077148,4385.128418,4378.717773,4379.743652,4369.358887,4418.333496,4419.615234,4392.563965,4538.846191,4567.307617,4421.025879,4486.153809,0.000000,0.000000,12.000000,,,,0.000000,2.000000,2.000000,0.000000,2.000000,2.000000,2.000000,1.000000,2.000000,4.000000,4.000000,4.000000,4.000000,2.000000,4.000000,25.000000,,,,,,,,,,,,,,,,,,,,,,,,,,,,
1732081755.517001,1732081755.517267,18.000000,0.000000,4360.769043,4370.769043,4368.717773,4385.128418,4375.641113,4382.692383,4370.897461,4419.743652,4414.487305,4389.487305,4536.666504,4565.641113,4413.333496,4476.282227,0.000000,0.000000,12.000000,,,,0.000000,2.000000,2.000000,0.000000,2.000000,2.000000,2.000000,1.000000,2.000000,4.000000,4.000000,4.000000,4.000000,2.000000,4.000000,25.000000,,,,,,,,,,,,,,,,,,,,,,,,,,,,
1732081755.524809,1732081755.525075,19.000000,0.000000,4358.077148,4371.666504,4370.897461,4382.820313,4382.051270,4382.307617,4369.871582,4421.153809,4416.410156,4392.307617,4531.922852,4570.512695,4413.461426,4475.256348,0.000000,0.000000,12.000000,,,,0.000000,2.000000,2.000000,0.000000,2.000000,2.000000,2.000000,1.000000,2.000000,4.000000,4.000000,4.000000,4.000000,2.000000,4.000000,25.000000,,,,,,,,,,,,,,,,,,,,,,,,,,,,
1732081755.532617,1732081755.532784,20.000000,0.000000,4355.128418,4375.128418,4368.333496,4378.974121,4388.974121,4380.128418,4366.794922,4419.487305,4417.692383,4390.897461,4528.077148,4571.282227,4415.897461,4477.820313,0.000000,0.000000,12.000000,,,,0.000000,2.000000,2.000000,0.000000,2.000000,2.000000,2.000000,1.000000,2.000000,4.000000,4.000000,4.000000,4.000000,2.000000,4.000000,25.000000,,,,,,,,,,,,,,,,,5.000000,0.000000,0.630381,0.407593,-0.589661,0.297974,0.975705,0.153339,-0.019045,-74.841232,66.751778,28.576408
1732081755.540425,1732081755.540592,21.000000,0.000000,4357.820313,4374.487305,4367.820313,4377.692383,4376.282227,4381.282227,4368.974121,4418.077148,4413.077148,4389.358887,4526.282227,4567.436035,4415.256348,4474.358887,0.000000,0.000000,12.000000,,,,0.000000,2.000000,2.000000,0.000000,2.000000,2.000000,2.000000,1.000000,2.000000,4.000000,4.000000,4.000000,4.000000,2.000000,4.000000,25.000000,,,,,,,,,,,,,,,,,,,,,,,,,,,,
1732081755.548234,1732081755.548600,22.000000,0.000000,4355.769043,4370.897461,4370.000000,4381.025879,4365.769043,4383.846191,4372.436035,4424.871582,4415.641113,4392.436035,4527.307617,4568.461426,4415.000000,4471.666504,0.000000,0.000000,12.000000,,,,0.000000,2.000000,2.000000,0.000000,2.000000,2.000000,2.000000,1.000000,2.000000,4.000000,4.000000,4.000000,4.000000,2.000000,4.000000,25.000000,,,,,,,,,,,,,,,,,,,,,,,,,,,,
1732081755.556042,1732081755.556408,23.000000,0.000000,4351.666504,4369.102539,4372.692383,4378.205078,4372.692383,4383.205078,4371.794922,4427.179688,4421.410156,4395.256348,4530.769043,4568.717773,4417.436035,4474.487305,0.000000,0.000000,12.000000,,,,0.000000,2.000000,2.000000,0.000000,2.000000,2.000000,2.000000,1.000000,2.000000,4.000000,4.000000,4.000000,4.000000,2.000000,4.000000,25.000000,,,,,,,,,,,,,,,,,,,,,,,,,,,,
1732081755.563850,1732081755.564316,24.000000,0.000000,4353.717773,4368.077148,4370.897461,4371.794922,4374.615234,4381.410156,4371.153809,4423.333496,4417.820313,4395.384766,4532.307617,4567.436035,4417.820313,4475.769043,0.000000,0.000000,12.000000,,,,0.000000,2.000000,2.000000,0.000000,2.000000,2.000000,2.000000,1.000000,2.000000,4.000000,4.000000,4.000000,4.000000,2.000000,4.000000,25.000000,,,,,,,,,,,,,,,,,6.000000,0.000000,0.630108,0.407837,-0.589722,0.298096,0.961055,0.164571,-0.021975,-74.649734,66.640610,28.561892
1732081755.571658,1732081755.572125,25.000000,0.000000,4354.487305,4366.794922,4368.461426,4373.589844,4378.333496,4378.589844,4370.641113,4424.871582,4412.179688,4391.538574,4526.538574,4568.589844,4417.179688,4474.230957,0.000000,0.000000,12.000000,,,,0.000000,2.000000,2.000000,0.000000,2.000000,2.000000,2.000000,1.000000,2.000000,4.000000,4.000000,4.000000,4.000000,2.000000,4.000000,25.000000,,,,,,,,,,,,,,,,,,,,,,,,,,,,
1732081755.579467,1732081755.580133,26.000000,0.000000,4354.615234,4364.615234,4370.000000,4378.205078,4384.615234,4372.948730,4370.769043,4423.717773,4412.692383,4388.589844,4526.538574,4568.333496,4418.205078,4473.846191,0.000000,0.000000,12.000000,,,,0.000000,2.000000,2.000000,0.000000,2.000000,2.000000,2.000000,1.000000,2.000000,4.000000,4.000000,4.000000,4.000000,2.000000,4.000000,25.000000,,,,,,,,,,,,,,,,,,,,,,,,,,,,
1732081755.587275,1732081755.587941,27.000000,0.000000,4358.205078,4365.769043,4371.922852,4378.589844,4373.205078,4373.717773,4370.769043,4417.307617,4416.282227,4391.794922,4532.051270,4565.384766,4419.230957,4475.384766,0.000000,0.000000,12.000000,,,,0.000000,2.000000,2.000000,0.000000,2.000000,2.000000,2.000000,1.000000,2.000000,4.000000,4.000000,4.000000,4.000000,2.000000,4.000000,25.000000,,,,,,,,,,,,,,,,,,,,,,,,,,,,
1732081755.595083,1732081755.595849,28.000000,0.000000,4352.436035,4367.820313,4370.897461,4378.333496,4366.794922,4381.025879,4371.538574,4421.410156,4416.153809,4392.179688,4531.922852,4563.077148,4416.025879,4473.461426,0.000000,0.000000,12.000000,,,,0.000000,2.000000,2.000000,0.000000,2.000000,2.000000,2.000000,1.000000,2.000000,4.000000,4.000000,4.000000,4.000000,2.000000,4.000000,25.000000,,,,,,,,,,,,,,,,,7.000000,0.000000,0.629704,0.408020,-0.590027,0.298096,0.960078,0.173849,-0.036626,-74.719620,66.723892,28.485132
1732081755.602892,1732081755.603657,29.000000,0.000000,4346.410156,4368.974121,4367.563965,4377.563965,4378.077148,4379.102539,4371.282227,4424.230957,4413.461426,4387.563965,4528.589844,4566.794922,4414.102539,4472.051270,0.000000,0.000000,12.000000,,,,0.000000,2.000000,2.000000,0.000000,2.000000,2.000000,2.000000,1.000000,2.000000,4.000000,4.000000,4.000000,4.000000,2.000000,4.000000,25.000000,,,,,,,,,,,,,,,,,,,,,,,,,,,,
1732081755.610700,1732081755.611665,30.000000,0.000000,4354.358887,4368.717773,4367.948730,4377.948730,4374.871582,4376.538574,4372.948730,4418.974121,4413.077148,4387.051270,4526.153809,4565.897461,4417.307617,4473.974121,0.000000,0.000000,12.000000,,,,0.000000,2.000000,2.000000,0.000000,2.000000,2.000000,2.000000,1.000000,2.000000,4.000000,4.000000,4.000000,4.000000,2.000000,4.000000,25.000000,,,,,,,,,,,,,,,,,,,,,,,,,,,,
1732081755.618508,1732081755.619473,31.000000,0.000000,4356.538574,4368.974121,4369.743652,4380.000000,4372.692383,4380.256348,4371.410156,4421.410156,4415.512695,4390.384766,4530.641113,4561.794922,4417.436035,4474.615234,0.000000,0.000000,12.000000,,,,0.000000,2.000000,2.000000,0.000000,2.000000,2.000000,2.000000,1.000000,2.000000,4.000000,4.000000,4.000000,4.000000,2.000000,4.000000,25.000000,,,,,,,,,,,,,,,,,,,,,,,,,,,,
1732081755.626316,1732081755.627381,32.000000,0.000000,4347.436035,4370.000000,4369.487305,4381.153809,4385.769043,4380.256348,4369.871582,4424.487305,4418.205078,4391.666504,4537.692383,4560.384766,4413.461426,4474.230957,0.000000,0.000000,12.000000,,,,0.000000,2.000000,2.000000,0.000000,2.000000,2.000000,2.000000,1.000000,2.000000,4.000000,4.000000,4.000000,4.000000,2.000000,4.000000,25.000000,,,,,,,,,,,,,,,,,8.000000,0.000000,0.628917,0.408081,-0.590515,0.298706,0.967892,0.146991,-0.030765,-74.859558,66.624687,28.506290
1732081755.634125,1732081755.635190,33.000000,0.000000,4348.205078,4367.307617,4368.846191,4378.205078,4379.871582,4375.769043,4369.358887,4418.077148,4416.922852,4391.282227,4536.282227,4559.102539,4415.897461,4474.358887,0.000000,0.000000,12.000000,,,,0.000000,2.000000,2.000000,0.000000,2.000000,2.000000,2.000000,1.000000,2.000000,4.000000,4.000000,4.000000,4.000000,2.000000,4.000000,25.000000,,,,,,,,,,,,,,,,,,,,,,,,,,,,
1732081755.641933,1732081755.643198,34.000000,0.000000,4355.000000,4365.897461,4370.897461,4377.692383,4358.461426,4376.922852,4370.128418,4418.461426,4414.230957,4391.666504,4535.000000,4562.820313,4420.769043,4476.922852,0.000000,0.000000,12.000000,,,,0.000000,2.000000,2.000000,0.000000,2.000000,2.000000,2.000000,1.000000,2.000000,4.000000,4.000000,4.000000,4.000000,2.000000,4.000000,25.000000,,,,,,,,,,,,,,,,,,,,,,,,,,,,
1732081755.649741,1732081755.651006,35.000000,0.000000,4354.358887,4369.358887,4370.000000,4379.230957,4365.384766,4380.000000,4371.538574,4426.922852,4416.025879,4392.692383,4539.230957,4565.641113,4415.769043,4477.692383,0.000000,0.000000,12.000000,,,,0.000000,2.000000,2.000000,0.000000,2.000000,2.000000,2.000000,1.000000,2.000000,4.000000,4.000000,4.000000,4.000000,2.000000,4.000000,25.000000,,,,,,,,,,,,,,,,,,,,,,,,,,,,
1732081755.657549,1732081755.658914,36.000000,0.000000,4352.307617,4371.025879,4370.256348,4374.615234,4387.051270,4378.461426,4373.461426,4425.512695,4418.077148,4391.153809,4540.256348,4558.974121,4409.487305,4473.205078,0.000000,0.000000,12.000000,,,,0.000000,2.000000,2.000000,0.000000,2.000000,2.000000,2.000000,1.000000,2.000000,4.000000,4.000000,4.000000,4.000000,2.000000,4.000000,25.000000,,,,,,,,,,,,,,,,,9.000000,0.000000,0.628715,0.408081,-0.590637,0.298889,0.970822,0.146014,-0.032230,-74.872910,66.454330,28.263428
1732081755.665357,1732081755.666722,37.000000,0.000000,4356.538574,4369.871582,4371.410156,4372.307617,4381.794922,4377.692383,4372.179688,4418.846191,4414.743652,4388.461426,4536.922852,4552.051270,4412.948730,4472.179688,0.000000,0.000000,12.000000,,,,0.000000,2.000000,2.000000,0.000000,2.000000,2.000000,2.000000,1.000000,2.000000,4.000000,4.000000,4.000000,4.000000,2.000000,4.000000,25.000000,,,,,,,,,,,,,,,,,,,,,,,,,,,,
1732081755.673166,1732081755.674730,38.000000,0.000000,4362.307617,4370.256348,4372.436035,4378.717773,4362.436035,4380.384766,4370.769043,4418.717773,4412.051270,4388.333496,4538.333496,4554.230957,4416.538574,4477.307617,0.000000,0.000000,12.000000,,,,0.000000,2.000000,2.000000,0.000000,2.000000,2.000000,2.000000,1.000000,2.000000,4.000000,4.000000,4.000000,4.000000,2.000000,4.000000,25.000000,,,,,,,,,,,,,,,,,,,,,,,,,,,,
1732081755.680974,1732081755.682538,39.000000,0.000000,4364.743652,4373.205078,4371.153809,4384.615234,4362.948730,4381.794922,4370.769043,4422.436035,4412.820313,4386.538574,4539.743652,4552.179688,4412.436035,4479.487305,0.000000,0.000000,12.000000,,,,0.000000,2.000000,2.000000,0.000000,2.000000,2.000000,2.000000,1.000000,2.000000,4.000000,4.000000,4.000000,4.000000,2.000000,4.000000,25.000000,,,,,,,,,,,,,,,,,,,,,,,,,,,,
1732081755.688782,1732081755.690446,40.000000,0.000000,4363.589844,4371.153809,4371.922852,4382.051270,4376.282227,4377.692383,4370.128418,4426.794922,4413.077148,4383.589844,4535.256348,4546.153809,4410.128418,4469.871582,0.000000,0.000000,12.000000,,,,0.000000,2.000000,2.000000,0.000000,2.000000,2.000000,2.000000,1.000000,2.000000,4.000000,4.000000,4.000000,4.000000,2.000000,4.000000,25.000000,,,,,,,,,,,,,,,,,10.000000,0.000000,0.628447,0.407959,-0.590759,0.299377,0.966427,0.149921,-0.031742,-75.038719,66.423004,28.118378
1732081755.696591,1732081755.698255,41.000000,0.000000,4362.692383,4367.051270,4373.205078,4379.487305,4371.922852,4374.358887,4372.179688,4427.820313,4414.615234,4384.615234,4530.256348,4552.307617,4410.641113,4463.333496,0.000000,0.000000,12.000000,,,,0.000000,2.000000,2.000000,0.000000,2.000000,2.000000,2.000000,1.000000,2.000000,4.000000,4.000000,4.000000,4.000000,2.000000,4.000000,25.000000,,,,,,,,,,,,,,,,,,,,,,,,,,,,
1732081755.704399,1732081755.706263,42.000000,0.000000,4363.205078,4366.794922,4372.692383,4379.743652,4358.077148,4372.948730,4370.897461,4423.589844,4416.538574,4388.461426,4532.948730,4557.563965,4411.794922,4468.077148,0.000000,0.000000,12.000000,,,,0.000000,2.000000,2.000000,0.000000,2.000000,2.000000,2.000000,1.000000,2.000000,4.000000,4.000000,4.000000,4.000000,2.000000,4.000000,25.000000,,,,,,,,,,,,,,,,,,,,,,,,,,,,
1732081755.712207,1732081755.714071,43.000000,0.000000,4362.307617,4364.230957,4371.538574,4376.794922,4368.589844,4366.794922,4365.897461,4415.256348,4415.000000,4385.769043,4536.666504,4554.230957,4414.230957,4468.205078,0.000000,0.000000,12.000000,,,,0.000000,2.000000,2.000000,0.000000,2.000000,2.000000,2.000000,1.000000,2.000000,4.000000,4.000000,4.000000,4.000000,2.000000,4.000000,25.000000,,,,,,,,,,,,,,,,,,,,,,,,,,,,
1732081755.720015,1732081755.721979,44.000000,0.000000,4361.922852,4362.179688,4372.307617,4376.025879,4379.743652,4367.179688,4365.641113,4412.820313,4414.230957,4380.512695,4535.000000,4551.666504,4413.333496,4458.846191,0.000000,0.000000,12.000000,,,,0.000000,2.000000,2.000000,0.000000,2.000000,2.000000,2.000000,1.000000,2.000000,4.000000,4.000000,4.000000,4.000000,2.000000,4.000000,25.000000,,,,,,,,,,,,,,,,,11.000000,0.000000,0.628180,0.407043,-0.591675,0.299377,0.966915,0.157246,-0.038091,-74.971367,66.552635,28.199219
1732081755.727824,1732081755.729787,45.000000,0.000000,4362.307617,4366.282227,4373.717773,4374.487305,4366.538574,4374.230957,4370.000000,4420.897461,4414.615234,4381.025879,4535.769043,4551.538574,4413.717773,4459.230957,0.000000,0.000000,12.000000,,,,0.000000,2.000000,2.000000,0.000000,2.000000,2.000000,2.000000,1.000000,2.000000,4.000000,4.000000,4.000000,4.000000,2.000000,4.000000,25.000000,,,,,,,,,,,,,,,,,,,,,,,,,,,,
