title:1three, start timestamp:1732157336.621034, stop timestamp:1732157388.217911, headset type:EPOCX, headset serial:E5020C3A, headset firmware:730, channels:67, sampling rate:eeg_128;mot_32, samples:6609      , version:2.2, 
Timestamp,OriginalTimestamp,EEG.Counter,EEG.Interpolated,EEG.AF3,EEG.F7,EEG.F3,EEG.FC5,EEG.T7,EEG.P7,EEG.O1,EEG.O2,EEG.P8,EEG.T8,EEG.FC6,EEG.F4,EEG.F8,EEG.AF4,EEG.RawCq,EEG.Battery,EEG.BatteryPercent,MarkerIndex,MarkerType,MarkerValueInt,EEG.MarkerHardware,CQ.AF3,CQ.F7,CQ.F3,CQ.FC5,CQ.T7,CQ.P7,CQ.O1,CQ.O2,CQ.P8,CQ.T8,CQ.FC6,CQ.F4,CQ.F8,CQ.AF4,CQ.Overall,EQ.SampleRateQuality,EQ.OVERALL,EQ.AF3,EQ.F7,EQ.F3,EQ.FC5,EQ.T7,EQ.P7,EQ.O1,EQ.O2,EQ.P8,EQ.T8,EQ.FC6,EQ.F4,EQ.F8,EQ.AF4,MOT.CounterMems,MOT.InterpolatedMems,MOT.Q0,MOT.Q1,MOT.Q2,MOT.Q3,MOT.AccX,MOT.AccY,MOT.AccZ,MOT.MagX,MOT.MagY,MOT.MagZ
1732157336.621034,1732157336.624075,69.000000,0.000000,4278.333496,4244.487305,4312.051270,4277.948730,4275.512695,4279.871582,4330.000000,4400.000000,4301.666504,4293.589844,4489.487305,4516.666504,4369.102539,4418.461426,1229.000000,1.000000,24.000000,,,,0.000000,2.000000,2.000000,0.000000,4.000000,2.000000,2.000000,0.000000,0.000000,4.000000,4.000000,4.000000,4.000000,4.000000,4.000000,0.000000,,,,,,,,,,,,,,,,,,,,,,,,,,,,
1732157336.628842,1732157336.631684,70.000000,0.000000,4278.846191,4245.897461,4310.384766,4279.358887,4289.487305,4280.000000,4327.820313,4402.563965,4299.743652,4293.077148,4486.025879,4508.077148,4365.512695,4416.153809,0.000000,1.000000,24.000000,,,,0.000000,2.000000,2.000000,0.000000,4.000000,2.000000,2.000000,0.000000,0.000000,4.000000,4.000000,4.000000,4.000000,4.000000,4.000000,0.000000,,,,,,,,,,,,,,,,,,,,,,,,,,,,
1732157336.636650,1732157336.639492,71.000000,0.000000,4283.717773,4248.974121,4313.461426,4283.333496,4289.230957,4279.615234,4328.846191,4403.461426,4306.410156,4293.974121,4492.948730,4514.615234,4366.410156,4424.102539,0.000000,1.000000,24.000000,,,,0.000000,2.000000,2.000000,0.000000,4.000000,2.000000,2.000000,0.000000,0.000000,4.000000,4.000000,4.000000,4.000000,4.000000,4.000000,0.000000,,,,,,,,,,,,,,,,,,,,,,,,,,,,
1732157336.644459,1732157336.647200,72.000000,0.000000,4290.256348,4255.000000,4314.230957,4291.282227,4264.871582,4280.769043,4330.512695,4400.769043,4307.820313,4294.487305,4494.102539,4526.538574,4368.205078,4426.153809,1524.000000,1.000000,24.000000,,,,0.000000,2.000000,2.000000,0.000000,4.000000,2.000000,2.000000,0.000000,0.000000,4.000000,4.000000,4.000000,4.000000,4.000000,4.000000,0.000000,,,,,,,,,,,,,,,,,18.000000,0.000000,0.531347,0.497314,-0.521423,0.445496,0.953241,0.070809,-0.040532,-34.348568,46.382034,31.750357
1732157336.652267,1732157336.655009,73.000000,0.000000,4287.820313,4259.102539,4314.230957,4295.384766,4258.333496,4279.871582,4329.871582,4401.922852,4302.436035,4296.794922,4493.333496,4523.974121,4368.974121,4422.948730,1670.000000,1.000000,24.000000,,,,0.000000,2.000000,2.000000,0.000000,4.000000,2.000000,2.000000,0.000000,0.000000,4.000000,4.000000,4.000000,4.000000,4.000000,4.000000,0.000000,,,,,,,,,,,,,,,,,,,,,,,,,,,,
1732157336.660075,1732157336.663017,74.000000,0.000000,4284.871582,4260.000000,4314.743652,4295.384766,4275.128418,4277.307617,4328.461426,4404.358887,4303.205078,4297.051270,4494.615234,4520.256348,4369.743652,4422.948730,1534.000000,1.000000,24.000000,,,,0.000000,2.000000,2.000000,0.000000,4.000000,2.000000,2.000000,0.000000,0.000000,4.000000,4.000000,4.000000,4.000000,4.000000,4.000000,0.000000,,,,,,,,,,,,,,,,,,,,,,,,,,,,
1732157336.667884,1732157336.670825,75.000000,0.000000,4289.871582,4262.692383,4313.077148,4297.179688,4280.128418,4279.743652,4330.512695,4402.307617,4307.307617,4294.615234,4492.563965,4521.153809,4369.102539,4418.333496,1569.000000,1.000000,24.000000,,,,0.000000,2.000000,2.000000,0.000000,4.000000,2.000000,2.000000,0.000000,0.000000,4.000000,4.000000,4.000000,4.000000,4.000000,4.000000,0.000000,,,,,,,,,,,,,,,,,,,,,,,,,,,,
1732157336.675692,1732157336.678533,76.000000,0.000000,4289.102539,4263.333496,4312.820313,4297.436035,4275.256348,4282.051270,4336.025879,4399.615234,4309.615234,4295.641113,4492.563965,4516.153809,4367.436035,4411.794922,1698.000000,1.000000,24.000000,,,,0.000000,2.000000,2.000000,0.000000,4.000000,2.000000,2.000000,0.000000,0.000000,4.000000,4.000000,4.000000,4.000000,4.000000,4.000000,0.000000,,,,,,,,,,,,,,,,,19.000000,0.000000,0.533050,0.497131,-0.521057,0.444092,0.966915,0.078623,-0.029789,-34.302341,46.529449,31.714455
1732157336.683500,1732157336.686341,77.000000,0.000000,4281.794922,4260.000000,4315.128418,4295.256348,4280.769043,4282.179688,4337.563965,4401.025879,4309.230957,4296.153809,4491.666504,4512.179688,4366.410156,4410.897461,1671.000000,1.000000,24.000000,,,,0.000000,2.000000,2.000000,0.000000,4.000000,2.000000,2.000000,0.000000,0.000000,4.000000,4.000000,4.000000,4.000000,4.000000,4.000000,0.000000,,,,,,,,,,,,,,,,,,,,,,,,,,,,
1732157336.691308,1732157336.693950,78.000000,0.000000,4278.974121,4257.820313,4314.487305,4293.461426,4282.948730,4289.358887,4335.512695,4404.871582,4308.846191,4292.051270,4489.230957,4512.307617,4365.641113,4412.948730,1534.000000,1.000000,24.000000,,,,0.000000,2.000000,2.000000,0.000000,4.000000,2.000000,2.000000,0.000000,0.000000,4.000000,4.000000,4.000000,4.000000,4.000000,4.000000,0.000000,1.000000,0.000000,2.000000,2.000000,0.000000,4.000000,2.000000,1.000000,0.000000,0.000000,4.000000,4.000000,4.000000,4.000000,4.000000,4.000000,,,,,,,,,,,,
1732157336.699116,1732157336.701758,79.000000,0.000000,4278.717773,4253.974121,4312.563965,4288.205078,4278.205078,4293.461426,4336.282227,4404.487305,4308.461426,4290.641113,4489.230957,4509.615234,4367.436035,4411.410156,1569.000000,1.000000,24.000000,,,,0.000000,2.000000,2.000000,0.000000,4.000000,2.000000,2.000000,0.000000,0.000000,4.000000,4.000000,4.000000,4.000000,4.000000,4.000000,0.000000,,,,,,,,,,,,,,,,,,,,,,,,,,,,
1732157336.706925,1732157336.709666,80.000000,0.000000,4276.538574,4250.128418,4312.820313,4280.641113,4288.077148,4285.384766,4335.512695,4402.948730,4303.717773,4290.897461,4488.461426,4505.000000,4366.922852,4408.333496,1698.000000,1.000000,24.000000,,,,0.000000,2.000000,2.000000,0.000000,4.000000,2.000000,2.000000,0.000000,0.000000,4.000000,4.000000,4.000000,4.000000,4.000000,4.000000,0.000000,,,,,,,,,,,,,,,,,20.000000,0.000000,0.533656,0.497009,-0.520813,0.443787,0.975217,0.075204,-0.034672,-34.118229,46.397186,31.642042
1732157336.714733,1732157336.717474,81.000000,0.000000,4276.282227,4249.102539,4313.461426,4278.589844,4296.153809,4279.615234,4333.333496,4404.487305,4303.717773,4289.743652,4487.179688,4506.410156,4365.256348,4407.307617,1671.000000,1.000000,24.000000,,,,0.000000,2.000000,2.000000,0.000000,4.000000,2.000000,2.000000,0.000000,0.000000,4.000000,4.000000,4.000000,4.000000,4.000000,4.000000,0.000000,,,,,,,,,,,,,,,,,,,,,,,,,,,,
1732157336.722541,1732157336.725083,82.000000,0.000000,4277.692383,4249.871582,4313.461426,4282.948730,4274.102539,4281.794922,4334.871582,4402.179688,4311.922852,4293.461426,4489.615234,4513.205078,4367.563965,4410.256348,1534.000000,1.000000,24.000000,,,,0.000000,2.000000,2.000000,0.000000,4.000000,2.000000,2.000000,0.000000,0.000000,4.000000,4.000000,4.000000,4.000000,4.000000,4.000000,0.000000,,,,,,,,,,,,,,,,,,,,,,,,,,,,
1732157336.730349,1732157336.732891,83.000000,0.000000,4280.641113,4256.666504,4313.974121,4287.820313,4256.410156,4280.641113,4337.179688,4399.230957,4309.102539,4297.307617,4493.205078,4517.051270,4368.333496,4414.230957,1569.000000,1.000000,24.000000,,,,0.000000,2.000000,2.000000,0.000000,4.000000,2.000000,2.000000,0.000000,0.000000,4.000000,4.000000,4.000000,4.000000,4.000000,4.000000,0.000000,,,,,,,,,,,,,,,,,,,,,,,,,,,,
1732157336.738158,1732157336.740799,84.000000,0.000000,4282.820313,4263.589844,4314.487305,4291.410156,4266.282227,4280.641113,4335.256348,4402.179688,4299.102539,4294.487305,4492.692383,4518.717773,4365.769043,4416.794922,1698.000000,1.000000,24.000000,,,,0.000000,2.000000,2.000000,0.000000,4.000000,2.000000,2.000000,0.000000,0.000000,4.000000,4.000000,4.000000,4.000000,4.000000,4.000000,0.000000,,,,,,,,,,,,,,,,,21.000000,0.000000,0.535034,0.496948,-0.520081,0.443054,0.987425,0.088390,-0.025882,-33.939098,46.518387,31.633387
1732157336.745966,1732157336.748607,85.000000,0.000000,4281.538574,4261.538574,4314.615234,4292.051270,4268.461426,4277.436035,4330.512695,4401.153809,4300.512695,4292.563965,4490.641113,4523.333496,4366.794922,4418.461426,1671.000000,1.000000,24.000000,,,,0.000000,2.000000,2.000000,0.000000,4.000000,2.000000,2.000000,0.000000,0.000000,4.000000,4.000000,4.000000,4.000000,4.000000,4.000000,0.000000,,,,,,,,,,,,,,,,,,,,,,,,,,,,
1732157336.753774,1732157336.756615,86.000000,0.000000,4280.897461,4260.769043,4310.256348,4292.179688,4263.333496,4268.717773,4328.846191,4397.436035,4305.128418,4295.384766,4488.717773,4521.025879,4367.436035,4415.128418,1534.000000,1.000000,24.000000,,,,0.000000,2.000000,2.000000,0.000000,4.000000,2.000000,2.000000,0.000000,0.000000,4.000000,4.000000,4.000000,4.000000,4.000000,4.000000,0.000000,,,,,,,,,,,,,,,,,,,,,,,,,,,,
1732157336.761582,1732157336.764423,87.000000,0.000000,4281.153809,4264.743652,4304.487305,4292.820313,4273.846191,4270.384766,4327.307617,4399.358887,4306.410156,4295.256348,4487.692383,4511.153809,4365.000000,4410.897461,1569.000000,1.000000,24.000000,,,,0.000000,2.000000,2.000000,0.000000,4.000000,2.000000,2.000000,0.000000,0.000000,4.000000,4.000000,4.000000,4.000000,4.000000,4.000000,0.000000,,,,,,,,,,,,,,,,,,,,,,,,,,,,
1732157336.769391,1732157336.772332,88.000000,0.000000,4279.487305,4263.333496,4302.820313,4292.563965,4280.897461,4278.717773,4327.948730,4400.256348,4304.102539,4293.717773,4488.974121,4513.717773,4366.153809,4412.307617,1698.000000,1.000000,24.000000,,,,0.000000,2.000000,2.000000,0.000000,4.000000,2.000000,2.000000,0.000000,0.000000,4.000000,4.000000,4.000000,4.000000,4.000000,4.000000,0.000000,,,,,,,,,,,,,,,,,22.000000,0.000000,0.536657,0.498474,-0.518555,0.441162,0.949335,0.089366,-0.032230,-33.994003,46.499893,31.693045
1732157336.777199,1732157336.780140,89.000000,0.000000,4280.000000,4262.307617,4301.666504,4293.846191,4278.333496,4281.410156,4333.077148,4397.179688,4296.282227,4293.846191,4489.358887,4525.384766,4367.948730,4413.589844,1671.000000,1.000000,24.000000,,,,0.000000,2.000000,2.000000,0.000000,4.000000,2.000000,2.000000,0.000000,0.000000,4.000000,4.000000,4.000000,4.000000,4.000000,4.000000,0.000000,,,,,,,,,,,,,,,,,,,,,,,,,,,,
1732157336.785007,1732157336.787748,90.000000,0.000000,4282.436035,4264.358887,4298.846191,4294.358887,4279.871582,4281.666504,4332.307617,4397.051270,4299.615234,4293.974121,4487.948730,4521.794922,4366.794922,4412.051270,1534.000000,1.000000,24.000000,,,,0.000000,2.000000,2.000000,0.000000,4.000000,2.000000,2.000000,0.000000,0.000000,4.000000,4.000000,4.000000,4.000000,4.000000,4.000000,0.000000,,,,,,,,,,,,,,,,,,,,,,,,,,,,
1732157336.792815,1732157336.795556,91.000000,0.000000,4281.666504,4264.358887,4298.461426,4290.769043,4280.769043,4281.794922,4325.512695,4398.974121,4310.384766,4293.589844,4487.820313,4508.846191,4367.307617,4411.538574,1569.000000,1.000000,24.000000,,,,0.000000,2.000000,2.000000,0.000000,4.000000,2.000000,2.000000,0.000000,0.000000,4.000000,4.000000,4.000000,4.000000,4.000000,4.000000,0.000000,,,,,,,,,,,,,,,,,,,,,,,,,,,,
1732157336.800624,1732157336.803265,92.000000,0.000000,4278.077148,4263.846191,4295.512695,4288.077148,4280.641113,4282.563965,4325.641113,4398.205078,4306.666504,4294.102539,4488.205078,4507.179688,4364.615234,4411.538574,1698.000000,1.000000,24.000000,,,,0.000000,2.000000,2.000000,0.000000,4.000000,2.000000,2.000000,0.000000,0.000000,4.000000,4.000000,4.000000,4.000000,4.000000,4.000000,0.000000,,,,,,,,,,,,,,,,,23.000000,0.000000,0.537008,0.498718,-0.518372,0.440674,0.949335,0.089366,-0.032230,-34.156811,46.616581,31.851366
1732157336.808432,1732157336.811073,93.000000,0.000000,4278.717773,4264.358887,4290.769043,4292.820313,4281.922852,4285.641113,4328.974121,4393.205078,4301.153809,4294.743652,4487.692383,4509.615234,4360.000000,4411.922852,1671.000000,1.000000,24.000000,,,,0.000000,2.000000,2.000000,0.000000,4.000000,2.000000,2.000000,0.000000,0.000000,4.000000,4.000000,4.000000,4.000000,4.000000,4.000000,0.000000,,,,,,,,,,,,,,,,,,,,,,,,,,,,
1732157336.816240,1732157336.819081,94.000000,0.000000,4282.948730,4267.820313,4291.538574,4297.179688,4276.794922,4284.487305,4325.897461,4391.666504,4304.615234,4294.102539,4487.948730,4508.461426,4363.717773,4412.692383,1534.000000,1.000000,24.000000,,,,0.000000,2.000000,2.000000,0.000000,4.000000,2.000000,2.000000,0.000000,0.000000,4.000000,4.000000,4.000000,4.000000,4.000000,4.000000,0.000000,,,,,,,,,,,,,,,,,,,,,,,,,,,,
1732157336.824048,1732157336.826889,95.000000,0.000000,4282.436035,4266.410156,4290.897461,4293.589844,4280.384766,4278.846191,4324.230957,4394.743652,4303.077148,4293.333496,4489.102539,4509.871582,4367.563965,4412.948730,1569.000000,1.000000,24.000000,,,,0.000000,2.000000,2.000000,0.000000,4.000000,2.000000,2.000000,0.000000,0.000000,4.000000,4.000000,4.000000,4.000000,4.000000,4.000000,0.000000,,,,,,,,,,,,,,,,,,,,,,,,,,,,
1732157336.831857,1732157336.834797,96.000000,0.000000,4281.025879,4264.743652,4289.358887,4290.512695,4292.692383,4278.333496,4322.436035,4396.666504,4297.179688,4292.692383,4488.205078,4511.666504,4360.000000,4411.538574,1698.000000,1.000000,24.000000,,,,0.000000,2.000000,2.000000,0.000000,4.000000,2.000000,2.000000,0.000000,0.000000,4.000000,4.000000,4.000000,4.000000,4.000000,4.000000,0.000000,,,,,,,,,,,,,,,,,24.000000,0.000000,0.537088,0.498901,-0.518372,0.440369,0.948358,0.067879,-0.036626,-34.237015,46.496098,31.856272
1732157336.839665,1732157336.842605,97.000000,0.000000,4283.461426,4271.666504,4290.128418,4295.128418,4283.717773,4280.641113,4320.384766,4393.717773,4296.922852,4292.307617,4486.922852,4507.563965,4353.974121,4411.025879,1671.000000,1.000000,24.000000,,,,0.000000,2.000000,2.000000,0.000000,4.000000,2.000000,2.000000,0.000000,0.000000,4.000000,4.000000,4.000000,4.000000,4.000000,4.000000,0.000000,,,,,,,,,,,,,,,,,,,,,,,,,,,,
1732157336.847473,1732157336.850613,98.000000,0.000000,4285.000000,4274.230957,4290.128418,4298.077148,4267.179688,4282.179688,4324.871582,4392.948730,4306.666504,4295.128418,4488.974121,4509.230957,4360.000000,4411.025879,1534.000000,1.000000,24.000000,,,,0.000000,2.000000,2.000000,0.000000,4.000000,2.000000,2.000000,0.000000,0.000000,4.000000,4.000000,4.000000,4.000000,4.000000,4.000000,0.000000,,,,,,,,,,,,,,,,,,,,,,,,,,,,
1732157336.855281,1732157336.858422,99.000000,0.000000,4285.384766,4270.769043,4289.487305,4295.128418,4272.948730,4282.179688,4325.897461,4393.717773,4315.897461,4297.820313,4491.153809,4516.794922,4365.897461,4410.897461,1569.000000,1.000000,24.000000,,,,0.000000,2.000000,2.000000,0.000000,4.000000,2.000000,2.000000,0.000000,0.000000,4.000000,4.000000,4.000000,4.000000,4.000000,4.000000,0.000000,,,,,,,,,,,,,,,,,,,,,,,,,,,,
1732157336.863089,1732157336.866330,100.000000,0.000000,4286.794922,4272.307617,4292.307617,4293.589844,4282.051270,4282.692383,4320.512695,4393.717773,4310.512695,4296.666504,4490.641113,4512.692383,4365.000000,4411.922852,1698.000000,1.000000,24.000000,,,,0.000000,2.000000,2.000000,0.000000,4.000000,2.000000,2.000000,0.000000,0.000000,4.000000,4.000000,4.000000,4.000000,4.000000,4.000000,0.000000,,,,,,,,,,,,,,,,,25.000000,0.000000,0.537084,0.498291,-0.519531,0.439697,0.982053,0.069833,-0.032719,-34.268650,46.415173,31.926914
1732157336.870898,1732157336.874138,101.000000,0.000000,4288.717773,4275.512695,4293.589844,4295.256348,4277.051270,4283.974121,4321.794922,4395.769043,4306.025879,4295.897461,4490.769043,4505.769043,4365.256348,4413.974121,1671.000000,1.000000,24.000000,,,,0.000000,2.000000,2.000000,0.000000,4.000000,2.000000,2.000000,0.000000,0.000000,4.000000,4.000000,4.000000,4.000000,4.000000,4.000000,0.000000,,,,,,,,,,,,,,,,,,,,,,,,,,,,
1732157336.878706,1732157336.881946,102.000000,0.000000,4291.410156,4276.282227,4292.948730,4294.743652,4275.769043,4282.051270,4327.692383,4396.794922,4310.641113,4295.512695,4491.410156,4507.179688,4363.717773,4415.512695,1534.000000,1.000000,24.000000,,,,0.000000,2.000000,2.000000,0.000000,4.000000,2.000000,2.000000,0.000000,0.000000,4.000000,4.000000,4.000000,4.000000,4.000000,4.000000,0.000000,,,,,,,,,,,,,,,,,,,,,,,,,,,,
1732157336.886514,1732157336.889754,103.000000,0.000000,4293.846191,4279.358887,4295.769043,4295.641113,4278.717773,4278.846191,4325.769043,4396.282227,4304.358887,4291.666504,4488.974121,4509.871582,4358.974121,4414.615234,1569.000000,1.000000,24.000000,,,,0.000000,2.000000,2.000000,0.000000,4.000000,2.000000,2.000000,0.000000,0.000000,4.000000,4.000000,4.000000,4.000000,4.000000,4.000000,0.000000,,,,,,,,,,,,,,,,,,,,,,,,,,,,
1732157336.894323,1732157336.897662,104.000000,0.000000,4295.384766,4281.410156,4300.897461,4298.974121,4277.692383,4280.000000,4322.307617,4396.025879,4295.384766,4287.948730,4487.179688,4509.358887,4360.256348,4412.692383,1698.000000,1.000000,24.000000,,,,0.000000,2.000000,2.000000,0.000000,4.000000,2.000000,2.000000,0.000000,0.000000,4.000000,4.000000,4.000000,4.000000,4.000000,4.000000,0.000000,,,,,,,,,,,,,,,,,26.000000,0.000000,0.536892,0.496643,-0.520996,0.440063,0.983030,0.074716,-0.041021,-34.232605,46.337955,32.009132
1732157336.902131,1732157336.905471,105.000000,0.000000,4293.333496,4276.794922,4309.487305,4298.461426,4277.436035,4280.769043,4325.769043,4396.282227,4297.692383,4285.256348,4489.487305,4509.487305,4362.307617,4414.358887,1671.000000,1.000000,24.000000,,,,0.000000,2.000000,2.000000,0.000000,4.000000,2.000000,2.000000,0.000000,0.000000,4.000000,4.000000,4.000000,4.000000,4.000000,4.000000,0.000000,,,,,,,,,,,,,,,,,,,,,,,,,,,,
1732157336.909939,1732157336.913079,106.000000,0.000000,4284.743652,4270.128418,4312.820313,4294.615234,4277.051270,4279.230957,4332.563965,4399.358887,4299.615234,4281.794922,4487.820313,4509.102539,4355.897461,4415.256348,1534.000000,1.000000,24.000000,,,,0.000000,2.000000,2.000000,0.000000,4.000000,2.000000,2.000000,0.000000,0.000000,4.000000,4.000000,4.000000,4.000000,4.000000,4.000000,0.000000,,,,,,,,,,,,,,,,,,,,,,,,,,,,
1732157336.917747,1732157336.920887,107.000000,0.000000,4277.307617,4265.256348,4310.384766,4291.153809,4276.666504,4280.769043,4335.769043,4402.948730,4297.051270,4280.641113,4479.743652,4506.410156,4351.025879,4410.384766,1569.000000,1.000000,24.000000,,,,0.000000,2.000000,2.000000,0.000000,4.000000,2.000000,2.000000,0.000000,0.000000,4.000000,4.000000,4.000000,4.000000,4.000000,4.000000,0.000000,,,,,,,,,,,,,,,,,,,,,,,,,,,,
1732157336.925556,1732157336.928596,108.000000,0.000000,4281.410156,4265.641113,4311.153809,4290.000000,4279.102539,4282.948730,4334.358887,4401.282227,4297.436035,4282.307617,4475.000000,4507.436035,4351.282227,4408.717773,1698.000000,1.000000,24.000000,,,,0.000000,2.000000,2.000000,0.000000,4.000000,2.000000,2.000000,0.000000,0.000000,4.000000,4.000000,4.000000,4.000000,4.000000,4.000000,0.000000,,,,,,,,,,,,,,,,,27.000000,0.000000,0.536829,0.495972,-0.521545,0.440247,0.983030,0.074716,-0.041021,-34.125076,46.147079,32.007397
1732157336.933364,1732157336.936404,109.000000,0.000000,4285.256348,4266.922852,4314.230957,4288.974121,4279.102539,4282.307617,4332.820313,4398.846191,4298.077148,4281.153809,4477.179688,4509.358887,4350.128418,4414.230957,1671.000000,1.000000,24.000000,,,,0.000000,2.000000,2.000000,0.000000,4.000000,2.000000,2.000000,0.000000,0.000000,4.000000,4.000000,4.000000,4.000000,4.000000,4.000000,0.000000,,,,,,,,,,,,,,,,,,,,,,,,,,,,
1732157336.941172,1732157336.944012,110.000000,0.000000,4281.538574,4267.692383,4315.128418,4290.641113,4274.487305,4282.179688,4333.717773,4403.461426,4297.179688,4279.102539,4479.871582,4508.077148,4350.128418,4415.128418,1534.000000,1.000000,24.000000,,,,0.000000,2.000000,2.000000,0.000000,4.000000,2.000000,2.000000,0.000000,0.000000,4.000000,4.000000,4.000000,4.000000,4.000000,4.000000,0.000000,,,,,,,,,,,,,,,,,,,,,,,,,,,,
1732157336.948980,1732157336.951820,111.000000,0.000000,4280.384766,4269.743652,4317.820313,4294.102539,4281.794922,4281.153809,4335.256348,4406.538574,4296.410156,4278.717773,4476.794922,4506.794922,4352.436035,4411.153809,1569.000000,1.000000,24.000000,,,,0.000000,2.000000,2.000000,0.000000,4.000000,2.000000,2.000000,0.000000,0.000000,4.000000,4.000000,4.000000,4.000000,4.000000,4.000000,0.000000,,,,,,,,,,,,,,,,,,,,,,,,,,,,
1732157336.956788,1732157336.959529,112.000000,0.000000,4281.922852,4269.615234,4321.282227,4295.641113,4290.384766,4278.846191,4335.256348,4402.563965,4297.436035,4278.333496,4474.615234,4506.153809,4351.025879,4411.538574,1698.000000,1.000000,24.000000,,,,0.000000,2.000000,2.000000,0.000000,4.000000,2.000000,2.000000,0.000000,0.000000,4.000000,4.000000,4.000000,4.000000,4.000000,4.000000,0.000000,,,,,,,,,,,,,,,,,28.000000,0.000000,0.537430,0.494202,-0.522400,0.440491,1.001587,0.081065,-0.033207,-33.992981,46.192467,32.047661
1732157336.964597,1732157336.967337,113.000000,0.000000,4283.333496,4269.743652,4320.512695,4295.769043,4275.897461,4278.717773,4333.846191,4400.512695,4300.897461,4280.000000,4482.436035,4510.128418,4350.256348,4414.743652,1671.000000,1.000000,24.000000,,,,0.000000,2.000000,2.000000,0.000000,4.000000,2.000000,2.000000,0.000000,0.000000,4.000000,4.000000,4.000000,4.000000,4.000000,4.000000,0.000000,,,,,,,,,,,,,,,,,,,,,,,,,,,,
1732157336.972405,1732157336.974945,114.000000,0.000000,4282.051270,4272.051270,4318.333496,4295.641113,4258.461426,4280.769043,4335.256348,4400.256348,4302.179688,4282.436035,4490.512695,4514.615234,4355.384766,4416.153809,1534.000000,1.000000,24.000000,,,,0.000000,2.000000,2.000000,0.000000,4.000000,2.000000,2.000000,0.000000,0.000000,4.000000,4.000000,4.000000,4.000000,4.000000,4.000000,0.000000,,,,,,,,,,,,,,,,,,,,,,,,,,,,
1732157336.980213,1732157336.982754,115.000000,0.000000,4280.897461,4269.615234,4319.487305,4295.641113,4263.333496,4280.384766,4336.666504,4401.666504,4299.230957,4279.615234,4488.589844,4516.922852,4357.436035,4415.641113,1569.000000,1.000000,24.000000,,,,0.000000,2.000000,2.000000,0.000000,4.000000,2.000000,2.000000,0.000000,0.000000,4.000000,4.000000,4.000000,4.000000,4.000000,4.000000,0.000000,,,,,,,,,,,,,,,,,,,,,,,,,,,,
1732157336.988021,1732157336.990462,116.000000,0.000000,4287.179688,4267.563965,4319.871582,4295.512695,4275.641113,4280.000000,4331.666504,4404.615234,4300.000000,4275.897461,4486.025879,4519.102539,4352.563965,4414.487305,1698.000000,1.000000,24.000000,,,,0.000000,2.000000,2.000000,0.000000,4.000000,2.000000,2.000000,0.000000,0.000000,4.000000,4.000000,4.000000,4.000000,4.000000,4.000000,0.000000,,,,,,,,,,,,,,,,,29.000000,0.000000,0.538001,0.494141,-0.521973,0.440369,1.000122,0.101087,-0.026859,-34.047646,46.159229,32.125271
1732157336.995830,1732157336.998270,117.000000,0.000000,4293.077148,4270.128418,4320.512695,4296.922852,4276.410156,4281.282227,4326.282227,4403.589844,4301.538574,4277.692383,4485.128418,4521.282227,4349.743652,4414.743652,1671.000000,1.000000,24.000000,,,,0.000000,2.000000,2.000000,0.000000,4.000000,2.000000,2.000000,0.000000,0.000000,4.000000,4.000000,4.000000,4.000000,4.000000,4.000000,0.000000,,,,,,,,,,,,,,,,,,,,,,,,,,,,
1732157337.003638,1732157337.005878,118.000000,0.000000,4292.051270,4270.000000,4322.820313,4296.282227,4274.871582,4280.000000,4330.384766,4400.000000,4298.974121,4275.256348,4480.641113,4521.666504,4351.538574,4415.000000,1534.000000,1.000000,24.000000,,,,0.000000,2.000000,2.000000,0.000000,4.000000,2.000000,2.000000,0.000000,0.000000,4.000000,4.000000,4.000000,4.000000,4.000000,4.000000,0.000000,,,,,,,,,,,,,,,,,,,,,,,,,,,,
1732157337.011446,1732157337.013687,119.000000,0.000000,4291.153809,4265.512695,4323.461426,4296.410156,4278.077148,4279.871582,4336.282227,4399.230957,4294.487305,4265.000000,4478.077148,4522.436035,4350.897461,4413.589844,1569.000000,1.000000,24.000000,,,,0.000000,2.000000,2.000000,0.000000,4.000000,2.000000,2.000000,0.000000,0.000000,4.000000,4.000000,4.000000,4.000000,4.000000,4.000000,0.000000,,,,,,,,,,,,,,,,,,,,,,,,,,,,
1732157337.019254,1732157337.021395,120.000000,0.000000,4292.051270,4267.051270,4321.282227,4296.538574,4280.512695,4283.846191,4335.256348,4402.307617,4292.051270,4262.051270,4478.205078,4518.077148,4349.743652,4413.077148,1698.000000,1.000000,24.000000,,,,0.000000,2.000000,2.000000,0.000000,4.000000,2.000000,2.000000,0.000000,0.000000,4.000000,4.000000,4.000000,4.000000,4.000000,4.000000,0.000000,,,,,,,,,,,,,,,,,30.000000,0.000000,0.538001,0.494141,-0.521973,0.440369,0.999145,0.083506,-0.025394,-34.001926,46.102310,32.143135
1732157337.027063,1732157337.029203,121.000000,0.000000,4290.641113,4275.256348,4319.102539,4295.384766,4279.230957,4283.974121,4333.589844,4405.256348,4300.128418,4272.179688,4477.692383,4512.692383,4351.410156,4413.974121,1671.000000,1.000000,24.000000,,,,0.000000,2.000000,2.000000,0.000000,4.000000,2.000000,2.000000,0.000000,0.000000,4.000000,4.000000,4.000000,4.000000,4.000000,4.000000,0.000000,,,,,,,,,,,,,,,,,,,,,,,,,,,,
1732157337.034871,1732157337.036812,122.000000,0.000000,4290.000000,4277.948730,4322.051270,4296.410156,4278.461426,4282.563965,4335.769043,4403.205078,4308.717773,4279.743652,4480.512695,4515.897461,4351.538574,4413.461426,1534.000000,1.000000,24.000000,,,,0.000000,2.000000,2.000000,0.000000,4.000000,2.000000,2.000000,0.000000,0.000000,4.000000,4.000000,4.000000,4.000000,4.000000,4.000000,0.000000,,,,,,,,,,,,,,,,,,,,,,,,,,,,
1732157337.042679,1732157337.044620,123.000000,0.000000,4290.512695,4277.436035,4324.230957,4298.717773,4281.922852,4285.256348,4337.307617,4402.948730,4304.358887,4279.230957,4486.153809,4517.179688,4351.922852,4412.820313,1569.000000,1.000000,24.000000,,,,0.000000,2.000000,2.000000,0.000000,4.000000,2.000000,2.000000,0.000000,0.000000,4.000000,4.000000,4.000000,4.000000,4.000000,4.000000,0.000000,,,,,,,,,,,,,,,,,,,,,,,,,,,,
1732157337.050487,1732157337.052328,124.000000,0.000000,4287.820313,4277.179688,4322.948730,4298.589844,4280.256348,4284.358887,4336.025879,4407.948730,4296.153809,4276.794922,4483.974121,4514.743652,4350.641113,4412.692383,1698.000000,1.000000,24.000000,,,,0.000000,2.000000,2.000000,0.000000,4.000000,2.000000,2.000000,0.000000,0.000000,4.000000,4.000000,4.000000,4.000000,4.000000,4.000000,0.000000,,,,,,,,,,,,,,,,,31.000000,0.000000,0.537883,0.494324,-0.521973,0.440308,0.970822,0.084971,-0.028812,-34.508228,45.956203,32.274273
1732157337.058296,1732157337.060136,125.000000,0.000000,4286.666504,4276.153809,4321.794922,4296.794922,4276.282227,4277.948730,4335.769043,4409.358887,4294.871582,4275.769043,4477.051270,4515.897461,4345.256348,4411.794922,1671.000000,1.000000,24.000000,,,,0.000000,2.000000,2.000000,0.000000,4.000000,2.000000,2.000000,0.000000,0.000000,4.000000,4.000000,4.000000,4.000000,4.000000,4.000000,0.000000,,,,,,,,,,,,,,,,,,,,,,,,,,,,
1732157337.066104,1732157337.067745,126.000000,0.000000,4290.384766,4276.282227,4322.563965,4297.179688,4276.282227,4276.538574,4335.769043,4404.871582,4300.897461,4277.563965,4475.128418,4516.666504,4342.692383,4411.410156,1534.000000,1.000000,24.000000,,,,0.000000,2.000000,2.000000,0.000000,4.000000,2.000000,2.000000,0.000000,0.000000,4.000000,4.000000,4.000000,4.000000,4.000000,4.000000,0.000000,,,,,,,,,,,,,,,,,,,,,,,,,,,,
1732157337.073912,1732157337.075553,127.000000,0.000000,4292.820313,4277.692383,4321.794922,4297.307617,4276.410156,4277.179688,4333.717773,4406.153809,4303.205078,4278.333496,4476.410156,4518.077148,4344.487305,4412.563965,24.000000,1.000000,24.000000,,,,0.000000,2.000000,2.000000,0.000000,4.000000,2.000000,2.000000,0.000000,0.000000,4.000000,4.000000,4.000000,4.000000,4.000000,4.000000,0.000000,,,,,,,,,,,,,,,,,,,,,,,,,,,,
1732157337.081720,1732157337.083461,0.000000,0.000000,4291.025879,4276.922852,4322.051270,4297.179688,4272.307617,4278.077148,4334.487305,4410.897461,4297.692383,4277.051270,4478.205078,4522.051270,4345.256348,4412.948730,0.000000,1.000000,24.000000,,,,0.000000,2.000000,2.000000,0.000000,4.000000,2.000000,2.000000,0.000000,0.000000,4.000000,4.000000,4.000000,4.000000,4.000000,4.000000,0.000000,,,,,,,,,,,,,,,,,0.000000,0.000000,0.536643,0.495117,-0.521362,0.441650,0.968868,0.068856,-0.023929,-34.388332,45.849525,32.065495
1732157337.089529,1732157337.091269,1.000000,0.000000,4290.128418,4276.538574,4325.512695,4297.563965,4265.512695,4283.461426,4337.307617,4409.230957,4295.641113,4276.794922,4480.128418,4521.794922,4341.922852,4412.307617,1588.000000,1.000000,24.000000,,,,0.000000,2.000000,2.000000,0.000000,4.000000,2.000000,2.000000,0.000000,0.000000,4.000000,4.000000,4.000000,4.000000,4.000000,4.000000,0.000000,,,,,,,,,,,,,,,,,,,,,,,,,,,,
1732157337.097337,1732157337.098878,2.000000,0.000000,4291.922852,4278.205078,4326.538574,4296.153809,4263.461426,4284.615234,4336.410156,4404.358887,4299.871582,4279.615234,4478.077148,4520.128418,4341.282227,4412.563965,1382.000000,1.000000,24.000000,,,,0.000000,2.000000,2.000000,0.000000,4.000000,2.000000,2.000000,0.000000,0.000000,4.000000,4.000000,4.000000,4.000000,4.000000,4.000000,0.000000,,,,,,,,,,,,,,,,,,,,,,,,,,,,
1732157337.105145,1732157337.106686,3.000000,0.000000,4292.948730,4277.692383,4325.000000,4296.794922,4265.384766,4279.743652,4334.487305,4403.974121,4303.077148,4279.358887,4479.743652,4524.358887,4347.692383,4416.025879,1411.000000,1.000000,24.000000,,,,0.000000,2.000000,2.000000,0.000000,4.000000,2.000000,2.000000,0.000000,0.000000,4.000000,4.000000,4.000000,4.000000,4.000000,4.000000,0.000000,,,,,,,,,,,,,,,,,,,,,,,,,,,,
1732157337.112953,1732157337.114594,4.000000,0.000000,4293.077148,4277.179688,4325.128418,4299.358887,4262.820313,4278.333496,4336.025879,4405.512695,4302.179688,4277.179688,4487.948730,4525.000000,4348.974121,4418.589844,1411.000000,1.000000,24.000000,,,,0.000000,2.000000,2.000000,0.000000,4.000000,2.000000,2.000000,0.000000,0.000000,4.000000,4.000000,4.000000,4.000000,4.000000,4.000000,0.000000,,,,,,,,,,,,,,,,,1.000000,0.000000,0.536478,0.494934,-0.521240,0.442200,0.981565,0.069344,-0.032230,-34.282883,46.029781,32.129719
1732157337.120762,1732157337.122402,5.000000,0.000000,4293.461426,4278.589844,4325.897461,4298.589844,4263.461426,4280.128418,4337.179688,4405.000000,4299.487305,4280.769043,4487.051270,4524.358887,4345.000000,4416.538574,1229.000000,1.000000,24.000000,,,,0.000000,2.000000,2.000000,0.000000,4.000000,2.000000,2.000000,0.000000,0.000000,4.000000,4.000000,4.000000,4.000000,4.000000,4.000000,0.000000,,,,,,,,,,,,,,,,,,,,,,,,,,,,
1732157337.128570,1732157337.130410,6.000000,0.000000,4291.666504,4279.871582,4327.436035,4295.128418,4271.410156,4280.512695,4336.410156,4403.846191,4296.025879,4278.205078,4478.205078,4522.307617,4346.538574,4415.256348,0.000000,1.000000,24.000000,,,,0.000000,2.000000,2.000000,0.000000,4.000000,2.000000,2.000000,0.000000,0.000000,4.000000,4.000000,4.000000,4.000000,4.000000,4.000000,0.000000,,,,,,,,,,,,,,,,,,,,,,,,,,,,
1732157337.136378,1732157337.138218,7.000000,0.000000,4290.000000,4280.000000,4327.948730,4298.077148,4273.717773,4279.743652,4336.538574,4405.000000,4297.179688,4266.666504,4475.512695,4519.102539,4345.641113,4415.641113,0.000000,1.000000,24.000000,,,,0.000000,2.000000,2.000000,0.000000,4.000000,2.000000,2.000000,0.000000,0.000000,4.000000,4.000000,4.000000,4.000000,4.000000,4.000000,0.000000,,,,,,,,,,,,,,,,,,,,,,,,,,,,
1732157337.144186,1732157337.146127,8.000000,0.000000,4290.641113,4280.256348,4326.410156,4302.563965,4265.897461,4277.563965,4336.794922,4403.974121,4296.922852,4266.153809,4477.051270,4519.102539,4343.205078,4414.358887,1524.000000,1.000000,24.000000,,,,0.000000,2.000000,2.000000,0.000000,4.000000,2.000000,2.000000,0.000000,0.000000,4.000000,4.000000,4.000000,4.000000,4.000000,4.000000,0.000000,,,,,,,,,,,,,,,,,2.000000,0.000000,0.536478,0.494934,-0.521240,0.442200,0.992309,0.067879,-0.039556,-34.197468,46.250790,32.181736
1732157337.151995,1732157337.153935,9.000000,0.000000,4291.666504,4280.000000,4326.922852,4303.717773,4263.717773,4277.179688,4336.794922,4403.974121,4297.307617,4279.487305,4479.358887,4522.307617,4348.589844,4414.487305,1671.000000,1.000000,24.000000,,,,0.000000,2.000000,2.000000,0.000000,4.000000,2.000000,2.000000,0.000000,0.000000,4.000000,4.000000,4.000000,4.000000,4.000000,4.000000,0.000000,,,,,,,,,,,,,,,,,,,,,,,,,,,,
1732157337.159803,1732157337.161943,10.000000,0.000000,4291.410156,4279.871582,4326.410156,4306.410156,4271.282227,4278.205078,4336.666504,4405.384766,4304.230957,4281.794922,4481.025879,4523.333496,4351.538574,4415.128418,1531.000000,1.000000,24.000000,,,,0.000000,2.000000,2.000000,0.000000,4.000000,2.000000,2.000000,0.000000,0.000000,4.000000,4.000000,4.000000,4.000000,4.000000,4.000000,0.000000,,,,,,,,,,,,,,,,,,,,,,,,,,,,
1732157337.167611,1732157337.169751,11.000000,0.000000,4290.769043,4287.179688,4323.846191,4307.563965,4272.051270,4277.051270,4336.538574,4403.846191,4303.205078,4269.615234,4476.410156,4520.000000,4346.666504,4412.179688,1569.000000,1.000000,24.000000,,,,0.000000,2.000000,2.000000,0.000000,4.000000,2.000000,2.000000,0.000000,0.000000,4.000000,4.000000,4.000000,4.000000,4.000000,4.000000,0.000000,,,,,,,,,,,,,,,,,,,,,,,,,,,,
1732157337.175419,1732157337.177659,12.000000,0.000000,4291.410156,4294.230957,4321.538574,4304.487305,4262.948730,4278.077148,4336.922852,4401.538574,4296.410156,4265.128418,4472.820313,4518.205078,4347.307617,4411.025879,1698.000000,1.000000,24.000000,,,,0.000000,2.000000,2.000000,0.000000,4.000000,2.000000,2.000000,0.000000,0.000000,4.000000,4.000000,4.000000,4.000000,4.000000,4.000000,0.000000,,,,,,,,,,,,,,,,,3.000000,0.000000,0.535121,0.494873,-0.521240,0.443909,0.972775,0.059578,-0.030765,-34.226616,46.364807,32.080540
1732157337.183228,1732157337.185467,13.000000,0.000000,4293.974121,4289.487305,4320.641113,4301.794922,4270.128418,4279.230957,4335.897461,4402.307617,4295.128418,4267.820313,4475.641113,4519.743652,4352.307617,4414.871582,1668.000000,1.000000,24.000000,,,,0.000000,2.000000,2.000000,0.000000,4.000000,2.000000,2.000000,0.000000,0.000000,4.000000,4.000000,4.000000,4.000000,4.000000,4.000000,0.000000,,,,,,,,,,,,,,,,,,,,,,,,,,,,
1732157337.191036,1732157337.193475,14.000000,0.000000,4295.128418,4287.692383,4320.897461,4302.948730,4284.615234,4276.153809,4333.461426,4403.589844,4295.512695,4265.897461,4477.307617,4516.153809,4350.000000,4414.871582,1531.000000,1.000000,24.000000,,,,0.000000,2.000000,2.000000,0.000000,4.000000,2.000000,2.000000,0.000000,0.000000,4.000000,4.000000,4.000000,4.000000,4.000000,4.000000,0.000000,1.000000,0.000000,2.000000,2.000000,0.000000,4.000000,2.000000,1.000000,0.000000,0.000000,4.000000,4.000000,4.000000,4.000000,4.000000,4.000000,,,,,,,,,,,,
1732157337.198844,1732157337.201284,15.000000,0.000000,4294.487305,4291.538574,4322.051270,4304.871582,4271.282227,4276.538574,4333.461426,4404.358887,4299.743652,4263.461426,4476.538574,4513.461426,4343.589844,4411.282227,1569.000000,1.000000,24.000000,,,,0.000000,2.000000,2.000000,0.000000,4.000000,2.000000,2.000000,0.000000,0.000000,4.000000,4.000000,4.000000,4.000000,4.000000,4.000000,0.000000,,,,,,,,,,,,,,,,,,,,,,,,,,,,
1732157337.206652,1732157337.208992,16.000000,0.000000,4295.000000,4285.769043,4320.128418,4303.589844,4252.179688,4279.871582,4335.128418,4405.384766,4305.641113,4266.025879,4475.769043,4514.871582,4340.897461,4410.128418,0.000000,1.000000,24.000000,,,,0.000000,2.000000,2.000000,0.000000,4.000000,2.000000,2.000000,0.000000,0.000000,4.000000,4.000000,4.000000,4.000000,4.000000,4.000000,0.000000,,,,,,,,,,,,,,,,,4.000000,0.000000,0.533288,0.494995,-0.521179,0.446045,0.975705,0.039067,-0.034672,-34.226891,46.383827,31.988571
1732157337.214460,1732157337.216800,17.000000,0.000000,4296.282227,4279.487305,4316.666504,4300.000000,4256.410156,4279.487305,4334.102539,4402.563965,4301.538574,4266.922852,4474.102539,4511.538574,4344.358887,4411.410156,0.000000,1.000000,24.000000,,,,0.000000,2.000000,2.000000,0.000000,4.000000,2.000000,2.000000,0.000000,0.000000,4.000000,4.000000,4.000000,4.000000,4.000000,4.000000,0.000000,,,,,,,,,,,,,,,,,,,,,,,,,,,,
1732157337.222269,1732157337.224808,18.000000,0.000000,4294.871582,4281.666504,4324.743652,4296.153809,4260.256348,4277.051270,4335.256348,4402.948730,4296.410156,4264.487305,4473.846191,4503.974121,4345.000000,4412.307617,0.000000,1.000000,24.000000,,,,0.000000,2.000000,2.000000,0.000000,4.000000,2.000000,2.000000,0.000000,0.000000,4.000000,4.000000,4.000000,4.000000,4.000000,4.000000,0.000000,,,,,,,,,,,,,,,,,,,,,,,,,,,,
1732157337.230077,1732157337.232616,19.000000,0.000000,4291.794922,4282.820313,4346.025879,4295.128418,4257.692383,4276.794922,4340.769043,4410.897461,4296.153809,4265.000000,4474.487305,4507.051270,4340.128418,4412.436035,0.000000,1.000000,24.000000,,,,0.000000,2.000000,2.000000,0.000000,4.000000,2.000000,2.000000,0.000000,0.000000,4.000000,4.000000,4.000000,4.000000,4.000000,4.000000,0.000000,,,,,,,,,,,,,,,,,,,,,,,,,,,,
1732157337.237885,1732157337.240524,20.000000,0.000000,4293.846191,4281.025879,4357.051270,4296.410156,4263.077148,4278.077148,4343.205078,4414.102539,4286.153809,4259.487305,4469.102539,4513.974121,4339.487305,4412.436035,0.000000,1.000000,24.000000,,,,0.000000,2.000000,2.000000,0.000000,4.000000,2.000000,2.000000,0.000000,0.000000,4.000000,4.000000,4.000000,4.000000,4.000000,4.000000,0.000000,,,,,,,,,,,,,,,,,5.000000,0.000000,0.531720,0.494385,-0.521790,0.447876,0.980588,0.027835,-0.028812,-34.218781,46.229233,31.975742
1732157337.245694,1732157337.248333,21.000000,0.000000,4296.153809,4282.563965,4339.743652,4296.666504,4267.307617,4281.538574,4338.846191,4408.589844,4285.256348,4257.307617,4465.128418,4510.384766,4340.641113,4411.794922,0.000000,1.000000,24.000000,,,,0.000000,2.000000,2.000000,0.000000,4.000000,2.000000,2.000000,0.000000,0.000000,4.000000,4.000000,4.000000,4.000000,4.000000,4.000000,0.000000,,,,,,,,,,,,,,,,,,,,,,,,,,,,
1732157337.253502,1732157337.256341,22.000000,0.000000,4288.461426,4281.922852,4319.230957,4294.615234,4265.769043,4283.846191,4335.512695,4403.077148,4301.282227,4267.051270,4470.641113,4506.666504,4341.153809,4411.153809,0.000000,1.000000,24.000000,,,,0.000000,2.000000,2.000000,0.000000,4.000000,2.000000,2.000000,0.000000,0.000000,4.000000,4.000000,4.000000,4.000000,4.000000,4.000000,0.000000,,,,,,,,,,,,,,,,,,,,,,,,,,,,
1732157337.261310,1732157337.264149,23.000000,0.000000,4283.589844,4280.897461,4315.512695,4297.051270,4267.692383,4281.153809,4334.871582,4402.051270,4302.051270,4270.384766,4475.769043,4509.358887,4345.000000,4411.922852,0.000000,1.000000,24.000000,,,,0.000000,2.000000,2.000000,0.000000,4.000000,2.000000,2.000000,0.000000,0.000000,4.000000,4.000000,4.000000,4.000000,4.000000,4.000000,0.000000,,,,,,,,,,,,,,,,,,,,,,,,,,,,
1732157337.269118,1732157337.272057,24.000000,0.000000,4289.358887,4282.563965,4315.256348,4300.641113,4266.922852,4277.307617,4334.230957,4403.333496,4294.487305,4269.102539,4476.153809,4510.128418,4348.846191,4413.077148,0.000000,1.000000,24.000000,,,,0.000000,2.000000,2.000000,0.000000,4.000000,2.000000,2.000000,0.000000,0.000000,4.000000,4.000000,4.000000,4.000000,4.000000,4.000000,0.000000,,,,,,,,,,,,,,,,,6.000000,0.000000,0.531720,0.494385,-0.521790,0.447876,0.980588,0.027835,-0.028812,-34.227215,46.014011,31.905352
1732157337.276926,1732157337.279865,25.000000,0.000000,4293.077148,4280.769043,4311.794922,4295.641113,4265.000000,4276.794922,4333.974121,4402.563965,4301.538574,4280.128418,4478.461426,4507.436035,4351.025879,4412.179688,0.000000,1.000000,24.000000,,,,0.000000,2.000000,2.000000,0.000000,4.000000,2.000000,2.000000,0.000000,0.000000,4.000000,4.000000,4.000000,4.000000,4.000000,4.000000,0.000000,,,,,,,,,,,,,,,,,,,,,,,,,,,,
1732157337.284735,1732157337.287473,26.000000,0.000000,4291.282227,4280.384766,4313.717773,4294.615234,4265.384766,4279.615234,4333.461426,4400.641113,4304.102539,4284.230957,4479.230957,4509.871582,4350.897461,4412.436035,0.000000,1.000000,24.000000,,,,0.000000,2.000000,2.000000,0.000000,4.000000,2.000000,2.000000,0.000000,0.000000,4.000000,4.000000,4.000000,4.000000,4.000000,4.000000,0.000000,,,,,,,,,,,,,,,,,,,,,,,,,,,,
1732157337.292543,1732157337.295282,27.000000,0.000000,4291.922852,4284.487305,4315.512695,4303.589844,4267.948730,4281.410156,4332.820313,4404.487305,4294.230957,4268.974121,4473.974121,4513.846191,4347.051270,4412.307617,0.000000,1.000000,24.000000,,,,0.000000,2.000000,2.000000,0.000000,4.000000,2.000000,2.000000,0.000000,0.000000,4.000000,4.000000,4.000000,4.000000,4.000000,4.000000,0.000000,,,,,,,,,,,,,,,,,,,,,,,,,,,,
1732157337.300351,1732157337.302990,28.000000,0.000000,4293.974121,4287.307617,4313.846191,4306.666504,4273.974121,4282.307617,4333.846191,4406.922852,4294.230957,4263.077148,4472.307617,4510.641113,4343.205078,4410.384766,0.000000,1.000000,24.000000,,,,0.000000,2.000000,2.000000,0.000000,4.000000,2.000000,2.000000,0.000000,0.000000,4.000000,4.000000,4.000000,4.000000,4.000000,4.000000,0.000000,,,,,,,,,,,,,,,,,7.000000,0.000000,0.530314,0.493164,-0.523010,0.449463,0.980588,0.031742,-0.028812,-34.405708,45.946350,31.930002
1732157337.308159,1732157337.310798,29.000000,0.000000,4292.051270,4287.051270,4314.358887,4302.948730,4276.025879,4281.794922,4335.512695,4400.641113,4298.717773,4268.333496,4472.948730,4506.538574,4343.461426,4409.743652,0.000000,1.000000,24.000000,,,,0.000000,2.000000,2.000000,0.000000,4.000000,2.000000,2.000000,0.000000,0.000000,4.000000,4.000000,4.000000,4.000000,4.000000,4.000000,0.000000,,,,,,,,,,,,,,,,,,,,,,,,,,,,
1732157337.315968,1732157337.318407,30.000000,0.000000,4288.589844,4285.897461,4314.615234,4303.974121,4270.641113,4280.897461,4334.871582,4398.589844,4298.077148,4266.025879,4470.384766,4506.410156,4343.077148,4410.256348,0.000000,1.000000,24.000000,,,,0.000000,2.000000,2.000000,0.000000,4.000000,2.000000,2.000000,0.000000,0.000000,4.000000,4.000000,4.000000,4.000000,4.000000,4.000000,0.000000,,,,,,,,,,,,,,,,,,,,,,,,,,,,
1732157337.323776,1732157337.326215,31.000000,0.000000,4288.077148,4285.641113,4314.743652,4304.358887,4264.743652,4280.000000,4333.717773,4403.846191,4297.307617,4263.974121,4469.871582,4507.436035,4342.179688,4409.615234,0.000000,1.000000,24.000000,,,,0.000000,2.000000,2.000000,0.000000,4.000000,2.000000,2.000000,0.000000,0.000000,4.000000,4.000000,4.000000,4.000000,4.000000,4.000000,0.000000,,,,,,,,,,,,,,,,,,,,,,,,,,,,
1732157337.331584,1732157337.333923,32.000000,0.000000,4293.333496,4286.025879,4317.179688,4300.512695,4264.102539,4274.871582,4334.358887,4405.769043,4299.487305,4267.307617,4473.589844,4508.205078,4345.128418,4410.769043,0.000000,1.000000,24.000000,,,,0.000000,2.000000,2.000000,0.000000,4.000000,2.000000,2.000000,0.000000,0.000000,4.000000,4.000000,4.000000,4.000000,4.000000,4.000000,0.000000,,,,,,,,,,,,,,,,,8.000000,0.000000,0.529932,0.492676,-0.523438,0.449951,0.984495,0.046881,-0.026370,-34.433624,45.844875,31.969969
1732157337.339393,1732157337.341731,33.000000,0.000000,4296.538574,4289.615234,4316.666504,4301.666504,4266.282227,4275.384766,4334.102539,4403.717773,4297.563965,4267.820313,4475.641113,4509.102539,4345.769043,4413.077148,0.000000,1.000000,24.000000,,,,0.000000,2.000000,2.000000,0.000000,4.000000,2.000000,2.000000,0.000000,0.000000,4.000000,4.000000,4.000000,4.000000,4.000000,4.000000,0.000000,,,,,,,,,,,,,,,,,,,,,,,,,,,,
1732157337.347201,1732157337.349340,34.000000,0.000000,4294.615234,4291.666504,4313.589844,4306.666504,4265.897461,4276.025879,4333.205078,4399.743652,4286.922852,4261.282227,4472.179688,4507.820313,4340.897461,4413.205078,0.000000,1.000000,24.000000,,,,0.000000,2.000000,2.000000,0.000000,4.000000,2.000000,2.000000,0.000000,0.000000,4.000000,4.000000,4.000000,4.000000,4.000000,4.000000,0.000000,,,,,,,,,,,,,,,,,,,,,,,,,,,,
1732157337.355009,1732157337.357148,35.000000,0.000000,4295.384766,4291.538574,4313.589844,4308.717773,4263.589844,4272.307617,4332.820313,4397.307617,4283.589844,4258.077148,4470.897461,4506.666504,4341.794922,4414.102539,0.000000,1.000000,24.000000,,,,0.000000,2.000000,2.000000,0.000000,4.000000,2.000000,2.000000,0.000000,0.000000,4.000000,4.000000,4.000000,4.000000,4.000000,4.000000,0.000000,,,,,,,,,,,,,,,,,,,,,,,,,,,,
1732157337.362817,1732157337.364856,36.000000,0.000000,4297.307617,4292.692383,4315.000000,4308.461426,4264.871582,4272.820313,4334.615234,4399.871582,4294.871582,4264.230957,4474.871582,4509.358887,4348.717773,4416.538574,0.000000,1.000000,24.000000,,,,0.000000,2.000000,2.000000,0.000000,4.000000,2.000000,2.000000,0.000000,0.000000,4.000000,4.000000,4.000000,4.000000,4.000000,4.000000,0.000000,,,,,,,,,,,,,,,,,9.000000,0.000000,0.529819,0.492371,-0.523682,0.450134,0.984495,0.046881,-0.026370,-34.542904,45.947685,31.954008
1732157337.370625,1732157337.372665,37.000000,0.000000,4296.794922,4293.205078,4313.461426,4304.615234,4267.820313,4274.487305,4335.384766,4402.820313,4300.641113,4269.230957,4476.153809,4509.487305,4351.153809,4417.179688,0.000000,1.000000,24.000000,,,,0.000000,2.000000,2.000000,0.000000,4.000000,2.000000,2.000000,0.000000,0.000000,4.000000,4.000000,4.000000,4.000000,4.000000,4.000000,0.000000,,,,,,,,,,,,,,,,,,,,,,,,,,,,
1732157337.378434,1732157337.380273,38.000000,0.000000,4295.384766,4292.948730,4313.461426,4297.820313,4267.307617,4270.512695,4334.102539,4403.333496,4295.256348,4266.153809,4473.717773,4505.256348,4350.384766,4417.692383,0.000000,1.000000,24.000000,,,,0.000000,2.000000,2.000000,0.000000,4.000000,2.000000,2.000000,0.000000,0.000000,4.000000,4.000000,4.000000,4.000000,4.000000,4.000000,0.000000,,,,,,,,,,,,,,,,,,,,,,,,,,,,
1732157337.386242,1732157337.388081,39.000000,0.000000,4294.487305,4291.153809,4315.512695,4296.282227,4265.769043,4272.692383,4334.871582,4403.461426,4292.692383,4263.333496,4474.358887,4504.871582,4351.922852,4417.820313,0.000000,1.000000,24.000000,,,,0.000000,2.000000,2.000000,0.000000,4.000000,2.000000,2.000000,0.000000,0.000000,4.000000,4.000000,4.000000,4.000000,4.000000,4.000000,0.000000,,,,,,,,,,,,,,,,,,,,,,,,,,,,
1732157337.394050,1732157337.395789,40.000000,0.000000,4296.538574,4292.307617,4314.615234,4303.717773,4267.692383,4279.358887,4333.717773,4401.282227,4289.743652,4263.333496,4473.974121,4502.820313,4353.077148,4418.461426,0.000000,1.000000,24.000000,,,,0.000000,2.000000,2.000000,0.000000,4.000000,2.000000,2.000000,0.000000,0.000000,4.000000,4.000000,4.000000,4.000000,4.000000,4.000000,0.000000,,,,,,,,,,,,,,,,,10.000000,0.000000,0.530075,0.490662,-0.525024,0.450134,0.983030,0.050787,-0.035161,-34.691418,46.020958,32.089413
1732157337.401858,1732157337.403598,41.000000,0.000000,4297.051270,4296.538574,4313.717773,4308.333496,4268.333496,4271.153809,4329.358887,4397.436035,4284.615234,4263.077148,4469.871582,4499.230957,4355.897461,4421.410156,0.000000,1.000000,24.000000,,,,0.000000,2.000000,2.000000,0.000000,4.000000,2.000000,2.000000,0.000000,0.000000,4.000000,4.000000,4.000000,4.000000,4.000000,4.000000,0.000000,,,,,,,,,,,,,,,,,,,,,,,,,,,,
1732157337.409667,1732157337.411206,42.000000,0.000000,4293.974121,4296.538574,4314.102539,4303.205078,4267.051270,4264.743652,4330.512695,4398.205078,4286.538574,4265.128418,4470.128418,4502.307617,4361.794922,4426.794922,0.000000,1.000000,24.000000,,,,0.000000,2.000000,2.000000,0.000000,4.000000,2.000000,2.000000,0.000000,0.000000,4.000000,4.000000,4.000000,4.000000,4.000000,4.000000,0.000000,,,,,,,,,,,,,,,,,,,,,,,,,,,,
1732157337.417475,1732157337.419014,43.000000,0.000000,4297.307617,4293.205078,4314.102539,4299.102539,4267.948730,4276.282227,4334.358887,4401.410156,4290.512695,4265.512695,4475.128418,4505.256348,4363.846191,4428.717773,0.000000,1.000000,24.000000,,,,0.000000,2.000000,2.000000,0.000000,4.000000,2.000000,2.000000,0.000000,0.000000,4.000000,4.000000,4.000000,4.000000,4.000000,4.000000,0.000000,,,,,,,,,,,,,,,,,,,,,,,,,,,,
1732157337.425283,1732157337.426723,44.000000,0.000000,4301.922852,4294.487305,4313.205078,4300.512695,4267.820313,4281.538574,4331.025879,4400.000000,4289.487305,4267.563965,4473.846191,4504.102539,4362.563965,4424.102539,0.000000,1.000000,24.000000,,,,0.000000,2.000000,2.000000,0.000000,4.000000,2.000000,2.000000,0.000000,0.000000,4.000000,4.000000,4.000000,4.000000,4.000000,4.000000,0.000000,,,,,,,,,,,,,,,,,11.000000,0.000000,0.530142,0.490234,-0.525513,0.449951,0.981077,0.053229,-0.018557,-34.695049,46.146976,32.182423
1732157337.433091,1732157337.434531,45.000000,0.000000,4299.743652,4298.205078,4312.692383,4301.282227,4264.487305,4270.769043,4325.641113,4400.000000,4289.358887,4276.153809,4470.897461,4503.461426,4368.846191,4423.333496,0.000000,1.000000,24.000000,,,,0.000000,2.000000,2.000000,0.000000,4.000000,2.000000,2.000000,0.000000,0.000000,4.000000,4.000000,4.000000,4.000000,4.000000,4.000000,0.000000,,,,,,,,,,,,,,,,,,,,,,,,,,,,
1732157337.440900,1732157337.442139,46.000000,0.000000,4297.563965,4295.512695,4311.153809,4295.384766,4261.922852,4261.282227,4325.384766,4402.436035,4293.717773,4282.179688,4476.282227,4503.205078,4379.743652,4426.794922,0.000000,1.000000,24.000000,,,,0.000000,2.000000,2.000000,0.000000,4.000000,2.000000,2.000000,0.000000,0.000000,4.000000,4.000000,4.000000,4.000000,4.000000,4.000000,0.000000,,,,,,,,,,,,,,,,,,,,,,,,,,,,
1732157337.448708,1732157337.449947,47.000000,0.000000,4305.512695,4295.128418,4311.538574,4294.102539,4262.051270,4265.128418,4328.205078,4399.743652,4290.128418,4281.025879,4480.769043,4503.974121,4385.769043,4429.615234,0.000000,1.000000,24.000000,,,,0.000000,2.000000,2.000000,0.000000,4.000000,2.000000,2.000000,0.000000,0.000000,4.000000,4.000000,4.000000,4.000000,4.000000,4.000000,0.000000,,,,,,,,,,,,,,,,,,,,,,,,,,,,
1732157337.456516,1732157337.457656,48.000000,0.000000,4316.922852,4300.897461,4314.615234,4303.589844,4262.948730,4266.922852,4330.897461,4396.410156,4280.769043,4277.948730,4476.794922,4500.128418,4384.230957,4436.282227,0.000000,1.000000,24.000000,,,,0.000000,2.000000,2.000000,0.000000,4.000000,2.000000,2.000000,0.000000,0.000000,4.000000,4.000000,4.000000,4.000000,4.000000,4.000000,0.000000,,,,,,,,,,,,,,,,,12.000000,0.000000,0.530250,0.490173,-0.525513,0.449890,0.983518,0.051764,-0.032230,-34.562988,45.992382,32.147762
1732157337.464324,1732157337.465464,49.000000,0.000000,4318.205078,4301.538574,4314.487305,4305.769043,4262.820313,4263.846191,4327.948730,4399.871582,4278.589844,4274.487305,4475.000000,4492.948730,4381.794922,4444.743652,0.000000,1.000000,24.000000,,,,0.000000,2.000000,2.000000,0.000000,4.000000,2.000000,2.000000,0.000000,0.000000,4.000000,4.000000,4.000000,4.000000,4.000000,4.000000,0.000000,,,,,,,,,,,,,,,,,,,,,,,,,,,,
1732157337.472133,1732157337.473072,50.000000,0.000000,4316.153809,4297.948730,4310.769043,4299.871582,4262.179688,4263.846191,4325.641113,4402.179688,4280.000000,4274.743652,4476.538574,4498.077148,4382.948730,4445.128418,0.000000,1.000000,24.000000,,,,0.000000,2.000000,2.000000,0.000000,4.000000,2.000000,2.000000,0.000000,0.000000,4.000000,4.000000,4.000000,4.000000,4.000000,4.000000,0.000000,,,,,,,,,,,,,,,,,,,,,,,,,,,,
1732157337.479941,1732157337.480881,51.000000,0.000000,4325.512695,4300.897461,4311.794922,4300.384766,4256.922852,4262.820313,4330.128418,4398.205078,4281.538574,4275.000000,4477.820313,4508.333496,4386.922852,4446.025879,0.000000,1.000000,24.000000,,,,0.000000,2.000000,2.000000,0.000000,4.000000,2.000000,2.000000,0.000000,0.000000,4.000000,4.000000,4.000000,4.000000,4.000000,4.000000,0.000000,,,,,,,,,,,,,,,,,,,,,,,,,,,,
1732157337.487749,1732157337.488789,52.000000,0.000000,4337.307617,4308.589844,4315.128418,4306.538574,4255.256348,4260.384766,4330.641113,4397.820313,4276.666504,4267.179688,4483.333496,4506.153809,4389.743652,4457.179688,0.000000,1.000000,24.000000,,,,0.000000,2.000000,2.000000,0.000000,4.000000,2.000000,2.000000,0.000000,0.000000,4.000000,4.000000,4.000000,4.000000,4.000000,4.000000,0.000000,,,,,,,,,,,,,,,,,13.000000,0.000000,0.530453,0.490112,-0.525574,0.449646,0.984495,0.049811,-0.026859,-34.582687,46.057163,32.309689
1732157337.495557,1732157337.496597,53.000000,0.000000,4335.641113,4311.666504,4314.102539,4310.128418,4258.333496,4258.205078,4326.794922,4400.897461,4266.666504,4262.179688,4488.974121,4509.487305,4389.615234,4462.948730,0.000000,1.000000,24.000000,,,,0.000000,2.000000,2.000000,0.000000,4.000000,2.000000,2.000000,0.000000,0.000000,4.000000,4.000000,4.000000,4.000000,4.000000,4.000000,0.000000,,,,,,,,,,,,,,,,,,,,,,,,,,,,
1732157337.503366,1732157337.504205,54.000000,0.000000,4333.846191,4312.051270,4313.333496,4308.461426,4259.743652,4255.641113,4327.051270,4401.282227,4263.717773,4266.153809,4489.871582,4523.717773,4393.717773,4461.410156,0.000000,1.000000,24.000000,,,,0.000000,2.000000,2.000000,0.000000,4.000000,2.000000,2.000000,0.000000,0.000000,4.000000,4.000000,4.000000,4.000000,4.000000,4.000000,0.000000,,,,,,,,,,,,,,,,,,,,,,,,,,,,
1732157337.511174,1732157337.512013,55.000000,0.000000,4341.538574,4313.333496,4313.717773,4306.794922,4268.205078,4257.179688,4328.846191,4401.153809,4271.410156,4265.897461,4490.769043,4524.358887,4399.615234,4462.436035,0.000000,1.000000,24.000000,,,,0.000000,2.000000,2.000000,0.000000,4.000000,2.000000,2.000000,0.000000,0.000000,4.000000,4.000000,4.000000,4.000000,4.000000,4.000000,0.000000,,,,,,,,,,,,,,,,,,,,,,,,,,,,
1732157337.518982,1732157337.519722,56.000000,0.000000,4344.358887,4313.205078,4312.820313,4308.717773,4270.384766,4258.717773,4327.436035,4401.794922,4276.153809,4267.179688,4489.358887,4519.358887,4397.692383,4463.717773,0.000000,1.000000,24.000000,,,,0.000000,2.000000,2.000000,0.000000,4.000000,2.000000,2.000000,0.000000,0.000000,4.000000,4.000000,4.000000,4.000000,4.000000,4.000000,0.000000,,,,,,,,,,,,,,,,,14.000000,0.000000,0.529794,0.490601,-0.525574,0.449890,0.986449,0.052741,-0.036626,-34.746979,46.094635,32.100849
1732157337.526790,1732157337.527530,57.000000,0.000000,4343.077148,4314.615234,4313.077148,4310.769043,4252.692383,4252.179688,4326.666504,4402.307617,4277.307617,4274.871582,4487.436035,4522.563965,4394.230957,4466.153809,0.000000,1.000000,24.000000,,,,0.000000,2.000000,2.000000,0.000000,4.000000,2.000000,2.000000,0.000000,0.000000,4.000000,4.000000,4.000000,4.000000,4.000000,4.000000,0.000000,,,,,,,,,,,,,,,,,,,,,,,,,,,,
1732157337.534598,1732157337.535538,58.000000,0.000000,4343.589844,4317.051270,4314.743652,4308.846191,4242.307617,4248.077148,4326.794922,4402.307617,4280.128418,4276.538574,4489.358887,4524.743652,4398.205078,4471.794922,0.000000,1.000000,24.000000,,,,0.000000,2.000000,2.000000,0.000000,4.000000,2.000000,2.000000,0.000000,0.000000,4.000000,4.000000,4.000000,4.000000,4.000000,4.000000,0.000000,,,,,,,,,,,,,,,,,,,,,,,,,,,,
1732157337.542407,1732157337.543346,59.000000,0.000000,4343.846191,4317.436035,4314.102539,4307.563965,4250.641113,4255.384766,4326.153809,4401.282227,4282.436035,4275.769043,4489.871582,4523.077148,4401.153809,4473.846191,0.000000,1.000000,24.000000,,,,0.000000,2.000000,2.000000,0.000000,4.000000,2.000000,2.000000,0.000000,0.000000,4.000000,4.000000,4.000000,4.000000,4.000000,4.000000,0.000000,,,,,,,,,,,,,,,,,,,,,,,,,,,,
1732157337.550215,1732157337.551254,60.000000,0.000000,4342.948730,4314.102539,4313.717773,4303.589844,4252.820313,4259.743652,4325.897461,4400.897461,4281.282227,4278.333496,4489.358887,4524.230957,4398.333496,4471.666504,0.000000,1.000000,24.000000,,,,0.000000,2.000000,2.000000,0.000000,4.000000,2.000000,2.000000,0.000000,0.000000,4.000000,4.000000,4.000000,4.000000,4.000000,4.000000,0.000000,,,,,,,,,,,,,,,,,15.000000,0.000000,0.529296,0.490784,-0.525696,0.450134,0.976193,0.064949,-0.032719,-34.868385,46.073322,31.863354
1732157337.558023,1732157337.559063,61.000000,0.000000,4342.179688,4311.538574,4314.102539,4300.897461,4250.128418,4258.205078,4326.410156,4403.333496,4277.179688,4277.820313,4494.230957,4527.179688,4398.333496,4473.589844,0.000000,1.000000,24.000000,,,,0.000000,2.000000,2.000000,0.000000,4.000000,2.000000,2.000000,0.000000,0.000000,4.000000,4.000000,4.000000,4.000000,4.000000,4.000000,0.000000,,,,,,,,,,,,,,,,,,,,,,,,,,,,
1732157337.565832,1732157337.567071,62.000000,0.000000,4342.692383,4312.051270,4313.717773,4306.922852,4257.948730,4260.641113,4325.769043,4405.769043,4276.153809,4275.897461,4494.743652,4527.051270,4400.512695,4473.589844,0.000000,1.000000,24.000000,,,,0.000000,2.000000,2.000000,0.000000,4.000000,2.000000,2.000000,0.000000,0.000000,4.000000,4.000000,4.000000,4.000000,4.000000,4.000000,0.000000,,,,,,,,,,,,,,,,,,,,,,,,,,,,
1732157337.573640,1732157337.574879,63.000000,0.000000,4340.256348,4311.282227,4313.589844,4307.948730,4269.615234,4261.538574,4324.871582,4402.948730,4276.282227,4277.051270,4491.794922,4522.563965,4400.000000,4470.256348,0.000000,1.000000,24.000000,,,,0.000000,2.000000,2.000000,0.000000,4.000000,2.000000,2.000000,0.000000,0.000000,4.000000,4.000000,4.000000,4.000000,4.000000,4.000000,0.000000,,,,,,,,,,,,,,,,,,,,,,,,,,,,
1732157337.581448,1732157337.582787,64.000000,0.000000,4338.589844,4310.000000,4315.256348,4303.846191,4269.487305,4260.000000,4326.153809,4398.077148,4275.512695,4277.820313,4497.692383,4523.077148,4398.974121,4474.487305,0.000000,1.000000,24.000000,,,,0.000000,2.000000,2.000000,0.000000,4.000000,2.000000,2.000000,0.000000,0.000000,4.000000,4.000000,4.000000,4.000000,4.000000,4.000000,0.000000,,,,,,,,,,,,,,,,,16.000000,0.000000,0.529070,0.490906,-0.525757,0.450195,0.988402,0.045416,-0.048346,-34.620060,45.932724,31.700983
1732157337.589256,1732157337.590595,65.000000,0.000000,4343.846191,4310.897461,4315.512695,4308.589844,4254.358887,4262.692383,4328.589844,4397.436035,4277.307617,4279.358887,4505.512695,4535.000000,4398.846191,4481.666504,1589.000000,1.000000,24.000000,,,,0.000000,2.000000,2.000000,0.000000,4.000000,2.000000,2.000000,0.000000,0.000000,4.000000,4.000000,4.000000,4.000000,4.000000,4.000000,0.000000,,,,,,,,,,,,,,,,,,,,,,,,,,,,
1732157337.597065,1732157337.598603,66.000000,0.000000,4347.051270,4312.179688,4314.487305,4311.410156,4242.948730,4260.512695,4327.307617,4399.487305,4279.871582,4282.948730,4505.128418,4542.051270,4399.358887,4479.871582,1382.000000,1.000000,24.000000,,,,0.000000,2.000000,2.000000,0.000000,4.000000,2.000000,2.000000,0.000000,0.000000,4.000000,4.000000,4.000000,4.000000,4.000000,4.000000,0.000000,,,,,,,,,,,,,,,,,,,,,,,,,,,,
1732157337.604873,1732157337.606411,67.000000,0.000000,4344.230957,4311.666504,4314.871582,4306.922852,4247.179688,4252.948730,4326.025879,4399.743652,4279.615234,4283.333496,4501.282227,4536.410156,4397.307617,4476.153809,1411.000000,1.000000,24.000000,,,,0.000000,2.000000,2.000000,0.000000,4.000000,2.000000,2.000000,0.000000,0.000000,4.000000,4.000000,4.000000,4.000000,4.000000,4.000000,0.000000,,,,,,,,,,,,,,,,,,,,,,,,,,,,
1732157337.612681,1732157337.614319,68.000000,0.000000,4342.179688,4310.256348,4316.025879,4306.666504,4252.179688,4254.615234,4326.025879,4401.153809,4277.692383,4279.615234,4502.436035,4534.230957,4391.922852,4478.205078,1409.000000,1.000000,24.000000,,,,0.000000,2.000000,2.000000,0.000000,4.000000,2.000000,2.000000,0.000000,0.000000,4.000000,4.000000,4.000000,4.000000,4.000000,4.000000,0.000000,,,,,,,,,,,,,,,,,17.000000,0.000000,0.528233,0.490967,-0.526123,0.450684,0.980100,0.041509,-0.036137,-34.622246,45.948841,31.786129
1732157337.620489,1732157337.622128,69.000000,0.000000,4343.717773,4308.717773,4314.487305,4308.589844,4248.461426,4260.000000,4326.025879,4402.436035,4281.538574,4281.153809,4505.128418,4536.410156,4389.102539,4479.743652,1222.000000,1.000000,24.000000,,,,0.000000,2.000000,2.000000,0.000000,4.000000,2.000000,2.000000,0.000000,0.000000,4.000000,4.000000,4.000000,4.000000,4.000000,4.000000,0.000000,,,,,,,,,,,,,,,,,,,,,,,,,,,,
1732157337.628297,1732157337.630136,70.000000,0.000000,4348.077148,4310.512695,4312.948730,4309.743652,4256.282227,4259.230957,4326.410156,4401.410156,4288.717773,4289.743652,4503.461426,4535.769043,4393.589844,4479.230957,0.000000,1.000000,24.000000,,,,0.000000,2.000000,2.000000,0.000000,4.000000,2.000000,2.000000,0.000000,0.000000,4.000000,4.000000,4.000000,4.000000,4.000000,4.000000,0.000000,,,,,,,,,,,,,,,,,,,,,,,,,,,,
1732157337.636106,1732157337.637944,71.000000,0.000000,4350.641113,4314.358887,4316.153809,4311.666504,4274.358887,4258.717773,4325.769043,4400.384766,4286.538574,4291.410156,4503.846191,4538.461426,4399.230957,4478.589844,0.000000,1.000000,24.000000,,,,0.000000,2.000000,2.000000,0.000000,4.000000,2.000000,2.000000,0.000000,0.000000,4.000000,4.000000,4.000000,4.000000,4.000000,4.000000,0.000000,,,,,,,,,,,,,,,,,,,,,,,,,,,,
1732157337.643914,1732157337.645852,72.000000,0.000000,4346.410156,4313.205078,4316.538574,4311.666504,4271.410156,4264.230957,4325.897461,4399.871582,4277.307617,4280.384766,4505.769043,4540.769043,4394.615234,4479.358887,1524.000000,1.000000,24.000000,,,,0.000000,2.000000,2.000000,0.000000,4.000000,2.000000,2.000000,0.000000,0.000000,4.000000,4.000000,4.000000,4.000000,4.000000,4.000000,0.000000,,,,,,,,,,,,,,,,,18.000000,0.000000,0.528008,0.490967,-0.526245,0.450806,1.000122,0.047857,-0.034672,-34.620686,46.190228,31.705099
1732157337.651722,1732157337.653660,73.000000,0.000000,4342.563965,4310.512695,4313.205078,4311.410156,4250.641113,4261.794922,4327.307617,4400.641113,4275.384766,4279.615234,4506.410156,4538.077148,4388.461426,4480.769043,1671.000000,1.000000,24.000000,,,,0.000000,2.000000,2.000000,0.000000,4.000000,2.000000,2.000000,0.000000,0.000000,4.000000,4.000000,4.000000,4.000000,4.000000,4.000000,0.000000,,,,,,,,,,,,,,,,,,,,,,,,,,,,
1732157337.659531,1732157337.661668,74.000000,0.000000,4342.820313,4310.512695,4313.205078,4309.230957,4239.102539,4249.871582,4327.051270,4401.666504,4283.974121,4296.025879,4507.436035,4539.487305,4389.230957,4479.615234,1534.000000,1.000000,24.000000,,,,0.000000,2.000000,2.000000,0.000000,4.000000,2.000000,2.000000,0.000000,0.000000,4.000000,4.000000,4.000000,4.000000,4.000000,4.000000,0.000000,,,,,,,,,,,,,,,,,,,,,,,,,,,,
1732157337.667339,1732157337.669476,75.000000,0.000000,4336.538574,4307.948730,4315.000000,4301.538574,4252.179688,4247.563965,4325.384766,4399.102539,4292.563965,4295.897461,4502.948730,4538.205078,4386.025879,4475.512695,1569.000000,1.000000,24.000000,,,,0.000000,2.000000,2.000000,0.000000,4.000000,2.000000,2.000000,0.000000,0.000000,4.000000,4.000000,4.000000,4.000000,4.000000,4.000000,0.000000,,,,,,,,,,,,,,,,,,,,,,,,,,,,
1732157337.675147,1732157337.677185,76.000000,0.000000,4330.641113,4306.282227,4314.615234,4302.179688,4270.384766,4258.846191,4324.487305,4397.051270,4291.794922,4280.128418,4491.666504,4526.794922,4379.102539,4469.871582,1696.000000,1.000000,24.000000,,,,0.000000,2.000000,2.000000,0.000000,4.000000,2.000000,2.000000,0.000000,0.000000,4.000000,4.000000,4.000000,4.000000,4.000000,4.000000,0.000000,,,,,,,,,,,,,,,,,19.000000,0.000000,0.528008,0.490967,-0.526245,0.450806,0.988402,0.052741,-0.035161,-34.724422,46.250751,31.609463
1732157337.682955,1732157337.684993,77.000000,0.000000,4334.358887,4311.282227,4314.102539,4311.922852,4264.615234,4267.948730,4326.025879,4399.615234,4283.077148,4283.077148,4489.230957,4521.922852,4379.102539,4465.641113,1676.000000,1.000000,24.000000,,,,0.000000,2.000000,2.000000,0.000000,4.000000,2.000000,2.000000,0.000000,0.000000,4.000000,4.000000,4.000000,4.000000,4.000000,4.000000,0.000000,,,,,,,,,,,,,,,,,,,,,,,,,,,,
1732157337.690763,1732157337.692601,78.000000,0.000000,4336.666504,4312.436035,4314.230957,4311.794922,4247.179688,4266.538574,4325.897461,4399.615234,4278.974121,4296.282227,4494.358887,4526.025879,4381.666504,4461.922852,1534.000000,1.000000,24.000000,,,,0.000000,2.000000,2.000000,0.000000,4.000000,2.000000,2.000000,0.000000,0.000000,4.000000,4.000000,4.000000,4.000000,4.000000,4.000000,0.000000,1.000000,0.000000,2.000000,2.000000,0.000000,4.000000,2.000000,2.000000,0.000000,0.000000,4.000000,4.000000,4.000000,4.000000,4.000000,4.000000,,,,,,,,,,,,
1732157337.698572,1732157337.700409,79.000000,0.000000,4334.487305,4305.512695,4315.128418,4306.410156,4252.051270,4266.025879,4323.461426,4399.487305,4287.436035,4293.846191,4494.487305,4530.512695,4380.897461,4460.000000,1569.000000,1.000000,24.000000,,,,0.000000,2.000000,2.000000,0.000000,4.000000,2.000000,2.000000,0.000000,0.000000,4.000000,4.000000,4.000000,4.000000,4.000000,4.000000,0.000000,,,,,,,,,,,,,,,,,,,,,,,,,,,,
1732157337.706380,1732157337.708118,80.000000,0.000000,4334.871582,4302.563965,4316.282227,4309.230957,4267.179688,4268.205078,4325.000000,4403.205078,4292.563965,4286.410156,4493.589844,4531.794922,4380.384766,4460.256348,1696.000000,1.000000,24.000000,,,,0.000000,2.000000,2.000000,0.000000,4.000000,2.000000,2.000000,0.000000,0.000000,4.000000,4.000000,4.000000,4.000000,4.000000,4.000000,0.000000,,,,,,,,,,,,,,,,,20.000000,0.000000,0.527289,0.491272,-0.526367,0.451172,0.980100,0.041021,-0.033696,-34.618450,46.088108,31.715332
1732157337.714188,1732157337.715926,81.000000,0.000000,4335.128418,4303.461426,4315.897461,4310.384766,4263.717773,4267.692383,4329.230957,4401.282227,4286.153809,4287.436035,4494.487305,4528.333496,4377.307617,4461.410156,1676.000000,1.000000,24.000000,,,,0.000000,2.000000,2.000000,0.000000,4.000000,2.000000,2.000000,0.000000,0.000000,4.000000,4.000000,4.000000,4.000000,4.000000,4.000000,0.000000,,,,,,,,,,,,,,,,,,,,,,,,,,,,
1732157337.721996,1732157337.723534,82.000000,0.000000,4330.897461,4300.512695,4313.974121,4301.922852,4261.025879,4266.538574,4328.974121,4397.179688,4286.794922,4288.846191,4491.153809,4522.563965,4370.384766,4459.743652,1534.000000,1.000000,24.000000,,,,0.000000,2.000000,2.000000,0.000000,4.000000,2.000000,2.000000,0.000000,0.000000,4.000000,4.000000,4.000000,4.000000,4.000000,4.000000,0.000000,,,,,,,,,,,,,,,,,,,,,,,,,,,,
1732157337.729805,1732157337.731343,83.000000,0.000000,4325.384766,4295.897461,4314.230957,4294.358887,4266.538574,4269.615234,4326.282227,4398.717773,4294.358887,4287.948730,4487.948730,4521.922852,4365.897461,4455.641113,1569.000000,1.000000,24.000000,,,,0.000000,2.000000,2.000000,0.000000,4.000000,2.000000,2.000000,0.000000,0.000000,4.000000,4.000000,4.000000,4.000000,4.000000,4.000000,0.000000,,,,,,,,,,,,,,,,,,,,,,,,,,,,
1732157337.737613,1732157337.739051,84.000000,0.000000,4323.333496,4295.641113,4314.615234,4295.641113,4270.000000,4277.051270,4327.179688,4401.282227,4289.487305,4284.230957,4487.436035,4523.461426,4365.384766,4456.153809,1696.000000,1.000000,24.000000,,,,0.000000,2.000000,2.000000,0.000000,4.000000,2.000000,2.000000,0.000000,0.000000,4.000000,4.000000,4.000000,4.000000,4.000000,4.000000,0.000000,,,,,,,,,,,,,,,,,21.000000,0.000000,0.526552,0.491455,-0.526672,0.451477,0.977658,0.026859,-0.032230,-34.632610,46.089699,31.684418
1732157337.745421,1732157337.746859,85.000000,0.000000,4325.384766,4296.794922,4313.333496,4305.128418,4271.153809,4278.077148,4328.974121,4399.615234,4280.256348,4282.051270,4489.871582,4522.051270,4364.871582,4460.641113,1676.000000,1.000000,24.000000,,,,0.000000,2.000000,2.000000,0.000000,4.000000,2.000000,2.000000,0.000000,0.000000,4.000000,4.000000,4.000000,4.000000,4.000000,4.000000,0.000000,,,,,,,,,,,,,,,,,,,,,,,,,,,,
1732157337.753230,1732157337.754468,86.000000,0.000000,4327.820313,4298.077148,4311.922852,4312.820313,4277.179688,4268.717773,4328.461426,4397.563965,4281.025879,4282.692383,4486.538574,4522.051270,4361.025879,4461.794922,1534.000000,1.000000,24.000000,,,,0.000000,2.000000,2.000000,0.000000,4.000000,2.000000,2.000000,0.000000,0.000000,4.000000,4.000000,4.000000,4.000000,4.000000,4.000000,0.000000,,,,,,,,,,,,,,,,,,,,,,,,,,,,
1732157337.761038,1732157337.762276,87.000000,0.000000,4326.025879,4299.871582,4313.974121,4312.436035,4287.948730,4262.692383,4328.461426,4398.333496,4282.820313,4279.358887,4477.563965,4521.410156,4355.512695,4457.563965,1569.000000,1.000000,24.000000,,,,0.000000,2.000000,2.000000,0.000000,4.000000,2.000000,2.000000,0.000000,0.000000,4.000000,4.000000,4.000000,4.000000,4.000000,4.000000,0.000000,,,,,,,,,,,,,,,,,,,,,,,,,,,,
1732157337.768846,1732157337.769984,88.000000,0.000000,4323.717773,4302.563965,4318.974121,4310.384766,4280.384766,4268.589844,4328.205078,4401.025879,4287.436035,4281.282227,4480.256348,4523.461426,4357.948730,4456.538574,1696.000000,1.000000,24.000000,,,,0.000000,2.000000,2.000000,0.000000,4.000000,2.000000,2.000000,0.000000,0.000000,4.000000,4.000000,4.000000,4.000000,4.000000,4.000000,0.000000,,,,,,,,,,,,,,,,,22.000000,0.000000,0.525940,0.491577,-0.526855,0.451843,0.994750,0.046392,-0.034184,-34.767414,46.169323,31.671045
1732157337.776654,1732157337.777792,89.000000,0.000000,4326.666504,4308.333496,4317.692383,4315.512695,4261.538574,4276.666504,4328.589844,4400.128418,4299.871582,4291.922852,4489.743652,4526.410156,4363.461426,4460.641113,1676.000000,1.000000,24.000000,,,,0.000000,2.000000,2.000000,0.000000,4.000000,2.000000,2.000000,0.000000,0.000000,4.000000,4.000000,4.000000,4.000000,4.000000,4.000000,0.000000,,,,,,,,,,,,,,,,,,,,,,,,,,,,
1732157337.784462,1732157337.785401,90.000000,0.000000,4328.333496,4308.333496,4314.102539,4318.717773,4262.820313,4279.615234,4328.333496,4397.307617,4297.436035,4291.282227,4490.384766,4525.000000,4362.051270,4462.307617,1534.000000,1.000000,24.000000,,,,0.000000,2.000000,2.000000,0.000000,4.000000,2.000000,2.000000,0.000000,0.000000,4.000000,4.000000,4.000000,4.000000,4.000000,4.000000,0.000000,,,,,,,,,,,,,,,,,,,,,,,,,,,,
1732157337.792271,1732157337.793209,91.000000,0.000000,4324.358887,4303.205078,4313.974121,4311.922852,4276.282227,4279.743652,4325.897461,4398.589844,4283.205078,4280.897461,4486.282227,4524.102539,4358.077148,4459.230957,1569.000000,1.000000,24.000000,,,,0.000000,2.000000,2.000000,0.000000,4.000000,2.000000,2.000000,0.000000,0.000000,4.000000,4.000000,4.000000,4.000000,4.000000,4.000000,0.000000,,,,,,,,,,,,,,,,,,,,,,,,,,,,
1732157337.800079,1732157337.800917,92.000000,0.000000,4322.820313,4303.846191,4315.000000,4308.589844,4280.769043,4278.461426,4325.512695,4399.487305,4284.102539,4280.512695,4483.846191,4525.128418,4358.077148,4457.563965,1696.000000,1.000000,24.000000,,,,0.000000,2.000000,2.000000,0.000000,4.000000,2.000000,2.000000,0.000000,0.000000,4.000000,4.000000,4.000000,4.000000,4.000000,4.000000,0.000000,,,,,,,,,,,,,,,,,23.000000,0.000000,0.525717,0.491638,-0.526917,0.451965,0.994750,0.046392,-0.034184,-34.621605,46.327152,31.670214
1732157337.807887,1732157337.808725,93.000000,0.000000,4324.743652,4304.358887,4313.846191,4313.974121,4276.922852,4278.333496,4326.922852,4399.743652,4292.307617,4282.820313,4483.717773,4526.666504,4357.692383,4458.974121,1676.000000,1.000000,24.000000,,,,0.000000,2.000000,2.000000,0.000000,4.000000,2.000000,2.000000,0.000000,0.000000,4.000000,4.000000,4.000000,4.000000,4.000000,4.000000,0.000000,,,,,,,,,,,,,,,,,,,,,,,,,,,,
1732157337.815695,1732157337.816334,94.000000,0.000000,4322.692383,4297.820313,4314.615234,4314.743652,4280.000000,4279.102539,4326.538574,4401.025879,4288.077148,4280.384766,4485.769043,4525.128418,4354.615234,4457.820313,1534.000000,1.000000,24.000000,,,,0.000000,2.000000,2.000000,0.000000,4.000000,2.000000,2.000000,0.000000,0.000000,4.000000,4.000000,4.000000,4.000000,4.000000,4.000000,0.000000,,,,,,,,,,,,,,,,,,,,,,,,,,,,
1732157337.823504,1732157337.824142,95.000000,0.000000,4316.282227,4294.230957,4316.025879,4308.077148,4291.282227,4276.794922,4328.589844,4399.230957,4284.230957,4281.922852,4487.436035,4521.538574,4356.025879,4455.512695,1569.000000,1.000000,24.000000,,,,0.000000,2.000000,2.000000,0.000000,4.000000,2.000000,2.000000,0.000000,0.000000,4.000000,4.000000,4.000000,4.000000,4.000000,4.000000,0.000000,,,,,,,,,,,,,,,,,,,,,,,,,,,,
1732157337.831312,1732157337.832050,96.000000,0.000000,4317.051270,4294.102539,4314.743652,4308.077148,4286.025879,4277.436035,4332.820313,4397.307617,4293.461426,4283.589844,4486.922852,4526.922852,4357.436035,4456.794922,1696.000000,1.000000,24.000000,,,,0.000000,2.000000,2.000000,0.000000,4.000000,2.000000,2.000000,0.000000,0.000000,4.000000,4.000000,4.000000,4.000000,4.000000,4.000000,0.000000,,,,,,,,,,,,,,,,,24.000000,0.000000,0.524701,0.491638,-0.527405,0.452576,0.982542,0.035649,-0.047857,-34.575169,46.299995,31.672873
1732157337.839120,1732157337.839858,97.000000,0.000000,4325.256348,4292.307617,4315.000000,4313.205078,4266.025879,4280.512695,4331.282227,4398.333496,4298.333496,4283.205078,4488.333496,4532.820313,4352.563965,4460.000000,1676.000000,1.000000,24.000000,,,,0.000000,2.000000,2.000000,0.000000,4.000000,2.000000,2.000000,0.000000,0.000000,4.000000,4.000000,4.000000,4.000000,4.000000,4.000000,0.000000,,,,,,,,,,,,,,,,,,,,,,,,,,,,
1732157337.846928,1732157337.847467,98.000000,0.000000,4325.897461,4294.358887,4316.282227,4313.077148,4267.307617,4279.102539,4326.025879,4400.512695,4292.051270,4286.794922,4487.051270,4528.077148,4350.128418,4458.974121,1534.000000,1.000000,24.000000,,,,0.000000,2.000000,2.000000,0.000000,4.000000,2.000000,2.000000,0.000000,0.000000,4.000000,4.000000,4.000000,4.000000,4.000000,4.000000,0.000000,,,,,,,,,,,,,,,,,,,,,,,,,,,,
1732157337.854736,1732157337.855275,99.000000,0.000000,4318.205078,4295.897461,4315.897461,4310.000000,4280.000000,4275.000000,4325.512695,4401.153809,4291.794922,4291.153809,4486.922852,4523.589844,4350.897461,4455.769043,1569.000000,1.000000,24.000000,,,,0.000000,2.000000,2.000000,0.000000,4.000000,2.000000,2.000000,0.000000,0.000000,4.000000,4.000000,4.000000,4.000000,4.000000,4.000000,0.000000,,,,,,,,,,,,,,,,,,,,,,,,,,,,
1732157337.862545,1732157337.862983,100.000000,0.000000,4317.307617,4294.230957,4314.358887,4310.384766,4278.333496,4275.256348,4327.563965,4399.358887,4294.230957,4290.256348,4490.512695,4526.282227,4351.410156,4457.563965,1696.000000,1.000000,24.000000,,,,0.000000,2.000000,2.000000,0.000000,4.000000,2.000000,2.000000,0.000000,0.000000,4.000000,4.000000,4.000000,4.000000,4.000000,4.000000,0.000000,,,,,,,,,,,,,,,,,25.000000,0.000000,0.524192,0.491760,-0.527588,0.452820,0.979123,0.041021,-0.032719,-34.477551,46.154663,31.726694
1732157337.870353,1732157337.870791,101.000000,0.000000,4318.974121,4292.820313,4314.743652,4310.256348,4277.692383,4278.333496,4330.769043,4397.307617,4288.077148,4285.128418,4485.897461,4523.974121,4350.256348,4457.820313,1676.000000,1.000000,24.000000,,,,0.000000,2.000000,2.000000,0.000000,4.000000,2.000000,2.000000,0.000000,0.000000,4.000000,4.000000,4.000000,4.000000,4.000000,4.000000,0.000000,,,,,,,,,,,,,,,,,,,,,,,,,,,,
1732157337.878161,1732157337.878799,102.000000,0.000000,4312.436035,4291.922852,4316.538574,4309.230957,4283.205078,4278.205078,4333.205078,4398.077148,4279.487305,4279.871582,4477.307617,4520.256348,4347.179688,4449.487305,1534.000000,1.000000,24.000000,,,,0.000000,2.000000,2.000000,0.000000,4.000000,2.000000,2.000000,0.000000,0.000000,4.000000,4.000000,4.000000,4.000000,4.000000,4.000000,0.000000,,,,,,,,,,,,,,,,,,,,,,,,,,,,
1732157337.885970,1732157337.886608,103.000000,0.000000,4307.563965,4291.538574,4316.025879,4311.794922,4282.436035,4280.512695,4330.000000,4398.846191,4280.641113,4278.461426,4474.102539,4521.410156,4343.589844,4443.589844,1569.000000,1.000000,24.000000,,,,0.000000,2.000000,2.000000,0.000000,4.000000,2.000000,2.000000,0.000000,0.000000,4.000000,4.000000,4.000000,4.000000,4.000000,4.000000,0.000000,,,,,,,,,,,,,,,,,,,,,,,,,,,,
1732157337.893778,1732157337.894516,104.000000,0.000000,4307.563965,4287.051270,4315.256348,4312.051270,4285.128418,4288.846191,4327.436035,4397.948730,4290.128418,4279.743652,4473.333496,4515.641113,4341.794922,4445.128418,1696.000000,1.000000,24.000000,,,,0.000000,2.000000,2.000000,0.000000,4.000000,2.000000,2.000000,0.000000,0.000000,4.000000,4.000000,4.000000,4.000000,4.000000,4.000000,0.000000,,,,,,,,,,,,,,,,,26.000000,0.000000,0.523809,0.491943,-0.527588,0.453064,0.977658,0.037602,-0.042486,-34.398483,46.111942,31.695290
1732157337.901586,1732157337.902324,105.000000,0.000000,4307.051270,4283.077148,4317.692383,4308.589844,4287.563965,4290.897461,4329.615234,4398.077148,4295.897461,4282.692383,4474.102539,4507.051270,4340.512695,4443.461426,1676.000000,1.000000,24.000000,,,,0.000000,2.000000,2.000000,0.000000,4.000000,2.000000,2.000000,0.000000,0.000000,4.000000,4.000000,4.000000,4.000000,4.000000,4.000000,0.000000,,,,,,,,,,,,,,,,,,,,,,,,,,,,
1732157337.909394,1732157337.910332,106.000000,0.000000,4306.922852,4286.538574,4319.230957,4308.205078,4283.077148,4283.077148,4329.615234,4397.820313,4296.922852,4290.256348,4476.153809,4506.538574,4340.512695,4440.128418,1534.000000,1.000000,24.000000,,,,0.000000,2.000000,2.000000,0.000000,4.000000,2.000000,2.000000,0.000000,0.000000,4.000000,4.000000,4.000000,4.000000,4.000000,4.000000,0.000000,,,,,,,,,,,,,,,,,,,,,,,,,,,,
1732157337.917203,1732157337.918140,107.000000,0.000000,4310.000000,4291.922852,4318.717773,4311.282227,4280.641113,4278.846191,4326.153809,4397.692383,4298.077148,4297.307617,4476.282227,4513.846191,4342.692383,4443.205078,1569.000000,1.000000,24.000000,,,,0.000000,2.000000,2.000000,0.000000,4.000000,2.000000,2.000000,0.000000,0.000000,4.000000,4.000000,4.000000,4.000000,4.000000,4.000000,0.000000,,,,,,,,,,,,,,,,,,,,,,,,,,,,
1732157337.925011,1732157337.926048,108.000000,0.000000,4308.846191,4292.307617,4317.436035,4311.025879,4285.256348,4280.000000,4325.000000,4398.846191,4297.436035,4294.102539,4475.256348,4515.512695,4341.922852,4442.051270,1696.000000,1.000000,24.000000,,,,0.000000,2.000000,2.000000,0.000000,4.000000,2.000000,2.000000,0.000000,0.000000,4.000000,4.000000,4.000000,4.000000,4.000000,4.000000,0.000000,,,,,,,,,,,,,,,,,27.000000,0.000000,0.523197,0.492126,-0.527710,0.453430,0.979612,0.021487,-0.046881,-34.481106,46.344006,31.689850
1732157337.932819,1732157337.933857,109.000000,0.000000,4301.410156,4287.179688,4318.846191,4309.230957,4292.179688,4278.205078,4325.769043,4397.307617,4295.897461,4291.153809,4477.436035,4509.487305,4340.897461,4435.769043,1676.000000,1.000000,24.000000,,,,0.000000,2.000000,2.000000,0.000000,4.000000,2.000000,2.000000,0.000000,0.000000,4.000000,4.000000,4.000000,4.000000,4.000000,4.000000,0.000000,,,,,,,,,,,,,,,,,,,,,,,,,,,,
1732157337.940627,1732157337.941865,110.000000,0.000000,4302.948730,4284.871582,4318.717773,4312.948730,4290.512695,4279.743652,4326.153809,4396.025879,4295.512695,4295.256348,4477.948730,4508.077148,4344.487305,4433.717773,1534.000000,1.000000,24.000000,,,,0.000000,2.000000,2.000000,0.000000,4.000000,2.000000,2.000000,0.000000,0.000000,4.000000,4.000000,4.000000,4.000000,4.000000,4.000000,0.000000,,,,,,,,,,,,,,,,,,,,,,,,,,,,
1732157337.948435,1732157337.949673,111.000000,0.000000,4309.102539,4286.794922,4314.743652,4314.871582,4294.230957,4282.948730,4328.717773,4398.717773,4295.384766,4295.641113,4477.307617,4508.846191,4343.974121,4433.205078,1569.000000,1.000000,24.000000,,,,0.000000,2.000000,2.000000,0.000000,4.000000,2.000000,2.000000,0.000000,0.000000,4.000000,4.000000,4.000000,4.000000,4.000000,4.000000,0.000000,,,,,,,,,,,,,,,,,,,,,,,,,,,,
1732157337.956244,1732157337.957581,112.000000,0.000000,4308.077148,4285.897461,4314.230957,4311.025879,4308.461426,4282.563965,4329.102539,4399.230957,4294.487305,4294.871582,4478.333496,4507.563965,4337.948730,4431.666504,1696.000000,1.000000,24.000000,,,,0.000000,2.000000,2.000000,0.000000,4.000000,2.000000,2.000000,0.000000,0.000000,4.000000,4.000000,4.000000,4.000000,4.000000,4.000000,0.000000,,,,,,,,,,,,,,,,,28.000000,0.000000,0.521926,0.492493,-0.528259,0.453857,0.971798,0.031254,-0.037602,-34.576363,46.265312,31.693779
1732157337.964052,1732157337.965389,113.000000,0.000000,4306.538574,4281.666504,4316.794922,4309.615234,4301.282227,4283.717773,4326.410156,4396.153809,4295.128418,4300.256348,4477.820313,4508.205078,4334.230957,4430.000000,1676.000000,1.000000,24.000000,,,,0.000000,2.000000,2.000000,0.000000,4.000000,2.000000,2.000000,0.000000,0.000000,4.000000,4.000000,4.000000,4.000000,4.000000,4.000000,0.000000,,,,,,,,,,,,,,,,,,,,,,,,,,,,
1732157337.971860,1732157337.973397,114.000000,0.000000,4309.358887,4279.358887,4314.871582,4311.025879,4280.256348,4291.153809,4329.871582,4396.922852,4300.384766,4303.205078,4476.794922,4509.871582,4334.230957,4427.307617,1534.000000,1.000000,24.000000,,,,0.000000,2.000000,2.000000,0.000000,4.000000,2.000000,2.000000,0.000000,0.000000,4.000000,4.000000,4.000000,4.000000,4.000000,4.000000,0.000000,,,,,,,,,,,,,,,,,,,,,,,,,,,,
1732157337.979669,1732157337.981205,115.000000,0.000000,4309.487305,4281.025879,4314.230957,4310.641113,4281.922852,4293.717773,4333.717773,4399.615234,4302.179688,4300.769043,4478.333496,4507.948730,4335.384766,4426.025879,1569.000000,1.000000,24.000000,,,,0.000000,2.000000,2.000000,0.000000,4.000000,2.000000,2.000000,0.000000,0.000000,4.000000,4.000000,4.000000,4.000000,4.000000,4.000000,0.000000,,,,,,,,,,,,,,,,,,,,,,,,,,,,
1732157337.987477,1732157337.989113,116.000000,0.000000,4309.102539,4283.461426,4318.974121,4312.051270,4292.948730,4288.077148,4329.487305,4399.102539,4297.820313,4302.436035,4478.717773,4509.615234,4335.512695,4429.743652,1696.000000,1.000000,24.000000,,,,0.000000,2.000000,2.000000,0.000000,4.000000,2.000000,2.000000,0.000000,0.000000,4.000000,4.000000,4.000000,4.000000,4.000000,4.000000,0.000000,,,,,,,,,,,,,,,,,29.000000,0.000000,0.521926,0.492493,-0.528259,0.453857,0.983030,0.040044,-0.049811,-34.698521,46.141571,31.891960
1732157337.995285,1732157337.996922,117.000000,0.000000,4311.025879,4285.000000,4319.871582,4313.589844,4291.025879,4283.717773,4329.487305,4397.948730,4298.589844,4305.769043,4474.743652,4509.871582,4333.974121,4429.743652,1676.000000,1.000000,24.000000,,,,0.000000,2.000000,2.000000,0.000000,4.000000,2.000000,2.000000,0.000000,0.000000,4.000000,4.000000,4.000000,4.000000,4.000000,4.000000,0.000000,,,,,,,,,,,,,,,,,,,,,,,,,,,,
1732157338.003093,1732157338.004930,118.000000,0.000000,4309.102539,4281.153809,4317.563965,4309.487305,4288.846191,4286.153809,4334.871582,4398.846191,4303.846191,4306.922852,4479.615234,4506.794922,4337.179688,4427.051270,1534.000000,1.000000,24.000000,,,,0.000000,2.000000,2.000000,0.000000,4.000000,2.000000,2.000000,0.000000,0.000000,4.000000,4.000000,4.000000,4.000000,4.000000,4.000000,0.000000,,,,,,,,,,,,,,,,,,,,,,,,,,,,
1732157338.010901,1732157338.012738,119.000000,0.000000,4308.205078,4280.256348,4318.589844,4308.846191,4290.256348,4292.179688,4334.615234,4398.974121,4304.230957,4310.128418,4488.589844,4508.461426,4341.666504,4429.615234,1569.000000,1.000000,24.000000,,,,0.000000,2.000000,2.000000,0.000000,4.000000,2.000000,2.000000,0.000000,0.000000,4.000000,4.000000,4.000000,4.000000,4.000000,4.000000,0.000000,,,,,,,,,,,,,,,,,,,,,,,,,,,,
1732157338.018710,1732157338.020646,120.000000,0.000000,4305.000000,4283.333496,4318.974121,4310.897461,4301.794922,4294.743652,4333.077148,4398.717773,4304.871582,4309.871582,4482.307617,4508.077148,4333.974121,4425.000000,1696.000000,1.000000,24.000000,,,,0.000000,2.000000,2.000000,0.000000,4.000000,2.000000,2.000000,0.000000,0.000000,4.000000,4.000000,4.000000,4.000000,4.000000,4.000000,0.000000,,,,,,,,,,,,,,,,,30.000000,0.000000,0.520534,0.493103,-0.528381,0.454651,0.982542,0.024417,-0.038579,-34.787468,45.924671,31.627489
1732157338.026518,1732157338.028454,121.000000,0.000000,4302.051270,4279.743652,4315.000000,4309.102539,4313.717773,4294.871582,4333.461426,4398.333496,4308.589844,4305.641113,4472.307617,4503.717773,4324.743652,4416.922852,1676.000000,1.000000,24.000000,,,,0.000000,2.000000,2.000000,0.000000,4.000000,2.000000,2.000000,0.000000,0.000000,4.000000,4.000000,4.000000,4.000000,4.000000,4.000000,0.000000,,,,,,,,,,,,,,,,,,,,,,,,,,,,
1732157338.034326,1732157338.036462,122.000000,0.000000,4308.461426,4280.769043,4315.256348,4310.512695,4296.282227,4295.512695,4331.666504,4398.205078,4306.922852,4307.436035,4477.051270,4505.384766,4330.128418,4422.051270,1534.000000,1.000000,24.000000,,,,0.000000,2.000000,2.000000,0.000000,4.000000,2.000000,2.000000,0.000000,0.000000,4.000000,4.000000,4.000000,4.000000,4.000000,4.000000,0.000000,,,,,,,,,,,,,,,,,,,,,,,,,,,,
1732157338.042134,1732157338.044270,123.000000,0.000000,4312.692383,4288.717773,4319.358887,4316.666504,4280.897461,4298.077148,4333.077148,4398.077148,4301.410156,4308.846191,4481.410156,4509.487305,4336.153809,4430.000000,1569.000000,1.000000,24.000000,,,,0.000000,2.000000,2.000000,0.000000,4.000000,2.000000,2.000000,0.000000,0.000000,4.000000,4.000000,4.000000,4.000000,4.000000,4.000000,0.000000,,,,,,,,,,,,,,,,,,,,,,,,,,,,
1732157338.049943,1732157338.052178,124.000000,0.000000,4310.256348,4287.820313,4319.487305,4320.000000,4293.333496,4297.563965,4334.743652,4396.922852,4297.051270,4303.717773,4477.307617,4506.538574,4334.487305,4427.051270,1696.000000,1.000000,24.000000,,,,0.000000,2.000000,2.000000,0.000000,4.000000,2.000000,2.000000,0.000000,0.000000,4.000000,4.000000,4.000000,4.000000,4.000000,4.000000,0.000000,,,,,,,,,,,,,,,,,31.000000,0.000000,0.519261,0.493103,-0.528687,0.455750,0.983030,0.025882,-0.045416,-34.809517,45.993984,31.546598
1732157338.057751,1732157338.059987,125.000000,0.000000,4310.128418,4281.153809,4315.384766,4319.615234,4301.153809,4295.512695,4332.692383,4397.948730,4293.846191,4303.717773,4478.205078,4503.589844,4335.000000,4424.743652,1676.000000,1.000000,24.000000,,,,0.000000,2.000000,2.000000,0.000000,4.000000,2.000000,2.000000,0.000000,0.000000,4.000000,4.000000,4.000000,4.000000,4.000000,4.000000,0.000000,,,,,,,,,,,,,,,,,,,,,,,,,,,,
1732157338.065559,1732157338.067995,126.000000,0.000000,4308.974121,4281.666504,4316.538574,4317.692383,4291.410156,4293.974121,4331.666504,4400.128418,4296.025879,4311.538574,4479.102539,4506.153809,4333.077148,4427.179688,1534.000000,1.000000,24.000000,,,,0.000000,2.000000,2.000000,0.000000,4.000000,2.000000,2.000000,0.000000,0.000000,4.000000,4.000000,4.000000,4.000000,4.000000,4.000000,0.000000,,,,,,,,,,,,,,,,,,,,,,,,,,,,
1732157338.073367,1732157338.075803,127.000000,0.000000,4303.589844,4284.743652,4320.512695,4313.461426,4292.948730,4284.230957,4330.897461,4397.820313,4299.102539,4312.179688,4475.769043,4507.948730,4326.794922,4427.179688,24.000000,1.000000,24.000000,,,,0.000000,2.000000,2.000000,0.000000,4.000000,2.000000,2.000000,0.000000,0.000000,4.000000,4.000000,4.000000,4.000000,4.000000,4.000000,0.000000,,,,,,,,,,,,,,,,,,,,,,,,,,,,
1732157338.081176,1732157338.083611,0.000000,0.000000,4302.820313,4281.666504,4318.717773,4311.025879,4308.461426,4276.922852,4327.820313,4395.512695,4297.051270,4306.282227,4475.769043,4507.307617,4328.333496,4426.538574,0.000000,1.000000,24.000000,,,,0.000000,2.000000,2.000000,0.000000,4.000000,2.000000,2.000000,0.000000,0.000000,4.000000,4.000000,4.000000,4.000000,4.000000,4.000000,0.000000,,,,,,,,,,,,,,,,,0.000000,0.000000,0.518301,0.493530,-0.528809,0.456238,0.976682,0.019045,-0.046392,-34.715706,46.050125,31.534412
1732157338.088984,1732157338.091419,1.000000,0.000000,4305.000000,4279.743652,4316.025879,4312.820313,4306.153809,4283.589844,4328.589844,4397.820313,4294.230957,4306.410156,4475.769043,4507.051270,4332.307617,4426.538574,1589.000000,1.000000,24.000000,,,,0.000000,2.000000,2.000000,0.000000,4.000000,2.000000,2.000000,0.000000,0.000000,4.000000,4.000000,4.000000,4.000000,4.000000,4.000000,0.000000,,,,,,,,,,,,,,,,,,,,,,,,,,,,
1732157338.096792,1732157338.099028,2.000000,0.000000,4300.128418,4280.769043,4314.743652,4312.436035,4285.000000,4293.717773,4333.333496,4399.358887,4295.128418,4310.384766,4473.846191,4506.794922,4327.692383,4427.307617,1382.000000,1.000000,24.000000,,,,0.000000,2.000000,2.000000,0.000000,4.000000,2.000000,2.000000,0.000000,0.000000,4.000000,4.000000,4.000000,4.000000,4.000000,4.000000,0.000000,,,,,,,,,,,,,,,,,,,,,,,,,,,,
1732157338.104600,1732157338.106836,3.000000,0.000000,4295.128418,4280.897461,4314.102539,4310.256348,4275.641113,4295.256348,4335.769043,4398.333496,4299.743652,4310.897461,4473.589844,4505.897461,4323.974121,4426.922852,1411.000000,1.000000,24.000000,,,,0.000000,2.000000,2.000000,0.000000,4.000000,2.000000,2.000000,0.000000,0.000000,4.000000,4.000000,4.000000,4.000000,4.000000,4.000000,0.000000,,,,,,,,,,,,,,,,,,,,,,,,,,,,
1732157338.112409,1732157338.114544,4.000000,0.000000,4299.487305,4280.512695,4313.077148,4311.153809,4282.692383,4294.102539,4334.230957,4398.077148,4303.077148,4311.282227,4475.641113,4505.128418,4329.358887,4425.000000,1407.000000,1.000000,24.000000,,,,0.000000,2.000000,2.000000,0.000000,4.000000,2.000000,2.000000,0.000000,0.000000,4.000000,4.000000,4.000000,4.000000,4.000000,4.000000,0.000000,,,,,,,,,,,,,,,,,1.000000,0.000000,0.518168,0.493530,-0.528992,0.456177,0.976682,0.019045,-0.046392,-34.833057,45.977268,31.717873
1732157338.120217,1732157338.122352,5.000000,0.000000,4306.025879,4279.487305,4313.974121,4311.538574,4284.487305,4293.461426,4332.820313,4398.589844,4302.436035,4312.179688,4476.922852,4505.897461,4335.256348,4426.025879,1234.000000,1.000000,24.000000,,,,0.000000,2.000000,2.000000,0.000000,4.000000,2.000000,2.000000,0.000000,0.000000,4.000000,4.000000,4.000000,4.000000,4.000000,4.000000,0.000000,,,,,,,,,,,,,,,,,,,,,,,,,,,,
1732157338.128025,1732157338.129961,6.000000,0.000000,4303.461426,4279.358887,4315.769043,4309.358887,4282.051270,4291.922852,4334.102539,4398.333496,4304.871582,4313.077148,4478.589844,4508.589844,4336.922852,4429.615234,0.000000,1.000000,24.000000,,,,0.000000,2.000000,2.000000,0.000000,4.000000,2.000000,2.000000,0.000000,0.000000,4.000000,4.000000,4.000000,4.000000,4.000000,4.000000,0.000000,,,,,,,,,,,,,,,,,,,,,,,,,,,,
1732157338.135833,1732157338.137769,7.000000,0.000000,4297.692383,4280.384766,4315.897461,4309.230957,4291.153809,4293.589844,4335.512695,4398.974121,4308.461426,4312.436035,4480.512695,4508.974121,4335.641113,4429.615234,0.000000,1.000000,24.000000,,,,0.000000,2.000000,2.000000,0.000000,4.000000,2.000000,2.000000,0.000000,0.000000,4.000000,4.000000,4.000000,4.000000,4.000000,4.000000,0.000000,,,,,,,,,,,,,,,,,,,,,,,,,,,,
1732157338.143642,1732157338.145477,8.000000,0.000000,4298.333496,4281.538574,4315.769043,4310.384766,4305.384766,4295.128418,4334.615234,4399.230957,4309.743652,4309.871582,4478.974121,4505.641113,4333.333496,4425.256348,1524.000000,1.000000,24.000000,,,,0.000000,2.000000,2.000000,0.000000,4.000000,2.000000,2.000000,0.000000,0.000000,4.000000,4.000000,4.000000,4.000000,4.000000,4.000000,0.000000,,,,,,,,,,,,,,,,,2.000000,0.000000,0.518039,0.493591,-0.529114,0.456116,0.986937,0.039067,-0.052252,-34.911442,46.163254,31.649811
1732157338.151450,1732157338.153286,9.000000,0.000000,4299.230957,4281.538574,4315.128418,4309.358887,4301.282227,4293.589844,4333.461426,4397.307617,4311.282227,4308.974121,4476.666504,4505.641113,4336.153809,4423.461426,1671.000000,1.000000,24.000000,,,,0.000000,2.000000,2.000000,0.000000,4.000000,2.000000,2.000000,0.000000,0.000000,4.000000,4.000000,4.000000,4.000000,4.000000,4.000000,0.000000,,,,,,,,,,,,,,,,,,,,,,,,,,,,
1732157338.159258,1732157338.161294,10.000000,0.000000,4296.410156,4281.410156,4316.282227,4307.820313,4278.846191,4292.051270,4332.820313,4397.563965,4308.077148,4311.282227,4477.179688,4507.948730,4341.922852,4426.922852,1529.000000,1.000000,24.000000,,,,0.000000,2.000000,2.000000,0.000000,4.000000,2.000000,2.000000,0.000000,0.000000,4.000000,4.000000,4.000000,4.000000,4.000000,4.000000,0.000000,,,,,,,,,,,,,,,,,,,,,,,,,,,,
1732157338.167066,1732157338.169102,11.000000,0.000000,4296.282227,4280.000000,4320.000000,4305.897461,4274.871582,4293.974121,4332.820313,4399.615234,4299.615234,4309.230957,4477.692383,4506.922852,4342.692383,4429.102539,1569.000000,1.000000,24.000000,,,,0.000000,2.000000,2.000000,0.000000,4.000000,2.000000,2.000000,0.000000,0.000000,4.000000,4.000000,4.000000,4.000000,4.000000,4.000000,0.000000,,,,,,,,,,,,,,,,,,,,,,,,,,,,
1732157338.174875,1732157338.176810,12.000000,0.000000,4297.563965,4279.102539,4319.230957,4305.641113,4290.384766,4295.769043,4335.256348,4399.102539,4295.769043,4303.974121,4476.922852,4505.897461,4340.256348,4423.077148,1695.000000,1.000000,24.000000,,,,0.000000,2.000000,2.000000,0.000000,4.000000,2.000000,2.000000,0.000000,0.000000,4.000000,4.000000,4.000000,4.000000,4.000000,4.000000,0.000000,,,,,,,,,,,,,,,,,3.000000,0.000000,0.517574,0.493958,-0.529175,0.456177,0.979123,0.025882,-0.054694,-34.874935,46.085571,31.724680
1732157338.182683,1732157338.184618,13.000000,0.000000,4295.769043,4278.974121,4316.538574,4305.641113,4290.384766,4295.000000,4333.589844,4398.333496,4297.820313,4302.307617,4474.230957,4505.256348,4340.256348,4416.282227,1670.000000,1.000000,24.000000,,,,0.000000,2.000000,2.000000,0.000000,4.000000,2.000000,2.000000,0.000000,0.000000,4.000000,4.000000,4.000000,4.000000,4.000000,4.000000,0.000000,,,,,,,,,,,,,,,,,,,,,,,,,,,,
1732157338.190491,1732157338.192227,14.000000,0.000000,4294.615234,4278.974121,4317.179688,4303.461426,4283.077148,4294.230957,4328.717773,4399.615234,4298.974121,4302.307617,4476.153809,4504.102539,4345.000000,4416.922852,1529.000000,1.000000,24.000000,,,,0.000000,2.000000,2.000000,0.000000,4.000000,2.000000,2.000000,0.000000,0.000000,4.000000,4.000000,4.000000,4.000000,4.000000,4.000000,0.000000,1.000000,0.000000,2.000000,2.000000,0.000000,4.000000,2.000000,2.000000,0.000000,0.000000,4.000000,4.000000,4.000000,4.000000,3.000000,3.000000,,,,,,,,,,,,
1732157338.198299,1732157338.200035,15.000000,0.000000,4296.538574,4281.025879,4317.307617,4302.692383,4285.641113,4294.358887,4331.153809,4398.717773,4301.410156,4305.897461,4483.589844,4506.410156,4351.025879,4421.282227,1569.000000,1.000000,24.000000,,,,0.000000,2.000000,2.000000,0.000000,4.000000,2.000000,2.000000,0.000000,0.000000,4.000000,4.000000,4.000000,4.000000,4.000000,4.000000,0.000000,,,,,,,,,,,,,,,,,,,,,,,,,,,,
1732157338.206108,1732157338.207743,16.000000,0.000000,4296.666504,4281.025879,4314.487305,4303.717773,4297.436035,4294.230957,4335.769043,4397.179688,4307.563965,4307.948730,4482.692383,4509.102539,4352.051270,4420.384766,0.000000,1.000000,24.000000,,,,0.000000,2.000000,2.000000,0.000000,4.000000,2.000000,2.000000,0.000000,0.000000,4.000000,4.000000,4.000000,4.000000,4.000000,4.000000,0.000000,,,,,,,,,,,,,,,,,4.000000,0.000000,0.517399,0.494019,-0.529236,0.456238,0.979123,0.025882,-0.054694,-34.773697,46.070980,31.716991
1732157338.213916,1732157338.215551,17.000000,0.000000,4296.153809,4280.384766,4315.384766,4305.128418,4306.410156,4293.717773,4334.102539,4398.846191,4310.128418,4300.256348,4474.102539,4508.461426,4349.871582,4415.641113,0.000000,1.000000,24.000000,,,,0.000000,2.000000,2.000000,0.000000,4.000000,2.000000,2.000000,0.000000,0.000000,4.000000,4.000000,4.000000,4.000000,4.000000,4.000000,0.000000,,,,,,,,,,,,,,,,,,,,,,,,,,,,
1732157338.221724,1732157338.223160,18.000000,0.000000,4298.974121,4284.230957,4316.922852,4308.717773,4292.051270,4294.102539,4332.179688,4398.461426,4308.589844,4295.384766,4473.846191,4506.538574,4350.641113,4413.846191,0.000000,1.000000,24.000000,,,,0.000000,2.000000,2.000000,0.000000,4.000000,2.000000,2.000000,0.000000,0.000000,4.000000,4.000000,4.000000,4.000000,4.000000,4.000000,0.000000,,,,,,,,,,,,,,,,,,,,,,,,,,,,
1732157338.229532,1732157338.230968,19.000000,0.000000,4298.717773,4286.282227,4312.820313,4310.128418,4274.487305,4293.717773,4333.846191,4397.051270,4309.230957,4302.051270,4477.820313,4506.153809,4352.436035,4415.384766,0.000000,1.000000,24.000000,,,,0.000000,2.000000,2.000000,0.000000,4.000000,2.000000,2.000000,0.000000,0.000000,4.000000,4.000000,4.000000,4.000000,4.000000,4.000000,0.000000,,,,,,,,,,,,,,,,,,,,,,,,,,,,
1732157338.237341,1732157338.238676,20.000000,0.000000,4293.974121,4281.794922,4311.410156,4302.436035,4277.563965,4293.846191,4334.871582,4398.846191,4310.512695,4303.333496,4476.538574,4510.641113,4351.410156,4421.025879,0.000000,1.000000,24.000000,,,,0.000000,2.000000,2.000000,0.000000,4.000000,2.000000,2.000000,0.000000,0.000000,4.000000,4.000000,4.000000,4.000000,4.000000,4.000000,0.000000,,,,,,,,,,,,,,,,,5.000000,0.000000,0.516896,0.494385,-0.529175,0.456482,0.990844,0.018069,-0.050787,-34.721695,45.994160,31.454096
1732157338.245149,1732157338.246485,21.000000,0.000000,4293.974121,4280.256348,4313.974121,4294.102539,4282.948730,4292.179688,4334.871582,4401.666504,4310.641113,4296.153809,4477.436035,4514.615234,4351.538574,4427.179688,0.000000,1.000000,24.000000,,,,0.000000,2.000000,2.000000,0.000000,4.000000,2.000000,2.000000,0.000000,0.000000,4.000000,4.000000,4.000000,4.000000,4.000000,4.000000,0.000000,,,,,,,,,,,,,,,,,,,,,,,,,,,,
1732157338.252957,1732157338.254493,22.000000,0.000000,4296.025879,4284.743652,4315.897461,4297.692383,4278.205078,4288.333496,4333.717773,4401.153809,4309.615234,4296.794922,4477.563965,4510.769043,4351.282227,4425.128418,0.000000,1.000000,24.000000,,,,0.000000,2.000000,2.000000,0.000000,4.000000,2.000000,2.000000,0.000000,0.000000,4.000000,4.000000,4.000000,4.000000,4.000000,4.000000,0.000000,,,,,,,,,,,,,,,,,,,,,,,,,,,,
1732157338.260765,1732157338.262301,23.000000,0.000000,4292.179688,4283.717773,4314.615234,4302.948730,4282.179688,4289.615234,4332.307617,4399.230957,4303.205078,4298.333496,4471.922852,4504.743652,4349.615234,4419.743652,0.000000,1.000000,24.000000,,,,0.000000,2.000000,2.000000,0.000000,4.000000,2.000000,2.000000,0.000000,0.000000,4.000000,4.000000,4.000000,4.000000,4.000000,4.000000,0.000000,,,,,,,,,,,,,,,,,,,,,,,,,,,,
1732157338.268573,1732157338.270209,24.000000,0.000000,4289.358887,4280.512695,4314.358887,4299.615234,4288.077148,4295.000000,4333.205078,4400.000000,4298.717773,4294.358887,4474.487305,4507.051270,4349.487305,4419.871582,0.000000,1.000000,24.000000,,,,0.000000,2.000000,2.000000,0.000000,4.000000,2.000000,2.000000,0.000000,0.000000,4.000000,4.000000,4.000000,4.000000,4.000000,4.000000,0.000000,,,,,,,,,,,,,,,,,6.000000,0.000000,0.516722,0.494446,-0.529236,0.456543,0.983030,0.010255,-0.058601,-34.962906,46.010269,31.441151
1732157338.276382,1732157338.278018,25.000000,0.000000,4290.512695,4283.589844,4314.102539,4298.205078,4285.897461,4296.666504,4334.743652,4399.871582,4308.461426,4297.692383,4478.333496,4508.846191,4349.615234,4418.589844,0.000000,1.000000,24.000000,,,,0.000000,2.000000,2.000000,0.000000,4.000000,2.000000,2.000000,0.000000,0.000000,4.000000,4.000000,4.000000,4.000000,4.000000,4.000000,0.000000,,,,,,,,,,,,,,,,,,,,,,,,,,,,
1732157338.284190,1732157338.286026,26.000000,0.000000,4290.769043,4288.589844,4314.743652,4302.563965,4297.307617,4295.384766,4334.743652,4397.692383,4316.153809,4303.717773,4474.230957,4504.358887,4349.102539,4411.282227,0.000000,1.000000,24.000000,,,,0.000000,2.000000,2.000000,0.000000,4.000000,2.000000,2.000000,0.000000,0.000000,4.000000,4.000000,4.000000,4.000000,4.000000,4.000000,0.000000,,,,,,,,,,,,,,,,,,,,,,,,,,,,
1732157338.291998,1732157338.293834,27.000000,0.000000,4292.436035,4292.179688,4316.410156,4302.820313,4305.256348,4294.230957,4334.102539,4398.333496,4310.000000,4299.743652,4473.589844,4501.410156,4350.000000,4410.897461,0.000000,1.000000,24.000000,,,,0.000000,2.000000,2.000000,0.000000,4.000000,2.000000,2.000000,0.000000,0.000000,4.000000,4.000000,4.000000,4.000000,4.000000,4.000000,0.000000,,,,,,,,,,,,,,,,,,,,,,,,,,,,
1732157338.299806,1732157338.301542,28.000000,0.000000,4295.256348,4291.922852,4315.384766,4301.153809,4285.512695,4292.307617,4334.102539,4399.615234,4307.820313,4296.410156,4479.358887,4504.358887,4351.153809,4421.153809,0.000000,1.000000,24.000000,,,,0.000000,2.000000,2.000000,0.000000,4.000000,2.000000,2.000000,0.000000,0.000000,4.000000,4.000000,4.000000,4.000000,4.000000,4.000000,0.000000,,,,,,,,,,,,,,,,,7.000000,0.000000,0.516767,0.494324,-0.529358,0.456482,0.980100,0.024905,-0.050787,-34.994953,45.839985,31.442333
1732157338.307615,1732157338.309350,29.000000,0.000000,4295.000000,4293.205078,4313.846191,4304.871582,4269.358887,4291.666504,4334.615234,4397.179688,4312.948730,4298.974121,4480.641113,4510.512695,4351.922852,4425.641113,0.000000,1.000000,24.000000,,,,0.000000,2.000000,2.000000,0.000000,4.000000,2.000000,2.000000,0.000000,0.000000,4.000000,4.000000,4.000000,4.000000,4.000000,4.000000,0.000000,,,,,,,,,,,,,,,,,,,,,,,,,,,,
1732157338.315423,1732157338.317358,30.000000,0.000000,4293.461426,4293.846191,4316.153809,4305.641113,4278.077148,4293.333496,4334.102539,4397.948730,4313.205078,4298.333496,4477.051270,4509.871582,4349.743652,4416.922852,0.000000,1.000000,24.000000,,,,0.000000,2.000000,2.000000,0.000000,4.000000,2.000000,2.000000,0.000000,0.000000,4.000000,4.000000,4.000000,4.000000,4.000000,4.000000,0.000000,,,,,,,,,,,,,,,,,,,,,,,,,,,,
1732157338.323231,1732157338.325167,31.000000,0.000000,4293.333496,4288.205078,4317.179688,4302.820313,4283.461426,4294.487305,4333.333496,4401.666504,4310.000000,4293.589844,4475.256348,4505.256348,4344.487305,4410.641113,0.000000,1.000000,24.000000,,,,0.000000,2.000000,2.000000,0.000000,4.000000,2.000000,2.000000,0.000000,0.000000,4.000000,4.000000,4.000000,4.000000,4.000000,4.000000,0.000000,,,,,,,,,,,,,,,,,,,,,,,,,,,,
1732157338.331040,1732157338.333075,32.000000,0.000000,4291.538574,4280.897461,4314.487305,4298.846191,4277.692383,4294.102539,4332.948730,4399.487305,4311.025879,4293.589844,4475.512695,4507.820313,4343.589844,4412.179688,0.000000,1.000000,24.000000,,,,0.000000,2.000000,2.000000,0.000000,4.000000,2.000000,2.000000,0.000000,0.000000,4.000000,4.000000,4.000000,4.000000,4.000000,4.000000,0.000000,,,,,,,,,,,,,,,,,8.000000,0.000000,0.516871,0.494263,-0.529419,0.456360,0.981565,0.029789,-0.048834,-34.964245,45.743721,31.484957
1732157338.338848,1732157338.340883,33.000000,0.000000,4290.897461,4278.717773,4314.230957,4296.794922,4277.692383,4295.000000,4332.948730,4396.538574,4310.641113,4296.153809,4475.128418,4505.769043,4344.102539,4412.051270,0.000000,1.000000,24.000000,,,,0.000000,2.000000,2.000000,0.000000,4.000000,2.000000,2.000000,0.000000,0.000000,4.000000,4.000000,4.000000,4.000000,4.000000,4.000000,0.000000,,,,,,,,,,,,,,,,,,,,,,,,,,,,
1732157338.346656,1732157338.348891,34.000000,0.000000,4293.846191,4281.538574,4317.692383,4305.128418,4281.153809,4294.102539,4334.871582,4399.743652,4302.820313,4290.641113,4472.948730,4494.358887,4339.358887,4410.256348,0.000000,1.000000,24.000000,,,,0.000000,2.000000,2.000000,0.000000,4.000000,2.000000,2.000000,0.000000,0.000000,4.000000,4.000000,4.000000,4.000000,4.000000,4.000000,0.000000,,,,,,,,,,,,,,,,,,,,,,,,,,,,
1732157338.354464,1732157338.356699,35.000000,0.000000,4293.846191,4284.871582,4319.871582,4312.692383,4285.256348,4287.307617,4335.769043,4401.538574,4303.717773,4285.512695,4472.307617,4494.871582,4337.820313,4412.051270,0.000000,1.000000,24.000000,,,,0.000000,2.000000,2.000000,0.000000,4.000000,2.000000,2.000000,0.000000,0.000000,4.000000,4.000000,4.000000,4.000000,4.000000,4.000000,0.000000,,,,,,,,,,,,,,,,,,,,,,,,,,,,
1732157338.362272,1732157338.364607,36.000000,0.000000,4292.820313,4291.410156,4317.692383,4311.666504,4282.820313,4281.538574,4333.846191,4399.358887,4312.051270,4292.436035,4474.743652,4506.025879,4342.307617,4413.589844,0.000000,1.000000,24.000000,,,,0.000000,2.000000,2.000000,0.000000,4.000000,2.000000,2.000000,0.000000,0.000000,4.000000,4.000000,4.000000,4.000000,4.000000,4.000000,0.000000,,,,,,,,,,,,,,,,,9.000000,0.000000,0.516979,0.494141,-0.529480,0.456299,0.983030,0.030765,-0.043951,-35.206039,45.864079,31.392815
1732157338.370081,1732157338.372415,37.000000,0.000000,4295.256348,4295.128418,4315.256348,4309.743652,4281.410156,4282.820313,4332.563965,4399.487305,4307.051270,4298.333496,4475.128418,4507.563965,4340.000000,4414.102539,0.000000,1.000000,24.000000,,,,0.000000,2.000000,2.000000,0.000000,4.000000,2.000000,2.000000,0.000000,0.000000,4.000000,4.000000,4.000000,4.000000,4.000000,4.000000,0.000000,,,,,,,,,,,,,,,,,,,,,,,,,,,,
1732157338.377889,1732157338.380423,38.000000,0.000000,4297.692383,4294.230957,4314.102539,4308.205078,4297.179688,4283.333496,4334.230957,4400.897461,4299.487305,4291.025879,4474.615234,4503.974121,4333.974121,4413.461426,0.000000,1.000000,24.000000,,,,0.000000,2.000000,2.000000,0.000000,4.000000,2.000000,2.000000,0.000000,0.000000,4.000000,4.000000,4.000000,4.000000,4.000000,4.000000,0.000000,,,,,,,,,,,,,,,,,,,,,,,,,,,,
1732157338.385697,1732157338.388232,39.000000,0.000000,4294.615234,4294.871582,4313.846191,4305.641113,4298.077148,4281.025879,4335.256348,4401.025879,4305.384766,4287.179688,4475.000000,4504.358887,4336.153809,4412.307617,0.000000,1.000000,24.000000,,,,0.000000,2.000000,2.000000,0.000000,4.000000,2.000000,2.000000,0.000000,0.000000,4.000000,4.000000,4.000000,4.000000,4.000000,4.000000,0.000000,,,,,,,,,,,,,,,,,,,,,,,,,,,,
1732157338.393505,1732157338.396140,40.000000,0.000000,4292.563965,4293.461426,4314.230957,4307.948730,4277.436035,4287.179688,4333.974121,4400.384766,4310.897461,4293.205078,4474.102539,4505.641113,4340.512695,4413.077148,0.000000,1.000000,24.000000,,,,0.000000,2.000000,2.000000,0.000000,4.000000,2.000000,2.000000,0.000000,0.000000,4.000000,4.000000,4.000000,4.000000,4.000000,4.000000,0.000000,,,,,,,,,,,,,,,,,10.000000,0.000000,0.517326,0.493713,-0.529907,0.455872,0.971798,0.024905,-0.036626,-35.268559,45.721573,31.579845
1732157338.401314,1732157338.403948,41.000000,0.000000,4295.641113,4294.743652,4314.487305,4312.820313,4275.128418,4295.641113,4333.077148,4398.846191,4308.333496,4290.128418,4471.922852,4505.512695,4342.051270,4414.358887,0.000000,1.000000,24.000000,,,,0.000000,2.000000,2.000000,0.000000,4.000000,2.000000,2.000000,0.000000,0.000000,4.000000,4.000000,4.000000,4.000000,4.000000,4.000000,0.000000,,,,,,,,,,,,,,,,,,,,,,,,,,,,
1732157338.409122,1732157338.411956,42.000000,0.000000,4296.794922,4294.358887,4313.717773,4310.384766,4284.615234,4295.000000,4333.589844,4398.461426,4307.820313,4281.410156,4470.897461,4500.000000,4340.897461,4415.384766,0.000000,1.000000,24.000000,,,,0.000000,2.000000,2.000000,0.000000,4.000000,2.000000,2.000000,0.000000,0.000000,4.000000,4.000000,4.000000,4.000000,4.000000,4.000000,0.000000,,,,,,,,,,,,,,,,,,,,,,,,,,,,
1732157338.416930,1732157338.419764,43.000000,0.000000,4295.256348,4287.307617,4316.282227,4302.436035,4282.179688,4292.692383,4334.230957,4398.333496,4309.871582,4281.410156,4470.641113,4495.897461,4336.922852,4414.102539,0.000000,1.000000,24.000000,,,,0.000000,2.000000,2.000000,0.000000,4.000000,2.000000,2.000000,0.000000,0.000000,4.000000,4.000000,4.000000,4.000000,4.000000,4.000000,0.000000,,,,,,,,,,,,,,,,,,,,,,,,,,,,
1732157338.424738,1732157338.427472,44.000000,0.000000,4294.615234,4286.025879,4318.205078,4298.974121,4281.153809,4294.487305,4333.974121,4396.666504,4311.410156,4291.153809,4470.769043,4496.282227,4334.615234,4411.794922,0.000000,1.000000,24.000000,,,,0.000000,2.000000,2.000000,0.000000,4.000000,2.000000,2.000000,0.000000,0.000000,4.000000,4.000000,4.000000,4.000000,4.000000,4.000000,0.000000,,,,,,,,,,,,,,,,,11.000000,0.000000,0.517277,0.493774,-0.529846,0.455933,0.980100,0.042486,-0.036626,-35.092533,45.867805,31.558008
1732157338.432547,1732157338.435281,45.000000,0.000000,4294.102539,4288.846191,4315.897461,4303.717773,4288.461426,4296.538574,4333.846191,4397.948730,4313.589844,4295.769043,4473.461426,4498.333496,4334.743652,4411.153809,0.000000,1.000000,24.000000,,,,0.000000,2.000000,2.000000,0.000000,4.000000,2.000000,2.000000,0.000000,0.000000,4.000000,4.000000,4.000000,4.000000,4.000000,4.000000,0.000000,,,,,,,,,,,,,,,,,,,,,,,,,,,,
1732157338.440355,1732157338.442889,46.000000,0.000000,4290.641113,4286.025879,4313.461426,4307.179688,4290.897461,4295.512695,4333.974121,4400.512695,4314.615234,4293.974121,4477.051270,4500.128418,4335.128418,4411.666504,0.000000,1.000000,24.000000,,,,0.000000,2.000000,2.000000,0.000000,4.000000,2.000000,2.000000,0.000000,0.000000,4.000000,4.000000,4.000000,4.000000,4.000000,4.000000,0.000000,,,,,,,,,,,,,,,,,,,,,,,,,,,,
1732157338.448163,1732157338.450697,47.000000,0.000000,4289.358887,4281.538574,4313.333496,4302.307617,4290.897461,4293.589844,4333.974121,4399.230957,4311.538574,4293.461426,4477.179688,4500.384766,4336.025879,4412.563965,0.000000,1.000000,24.000000,,,,0.000000,2.000000,2.000000,0.000000,4.000000,2.000000,2.000000,0.000000,0.000000,4.000000,4.000000,4.000000,4.000000,4.000000,4.000000,0.000000,,,,,,,,,,,,,,,,,,,,,,,,,,,,
1732157338.455971,1732157338.458406,48.000000,0.000000,4293.205078,4282.563965,4314.743652,4300.256348,4284.358887,4294.615234,4333.974121,4398.205078,4311.153809,4294.487305,4474.743652,4497.307617,4335.641113,4412.436035,0.000000,1.000000,24.000000,,,,0.000000,2.000000,2.000000,0.000000,4.000000,2.000000,2.000000,0.000000,0.000000,4.000000,4.000000,4.000000,4.000000,4.000000,4.000000,0.000000,,,,,,,,,,,,,,,,,12.000000,0.000000,0.517335,0.493713,-0.529846,0.455933,0.976682,0.022464,-0.052741,-35.011620,46.019588,31.451986
1732157338.463780,1732157338.466214,49.000000,0.000000,4293.846191,4282.436035,4315.384766,4301.538574,4276.410156,4291.410156,4333.974121,4402.051270,4313.461426,4296.025879,4474.102539,4497.563965,4333.077148,4412.436035,0.000000,1.000000,24.000000,,,,0.000000,2.000000,2.000000,0.000000,4.000000,2.000000,2.000000,0.000000,0.000000,4.000000,4.000000,4.000000,4.000000,4.000000,4.000000,0.000000,,,,,,,,,,,,,,,,,,,,,,,,,,,,
1732157338.471588,1732157338.473822,50.000000,0.000000,4290.897461,4281.922852,4313.077148,4299.743652,4288.717773,4284.615234,4333.974121,4402.436035,4305.769043,4288.974121,4474.615234,4496.794922,4332.948730,4414.102539,0.000000,1.000000,24.000000,,,,0.000000,2.000000,2.000000,0.000000,4.000000,2.000000,2.000000,0.000000,0.000000,4.000000,4.000000,4.000000,4.000000,4.000000,4.000000,0.000000,,,,,,,,,,,,,,,,,,,,,,,,,,,,
1732157338.479396,1732157338.481630,51.000000,0.000000,4289.230957,4282.563965,4311.538574,4297.692383,4299.871582,4287.436035,4333.974121,4400.897461,4300.256348,4279.743652,4474.230957,4499.102539,4334.487305,4413.846191,0.000000,1.000000,24.000000,,,,0.000000,2.000000,2.000000,0.000000,4.000000,2.000000,2.000000,0.000000,0.000000,4.000000,4.000000,4.000000,4.000000,4.000000,4.000000,0.000000,,,,,,,,,,,,,,,,,,,,,,,,,,,,
1732157338.487204,1732157338.489339,52.000000,0.000000,4288.461426,4280.256348,4314.230957,4299.871582,4284.358887,4296.025879,4333.974121,4401.538574,4308.077148,4286.794922,4473.205078,4503.846191,4332.820313,4411.025879,0.000000,1.000000,24.000000,,,,0.000000,2.000000,2.000000,0.000000,4.000000,2.000000,2.000000,0.000000,0.000000,4.000000,4.000000,4.000000,4.000000,4.000000,4.000000,0.000000,,,,,,,,,,,,,,,,,13.000000,0.000000,0.517488,0.493469,-0.530029,0.455811,0.984984,0.021975,-0.052741,-34.979412,46.192535,31.554443
1732157338.495013,1732157338.497147,53.000000,0.000000,4287.563965,4280.512695,4315.512695,4300.769043,4270.000000,4297.436035,4333.974121,4399.743652,4315.769043,4297.820313,4474.615234,4499.102539,4333.205078,4411.794922,0.000000,1.000000,24.000000,,,,0.000000,2.000000,2.000000,0.000000,4.000000,2.000000,2.000000,0.000000,0.000000,4.000000,4.000000,4.000000,4.000000,4.000000,4.000000,0.000000,,,,,,,,,,,,,,,,,,,,,,,,,,,,
1732157338.502821,1732157338.505155,54.000000,0.000000,4292.051270,4281.666504,4315.512695,4299.743652,4278.461426,4292.307617,4333.974121,4399.230957,4309.487305,4289.743652,4477.948730,4496.025879,4337.307617,4414.871582,0.000000,1.000000,24.000000,,,,0.000000,2.000000,2.000000,0.000000,4.000000,2.000000,2.000000,0.000000,0.000000,4.000000,4.000000,4.000000,4.000000,4.000000,4.000000,0.000000,,,,,,,,,,,,,,,,,,,,,,,,,,,,
1732157338.510629,1732157338.512963,55.000000,0.000000,4293.974121,4281.794922,4316.153809,4302.051270,4281.922852,4284.358887,4333.974121,4399.230957,4299.358887,4277.820313,4478.205078,4501.666504,4336.538574,4414.102539,0.000000,1.000000,24.000000,,,,0.000000,2.000000,2.000000,0.000000,4.000000,2.000000,2.000000,0.000000,0.000000,4.000000,4.000000,4.000000,4.000000,4.000000,4.000000,0.000000,,,,,,,,,,,,,,,,,,,,,,,,,,,,
1732157338.518437,1732157338.520671,56.000000,0.000000,4286.025879,4282.051270,4315.128418,4301.922852,4271.410156,4277.179688,4333.974121,4397.563965,4298.846191,4281.794922,4475.384766,4504.871582,4331.153809,4413.846191,0.000000,1.000000,24.000000,,,,0.000000,2.000000,2.000000,0.000000,4.000000,2.000000,2.000000,0.000000,0.000000,4.000000,4.000000,4.000000,4.000000,4.000000,4.000000,0.000000,,,,,,,,,,,,,,,,,14.000000,0.000000,0.517447,0.493530,-0.529907,0.455933,0.984984,0.016115,-0.052252,-35.068321,46.310951,31.540766
1732157338.526245,1732157338.528480,57.000000,0.000000,4280.000000,4280.769043,4314.102539,4298.077148,4285.256348,4280.384766,4333.846191,4397.307617,4305.000000,4284.358887,4473.717773,4498.717773,4327.692383,4415.769043,0.000000,1.000000,24.000000,,,,0.000000,2.000000,2.000000,0.000000,4.000000,2.000000,2.000000,0.000000,0.000000,4.000000,4.000000,4.000000,4.000000,4.000000,4.000000,0.000000,,,,,,,,,,,,,,,,,,,,,,,,,,,,
1732157338.534054,1732157338.536088,58.000000,0.000000,4282.436035,4278.846191,4315.128418,4296.666504,4302.692383,4287.563965,4333.846191,4399.487305,4310.128418,4279.743652,4475.256348,4490.769043,4327.307617,4415.000000,0.000000,1.000000,24.000000,,,,0.000000,2.000000,2.000000,0.000000,4.000000,2.000000,2.000000,0.000000,0.000000,4.000000,4.000000,4.000000,4.000000,4.000000,4.000000,0.000000,,,,,,,,,,,,,,,,,,,,,,,,,,,,
1732157338.541862,1732157338.543896,59.000000,0.000000,4282.307617,4277.307617,4314.230957,4296.025879,4283.333496,4291.666504,4333.974121,4399.358887,4311.794922,4279.871582,4471.410156,4487.820313,4326.538574,4412.948730,0.000000,1.000000,24.000000,,,,0.000000,2.000000,2.000000,0.000000,4.000000,2.000000,2.000000,0.000000,0.000000,4.000000,4.000000,4.000000,4.000000,4.000000,4.000000,0.000000,,,,,,,,,,,,,,,,,,,,,,,,,,,,
1732157338.549670,1732157338.551605,60.000000,0.000000,4278.077148,4276.922852,4313.333496,4294.102539,4268.461426,4296.922852,4333.974121,4398.205078,4312.563965,4282.307617,4462.563965,4487.948730,4323.589844,4411.922852,0.000000,1.000000,24.000000,,,,0.000000,2.000000,2.000000,0.000000,4.000000,2.000000,2.000000,0.000000,0.000000,4.000000,4.000000,4.000000,4.000000,4.000000,4.000000,0.000000,,,,,,,,,,,,,,,,,15.000000,0.000000,0.517286,0.493652,-0.529846,0.456055,0.980588,0.030277,-0.052252,-35.150341,46.220203,31.279686
1732157338.557479,1732157338.559413,61.000000,0.000000,4278.717773,4277.051270,4313.846191,4293.461426,4287.820313,4297.820313,4333.717773,4399.743652,4310.769043,4283.205078,4463.589844,4489.230957,4325.512695,4413.333496,0.000000,1.000000,24.000000,,,,0.000000,2.000000,2.000000,0.000000,4.000000,2.000000,2.000000,0.000000,0.000000,4.000000,4.000000,4.000000,4.000000,4.000000,4.000000,0.000000,,,,,,,,,,,,,,,,,,,,,,,,,,,,
1732157338.565287,1732157338.567021,62.000000,0.000000,4281.410156,4278.846191,4313.974121,4296.538574,4291.538574,4294.358887,4335.000000,4400.769043,4311.794922,4290.256348,4473.974121,4490.256348,4333.461426,4417.436035,0.000000,1.000000,24.000000,,,,0.000000,2.000000,2.000000,0.000000,4.000000,2.000000,2.000000,0.000000,0.000000,4.000000,4.000000,4.000000,4.000000,4.000000,4.000000,0.000000,,,,,,,,,,,,,,,,,,,,,,,,,,,,
1732157338.573095,1732157338.574829,63.000000,0.000000,4282.436035,4282.051270,4313.461426,4301.922852,4272.563965,4294.615234,4336.282227,4399.871582,4309.871582,4293.205078,4478.333496,4494.358887,4337.563965,4419.358887,0.000000,1.000000,24.000000,,,,0.000000,2.000000,2.000000,0.000000,4.000000,2.000000,2.000000,0.000000,0.000000,4.000000,4.000000,4.000000,4.000000,4.000000,4.000000,0.000000,,,,,,,,,,,,,,,,,,,,,,,,,,,,
1732157338.580903,1732157338.582737,64.000000,0.000000,4283.077148,4282.051270,4312.948730,4304.102539,4273.717773,4291.153809,4335.128418,4399.743652,4297.820313,4285.000000,4475.769043,4494.743652,4334.230957,4419.871582,0.000000,1.000000,24.000000,,,,0.000000,2.000000,2.000000,0.000000,4.000000,2.000000,2.000000,0.000000,0.000000,4.000000,4.000000,4.000000,4.000000,4.000000,4.000000,0.000000,,,,,,,,,,,,,,,,,16.000000,0.000000,0.517178,0.493774,-0.529785,0.456116,0.986449,0.024905,-0.047369,-35.161777,46.180035,31.114880
1732157338.588711,1732157338.590546,65.000000,0.000000,4281.538574,4278.461426,4312.307617,4300.000000,4281.794922,4286.794922,4334.102539,4402.436035,4298.077148,4282.820313,4475.512695,4493.205078,4332.820313,4418.333496,1589.000000,1.000000,24.000000,,,,0.000000,2.000000,2.000000,0.000000,4.000000,2.000000,2.000000,0.000000,0.000000,4.000000,4.000000,4.000000,4.000000,4.000000,4.000000,0.000000,,,,,,,,,,,,,,,,,,,,,,,,,,,,
1732157338.596520,1732157338.598554,66.000000,0.000000,4279.487305,4276.410156,4312.563965,4296.025879,4278.589844,4287.948730,4335.256348,4402.051270,4322.563965,4293.846191,4474.487305,4490.512695,4334.102539,4414.871582,1382.000000,1.000000,24.000000,,,,0.000000,2.000000,2.000000,0.000000,4.000000,2.000000,2.000000,0.000000,0.000000,4.000000,4.000000,4.000000,4.000000,4.000000,4.000000,0.000000,,,,,,,,,,,,,,,,,,,,,,,,,,,,
1732157338.604328,1732157338.606362,67.000000,0.000000,4280.128418,4277.563965,4314.230957,4296.538574,4282.179688,4286.922852,4335.769043,4397.436035,4334.743652,4302.307617,4474.487305,4488.333496,4334.102539,4415.128418,1411.000000,1.000000,24.000000,,,,0.000000,2.000000,2.000000,0.000000,4.000000,2.000000,2.000000,0.000000,0.000000,4.000000,4.000000,4.000000,4.000000,4.000000,4.000000,0.000000,,,,,,,,,,,,,,,,,,,,,,,,,,,,
1732157338.612136,1732157338.614270,68.000000,0.000000,4281.282227,4280.384766,4312.820313,4299.487305,4282.692383,4286.153809,4335.384766,4398.333496,4310.512695,4292.820313,4476.153809,4491.794922,4333.589844,4420.256348,1404.000000,1.000000,24.000000,,,,0.000000,2.000000,2.000000,0.000000,4.000000,2.000000,2.000000,0.000000,0.000000,4.000000,4.000000,4.000000,4.000000,4.000000,4.000000,0.000000,,,,,,,,,,,,,,,,,17.000000,0.000000,0.517492,0.493530,-0.529968,0.455811,0.976682,0.033207,-0.053717,-35.254372,46.230827,31.198053
1732157338.619944,1732157338.622078,69.000000,0.000000,4280.897461,4281.282227,4312.948730,4301.410156,4279.230957,4291.538574,4335.897461,4401.282227,4287.563965,4270.897461,4470.512695,4493.846191,4329.615234,4419.102539,1242.000000,1.000000,24.000000,,,,0.000000,2.000000,2.000000,0.000000,4.000000,2.000000,2.000000,0.000000,0.000000,4.000000,4.000000,4.000000,4.000000,4.000000,4.000000,0.000000,,,,,,,,,,,,,,,,,,,,,,,,,,,,
1732157338.627753,1732157338.629687,70.000000,0.000000,4281.666504,4278.333496,4314.230957,4296.922852,4291.538574,4286.922852,4335.897461,4401.153809,4290.512695,4261.025879,4460.256348,4491.282227,4325.384766,4413.333496,0.000000,1.000000,24.000000,,,,0.000000,2.000000,2.000000,0.000000,4.000000,2.000000,2.000000,0.000000,0.000000,4.000000,4.000000,4.000000,4.000000,4.000000,4.000000,0.000000,,,,,,,,,,,,,,,,,,,,,,,,,,,,
1732157338.635561,1732157338.637495,71.000000,0.000000,4282.563965,4275.897461,4313.846191,4294.487305,4296.794922,4278.077148,4335.641113,4400.641113,4297.051270,4271.666504,4458.589844,4490.769043,4327.179688,4418.333496,0.000000,1.000000,24.000000,,,,0.000000,2.000000,2.000000,0.000000,4.000000,2.000000,2.000000,0.000000,0.000000,4.000000,4.000000,4.000000,4.000000,4.000000,4.000000,0.000000,,,,,,,,,,,,,,,,,,,,,,,,,,,,
1732157338.643369,1732157338.645203,72.000000,0.000000,4282.436035,4279.230957,4313.846191,4304.487305,4277.436035,4289.615234,4336.538574,4399.743652,4297.179688,4281.282227,4468.461426,4495.384766,4331.282227,4422.692383,1524.000000,1.000000,24.000000,,,,0.000000,2.000000,2.000000,0.000000,4.000000,2.000000,2.000000,0.000000,0.000000,4.000000,4.000000,4.000000,4.000000,4.000000,4.000000,0.000000,,,,,,,,,,,,,,,,,18.000000,0.000000,0.517533,0.493469,-0.530090,0.455688,0.970333,0.027835,-0.049322,-35.117706,46.200302,31.027088
1732157338.651178,1732157338.653011,73.000000,0.000000,4282.436035,4281.922852,4314.615234,4308.077148,4269.358887,4296.410156,4335.384766,4398.974121,4297.436035,4278.589844,4472.820313,4499.358887,4331.410156,4416.153809,1671.000000,1.000000,24.000000,,,,0.000000,2.000000,2.000000,0.000000,4.000000,2.000000,2.000000,0.000000,0.000000,4.000000,4.000000,4.000000,4.000000,4.000000,4.000000,0.000000,,,,,,,,,,,,,,,,,,,,,,,,,,,,
