title:2three, start timestamp:1732157396.400992, stop timestamp:1732157446.748551, headset type:EPOCX, headset serial:E5020C3A, headset firmware:730, channels:67, sampling rate:eeg_128;mot_32, samples:6449      , version:2.2, 
Timestamp,OriginalTimestamp,EEG.Counter,EEG.Interpolated,EEG.AF3,EEG.F7,EEG.F3,EEG.FC5,EEG.T7,EEG.P7,EEG.O1,EEG.O2,EEG.P8,EEG.T8,EEG.FC6,EEG.F4,EEG.F8,EEG.AF4,EEG.RawCq,EEG.Battery,EEG.BatteryPercent,MarkerIndex,MarkerType,MarkerValueInt,EEG.MarkerHardware,CQ.AF3,CQ.F7,CQ.F3,CQ.FC5,CQ.T7,CQ.P7,CQ.O1,CQ.O2,CQ.P8,CQ.T8,CQ.FC6,CQ.F4,CQ.F8,CQ.AF4,CQ.Overall,EQ.SampleRateQuality,EQ.OVERALL,EQ.AF3,EQ.F7,EQ.F3,EQ.FC5,EQ.T7,EQ.P7,EQ.O1,EQ.O2,EQ.P8,EQ.T8,EQ.FC6,EQ.F4,EQ.F8,EQ.AF4,MOT.CounterMems,MOT.InterpolatedMems,MOT.Q0,MOT.Q1,MOT.Q2,MOT.Q3,MOT.AccX,MOT.AccY,MOT.AccZ,MOT.MagX,MOT.MagY,MOT.MagZ
1732157396.400992,1732157396.402721,45.000000,0.000000,4280.384766,4269.230957,4314.615234,4293.974121,4283.974121,4279.871582,4333.333496,4398.717773,4311.538574,4291.538574,4475.769043,4498.077148,4351.794922,4414.487305,0.000000,1.000000,24.000000,,,,0.000000,2.000000,2.000000,0.000000,4.000000,2.000000,2.000000,0.000000,0.000000,4.000000,4.000000,4.000000,4.000000,4.000000,4.000000,0.000000,,,,,,,,,,,,,,,,,,,,,,,,,,,,
1732157396.408800,1732157396.410729,46.000000,0.000000,4280.000000,4275.128418,4313.589844,4295.000000,4273.333496,4280.256348,4331.153809,4398.461426,4312.692383,4295.256348,4474.743652,4501.794922,4351.025879,4410.897461,0.000000,1.000000,24.000000,,,,0.000000,2.000000,2.000000,0.000000,4.000000,2.000000,2.000000,0.000000,0.000000,4.000000,4.000000,4.000000,4.000000,4.000000,4.000000,0.000000,,,,,,,,,,,,,,,,,,,,,,,,,,,,
1732157396.416608,1732157396.418537,47.000000,0.000000,4280.641113,4277.948730,4311.922852,4297.692383,4259.871582,4282.692383,4330.000000,4398.461426,4313.589844,4291.922852,4475.000000,4498.077148,4349.615234,4411.922852,0.000000,1.000000,24.000000,,,,0.000000,2.000000,2.000000,0.000000,4.000000,2.000000,2.000000,0.000000,0.000000,4.000000,4.000000,4.000000,4.000000,4.000000,4.000000,0.000000,,,,,,,,,,,,,,,,,,,,,,,,,,,,
1732157396.424417,1732157396.426445,48.000000,0.000000,4279.615234,4270.512695,4314.871582,4295.000000,4265.512695,4282.820313,4334.743652,4399.615234,4313.077148,4293.589844,4475.512695,4493.077148,4348.717773,4409.871582,0.000000,1.000000,24.000000,,,,0.000000,2.000000,2.000000,0.000000,4.000000,2.000000,2.000000,0.000000,0.000000,4.000000,4.000000,4.000000,4.000000,4.000000,4.000000,0.000000,,,,,,,,,,,,,,,,,12.000000,0.000000,0.515179,0.502869,-0.518677,0.461182,0.960566,0.041509,-0.043951,-34.780975,46.075500,31.259045
1732157396.432225,1732157396.434254,49.000000,0.000000,4281.025879,4268.077148,4315.256348,4294.487305,4275.128418,4281.153809,4335.256348,4399.358887,4311.282227,4293.974121,4475.256348,4495.256348,4348.461426,4403.717773,0.000000,1.000000,24.000000,,,,0.000000,2.000000,2.000000,0.000000,4.000000,2.000000,2.000000,0.000000,0.000000,4.000000,4.000000,4.000000,4.000000,4.000000,4.000000,0.000000,,,,,,,,,,,,,,,,,,,,,,,,,,,,
1732157396.440033,1732157396.442262,50.000000,0.000000,4280.769043,4272.179688,4312.948730,4296.666504,4278.077148,4281.666504,4332.692383,4397.307617,4310.769043,4287.820313,4475.769043,4494.358887,4348.333496,4402.563965,0.000000,1.000000,24.000000,,,,0.000000,2.000000,2.000000,0.000000,4.000000,2.000000,2.000000,0.000000,0.000000,4.000000,4.000000,4.000000,4.000000,4.000000,4.000000,0.000000,,,,,,,,,,,,,,,,,,,,,,,,,,,,
1732157396.447842,1732157396.450070,51.000000,0.000000,4278.077148,4273.333496,4313.205078,4296.666504,4277.948730,4281.922852,4333.974121,4398.461426,4310.384766,4282.948730,4475.641113,4491.922852,4348.717773,4401.666504,0.000000,1.000000,24.000000,,,,0.000000,2.000000,2.000000,0.000000,4.000000,2.000000,2.000000,0.000000,0.000000,4.000000,4.000000,4.000000,4.000000,4.000000,4.000000,0.000000,,,,,,,,,,,,,,,,,,,,,,,,,,,,
1732157396.455650,1732157396.457978,52.000000,0.000000,4278.077148,4269.871582,4313.974121,4294.358887,4275.897461,4281.025879,4334.871582,4402.179688,4309.615234,4290.128418,4475.512695,4492.948730,4349.102539,4398.846191,0.000000,1.000000,24.000000,,,,0.000000,2.000000,2.000000,0.000000,4.000000,2.000000,2.000000,0.000000,0.000000,4.000000,4.000000,4.000000,4.000000,4.000000,4.000000,0.000000,,,,,,,,,,,,,,,,,13.000000,0.000000,0.516867,0.502625,-0.518372,0.459900,0.960566,0.063484,-0.035161,-34.750923,45.896152,31.393160
1732157396.463458,1732157396.465786,53.000000,0.000000,4280.769043,4269.230957,4312.948730,4293.461426,4278.461426,4280.256348,4334.487305,4401.282227,4309.230957,4296.282227,4475.384766,4492.436035,4348.589844,4399.615234,0.000000,1.000000,24.000000,,,,0.000000,2.000000,2.000000,0.000000,4.000000,2.000000,2.000000,0.000000,0.000000,4.000000,4.000000,4.000000,4.000000,4.000000,4.000000,0.000000,,,,,,,,,,,,,,,,,,,,,,,,,,,,
1732157396.471266,1732157396.473794,54.000000,0.000000,4282.179688,4271.666504,4313.077148,4294.358887,4277.051270,4281.666504,4334.871582,4397.436035,4309.487305,4287.820313,4473.974121,4497.820313,4350.769043,4400.897461,0.000000,1.000000,24.000000,,,,0.000000,2.000000,2.000000,0.000000,4.000000,2.000000,2.000000,0.000000,0.000000,4.000000,4.000000,4.000000,4.000000,4.000000,4.000000,0.000000,,,,,,,,,,,,,,,,,,,,,,,,,,,,
1732157396.479074,1732157396.481602,55.000000,0.000000,4281.538574,4269.102539,4314.615234,4293.077148,4272.307617,4280.384766,4334.615234,4398.461426,4310.256348,4280.128418,4473.461426,4501.794922,4350.897461,4398.077148,0.000000,1.000000,24.000000,,,,0.000000,2.000000,2.000000,0.000000,4.000000,2.000000,2.000000,0.000000,0.000000,4.000000,4.000000,4.000000,4.000000,4.000000,4.000000,0.000000,,,,,,,,,,,,,,,,,,,,,,,,,,,,
1732157396.486883,1732157396.489510,56.000000,0.000000,4280.641113,4266.282227,4314.230957,4294.487305,4272.563965,4279.743652,4334.743652,4400.000000,4308.846191,4282.436035,4472.307617,4498.717773,4343.846191,4397.307617,0.000000,1.000000,24.000000,,,,0.000000,2.000000,2.000000,0.000000,4.000000,2.000000,2.000000,0.000000,0.000000,4.000000,4.000000,4.000000,4.000000,4.000000,4.000000,0.000000,,,,,,,,,,,,,,,,,14.000000,0.000000,0.517395,0.502808,-0.517883,0.459656,0.960566,0.063484,-0.035161,-34.639912,46.137550,31.318459
1732157396.494691,1732157396.497319,57.000000,0.000000,4279.615234,4265.384766,4312.563965,4294.487305,4281.410156,4285.641113,4334.743652,4397.948730,4307.307617,4279.871582,4467.051270,4500.384766,4339.615234,4398.589844,0.000000,1.000000,24.000000,,,,0.000000,2.000000,2.000000,0.000000,4.000000,2.000000,2.000000,0.000000,0.000000,4.000000,4.000000,4.000000,4.000000,4.000000,4.000000,0.000000,,,,,,,,,,,,,,,,,,,,,,,,,,,,
1732157396.502499,1732157396.505327,58.000000,0.000000,4281.025879,4267.179688,4313.589844,4291.538574,4288.974121,4287.179688,4334.615234,4397.820313,4310.384766,4280.256348,4466.282227,4506.666504,4345.000000,4399.230957,0.000000,1.000000,24.000000,,,,0.000000,2.000000,2.000000,0.000000,4.000000,2.000000,2.000000,0.000000,0.000000,4.000000,4.000000,4.000000,4.000000,4.000000,4.000000,0.000000,,,,,,,,,,,,,,,,,,,,,,,,,,,,
1732157396.510307,1732157396.513135,59.000000,0.000000,4283.846191,4274.358887,4315.000000,4299.743652,4276.794922,4280.769043,4334.615234,4399.358887,4313.589844,4291.922852,4475.256348,4509.743652,4351.282227,4407.820313,0.000000,1.000000,24.000000,,,,0.000000,2.000000,2.000000,0.000000,4.000000,2.000000,2.000000,0.000000,0.000000,4.000000,4.000000,4.000000,4.000000,4.000000,4.000000,0.000000,,,,,,,,,,,,,,,,,,,,,,,,,,,,
1732157396.518116,1732157396.521043,60.000000,0.000000,4284.102539,4279.871582,4312.563965,4309.487305,4259.487305,4278.974121,4334.743652,4399.358887,4312.692383,4291.666504,4479.871582,4509.230957,4350.769043,4417.051270,0.000000,1.000000,24.000000,,,,0.000000,2.000000,2.000000,0.000000,4.000000,2.000000,2.000000,0.000000,0.000000,4.000000,4.000000,4.000000,4.000000,4.000000,4.000000,0.000000,,,,,,,,,,,,,,,,,15.000000,0.000000,0.519139,0.504089,-0.515808,0.458618,0.983518,0.086436,-0.027347,-34.634998,45.951416,31.251286
1732157396.525924,1732157396.528851,61.000000,0.000000,4282.436035,4277.051270,4311.410156,4305.897461,4262.563965,4283.717773,4334.615234,4399.871582,4310.769043,4278.333496,4475.512695,4509.230957,4351.025879,4413.077148,0.000000,1.000000,24.000000,,,,0.000000,2.000000,2.000000,0.000000,4.000000,2.000000,2.000000,0.000000,0.000000,4.000000,4.000000,4.000000,4.000000,4.000000,4.000000,0.000000,,,,,,,,,,,,,,,,,,,,,,,,,,,,
1732157396.533732,1732157396.536859,62.000000,0.000000,4283.205078,4277.436035,4314.615234,4301.282227,4276.538574,4282.948730,4335.000000,4401.153809,4306.922852,4277.948730,4472.307617,4507.692383,4350.897461,4405.512695,0.000000,1.000000,24.000000,,,,0.000000,2.000000,2.000000,0.000000,4.000000,2.000000,2.000000,0.000000,0.000000,4.000000,4.000000,4.000000,4.000000,4.000000,4.000000,0.000000,,,,,,,,,,,,,,,,,,,,,,,,,,,,
1732157396.541541,1732157396.544667,63.000000,0.000000,4283.846191,4279.358887,4310.384766,4302.307617,4278.846191,4280.256348,4335.128418,4399.743652,4308.846191,4283.589844,4473.333496,4507.948730,4347.307617,4407.179688,0.000000,1.000000,24.000000,,,,0.000000,2.000000,2.000000,0.000000,4.000000,2.000000,2.000000,0.000000,0.000000,4.000000,4.000000,4.000000,4.000000,4.000000,4.000000,0.000000,,,,,,,,,,,,,,,,,,,,,,,,,,,,
1732157396.549349,1732157396.552575,64.000000,0.000000,4282.436035,4273.846191,4304.358887,4301.794922,4276.282227,4281.282227,4334.358887,4398.461426,4316.922852,4282.820313,4475.512695,4508.974121,4346.666504,4411.666504,0.000000,1.000000,24.000000,,,,0.000000,2.000000,2.000000,0.000000,4.000000,2.000000,2.000000,0.000000,0.000000,4.000000,4.000000,4.000000,4.000000,4.000000,4.000000,0.000000,,,,,,,,,,,,,,,,,16.000000,0.000000,0.519270,0.504883,-0.515442,0.458008,0.983030,0.083018,-0.048346,-34.497681,46.113979,31.346874
1732157396.557157,1732157396.560384,65.000000,0.000000,4281.282227,4270.512695,4308.974121,4302.307617,4277.179688,4281.153809,4335.512695,4398.846191,4315.769043,4281.282227,4477.179688,4508.333496,4348.974121,4411.794922,1591.000000,1.000000,24.000000,,,,0.000000,2.000000,2.000000,0.000000,4.000000,2.000000,2.000000,0.000000,0.000000,4.000000,4.000000,4.000000,4.000000,4.000000,4.000000,0.000000,,,,,,,,,,,,,,,,,,,,,,,,,,,,
1732157396.564965,1732157396.567992,66.000000,0.000000,4282.948730,4275.641113,4308.717773,4302.948730,4277.948730,4279.358887,4335.256348,4399.230957,4309.102539,4282.436035,4477.179688,4506.538574,4349.487305,4411.153809,1381.000000,1.000000,24.000000,,,,0.000000,2.000000,2.000000,0.000000,4.000000,2.000000,2.000000,0.000000,0.000000,4.000000,4.000000,4.000000,4.000000,4.000000,4.000000,0.000000,,,,,,,,,,,,,,,,,,,,,,,,,,,,
1732157396.572773,1732157396.575800,67.000000,0.000000,4283.589844,4281.794922,4298.205078,4302.820313,4280.128418,4279.743652,4330.000000,4397.179688,4311.794922,4283.846191,4477.820313,4506.025879,4351.025879,4412.436035,1412.000000,1.000000,24.000000,,,,0.000000,2.000000,2.000000,0.000000,4.000000,2.000000,2.000000,0.000000,0.000000,4.000000,4.000000,4.000000,4.000000,4.000000,4.000000,0.000000,,,,,,,,,,,,,,,,,,,,,,,,,,,,
1732157396.580582,1732157396.583509,68.000000,0.000000,4282.307617,4281.538574,4296.025879,4307.692383,4278.589844,4282.051270,4325.256348,4394.615234,4313.205078,4282.436035,4477.948730,4508.589844,4351.153809,4412.948730,1412.000000,1.000000,24.000000,,,,0.000000,2.000000,2.000000,0.000000,4.000000,2.000000,2.000000,0.000000,0.000000,4.000000,4.000000,4.000000,4.000000,4.000000,4.000000,0.000000,,,,,,,,,,,,,,,,,17.000000,0.000000,0.519065,0.505371,-0.515442,0.457703,0.992309,0.063973,-0.038091,-34.498119,46.198990,31.354301
1732157396.588390,1732157396.591317,69.000000,0.000000,4281.538574,4278.846191,4297.948730,4311.025879,4275.897461,4283.077148,4324.615234,4395.769043,4308.461426,4280.897461,4476.538574,4511.794922,4347.820313,4413.461426,1229.000000,1.000000,24.000000,,,,0.000000,2.000000,2.000000,0.000000,4.000000,2.000000,2.000000,0.000000,0.000000,4.000000,4.000000,4.000000,4.000000,4.000000,4.000000,0.000000,,,,,,,,,,,,,,,,,,,,,,,,,,,,
1732157396.596198,1732157396.598925,70.000000,0.000000,4284.358887,4281.025879,4289.230957,4308.589844,4275.384766,4282.436035,4324.230957,4395.256348,4313.589844,4287.436035,4476.922852,4509.871582,4349.871582,4415.256348,0.000000,1.000000,24.000000,,,,0.000000,2.000000,2.000000,0.000000,4.000000,2.000000,2.000000,0.000000,0.000000,4.000000,4.000000,4.000000,4.000000,4.000000,4.000000,0.000000,,,,,,,,,,,,,,,,,,,,,,,,,,,,
1732157396.604006,1732157396.606733,71.000000,0.000000,4286.666504,4281.410156,4284.358887,4308.333496,4275.512695,4280.641113,4323.205078,4391.922852,4321.794922,4298.333496,4479.743652,4509.358887,4354.102539,4414.358887,0.000000,1.000000,24.000000,,,,0.000000,2.000000,2.000000,0.000000,4.000000,2.000000,2.000000,0.000000,0.000000,4.000000,4.000000,4.000000,4.000000,4.000000,4.000000,0.000000,,,,,,,,,,,,,,,,,,,,,,,,,,,,
1732157396.611815,1732157396.614442,72.000000,0.000000,4284.102539,4277.692383,4288.077148,4307.692383,4272.436035,4281.794922,4323.205078,4392.563965,4317.051270,4294.615234,4480.000000,4513.974121,4352.179688,4411.666504,1523.000000,1.000000,24.000000,,,,0.000000,2.000000,2.000000,0.000000,4.000000,2.000000,2.000000,0.000000,0.000000,4.000000,4.000000,4.000000,4.000000,4.000000,4.000000,0.000000,,,,,,,,,,,,,,,,,18.000000,0.000000,0.518207,0.505676,-0.516113,0.457581,0.961055,0.053717,-0.055183,-34.688477,46.224518,31.666985
1732157396.619623,1732157396.622250,73.000000,0.000000,4285.384766,4279.230957,4290.512695,4306.282227,4265.384766,4285.897461,4323.205078,4395.128418,4309.230957,4281.794922,4476.922852,4512.692383,4348.846191,4411.282227,1680.000000,1.000000,24.000000,,,,0.000000,2.000000,2.000000,0.000000,4.000000,2.000000,2.000000,0.000000,0.000000,4.000000,4.000000,4.000000,4.000000,4.000000,4.000000,0.000000,,,,,,,,,,,,,,,,,,,,,,,,,,,,
1732157396.627431,1732157396.629858,74.000000,0.000000,4291.666504,4282.436035,4291.538574,4309.358887,4267.948730,4285.769043,4324.230957,4392.051270,4314.102539,4288.461426,4476.025879,4506.794922,4348.333496,4412.948730,1541.000000,1.000000,24.000000,,,,0.000000,2.000000,2.000000,0.000000,4.000000,2.000000,2.000000,0.000000,0.000000,4.000000,4.000000,4.000000,4.000000,4.000000,4.000000,0.000000,,,,,,,,,,,,,,,,,,,,,,,,,,,,
1732157396.635239,1732157396.637667,75.000000,0.000000,4292.948730,4281.538574,4293.974121,4309.871582,4270.384766,4280.641113,4327.179688,4391.282227,4320.000000,4297.307617,4478.205078,4506.282227,4351.410156,4412.692383,1566.000000,1.000000,24.000000,,,,0.000000,2.000000,2.000000,0.000000,4.000000,2.000000,2.000000,0.000000,0.000000,4.000000,4.000000,4.000000,4.000000,4.000000,4.000000,0.000000,,,,,,,,,,,,,,,,,,,,,,,,,,,,
1732157396.643047,1732157396.645375,76.000000,0.000000,4290.384766,4282.051270,4296.282227,4308.205078,4268.077148,4280.897461,4330.897461,4392.563965,4314.102539,4286.282227,4476.538574,4508.077148,4347.307617,4411.538574,1693.000000,1.000000,24.000000,,,,0.000000,2.000000,2.000000,0.000000,4.000000,2.000000,2.000000,0.000000,0.000000,4.000000,4.000000,4.000000,4.000000,4.000000,4.000000,0.000000,,,,,,,,,,,,,,,,,19.000000,0.000000,0.517411,0.503174,-0.519348,0.457581,0.966427,0.020999,-0.051764,-34.707668,46.218525,31.483591
1732157396.650856,1732157396.653183,77.000000,0.000000,4285.256348,4281.153809,4300.769043,4307.179688,4272.948730,4287.563965,4330.000000,4393.461426,4311.410156,4279.358887,4472.051270,4506.538574,4335.769043,4412.436035,1670.000000,1.000000,24.000000,,,,0.000000,2.000000,2.000000,0.000000,4.000000,2.000000,2.000000,0.000000,0.000000,4.000000,4.000000,4.000000,4.000000,4.000000,4.000000,0.000000,,,,,,,,,,,,,,,,,,,,,,,,,,,,
1732157396.658664,1732157396.660791,78.000000,0.000000,4281.794922,4279.487305,4305.384766,4301.666504,4274.487305,4287.307617,4329.615234,4396.282227,4314.358887,4288.333496,4475.128418,4506.666504,4341.538574,4414.358887,1541.000000,1.000000,24.000000,,,,0.000000,2.000000,2.000000,0.000000,4.000000,2.000000,2.000000,0.000000,0.000000,4.000000,4.000000,4.000000,4.000000,4.000000,4.000000,0.000000,1.000000,0.000000,2.000000,2.000000,0.000000,1.000000,2.000000,0.000000,0.000000,0.000000,4.000000,4.000000,1.000000,4.000000,1.000000,4.000000,,,,,,,,,,,,
1732157396.666472,1732157396.668600,79.000000,0.000000,4282.051270,4277.948730,4306.538574,4293.717773,4267.179688,4281.410156,4331.666504,4395.512695,4310.897461,4291.282227,4478.077148,4505.897461,4358.077148,4414.230957,1566.000000,1.000000,24.000000,,,,0.000000,2.000000,2.000000,0.000000,4.000000,2.000000,2.000000,0.000000,0.000000,4.000000,4.000000,4.000000,4.000000,4.000000,4.000000,0.000000,,,,,,,,,,,,,,,,,,,,,,,,,,,,
1732157396.674281,1732157396.676508,80.000000,0.000000,4284.871582,4272.051270,4308.077148,4291.666504,4263.077148,4280.128418,4330.897461,4394.615234,4306.282227,4287.563965,4476.153809,4502.692383,4358.589844,4414.743652,1693.000000,1.000000,24.000000,,,,0.000000,2.000000,2.000000,0.000000,4.000000,2.000000,2.000000,0.000000,0.000000,4.000000,4.000000,4.000000,4.000000,4.000000,4.000000,0.000000,,,,,,,,,,,,,,,,,20.000000,0.000000,0.517698,0.500305,-0.522095,0.457275,0.964473,0.031742,-0.049322,-34.758209,46.120338,31.488375
1732157396.682089,1732157396.684316,81.000000,0.000000,4289.743652,4266.153809,4308.461426,4295.897461,4266.538574,4280.512695,4330.769043,4397.436035,4308.974121,4295.384766,4481.666504,4507.179688,4362.436035,4422.051270,1670.000000,1.000000,24.000000,,,,0.000000,2.000000,2.000000,0.000000,4.000000,2.000000,2.000000,0.000000,0.000000,4.000000,4.000000,4.000000,4.000000,4.000000,4.000000,0.000000,,,,,,,,,,,,,,,,,,,,,,,,,,,,
1732157396.689897,1732157396.692324,82.000000,0.000000,4290.769043,4268.717773,4309.102539,4291.282227,4264.615234,4277.051270,4333.974121,4398.846191,4313.077148,4305.897461,4492.051270,4514.102539,4382.179688,4431.153809,1541.000000,1.000000,24.000000,,,,0.000000,2.000000,2.000000,0.000000,4.000000,2.000000,2.000000,0.000000,0.000000,4.000000,4.000000,4.000000,4.000000,4.000000,4.000000,0.000000,,,,,,,,,,,,,,,,,,,,,,,,,,,,
1732157396.697705,1732157396.700132,83.000000,0.000000,4283.461426,4262.820313,4310.384766,4280.769043,4261.282227,4276.538574,4334.743652,4396.538574,4314.487305,4305.512695,4491.153809,4512.051270,4385.769043,4431.666504,1566.000000,1.000000,24.000000,,,,0.000000,2.000000,2.000000,0.000000,4.000000,2.000000,2.000000,0.000000,0.000000,4.000000,4.000000,4.000000,4.000000,4.000000,4.000000,0.000000,,,,,,,,,,,,,,,,,,,,,,,,,,,,
1732157396.705514,1732157396.707840,84.000000,0.000000,4278.846191,4250.769043,4310.384766,4278.589844,4264.102539,4280.512695,4332.820313,4397.563965,4311.282227,4297.436035,4486.025879,4505.384766,4373.333496,4427.179688,1693.000000,1.000000,24.000000,,,,0.000000,2.000000,2.000000,0.000000,4.000000,2.000000,2.000000,0.000000,0.000000,4.000000,4.000000,4.000000,4.000000,4.000000,4.000000,0.000000,,,,,,,,,,,,,,,,,21.000000,0.000000,0.518007,0.499451,-0.522766,0.457092,0.958613,0.049811,-0.055671,-34.867485,46.287476,31.268917
1732157396.713322,1732157396.715649,85.000000,0.000000,4281.794922,4253.974121,4311.794922,4284.230957,4267.179688,4282.179688,4334.358887,4398.974121,4308.333496,4298.333496,4488.589844,4505.128418,4371.282227,4428.461426,1670.000000,1.000000,24.000000,,,,0.000000,2.000000,2.000000,0.000000,4.000000,2.000000,2.000000,0.000000,0.000000,4.000000,4.000000,4.000000,4.000000,4.000000,4.000000,0.000000,,,,,,,,,,,,,,,,,,,,,,,,,,,,
1732157396.721130,1732157396.723657,86.000000,0.000000,4281.538574,4257.692383,4315.128418,4285.512695,4266.538574,4282.307617,4336.025879,4397.563965,4315.512695,4305.641113,4490.384766,4509.358887,4372.692383,4430.641113,1541.000000,1.000000,24.000000,,,,0.000000,2.000000,2.000000,0.000000,4.000000,2.000000,2.000000,0.000000,0.000000,4.000000,4.000000,4.000000,4.000000,4.000000,4.000000,0.000000,,,,,,,,,,,,,,,,,,,,,,,,,,,,
1732157396.728938,1732157396.731465,87.000000,0.000000,4280.128418,4250.128418,4314.871582,4280.512695,4261.153809,4282.563965,4335.641113,4398.077148,4321.794922,4301.410156,4487.436035,4508.205078,4368.077148,4426.538574,1566.000000,1.000000,24.000000,,,,0.000000,2.000000,2.000000,0.000000,4.000000,2.000000,2.000000,0.000000,0.000000,4.000000,4.000000,4.000000,4.000000,4.000000,4.000000,0.000000,,,,,,,,,,,,,,,,,,,,,,,,,,,,
1732157396.736746,1732157396.739173,88.000000,0.000000,4282.179688,4248.589844,4315.000000,4279.487305,4272.051270,4280.897461,4335.512695,4398.974121,4314.487305,4293.974121,4486.282227,4509.102539,4365.384766,4422.692383,1693.000000,1.000000,24.000000,,,,0.000000,2.000000,2.000000,0.000000,4.000000,2.000000,2.000000,0.000000,0.000000,4.000000,4.000000,4.000000,4.000000,4.000000,4.000000,0.000000,,,,,,,,,,,,,,,,,22.000000,0.000000,0.519204,0.497314,-0.523987,0.456665,0.988402,0.061531,-0.042486,-34.914330,46.356186,31.202824
1732157396.744555,1732157396.746981,89.000000,0.000000,4282.307617,4250.769043,4318.205078,4280.384766,4286.666504,4279.358887,4334.615234,4398.974121,4309.487305,4295.384766,4488.461426,4513.205078,4368.333496,4425.256348,1670.000000,1.000000,24.000000,,,,0.000000,2.000000,2.000000,0.000000,4.000000,2.000000,2.000000,0.000000,0.000000,4.000000,4.000000,4.000000,4.000000,4.000000,4.000000,0.000000,,,,,,,,,,,,,,,,,,,,,,,,,,,,
1732157396.752363,1732157396.754590,90.000000,0.000000,4282.948730,4250.641113,4316.282227,4280.512695,4272.692383,4284.743652,4335.128418,4400.512695,4315.641113,4299.487305,4491.153809,4515.256348,4373.333496,4430.512695,1541.000000,1.000000,24.000000,,,,0.000000,2.000000,2.000000,0.000000,4.000000,2.000000,2.000000,0.000000,0.000000,4.000000,4.000000,4.000000,4.000000,4.000000,4.000000,0.000000,,,,,,,,,,,,,,,,,,,,,,,,,,,,
1732157396.760171,1732157396.762398,91.000000,0.000000,4282.948730,4259.358887,4314.102539,4280.256348,4255.641113,4289.743652,4334.871582,4402.051270,4320.769043,4298.205078,4492.563965,4517.948730,4374.743652,4431.025879,1566.000000,1.000000,24.000000,,,,0.000000,2.000000,2.000000,0.000000,4.000000,2.000000,2.000000,0.000000,0.000000,4.000000,4.000000,4.000000,4.000000,4.000000,4.000000,0.000000,,,,,,,,,,,,,,,,,,,,,,,,,,,,
1732157396.767980,1732157396.770306,92.000000,0.000000,4281.794922,4262.436035,4320.000000,4280.128418,4262.179688,4284.230957,4334.487305,4401.538574,4318.333496,4293.333496,4492.179688,4521.666504,4371.025879,4427.948730,1693.000000,1.000000,24.000000,,,,0.000000,2.000000,2.000000,0.000000,4.000000,2.000000,2.000000,0.000000,0.000000,4.000000,4.000000,4.000000,4.000000,4.000000,4.000000,0.000000,,,,,,,,,,,,,,,,,23.000000,0.000000,0.520020,0.496277,-0.524109,0.456726,0.997192,0.064949,-0.039067,-34.955605,46.268513,31.247620
1732157396.775788,1732157396.778114,93.000000,0.000000,4280.769043,4252.307617,4323.589844,4280.769043,4268.205078,4278.589844,4335.256348,4400.384766,4315.000000,4290.769043,4490.128418,4521.410156,4366.410156,4427.307617,1670.000000,1.000000,24.000000,,,,0.000000,2.000000,2.000000,0.000000,4.000000,2.000000,2.000000,0.000000,0.000000,4.000000,4.000000,4.000000,4.000000,4.000000,4.000000,0.000000,,,,,,,,,,,,,,,,,,,,,,,,,,,,
1732157396.783596,1732157396.786122,94.000000,0.000000,4280.256348,4251.025879,4321.538574,4281.025879,4262.436035,4283.333496,4334.743652,4400.641113,4321.666504,4290.641113,4489.358887,4520.000000,4364.871582,4428.589844,1541.000000,1.000000,24.000000,,,,0.000000,2.000000,2.000000,0.000000,4.000000,2.000000,2.000000,0.000000,0.000000,4.000000,4.000000,4.000000,4.000000,4.000000,4.000000,0.000000,,,,,,,,,,,,,,,,,,,,,,,,,,,,
1732157396.791404,1732157396.793931,95.000000,0.000000,4281.410156,4255.769043,4320.256348,4278.461426,4263.846191,4290.000000,4334.230957,4400.128418,4325.128418,4289.487305,4490.000000,4523.717773,4367.563965,4428.205078,1566.000000,1.000000,24.000000,,,,0.000000,2.000000,2.000000,0.000000,4.000000,2.000000,2.000000,0.000000,0.000000,4.000000,4.000000,4.000000,4.000000,4.000000,4.000000,0.000000,,,,,,,,,,,,,,,,,,,,,,,,,,,,
1732157396.799212,1732157396.801839,96.000000,0.000000,4280.769043,4254.487305,4319.102539,4276.282227,4265.769043,4290.769043,4337.179688,4399.871582,4316.025879,4286.282227,4490.897461,4524.102539,4370.256348,4427.563965,1693.000000,1.000000,24.000000,,,,0.000000,2.000000,2.000000,0.000000,4.000000,2.000000,2.000000,0.000000,0.000000,4.000000,4.000000,4.000000,4.000000,4.000000,4.000000,0.000000,,,,,,,,,,,,,,,,,24.000000,0.000000,0.520029,0.496155,-0.524109,0.456848,0.997192,0.064949,-0.039067,-34.742374,45.964161,31.200573
1732157396.807021,1732157396.809647,97.000000,0.000000,4278.205078,4256.794922,4320.641113,4277.820313,4264.230957,4291.025879,4340.641113,4399.487305,4317.179688,4283.589844,4492.563965,4520.512695,4373.589844,4429.487305,1670.000000,1.000000,24.000000,,,,0.000000,2.000000,2.000000,0.000000,4.000000,2.000000,2.000000,0.000000,0.000000,4.000000,4.000000,4.000000,4.000000,4.000000,4.000000,0.000000,,,,,,,,,,,,,,,,,,,,,,,,,,,,
1732157396.814829,1732157396.817655,98.000000,0.000000,4279.743652,4263.333496,4323.589844,4278.846191,4269.358887,4296.025879,4340.256348,4401.025879,4330.000000,4281.794922,4493.846191,4521.153809,4378.077148,4428.717773,1541.000000,1.000000,24.000000,,,,0.000000,2.000000,2.000000,0.000000,4.000000,2.000000,2.000000,0.000000,0.000000,4.000000,4.000000,4.000000,4.000000,4.000000,4.000000,0.000000,,,,,,,,,,,,,,,,,,,,,,,,,,,,
1732157396.822637,1732157396.825463,99.000000,0.000000,4282.820313,4263.077148,4323.589844,4278.846191,4270.641113,4295.897461,4339.487305,4402.563965,4325.641113,4280.512695,4490.000000,4520.512695,4373.461426,4427.179688,1566.000000,1.000000,24.000000,,,,0.000000,2.000000,2.000000,0.000000,4.000000,2.000000,2.000000,0.000000,0.000000,4.000000,4.000000,4.000000,4.000000,4.000000,4.000000,0.000000,,,,,,,,,,,,,,,,,,,,,,,,,,,,
1732157396.830445,1732157396.833371,100.000000,0.000000,4281.153809,4262.179688,4322.307617,4281.794922,4264.615234,4284.615234,4339.358887,4401.666504,4313.461426,4279.487305,4486.538574,4516.922852,4367.307617,4428.205078,1693.000000,1.000000,24.000000,,,,0.000000,2.000000,2.000000,0.000000,4.000000,2.000000,2.000000,0.000000,0.000000,4.000000,4.000000,4.000000,4.000000,4.000000,4.000000,0.000000,,,,,,,,,,,,,,,,,25.000000,0.000000,0.519871,0.496216,-0.524048,0.457031,1.005494,0.046881,-0.051276,-34.784657,46.077637,31.322464
1732157396.838254,1732157396.841179,101.000000,0.000000,4279.102539,4263.717773,4323.333496,4280.384766,4261.922852,4277.563965,4339.230957,4403.717773,4322.307617,4280.384766,4490.512695,4519.102539,4376.153809,4427.436035,1670.000000,1.000000,24.000000,,,,0.000000,2.000000,2.000000,0.000000,4.000000,2.000000,2.000000,0.000000,0.000000,4.000000,4.000000,4.000000,4.000000,4.000000,4.000000,0.000000,,,,,,,,,,,,,,,,,,,,,,,,,,,,
1732157396.846062,1732157396.849187,102.000000,0.000000,4281.282227,4263.846191,4322.692383,4277.179688,4263.717773,4281.666504,4339.871582,4405.769043,4332.436035,4282.563965,4493.846191,4521.410156,4384.615234,4426.282227,1541.000000,1.000000,24.000000,,,,0.000000,2.000000,2.000000,0.000000,4.000000,2.000000,2.000000,0.000000,0.000000,4.000000,4.000000,4.000000,4.000000,4.000000,4.000000,0.000000,,,,,,,,,,,,,,,,,,,,,,,,,,,,
1732157396.853870,1732157396.856996,103.000000,0.000000,4280.897461,4265.769043,4322.051270,4279.102539,4264.358887,4282.820313,4337.692383,4400.769043,4321.666504,4280.000000,4490.128418,4516.025879,4375.256348,4427.179688,1566.000000,1.000000,24.000000,,,,0.000000,2.000000,2.000000,0.000000,4.000000,2.000000,2.000000,0.000000,0.000000,4.000000,4.000000,4.000000,4.000000,4.000000,4.000000,0.000000,,,,,,,,,,,,,,,,,,,,,,,,,,,,
1732157396.861678,1732157396.864904,104.000000,0.000000,4279.230957,4266.538574,4322.051270,4281.538574,4264.487305,4279.102539,4336.282227,4398.461426,4310.897461,4276.282227,4487.948730,4512.179688,4372.051270,4427.436035,1693.000000,1.000000,24.000000,,,,0.000000,2.000000,2.000000,0.000000,4.000000,2.000000,2.000000,0.000000,0.000000,4.000000,4.000000,4.000000,4.000000,4.000000,4.000000,0.000000,,,,,,,,,,,,,,,,,26.000000,0.000000,0.518019,0.497131,-0.524109,0.458069,0.974240,0.030277,-0.044439,-34.718906,46.086220,31.221195
1732157396.869487,1732157396.872712,105.000000,0.000000,4280.641113,4266.538574,4322.692383,4280.128418,4265.897461,4280.641113,4340.000000,4402.692383,4313.846191,4277.563965,4490.128418,4516.410156,4380.769043,4426.794922,1670.000000,1.000000,24.000000,,,,0.000000,2.000000,2.000000,0.000000,4.000000,2.000000,2.000000,0.000000,0.000000,4.000000,4.000000,4.000000,4.000000,4.000000,4.000000,0.000000,,,,,,,,,,,,,,,,,,,,,,,,,,,,
1732157396.877295,1732157396.880720,106.000000,0.000000,4281.153809,4266.538574,4324.743652,4279.358887,4265.384766,4283.205078,4342.179688,4401.666504,4317.179688,4279.487305,4488.846191,4519.358887,4377.692383,4426.410156,1541.000000,1.000000,24.000000,,,,0.000000,2.000000,2.000000,0.000000,4.000000,2.000000,2.000000,0.000000,0.000000,4.000000,4.000000,4.000000,4.000000,4.000000,4.000000,0.000000,,,,,,,,,,,,,,,,,,,,,,,,,,,,
1732157396.885103,1732157396.888528,107.000000,0.000000,4279.871582,4266.410156,4325.641113,4280.256348,4263.589844,4283.205078,4340.512695,4398.974121,4318.077148,4281.025879,4489.615234,4520.000000,4372.051270,4426.153809,1566.000000,1.000000,24.000000,,,,0.000000,2.000000,2.000000,0.000000,4.000000,2.000000,2.000000,0.000000,0.000000,4.000000,4.000000,4.000000,4.000000,4.000000,4.000000,0.000000,,,,,,,,,,,,,,,,,,,,,,,,,,,,
1732157396.892911,1732157396.896436,108.000000,0.000000,4280.256348,4265.128418,4323.717773,4280.000000,4262.563965,4283.974121,4339.871582,4402.820313,4319.615234,4282.563965,4494.102539,4517.820313,4373.333496,4425.641113,1693.000000,1.000000,24.000000,,,,0.000000,2.000000,2.000000,0.000000,4.000000,2.000000,2.000000,0.000000,0.000000,4.000000,4.000000,4.000000,4.000000,4.000000,4.000000,0.000000,,,,,,,,,,,,,,,,,27.000000,0.000000,0.517573,0.497314,-0.524109,0.458374,0.974240,0.030277,-0.044439,-34.707314,45.943172,31.155834
1732157396.900720,1732157396.904244,109.000000,0.000000,4281.282227,4266.025879,4323.461426,4279.743652,4261.922852,4282.820313,4339.743652,4405.128418,4314.871582,4280.384766,4491.794922,4510.769043,4370.128418,4426.025879,1670.000000,1.000000,24.000000,,,,0.000000,2.000000,2.000000,0.000000,4.000000,2.000000,2.000000,0.000000,0.000000,4.000000,4.000000,4.000000,4.000000,4.000000,4.000000,0.000000,,,,,,,,,,,,,,,,,,,,,,,,,,,,
1732157396.908528,1732157396.912252,110.000000,0.000000,4280.512695,4267.563965,4325.000000,4280.512695,4262.179688,4282.051270,4339.102539,4403.846191,4313.717773,4277.692383,4486.282227,4505.641113,4365.128418,4426.025879,1541.000000,1.000000,24.000000,,,,0.000000,2.000000,2.000000,0.000000,4.000000,2.000000,2.000000,0.000000,0.000000,4.000000,4.000000,4.000000,4.000000,4.000000,4.000000,0.000000,,,,,,,,,,,,,,,,,,,,,,,,,,,,
1732157396.916336,1732157396.920061,111.000000,0.000000,4280.769043,4267.948730,4325.641113,4281.794922,4265.000000,4284.487305,4340.128418,4401.410156,4318.974121,4280.769043,4487.436035,4509.615234,4368.461426,4424.871582,1566.000000,1.000000,24.000000,,,,0.000000,2.000000,2.000000,0.000000,4.000000,2.000000,2.000000,0.000000,0.000000,4.000000,4.000000,4.000000,4.000000,4.000000,4.000000,0.000000,,,,,,,,,,,,,,,,,,,,,,,,,,,,
1732157396.924144,1732157396.927769,112.000000,0.000000,4281.025879,4267.307617,4327.179688,4281.794922,4266.794922,4285.897461,4340.384766,4401.153809,4317.563965,4282.948730,4489.871582,4512.820313,4369.743652,4423.589844,1693.000000,1.000000,24.000000,,,,0.000000,2.000000,2.000000,0.000000,4.000000,2.000000,2.000000,0.000000,0.000000,4.000000,4.000000,4.000000,4.000000,4.000000,4.000000,0.000000,,,,,,,,,,,,,,,,,28.000000,0.000000,0.516598,0.497620,-0.523926,0.459351,0.966427,0.025394,-0.039556,-34.667923,45.890636,31.316227
1732157396.931953,1732157396.935577,113.000000,0.000000,4277.820313,4264.615234,4327.051270,4280.000000,4264.615234,4281.282227,4339.871582,4404.230957,4312.436035,4282.692383,4488.077148,4507.820313,4364.358887,4422.948730,1670.000000,1.000000,24.000000,,,,0.000000,2.000000,2.000000,0.000000,4.000000,2.000000,2.000000,0.000000,0.000000,4.000000,4.000000,4.000000,4.000000,4.000000,4.000000,0.000000,,,,,,,,,,,,,,,,,,,,,,,,,,,,
1732157396.939761,1732157396.943186,114.000000,0.000000,4276.410156,4262.179688,4322.563965,4279.487305,4264.230957,4280.769043,4340.512695,4404.615234,4316.538574,4289.358887,4489.102539,4511.153809,4368.974121,4426.666504,1541.000000,1.000000,24.000000,,,,0.000000,2.000000,2.000000,0.000000,4.000000,2.000000,2.000000,0.000000,0.000000,4.000000,4.000000,4.000000,4.000000,4.000000,4.000000,0.000000,,,,,,,,,,,,,,,,,,,,,,,,,,,,
1732157396.947569,1732157396.950994,115.000000,0.000000,4277.436035,4262.436035,4320.000000,4280.769043,4265.512695,4287.948730,4340.384766,4399.743652,4324.743652,4297.436035,4491.025879,4521.794922,4375.000000,4428.589844,1566.000000,1.000000,24.000000,,,,0.000000,2.000000,2.000000,0.000000,4.000000,2.000000,2.000000,0.000000,0.000000,4.000000,4.000000,4.000000,4.000000,4.000000,4.000000,0.000000,,,,,,,,,,,,,,,,,,,,,,,,,,,,
1732157396.955377,1732157396.958702,116.000000,0.000000,4276.666504,4262.820313,4323.974121,4281.922852,4264.871582,4289.102539,4339.871582,4400.128418,4322.307617,4296.025879,4489.358887,4522.051270,4368.974121,4427.820313,1693.000000,1.000000,24.000000,,,,0.000000,2.000000,2.000000,0.000000,4.000000,2.000000,2.000000,0.000000,0.000000,4.000000,4.000000,4.000000,4.000000,4.000000,4.000000,0.000000,,,,,,,,,,,,,,,,,29.000000,0.000000,0.515576,0.497559,-0.523865,0.460632,0.972775,0.029789,-0.053229,-34.741016,46.068081,31.432810
1732157396.963186,1732157396.966510,117.000000,0.000000,4277.436035,4262.307617,4326.666504,4282.179688,4263.333496,4281.410156,4340.897461,4407.051270,4316.922852,4292.820313,4490.256348,4518.846191,4366.538574,4434.102539,1670.000000,1.000000,24.000000,,,,0.000000,2.000000,2.000000,0.000000,4.000000,2.000000,2.000000,0.000000,0.000000,4.000000,4.000000,4.000000,4.000000,4.000000,4.000000,0.000000,,,,,,,,,,,,,,,,,,,,,,,,,,,,
1732157396.970994,1732157396.974119,118.000000,0.000000,4280.897461,4262.563965,4322.563965,4282.692383,4264.358887,4276.410156,4339.743652,4406.794922,4317.820313,4296.153809,4493.333496,4521.025879,4375.128418,4440.384766,1541.000000,1.000000,24.000000,,,,0.000000,2.000000,2.000000,0.000000,4.000000,2.000000,2.000000,0.000000,0.000000,4.000000,4.000000,4.000000,4.000000,4.000000,4.000000,0.000000,,,,,,,,,,,,,,,,,,,,,,,,,,,,
1732157396.978802,1732157396.981927,119.000000,0.000000,4279.871582,4262.692383,4321.282227,4280.384766,4265.512695,4278.333496,4336.282227,4400.641113,4318.461426,4297.179688,4492.563965,4519.230957,4378.205078,4435.384766,1566.000000,1.000000,24.000000,,,,0.000000,2.000000,2.000000,0.000000,4.000000,2.000000,2.000000,0.000000,0.000000,4.000000,4.000000,4.000000,4.000000,4.000000,4.000000,0.000000,,,,,,,,,,,,,,,,,,,,,,,,,,,,
1732157396.986610,1732157396.989835,120.000000,0.000000,4277.948730,4262.692383,4323.717773,4277.179688,4265.641113,4280.000000,4334.615234,4401.282227,4312.051270,4293.077148,4490.769043,4517.051270,4372.179688,4428.974121,1693.000000,1.000000,24.000000,,,,0.000000,2.000000,2.000000,0.000000,4.000000,2.000000,2.000000,0.000000,0.000000,4.000000,4.000000,4.000000,4.000000,4.000000,4.000000,0.000000,,,,,,,,,,,,,,,,,30.000000,0.000000,0.514769,0.497498,-0.523804,0.461670,0.977170,0.027835,-0.052741,-34.980225,46.015144,31.572243
1732157396.994419,1732157396.997643,121.000000,0.000000,4281.410156,4262.692383,4321.282227,4280.000000,4265.641113,4279.871582,4335.512695,4404.358887,4309.615234,4293.589844,4491.153809,4518.974121,4369.230957,4430.128418,1670.000000,1.000000,24.000000,,,,0.000000,2.000000,2.000000,0.000000,4.000000,2.000000,2.000000,0.000000,0.000000,4.000000,4.000000,4.000000,4.000000,4.000000,4.000000,0.000000,,,,,,,,,,,,,,,,,,,,,,,,,,,,
1732157397.002227,1732157397.005252,122.000000,0.000000,4282.051270,4262.692383,4318.846191,4283.846191,4264.615234,4280.128418,4335.897461,4402.051270,4314.102539,4296.794922,4490.384766,4519.230957,4368.333496,4430.256348,1541.000000,1.000000,24.000000,,,,0.000000,2.000000,2.000000,0.000000,4.000000,2.000000,2.000000,0.000000,0.000000,4.000000,4.000000,4.000000,4.000000,4.000000,4.000000,0.000000,,,,,,,,,,,,,,,,,,,,,,,,,,,,
1732157397.010035,1732157397.013060,123.000000,0.000000,4279.102539,4262.563965,4320.897461,4284.358887,4267.948730,4280.000000,4335.897461,4401.794922,4312.436035,4294.358887,4488.333496,4516.282227,4366.794922,4428.077148,1566.000000,1.000000,24.000000,,,,0.000000,2.000000,2.000000,0.000000,4.000000,2.000000,2.000000,0.000000,0.000000,4.000000,4.000000,4.000000,4.000000,4.000000,4.000000,0.000000,,,,,,,,,,,,,,,,,,,,,,,,,,,,
1732157397.017843,1732157397.020968,124.000000,0.000000,4281.282227,4262.307617,4321.922852,4286.922852,4271.538574,4281.410156,4335.512695,4404.871582,4308.846191,4291.666504,4488.333496,4516.025879,4366.666504,4430.256348,1693.000000,1.000000,24.000000,,,,0.000000,2.000000,2.000000,0.000000,4.000000,2.000000,2.000000,0.000000,0.000000,4.000000,4.000000,4.000000,4.000000,4.000000,4.000000,0.000000,,,,,,,,,,,,,,,,,31.000000,0.000000,0.514327,0.497437,-0.523865,0.462158,0.985472,0.014650,-0.046392,-34.920650,46.138935,31.463516
1732157397.025652,1732157397.028776,125.000000,0.000000,4283.717773,4263.077148,4317.820313,4292.179688,4270.769043,4282.179688,4334.871582,4402.692383,4313.333496,4293.461426,4489.487305,4514.487305,4366.025879,4429.230957,1670.000000,1.000000,24.000000,,,,0.000000,2.000000,2.000000,0.000000,4.000000,2.000000,2.000000,0.000000,0.000000,4.000000,4.000000,4.000000,4.000000,4.000000,4.000000,0.000000,,,,,,,,,,,,,,,,,,,,,,,,,,,,
1732157397.033460,1732157397.036385,126.000000,0.000000,4280.000000,4262.307617,4317.179688,4292.563965,4280.384766,4280.641113,4334.871582,4400.384766,4317.179688,4290.897461,4485.128418,4511.666504,4361.666504,4424.230957,1541.000000,1.000000,24.000000,,,,0.000000,2.000000,2.000000,0.000000,4.000000,2.000000,2.000000,0.000000,0.000000,4.000000,4.000000,4.000000,4.000000,4.000000,4.000000,0.000000,,,,,,,,,,,,,,,,,,,,,,,,,,,,
1732157397.041268,1732157397.044193,127.000000,0.000000,4278.589844,4262.051270,4321.282227,4291.666504,4286.922852,4278.717773,4335.256348,4401.282227,4307.307617,4283.205078,4477.563965,4511.794922,4358.589844,4419.230957,24.000000,1.000000,24.000000,,,,0.000000,2.000000,2.000000,0.000000,4.000000,2.000000,2.000000,0.000000,0.000000,4.000000,4.000000,4.000000,4.000000,4.000000,4.000000,0.000000,,,,,,,,,,,,,,,,,,,,,,,,,,,,
1732157397.049076,1732157397.051901,0.000000,0.000000,4280.384766,4264.871582,4321.666504,4294.743652,4270.256348,4281.025879,4334.871582,4401.153809,4300.384766,4278.461426,4475.000000,4510.897461,4360.000000,4415.641113,0.000000,1.000000,24.000000,,,,0.000000,2.000000,2.000000,0.000000,4.000000,2.000000,2.000000,0.000000,0.000000,4.000000,4.000000,4.000000,4.000000,4.000000,4.000000,0.000000,,,,,,,,,,,,,,,,,0.000000,0.000000,0.513415,0.497314,-0.523743,0.463440,0.965938,0.019045,-0.055183,-35.030724,46.239204,31.375448
1732157397.056884,1732157397.059709,1.000000,0.000000,4279.358887,4268.333496,4320.512695,4298.205078,4258.333496,4285.128418,4335.000000,4401.538574,4309.615234,4281.794922,4478.717773,4511.025879,4360.512695,4419.871582,1589.000000,1.000000,24.000000,,,,0.000000,2.000000,2.000000,0.000000,4.000000,2.000000,2.000000,0.000000,0.000000,4.000000,4.000000,4.000000,4.000000,4.000000,4.000000,0.000000,,,,,,,,,,,,,,,,,,,,,,,,,,,,
1732157397.064693,1732157397.067318,2.000000,0.000000,4280.897461,4266.025879,4322.179688,4296.538574,4270.769043,4285.641113,4335.128418,4402.563965,4316.153809,4289.871582,4484.230957,4512.436035,4361.794922,4427.948730,1381.000000,1.000000,24.000000,,,,0.000000,2.000000,2.000000,0.000000,4.000000,2.000000,2.000000,0.000000,0.000000,4.000000,4.000000,4.000000,4.000000,4.000000,4.000000,0.000000,,,,,,,,,,,,,,,,,,,,,,,,,,,,
1732157397.072501,1732157397.075126,3.000000,0.000000,4283.077148,4263.974121,4323.717773,4297.179688,4278.461426,4286.410156,4335.000000,4402.692383,4312.051270,4293.589844,4486.794922,4508.974121,4366.282227,4428.717773,1412.000000,1.000000,24.000000,,,,0.000000,2.000000,2.000000,0.000000,4.000000,2.000000,2.000000,0.000000,0.000000,4.000000,4.000000,4.000000,4.000000,4.000000,4.000000,0.000000,,,,,,,,,,,,,,,,,,,,,,,,,,,,
1732157397.080309,1732157397.082834,4.000000,0.000000,4282.692383,4269.358887,4322.948730,4303.846191,4275.000000,4286.025879,4334.358887,4400.769043,4308.333496,4291.153809,4487.692383,4504.871582,4366.922852,4425.000000,1412.000000,1.000000,24.000000,,,,0.000000,2.000000,2.000000,0.000000,4.000000,2.000000,2.000000,0.000000,0.000000,4.000000,4.000000,4.000000,4.000000,4.000000,4.000000,0.000000,,,,,,,,,,,,,,,,,1.000000,0.000000,0.512341,0.495911,-0.524231,0.465576,0.977170,-0.008302,-0.038091,-35.176556,45.928757,31.409113
1732157397.088117,1732157397.090643,5.000000,0.000000,4288.589844,4271.410156,4320.384766,4304.743652,4276.410156,4281.282227,4333.974121,4401.410156,4307.692383,4290.000000,4488.077148,4510.897461,4363.974121,4426.282227,1224.000000,1.000000,24.000000,,,,0.000000,2.000000,2.000000,0.000000,4.000000,2.000000,2.000000,0.000000,0.000000,4.000000,4.000000,4.000000,4.000000,4.000000,4.000000,0.000000,,,,,,,,,,,,,,,,,,,,,,,,,,,,
1732157397.095926,1732157397.098651,6.000000,0.000000,4295.000000,4266.025879,4317.563965,4300.641113,4278.589844,4280.000000,4334.358887,4402.436035,4308.205078,4293.333496,4487.179688,4517.436035,4366.794922,4430.128418,0.000000,1.000000,24.000000,,,,0.000000,2.000000,2.000000,0.000000,4.000000,2.000000,2.000000,0.000000,0.000000,4.000000,4.000000,4.000000,4.000000,4.000000,4.000000,0.000000,,,,,,,,,,,,,,,,,,,,,,,,,,,,
1732157397.103734,1732157397.106459,7.000000,0.000000,4287.820313,4265.384766,4318.077148,4300.000000,4280.000000,4284.358887,4334.871582,4399.871582,4309.743652,4295.641113,4487.820313,4517.051270,4367.051270,4430.769043,0.000000,1.000000,24.000000,,,,0.000000,2.000000,2.000000,0.000000,4.000000,2.000000,2.000000,0.000000,0.000000,4.000000,4.000000,4.000000,4.000000,4.000000,4.000000,0.000000,,,,,,,,,,,,,,,,,,,,,,,,,,,,
1732157397.111542,1732157397.114367,8.000000,0.000000,4279.102539,4267.307617,4320.000000,4299.487305,4281.025879,4283.846191,4334.871582,4398.077148,4309.487305,4295.897461,4487.563965,4517.692383,4360.000000,4429.615234,1523.000000,1.000000,24.000000,,,,0.000000,2.000000,2.000000,0.000000,4.000000,2.000000,2.000000,0.000000,0.000000,4.000000,4.000000,4.000000,4.000000,4.000000,4.000000,0.000000,,,,,,,,,,,,,,,,,2.000000,0.000000,0.512255,0.495483,-0.524231,0.466125,0.978147,0.000000,-0.021487,-35.048008,46.057293,31.279715
1732157397.119351,1732157397.122175,9.000000,0.000000,4280.256348,4262.436035,4319.615234,4295.641113,4282.051270,4280.897461,4334.743652,4400.128418,4310.256348,4296.282227,4479.871582,4515.897461,4357.307617,4428.333496,1680.000000,1.000000,24.000000,,,,0.000000,2.000000,2.000000,0.000000,4.000000,2.000000,2.000000,0.000000,0.000000,4.000000,4.000000,4.000000,4.000000,4.000000,4.000000,0.000000,,,,,,,,,,,,,,,,,,,,,,,,,,,,
1732157397.127159,1732157397.130183,10.000000,0.000000,4282.051270,4261.538574,4318.717773,4297.179688,4283.589844,4281.922852,4335.000000,4401.282227,4310.512695,4293.846191,4475.512695,4511.922852,4359.871582,4429.230957,1529.000000,1.000000,24.000000,,,,0.000000,2.000000,2.000000,0.000000,4.000000,2.000000,2.000000,0.000000,0.000000,4.000000,4.000000,4.000000,4.000000,4.000000,4.000000,0.000000,,,,,,,,,,,,,,,,,,,,,,,,,,,,
1732157397.134967,1732157397.137991,11.000000,0.000000,4281.410156,4267.436035,4318.717773,4300.641113,4282.051270,4281.153809,4334.615234,4401.538574,4309.487305,4293.205078,4484.615234,4516.025879,4357.307617,4428.846191,1566.000000,1.000000,24.000000,,,,0.000000,2.000000,2.000000,0.000000,4.000000,2.000000,2.000000,0.000000,0.000000,4.000000,4.000000,4.000000,4.000000,4.000000,4.000000,0.000000,,,,,,,,,,,,,,,,,,,,,,,,,,,,
1732157397.142775,1732157397.145700,12.000000,0.000000,4281.153809,4266.282227,4316.666504,4296.922852,4281.282227,4278.717773,4334.743652,4403.461426,4310.769043,4298.589844,4491.025879,4518.205078,4351.794922,4427.307617,1693.000000,1.000000,24.000000,,,,0.000000,2.000000,2.000000,0.000000,4.000000,2.000000,2.000000,0.000000,0.000000,4.000000,4.000000,4.000000,4.000000,4.000000,4.000000,0.000000,,,,,,,,,,,,,,,,,3.000000,0.000000,0.512618,0.494324,-0.524536,0.466614,0.984007,-0.004395,-0.029300,-34.975555,46.109741,31.226570
1732157397.150583,1732157397.153508,13.000000,0.000000,4282.692383,4262.948730,4317.307617,4293.333496,4283.205078,4278.205078,4335.256348,4402.436035,4312.051270,4304.871582,4487.563965,4515.000000,4353.077148,4427.563965,1666.000000,1.000000,24.000000,,,,0.000000,2.000000,2.000000,0.000000,4.000000,2.000000,2.000000,0.000000,0.000000,4.000000,4.000000,4.000000,4.000000,4.000000,4.000000,0.000000,,,,,,,,,,,,,,,,,,,,,,,,,,,,
1732157397.158392,1732157397.161116,14.000000,0.000000,4286.410156,4264.871582,4319.743652,4295.897461,4281.025879,4277.820313,4333.333496,4399.615234,4313.974121,4306.410156,4487.820313,4517.436035,4354.743652,4428.333496,1529.000000,1.000000,24.000000,,,,0.000000,2.000000,2.000000,0.000000,4.000000,2.000000,2.000000,0.000000,0.000000,4.000000,4.000000,4.000000,4.000000,4.000000,4.000000,0.000000,1.000000,0.000000,2.000000,2.000000,0.000000,4.000000,2.000000,0.000000,0.000000,0.000000,4.000000,4.000000,4.000000,4.000000,4.000000,4.000000,,,,,,,,,,,,
1732157397.166200,1732157397.168924,15.000000,0.000000,4287.307617,4266.410156,4320.000000,4298.589844,4285.128418,4277.692383,4332.307617,4397.948730,4313.205078,4304.358887,4491.153809,4515.512695,4350.512695,4429.743652,1566.000000,1.000000,24.000000,,,,0.000000,2.000000,2.000000,0.000000,4.000000,2.000000,2.000000,0.000000,0.000000,4.000000,4.000000,4.000000,4.000000,4.000000,4.000000,0.000000,,,,,,,,,,,,,,,,,,,,,,,,,,,,
1732157397.174008,1732157397.176832,16.000000,0.000000,4288.589844,4265.769043,4321.666504,4295.769043,4299.871582,4278.589844,4334.358887,4399.358887,4302.820313,4299.102539,4486.410156,4507.948730,4346.153809,4430.641113,0.000000,1.000000,24.000000,,,,0.000000,2.000000,2.000000,0.000000,4.000000,2.000000,2.000000,0.000000,0.000000,4.000000,4.000000,4.000000,4.000000,4.000000,4.000000,0.000000,,,,,,,,,,,,,,,,,4.000000,0.000000,0.513220,0.493042,-0.524719,0.467102,0.989867,0.009278,-0.041021,-34.910198,46.042221,31.351854
1732157397.181816,1732157397.184641,17.000000,0.000000,4290.769043,4265.769043,4320.384766,4298.077148,4296.153809,4278.077148,4336.153809,4404.487305,4300.000000,4293.077148,4479.358887,4507.179688,4343.589844,4428.589844,0.000000,1.000000,24.000000,,,,0.000000,2.000000,2.000000,0.000000,4.000000,2.000000,2.000000,0.000000,0.000000,4.000000,4.000000,4.000000,4.000000,4.000000,4.000000,0.000000,,,,,,,,,,,,,,,,,,,,,,,,,,,,
1732157397.189625,1732157397.192649,18.000000,0.000000,4286.025879,4266.282227,4319.230957,4304.230957,4279.743652,4282.820313,4335.641113,4405.384766,4311.794922,4295.256348,4480.256348,4509.743652,4339.615234,4426.922852,0.000000,1.000000,24.000000,,,,0.000000,2.000000,2.000000,0.000000,4.000000,2.000000,2.000000,0.000000,0.000000,4.000000,4.000000,4.000000,4.000000,4.000000,4.000000,0.000000,,,,,,,,,,,,,,,,,,,,,,,,,,,,
1732157397.197433,1732157397.200457,19.000000,0.000000,4281.922852,4265.000000,4321.025879,4304.358887,4281.410156,4293.333496,4335.384766,4399.487305,4307.948730,4293.589844,4480.512695,4509.230957,4336.922852,4426.410156,0.000000,1.000000,24.000000,,,,0.000000,2.000000,2.000000,0.000000,4.000000,2.000000,2.000000,0.000000,0.000000,4.000000,4.000000,4.000000,4.000000,4.000000,4.000000,0.000000,,,,,,,,,,,,,,,,,,,,,,,,,,,,
1732157397.205241,1732157397.208365,20.000000,0.000000,4288.974121,4265.897461,4321.794922,4303.589844,4290.128418,4292.436035,4336.025879,4399.358887,4295.000000,4283.589844,4479.230957,4512.307617,4338.974121,4427.820313,0.000000,1.000000,24.000000,,,,0.000000,2.000000,2.000000,0.000000,4.000000,2.000000,2.000000,0.000000,0.000000,4.000000,4.000000,4.000000,4.000000,4.000000,4.000000,0.000000,,,,,,,,,,,,,,,,,5.000000,0.000000,0.513583,0.492188,-0.525330,0.466919,0.980100,0.005860,-0.029300,-34.988926,46.085865,31.398335
1732157397.213049,1732157397.216173,21.000000,0.000000,4296.153809,4272.436035,4318.077148,4304.871582,4285.897461,4282.051270,4335.897461,4405.256348,4304.102539,4287.563965,4485.384766,4520.256348,4344.358887,4431.282227,0.000000,1.000000,24.000000,,,,0.000000,2.000000,2.000000,0.000000,4.000000,2.000000,2.000000,0.000000,0.000000,4.000000,4.000000,4.000000,4.000000,4.000000,4.000000,0.000000,,,,,,,,,,,,,,,,,,,,,,,,,,,,
1732157397.220858,1732157397.224181,22.000000,0.000000,4295.000000,4277.820313,4317.436035,4302.948730,4282.051270,4276.922852,4335.128418,4406.025879,4310.000000,4298.461426,4491.025879,4522.179688,4349.102539,4432.051270,0.000000,1.000000,24.000000,,,,0.000000,2.000000,2.000000,0.000000,4.000000,2.000000,2.000000,0.000000,0.000000,4.000000,4.000000,4.000000,4.000000,4.000000,4.000000,0.000000,,,,,,,,,,,,,,,,,,,,,,,,,,,,
1732157397.228666,1732157397.231989,23.000000,0.000000,4294.871582,4277.948730,4318.077148,4301.794922,4286.410156,4278.077148,4334.358887,4401.282227,4298.717773,4293.205078,4488.205078,4516.410156,4349.615234,4429.743652,0.000000,1.000000,24.000000,,,,0.000000,2.000000,2.000000,0.000000,4.000000,2.000000,2.000000,0.000000,0.000000,4.000000,4.000000,4.000000,4.000000,4.000000,4.000000,0.000000,,,,,,,,,,,,,,,,,,,,,,,,,,,,
1732157397.236474,1732157397.239898,24.000000,0.000000,4297.179688,4274.358887,4317.692383,4302.948730,4287.051270,4279.102539,4334.743652,4399.358887,4303.589844,4291.922852,4485.384766,4508.333496,4347.820313,4428.589844,0.000000,1.000000,24.000000,,,,0.000000,2.000000,2.000000,0.000000,4.000000,2.000000,2.000000,0.000000,0.000000,4.000000,4.000000,4.000000,4.000000,4.000000,4.000000,0.000000,,,,,,,,,,,,,,,,,6.000000,0.000000,0.513644,0.492065,-0.525330,0.466980,0.982542,0.019045,-0.036626,-35.022697,45.974552,31.164318
1732157397.244282,1732157397.247706,25.000000,0.000000,4294.743652,4274.615234,4319.743652,4301.666504,4286.794922,4278.974121,4335.256348,4401.410156,4312.948730,4295.512695,4482.307617,4505.769043,4346.282227,4428.461426,0.000000,1.000000,24.000000,,,,0.000000,2.000000,2.000000,0.000000,4.000000,2.000000,2.000000,0.000000,0.000000,4.000000,4.000000,4.000000,4.000000,4.000000,4.000000,0.000000,,,,,,,,,,,,,,,,,,,,,,,,,,,,
1732157397.252091,1732157397.255714,26.000000,0.000000,4289.615234,4276.922852,4318.333496,4299.743652,4290.512695,4279.358887,4334.102539,4403.077148,4304.487305,4284.102539,4474.615234,4506.794922,4343.077148,4426.538574,0.000000,1.000000,24.000000,,,,0.000000,2.000000,2.000000,0.000000,4.000000,2.000000,2.000000,0.000000,0.000000,4.000000,4.000000,4.000000,4.000000,4.000000,4.000000,0.000000,,,,,,,,,,,,,,,,,,,,,,,,,,,,
1732157397.259899,1732157397.263522,27.000000,0.000000,4289.487305,4271.025879,4316.025879,4301.794922,4290.641113,4283.077148,4333.717773,4402.051270,4304.615234,4281.538574,4475.000000,4506.666504,4341.025879,4425.256348,0.000000,1.000000,24.000000,,,,0.000000,2.000000,2.000000,0.000000,4.000000,2.000000,2.000000,0.000000,0.000000,4.000000,4.000000,4.000000,4.000000,4.000000,4.000000,0.000000,,,,,,,,,,,,,,,,,,,,,,,,,,,,
1732157397.267707,1732157397.271430,28.000000,0.000000,4294.102539,4262.948730,4316.153809,4301.538574,4283.974121,4284.358887,4335.000000,4400.512695,4311.666504,4292.692383,4483.333496,4506.025879,4347.436035,4428.077148,0.000000,1.000000,24.000000,,,,0.000000,2.000000,2.000000,0.000000,4.000000,2.000000,2.000000,0.000000,0.000000,4.000000,4.000000,4.000000,4.000000,4.000000,4.000000,0.000000,,,,,,,,,,,,,,,,,7.000000,0.000000,0.513487,0.492004,-0.525269,0.467285,0.965938,0.018069,-0.012209,-34.976719,45.747719,31.191431
1732157397.275515,1732157397.279238,29.000000,0.000000,4295.128418,4267.436035,4314.615234,4296.538574,4279.487305,4280.641113,4334.871582,4400.128418,4303.205078,4286.538574,4480.897461,4505.000000,4350.384766,4430.769043,0.000000,1.000000,24.000000,,,,0.000000,2.000000,2.000000,0.000000,4.000000,2.000000,2.000000,0.000000,0.000000,4.000000,4.000000,4.000000,4.000000,4.000000,4.000000,0.000000,,,,,,,,,,,,,,,,,,,,,,,,,,,,
1732157397.283324,1732157397.287246,30.000000,0.000000,4297.179688,4278.077148,4315.769043,4295.000000,4279.871582,4276.282227,4333.717773,4400.769043,4294.615234,4274.615234,4474.871582,4503.974121,4347.051270,4430.769043,0.000000,1.000000,24.000000,,,,0.000000,2.000000,2.000000,0.000000,4.000000,2.000000,2.000000,0.000000,0.000000,4.000000,4.000000,4.000000,4.000000,4.000000,4.000000,0.000000,,,,,,,,,,,,,,,,,,,,,,,,,,,,
1732157397.291132,1732157397.295054,31.000000,0.000000,4306.922852,4281.538574,4319.358887,4299.230957,4279.358887,4273.717773,4334.102539,4400.000000,4296.922852,4277.436035,4483.974121,4509.615234,4355.128418,4434.358887,0.000000,1.000000,24.000000,,,,0.000000,2.000000,2.000000,0.000000,4.000000,2.000000,2.000000,0.000000,0.000000,4.000000,4.000000,4.000000,4.000000,4.000000,4.000000,0.000000,,,,,,,,,,,,,,,,,,,,,,,,,,,,
1732157397.298940,1732157397.302963,32.000000,0.000000,4315.897461,4279.358887,4316.282227,4301.794922,4279.487305,4273.205078,4334.615234,4399.743652,4300.384766,4281.794922,4494.743652,4517.051270,4368.461426,4446.794922,0.000000,1.000000,24.000000,,,,0.000000,2.000000,2.000000,0.000000,4.000000,2.000000,2.000000,0.000000,0.000000,4.000000,4.000000,4.000000,4.000000,4.000000,4.000000,0.000000,,,,,,,,,,,,,,,,,8.000000,0.000000,0.513411,0.492126,-0.524902,0.467651,0.979123,0.005372,-0.025882,-34.822807,45.580654,31.096725
1732157397.306748,1732157397.310771,33.000000,0.000000,4320.641113,4280.769043,4315.000000,4302.307617,4274.487305,4271.410156,4335.512695,4400.256348,4302.948730,4281.025879,4493.461426,4520.384766,4368.974121,4458.974121,0.000000,1.000000,24.000000,,,,0.000000,2.000000,2.000000,0.000000,4.000000,2.000000,2.000000,0.000000,0.000000,4.000000,4.000000,4.000000,4.000000,4.000000,4.000000,0.000000,,,,,,,,,,,,,,,,,,,,,,,,,,,,
1732157397.314556,1732157397.318479,34.000000,0.000000,4328.974121,4290.128418,4319.102539,4306.666504,4266.538574,4266.922852,4331.794922,4400.769043,4304.102539,4281.282227,4496.794922,4521.922852,4370.384766,4464.230957,0.000000,1.000000,24.000000,,,,0.000000,2.000000,2.000000,0.000000,4.000000,2.000000,2.000000,0.000000,0.000000,4.000000,4.000000,4.000000,4.000000,4.000000,4.000000,0.000000,,,,,,,,,,,,,,,,,,,,,,,,,,,,
1732157397.322365,1732157397.326287,35.000000,0.000000,4335.641113,4292.436035,4317.820313,4307.179688,4265.128418,4264.615234,4327.307617,4402.051270,4299.230957,4281.153809,4506.922852,4523.205078,4381.538574,4468.589844,0.000000,1.000000,24.000000,,,,0.000000,2.000000,2.000000,0.000000,4.000000,2.000000,2.000000,0.000000,0.000000,4.000000,4.000000,4.000000,4.000000,4.000000,4.000000,0.000000,,,,,,,,,,,,,,,,,,,,,,,,,,,,
1732157397.330173,1732157397.333996,36.000000,0.000000,4333.974121,4283.717773,4314.615234,4303.589844,4266.282227,4265.897461,4330.897461,4401.025879,4296.666504,4281.666504,4507.563965,4522.692383,4384.743652,4473.205078,0.000000,1.000000,24.000000,,,,0.000000,2.000000,2.000000,0.000000,4.000000,2.000000,2.000000,0.000000,0.000000,4.000000,4.000000,4.000000,4.000000,4.000000,4.000000,0.000000,,,,,,,,,,,,,,,,,9.000000,0.000000,0.513359,0.492065,-0.524902,0.467773,0.989379,0.000977,-0.040044,-35.071476,45.598663,31.028349
1732157397.337981,1732157397.341804,37.000000,0.000000,4333.846191,4283.846191,4318.461426,4304.102539,4263.461426,4264.487305,4331.794922,4401.025879,4297.307617,4280.769043,4502.948730,4522.948730,4380.128418,4474.743652,0.000000,1.000000,24.000000,,,,0.000000,2.000000,2.000000,0.000000,4.000000,2.000000,2.000000,0.000000,0.000000,4.000000,4.000000,4.000000,4.000000,4.000000,4.000000,0.000000,,,,,,,,,,,,,,,,,,,,,,,,,,,,
1732157397.345790,1732157397.349412,38.000000,0.000000,4339.230957,4293.205078,4319.487305,4307.051270,4261.282227,4262.179688,4329.102539,4403.974121,4293.333496,4279.487305,4505.512695,4525.897461,4381.922852,4476.153809,0.000000,1.000000,24.000000,,,,0.000000,2.000000,2.000000,0.000000,4.000000,2.000000,2.000000,0.000000,0.000000,4.000000,4.000000,4.000000,4.000000,4.000000,4.000000,0.000000,,,,,,,,,,,,,,,,,,,,,,,,,,,,
1732157397.353598,1732157397.357220,39.000000,0.000000,4343.461426,4293.461426,4317.948730,4309.743652,4262.948730,4262.820313,4331.410156,4401.538574,4291.410156,4280.384766,4510.256348,4530.384766,4387.948730,4478.717773,0.000000,1.000000,24.000000,,,,0.000000,2.000000,2.000000,0.000000,4.000000,2.000000,2.000000,0.000000,0.000000,4.000000,4.000000,4.000000,4.000000,4.000000,4.000000,0.000000,,,,,,,,,,,,,,,,,,,,,,,,,,,,
1732157397.361406,1732157397.364929,40.000000,0.000000,4342.563965,4290.897461,4319.102539,4310.641113,4264.487305,4264.615234,4331.922852,4397.563965,4295.512695,4279.230957,4506.666504,4532.948730,4385.384766,4477.179688,0.000000,1.000000,24.000000,,,,0.000000,2.000000,2.000000,0.000000,4.000000,2.000000,2.000000,0.000000,0.000000,4.000000,4.000000,4.000000,4.000000,4.000000,4.000000,0.000000,,,,,,,,,,,,,,,,,10.000000,0.000000,0.513087,0.492065,-0.524841,0.468140,1.005005,0.015627,-0.037114,-35.391228,45.931583,30.871296
1732157397.369214,1732157397.372737,41.000000,0.000000,4342.563965,4295.000000,4320.000000,4310.641113,4265.128418,4265.769043,4327.436035,4401.282227,4296.922852,4276.666504,4502.436035,4533.461426,4380.000000,4478.589844,0.000000,1.000000,24.000000,,,,0.000000,2.000000,2.000000,0.000000,4.000000,2.000000,2.000000,0.000000,0.000000,4.000000,4.000000,4.000000,4.000000,4.000000,4.000000,0.000000,,,,,,,,,,,,,,,,,,,,,,,,,,,,
1732157397.377023,1732157397.380345,42.000000,0.000000,4347.948730,4295.256348,4319.358887,4311.666504,4267.307617,4263.589844,4327.820313,4404.487305,4293.717773,4283.333496,4513.461426,4534.358887,4388.717773,4489.102539,0.000000,1.000000,24.000000,,,,0.000000,2.000000,2.000000,0.000000,4.000000,2.000000,2.000000,0.000000,0.000000,4.000000,4.000000,4.000000,4.000000,4.000000,4.000000,0.000000,,,,,,,,,,,,,,,,,,,,,,,,,,,,
1732157397.384831,1732157397.388154,43.000000,0.000000,4350.512695,4293.205078,4315.769043,4309.230957,4262.436035,4262.692383,4330.000000,4398.333496,4293.333496,4292.948730,4521.922852,4537.051270,4399.743652,4494.358887,0.000000,1.000000,24.000000,,,,0.000000,2.000000,2.000000,0.000000,4.000000,2.000000,2.000000,0.000000,0.000000,4.000000,4.000000,4.000000,4.000000,4.000000,4.000000,0.000000,,,,,,,,,,,,,,,,,,,,,,,,,,,,
1732157397.392639,1732157397.395862,44.000000,0.000000,4345.256348,4293.589844,4313.974121,4303.846191,4259.487305,4264.358887,4329.487305,4396.153809,4293.717773,4289.358887,4512.563965,4532.307617,4392.307617,4486.538574,0.000000,1.000000,24.000000,,,,0.000000,2.000000,2.000000,0.000000,4.000000,2.000000,2.000000,0.000000,0.000000,4.000000,4.000000,4.000000,4.000000,4.000000,4.000000,0.000000,,,,,,,,,,,,,,,,,11.000000,0.000000,0.512497,0.492188,-0.525085,0.468384,0.972775,0.011720,-0.023440,-35.270229,46.111248,31.025749
1732157397.400447,1732157397.403670,45.000000,0.000000,4342.692383,4296.025879,4314.743652,4305.128418,4276.410156,4265.000000,4329.615234,4401.410156,4293.589844,4282.307617,4506.282227,4528.589844,4384.230957,4478.461426,0.000000,1.000000,24.000000,,,,0.000000,2.000000,2.000000,0.000000,4.000000,2.000000,2.000000,0.000000,0.000000,4.000000,4.000000,4.000000,4.000000,4.000000,4.000000,0.000000,,,,,,,,,,,,,,,,,,,,,,,,,,,,
1732157397.408255,1732157397.411279,46.000000,0.000000,4345.128418,4295.769043,4313.589844,4308.589844,4283.461426,4265.256348,4328.974121,4403.333496,4296.410156,4286.282227,4508.717773,4531.282227,4391.025879,4476.922852,0.000000,1.000000,24.000000,,,,0.000000,2.000000,2.000000,0.000000,4.000000,2.000000,2.000000,0.000000,0.000000,4.000000,4.000000,4.000000,4.000000,4.000000,4.000000,0.000000,,,,,,,,,,,,,,,,,,,,,,,,,,,,
1732157397.416064,1732157397.419087,47.000000,0.000000,4342.820313,4294.358887,4314.102539,4309.871582,4264.102539,4266.538574,4330.897461,4399.487305,4298.077148,4294.358887,4509.230957,4529.871582,4395.000000,4478.589844,0.000000,1.000000,24.000000,,,,0.000000,2.000000,2.000000,0.000000,4.000000,2.000000,2.000000,0.000000,0.000000,4.000000,4.000000,4.000000,4.000000,4.000000,4.000000,0.000000,,,,,,,,,,,,,,,,,,,,,,,,,,,,
1732157397.423872,1732157397.426795,48.000000,0.000000,4345.000000,4295.769043,4319.487305,4311.153809,4256.538574,4266.410156,4335.512695,4396.666504,4297.436035,4296.794922,4513.205078,4529.743652,4395.128418,4483.333496,0.000000,1.000000,24.000000,,,,0.000000,2.000000,2.000000,0.000000,4.000000,2.000000,2.000000,0.000000,0.000000,4.000000,4.000000,4.000000,4.000000,4.000000,4.000000,0.000000,,,,,,,,,,,,,,,,,12.000000,0.000000,0.512389,0.492249,-0.525024,0.468506,0.971798,0.012697,-0.031742,-35.222218,46.040112,31.117523
1732157397.431680,1732157397.434603,49.000000,0.000000,4351.153809,4296.025879,4319.871582,4310.641113,4268.846191,4266.025879,4336.153809,4398.846191,4298.077148,4296.666504,4517.179688,4538.333496,4396.794922,4485.512695,0.000000,1.000000,24.000000,,,,0.000000,2.000000,2.000000,0.000000,4.000000,2.000000,2.000000,0.000000,0.000000,4.000000,4.000000,4.000000,4.000000,4.000000,4.000000,0.000000,,,,,,,,,,,,,,,,,,,,,,,,,,,,
1732157397.439489,1732157397.442611,50.000000,0.000000,4345.256348,4292.820313,4318.461426,4310.384766,4267.436035,4267.051270,4331.794922,4400.897461,4296.794922,4294.102539,4509.871582,4538.846191,4392.179688,4478.589844,0.000000,1.000000,24.000000,,,,0.000000,2.000000,2.000000,0.000000,4.000000,2.000000,2.000000,0.000000,0.000000,4.000000,4.000000,4.000000,4.000000,4.000000,4.000000,0.000000,,,,,,,,,,,,,,,,,,,,,,,,,,,,
1732157397.447297,1732157397.450419,51.000000,0.000000,4340.641113,4292.179688,4321.794922,4311.025879,4259.358887,4265.512695,4327.820313,4400.128418,4295.641113,4295.000000,4504.615234,4526.666504,4389.871582,4474.230957,0.000000,1.000000,24.000000,,,,0.000000,2.000000,2.000000,0.000000,4.000000,2.000000,2.000000,0.000000,0.000000,4.000000,4.000000,4.000000,4.000000,4.000000,4.000000,0.000000,,,,,,,,,,,,,,,,,,,,,,,,,,,,
1732157397.455105,1732157397.458128,52.000000,0.000000,4349.615234,4295.128418,4321.666504,4309.615234,4273.717773,4263.077148,4328.461426,4397.948730,4296.282227,4296.153809,4508.589844,4525.128418,4392.563965,4482.948730,0.000000,1.000000,24.000000,,,,0.000000,2.000000,2.000000,0.000000,4.000000,2.000000,2.000000,0.000000,0.000000,4.000000,4.000000,4.000000,4.000000,4.000000,4.000000,0.000000,,,,,,,,,,,,,,,,,13.000000,0.000000,0.512212,0.492310,-0.525085,0.468567,0.971798,0.012697,-0.031742,-34.863331,45.937492,31.158527
1732157397.462913,1732157397.465936,53.000000,0.000000,4352.436035,4296.538574,4316.025879,4313.717773,4287.820313,4262.948730,4329.487305,4397.692383,4295.000000,4284.743652,4508.205078,4537.692383,4387.051270,4487.051270,0.000000,1.000000,24.000000,,,,0.000000,2.000000,2.000000,0.000000,4.000000,2.000000,2.000000,0.000000,0.000000,4.000000,4.000000,4.000000,4.000000,4.000000,4.000000,0.000000,,,,,,,,,,,,,,,,,,,,,,,,,,,,
1732157397.470721,1732157397.473544,54.000000,0.000000,4344.102539,4295.384766,4318.077148,4318.589844,4274.358887,4265.384766,4328.077148,4399.358887,4292.948730,4280.256348,4503.974121,4541.153809,4379.102539,4479.743652,0.000000,1.000000,24.000000,,,,0.000000,2.000000,2.000000,0.000000,4.000000,2.000000,2.000000,0.000000,0.000000,4.000000,4.000000,4.000000,4.000000,4.000000,4.000000,0.000000,,,,,,,,,,,,,,,,,,,,,,,,,,,,
1732157397.478530,1732157397.481353,55.000000,0.000000,4341.666504,4296.153809,4322.692383,4313.974121,4262.436035,4273.717773,4330.256348,4399.358887,4295.256348,4290.128418,4504.358887,4531.538574,4382.563965,4476.666504,0.000000,1.000000,24.000000,,,,0.000000,2.000000,2.000000,0.000000,4.000000,2.000000,2.000000,0.000000,0.000000,4.000000,4.000000,4.000000,4.000000,4.000000,4.000000,0.000000,,,,,,,,,,,,,,,,,,,,,,,,,,,,
1732157397.486338,1732157397.489061,56.000000,0.000000,4344.230957,4296.538574,4321.153809,4310.512695,4274.615234,4280.128418,4335.128418,4402.563965,4297.436035,4291.282227,4506.025879,4528.846191,4381.153809,4478.974121,0.000000,1.000000,24.000000,,,,0.000000,2.000000,2.000000,0.000000,4.000000,2.000000,2.000000,0.000000,0.000000,4.000000,4.000000,4.000000,4.000000,4.000000,4.000000,0.000000,,,,,,,,,,,,,,,,,14.000000,0.000000,0.511822,0.492188,-0.525635,0.468506,0.973263,-0.000977,-0.048834,-35.019299,45.752701,31.376741
1732157397.494146,1732157397.496869,57.000000,0.000000,4344.230957,4296.410156,4318.846191,4313.205078,4280.256348,4272.563965,4335.256348,4404.615234,4294.743652,4281.025879,4504.230957,4533.846191,4373.589844,4476.922852,0.000000,1.000000,24.000000,,,,0.000000,2.000000,2.000000,0.000000,4.000000,2.000000,2.000000,0.000000,0.000000,4.000000,4.000000,4.000000,4.000000,4.000000,4.000000,0.000000,,,,,,,,,,,,,,,,,,,,,,,,,,,,
1732157397.501954,1732157397.504478,58.000000,0.000000,4343.589844,4298.461426,4320.897461,4312.179688,4271.025879,4262.179688,4334.102539,4401.538574,4290.256348,4278.077148,4503.205078,4535.256348,4372.436035,4471.922852,0.000000,1.000000,24.000000,,,,0.000000,2.000000,2.000000,0.000000,4.000000,2.000000,2.000000,0.000000,0.000000,4.000000,4.000000,4.000000,4.000000,4.000000,4.000000,0.000000,,,,,,,,,,,,,,,,,,,,,,,,,,,,
1732157397.509763,1732157397.512286,59.000000,0.000000,4342.692383,4296.025879,4321.153809,4309.102539,4273.077148,4267.051270,4333.589844,4400.128418,4294.615234,4285.897461,4504.871582,4531.538574,4373.077148,4471.025879,0.000000,1.000000,24.000000,,,,0.000000,2.000000,2.000000,0.000000,4.000000,2.000000,2.000000,0.000000,0.000000,4.000000,4.000000,4.000000,4.000000,4.000000,4.000000,0.000000,,,,,,,,,,,,,,,,,,,,,,,,,,,,
1732157397.517571,1732157397.520194,60.000000,0.000000,4337.948730,4291.153809,4318.717773,4308.846191,4278.974121,4278.077148,4333.333496,4402.307617,4306.794922,4295.128418,4501.153809,4528.461426,4377.179688,4472.692383,0.000000,1.000000,24.000000,,,,0.000000,2.000000,2.000000,0.000000,4.000000,2.000000,2.000000,0.000000,0.000000,4.000000,4.000000,4.000000,4.000000,4.000000,4.000000,0.000000,,,,,,,,,,,,,,,,,15.000000,0.000000,0.511046,0.492065,-0.526123,0.468933,0.981565,0.014650,-0.037114,-35.022297,45.818020,31.380159
1732157397.525379,1732157397.528002,61.000000,0.000000,4333.846191,4292.820313,4319.487305,4310.512695,4277.692383,4280.000000,4333.846191,4400.769043,4306.153809,4298.846191,4493.205078,4527.436035,4380.000000,4472.563965,0.000000,1.000000,24.000000,,,,0.000000,2.000000,2.000000,0.000000,4.000000,2.000000,2.000000,0.000000,0.000000,4.000000,4.000000,4.000000,4.000000,4.000000,4.000000,0.000000,,,,,,,,,,,,,,,,,,,,,,,,,,,,
1732157397.533188,1732157397.536010,62.000000,0.000000,4334.487305,4296.153809,4321.666504,4312.692383,4278.333496,4276.922852,4331.538574,4399.358887,4293.717773,4291.666504,4491.538574,4525.256348,4377.179688,4470.256348,0.000000,1.000000,24.000000,,,,0.000000,2.000000,2.000000,0.000000,4.000000,2.000000,2.000000,0.000000,0.000000,4.000000,4.000000,4.000000,4.000000,4.000000,4.000000,0.000000,,,,,,,,,,,,,,,,,,,,,,,,,,,,
1732157397.540996,1732157397.543818,63.000000,0.000000,4334.743652,4294.230957,4320.897461,4312.692383,4279.871582,4277.179688,4331.025879,4401.922852,4293.077148,4288.205078,4494.102539,4524.358887,4373.077148,4473.205078,0.000000,1.000000,24.000000,,,,0.000000,2.000000,2.000000,0.000000,4.000000,2.000000,2.000000,0.000000,0.000000,4.000000,4.000000,4.000000,4.000000,4.000000,4.000000,0.000000,,,,,,,,,,,,,,,,,,,,,,,,,,,,
1732157397.548804,1732157397.551726,64.000000,0.000000,4335.384766,4294.102539,4318.205078,4314.102539,4280.512695,4277.436035,4334.102539,4401.666504,4299.487305,4291.282227,4493.077148,4524.871582,4370.000000,4474.615234,0.000000,1.000000,24.000000,,,,0.000000,2.000000,2.000000,0.000000,4.000000,2.000000,2.000000,0.000000,0.000000,4.000000,4.000000,4.000000,4.000000,4.000000,4.000000,0.000000,,,,,,,,,,,,,,,,,16.000000,0.000000,0.510859,0.491882,-0.526367,0.469055,0.984495,0.011720,-0.043951,-35.066395,45.774265,31.279596
1732157397.556612,1732157397.559535,65.000000,0.000000,4334.102539,4297.051270,4317.436035,4318.974121,4281.410156,4274.487305,4335.000000,4400.000000,4296.410156,4286.153809,4488.333496,4518.333496,4366.025879,4466.922852,1589.000000,1.000000,24.000000,,,,0.000000,2.000000,2.000000,0.000000,4.000000,2.000000,2.000000,0.000000,0.000000,4.000000,4.000000,4.000000,4.000000,4.000000,4.000000,0.000000,,,,,,,,,,,,,,,,,,,,,,,,,,,,
1732157397.564420,1732157397.567143,66.000000,0.000000,4329.230957,4296.410156,4319.743652,4320.769043,4281.153809,4276.794922,4334.102539,4401.153809,4292.692383,4282.179688,4486.410156,4504.487305,4365.769043,4460.769043,1379.000000,1.000000,24.000000,,,,0.000000,2.000000,2.000000,0.000000,4.000000,2.000000,2.000000,0.000000,0.000000,4.000000,4.000000,4.000000,4.000000,4.000000,4.000000,0.000000,,,,,,,,,,,,,,,,,,,,,,,,,,,,
1732157397.572229,1732157397.574951,67.000000,0.000000,4325.256348,4295.256348,4321.538574,4318.589844,4283.077148,4281.922852,4332.436035,4401.538574,4295.128418,4286.794922,4487.051270,4504.487305,4364.743652,4459.358887,1412.000000,1.000000,24.000000,,,,0.000000,2.000000,2.000000,0.000000,4.000000,2.000000,2.000000,0.000000,0.000000,4.000000,4.000000,4.000000,4.000000,4.000000,4.000000,0.000000,,,,,,,,,,,,,,,,,,,,,,,,,,,,
1732157397.580037,1732157397.582660,68.000000,0.000000,4327.436035,4296.538574,4320.641113,4317.692383,4281.922852,4281.282227,4328.589844,4398.461426,4297.051270,4288.589844,4487.179688,4516.794922,4360.384766,4457.563965,1412.000000,1.000000,24.000000,,,,0.000000,2.000000,2.000000,0.000000,4.000000,2.000000,2.000000,0.000000,0.000000,4.000000,4.000000,4.000000,4.000000,4.000000,4.000000,0.000000,,,,,,,,,,,,,,,,,17.000000,0.000000,0.510686,0.491821,-0.526428,0.469238,0.977658,0.003907,-0.041021,-34.958778,45.848820,31.194807
1732157397.587845,1732157397.590468,69.000000,0.000000,4333.205078,4294.230957,4321.025879,4319.615234,4276.922852,4279.102539,4327.179688,4398.589844,4296.794922,4288.205078,4489.615234,4521.666504,4363.333496,4460.128418,1224.000000,1.000000,24.000000,,,,0.000000,2.000000,2.000000,0.000000,4.000000,2.000000,2.000000,0.000000,0.000000,4.000000,4.000000,4.000000,4.000000,4.000000,4.000000,0.000000,,,,,,,,,,,,,,,,,,,,,,,,,,,,
1732157397.595653,1732157397.598476,70.000000,0.000000,4335.897461,4295.897461,4319.358887,4319.230957,4287.948730,4278.333496,4328.589844,4401.153809,4294.487305,4287.692383,4489.743652,4520.897461,4367.179688,4463.333496,0.000000,1.000000,24.000000,,,,0.000000,2.000000,2.000000,0.000000,4.000000,2.000000,2.000000,0.000000,0.000000,4.000000,4.000000,4.000000,4.000000,4.000000,4.000000,0.000000,,,,,,,,,,,,,,,,,,,,,,,,,,,,
1732157397.603462,1732157397.606284,71.000000,0.000000,4337.692383,4302.436035,4316.666504,4317.563965,4298.333496,4276.794922,4327.051270,4400.641113,4293.461426,4281.666504,4484.230957,4520.128418,4364.871582,4459.615234,0.000000,1.000000,24.000000,,,,0.000000,2.000000,2.000000,0.000000,4.000000,2.000000,2.000000,0.000000,0.000000,4.000000,4.000000,4.000000,4.000000,4.000000,4.000000,0.000000,,,,,,,,,,,,,,,,,,,,,,,,,,,,
1732157397.611270,1732157397.614192,72.000000,0.000000,4338.589844,4301.025879,4318.333496,4321.794922,4283.846191,4278.205078,4327.692383,4400.256348,4295.897461,4282.563965,4484.615234,4522.436035,4364.487305,4457.948730,1523.000000,1.000000,24.000000,,,,0.000000,2.000000,2.000000,0.000000,4.000000,2.000000,2.000000,0.000000,0.000000,4.000000,4.000000,4.000000,4.000000,4.000000,4.000000,0.000000,,,,,,,,,,,,,,,,,18.000000,0.000000,0.510456,0.491638,-0.526550,0.469543,0.994262,0.008790,-0.047857,-34.978279,45.895878,31.074459
1732157397.619078,1732157397.622000,73.000000,0.000000,4333.974121,4294.358887,4321.794922,4323.974121,4270.769043,4281.410156,4330.384766,4401.794922,4298.589844,4291.282227,4488.589844,4521.922852,4367.051270,4458.974121,1670.000000,1.000000,24.000000,,,,0.000000,2.000000,2.000000,0.000000,4.000000,2.000000,2.000000,0.000000,0.000000,4.000000,4.000000,4.000000,4.000000,4.000000,4.000000,0.000000,,,,,,,,,,,,,,,,,,,,,,,,,,,,
1732157397.626886,1732157397.630008,74.000000,0.000000,4328.846191,4295.384766,4321.666504,4317.692383,4277.692383,4281.025879,4328.333496,4401.025879,4298.717773,4290.512695,4487.436035,4518.846191,4367.948730,4457.692383,1529.000000,1.000000,24.000000,,,,0.000000,2.000000,2.000000,0.000000,4.000000,2.000000,2.000000,0.000000,0.000000,4.000000,4.000000,4.000000,4.000000,4.000000,4.000000,0.000000,,,,,,,,,,,,,,,,,,,,,,,,,,,,
1732157397.634695,1732157397.637816,75.000000,0.000000,4330.128418,4299.487305,4319.230957,4315.256348,4281.666504,4279.487305,4326.794922,4399.871582,4297.820313,4288.589844,4489.871582,4520.000000,4367.179688,4458.589844,1564.000000,1.000000,24.000000,,,,0.000000,2.000000,2.000000,0.000000,4.000000,2.000000,2.000000,0.000000,0.000000,4.000000,4.000000,4.000000,4.000000,4.000000,4.000000,0.000000,,,,,,,,,,,,,,,,,,,,,,,,,,,,
1732157397.642503,1732157397.645725,76.000000,0.000000,4330.256348,4298.461426,4320.512695,4319.615234,4278.077148,4279.230957,4329.102539,4401.922852,4296.922852,4289.102539,4489.230957,4519.358887,4366.153809,4457.179688,1690.000000,1.000000,24.000000,,,,0.000000,2.000000,2.000000,0.000000,4.000000,2.000000,2.000000,0.000000,0.000000,4.000000,4.000000,4.000000,4.000000,4.000000,4.000000,0.000000,,,,,,,,,,,,,,,,,19.000000,0.000000,0.510197,0.491333,-0.526978,0.469666,0.981565,-0.001465,-0.034184,-35.024071,45.838993,31.025312
1732157397.650311,1732157397.653533,77.000000,0.000000,4325.384766,4297.307617,4322.179688,4323.461426,4280.256348,4279.743652,4329.358887,4401.538574,4295.256348,4281.922852,4478.846191,4514.358887,4364.358887,4450.128418,1666.000000,1.000000,24.000000,,,,0.000000,2.000000,2.000000,0.000000,4.000000,2.000000,2.000000,0.000000,0.000000,4.000000,4.000000,4.000000,4.000000,4.000000,4.000000,0.000000,,,,,,,,,,,,,,,,,,,,,,,,,,,,
1732157397.658119,1732157397.661541,78.000000,0.000000,4326.153809,4298.717773,4319.871582,4326.025879,4282.307617,4281.282227,4327.948730,4398.717773,4294.871582,4281.794922,4480.000000,4516.410156,4366.666504,4449.487305,1529.000000,1.000000,24.000000,,,,0.000000,2.000000,2.000000,0.000000,4.000000,2.000000,2.000000,0.000000,0.000000,4.000000,4.000000,4.000000,4.000000,4.000000,4.000000,0.000000,1.000000,0.000000,2.000000,2.000000,0.000000,4.000000,2.000000,2.000000,0.000000,0.000000,3.000000,4.000000,4.000000,4.000000,4.000000,4.000000,,,,,,,,,,,,
1732157397.665928,1732157397.669349,79.000000,0.000000,4328.461426,4296.922852,4318.717773,4323.077148,4280.384766,4280.256348,4330.769043,4400.769043,4300.000000,4292.948730,4490.512695,4522.307617,4368.205078,4456.153809,1564.000000,1.000000,24.000000,,,,0.000000,2.000000,2.000000,0.000000,4.000000,2.000000,2.000000,0.000000,0.000000,4.000000,4.000000,4.000000,4.000000,4.000000,4.000000,0.000000,,,,,,,,,,,,,,,,,,,,,,,,,,,,
1732157397.673736,1732157397.677057,80.000000,0.000000,4326.282227,4295.128418,4320.000000,4319.102539,4283.333496,4279.358887,4335.384766,4403.333496,4302.692383,4292.820313,4488.974121,4520.384766,4367.692383,4457.436035,1690.000000,1.000000,24.000000,,,,0.000000,2.000000,2.000000,0.000000,4.000000,2.000000,2.000000,0.000000,0.000000,4.000000,4.000000,4.000000,4.000000,4.000000,4.000000,0.000000,,,,,,,,,,,,,,,,,20.000000,0.000000,0.510197,0.491333,-0.526978,0.469666,0.980588,0.000977,-0.032230,-35.076164,45.807919,30.970503
1732157397.681544,1732157397.684866,81.000000,0.000000,4325.769043,4296.794922,4318.461426,4322.563965,4287.179688,4281.922852,4334.358887,4400.000000,4298.333496,4287.563965,4485.641113,4518.205078,4370.128418,4456.410156,1666.000000,1.000000,24.000000,,,,0.000000,2.000000,2.000000,0.000000,4.000000,2.000000,2.000000,0.000000,0.000000,4.000000,4.000000,4.000000,4.000000,4.000000,4.000000,0.000000,,,,,,,,,,,,,,,,,,,,,,,,,,,,
1732157397.689352,1732157397.692474,82.000000,0.000000,4326.666504,4298.333496,4317.692383,4323.205078,4285.769043,4283.461426,4330.128418,4398.589844,4296.153809,4291.794922,4488.846191,4520.769043,4370.897461,4456.666504,1529.000000,1.000000,24.000000,,,,0.000000,2.000000,2.000000,0.000000,4.000000,2.000000,2.000000,0.000000,0.000000,4.000000,4.000000,4.000000,4.000000,4.000000,4.000000,0.000000,,,,,,,,,,,,,,,,,,,,,,,,,,,,
1732157397.697161,1732157397.700282,83.000000,0.000000,4326.922852,4297.820313,4319.871582,4321.153809,4282.179688,4281.922852,4328.717773,4401.410156,4298.205078,4296.282227,4488.717773,4522.307617,4367.820313,4452.948730,1564.000000,1.000000,24.000000,,,,0.000000,2.000000,2.000000,0.000000,4.000000,2.000000,2.000000,0.000000,0.000000,4.000000,4.000000,4.000000,4.000000,4.000000,4.000000,0.000000,,,,,,,,,,,,,,,,,,,,,,,,,,,,
1732157397.704969,1732157397.707990,84.000000,0.000000,4327.051270,4297.307617,4320.897461,4322.307617,4283.974121,4278.077148,4327.563965,4399.487305,4295.769043,4293.077148,4486.282227,4521.922852,4365.897461,4447.948730,1690.000000,1.000000,24.000000,,,,0.000000,2.000000,2.000000,0.000000,4.000000,2.000000,2.000000,0.000000,0.000000,4.000000,4.000000,4.000000,4.000000,4.000000,4.000000,0.000000,,,,,,,,,,,,,,,,,21.000000,0.000000,0.510130,0.490784,-0.527771,0.469421,0.965450,0.001953,-0.040044,-34.953362,45.691082,31.242775
1732157397.712777,1732157397.715799,85.000000,0.000000,4327.307617,4297.820313,4320.512695,4322.820313,4285.128418,4280.128418,4326.025879,4396.025879,4294.871582,4289.871582,4486.153809,4520.128418,4367.307617,4446.666504,1666.000000,1.000000,24.000000,,,,0.000000,2.000000,2.000000,0.000000,4.000000,2.000000,2.000000,0.000000,0.000000,4.000000,4.000000,4.000000,4.000000,4.000000,4.000000,0.000000,,,,,,,,,,,,,,,,,,,,,,,,,,,,
1732157397.720585,1732157397.723407,86.000000,0.000000,4325.512695,4296.410156,4321.025879,4323.333496,4276.794922,4280.897461,4326.410156,4399.615234,4301.922852,4293.205078,4486.922852,4520.512695,4368.846191,4447.692383,1529.000000,1.000000,24.000000,,,,0.000000,2.000000,2.000000,0.000000,4.000000,2.000000,2.000000,0.000000,0.000000,4.000000,4.000000,4.000000,4.000000,4.000000,4.000000,0.000000,,,,,,,,,,,,,,,,,,,,,,,,,,,,
1732157397.728393,1732157397.731215,87.000000,0.000000,4319.358887,4294.358887,4320.512695,4321.538574,4281.153809,4271.025879,4325.128418,4401.666504,4305.000000,4295.000000,4486.538574,4522.051270,4368.846191,4445.897461,1564.000000,1.000000,24.000000,,,,0.000000,2.000000,2.000000,0.000000,4.000000,2.000000,2.000000,0.000000,0.000000,4.000000,4.000000,4.000000,4.000000,4.000000,4.000000,0.000000,,,,,,,,,,,,,,,,,,,,,,,,,,,,
1732157397.736202,1732157397.738924,88.000000,0.000000,4318.333496,4298.461426,4320.384766,4315.641113,4292.051270,4268.077148,4325.641113,4399.230957,4303.333496,4292.563965,4486.025879,4521.794922,4370.769043,4443.717773,1690.000000,1.000000,24.000000,,,,0.000000,2.000000,2.000000,0.000000,4.000000,2.000000,2.000000,0.000000,0.000000,4.000000,4.000000,4.000000,4.000000,4.000000,4.000000,0.000000,,,,,,,,,,,,,,,,,22.000000,0.000000,0.510107,0.490662,-0.528015,0.469299,0.974728,0.008790,-0.037602,-34.898888,45.534775,31.334980
1732157397.744010,1732157397.746732,89.000000,0.000000,4325.256348,4306.282227,4319.230957,4314.743652,4278.846191,4276.794922,4332.820313,4400.256348,4302.948730,4294.358887,4486.666504,4520.512695,4371.794922,4449.487305,1666.000000,1.000000,24.000000,,,,0.000000,2.000000,2.000000,0.000000,4.000000,2.000000,2.000000,0.000000,0.000000,4.000000,4.000000,4.000000,4.000000,4.000000,4.000000,0.000000,,,,,,,,,,,,,,,,,,,,,,,,,,,,
1732157397.751818,1732157397.754340,90.000000,0.000000,4328.333496,4309.487305,4318.205078,4320.641113,4259.487305,4282.436035,4337.179688,4402.051270,4301.922852,4291.410156,4487.436035,4522.436035,4371.666504,4456.282227,1529.000000,1.000000,24.000000,,,,0.000000,2.000000,2.000000,0.000000,4.000000,2.000000,2.000000,0.000000,0.000000,4.000000,4.000000,4.000000,4.000000,4.000000,4.000000,0.000000,,,,,,,,,,,,,,,,,,,,,,,,,,,,
1732157397.759627,1732157397.762148,91.000000,0.000000,4329.743652,4309.743652,4320.769043,4323.974121,4264.102539,4274.230957,4333.589844,4400.384766,4297.179688,4280.384766,4493.974121,4531.794922,4378.589844,4460.512695,1564.000000,1.000000,24.000000,,,,0.000000,2.000000,2.000000,0.000000,4.000000,2.000000,2.000000,0.000000,0.000000,4.000000,4.000000,4.000000,4.000000,4.000000,4.000000,0.000000,,,,,,,,,,,,,,,,,,,,,,,,,,,,
1732157397.767435,1732157397.769857,92.000000,0.000000,4333.077148,4309.871582,4322.307617,4326.922852,4270.897461,4264.487305,4332.051270,4399.487305,4295.128418,4285.000000,4506.025879,4541.410156,4383.589844,4465.641113,1690.000000,1.000000,24.000000,,,,0.000000,2.000000,2.000000,0.000000,4.000000,2.000000,2.000000,0.000000,0.000000,4.000000,4.000000,4.000000,4.000000,4.000000,4.000000,0.000000,,,,,,,,,,,,,,,,,23.000000,0.000000,0.510242,0.490784,-0.527771,0.469299,0.981565,0.009767,-0.053229,-35.071434,45.561501,31.218000
1732157397.775243,1732157397.777665,93.000000,0.000000,4333.077148,4312.563965,4321.794922,4330.128418,4266.025879,4268.846191,4334.743652,4400.512695,4298.846191,4298.205078,4508.717773,4541.410156,4382.051270,4465.769043,1666.000000,1.000000,24.000000,,,,0.000000,2.000000,2.000000,0.000000,4.000000,2.000000,2.000000,0.000000,0.000000,4.000000,4.000000,4.000000,4.000000,4.000000,4.000000,0.000000,,,,,,,,,,,,,,,,,,,,,,,,,,,,
1732157397.783051,1732157397.785273,94.000000,0.000000,4328.589844,4312.820313,4319.871582,4324.615234,4277.051270,4277.692383,4334.358887,4401.794922,4297.820313,4294.487305,4504.487305,4537.307617,4387.436035,4460.128418,1529.000000,1.000000,24.000000,,,,0.000000,2.000000,2.000000,0.000000,4.000000,2.000000,2.000000,0.000000,0.000000,4.000000,4.000000,4.000000,4.000000,4.000000,4.000000,0.000000,,,,,,,,,,,,,,,,,,,,,,,,,,,,
1732157397.790860,1732157397.793082,95.000000,0.000000,4328.333496,4305.897461,4320.384766,4311.538574,4279.743652,4278.205078,4333.589844,4402.179688,4293.974121,4290.897461,4505.897461,4538.717773,4393.589844,4459.871582,1564.000000,1.000000,24.000000,,,,0.000000,2.000000,2.000000,0.000000,4.000000,2.000000,2.000000,0.000000,0.000000,4.000000,4.000000,4.000000,4.000000,4.000000,4.000000,0.000000,,,,,,,,,,,,,,,,,,,,,,,,,,,,
1732157397.798668,1732157397.800790,96.000000,0.000000,4326.794922,4302.307617,4321.410156,4307.692383,4259.743652,4276.666504,4334.743652,4400.641113,4295.384766,4299.230957,4504.487305,4542.948730,4390.256348,4459.230957,1690.000000,1.000000,24.000000,,,,0.000000,2.000000,2.000000,0.000000,4.000000,2.000000,2.000000,0.000000,0.000000,4.000000,4.000000,4.000000,4.000000,4.000000,4.000000,0.000000,,,,,,,,,,,,,,,,,24.000000,0.000000,0.510017,0.490967,-0.527710,0.469421,0.981565,0.009767,-0.053229,-34.899529,45.771484,31.018248
1732157397.806476,1732157397.808598,97.000000,0.000000,4316.666504,4308.333496,4320.512695,4312.051270,4256.538574,4282.692383,4330.897461,4398.846191,4298.461426,4299.102539,4492.436035,4533.717773,4389.358887,4447.051270,1666.000000,1.000000,24.000000,,,,0.000000,2.000000,2.000000,0.000000,4.000000,2.000000,2.000000,0.000000,0.000000,4.000000,4.000000,4.000000,4.000000,4.000000,4.000000,0.000000,,,,,,,,,,,,,,,,,,,,,,,,,,,,
1732157397.814284,1732157397.816606,98.000000,0.000000,4308.846191,4310.769043,4317.692383,4306.666504,4265.128418,4283.461426,4328.461426,4401.794922,4300.128418,4291.282227,4484.615234,4517.692383,4398.333496,4437.948730,1529.000000,1.000000,24.000000,,,,0.000000,2.000000,2.000000,0.000000,4.000000,2.000000,2.000000,0.000000,0.000000,4.000000,4.000000,4.000000,4.000000,4.000000,4.000000,0.000000,,,,,,,,,,,,,,,,,,,,,,,,,,,,
1732157397.822092,1732157397.824414,99.000000,0.000000,4311.025879,4308.589844,4317.692383,4298.205078,4260.769043,4280.769043,4332.436035,4402.948730,4305.641113,4292.307617,4488.974121,4523.205078,4407.948730,4441.666504,1564.000000,1.000000,24.000000,,,,0.000000,2.000000,2.000000,0.000000,4.000000,2.000000,2.000000,0.000000,0.000000,4.000000,4.000000,4.000000,4.000000,4.000000,4.000000,0.000000,,,,,,,,,,,,,,,,,,,,,,,,,,,,
1732157397.829901,1732157397.832123,100.000000,0.000000,4313.205078,4313.077148,4321.025879,4306.410156,4256.794922,4282.436035,4334.871582,4398.205078,4311.666504,4295.384766,4494.615234,4536.538574,4419.615234,4445.769043,1690.000000,1.000000,24.000000,,,,0.000000,2.000000,2.000000,0.000000,4.000000,2.000000,2.000000,0.000000,0.000000,4.000000,4.000000,4.000000,4.000000,4.000000,4.000000,0.000000,,,,,,,,,,,,,,,,,25.000000,0.000000,0.509655,0.491211,-0.527344,0.469971,0.983518,0.013185,-0.041021,-34.950283,45.833233,31.089781
1732157397.837709,1732157397.839931,101.000000,0.000000,4312.692383,4313.846191,4321.410156,4315.128418,4262.948730,4282.179688,4333.717773,4399.615234,4308.846191,4293.205078,4493.205078,4533.205078,4427.563965,4444.871582,1666.000000,1.000000,24.000000,,,,0.000000,2.000000,2.000000,0.000000,4.000000,2.000000,2.000000,0.000000,0.000000,4.000000,4.000000,4.000000,4.000000,4.000000,4.000000,0.000000,,,,,,,,,,,,,,,,,,,,,,,,,,,,
1732157397.845517,1732157397.847939,102.000000,0.000000,4317.179688,4311.922852,4319.358887,4310.641113,4262.436035,4281.153809,4334.358887,4405.769043,4308.846191,4294.487305,4492.820313,4532.820313,4430.000000,4445.384766,1529.000000,1.000000,24.000000,,,,0.000000,2.000000,2.000000,0.000000,4.000000,2.000000,2.000000,0.000000,0.000000,4.000000,4.000000,4.000000,4.000000,4.000000,4.000000,0.000000,,,,,,,,,,,,,,,,,,,,,,,,,,,,
1732157397.853325,1732157397.855747,103.000000,0.000000,4318.717773,4316.153809,4318.974121,4306.666504,4262.563965,4280.641113,4334.743652,4403.589844,4313.589844,4295.256348,4497.436035,4543.205078,4433.717773,4448.717773,1564.000000,1.000000,24.000000,,,,0.000000,2.000000,2.000000,0.000000,4.000000,2.000000,2.000000,0.000000,0.000000,4.000000,4.000000,4.000000,4.000000,4.000000,4.000000,0.000000,,,,,,,,,,,,,,,,,,,,,,,,,,,,
1732157397.861134,1732157397.863455,104.000000,0.000000,4311.153809,4316.282227,4319.743652,4310.256348,4268.205078,4281.922852,4333.205078,4398.846191,4306.666504,4287.179688,4492.051270,4536.794922,4428.717773,4445.128418,1690.000000,1.000000,24.000000,,,,0.000000,2.000000,2.000000,0.000000,4.000000,2.000000,2.000000,0.000000,0.000000,4.000000,4.000000,4.000000,4.000000,4.000000,4.000000,0.000000,,,,,,,,,,,,,,,,,26.000000,0.000000,0.509605,0.491211,-0.527283,0.470093,0.986449,-0.012209,-0.029300,-35.006397,45.743252,31.216055
1732157397.868942,1732157397.871264,105.000000,0.000000,4308.846191,4310.256348,4318.846191,4310.769043,4262.820313,4284.615234,4334.487305,4401.282227,4294.743652,4277.563965,4476.666504,4522.563965,4416.025879,4434.487305,1666.000000,1.000000,24.000000,,,,0.000000,2.000000,2.000000,0.000000,4.000000,2.000000,2.000000,0.000000,0.000000,4.000000,4.000000,4.000000,4.000000,4.000000,4.000000,0.000000,,,,,,,,,,,,,,,,,,,,,,,,,,,,
1732157397.876750,1732157397.878872,106.000000,0.000000,4310.897461,4309.615234,4318.205078,4302.436035,4258.974121,4287.948730,4335.512695,4403.846191,4293.717773,4269.358887,4470.641113,4522.948730,4411.538574,4427.820313,1529.000000,1.000000,24.000000,,,,0.000000,2.000000,2.000000,0.000000,4.000000,2.000000,2.000000,0.000000,0.000000,4.000000,4.000000,4.000000,4.000000,4.000000,4.000000,0.000000,,,,,,,,,,,,,,,,,,,,,,,,,,,,
1732157397.884558,1732157397.886680,107.000000,0.000000,4310.128418,4311.538574,4320.128418,4297.307617,4275.128418,4288.333496,4334.615234,4401.666504,4296.538574,4260.128418,4470.000000,4523.333496,4410.512695,4426.666504,1564.000000,1.000000,24.000000,,,,0.000000,2.000000,2.000000,0.000000,4.000000,2.000000,2.000000,0.000000,0.000000,4.000000,4.000000,4.000000,4.000000,4.000000,4.000000,0.000000,,,,,,,,,,,,,,,,,,,,,,,,,,,,
1732157397.892367,1732157397.894388,108.000000,0.000000,4307.436035,4306.794922,4319.743652,4298.205078,4280.256348,4284.102539,4333.846191,4400.512695,4298.333496,4264.102539,4467.051270,4518.333496,4403.333496,4425.256348,1690.000000,1.000000,24.000000,,,,0.000000,2.000000,2.000000,0.000000,4.000000,2.000000,2.000000,0.000000,0.000000,4.000000,4.000000,4.000000,4.000000,4.000000,4.000000,0.000000,,,,,,,,,,,,,,,,,27.000000,0.000000,0.509653,0.491089,-0.527405,0.470032,0.986449,-0.012209,-0.029300,-35.226849,45.728703,31.460005
1732157397.900175,1732157397.902197,109.000000,0.000000,4303.846191,4305.128418,4319.358887,4298.333496,4261.410156,4281.153809,4333.077148,4400.769043,4299.102539,4278.846191,4471.538574,4518.589844,4404.102539,4428.205078,1666.000000,1.000000,24.000000,,,,0.000000,2.000000,2.000000,0.000000,4.000000,2.000000,2.000000,0.000000,0.000000,4.000000,4.000000,4.000000,4.000000,4.000000,4.000000,0.000000,,,,,,,,,,,,,,,,,,,,,,,,,,,,
1732157397.907983,1732157397.909805,110.000000,0.000000,4302.436035,4312.179688,4321.025879,4297.820313,4255.128418,4282.179688,4333.077148,4401.025879,4298.589844,4281.282227,4478.077148,4522.820313,4412.948730,4432.692383,1529.000000,1.000000,24.000000,,,,0.000000,2.000000,2.000000,0.000000,4.000000,2.000000,2.000000,0.000000,0.000000,4.000000,4.000000,4.000000,4.000000,4.000000,4.000000,0.000000,,,,,,,,,,,,,,,,,,,,,,,,,,,,
1732157397.915791,1732157397.917613,111.000000,0.000000,4306.025879,4311.922852,4320.641113,4297.820313,4264.871582,4282.563965,4333.205078,4401.153809,4299.615234,4278.205078,4476.153809,4523.333496,4413.077148,4431.922852,1564.000000,1.000000,24.000000,,,,0.000000,2.000000,2.000000,0.000000,4.000000,2.000000,2.000000,0.000000,0.000000,4.000000,4.000000,4.000000,4.000000,4.000000,4.000000,0.000000,,,,,,,,,,,,,,,,,,,,,,,,,,,,
1732157397.923600,1732157397.925521,112.000000,0.000000,4307.436035,4304.358887,4320.384766,4297.436035,4266.153809,4282.563965,4332.820313,4401.025879,4297.307617,4280.128418,4475.128418,4521.153809,4407.563965,4434.743652,1690.000000,1.000000,24.000000,,,,0.000000,2.000000,2.000000,0.000000,4.000000,2.000000,2.000000,0.000000,0.000000,4.000000,4.000000,4.000000,4.000000,4.000000,4.000000,0.000000,,,,,,,,,,,,,,,,,28.000000,0.000000,0.509485,0.490417,-0.528137,0.470093,0.978147,0.003418,-0.042486,-35.317081,45.725250,31.320938
1732157397.931408,1732157397.933330,113.000000,0.000000,4302.563965,4301.922852,4321.153809,4296.538574,4262.820313,4282.051270,4332.948730,4400.641113,4297.820313,4280.384766,4477.820313,4521.153809,4405.641113,4438.974121,1666.000000,1.000000,24.000000,,,,0.000000,2.000000,2.000000,0.000000,4.000000,2.000000,2.000000,0.000000,0.000000,4.000000,4.000000,4.000000,4.000000,4.000000,4.000000,0.000000,,,,,,,,,,,,,,,,,,,,,,,,,,,,
1732157397.939216,1732157397.941338,114.000000,0.000000,4298.589844,4303.077148,4321.410156,4294.487305,4265.769043,4278.974121,4333.461426,4400.000000,4308.717773,4280.897461,4480.256348,4524.230957,4407.179688,4435.897461,1529.000000,1.000000,24.000000,,,,0.000000,2.000000,2.000000,0.000000,4.000000,2.000000,2.000000,0.000000,0.000000,4.000000,4.000000,4.000000,4.000000,4.000000,4.000000,0.000000,,,,,,,,,,,,,,,,,,,,,,,,,,,,
1732157397.947024,1732157397.949146,115.000000,0.000000,4297.307617,4309.743652,4320.769043,4297.820313,4268.461426,4282.307617,4331.153809,4400.512695,4306.410156,4280.000000,4475.256348,4522.051270,4398.333496,4430.000000,1564.000000,1.000000,24.000000,,,,0.000000,2.000000,2.000000,0.000000,4.000000,2.000000,2.000000,0.000000,0.000000,4.000000,4.000000,4.000000,4.000000,4.000000,4.000000,0.000000,,,,,,,,,,,,,,,,,,,,,,,,,,,,
1732157397.954833,1732157397.957054,116.000000,0.000000,4296.282227,4312.948730,4321.794922,4305.769043,4278.589844,4285.384766,4329.743652,4402.179688,4293.333496,4275.641113,4463.077148,4509.871582,4386.410156,4426.922852,1690.000000,1.000000,24.000000,,,,0.000000,2.000000,2.000000,0.000000,4.000000,2.000000,2.000000,0.000000,0.000000,4.000000,4.000000,4.000000,4.000000,4.000000,4.000000,0.000000,,,,,,,,,,,,,,,,,29.000000,0.000000,0.509307,0.489746,-0.528931,0.470093,0.974240,0.000000,-0.037114,-35.273502,45.689117,31.424959
1732157397.962641,1732157397.964862,117.000000,0.000000,4300.641113,4302.307617,4322.307617,4303.461426,4291.666504,4283.846191,4333.717773,4400.256348,4300.769043,4276.794922,4463.077148,4504.358887,4389.487305,4425.641113,1666.000000,1.000000,24.000000,,,,0.000000,2.000000,2.000000,0.000000,4.000000,2.000000,2.000000,0.000000,0.000000,4.000000,4.000000,4.000000,4.000000,4.000000,4.000000,0.000000,,,,,,,,,,,,,,,,,,,,,,,,,,,,
1732157397.970449,1732157397.972471,118.000000,0.000000,4301.666504,4298.589844,4321.153809,4290.000000,4285.512695,4289.743652,4335.128418,4397.692383,4316.025879,4281.538574,4473.589844,4515.512695,4392.820313,4423.333496,1529.000000,1.000000,24.000000,,,,0.000000,2.000000,2.000000,0.000000,4.000000,2.000000,2.000000,0.000000,0.000000,4.000000,4.000000,4.000000,4.000000,4.000000,4.000000,0.000000,,,,,,,,,,,,,,,,,,,,,,,,,,,,
1732157397.978257,1732157397.980279,119.000000,0.000000,4297.948730,4311.153809,4320.512695,4294.102539,4266.025879,4296.410156,4332.179688,4400.769043,4311.538574,4282.820313,4474.615234,4517.820313,4387.307617,4423.461426,1564.000000,1.000000,24.000000,,,,0.000000,2.000000,2.000000,0.000000,4.000000,2.000000,2.000000,0.000000,0.000000,4.000000,4.000000,4.000000,4.000000,4.000000,4.000000,0.000000,,,,,,,,,,,,,,,,,,,,,,,,,,,,
1732157397.986066,1732157397.988187,120.000000,0.000000,4297.563965,4315.769043,4320.769043,4310.384766,4261.025879,4292.436035,4335.000000,4404.358887,4307.563965,4287.307617,4469.487305,4512.051270,4389.743652,4425.128418,1690.000000,1.000000,24.000000,,,,0.000000,2.000000,2.000000,0.000000,4.000000,2.000000,2.000000,0.000000,0.000000,4.000000,4.000000,4.000000,4.000000,4.000000,4.000000,0.000000,,,,,,,,,,,,,,,,,30.000000,0.000000,0.509279,0.489563,-0.529236,0.469971,0.972775,0.005372,-0.038579,-34.904869,45.653187,31.249216
1732157397.993874,1732157397.995995,121.000000,0.000000,4301.922852,4308.461426,4322.692383,4305.256348,4271.282227,4287.436035,4335.256348,4402.307617,4312.948730,4298.205078,4472.948730,4517.307617,4400.000000,4429.358887,1666.000000,1.000000,24.000000,,,,0.000000,2.000000,2.000000,0.000000,4.000000,2.000000,2.000000,0.000000,0.000000,4.000000,4.000000,4.000000,4.000000,4.000000,4.000000,0.000000,,,,,,,,,,,,,,,,,,,,,,,,,,,,
1732157398.001682,1732157398.004003,122.000000,0.000000,4302.563965,4311.410156,4322.948730,4292.307617,4274.615234,4286.666504,4328.974121,4399.615234,4306.025879,4296.282227,4478.589844,4519.102539,4396.922852,4429.102539,1529.000000,1.000000,24.000000,,,,0.000000,2.000000,2.000000,0.000000,4.000000,2.000000,2.000000,0.000000,0.000000,4.000000,4.000000,4.000000,4.000000,4.000000,4.000000,0.000000,,,,,,,,,,,,,,,,,,,,,,,,,,,,
1732157398.009490,1732157398.011811,123.000000,0.000000,4298.974121,4321.538574,4322.179688,4301.538574,4271.282227,4282.948730,4330.000000,4400.512695,4293.461426,4282.820313,4470.000000,4508.333496,4385.769043,4423.717773,1564.000000,1.000000,24.000000,,,,0.000000,2.000000,2.000000,0.000000,4.000000,2.000000,2.000000,0.000000,0.000000,4.000000,4.000000,4.000000,4.000000,4.000000,4.000000,0.000000,,,,,,,,,,,,,,,,,,,,,,,,,,,,
1732157398.017299,1732157398.019719,124.000000,0.000000,4297.307617,4329.743652,4324.102539,4315.000000,4272.948730,4279.230957,4333.333496,4400.256348,4293.846191,4284.102539,4460.641113,4502.820313,4382.436035,4421.153809,1690.000000,1.000000,24.000000,,,,0.000000,2.000000,2.000000,0.000000,4.000000,2.000000,2.000000,0.000000,0.000000,4.000000,4.000000,4.000000,4.000000,4.000000,4.000000,0.000000,,,,,,,,,,,,,,,,,31.000000,0.000000,0.509109,0.489014,-0.529907,0.469971,0.980100,-0.020999,-0.040044,-34.891277,45.655746,31.233532
1732157398.025107,1732157398.027528,125.000000,0.000000,4295.384766,4336.282227,4326.025879,4308.461426,4281.410156,4278.077148,4330.000000,4399.743652,4305.897461,4294.615234,4465.641113,4506.282227,4382.051270,4416.282227,1666.000000,1.000000,24.000000,,,,0.000000,2.000000,2.000000,0.000000,4.000000,2.000000,2.000000,0.000000,0.000000,4.000000,4.000000,4.000000,4.000000,4.000000,4.000000,0.000000,,,,,,,,,,,,,,,,,,,,,,,,,,,,
1732157398.032915,1732157398.035536,126.000000,0.000000,4292.692383,4345.256348,4323.717773,4305.769043,4282.051270,4277.436035,4326.922852,4401.410156,4309.871582,4293.205078,4472.692383,4506.025879,4381.025879,4413.589844,1529.000000,1.000000,24.000000,,,,0.000000,2.000000,2.000000,0.000000,4.000000,2.000000,2.000000,0.000000,0.000000,4.000000,4.000000,4.000000,4.000000,4.000000,4.000000,0.000000,,,,,,,,,,,,,,,,,,,,,,,,,,,,
1732157398.040723,1732157398.043344,127.000000,0.000000,4292.692383,4360.128418,4321.794922,4321.410156,4266.538574,4279.871582,4328.333496,4401.538574,4298.717773,4283.846191,4468.333496,4504.102539,4380.000000,4418.589844,24.000000,1.000000,24.000000,,,,0.000000,2.000000,2.000000,0.000000,4.000000,2.000000,2.000000,0.000000,0.000000,4.000000,4.000000,4.000000,4.000000,4.000000,4.000000,0.000000,,,,,,,,,,,,,,,,,,,,,,,,,,,,
1732157398.048532,1732157398.051252,0.000000,0.000000,4295.256348,4370.128418,4323.333496,4330.641113,4258.077148,4281.153809,4331.794922,4400.128418,4294.743652,4286.538574,4469.743652,4507.948730,4383.205078,4426.794922,0.000000,1.000000,24.000000,,,,0.000000,2.000000,2.000000,0.000000,4.000000,2.000000,2.000000,0.000000,0.000000,4.000000,4.000000,4.000000,4.000000,4.000000,4.000000,0.000000,,,,,,,,,,,,,,,,,0.000000,0.000000,0.508451,0.487793,-0.531067,0.470642,0.978147,0.002930,-0.037602,-35.030270,45.672821,31.235828
1732157398.056340,1732157398.059060,1.000000,0.000000,4293.846191,4369.102539,4324.358887,4329.230957,4265.512695,4279.230957,4335.769043,4400.897461,4301.538574,4296.666504,4478.333496,4515.512695,4385.512695,4428.846191,1589.000000,1.000000,24.000000,,,,0.000000,2.000000,2.000000,0.000000,4.000000,2.000000,2.000000,0.000000,0.000000,4.000000,4.000000,4.000000,4.000000,4.000000,4.000000,0.000000,,,,,,,,,,,,,,,,,,,,,,,,,,,,
1732157398.064148,1732157398.066968,2.000000,0.000000,4288.717773,4364.102539,4321.025879,4328.974121,4265.384766,4280.512695,4334.230957,4403.205078,4302.948730,4298.205078,4476.025879,4516.410156,4381.410156,4425.512695,1369.000000,1.000000,24.000000,,,,0.000000,2.000000,2.000000,0.000000,4.000000,2.000000,2.000000,0.000000,0.000000,4.000000,4.000000,4.000000,4.000000,4.000000,4.000000,0.000000,,,,,,,,,,,,,,,,,,,,,,,,,,,,
1732157398.071956,1732157398.074776,3.000000,0.000000,4294.743652,4367.563965,4320.769043,4336.410156,4263.589844,4279.487305,4327.820313,4403.461426,4294.102539,4293.846191,4474.487305,4511.666504,4381.410156,4425.769043,1392.000000,1.000000,24.000000,,,,0.000000,2.000000,2.000000,0.000000,4.000000,2.000000,2.000000,0.000000,0.000000,4.000000,4.000000,4.000000,4.000000,4.000000,4.000000,0.000000,,,,,,,,,,,,,,,,,,,,,,,,,,,,
1732157398.079764,1732157398.082485,4.000000,0.000000,4297.692383,4370.000000,4323.846191,4341.922852,4273.077148,4279.230957,4326.794922,4400.512695,4293.205078,4295.769043,4480.000000,4512.820313,4384.230957,4427.948730,1399.000000,1.000000,24.000000,,,,0.000000,2.000000,2.000000,0.000000,4.000000,2.000000,2.000000,0.000000,0.000000,4.000000,4.000000,4.000000,4.000000,4.000000,4.000000,0.000000,,,,,,,,,,,,,,,,,1.000000,0.000000,0.508108,0.487183,-0.531738,0.470886,0.966427,-0.010743,-0.041021,-35.109516,45.738319,31.239353
1732157398.087573,1732157398.090293,5.000000,0.000000,4287.179688,4364.743652,4324.487305,4337.307617,4275.256348,4276.410156,4328.077148,4398.077148,4302.820313,4304.102539,4478.589844,4512.692383,4381.025879,4428.205078,1237.000000,1.000000,24.000000,,,,0.000000,2.000000,2.000000,0.000000,4.000000,2.000000,2.000000,0.000000,0.000000,4.000000,4.000000,4.000000,4.000000,4.000000,4.000000,0.000000,,,,,,,,,,,,,,,,,,,,,,,,,,,,
1732157398.095381,1732157398.097901,6.000000,0.000000,4284.743652,4364.358887,4322.051270,4332.307617,4283.205078,4267.436035,4327.563965,4399.230957,4298.846191,4300.000000,4472.179688,4506.410156,4368.974121,4422.051270,0.000000,1.000000,24.000000,,,,0.000000,2.000000,2.000000,0.000000,4.000000,2.000000,2.000000,0.000000,0.000000,4.000000,4.000000,4.000000,4.000000,4.000000,4.000000,0.000000,,,,,,,,,,,,,,,,,,,,,,,,,,,,
1732157398.103189,1732157398.105710,7.000000,0.000000,4293.974121,4363.717773,4320.128418,4334.615234,4294.487305,4269.102539,4326.922852,4399.230957,4291.282227,4294.743652,4471.666504,4507.307617,4366.025879,4420.000000,0.000000,1.000000,24.000000,,,,0.000000,2.000000,2.000000,0.000000,4.000000,2.000000,2.000000,0.000000,0.000000,4.000000,4.000000,4.000000,4.000000,4.000000,4.000000,0.000000,,,,,,,,,,,,,,,,,,,,,,,,,,,,
1732157398.110998,1732157398.113418,8.000000,0.000000,4295.641113,4362.692383,4321.410156,4337.692383,4281.025879,4280.512695,4328.077148,4397.948730,4297.563965,4299.871582,4476.282227,4509.871582,4373.974121,4426.666504,1509.000000,1.000000,24.000000,,,,0.000000,2.000000,2.000000,0.000000,4.000000,2.000000,2.000000,0.000000,0.000000,4.000000,4.000000,4.000000,4.000000,4.000000,4.000000,0.000000,,,,,,,,,,,,,,,,,2.000000,0.000000,0.508101,0.486938,-0.531860,0.471008,0.974728,0.002442,-0.029789,-35.293709,45.791370,31.167210
1732157398.118806,1732157398.121226,9.000000,0.000000,4291.153809,4362.179688,4322.563965,4334.871582,4268.461426,4281.410156,4331.025879,4400.769043,4306.025879,4304.487305,4477.179688,4509.615234,4373.461426,4427.948730,1648.000000,1.000000,24.000000,,,,0.000000,2.000000,2.000000,0.000000,4.000000,2.000000,2.000000,0.000000,0.000000,4.000000,4.000000,4.000000,4.000000,4.000000,4.000000,0.000000,,,,,,,,,,,,,,,,,,,,,,,,,,,,
1732157398.126614,1732157398.128835,10.000000,0.000000,4293.974121,4360.128418,4320.769043,4334.743652,4278.333496,4275.128418,4335.384766,4404.230957,4303.974121,4305.769043,4479.743652,4515.384766,4369.871582,4426.025879,1516.000000,1.000000,24.000000,,,,0.000000,2.000000,2.000000,0.000000,4.000000,2.000000,2.000000,0.000000,0.000000,4.000000,4.000000,4.000000,4.000000,4.000000,4.000000,0.000000,,,,,,,,,,,,,,,,,,,,,,,,,,,,
1732157398.134422,1732157398.136643,11.000000,0.000000,4301.666504,4357.948730,4319.743652,4337.563965,4279.743652,4275.897461,4334.871582,4401.538574,4292.820313,4298.461426,4480.512695,4517.179688,4370.128418,4427.436035,1546.000000,1.000000,24.000000,,,,0.000000,2.000000,2.000000,0.000000,4.000000,2.000000,2.000000,0.000000,0.000000,4.000000,4.000000,4.000000,4.000000,4.000000,4.000000,0.000000,,,,,,,,,,,,,,,,,,,,,,,,,,,,
1732157398.142230,1732157398.144351,12.000000,0.000000,4303.717773,4353.077148,4321.282227,4333.205078,4282.051270,4277.948730,4329.102539,4399.743652,4290.000000,4290.769043,4475.256348,4508.205078,4366.282227,4427.179688,1685.000000,1.000000,24.000000,,,,0.000000,2.000000,2.000000,0.000000,4.000000,2.000000,2.000000,0.000000,0.000000,4.000000,4.000000,4.000000,4.000000,4.000000,4.000000,0.000000,,,,,,,,,,,,,,,,,3.000000,0.000000,0.507734,0.486633,-0.532166,0.471375,0.976682,-0.013185,-0.052252,-35.426239,45.659344,31.370440
1732157398.150039,1732157398.152159,13.000000,0.000000,4302.179688,4346.794922,4322.307617,4325.769043,4300.769043,4277.179688,4329.230957,4402.436035,4299.871582,4300.000000,4479.358887,4506.025879,4365.256348,4426.025879,1661.000000,1.000000,24.000000,,,,0.000000,2.000000,2.000000,0.000000,4.000000,2.000000,2.000000,0.000000,0.000000,4.000000,4.000000,4.000000,4.000000,4.000000,4.000000,0.000000,,,,,,,,,,,,,,,,,,,,,,,,,,,,
1732157398.157847,1732157398.159768,14.000000,0.000000,4304.102539,4344.871582,4324.487305,4325.128418,4296.025879,4278.461426,4334.358887,4402.307617,4307.820313,4313.333496,4490.128418,4517.307617,4365.641113,4428.717773,1516.000000,1.000000,24.000000,,,,0.000000,2.000000,2.000000,0.000000,4.000000,2.000000,2.000000,0.000000,0.000000,4.000000,4.000000,4.000000,4.000000,4.000000,4.000000,0.000000,1.000000,0.000000,2.000000,2.000000,0.000000,4.000000,2.000000,2.000000,0.000000,0.000000,4.000000,4.000000,4.000000,4.000000,4.000000,4.000000,,,,,,,,,,,,
1732157398.165655,1732157398.167576,15.000000,0.000000,4310.128418,4346.666504,4326.410156,4329.102539,4274.487305,4279.871582,4334.230957,4400.000000,4307.307617,4313.846191,4491.538574,4525.000000,4363.461426,4430.384766,1546.000000,1.000000,24.000000,,,,0.000000,2.000000,2.000000,0.000000,4.000000,2.000000,2.000000,0.000000,0.000000,4.000000,4.000000,4.000000,4.000000,4.000000,4.000000,0.000000,,,,,,,,,,,,,,,,,,,,,,,,,,,,
1732157398.173463,1732157398.175284,16.000000,0.000000,4307.820313,4339.871582,4322.948730,4322.692383,4276.538574,4282.179688,4332.692383,4400.384766,4310.512695,4308.846191,4485.897461,4522.051270,4361.794922,4426.538574,0.000000,1.000000,24.000000,,,,0.000000,2.000000,2.000000,0.000000,4.000000,2.000000,2.000000,0.000000,0.000000,4.000000,4.000000,4.000000,4.000000,4.000000,4.000000,0.000000,,,,,,,,,,,,,,,,,4.000000,0.000000,0.507026,0.486328,-0.532471,0.472107,0.976682,-0.024905,-0.041021,-35.403587,45.555737,31.060057
1732157398.181272,1732157398.183092,17.000000,0.000000,4303.205078,4330.897461,4320.512695,4313.333496,4290.769043,4281.153809,4334.358887,4401.153809,4310.128418,4305.384766,4487.051270,4519.743652,4357.820313,4425.512695,0.000000,1.000000,24.000000,,,,0.000000,2.000000,2.000000,0.000000,4.000000,2.000000,2.000000,0.000000,0.000000,4.000000,4.000000,4.000000,4.000000,4.000000,4.000000,0.000000,,,,,,,,,,,,,,,,,,,,,,,,,,,,
1732157398.189080,1732157398.190701,18.000000,0.000000,4306.794922,4328.846191,4323.205078,4317.051270,4292.948730,4278.589844,4331.282227,4402.179688,4299.358887,4304.102539,4493.205078,4522.820313,4352.563965,4428.333496,0.000000,1.000000,24.000000,,,,0.000000,2.000000,2.000000,0.000000,4.000000,2.000000,2.000000,0.000000,0.000000,4.000000,4.000000,4.000000,4.000000,4.000000,4.000000,0.000000,,,,,,,,,,,,,,,,,,,,,,,,,,,,
1732157398.196888,1732157398.198509,19.000000,0.000000,4307.051270,4327.948730,4322.563965,4323.333496,4296.153809,4279.871582,4326.666504,4401.666504,4294.871582,4302.179688,4487.307617,4519.102539,4345.512695,4425.128418,0.000000,1.000000,24.000000,,,,0.000000,2.000000,2.000000,0.000000,4.000000,2.000000,2.000000,0.000000,0.000000,4.000000,4.000000,4.000000,4.000000,4.000000,4.000000,0.000000,,,,,,,,,,,,,,,,,,,,,,,,,,,,
1732157398.204697,1732157398.206217,20.000000,0.000000,4302.307617,4322.436035,4320.256348,4322.051270,4302.051270,4287.307617,4329.102539,4400.769043,4297.820313,4295.897461,4479.615234,4512.692383,4335.000000,4421.794922,0.000000,1.000000,24.000000,,,,0.000000,2.000000,2.000000,0.000000,4.000000,2.000000,2.000000,0.000000,0.000000,4.000000,4.000000,4.000000,4.000000,4.000000,4.000000,0.000000,,,,,,,,,,,,,,,,,5.000000,0.000000,0.506956,0.486267,-0.532593,0.472107,0.976682,-0.024905,-0.041021,-35.278572,45.560146,31.080313
1732157398.212505,1732157398.214026,21.000000,0.000000,4305.256348,4316.282227,4321.538574,4319.358887,4299.615234,4290.897461,4330.641113,4400.512695,4302.051270,4295.512695,4484.871582,4518.077148,4333.974121,4426.153809,0.000000,1.000000,24.000000,,,,0.000000,2.000000,2.000000,0.000000,4.000000,2.000000,2.000000,0.000000,0.000000,4.000000,4.000000,4.000000,4.000000,4.000000,4.000000,0.000000,,,,,,,,,,,,,,,,,,,,,,,,,,,,
1732157398.220313,1732157398.222034,22.000000,0.000000,4312.692383,4311.282227,4324.102539,4317.436035,4308.205078,4285.641113,4328.205078,4400.000000,4307.307617,4304.487305,4492.820313,4523.846191,4338.077148,4430.000000,0.000000,1.000000,24.000000,,,,0.000000,2.000000,2.000000,0.000000,4.000000,2.000000,2.000000,0.000000,0.000000,4.000000,4.000000,4.000000,4.000000,4.000000,4.000000,0.000000,,,,,,,,,,,,,,,,,,,,,,,,,,,,
1732157398.228121,1732157398.229842,23.000000,0.000000,4313.589844,4292.820313,4323.589844,4316.282227,4322.051270,4286.410156,4330.384766,4398.974121,4307.179688,4306.922852,4490.384766,4520.256348,4331.410156,4426.025879,0.000000,1.000000,24.000000,,,,0.000000,2.000000,2.000000,0.000000,4.000000,2.000000,2.000000,0.000000,0.000000,4.000000,4.000000,4.000000,4.000000,4.000000,4.000000,0.000000,,,,,,,,,,,,,,,,,,,,,,,,,,,,
1732157398.235929,1732157398.237750,24.000000,0.000000,4310.000000,4266.538574,4322.307617,4316.922852,4313.333496,4296.794922,4335.641113,4400.512695,4309.487305,4305.897461,4487.179688,4516.922852,4322.307617,4424.615234,0.000000,1.000000,24.000000,,,,0.000000,2.000000,2.000000,0.000000,4.000000,2.000000,2.000000,0.000000,0.000000,4.000000,4.000000,4.000000,4.000000,4.000000,4.000000,0.000000,,,,,,,,,,,,,,,,,6.000000,0.000000,0.507054,0.486023,-0.532776,0.472046,0.991332,-0.018557,-0.045904,-35.238976,45.592052,31.221720
1732157398.243738,1732157398.245558,25.000000,0.000000,4310.128418,4259.743652,4322.436035,4315.128418,4293.333496,4300.512695,4335.256348,4402.563965,4314.871582,4312.179688,4491.666504,4522.179688,4327.820313,4428.461426,0.000000,1.000000,24.000000,,,,0.000000,2.000000,2.000000,0.000000,4.000000,2.000000,2.000000,0.000000,0.000000,4.000000,4.000000,4.000000,4.000000,4.000000,4.000000,0.000000,,,,,,,,,,,,,,,,,,,,,,,,,,,,
1732157398.251546,1732157398.253566,26.000000,0.000000,4311.025879,4265.256348,4323.333496,4309.871582,4294.871582,4294.102539,4333.077148,4400.000000,4314.743652,4316.410156,4494.102539,4526.282227,4331.410156,4426.794922,0.000000,1.000000,24.000000,,,,0.000000,2.000000,2.000000,0.000000,4.000000,2.000000,2.000000,0.000000,0.000000,4.000000,4.000000,4.000000,4.000000,4.000000,4.000000,0.000000,,,,,,,,,,,,,,,,,,,,,,,,,,,,
1732157398.259354,1732157398.261374,27.000000,0.000000,4308.077148,4264.358887,4324.743652,4309.615234,4315.769043,4293.974121,4334.743652,4398.589844,4311.794922,4305.641113,4484.743652,4516.794922,4320.000000,4414.615234,0.000000,1.000000,24.000000,,,,0.000000,2.000000,2.000000,0.000000,4.000000,2.000000,2.000000,0.000000,0.000000,4.000000,4.000000,4.000000,4.000000,4.000000,4.000000,0.000000,,,,,,,,,,,,,,,,,,,,,,,,,,,,
1732157398.267162,1732157398.269083,28.000000,0.000000,4306.025879,4262.820313,4324.615234,4316.025879,4319.743652,4299.358887,4335.384766,4400.641113,4311.025879,4294.487305,4476.794922,4506.153809,4308.717773,4407.948730,0.000000,1.000000,24.000000,,,,0.000000,2.000000,2.000000,0.000000,4.000000,2.000000,2.000000,0.000000,0.000000,4.000000,4.000000,4.000000,4.000000,4.000000,4.000000,0.000000,,,,,,,,,,,,,,,,,7.000000,0.000000,0.507085,0.485901,-0.533020,0.471863,0.975217,0.000977,-0.039556,-35.140236,45.634563,31.352926
1732157398.274971,1732157398.276891,29.000000,0.000000,4311.922852,4265.641113,4322.692383,4320.897461,4303.333496,4301.410156,4334.358887,4402.820313,4312.820313,4305.769043,4485.256348,4514.102539,4311.025879,4420.128418,0.000000,1.000000,24.000000,,,,0.000000,2.000000,2.000000,0.000000,4.000000,2.000000,2.000000,0.000000,0.000000,4.000000,4.000000,4.000000,4.000000,4.000000,4.000000,0.000000,,,,,,,,,,,,,,,,,,,,,,,,,,,,
1732157398.282779,1732157398.284499,30.000000,0.000000,4317.820313,4266.538574,4320.641113,4319.487305,4298.077148,4301.538574,4335.128418,4401.538574,4312.948730,4311.922852,4491.538574,4522.820313,4314.102539,4428.205078,0.000000,1.000000,24.000000,,,,0.000000,2.000000,2.000000,0.000000,4.000000,2.000000,2.000000,0.000000,0.000000,4.000000,4.000000,4.000000,4.000000,4.000000,4.000000,0.000000,,,,,,,,,,,,,,,,,,,,,,,,,,,,
1732157398.290587,1732157398.292307,31.000000,0.000000,4314.743652,4264.487305,4323.461426,4313.077148,4306.282227,4301.794922,4336.025879,4399.615234,4311.922852,4300.769043,4485.897461,4516.025879,4302.307617,4420.769043,0.000000,1.000000,24.000000,,,,0.000000,2.000000,2.000000,0.000000,4.000000,2.000000,2.000000,0.000000,0.000000,4.000000,4.000000,4.000000,4.000000,4.000000,4.000000,0.000000,,,,,,,,,,,,,,,,,,,,,,,,,,,,
1732157398.298395,1732157398.300016,32.000000,0.000000,4310.641113,4261.538574,4325.897461,4310.256348,4308.205078,4301.538574,4335.256348,4401.410156,4315.897461,4303.205078,4488.077148,4510.897461,4294.358887,4416.794922,0.000000,1.000000,24.000000,,,,0.000000,2.000000,2.000000,0.000000,4.000000,2.000000,2.000000,0.000000,0.000000,4.000000,4.000000,4.000000,4.000000,4.000000,4.000000,0.000000,,,,,,,,,,,,,,,,,8.000000,0.000000,0.506924,0.486084,-0.532898,0.471985,0.974728,-0.019045,-0.044439,-35.155258,45.592327,31.377537
1732157398.306203,1732157398.307824,33.000000,0.000000,4312.179688,4260.769043,4325.000000,4311.153809,4307.436035,4299.230957,4334.615234,4401.794922,4316.922852,4307.436035,4487.307617,4509.487305,4298.974121,4418.333496,0.000000,1.000000,24.000000,,,,0.000000,2.000000,2.000000,0.000000,4.000000,2.000000,2.000000,0.000000,0.000000,4.000000,4.000000,4.000000,4.000000,4.000000,4.000000,0.000000,,,,,,,,,,,,,,,,,,,,,,,,,,,,
1732157398.314012,1732157398.315432,34.000000,0.000000,4312.307617,4260.256348,4321.922852,4312.179688,4307.563965,4297.563965,4334.743652,4399.871582,4311.922852,4295.769043,4480.256348,4505.641113,4297.436035,4417.692383,0.000000,1.000000,24.000000,,,,0.000000,2.000000,2.000000,0.000000,4.000000,2.000000,2.000000,0.000000,0.000000,4.000000,4.000000,4.000000,4.000000,4.000000,4.000000,0.000000,,,,,,,,,,,,,,,,,,,,,,,,,,,,
1732157398.321820,1732157398.323241,35.000000,0.000000,4310.128418,4259.230957,4321.538574,4311.282227,4312.820313,4296.666504,4335.000000,4401.025879,4309.615234,4296.025879,4486.153809,4510.769043,4297.820313,4422.307617,0.000000,1.000000,24.000000,,,,0.000000,2.000000,2.000000,0.000000,4.000000,2.000000,2.000000,0.000000,0.000000,4.000000,4.000000,4.000000,4.000000,4.000000,4.000000,0.000000,,,,,,,,,,,,,,,,,,,,,,,,,,,,
1732157398.329628,1732157398.331149,36.000000,0.000000,4311.153809,4258.333496,4324.487305,4309.871582,4323.846191,4298.974121,4334.871582,4400.769043,4312.436035,4309.743652,4494.102539,4521.153809,4307.051270,4427.692383,0.000000,1.000000,24.000000,,,,0.000000,2.000000,2.000000,0.000000,4.000000,2.000000,2.000000,0.000000,0.000000,4.000000,4.000000,4.000000,4.000000,4.000000,4.000000,0.000000,,,,,,,,,,,,,,,,,9.000000,0.000000,0.506923,0.486145,-0.532898,0.471924,0.982053,-0.006348,-0.038091,-35.189095,45.543118,31.590805
1732157398.337437,1732157398.338957,37.000000,0.000000,4309.230957,4255.000000,4324.358887,4311.794922,4315.128418,4302.179688,4334.358887,4397.307617,4317.307617,4312.692383,4491.538574,4525.256348,4308.717773,4422.307617,0.000000,1.000000,24.000000,,,,0.000000,2.000000,2.000000,0.000000,4.000000,2.000000,2.000000,0.000000,0.000000,4.000000,4.000000,4.000000,4.000000,4.000000,4.000000,0.000000,,,,,,,,,,,,,,,,,,,,,,,,,,,,
1732157398.345245,1732157398.346965,38.000000,0.000000,4299.102539,4249.615234,4320.769043,4311.794922,4302.179688,4306.282227,4335.128418,4398.974121,4322.179688,4310.641113,4488.717773,4517.307617,4298.461426,4413.846191,0.000000,1.000000,24.000000,,,,0.000000,2.000000,2.000000,0.000000,4.000000,2.000000,2.000000,0.000000,0.000000,4.000000,4.000000,4.000000,4.000000,4.000000,4.000000,0.000000,,,,,,,,,,,,,,,,,,,,,,,,,,,,
1732157398.353053,1732157398.354773,39.000000,0.000000,4295.512695,4248.846191,4321.153809,4306.410156,4307.948730,4312.307617,4336.282227,4401.538574,4321.025879,4310.897461,4488.461426,4506.025879,4294.487305,4408.205078,0.000000,1.000000,24.000000,,,,0.000000,2.000000,2.000000,0.000000,4.000000,2.000000,2.000000,0.000000,0.000000,4.000000,4.000000,4.000000,4.000000,4.000000,4.000000,0.000000,,,,,,,,,,,,,,,,,,,,,,,,,,,,
1732157398.360861,1732157398.362681,40.000000,0.000000,4304.230957,4250.512695,4323.205078,4306.025879,4308.846191,4307.820313,4334.871582,4397.436035,4317.948730,4311.666504,4489.743652,4512.051270,4298.589844,4414.871582,0.000000,1.000000,24.000000,,,,0.000000,2.000000,2.000000,0.000000,4.000000,2.000000,2.000000,0.000000,0.000000,4.000000,4.000000,4.000000,4.000000,4.000000,4.000000,0.000000,,,,,,,,,,,,,,,,,10.000000,0.000000,0.506410,0.487000,-0.532227,0.472351,0.976682,-0.014650,-0.029300,-35.281498,45.631592,31.461885
1732157398.368670,1732157398.370489,41.000000,0.000000,4305.256348,4248.589844,4321.410156,4311.282227,4315.769043,4294.487305,4333.717773,4397.563965,4316.153809,4312.179688,4491.410156,4524.358887,4297.692383,4425.256348,0.000000,1.000000,24.000000,,,,0.000000,2.000000,2.000000,0.000000,4.000000,2.000000,2.000000,0.000000,0.000000,4.000000,4.000000,4.000000,4.000000,4.000000,4.000000,0.000000,,,,,,,,,,,,,,,,,,,,,,,,,,,,
1732157398.376478,1732157398.378098,42.000000,0.000000,4298.205078,4246.538574,4320.000000,4310.897461,4325.000000,4296.666504,4335.384766,4402.179688,4315.641113,4310.000000,4490.512695,4523.589844,4295.769043,4419.871582,0.000000,1.000000,24.000000,,,,0.000000,2.000000,2.000000,0.000000,4.000000,2.000000,2.000000,0.000000,0.000000,4.000000,4.000000,4.000000,4.000000,4.000000,4.000000,0.000000,,,,,,,,,,,,,,,,,,,,,,,,,,,,
1732157398.384286,1732157398.385906,43.000000,0.000000,4300.769043,4247.948730,4322.563965,4308.461426,4305.000000,4308.974121,4336.025879,4401.153809,4320.769043,4311.922852,4489.743652,4521.410156,4297.179688,4413.333496,0.000000,1.000000,24.000000,,,,0.000000,2.000000,2.000000,0.000000,4.000000,2.000000,2.000000,0.000000,0.000000,4.000000,4.000000,4.000000,4.000000,4.000000,4.000000,0.000000,,,,,,,,,,,,,,,,,,,,,,,,,,,,
1732157398.392094,1732157398.393814,44.000000,0.000000,4305.641113,4247.948730,4322.051270,4310.512695,4292.820313,4305.769043,4334.871582,4400.128418,4323.077148,4313.205078,4490.897461,4525.000000,4297.692383,4418.974121,0.000000,1.000000,24.000000,,,,0.000000,2.000000,2.000000,0.000000,4.000000,2.000000,2.000000,0.000000,0.000000,4.000000,4.000000,4.000000,4.000000,4.000000,4.000000,0.000000,,,,,,,,,,,,,,,,,11.000000,0.000000,0.506157,0.486877,-0.532471,0.472473,0.978635,-0.019534,-0.050787,-35.389679,45.736591,31.474127
1732157398.399902,1732157398.401622,45.000000,0.000000,4304.230957,4247.563965,4321.025879,4310.128418,4306.794922,4298.974121,4334.615234,4402.051270,4319.615234,4311.153809,4490.769043,4524.358887,4297.179688,4420.384766,0.000000,1.000000,24.000000,,,,0.000000,2.000000,2.000000,0.000000,4.000000,2.000000,2.000000,0.000000,0.000000,4.000000,4.000000,4.000000,4.000000,4.000000,4.000000,0.000000,,,,,,,,,,,,,,,,,,,,,,,,,,,,
1732157398.407711,1732157398.409630,46.000000,0.000000,4301.666504,4247.692383,4323.077148,4308.461426,4312.179688,4304.230957,4335.000000,4401.282227,4317.051270,4309.230957,4487.948730,4517.820313,4295.897461,4414.743652,0.000000,1.000000,24.000000,,,,0.000000,2.000000,2.000000,0.000000,4.000000,2.000000,2.000000,0.000000,0.000000,4.000000,4.000000,4.000000,4.000000,4.000000,4.000000,0.000000,,,,,,,,,,,,,,,,,,,,,,,,,,,,
1732157398.415519,1732157398.417439,47.000000,0.000000,4299.615234,4247.436035,4322.307617,4306.153809,4320.384766,4309.358887,4335.256348,4399.871582,4314.230957,4303.333496,4479.487305,4509.743652,4294.230957,4412.948730,0.000000,1.000000,24.000000,,,,0.000000,2.000000,2.000000,0.000000,4.000000,2.000000,2.000000,0.000000,0.000000,4.000000,4.000000,4.000000,4.000000,4.000000,4.000000,0.000000,,,,,,,,,,,,,,,,,,,,,,,,,,,,
1732157398.423327,1732157398.425347,48.000000,0.000000,4296.282227,4247.820313,4320.128418,4301.794922,4326.538574,4309.743652,4335.769043,4400.256348,4311.282227,4300.128418,4475.256348,4508.974121,4294.102539,4412.436035,0.000000,1.000000,24.000000,,,,0.000000,2.000000,2.000000,0.000000,4.000000,2.000000,2.000000,0.000000,0.000000,4.000000,4.000000,4.000000,4.000000,4.000000,4.000000,0.000000,,,,,,,,,,,,,,,,,12.000000,0.000000,0.506089,0.486755,-0.532593,0.472534,0.976193,-0.021975,-0.038579,-35.368973,45.821640,31.684044
1732157398.431136,1732157398.433155,49.000000,0.000000,4294.102539,4247.692383,4321.410156,4301.153809,4309.615234,4309.358887,4336.025879,4402.051270,4314.487305,4307.179688,4483.077148,4520.897461,4294.230957,4412.051270,0.000000,1.000000,24.000000,,,,0.000000,2.000000,2.000000,0.000000,4.000000,2.000000,2.000000,0.000000,0.000000,4.000000,4.000000,4.000000,4.000000,4.000000,4.000000,0.000000,,,,,,,,,,,,,,,,,,,,,,,,,,,,
