title:3three, start timestamp:1732157462.521429, stop timestamp:1732157517.210383, headset type:EPOCX, headset serial:E5020C3A, headset firmware:730, channels:67, sampling rate:eeg_128;mot_32, samples:7005      , version:2.2, 
Timestamp,OriginalTimestamp,EEG.Counter,EEG.Interpolated,EEG.AF3,EEG.F7,EEG.F3,EEG.FC5,EEG.T7,EEG.P7,EEG.O1,EEG.O2,EEG.P8,EEG.T8,EEG.FC6,EEG.F4,EEG.F8,EEG.AF4,EEG.RawCq,EEG.Battery,EEG.BatteryPercent,MarkerIndex,MarkerType,MarkerValueInt,EEG.MarkerHardware,CQ.AF3,CQ.F7,CQ.F3,CQ.FC5,CQ.T7,CQ.P7,CQ.O1,CQ.O2,CQ.P8,CQ.T8,CQ.FC6,CQ.F4,CQ.F8,CQ.AF4,CQ.Overall,EQ.SampleRateQuality,EQ.OVERALL,EQ.AF3,EQ.F7,EQ.F3,EQ.FC5,EQ.T7,EQ.P7,EQ.O1,EQ.O2,EQ.P8,EQ.T8,EQ.FC6,EQ.F4,EQ.F8,EQ.AF4,MOT.CounterMems,MOT.InterpolatedMems,MOT.Q0,MOT.Q1,MOT.Q2,MOT.Q3,MOT.AccX,MOT.AccY,MOT.AccZ,MOT.MagX,MOT.MagY,MOT.MagZ
1732157462.521429,1732157462.524430,65.000000,0.000000,4282.563965,4277.692383,4315.000000,4296.153809,4285.384766,4280.897461,4332.948730,4403.589844,4299.102539,4298.077148,4470.641113,4491.410156,4335.000000,4386.410156,1593.000000,1.000000,24.000000,,,,0.000000,2.000000,2.000000,0.000000,4.000000,2.000000,2.000000,0.000000,0.000000,4.000000,4.000000,4.000000,4.000000,4.000000,4.000000,0.000000,,,,,,,,,,,,,,,,,,,,,,,,,,,,
1732157462.529237,1732157462.532039,66.000000,0.000000,4286.538574,4280.000000,4314.615234,4298.333496,4280.128418,4279.102539,4330.769043,4401.794922,4299.102539,4296.410156,4466.794922,4491.794922,4335.128418,4384.230957,1374.000000,1.000000,24.000000,,,,0.000000,2.000000,2.000000,0.000000,4.000000,2.000000,2.000000,0.000000,0.000000,4.000000,4.000000,4.000000,4.000000,4.000000,4.000000,0.000000,,,,,,,,,,,,,,,,,,,,,,,,,,,,
1732157462.537045,1732157462.539847,67.000000,0.000000,4291.025879,4281.025879,4318.333496,4297.179688,4279.487305,4280.512695,4331.153809,4402.692383,4294.871582,4292.436035,4461.922852,4490.000000,4336.153809,4389.487305,1416.000000,1.000000,24.000000,,,,0.000000,2.000000,2.000000,0.000000,4.000000,2.000000,2.000000,0.000000,0.000000,4.000000,4.000000,4.000000,4.000000,4.000000,4.000000,0.000000,,,,,,,,,,,,,,,,,,,,,,,,,,,,
1732157462.544853,1732157462.547755,68.000000,0.000000,4293.205078,4281.025879,4318.461426,4297.307617,4279.487305,4283.077148,4330.897461,4402.563965,4295.384766,4292.948730,4463.846191,4491.794922,4338.846191,4397.436035,1422.000000,1.000000,24.000000,,,,0.000000,2.000000,2.000000,0.000000,4.000000,2.000000,2.000000,0.000000,0.000000,4.000000,4.000000,4.000000,4.000000,4.000000,4.000000,0.000000,,,,,,,,,,,,,,,,,17.000000,0.000000,0.495617,0.513550,-0.513000,0.476929,0.988402,-0.015627,-0.057136,-35.687599,45.676979,30.698185
1732157462.552662,1732157462.555563,69.000000,0.000000,4295.769043,4280.000000,4315.256348,4296.025879,4278.846191,4281.538574,4328.461426,4399.615234,4298.077148,4295.384766,4472.563965,4494.871582,4342.948730,4400.384766,1222.000000,1.000000,24.000000,,,,0.000000,2.000000,2.000000,0.000000,4.000000,2.000000,2.000000,0.000000,0.000000,4.000000,4.000000,4.000000,4.000000,4.000000,4.000000,0.000000,,,,,,,,,,,,,,,,,,,,,,,,,,,,
1732157462.560470,1732157462.563571,70.000000,0.000000,4301.666504,4280.769043,4313.717773,4298.846191,4279.230957,4282.307617,4331.282227,4400.769043,4297.820313,4293.589844,4471.025879,4495.256348,4342.948730,4399.102539,0.000000,1.000000,24.000000,,,,0.000000,2.000000,2.000000,0.000000,4.000000,2.000000,2.000000,0.000000,0.000000,4.000000,4.000000,4.000000,4.000000,4.000000,4.000000,0.000000,,,,,,,,,,,,,,,,,,,,,,,,,,,,
1732157462.568278,1732157462.571379,71.000000,0.000000,4307.563965,4282.563965,4315.000000,4306.410156,4280.384766,4289.871582,4331.410156,4402.051270,4297.436035,4292.820313,4461.538574,4492.692383,4342.307617,4398.717773,0.000000,1.000000,24.000000,,,,0.000000,2.000000,2.000000,0.000000,4.000000,2.000000,2.000000,0.000000,0.000000,4.000000,4.000000,4.000000,4.000000,4.000000,4.000000,0.000000,,,,,,,,,,,,,,,,,,,,,,,,,,,,
1732157462.576086,1732157462.579288,72.000000,0.000000,4308.461426,4281.794922,4315.384766,4307.051270,4282.436035,4296.025879,4329.743652,4398.717773,4296.282227,4294.743652,4458.205078,4487.948730,4342.179688,4398.205078,1523.000000,1.000000,24.000000,,,,0.000000,2.000000,2.000000,0.000000,4.000000,2.000000,2.000000,0.000000,0.000000,4.000000,4.000000,4.000000,4.000000,4.000000,4.000000,0.000000,,,,,,,,,,,,,,,,,18.000000,0.000000,0.498538,0.513062,-0.511108,0.476440,0.985960,0.004883,-0.045904,-35.821957,45.531685,30.810530
1732157462.583895,1732157462.587096,73.000000,0.000000,4308.333496,4279.743652,4313.846191,4301.922852,4283.333496,4294.102539,4331.666504,4396.922852,4295.897461,4294.102539,4460.769043,4487.563965,4339.871582,4396.025879,1678.000000,1.000000,24.000000,,,,0.000000,2.000000,2.000000,0.000000,4.000000,2.000000,2.000000,0.000000,0.000000,4.000000,4.000000,4.000000,4.000000,4.000000,4.000000,0.000000,,,,,,,,,,,,,,,,,,,,,,,,,,,,
1732157462.591703,1732157462.595104,74.000000,0.000000,4311.282227,4280.769043,4315.128418,4300.897461,4282.692383,4293.333496,4331.025879,4402.051270,4297.563965,4293.205078,4468.333496,4489.358887,4344.230957,4402.307617,1538.000000,1.000000,24.000000,,,,0.000000,2.000000,2.000000,0.000000,4.000000,2.000000,2.000000,0.000000,0.000000,4.000000,4.000000,4.000000,4.000000,4.000000,4.000000,0.000000,,,,,,,,,,,,,,,,,,,,,,,,,,,,
1732157462.599511,1732157462.602912,75.000000,0.000000,4312.051270,4282.179688,4314.743652,4307.307617,4285.512695,4296.794922,4329.615234,4403.461426,4299.871582,4295.000000,4475.128418,4488.461426,4351.794922,4407.307617,1574.000000,1.000000,24.000000,,,,0.000000,2.000000,2.000000,0.000000,4.000000,2.000000,2.000000,0.000000,0.000000,4.000000,4.000000,4.000000,4.000000,4.000000,4.000000,0.000000,,,,,,,,,,,,,,,,,,,,,,,,,,,,
1732157462.607319,1732157462.610820,76.000000,0.000000,4311.153809,4281.538574,4311.794922,4309.871582,4287.692383,4291.410156,4333.589844,4398.461426,4298.846191,4294.615234,4471.282227,4488.333496,4351.922852,4402.307617,1693.000000,1.000000,24.000000,,,,0.000000,2.000000,2.000000,0.000000,4.000000,2.000000,2.000000,0.000000,0.000000,4.000000,4.000000,4.000000,4.000000,4.000000,4.000000,0.000000,,,,,,,,,,,,,,,,,19.000000,0.000000,0.500311,0.512878,-0.510071,0.475891,0.980100,0.017580,-0.043462,-35.990784,45.582333,31.019863
1732157462.615128,1732157462.618628,77.000000,0.000000,4311.153809,4279.743652,4312.179688,4304.230957,4284.615234,4284.743652,4334.615234,4395.769043,4297.179688,4293.077148,4469.102539,4492.563965,4352.051270,4404.487305,1656.000000,1.000000,24.000000,,,,0.000000,2.000000,2.000000,0.000000,4.000000,2.000000,2.000000,0.000000,0.000000,4.000000,4.000000,4.000000,4.000000,4.000000,4.000000,0.000000,,,,,,,,,,,,,,,,,,,,,,,,,,,,
1732157462.622936,1732157462.626536,78.000000,0.000000,4312.179688,4279.871582,4314.102539,4301.666504,4283.205078,4285.384766,4330.512695,4400.128418,4301.025879,4296.153809,4474.743652,4494.487305,4359.102539,4412.563965,1538.000000,1.000000,24.000000,,,,0.000000,2.000000,2.000000,0.000000,4.000000,2.000000,2.000000,0.000000,0.000000,4.000000,4.000000,4.000000,4.000000,4.000000,4.000000,0.000000,1.000000,0.000000,2.000000,2.000000,0.000000,4.000000,2.000000,2.000000,0.000000,0.000000,4.000000,4.000000,4.000000,4.000000,3.000000,4.000000,,,,,,,,,,,,
1732157462.630744,1732157462.634345,79.000000,0.000000,4312.948730,4281.153809,4313.974121,4306.025879,4286.538574,4284.230957,4329.615234,4403.846191,4304.615234,4298.589844,4473.461426,4491.410156,4358.846191,4405.769043,1574.000000,1.000000,24.000000,,,,0.000000,2.000000,2.000000,0.000000,4.000000,2.000000,2.000000,0.000000,0.000000,4.000000,4.000000,4.000000,4.000000,4.000000,4.000000,0.000000,,,,,,,,,,,,,,,,,,,,,,,,,,,,
1732157462.638552,1732157462.642053,80.000000,0.000000,4312.307617,4280.128418,4314.358887,4307.563965,4286.538574,4279.743652,4332.051270,4399.743652,4301.538574,4297.307617,4472.436035,4491.153809,4352.563965,4396.153809,1693.000000,1.000000,24.000000,,,,0.000000,2.000000,2.000000,0.000000,4.000000,2.000000,2.000000,0.000000,0.000000,4.000000,4.000000,4.000000,4.000000,4.000000,4.000000,0.000000,,,,,,,,,,,,,,,,,20.000000,0.000000,0.501450,0.512878,-0.509521,0.475281,0.993774,0.032719,-0.037114,-35.869202,45.510021,30.884422
1732157462.646361,1732157462.649861,81.000000,0.000000,4312.948730,4280.256348,4315.256348,4308.077148,4286.025879,4280.000000,4334.102539,4397.692383,4295.000000,4295.769043,4472.948730,4492.563965,4351.538574,4399.615234,1656.000000,1.000000,24.000000,,,,0.000000,2.000000,2.000000,0.000000,4.000000,2.000000,2.000000,0.000000,0.000000,4.000000,4.000000,4.000000,4.000000,4.000000,4.000000,0.000000,,,,,,,,,,,,,,,,,,,,,,,,,,,,
1732157462.654169,1732157462.657470,82.000000,0.000000,4312.692383,4280.897461,4316.025879,4305.512695,4285.128418,4283.333496,4334.358887,4399.743652,4295.384766,4293.333496,4467.563965,4494.358887,4350.256348,4400.256348,1538.000000,1.000000,24.000000,,,,0.000000,2.000000,2.000000,0.000000,4.000000,2.000000,2.000000,0.000000,0.000000,4.000000,4.000000,4.000000,4.000000,4.000000,4.000000,0.000000,,,,,,,,,,,,,,,,,,,,,,,,,,,,
1732157462.661977,1732157462.665278,83.000000,0.000000,4310.256348,4278.333496,4311.153809,4299.230957,4285.000000,4283.333496,4330.769043,4397.820313,4300.256348,4291.794922,4466.794922,4496.922852,4353.461426,4396.794922,1574.000000,1.000000,24.000000,,,,0.000000,2.000000,2.000000,0.000000,4.000000,2.000000,2.000000,0.000000,0.000000,4.000000,4.000000,4.000000,4.000000,4.000000,4.000000,0.000000,,,,,,,,,,,,,,,,,,,,,,,,,,,,
1732157462.669785,1732157462.672986,84.000000,0.000000,4305.256348,4276.538574,4300.641113,4298.461426,4287.436035,4283.333496,4329.487305,4397.179688,4301.794922,4293.461426,4474.358887,4496.922852,4361.538574,4398.205078,1693.000000,1.000000,24.000000,,,,0.000000,2.000000,2.000000,0.000000,4.000000,2.000000,2.000000,0.000000,0.000000,4.000000,4.000000,4.000000,4.000000,4.000000,4.000000,0.000000,,,,,,,,,,,,,,,,,21.000000,0.000000,0.503626,0.513611,-0.508057,0.473755,0.991332,0.054206,-0.042974,-35.799053,45.349785,31.064716
1732157462.677594,1732157462.680794,85.000000,0.000000,4298.333496,4277.436035,4296.538574,4299.871582,4285.512695,4282.436035,4329.615234,4398.461426,4302.051270,4296.282227,4475.897461,4493.461426,4363.333496,4400.128418,1656.000000,1.000000,24.000000,,,,0.000000,2.000000,2.000000,0.000000,4.000000,2.000000,2.000000,0.000000,0.000000,4.000000,4.000000,4.000000,4.000000,4.000000,4.000000,0.000000,,,,,,,,,,,,,,,,,,,,,,,,,,,,
1732157462.685402,1732157462.688403,86.000000,0.000000,4295.769043,4277.436035,4299.871582,4297.051270,4281.410156,4282.436035,4327.948730,4397.179688,4303.717773,4295.641113,4472.820313,4492.692383,4361.922852,4399.358887,1538.000000,1.000000,24.000000,,,,0.000000,2.000000,2.000000,0.000000,4.000000,2.000000,2.000000,0.000000,0.000000,4.000000,4.000000,4.000000,4.000000,4.000000,4.000000,0.000000,,,,,,,,,,,,,,,,,,,,,,,,,,,,
1732157462.693210,1732157462.696211,87.000000,0.000000,4301.282227,4278.205078,4299.230957,4300.256348,4281.153809,4283.717773,4325.000000,4394.358887,4305.641113,4294.871582,4473.974121,4493.077148,4366.025879,4396.410156,1574.000000,1.000000,24.000000,,,,0.000000,2.000000,2.000000,0.000000,4.000000,2.000000,2.000000,0.000000,0.000000,4.000000,4.000000,4.000000,4.000000,4.000000,4.000000,0.000000,,,,,,,,,,,,,,,,,,,,,,,,,,,,
1732157462.701018,1732157462.703919,88.000000,0.000000,4307.051270,4280.128418,4294.743652,4308.589844,4282.692383,4282.436035,4325.000000,4392.563965,4308.333496,4298.974121,4475.897461,4491.410156,4368.717773,4400.000000,1693.000000,1.000000,24.000000,,,,0.000000,2.000000,2.000000,0.000000,4.000000,2.000000,2.000000,0.000000,0.000000,4.000000,4.000000,4.000000,4.000000,4.000000,4.000000,0.000000,,,,,,,,,,,,,,,,,22.000000,0.000000,0.508184,0.516418,-0.504456,0.469666,0.967403,0.055671,-0.047857,-35.427235,45.421658,31.125753
1732157462.708827,1732157462.711727,89.000000,0.000000,4307.820313,4280.256348,4294.230957,4309.102539,4281.794922,4280.256348,4322.820313,4392.563965,4312.692383,4304.871582,4476.666504,4497.692383,4366.666504,4408.846191,1656.000000,1.000000,24.000000,,,,0.000000,2.000000,2.000000,0.000000,4.000000,2.000000,2.000000,0.000000,0.000000,4.000000,4.000000,4.000000,4.000000,4.000000,4.000000,0.000000,,,,,,,,,,,,,,,,,,,,,,,,,,,,
1732157462.716635,1732157462.719336,90.000000,0.000000,4310.641113,4281.153809,4290.000000,4309.102539,4280.769043,4280.384766,4319.102539,4392.436035,4308.846191,4305.256348,4477.820313,4505.256348,4366.025879,4408.333496,1538.000000,1.000000,24.000000,,,,0.000000,2.000000,2.000000,0.000000,4.000000,2.000000,2.000000,0.000000,0.000000,4.000000,4.000000,4.000000,4.000000,4.000000,4.000000,0.000000,,,,,,,,,,,,,,,,,,,,,,,,,,,,
1732157462.724443,1732157462.727144,91.000000,0.000000,4313.589844,4282.820313,4281.538574,4311.538574,4280.769043,4279.615234,4318.461426,4389.487305,4301.410156,4299.358887,4477.820313,4501.794922,4364.230957,4399.615234,1574.000000,1.000000,24.000000,,,,0.000000,2.000000,2.000000,0.000000,4.000000,2.000000,2.000000,0.000000,0.000000,4.000000,4.000000,4.000000,4.000000,4.000000,4.000000,0.000000,,,,,,,,,,,,,,,,,,,,,,,,,,,,
1732157462.732251,1732157462.734852,92.000000,0.000000,4311.410156,4285.384766,4277.563965,4312.051270,4285.256348,4281.153809,4319.358887,4385.769043,4304.743652,4296.410156,4476.666504,4493.846191,4359.871582,4395.641113,1693.000000,1.000000,24.000000,,,,0.000000,2.000000,2.000000,0.000000,4.000000,2.000000,2.000000,0.000000,0.000000,4.000000,4.000000,4.000000,4.000000,4.000000,4.000000,0.000000,,,,,,,,,,,,,,,,,23.000000,0.000000,0.512798,0.517822,-0.501282,0.466492,0.965938,0.055671,-0.020999,-35.222725,45.538212,31.120193
1732157462.740060,1732157462.742661,93.000000,0.000000,4308.205078,4290.000000,4277.563965,4312.692383,4294.358887,4287.563965,4319.487305,4386.410156,4306.410156,4298.589844,4474.358887,4489.743652,4357.051270,4395.128418,1656.000000,1.000000,24.000000,,,,0.000000,2.000000,2.000000,0.000000,4.000000,2.000000,2.000000,0.000000,0.000000,4.000000,4.000000,4.000000,4.000000,4.000000,4.000000,0.000000,,,,,,,,,,,,,,,,,,,,,,,,,,,,
1732157462.747868,1732157462.750269,94.000000,0.000000,4307.436035,4290.384766,4278.461426,4312.436035,4295.384766,4287.692383,4318.846191,4385.256348,4299.871582,4299.487305,4472.820313,4488.077148,4360.384766,4394.102539,1538.000000,1.000000,24.000000,,,,0.000000,2.000000,2.000000,0.000000,4.000000,2.000000,2.000000,0.000000,0.000000,4.000000,4.000000,4.000000,4.000000,4.000000,4.000000,0.000000,,,,,,,,,,,,,,,,,,,,,,,,,,,,
1732157462.755676,1732157462.758077,95.000000,0.000000,4307.948730,4284.230957,4280.000000,4310.512695,4290.897461,4280.641113,4319.487305,4383.589844,4296.538574,4296.794922,4475.641113,4488.846191,4364.230957,4395.384766,1574.000000,1.000000,24.000000,,,,0.000000,2.000000,2.000000,0.000000,4.000000,2.000000,2.000000,0.000000,0.000000,4.000000,4.000000,4.000000,4.000000,4.000000,4.000000,0.000000,,,,,,,,,,,,,,,,,,,,,,,,,,,,
1732157462.763484,1732157462.765786,96.000000,0.000000,4308.589844,4286.666504,4280.512695,4309.358887,4293.717773,4282.051270,4320.256348,4386.410156,4302.820313,4296.025879,4481.025879,4492.436035,4361.922852,4398.333496,1693.000000,1.000000,24.000000,,,,0.000000,2.000000,2.000000,0.000000,4.000000,2.000000,2.000000,0.000000,0.000000,4.000000,4.000000,4.000000,4.000000,4.000000,4.000000,0.000000,,,,,,,,,,,,,,,,,24.000000,0.000000,0.514613,0.518005,-0.500366,0.465271,0.961055,0.093273,-0.024417,-34.832073,45.657616,31.224024
1732157462.771293,1732157462.773594,97.000000,0.000000,4308.717773,4294.615234,4284.487305,4311.025879,4299.102539,4287.820313,4320.128418,4385.128418,4303.205078,4293.205078,4473.974121,4491.025879,4356.922852,4398.461426,1656.000000,1.000000,24.000000,,,,0.000000,2.000000,2.000000,0.000000,4.000000,2.000000,2.000000,0.000000,0.000000,4.000000,4.000000,4.000000,4.000000,4.000000,4.000000,0.000000,,,,,,,,,,,,,,,,,,,,,,,,,,,,
1732157462.779101,1732157462.781202,98.000000,0.000000,4308.846191,4291.410156,4293.205078,4311.282227,4296.538574,4283.717773,4317.307617,4385.384766,4296.153809,4284.487305,4462.692383,4487.179688,4352.179688,4395.384766,1538.000000,1.000000,24.000000,,,,0.000000,2.000000,2.000000,0.000000,4.000000,2.000000,2.000000,0.000000,0.000000,4.000000,4.000000,4.000000,4.000000,4.000000,4.000000,0.000000,,,,,,,,,,,,,,,,,,,,,,,,,,,,
1732157462.786909,1732157462.789010,99.000000,0.000000,4312.948730,4287.307617,4297.051270,4313.205078,4290.897461,4278.077148,4319.871582,4390.128418,4295.256348,4280.256348,4468.205078,4491.538574,4352.307617,4395.128418,1574.000000,1.000000,24.000000,,,,0.000000,2.000000,2.000000,0.000000,4.000000,2.000000,2.000000,0.000000,0.000000,4.000000,4.000000,4.000000,4.000000,4.000000,4.000000,0.000000,,,,,,,,,,,,,,,,,,,,,,,,,,,,
1732157462.794717,1732157462.796719,100.000000,0.000000,4319.230957,4292.563965,4297.436035,4318.974121,4294.487305,4280.384766,4328.461426,4388.333496,4296.153809,4281.922852,4477.948730,4499.102539,4356.666504,4398.974121,1693.000000,1.000000,24.000000,,,,0.000000,2.000000,2.000000,0.000000,4.000000,2.000000,2.000000,0.000000,0.000000,4.000000,4.000000,4.000000,4.000000,4.000000,4.000000,0.000000,,,,,,,,,,,,,,,,,25.000000,0.000000,0.519696,0.517822,-0.498352,0.461975,0.982053,0.121597,-0.013185,-34.808979,45.816002,31.289791
1732157462.802526,1732157462.804527,101.000000,0.000000,4321.410156,4296.025879,4304.358887,4320.769043,4301.538574,4283.461426,4328.974121,4387.692383,4296.282227,4283.846191,4476.282227,4498.589844,4358.846191,4400.641113,1656.000000,1.000000,24.000000,,,,0.000000,2.000000,2.000000,0.000000,4.000000,2.000000,2.000000,0.000000,0.000000,4.000000,4.000000,4.000000,4.000000,4.000000,4.000000,0.000000,,,,,,,,,,,,,,,,,,,,,,,,,,,,
1732157462.810334,1732157462.812535,102.000000,0.000000,4319.871582,4294.487305,4310.256348,4316.025879,4299.487305,4282.436035,4326.922852,4395.384766,4296.794922,4291.666504,4476.282227,4493.461426,4356.794922,4399.743652,1538.000000,1.000000,24.000000,,,,0.000000,2.000000,2.000000,0.000000,4.000000,2.000000,2.000000,0.000000,0.000000,4.000000,4.000000,4.000000,4.000000,4.000000,4.000000,0.000000,,,,,,,,,,,,,,,,,,,,,,,,,,,,
1732157462.818142,1732157462.820343,103.000000,0.000000,4318.333496,4291.666504,4311.538574,4309.743652,4295.000000,4281.410156,4332.820313,4396.538574,4296.538574,4296.538574,4479.743652,4493.461426,4356.538574,4398.077148,1574.000000,1.000000,24.000000,,,,0.000000,2.000000,2.000000,0.000000,4.000000,2.000000,2.000000,0.000000,0.000000,4.000000,4.000000,4.000000,4.000000,4.000000,4.000000,0.000000,,,,,,,,,,,,,,,,,,,,,,,,,,,,
1732157462.825950,1732157462.828051,104.000000,0.000000,4320.384766,4288.974121,4317.563965,4308.077148,4297.692383,4282.820313,4337.563965,4392.692383,4298.717773,4288.717773,4477.051270,4494.102539,4356.538574,4395.897461,1693.000000,1.000000,24.000000,,,,0.000000,2.000000,2.000000,0.000000,4.000000,2.000000,2.000000,0.000000,0.000000,4.000000,4.000000,4.000000,4.000000,4.000000,4.000000,0.000000,,,,,,,,,,,,,,,,,26.000000,0.000000,0.524119,0.517395,-0.496643,0.459290,0.953241,0.139177,-0.017580,-34.656940,46.064297,31.448065
1732157462.833758,1732157462.835860,105.000000,0.000000,4321.410156,4289.487305,4325.000000,4310.000000,4298.333496,4284.615234,4334.871582,4397.051270,4305.000000,4286.153809,4474.487305,4491.282227,4353.846191,4396.666504,1656.000000,1.000000,24.000000,,,,0.000000,2.000000,2.000000,0.000000,4.000000,2.000000,2.000000,0.000000,0.000000,4.000000,4.000000,4.000000,4.000000,4.000000,4.000000,0.000000,,,,,,,,,,,,,,,,,,,,,,,,,,,,
1732157462.841567,1732157462.843468,106.000000,0.000000,4319.871582,4288.846191,4328.461426,4306.538574,4294.102539,4283.589844,4334.358887,4400.512695,4303.974121,4290.128418,4476.410156,4495.769043,4353.205078,4396.153809,1538.000000,1.000000,24.000000,,,,0.000000,2.000000,2.000000,0.000000,4.000000,2.000000,2.000000,0.000000,0.000000,4.000000,4.000000,4.000000,4.000000,4.000000,4.000000,0.000000,,,,,,,,,,,,,,,,,,,,,,,,,,,,
1732157462.849375,1732157462.851276,107.000000,0.000000,4319.871582,4281.922852,4332.051270,4297.436035,4291.282227,4281.666504,4338.589844,4398.077148,4296.025879,4285.256348,4476.282227,4500.384766,4353.205078,4387.820313,1574.000000,1.000000,24.000000,,,,0.000000,2.000000,2.000000,0.000000,4.000000,2.000000,2.000000,0.000000,0.000000,4.000000,4.000000,4.000000,4.000000,4.000000,4.000000,0.000000,,,,,,,,,,,,,,,,,,,,,,,,,,,,
1732157462.857183,1732157462.858985,108.000000,0.000000,4320.641113,4280.384766,4339.743652,4294.871582,4288.461426,4279.743652,4341.922852,4397.436035,4296.410156,4280.256348,4475.000000,4499.743652,4351.538574,4385.769043,1693.000000,1.000000,24.000000,,,,0.000000,2.000000,2.000000,0.000000,4.000000,2.000000,2.000000,0.000000,0.000000,4.000000,4.000000,4.000000,4.000000,4.000000,4.000000,0.000000,,,,,,,,,,,,,,,,,27.000000,0.000000,0.525679,0.517273,-0.495911,0.458435,0.953241,0.139177,-0.017580,-34.613789,45.937080,31.342932
1732157462.864992,1732157462.866793,109.000000,0.000000,4320.641113,4282.563965,4346.282227,4300.384766,4287.820313,4278.717773,4343.205078,4400.641113,4298.589844,4281.922852,4474.102539,4498.589844,4347.820313,4392.563965,1656.000000,1.000000,24.000000,,,,0.000000,2.000000,2.000000,0.000000,4.000000,2.000000,2.000000,0.000000,0.000000,4.000000,4.000000,4.000000,4.000000,4.000000,4.000000,0.000000,,,,,,,,,,,,,,,,,,,,,,,,,,,,
1732157462.872800,1732157462.874401,110.000000,0.000000,4317.948730,4280.128418,4347.179688,4301.666504,4292.692383,4279.102539,4342.051270,4403.461426,4294.743652,4280.000000,4470.128418,4497.307617,4343.333496,4391.410156,1538.000000,1.000000,24.000000,,,,0.000000,2.000000,2.000000,0.000000,4.000000,2.000000,2.000000,0.000000,0.000000,4.000000,4.000000,4.000000,4.000000,4.000000,4.000000,0.000000,,,,,,,,,,,,,,,,,,,,,,,,,,,,
1732157462.880608,1732157462.882209,111.000000,0.000000,4313.589844,4282.948730,4342.948730,4300.000000,4297.307617,4280.128418,4343.461426,4404.615234,4293.077148,4276.794922,4463.333496,4493.717773,4340.384766,4383.974121,1574.000000,1.000000,24.000000,,,,0.000000,2.000000,2.000000,0.000000,4.000000,2.000000,2.000000,0.000000,0.000000,4.000000,4.000000,4.000000,4.000000,4.000000,4.000000,0.000000,,,,,,,,,,,,,,,,,,,,,,,,,,,,
1732157462.888416,1732157462.890117,112.000000,0.000000,4311.153809,4287.307617,4341.666504,4303.205078,4300.128418,4281.538574,4345.128418,4404.102539,4294.871582,4279.230957,4461.025879,4495.128418,4340.512695,4384.871582,1693.000000,1.000000,24.000000,,,,0.000000,2.000000,2.000000,0.000000,4.000000,2.000000,2.000000,0.000000,0.000000,4.000000,4.000000,4.000000,4.000000,4.000000,4.000000,0.000000,,,,,,,,,,,,,,,,,28.000000,0.000000,0.527162,0.517456,-0.494934,0.457581,0.947870,0.186546,-0.001465,-34.240501,46.205700,31.317776
1732157462.896225,1732157462.897926,113.000000,0.000000,4311.410156,4285.384766,4342.563965,4307.179688,4307.436035,4281.922852,4345.512695,4404.743652,4295.897461,4281.025879,4465.384766,4498.461426,4344.102539,4388.077148,1656.000000,1.000000,24.000000,,,,0.000000,2.000000,2.000000,0.000000,4.000000,2.000000,2.000000,0.000000,0.000000,4.000000,4.000000,4.000000,4.000000,4.000000,4.000000,0.000000,,,,,,,,,,,,,,,,,,,,,,,,,,,,
1732157462.904033,1732157462.905934,114.000000,0.000000,4311.282227,4287.692383,4342.563965,4308.974121,4311.922852,4281.922852,4347.563965,4403.974121,4294.102539,4281.538574,4470.512695,4498.461426,4346.922852,4388.589844,1538.000000,1.000000,24.000000,,,,0.000000,2.000000,2.000000,0.000000,4.000000,2.000000,2.000000,0.000000,0.000000,4.000000,4.000000,4.000000,4.000000,4.000000,4.000000,0.000000,,,,,,,,,,,,,,,,,,,,,,,,,,,,
1732157462.911841,1732157462.913742,115.000000,0.000000,4312.948730,4296.666504,4341.794922,4309.743652,4303.974121,4281.666504,4349.743652,4403.077148,4291.794922,4281.410156,4475.000000,4499.358887,4349.358887,4393.461426,1574.000000,1.000000,24.000000,,,,0.000000,2.000000,2.000000,0.000000,4.000000,2.000000,2.000000,0.000000,0.000000,4.000000,4.000000,4.000000,4.000000,4.000000,4.000000,0.000000,,,,,,,,,,,,,,,,,,,,,,,,,,,,
1732157462.919649,1732157462.921650,116.000000,0.000000,4315.000000,4296.153809,4339.615234,4307.307617,4300.000000,4280.384766,4349.102539,4404.102539,4292.179688,4278.205078,4469.358887,4496.153809,4347.051270,4391.410156,1693.000000,1.000000,24.000000,,,,0.000000,2.000000,2.000000,0.000000,4.000000,2.000000,2.000000,0.000000,0.000000,4.000000,4.000000,4.000000,4.000000,4.000000,4.000000,0.000000,,,,,,,,,,,,,,,,,29.000000,0.000000,0.533292,0.517883,-0.490601,0.454651,0.960078,0.187035,0.005372,-34.086472,46.548286,31.414064
1732157462.927457,1732157462.929458,117.000000,0.000000,4312.436035,4284.358887,4340.641113,4302.307617,4304.487305,4281.025879,4349.615234,4403.717773,4293.717773,4276.410156,4460.384766,4490.769043,4337.948730,4382.436035,1656.000000,1.000000,24.000000,,,,0.000000,2.000000,2.000000,0.000000,4.000000,2.000000,2.000000,0.000000,0.000000,4.000000,4.000000,4.000000,4.000000,4.000000,4.000000,0.000000,,,,,,,,,,,,,,,,,,,,,,,,,,,,
1732157462.935266,1732157462.937067,118.000000,0.000000,4313.333496,4279.743652,4344.615234,4300.512695,4301.410156,4280.384766,4351.666504,4404.358887,4296.153809,4281.538574,4465.769043,4494.743652,4344.487305,4388.846191,1538.000000,1.000000,24.000000,,,,0.000000,2.000000,2.000000,0.000000,4.000000,2.000000,2.000000,0.000000,0.000000,4.000000,4.000000,4.000000,4.000000,4.000000,4.000000,0.000000,,,,,,,,,,,,,,,,,,,,,,,,,,,,
1732157462.943074,1732157462.944875,119.000000,0.000000,4322.948730,4284.358887,4342.692383,4298.846191,4292.563965,4278.461426,4349.358887,4404.102539,4298.589844,4290.128418,4480.641113,4504.871582,4365.256348,4402.436035,1574.000000,1.000000,24.000000,,,,0.000000,2.000000,2.000000,0.000000,4.000000,2.000000,2.000000,0.000000,0.000000,4.000000,4.000000,4.000000,4.000000,4.000000,4.000000,0.000000,,,,,,,,,,,,,,,,,,,,,,,,,,,,
1732157462.950882,1732157462.952583,120.000000,0.000000,4325.512695,4283.461426,4338.077148,4294.615234,4293.589844,4274.615234,4345.897461,4400.128418,4298.461426,4296.666504,4487.051270,4510.384766,4371.922852,4402.820313,1693.000000,1.000000,24.000000,,,,0.000000,2.000000,2.000000,0.000000,4.000000,2.000000,2.000000,0.000000,0.000000,4.000000,4.000000,4.000000,4.000000,4.000000,4.000000,0.000000,,,,,,,,,,,,,,,,,30.000000,0.000000,0.536868,0.517578,-0.487976,0.453613,0.995727,0.185081,0.024905,-34.006710,46.739109,31.378725
1732157462.958691,1732157462.960391,121.000000,0.000000,4314.230957,4277.051270,4341.025879,4292.436035,4296.666504,4270.384766,4348.974121,4401.025879,4296.410156,4295.769043,4481.794922,4509.102539,4365.897461,4397.179688,1656.000000,1.000000,24.000000,,,,0.000000,2.000000,2.000000,0.000000,4.000000,2.000000,2.000000,0.000000,0.000000,4.000000,4.000000,4.000000,4.000000,4.000000,4.000000,0.000000,,,,,,,,,,,,,,,,,,,,,,,,,,,,
1732157462.966499,1732157462.968399,122.000000,0.000000,4307.692383,4273.717773,4339.871582,4293.717773,4293.717773,4272.563965,4351.153809,4404.743652,4295.897461,4285.897461,4476.922852,4506.538574,4362.948730,4394.743652,1538.000000,1.000000,24.000000,,,,0.000000,2.000000,2.000000,0.000000,4.000000,2.000000,2.000000,0.000000,0.000000,4.000000,4.000000,4.000000,4.000000,4.000000,4.000000,0.000000,,,,,,,,,,,,,,,,,,,,,,,,,,,,
1732157462.974307,1732157462.976208,123.000000,0.000000,4309.743652,4270.256348,4336.794922,4294.871582,4295.256348,4279.230957,4344.487305,4403.461426,4294.358887,4279.102539,4475.512695,4504.102539,4358.077148,4393.205078,1574.000000,1.000000,24.000000,,,,0.000000,2.000000,2.000000,0.000000,4.000000,2.000000,2.000000,0.000000,0.000000,4.000000,4.000000,4.000000,4.000000,4.000000,4.000000,0.000000,,,,,,,,,,,,,,,,,,,,,,,,,,,,
1732157462.982115,1732157462.984116,124.000000,0.000000,4309.743652,4266.666504,4343.205078,4294.230957,4297.051270,4281.153809,4340.256348,4401.922852,4296.666504,4287.051270,4477.692383,4504.743652,4354.743652,4396.538574,1693.000000,1.000000,24.000000,,,,0.000000,2.000000,2.000000,0.000000,4.000000,2.000000,2.000000,0.000000,0.000000,4.000000,4.000000,4.000000,4.000000,4.000000,4.000000,0.000000,,,,,,,,,,,,,,,,,31.000000,0.000000,0.537987,0.517029,-0.487610,0.453308,0.995727,0.185081,0.024905,-33.815434,46.567013,31.623434
1732157462.989923,1732157462.991924,125.000000,0.000000,4310.384766,4270.512695,4345.641113,4293.589844,4295.512695,4279.487305,4348.205078,4404.230957,4300.256348,4294.358887,4478.974121,4504.487305,4355.384766,4399.230957,1656.000000,1.000000,24.000000,,,,0.000000,2.000000,2.000000,0.000000,4.000000,2.000000,2.000000,0.000000,0.000000,4.000000,4.000000,4.000000,4.000000,4.000000,4.000000,0.000000,,,,,,,,,,,,,,,,,,,,,,,,,,,,
1732157462.997732,1732157462.999932,126.000000,0.000000,4312.436035,4275.641113,4339.230957,4294.358887,4299.102539,4281.282227,4351.410156,4403.846191,4298.589844,4287.948730,4477.692383,4504.743652,4351.153809,4396.538574,1538.000000,1.000000,24.000000,,,,0.000000,2.000000,2.000000,0.000000,4.000000,2.000000,2.000000,0.000000,0.000000,4.000000,4.000000,4.000000,4.000000,4.000000,4.000000,0.000000,,,,,,,,,,,,,,,,,,,,,,,,,,,,
1732157463.005540,1732157463.007740,127.000000,0.000000,4311.153809,4276.282227,4339.487305,4297.692383,4305.000000,4282.820313,4344.358887,4401.410156,4299.102539,4287.436035,4478.077148,4505.512695,4349.615234,4396.666504,24.000000,1.000000,24.000000,,,,0.000000,2.000000,2.000000,0.000000,4.000000,2.000000,2.000000,0.000000,0.000000,4.000000,4.000000,4.000000,4.000000,4.000000,4.000000,0.000000,,,,,,,,,,,,,,,,,,,,,,,,,,,,
1732157463.013348,1732157463.015648,0.000000,0.000000,4309.871582,4279.615234,4344.615234,4300.512695,4301.794922,4280.897461,4338.846191,4402.948730,4299.743652,4295.000000,4478.077148,4504.358887,4351.025879,4396.794922,0.000000,1.000000,24.000000,,,,0.000000,2.000000,2.000000,0.000000,4.000000,2.000000,2.000000,0.000000,0.000000,4.000000,4.000000,4.000000,4.000000,4.000000,4.000000,0.000000,,,,,,,,,,,,,,,,,0.000000,0.000000,0.539260,0.514221,-0.488831,0.453674,0.979123,0.155292,0.007813,-33.692169,46.440948,31.548315
1732157463.021156,1732157463.023456,1.000000,0.000000,4311.666504,4280.897461,4343.846191,4298.333496,4295.256348,4282.051270,4339.230957,4405.769043,4297.307617,4291.153809,4477.563965,4502.948730,4344.487305,4395.512695,1591.000000,1.000000,24.000000,,,,0.000000,2.000000,2.000000,0.000000,4.000000,2.000000,2.000000,0.000000,0.000000,4.000000,4.000000,4.000000,4.000000,4.000000,4.000000,0.000000,,,,,,,,,,,,,,,,,,,,,,,,,,,,
1732157463.028965,1732157463.031464,2.000000,0.000000,4310.641113,4270.641113,4346.538574,4293.333496,4299.230957,4291.282227,4343.974121,4403.974121,4300.000000,4279.871582,4474.487305,4504.102539,4336.025879,4392.948730,1374.000000,1.000000,24.000000,,,,0.000000,2.000000,2.000000,0.000000,4.000000,2.000000,2.000000,0.000000,0.000000,4.000000,4.000000,4.000000,4.000000,4.000000,4.000000,0.000000,,,,,,,,,,,,,,,,,,,,,,,,,,,,
1732157463.036773,1732157463.039273,3.000000,0.000000,4308.974121,4263.717773,4351.282227,4293.077148,4304.230957,4300.128418,4348.589844,4404.615234,4305.000000,4278.974121,4472.948730,4504.487305,4331.282227,4387.948730,1416.000000,1.000000,24.000000,,,,0.000000,2.000000,2.000000,0.000000,4.000000,2.000000,2.000000,0.000000,0.000000,4.000000,4.000000,4.000000,4.000000,4.000000,4.000000,0.000000,,,,,,,,,,,,,,,,,,,,,,,,,,,,
1732157463.044581,1732157463.046981,4.000000,0.000000,4309.743652,4272.179688,4349.358887,4295.641113,4299.743652,4292.307617,4351.153809,4412.563965,4303.717773,4288.077148,4473.846191,4505.384766,4333.077148,4387.820313,1422.000000,1.000000,24.000000,,,,0.000000,2.000000,2.000000,0.000000,4.000000,2.000000,2.000000,0.000000,0.000000,4.000000,4.000000,4.000000,4.000000,4.000000,4.000000,0.000000,,,,,,,,,,,,,,,,,1.000000,0.000000,0.537476,0.512573,-0.491272,0.455017,0.962031,0.146014,0.007325,-33.675655,46.293835,31.579136
1732157463.052390,1732157463.054789,5.000000,0.000000,4312.307617,4281.410156,4351.666504,4295.897461,4296.666504,4280.897461,4351.410156,4412.563965,4302.179688,4296.666504,4475.641113,4509.871582,4340.128418,4394.871582,1224.000000,1.000000,24.000000,,,,0.000000,2.000000,2.000000,0.000000,4.000000,2.000000,2.000000,0.000000,0.000000,4.000000,4.000000,4.000000,4.000000,4.000000,4.000000,0.000000,,,,,,,,,,,,,,,,,,,,,,,,,,,,
1732157463.060198,1732157463.062398,6.000000,0.000000,4313.717773,4279.358887,4361.025879,4295.256348,4298.717773,4280.769043,4348.077148,4402.948730,4301.794922,4297.692383,4476.666504,4510.128418,4339.743652,4398.717773,0.000000,1.000000,24.000000,,,,0.000000,2.000000,2.000000,0.000000,4.000000,2.000000,2.000000,0.000000,0.000000,4.000000,4.000000,4.000000,4.000000,4.000000,4.000000,0.000000,,,,,,,,,,,,,,,,,,,,,,,,,,,,
1732157463.068006,1732157463.070206,7.000000,0.000000,4311.922852,4277.179688,4363.077148,4295.000000,4298.077148,4281.922852,4345.384766,4402.820313,4297.436035,4292.436035,4474.743652,4506.025879,4332.948730,4396.153809,0.000000,1.000000,24.000000,,,,0.000000,2.000000,2.000000,0.000000,4.000000,2.000000,2.000000,0.000000,0.000000,4.000000,4.000000,4.000000,4.000000,4.000000,4.000000,0.000000,,,,,,,,,,,,,,,,,,,,,,,,,,,,
1732157463.075814,1732157463.077914,8.000000,0.000000,4310.384766,4278.461426,4357.563965,4294.615234,4296.153809,4280.000000,4351.153809,4408.461426,4296.153809,4292.948730,4473.077148,4506.153809,4333.461426,4395.128418,1523.000000,1.000000,24.000000,,,,0.000000,2.000000,2.000000,0.000000,4.000000,2.000000,2.000000,0.000000,0.000000,4.000000,4.000000,4.000000,4.000000,4.000000,4.000000,0.000000,,,,,,,,,,,,,,,,,2.000000,0.000000,0.537476,0.512573,-0.491272,0.455017,0.947870,0.125504,0.004883,-33.707283,46.219673,31.754099
1732157463.083622,1732157463.085722,9.000000,0.000000,4310.128418,4276.538574,4352.563965,4294.871582,4296.153809,4281.153809,4351.666504,4406.282227,4298.589844,4296.410156,4473.333496,4508.974121,4335.512695,4397.436035,1673.000000,1.000000,24.000000,,,,0.000000,2.000000,2.000000,0.000000,4.000000,2.000000,2.000000,0.000000,0.000000,4.000000,4.000000,4.000000,4.000000,4.000000,4.000000,0.000000,,,,,,,,,,,,,,,,,,,,,,,,,,,,
1732157463.091431,1732157463.093331,10.000000,0.000000,4309.487305,4276.922852,4348.589844,4294.487305,4294.102539,4280.256348,4342.563965,4402.820313,4298.974121,4296.538574,4473.846191,4508.077148,4333.205078,4398.077148,1538.000000,1.000000,24.000000,,,,0.000000,2.000000,2.000000,0.000000,4.000000,2.000000,2.000000,0.000000,0.000000,4.000000,4.000000,4.000000,4.000000,4.000000,4.000000,0.000000,,,,,,,,,,,,,,,,,,,,,,,,,,,,
1732157463.099239,1732157463.101139,11.000000,0.000000,4308.589844,4279.743652,4346.282227,4293.205078,4293.461426,4278.205078,4344.102539,4404.871582,4296.922852,4296.410156,4474.871582,4507.948730,4333.205078,4397.820313,1574.000000,1.000000,24.000000,,,,0.000000,2.000000,2.000000,0.000000,4.000000,2.000000,2.000000,0.000000,0.000000,4.000000,4.000000,4.000000,4.000000,4.000000,4.000000,0.000000,,,,,,,,,,,,,,,,,,,,,,,,,,,,
1732157463.107047,1732157463.108847,12.000000,0.000000,4310.384766,4281.666504,4346.794922,4295.641113,4295.384766,4281.410156,4348.717773,4404.743652,4295.384766,4294.743652,4476.538574,4515.512695,4335.256348,4404.358887,1698.000000,1.000000,24.000000,,,,0.000000,2.000000,2.000000,0.000000,4.000000,2.000000,2.000000,0.000000,0.000000,4.000000,4.000000,4.000000,4.000000,4.000000,4.000000,0.000000,,,,,,,,,,,,,,,,,3.000000,0.000000,0.535835,0.511536,-0.492615,0.456665,0.942986,0.137712,-0.011720,-33.896233,46.272934,31.929153
1732157463.114855,1732157463.116655,13.000000,0.000000,4311.153809,4282.051270,4343.461426,4299.230957,4295.897461,4283.077148,4341.794922,4402.179688,4295.384766,4297.820313,4476.538574,4516.025879,4338.974121,4408.974121,1659.000000,1.000000,24.000000,,,,0.000000,2.000000,2.000000,0.000000,4.000000,2.000000,2.000000,0.000000,0.000000,4.000000,4.000000,4.000000,4.000000,4.000000,4.000000,0.000000,,,,,,,,,,,,,,,,,,,,,,,,,,,,
1732157463.122664,1732157463.124264,14.000000,0.000000,4308.974121,4282.563965,4341.282227,4297.436035,4295.256348,4279.487305,4338.205078,4402.948730,4296.282227,4302.692383,4476.153809,4511.922852,4341.666504,4405.000000,1538.000000,1.000000,24.000000,,,,0.000000,2.000000,2.000000,0.000000,4.000000,2.000000,2.000000,0.000000,0.000000,4.000000,4.000000,4.000000,4.000000,4.000000,4.000000,0.000000,1.000000,0.000000,2.000000,2.000000,0.000000,4.000000,2.000000,2.000000,0.000000,0.000000,4.000000,4.000000,4.000000,4.000000,3.000000,4.000000,,,,,,,,,,,,
1732157463.130472,1732157463.132072,15.000000,0.000000,4309.871582,4282.563965,4341.282227,4296.025879,4295.512695,4279.487305,4343.077148,4402.692383,4295.897461,4300.384766,4477.307617,4514.743652,4337.948730,4406.153809,1574.000000,1.000000,24.000000,,,,0.000000,2.000000,2.000000,0.000000,4.000000,2.000000,2.000000,0.000000,0.000000,4.000000,4.000000,4.000000,4.000000,4.000000,4.000000,0.000000,,,,,,,,,,,,,,,,,,,,,,,,,,,,
1732157463.138280,1732157463.139780,16.000000,0.000000,4312.051270,4281.794922,4335.641113,4296.794922,4295.769043,4282.307617,4342.820313,4401.794922,4295.769043,4297.563965,4476.666504,4516.410156,4338.974121,4413.846191,0.000000,1.000000,24.000000,,,,0.000000,2.000000,2.000000,0.000000,4.000000,2.000000,2.000000,0.000000,0.000000,4.000000,4.000000,4.000000,4.000000,4.000000,4.000000,0.000000,,,,,,,,,,,,,,,,,4.000000,0.000000,0.529976,0.508911,-0.495850,0.462891,0.962520,0.055671,-0.001465,-33.817616,46.306076,32.010948
1732157463.146088,1732157463.147589,17.000000,0.000000,4309.230957,4281.025879,4333.461426,4295.897461,4296.794922,4281.666504,4343.717773,4401.538574,4296.153809,4303.461426,4478.974121,4508.846191,4344.102539,4411.282227,0.000000,1.000000,24.000000,,,,0.000000,2.000000,2.000000,0.000000,4.000000,2.000000,2.000000,0.000000,0.000000,4.000000,4.000000,4.000000,4.000000,4.000000,4.000000,0.000000,,,,,,,,,,,,,,,,,,,,,,,,,,,,
1732157463.153897,1732157463.155197,18.000000,0.000000,4306.538574,4280.769043,4337.051270,4295.897461,4296.538574,4280.641113,4347.051270,4402.051270,4297.436035,4307.563965,4483.846191,4507.692383,4342.436035,4405.769043,0.000000,1.000000,24.000000,,,,0.000000,2.000000,2.000000,0.000000,4.000000,2.000000,2.000000,0.000000,0.000000,4.000000,4.000000,4.000000,4.000000,4.000000,4.000000,0.000000,,,,,,,,,,,,,,,,,,,,,,,,,,,,
1732157463.161705,1732157463.163005,19.000000,0.000000,4310.384766,4281.666504,4336.794922,4297.820313,4298.717773,4281.666504,4342.436035,4403.461426,4301.922852,4308.589844,4481.410156,4513.974121,4340.512695,4407.051270,0.000000,1.000000,24.000000,,,,0.000000,2.000000,2.000000,0.000000,4.000000,2.000000,2.000000,0.000000,0.000000,4.000000,4.000000,4.000000,4.000000,4.000000,4.000000,0.000000,,,,,,,,,,,,,,,,,,,,,,,,,,,,
1732157463.169513,1732157463.170713,20.000000,0.000000,4312.563965,4282.563965,4331.410156,4300.384766,4298.205078,4282.307617,4339.487305,4402.563965,4303.589844,4312.436035,4477.436035,4511.538574,4342.820313,4404.871582,0.000000,1.000000,24.000000,,,,0.000000,2.000000,2.000000,0.000000,4.000000,2.000000,2.000000,0.000000,0.000000,4.000000,4.000000,4.000000,4.000000,4.000000,4.000000,0.000000,,,,,,,,,,,,,,,,,5.000000,0.000000,0.526645,0.507568,-0.497742,0.466125,0.974240,0.037114,0.000000,-33.843933,46.404591,32.067200
1732157463.177321,1732157463.178522,21.000000,0.000000,4310.000000,4282.179688,4331.025879,4303.717773,4299.358887,4282.692383,4340.128418,4398.205078,4297.948730,4306.538574,4477.820313,4505.512695,4340.641113,4400.769043,0.000000,1.000000,24.000000,,,,0.000000,2.000000,2.000000,0.000000,4.000000,2.000000,2.000000,0.000000,0.000000,4.000000,4.000000,4.000000,4.000000,4.000000,4.000000,0.000000,,,,,,,,,,,,,,,,,,,,,,,,,,,,
1732157463.185130,1732157463.186130,22.000000,0.000000,4309.358887,4281.794922,4331.153809,4304.102539,4314.102539,4282.820313,4339.102539,4397.563965,4293.717773,4297.948730,4476.922852,4505.128418,4338.461426,4400.128418,0.000000,1.000000,24.000000,,,,0.000000,2.000000,2.000000,0.000000,4.000000,2.000000,2.000000,0.000000,0.000000,4.000000,4.000000,4.000000,4.000000,4.000000,4.000000,0.000000,,,,,,,,,,,,,,,,,,,,,,,,,,,,
1732157463.192938,1732157463.193938,23.000000,0.000000,4310.641113,4281.410156,4327.436035,4298.974121,4315.769043,4281.666504,4339.615234,4401.922852,4296.153809,4301.538574,4475.256348,4505.384766,4342.179688,4399.230957,0.000000,1.000000,24.000000,,,,0.000000,2.000000,2.000000,0.000000,4.000000,2.000000,2.000000,0.000000,0.000000,4.000000,4.000000,4.000000,4.000000,4.000000,4.000000,0.000000,,,,,,,,,,,,,,,,,,,,,,,,,,,,
1732157463.200746,1732157463.201647,24.000000,0.000000,4310.641113,4281.025879,4324.230957,4297.692383,4295.128418,4283.974121,4341.025879,4399.615234,4298.077148,4305.897461,4477.051270,4500.128418,4342.179688,4399.743652,0.000000,1.000000,24.000000,,,,0.000000,2.000000,2.000000,0.000000,4.000000,2.000000,2.000000,0.000000,0.000000,4.000000,4.000000,4.000000,4.000000,4.000000,4.000000,0.000000,,,,,,,,,,,,,,,,,6.000000,0.000000,0.526645,0.507568,-0.497742,0.466125,0.988890,0.013185,-0.017092,-34.000252,46.499382,32.097767
1732157463.208554,1732157463.209455,25.000000,0.000000,4310.000000,4280.256348,4325.128418,4299.871582,4288.205078,4291.282227,4339.358887,4395.897461,4296.666504,4302.051270,4476.538574,4497.051270,4341.794922,4406.282227,0.000000,1.000000,24.000000,,,,0.000000,2.000000,2.000000,0.000000,4.000000,2.000000,2.000000,0.000000,0.000000,4.000000,4.000000,4.000000,4.000000,4.000000,4.000000,0.000000,,,,,,,,,,,,,,,,,,,,,,,,,,,,
1732157463.216363,1732157463.217463,26.000000,0.000000,4309.615234,4279.358887,4327.820313,4298.717773,4298.205078,4295.512695,4340.769043,4397.436035,4296.538574,4301.025879,4472.948730,4501.410156,4343.077148,4410.384766,0.000000,1.000000,24.000000,,,,0.000000,2.000000,2.000000,0.000000,4.000000,2.000000,2.000000,0.000000,0.000000,4.000000,4.000000,4.000000,4.000000,4.000000,4.000000,0.000000,,,,,,,,,,,,,,,,,,,,,,,,,,,,
1732157463.224171,1732157463.225271,27.000000,0.000000,4307.692383,4278.461426,4325.897461,4296.153809,4297.436035,4295.512695,4341.153809,4398.205078,4295.897461,4305.128418,4473.205078,4501.538574,4337.307617,4407.948730,0.000000,1.000000,24.000000,,,,0.000000,2.000000,2.000000,0.000000,4.000000,2.000000,2.000000,0.000000,0.000000,4.000000,4.000000,4.000000,4.000000,4.000000,4.000000,0.000000,,,,,,,,,,,,,,,,,,,,,,,,,,,,
1732157463.231979,1732157463.233179,28.000000,0.000000,4306.666504,4277.948730,4322.563965,4295.769043,4293.077148,4295.769043,4334.743652,4397.948730,4294.871582,4301.153809,4472.307617,4494.230957,4331.025879,4406.794922,0.000000,1.000000,24.000000,,,,0.000000,2.000000,2.000000,0.000000,4.000000,2.000000,2.000000,0.000000,0.000000,4.000000,4.000000,4.000000,4.000000,4.000000,4.000000,0.000000,,,,,,,,,,,,,,,,,7.000000,0.000000,0.518710,0.504395,-0.503113,0.472656,0.972775,-0.007813,-0.001953,-34.128540,46.361168,31.965857
1732157463.239787,1732157463.240987,29.000000,0.000000,4307.307617,4277.307617,4323.846191,4297.179688,4296.666504,4292.692383,4334.487305,4398.205078,4294.230957,4294.487305,4469.102539,4493.461426,4332.179688,4407.563965,0.000000,1.000000,24.000000,,,,0.000000,2.000000,2.000000,0.000000,4.000000,2.000000,2.000000,0.000000,0.000000,4.000000,4.000000,4.000000,4.000000,4.000000,4.000000,0.000000,,,,,,,,,,,,,,,,,,,,,,,,,,,,
1732157463.247596,1732157463.248596,30.000000,0.000000,4308.717773,4278.589844,4323.717773,4296.410156,4296.666504,4290.128418,4337.692383,4397.948730,4295.256348,4300.641113,4471.538574,4499.358887,4338.974121,4408.461426,0.000000,1.000000,24.000000,,,,0.000000,2.000000,2.000000,0.000000,4.000000,2.000000,2.000000,0.000000,0.000000,4.000000,4.000000,4.000000,4.000000,4.000000,4.000000,0.000000,,,,,,,,,,,,,,,,,,,,,,,,,,,,
1732157463.255404,1732157463.256404,31.000000,0.000000,4311.153809,4279.230957,4323.205078,4294.615234,4296.794922,4292.563965,4336.538574,4397.307617,4297.563965,4311.666504,4476.282227,4501.666504,4342.051270,4411.153809,0.000000,1.000000,24.000000,,,,0.000000,2.000000,2.000000,0.000000,4.000000,2.000000,2.000000,0.000000,0.000000,4.000000,4.000000,4.000000,4.000000,4.000000,4.000000,0.000000,,,,,,,,,,,,,,,,,,,,,,,,,,,,
1732157463.263212,1732157463.264112,32.000000,0.000000,4312.563965,4280.512695,4324.230957,4300.000000,4297.820313,4291.153809,4334.615234,4397.692383,4298.333496,4307.179688,4473.717773,4502.948730,4339.102539,4415.000000,0.000000,1.000000,24.000000,,,,0.000000,2.000000,2.000000,0.000000,4.000000,2.000000,2.000000,0.000000,0.000000,4.000000,4.000000,4.000000,4.000000,4.000000,4.000000,0.000000,,,,,,,,,,,,,,,,,8.000000,0.000000,0.513006,0.502014,-0.507751,0.476440,0.982053,-0.034184,-0.024905,-34.145782,46.274212,31.697344
1732157463.271020,1732157463.271920,33.000000,0.000000,4313.077148,4283.974121,4324.615234,4304.487305,4297.307617,4283.717773,4336.153809,4399.358887,4297.179688,4295.897461,4470.128418,4505.512695,4336.153809,4414.615234,0.000000,1.000000,24.000000,,,,0.000000,2.000000,2.000000,0.000000,4.000000,2.000000,2.000000,0.000000,0.000000,4.000000,4.000000,4.000000,4.000000,4.000000,4.000000,0.000000,,,,,,,,,,,,,,,,,,,,,,,,,,,,
1732157463.278829,1732157463.279529,34.000000,0.000000,4313.205078,4286.153809,4324.615234,4300.641113,4297.948730,4287.179688,4337.179688,4400.641113,4296.666504,4298.717773,4473.589844,4506.794922,4336.025879,4415.000000,0.000000,1.000000,24.000000,,,,0.000000,2.000000,2.000000,0.000000,4.000000,2.000000,2.000000,0.000000,0.000000,4.000000,4.000000,4.000000,4.000000,4.000000,4.000000,0.000000,,,,,,,,,,,,,,,,,,,,,,,,,,,,
1732157463.286637,1732157463.287337,35.000000,0.000000,4312.179688,4283.205078,4324.487305,4298.846191,4296.922852,4294.615234,4336.410156,4399.871582,4297.692383,4309.102539,4475.641113,4507.179688,4340.256348,4420.897461,0.000000,1.000000,24.000000,,,,0.000000,2.000000,2.000000,0.000000,4.000000,2.000000,2.000000,0.000000,0.000000,4.000000,4.000000,4.000000,4.000000,4.000000,4.000000,0.000000,,,,,,,,,,,,,,,,,,,,,,,,,,,,
1732157463.294445,1732157463.295245,36.000000,0.000000,4309.230957,4284.615234,4324.358887,4305.128418,4298.077148,4291.922852,4336.794922,4397.820313,4297.692383,4312.563965,4472.948730,4508.974121,4343.846191,4423.717773,0.000000,1.000000,24.000000,,,,0.000000,2.000000,2.000000,0.000000,4.000000,2.000000,2.000000,0.000000,0.000000,4.000000,4.000000,4.000000,4.000000,4.000000,4.000000,0.000000,,,,,,,,,,,,,,,,,9.000000,0.000000,0.511363,0.501282,-0.509155,0.477478,0.982053,-0.034184,-0.024905,-34.238083,46.142113,31.508183
1732157463.302253,1732157463.303053,37.000000,0.000000,4303.846191,4287.436035,4324.871582,4305.000000,4301.153809,4288.205078,4336.538574,4397.948730,4296.410156,4306.666504,4472.692383,4507.179688,4343.077148,4415.384766,0.000000,1.000000,24.000000,,,,0.000000,2.000000,2.000000,0.000000,4.000000,2.000000,2.000000,0.000000,0.000000,4.000000,4.000000,4.000000,4.000000,4.000000,4.000000,0.000000,,,,,,,,,,,,,,,,,,,,,,,,,,,,
1732157463.310062,1732157463.311061,38.000000,0.000000,4297.820313,4283.846191,4325.641113,4298.717773,4300.000000,4289.487305,4334.871582,4399.743652,4295.256348,4301.666504,4473.974121,4504.358887,4339.102539,4410.897461,0.000000,1.000000,24.000000,,,,0.000000,2.000000,2.000000,0.000000,4.000000,2.000000,2.000000,0.000000,0.000000,4.000000,4.000000,4.000000,4.000000,4.000000,4.000000,0.000000,,,,,,,,,,,,,,,,,,,,,,,,,,,,
1732157463.317870,1732157463.318870,39.000000,0.000000,4295.897461,4285.000000,4324.615234,4298.205078,4297.179688,4290.512695,4334.743652,4400.512695,4295.128418,4305.256348,4475.000000,4505.256348,4340.897461,4417.820313,0.000000,1.000000,24.000000,,,,0.000000,2.000000,2.000000,0.000000,4.000000,2.000000,2.000000,0.000000,0.000000,4.000000,4.000000,4.000000,4.000000,4.000000,4.000000,0.000000,,,,,,,,,,,,,,,,,,,,,,,,,,,,
1732157463.325678,1732157463.326778,40.000000,0.000000,4299.230957,4288.974121,4324.358887,4303.846191,4297.179688,4293.717773,4336.153809,4401.282227,4296.666504,4307.436035,4475.897461,4506.025879,4344.487305,4421.922852,0.000000,1.000000,24.000000,,,,0.000000,2.000000,2.000000,0.000000,4.000000,2.000000,2.000000,0.000000,0.000000,4.000000,4.000000,4.000000,4.000000,4.000000,4.000000,0.000000,,,,,,,,,,,,,,,,,10.000000,0.000000,0.508259,0.499634,-0.512268,0.479187,0.985472,-0.061531,-0.025394,-34.276180,46.051777,31.484961
1732157463.333486,1732157463.334586,41.000000,0.000000,4303.461426,4283.461426,4324.871582,4307.820313,4296.025879,4293.846191,4335.512695,4401.794922,4297.563965,4303.974121,4475.641113,4507.179688,4343.589844,4421.025879,0.000000,1.000000,24.000000,,,,0.000000,2.000000,2.000000,0.000000,4.000000,2.000000,2.000000,0.000000,0.000000,4.000000,4.000000,4.000000,4.000000,4.000000,4.000000,0.000000,,,,,,,,,,,,,,,,,,,,,,,,,,,,
1732157463.341294,1732157463.342194,42.000000,0.000000,4304.358887,4278.717773,4324.615234,4304.487305,4292.307617,4286.153809,4334.743652,4401.922852,4297.179688,4305.897461,4475.897461,4513.846191,4345.897461,4422.820313,0.000000,1.000000,24.000000,,,,0.000000,2.000000,2.000000,0.000000,4.000000,2.000000,2.000000,0.000000,0.000000,4.000000,4.000000,4.000000,4.000000,4.000000,4.000000,0.000000,,,,,,,,,,,,,,,,,,,,,,,,,,,,
1732157463.349103,1732157463.350003,43.000000,0.000000,4303.589844,4286.282227,4323.333496,4303.846191,4293.333496,4285.128418,4335.512695,4400.000000,4297.692383,4310.384766,4476.666504,4520.384766,4351.922852,4428.974121,0.000000,1.000000,24.000000,,,,0.000000,2.000000,2.000000,0.000000,4.000000,2.000000,2.000000,0.000000,0.000000,4.000000,4.000000,4.000000,4.000000,4.000000,4.000000,0.000000,,,,,,,,,,,,,,,,,,,,,,,,,,,,
1732157463.356911,1732157463.357911,44.000000,0.000000,4304.615234,4290.512695,4326.153809,4309.743652,4295.128418,4293.205078,4335.128418,4399.102539,4297.948730,4305.000000,4475.384766,4517.692383,4349.230957,4430.256348,0.000000,1.000000,24.000000,,,,0.000000,2.000000,2.000000,0.000000,4.000000,2.000000,2.000000,0.000000,0.000000,4.000000,4.000000,4.000000,4.000000,4.000000,4.000000,0.000000,,,,,,,,,,,,,,,,,11.000000,0.000000,0.503219,0.496704,-0.517944,0.481445,0.987425,-0.066414,-0.039556,-34.445374,46.168606,31.551151
1732157463.364719,1732157463.365719,45.000000,0.000000,4301.666504,4283.846191,4329.487305,4309.358887,4293.589844,4297.436035,4334.230957,4401.282227,4296.153809,4295.384766,4471.153809,4512.179688,4335.384766,4420.641113,0.000000,1.000000,24.000000,,,,0.000000,2.000000,2.000000,0.000000,4.000000,2.000000,2.000000,0.000000,0.000000,4.000000,4.000000,4.000000,4.000000,4.000000,4.000000,0.000000,,,,,,,,,,,,,,,,,,,,,,,,,,,,
1732157463.372527,1732157463.373727,46.000000,0.000000,4294.871582,4281.538574,4328.205078,4303.205078,4295.897461,4297.307617,4335.000000,4402.563965,4295.128418,4296.794922,4469.615234,4509.871582,4335.512695,4417.948730,0.000000,1.000000,24.000000,,,,0.000000,2.000000,2.000000,0.000000,4.000000,2.000000,2.000000,0.000000,0.000000,4.000000,4.000000,4.000000,4.000000,4.000000,4.000000,0.000000,,,,,,,,,,,,,,,,,,,,,,,,,,,,
1732157463.380336,1732157463.381535,47.000000,0.000000,4295.384766,4282.436035,4328.717773,4302.563965,4298.717773,4295.384766,4335.769043,4399.743652,4293.717773,4305.897461,4474.487305,4508.333496,4349.871582,4424.743652,0.000000,1.000000,24.000000,,,,0.000000,2.000000,2.000000,0.000000,4.000000,2.000000,2.000000,0.000000,0.000000,4.000000,4.000000,4.000000,4.000000,4.000000,4.000000,0.000000,,,,,,,,,,,,,,,,,,,,,,,,,,,,
1732157463.388144,1732157463.389443,48.000000,0.000000,4297.436035,4280.769043,4330.128418,4303.205078,4295.769043,4292.820313,4335.897461,4398.589844,4294.743652,4310.128418,4474.743652,4506.794922,4354.230957,4422.692383,0.000000,1.000000,24.000000,,,,0.000000,2.000000,2.000000,0.000000,4.000000,2.000000,2.000000,0.000000,0.000000,4.000000,4.000000,4.000000,4.000000,4.000000,4.000000,0.000000,,,,,,,,,,,,,,,,,12.000000,0.000000,0.501273,0.495728,-0.520081,0.482178,0.994750,-0.043951,-0.030277,-34.732418,46.079903,31.338100
1732157463.395952,1732157463.397251,49.000000,0.000000,4295.000000,4279.871582,4326.153809,4297.436035,4294.615234,4291.922852,4336.794922,4401.538574,4303.717773,4311.922852,4474.743652,4506.922852,4358.077148,4419.871582,0.000000,1.000000,24.000000,,,,0.000000,2.000000,2.000000,0.000000,4.000000,2.000000,2.000000,0.000000,0.000000,4.000000,4.000000,4.000000,4.000000,4.000000,4.000000,0.000000,,,,,,,,,,,,,,,,,,,,,,,,,,,,
1732157463.403761,1732157463.405259,50.000000,0.000000,4292.563965,4274.615234,4323.974121,4295.000000,4297.179688,4293.333496,4336.410156,4401.794922,4308.461426,4316.666504,4485.128418,4509.102539,4367.820313,4428.846191,0.000000,1.000000,24.000000,,,,0.000000,2.000000,2.000000,0.000000,4.000000,2.000000,2.000000,0.000000,0.000000,4.000000,4.000000,4.000000,4.000000,4.000000,4.000000,0.000000,,,,,,,,,,,,,,,,,,,,,,,,,,,,
1732157463.411569,1732157463.413068,51.000000,0.000000,4289.871582,4267.563965,4327.563965,4296.410156,4294.743652,4292.563965,4334.615234,4398.461426,4300.512695,4316.410156,4486.922852,4511.025879,4364.487305,4428.205078,0.000000,1.000000,24.000000,,,,0.000000,2.000000,2.000000,0.000000,4.000000,2.000000,2.000000,0.000000,0.000000,4.000000,4.000000,4.000000,4.000000,4.000000,4.000000,0.000000,,,,,,,,,,,,,,,,,,,,,,,,,,,,
1732157463.419377,1732157463.420976,52.000000,0.000000,4288.589844,4270.128418,4325.641113,4294.743652,4291.794922,4293.461426,4334.871582,4398.974121,4293.205078,4310.000000,4477.692383,4509.230957,4356.282227,4418.461426,0.000000,1.000000,24.000000,,,,0.000000,2.000000,2.000000,0.000000,4.000000,2.000000,2.000000,0.000000,0.000000,4.000000,4.000000,4.000000,4.000000,4.000000,4.000000,0.000000,,,,,,,,,,,,,,,,,13.000000,0.000000,0.500735,0.495117,-0.521179,0.482178,0.994750,-0.043951,-0.030277,-34.863258,46.188057,31.425528
1732157463.427185,1732157463.428784,53.000000,0.000000,4291.153809,4275.128418,4320.769043,4295.000000,4294.615234,4294.615234,4336.282227,4403.333496,4299.230957,4310.641113,4477.436035,4507.563965,4359.871582,4419.871582,0.000000,1.000000,24.000000,,,,0.000000,2.000000,2.000000,0.000000,4.000000,2.000000,2.000000,0.000000,0.000000,4.000000,4.000000,4.000000,4.000000,4.000000,4.000000,0.000000,,,,,,,,,,,,,,,,,,,,,,,,,,,,
1732157463.434993,1732157463.436792,54.000000,0.000000,4291.666504,4275.128418,4322.692383,4301.025879,4297.051270,4292.692383,4335.512695,4402.948730,4307.820313,4317.563965,4481.666504,4509.230957,4359.230957,4418.333496,0.000000,1.000000,24.000000,,,,0.000000,2.000000,2.000000,0.000000,4.000000,2.000000,2.000000,0.000000,0.000000,4.000000,4.000000,4.000000,4.000000,4.000000,4.000000,0.000000,,,,,,,,,,,,,,,,,,,,,,,,,,,,
1732157463.442802,1732157463.444600,55.000000,0.000000,4289.487305,4277.051270,4326.666504,4301.282227,4297.563965,4292.692383,4333.846191,4398.333496,4305.512695,4316.025879,4482.692383,4508.717773,4357.179688,4414.871582,0.000000,1.000000,24.000000,,,,0.000000,2.000000,2.000000,0.000000,4.000000,2.000000,2.000000,0.000000,0.000000,4.000000,4.000000,4.000000,4.000000,4.000000,4.000000,0.000000,,,,,,,,,,,,,,,,,,,,,,,,,,,,
1732157463.450610,1732157463.452508,56.000000,0.000000,4291.794922,4280.641113,4324.615234,4297.692383,4297.051270,4295.384766,4334.487305,4398.205078,4297.692383,4310.897461,4487.179688,4506.794922,4363.461426,4422.692383,0.000000,1.000000,24.000000,,,,0.000000,2.000000,2.000000,0.000000,4.000000,2.000000,2.000000,0.000000,0.000000,4.000000,4.000000,4.000000,4.000000,4.000000,4.000000,0.000000,,,,,,,,,,,,,,,,,14.000000,0.000000,0.498763,0.493835,-0.524109,0.482361,0.989867,-0.036137,-0.051276,-34.957573,45.905659,31.354677
1732157463.458418,1732157463.460316,57.000000,0.000000,4295.384766,4281.282227,4321.666504,4300.897461,4297.179688,4294.871582,4335.384766,4404.615234,4294.743652,4310.384766,4490.128418,4512.692383,4363.717773,4428.589844,0.000000,1.000000,24.000000,,,,0.000000,2.000000,2.000000,0.000000,4.000000,2.000000,2.000000,0.000000,0.000000,4.000000,4.000000,4.000000,4.000000,4.000000,4.000000,0.000000,,,,,,,,,,,,,,,,,,,,,,,,,,,,
1732157463.466226,1732157463.467925,58.000000,0.000000,4297.307617,4281.538574,4322.179688,4306.025879,4299.615234,4293.205078,4336.025879,4406.282227,4298.589844,4311.025879,4488.717773,4522.563965,4356.922852,4426.153809,0.000000,1.000000,24.000000,,,,0.000000,2.000000,2.000000,0.000000,4.000000,2.000000,2.000000,0.000000,0.000000,4.000000,4.000000,4.000000,4.000000,4.000000,4.000000,0.000000,,,,,,,,,,,,,,,,,,,,,,,,,,,,
1732157463.474035,1732157463.475733,59.000000,0.000000,4297.307617,4281.538574,4322.692383,4303.461426,4299.358887,4295.897461,4335.769043,4399.487305,4298.717773,4311.282227,4486.282227,4523.077148,4355.256348,4424.487305,0.000000,1.000000,24.000000,,,,0.000000,2.000000,2.000000,0.000000,4.000000,2.000000,2.000000,0.000000,0.000000,4.000000,4.000000,4.000000,4.000000,4.000000,4.000000,0.000000,,,,,,,,,,,,,,,,,,,,,,,,,,,,
1732157463.481843,1732157463.483441,60.000000,0.000000,4296.666504,4278.846191,4321.538574,4298.333496,4298.589844,4296.922852,4334.230957,4396.794922,4296.410156,4311.666504,4484.743652,4514.743652,4357.820313,4427.563965,0.000000,1.000000,24.000000,,,,0.000000,2.000000,2.000000,0.000000,4.000000,2.000000,2.000000,0.000000,0.000000,4.000000,4.000000,4.000000,4.000000,4.000000,4.000000,0.000000,,,,,,,,,,,,,,,,,15.000000,0.000000,0.498389,0.493408,-0.525146,0.482056,0.971798,-0.038091,-0.041021,-34.967300,45.643585,31.230621
1732157463.489651,1732157463.491250,61.000000,0.000000,4297.820313,4277.820313,4321.282227,4296.025879,4296.282227,4295.384766,4334.102539,4400.769043,4299.358887,4310.641113,4487.051270,4509.230957,4357.563965,4428.974121,0.000000,1.000000,24.000000,,,,0.000000,2.000000,2.000000,0.000000,4.000000,2.000000,2.000000,0.000000,0.000000,4.000000,4.000000,4.000000,4.000000,4.000000,4.000000,0.000000,,,,,,,,,,,,,,,,,,,,,,,,,,,,
1732157463.497460,1732157463.498858,62.000000,0.000000,4293.077148,4274.230957,4321.794922,4293.589844,4294.743652,4295.512695,4336.025879,4401.153809,4303.461426,4308.846191,4484.871582,4509.358887,4355.000000,4425.256348,0.000000,1.000000,24.000000,,,,0.000000,2.000000,2.000000,0.000000,4.000000,2.000000,2.000000,0.000000,0.000000,4.000000,4.000000,4.000000,4.000000,4.000000,4.000000,0.000000,,,,,,,,,,,,,,,,,,,,,,,,,,,,
1732157463.505268,1732157463.506666,63.000000,0.000000,4284.230957,4267.948730,4322.820313,4293.333496,4307.051270,4294.615234,4336.794922,4400.000000,4301.666504,4307.436035,4476.922852,4508.205078,4353.333496,4419.871582,0.000000,1.000000,24.000000,,,,0.000000,2.000000,2.000000,0.000000,4.000000,2.000000,2.000000,0.000000,0.000000,4.000000,4.000000,4.000000,4.000000,4.000000,4.000000,0.000000,,,,,,,,,,,,,,,,,,,,,,,,,,,,
1732157463.513076,1732157463.514375,64.000000,0.000000,4284.743652,4269.615234,4322.179688,4294.871582,4314.102539,4294.871582,4336.153809,4400.769043,4301.922852,4309.615234,4475.641113,4504.102539,4356.282227,4419.230957,0.000000,1.000000,24.000000,,,,0.000000,2.000000,2.000000,0.000000,4.000000,2.000000,2.000000,0.000000,0.000000,4.000000,4.000000,4.000000,4.000000,4.000000,4.000000,0.000000,,,,,,,,,,,,,,,,,16.000000,0.000000,0.498127,0.493408,-0.525452,0.481995,0.981077,-0.033207,-0.048346,-35.163513,45.521301,31.091805
1732157463.520884,1732157463.522183,65.000000,0.000000,4289.871582,4278.333496,4320.384766,4294.871582,4297.307617,4296.538574,4336.538574,4400.384766,4307.051270,4314.102539,4481.153809,4506.538574,4361.538574,4421.153809,1589.000000,1.000000,24.000000,,,,0.000000,2.000000,2.000000,0.000000,4.000000,2.000000,2.000000,0.000000,0.000000,4.000000,4.000000,4.000000,4.000000,4.000000,4.000000,0.000000,,,,,,,,,,,,,,,,,,,,,,,,,,,,
1732157463.528692,1732157463.529791,66.000000,0.000000,4290.256348,4280.641113,4322.051270,4296.666504,4287.948730,4295.256348,4336.794922,4400.641113,4305.512695,4314.358887,4487.179688,4512.948730,4360.769043,4418.846191,1372.000000,1.000000,24.000000,,,,0.000000,2.000000,2.000000,0.000000,4.000000,2.000000,2.000000,0.000000,0.000000,4.000000,4.000000,4.000000,4.000000,4.000000,4.000000,0.000000,,,,,,,,,,,,,,,,,,,,,,,,,,,,
1732157463.536501,1732157463.537599,67.000000,0.000000,4294.743652,4278.717773,4323.077148,4301.666504,4299.615234,4296.922852,4336.410156,4400.512695,4306.538574,4314.487305,4490.512695,4512.820313,4357.436035,4416.282227,1414.000000,1.000000,24.000000,,,,0.000000,2.000000,2.000000,0.000000,4.000000,2.000000,2.000000,0.000000,0.000000,4.000000,4.000000,4.000000,4.000000,4.000000,4.000000,0.000000,,,,,,,,,,,,,,,,,,,,,,,,,,,,
1732157463.544309,1732157463.545308,68.000000,0.000000,4294.487305,4281.666504,4320.512695,4302.307617,4301.410156,4298.205078,4335.512695,4397.563965,4313.205078,4319.102539,4485.769043,4509.230957,4357.820313,4414.871582,1419.000000,1.000000,24.000000,,,,0.000000,2.000000,2.000000,0.000000,4.000000,2.000000,2.000000,0.000000,0.000000,4.000000,4.000000,4.000000,4.000000,4.000000,4.000000,0.000000,,,,,,,,,,,,,,,,,17.000000,0.000000,0.497726,0.493774,-0.525879,0.481567,0.973752,-0.033696,-0.036137,-35.195778,45.485588,31.042694
1732157463.552117,1732157463.553116,69.000000,0.000000,4283.205078,4282.436035,4320.128418,4296.794922,4293.077148,4291.538574,4334.743652,4397.563965,4305.256348,4320.128418,4483.461426,4508.461426,4358.589844,4413.589844,1224.000000,1.000000,24.000000,,,,0.000000,2.000000,2.000000,0.000000,4.000000,2.000000,2.000000,0.000000,0.000000,4.000000,4.000000,4.000000,4.000000,4.000000,4.000000,0.000000,,,,,,,,,,,,,,,,,,,,,,,,,,,,
1732157463.559925,1732157463.560724,70.000000,0.000000,4281.153809,4279.102539,4323.461426,4294.615234,4294.358887,4288.205078,4334.487305,4399.487305,4295.384766,4317.563965,4488.589844,4508.589844,4358.461426,4413.077148,0.000000,1.000000,24.000000,,,,0.000000,2.000000,2.000000,0.000000,4.000000,2.000000,2.000000,0.000000,0.000000,4.000000,4.000000,4.000000,4.000000,4.000000,4.000000,0.000000,,,,,,,,,,,,,,,,,,,,,,,,,,,,
1732157463.567734,1732157463.568533,71.000000,0.000000,4287.051270,4278.974121,4324.102539,4298.846191,4299.743652,4291.794922,4334.743652,4400.256348,4302.948730,4316.794922,4488.461426,4507.179688,4356.153809,4411.666504,0.000000,1.000000,24.000000,,,,0.000000,2.000000,2.000000,0.000000,4.000000,2.000000,2.000000,0.000000,0.000000,4.000000,4.000000,4.000000,4.000000,4.000000,4.000000,0.000000,,,,,,,,,,,,,,,,,,,,,,,,,,,,
1732157463.575542,1732157463.576241,72.000000,0.000000,4283.589844,4279.871582,4321.538574,4303.717773,4302.948730,4293.846191,4335.256348,4401.282227,4311.410156,4314.871582,4485.512695,4506.794922,4351.922852,4411.282227,1523.000000,1.000000,24.000000,,,,0.000000,2.000000,2.000000,0.000000,4.000000,2.000000,2.000000,0.000000,0.000000,4.000000,4.000000,4.000000,4.000000,4.000000,4.000000,0.000000,,,,,,,,,,,,,,,,,18.000000,0.000000,0.497299,0.494629,-0.526428,0.480530,0.986937,-0.038091,-0.041509,-35.151917,45.489994,31.169582
1732157463.583350,1732157463.584049,73.000000,0.000000,4280.000000,4281.025879,4321.538574,4305.000000,4303.717773,4293.974121,4335.897461,4399.487305,4305.512695,4312.436035,4486.538574,4505.897461,4352.307617,4411.410156,1673.000000,1.000000,24.000000,,,,0.000000,2.000000,2.000000,0.000000,4.000000,2.000000,2.000000,0.000000,0.000000,4.000000,4.000000,4.000000,4.000000,4.000000,4.000000,0.000000,,,,,,,,,,,,,,,,,,,,,,,,,,,,
1732157463.591158,1732157463.592057,74.000000,0.000000,4282.820313,4281.025879,4323.717773,4300.256348,4301.538574,4290.256348,4335.769043,4400.256348,4301.282227,4312.948730,4488.717773,4506.410156,4358.077148,4411.538574,1536.000000,1.000000,24.000000,,,,0.000000,2.000000,2.000000,0.000000,4.000000,2.000000,2.000000,0.000000,0.000000,4.000000,4.000000,4.000000,4.000000,4.000000,4.000000,0.000000,,,,,,,,,,,,,,,,,,,,,,,,,,,,
1732157463.598967,1732157463.599865,75.000000,0.000000,4283.846191,4279.743652,4321.025879,4295.769043,4298.205078,4282.820313,4335.769043,4404.358887,4307.948730,4315.512695,4488.846191,4508.717773,4358.717773,4412.692383,1569.000000,1.000000,24.000000,,,,0.000000,2.000000,2.000000,0.000000,4.000000,2.000000,2.000000,0.000000,0.000000,4.000000,4.000000,4.000000,4.000000,4.000000,4.000000,0.000000,,,,,,,,,,,,,,,,,,,,,,,,,,,,
1732157463.606775,1732157463.607773,76.000000,0.000000,4283.461426,4279.871582,4318.589844,4296.538574,4297.179688,4282.692383,4336.410156,4403.846191,4312.692383,4318.589844,4488.461426,4511.153809,4356.282227,4413.461426,1698.000000,1.000000,24.000000,,,,0.000000,2.000000,2.000000,0.000000,4.000000,2.000000,2.000000,0.000000,0.000000,4.000000,4.000000,4.000000,4.000000,4.000000,4.000000,0.000000,,,,,,,,,,,,,,,,,19.000000,0.000000,0.496916,0.495422,-0.526489,0.480042,0.994750,-0.036137,-0.047857,-35.064716,45.573563,31.289028
1732157463.614583,1732157463.615582,77.000000,0.000000,4282.948730,4280.128418,4319.615234,4295.897461,4298.589844,4289.743652,4336.282227,4399.743652,4309.487305,4320.000000,4489.230957,4514.230957,4357.563965,4414.743652,1651.000000,1.000000,24.000000,,,,0.000000,2.000000,2.000000,0.000000,4.000000,2.000000,2.000000,0.000000,0.000000,4.000000,4.000000,4.000000,4.000000,4.000000,4.000000,0.000000,,,,,,,,,,,,,,,,,,,,,,,,,,,,
1732157463.622391,1732157463.623590,78.000000,0.000000,4285.128418,4279.358887,4321.153809,4294.743652,4297.179688,4288.717773,4335.897461,4400.641113,4311.538574,4319.230957,4487.051270,4517.692383,4355.897461,4416.153809,1536.000000,1.000000,24.000000,,,,0.000000,2.000000,2.000000,0.000000,4.000000,2.000000,2.000000,0.000000,0.000000,4.000000,4.000000,4.000000,4.000000,4.000000,4.000000,0.000000,1.000000,0.000000,2.000000,2.000000,0.000000,4.000000,2.000000,2.000000,0.000000,0.000000,4.000000,4.000000,4.000000,4.000000,4.000000,4.000000,,,,,,,,,,,,
1732157463.630200,1732157463.631398,79.000000,0.000000,4290.769043,4280.256348,4320.897461,4295.897461,4294.230957,4281.666504,4335.769043,4403.461426,4313.205078,4316.025879,4480.384766,4515.384766,4350.641113,4415.000000,1569.000000,1.000000,24.000000,,,,0.000000,2.000000,2.000000,0.000000,4.000000,2.000000,2.000000,0.000000,0.000000,4.000000,4.000000,4.000000,4.000000,4.000000,4.000000,0.000000,,,,,,,,,,,,,,,,,,,,,,,,,,,,
1732157463.638008,1732157463.639306,80.000000,0.000000,4288.846191,4279.358887,4320.897461,4296.282227,4293.589844,4280.128418,4335.384766,4399.743652,4300.512695,4310.897461,4476.538574,4506.538574,4350.000000,4413.077148,1698.000000,1.000000,24.000000,,,,0.000000,2.000000,2.000000,0.000000,4.000000,2.000000,2.000000,0.000000,0.000000,4.000000,4.000000,4.000000,4.000000,4.000000,4.000000,0.000000,,,,,,,,,,,,,,,,,20.000000,0.000000,0.496842,0.495911,-0.526489,0.479614,0.991332,-0.009767,-0.047857,-35.200756,45.414585,31.247446
1732157463.645816,1732157463.647114,81.000000,0.000000,4280.897461,4277.563965,4321.282227,4292.692383,4294.230957,4281.282227,4336.153809,4398.717773,4294.487305,4311.410156,4477.051270,4503.589844,4352.051270,4413.846191,1651.000000,1.000000,24.000000,,,,0.000000,2.000000,2.000000,0.000000,4.000000,2.000000,2.000000,0.000000,0.000000,4.000000,4.000000,4.000000,4.000000,4.000000,4.000000,0.000000,,,,,,,,,,,,,,,,,,,,,,,,,,,,
1732157463.653624,1732157463.654723,82.000000,0.000000,4280.256348,4278.974121,4317.436035,4292.179688,4298.205078,4281.538574,4336.666504,4399.743652,4304.487305,4315.384766,4476.666504,4506.153809,4350.256348,4414.743652,1536.000000,1.000000,24.000000,,,,0.000000,2.000000,2.000000,0.000000,4.000000,2.000000,2.000000,0.000000,0.000000,4.000000,4.000000,4.000000,4.000000,4.000000,4.000000,0.000000,,,,,,,,,,,,,,,,,,,,,,,,,,,,
1732157463.661433,1732157463.662531,83.000000,0.000000,4284.871582,4282.179688,4315.000000,4296.282227,4299.230957,4285.000000,4335.128418,4398.461426,4308.205078,4315.000000,4476.794922,4507.436035,4349.615234,4411.666504,1569.000000,1.000000,24.000000,,,,0.000000,2.000000,2.000000,0.000000,4.000000,2.000000,2.000000,0.000000,0.000000,4.000000,4.000000,4.000000,4.000000,4.000000,4.000000,0.000000,,,,,,,,,,,,,,,,,,,,,,,,,,,,
1732157463.669241,1732157463.670239,84.000000,0.000000,4283.589844,4280.128418,4316.153809,4295.384766,4294.487305,4288.717773,4334.358887,4398.589844,4306.410156,4311.153809,4478.077148,4506.922852,4349.871582,4409.743652,1698.000000,1.000000,24.000000,,,,0.000000,2.000000,2.000000,0.000000,4.000000,2.000000,2.000000,0.000000,0.000000,4.000000,4.000000,4.000000,4.000000,4.000000,4.000000,0.000000,,,,,,,,,,,,,,,,,21.000000,0.000000,0.496240,0.498718,-0.526733,0.477051,0.985960,0.002930,-0.044439,-35.354279,45.470814,31.273766
1732157463.677049,1732157463.678047,85.000000,0.000000,4282.051270,4278.717773,4317.179688,4293.846191,4305.641113,4280.256348,4335.256348,4400.512695,4304.743652,4306.025879,4474.230957,4504.743652,4345.256348,4408.974121,1651.000000,1.000000,24.000000,,,,0.000000,2.000000,2.000000,0.000000,4.000000,2.000000,2.000000,0.000000,0.000000,4.000000,4.000000,4.000000,4.000000,4.000000,4.000000,0.000000,,,,,,,,,,,,,,,,,,,,,,,,,,,,
1732157463.684857,1732157463.685656,86.000000,0.000000,4290.512695,4286.922852,4316.794922,4302.820313,4317.948730,4272.436035,4334.743652,4400.128418,4297.307617,4305.641113,4473.974121,4506.794922,4344.102539,4410.641113,1536.000000,1.000000,24.000000,,,,0.000000,2.000000,2.000000,0.000000,4.000000,2.000000,2.000000,0.000000,0.000000,4.000000,4.000000,4.000000,4.000000,4.000000,4.000000,0.000000,,,,,,,,,,,,,,,,,,,,,,,,,,,,
1732157463.692666,1732157463.693464,87.000000,0.000000,4303.077148,4297.051270,4319.743652,4314.615234,4304.230957,4283.077148,4333.717773,4397.948730,4297.179688,4310.769043,4484.871582,4518.589844,4349.871582,4420.256348,1569.000000,1.000000,24.000000,,,,0.000000,2.000000,2.000000,0.000000,4.000000,2.000000,2.000000,0.000000,0.000000,4.000000,4.000000,4.000000,4.000000,4.000000,4.000000,0.000000,,,,,,,,,,,,,,,,,,,,,,,,,,,,
1732157463.700474,1732157463.701372,88.000000,0.000000,4305.512695,4299.358887,4321.153809,4316.410156,4288.205078,4282.948730,4335.256348,4398.333496,4305.641113,4310.256348,4491.025879,4524.615234,4354.230957,4425.128418,1698.000000,1.000000,24.000000,,,,0.000000,2.000000,2.000000,0.000000,4.000000,2.000000,2.000000,0.000000,0.000000,4.000000,4.000000,4.000000,4.000000,4.000000,4.000000,0.000000,,,,,,,,,,,,,,,,,22.000000,0.000000,0.496378,0.500610,-0.526794,0.474854,0.981077,-0.005860,-0.044439,-35.381966,45.401360,31.338417
1732157463.708282,1732157463.709180,89.000000,0.000000,4304.615234,4294.871582,4315.512695,4311.282227,4287.179688,4266.922852,4336.922852,4399.615234,4308.077148,4313.205078,4491.410156,4521.538574,4361.410156,4424.358887,1651.000000,1.000000,24.000000,,,,0.000000,2.000000,2.000000,0.000000,4.000000,2.000000,2.000000,0.000000,0.000000,4.000000,4.000000,4.000000,4.000000,4.000000,4.000000,0.000000,,,,,,,,,,,,,,,,,,,,,,,,,,,,
1732157463.716090,1732157463.717188,90.000000,0.000000,4309.615234,4296.025879,4315.256348,4311.410156,4288.717773,4264.743652,4336.282227,4400.769043,4303.205078,4324.743652,4494.487305,4526.922852,4371.538574,4428.077148,1536.000000,1.000000,24.000000,,,,0.000000,2.000000,2.000000,0.000000,4.000000,2.000000,2.000000,0.000000,0.000000,4.000000,4.000000,4.000000,4.000000,4.000000,4.000000,0.000000,,,,,,,,,,,,,,,,,,,,,,,,,,,,
1732157463.723899,1732157463.724996,91.000000,0.000000,4306.025879,4301.282227,4320.512695,4316.153809,4292.820313,4272.692383,4335.512695,4401.025879,4294.102539,4316.794922,4486.025879,4525.000000,4361.410156,4422.436035,1569.000000,1.000000,24.000000,,,,0.000000,2.000000,2.000000,0.000000,4.000000,2.000000,2.000000,0.000000,0.000000,4.000000,4.000000,4.000000,4.000000,4.000000,4.000000,0.000000,,,,,,,,,,,,,,,,,,,,,,,,,,,,
1732157463.731707,1732157463.732904,92.000000,0.000000,4294.487305,4296.794922,4320.769043,4314.487305,4300.256348,4276.025879,4335.897461,4399.230957,4299.102539,4303.205078,4469.743652,4507.179688,4344.743652,4405.000000,1698.000000,1.000000,24.000000,,,,0.000000,2.000000,2.000000,0.000000,4.000000,2.000000,2.000000,0.000000,0.000000,4.000000,4.000000,4.000000,4.000000,4.000000,4.000000,0.000000,,,,,,,,,,,,,,,,,23.000000,0.000000,0.496378,0.500610,-0.526794,0.474854,0.970333,-0.013674,-0.040532,-35.389393,45.360100,31.480783
1732157463.739515,1732157463.740713,93.000000,0.000000,4292.051270,4291.538574,4318.333496,4306.153809,4298.077148,4278.974121,4335.769043,4398.717773,4313.205078,4312.179688,4470.256348,4502.948730,4352.948730,4403.205078,1651.000000,1.000000,24.000000,,,,0.000000,2.000000,2.000000,0.000000,4.000000,2.000000,2.000000,0.000000,0.000000,4.000000,4.000000,4.000000,4.000000,4.000000,4.000000,0.000000,,,,,,,,,,,,,,,,,,,,,,,,,,,,
1732157463.747323,1732157463.748721,94.000000,0.000000,4295.384766,4296.282227,4317.307617,4303.077148,4295.256348,4283.077148,4335.512695,4397.692383,4305.384766,4309.102539,4477.051270,4510.128418,4367.051270,4410.897461,1536.000000,1.000000,24.000000,,,,0.000000,2.000000,2.000000,0.000000,4.000000,2.000000,2.000000,0.000000,0.000000,4.000000,4.000000,4.000000,4.000000,4.000000,4.000000,0.000000,,,,,,,,,,,,,,,,,,,,,,,,,,,,
1732157463.755132,1732157463.756529,95.000000,0.000000,4291.666504,4300.384766,4319.358887,4303.205078,4297.307617,4281.922852,4336.025879,4399.487305,4295.897461,4293.333496,4473.589844,4506.922852,4366.666504,4408.333496,1569.000000,1.000000,24.000000,,,,0.000000,2.000000,2.000000,0.000000,4.000000,2.000000,2.000000,0.000000,0.000000,4.000000,4.000000,4.000000,4.000000,4.000000,4.000000,0.000000,,,,,,,,,,,,,,,,,,,,,,,,,,,,
1732157463.762940,1732157463.764437,96.000000,0.000000,4288.589844,4295.384766,4321.025879,4297.692383,4294.871582,4281.922852,4335.897461,4403.589844,4312.820313,4306.794922,4474.230957,4506.025879,4367.436035,4405.897461,1698.000000,1.000000,24.000000,,,,0.000000,2.000000,2.000000,0.000000,4.000000,2.000000,2.000000,0.000000,0.000000,4.000000,4.000000,4.000000,4.000000,4.000000,4.000000,0.000000,,,,,,,,,,,,,,,,,24.000000,0.000000,0.497357,0.503418,-0.527954,0.469543,0.981077,0.021487,-0.052741,-35.468742,45.386681,31.414434
1732157463.770748,1732157463.772245,97.000000,0.000000,4290.128418,4295.256348,4320.769043,4293.717773,4292.436035,4282.563965,4335.641113,4403.333496,4317.692383,4316.538574,4476.153809,4510.769043,4373.589844,4403.974121,1651.000000,1.000000,24.000000,,,,0.000000,2.000000,2.000000,0.000000,4.000000,2.000000,2.000000,0.000000,0.000000,4.000000,4.000000,4.000000,4.000000,4.000000,4.000000,0.000000,,,,,,,,,,,,,,,,,,,,,,,,,,,,
1732157463.778556,1732157463.780253,98.000000,0.000000,4292.436035,4308.589844,4319.615234,4302.307617,4296.666504,4282.692383,4335.769043,4400.000000,4300.128418,4297.948730,4471.282227,4509.615234,4375.641113,4403.205078,1536.000000,1.000000,24.000000,,,,0.000000,2.000000,2.000000,0.000000,4.000000,2.000000,2.000000,0.000000,0.000000,4.000000,4.000000,4.000000,4.000000,4.000000,4.000000,0.000000,,,,,,,,,,,,,,,,,,,,,,,,,,,,
1732157463.786364,1732157463.788061,99.000000,0.000000,4294.487305,4317.692383,4317.307617,4309.615234,4298.077148,4281.410156,4334.230957,4400.000000,4305.641113,4300.128418,4473.589844,4509.871582,4382.051270,4410.256348,1569.000000,1.000000,24.000000,,,,0.000000,2.000000,2.000000,0.000000,4.000000,2.000000,2.000000,0.000000,0.000000,4.000000,4.000000,4.000000,4.000000,4.000000,4.000000,0.000000,,,,,,,,,,,,,,,,,,,,,,,,,,,,
1732157463.794173,1732157463.795970,100.000000,0.000000,4290.641113,4314.871582,4315.769043,4301.794922,4289.102539,4269.102539,4333.333496,4401.410156,4314.230957,4311.025879,4475.641113,4511.794922,4386.538574,4407.179688,1698.000000,1.000000,24.000000,,,,0.000000,2.000000,2.000000,0.000000,4.000000,2.000000,2.000000,0.000000,0.000000,4.000000,4.000000,4.000000,4.000000,4.000000,4.000000,0.000000,,,,,,,,,,,,,,,,,25.000000,0.000000,0.497795,0.504517,-0.529358,0.466309,0.971310,0.015139,-0.079600,-35.628014,45.341545,31.224026
1732157463.801981,1732157463.803778,101.000000,0.000000,4281.153809,4308.974121,4315.641113,4293.846191,4285.512695,4263.717773,4334.615234,4400.384766,4298.589844,4293.974121,4464.871582,4506.538574,4376.410156,4391.025879,1651.000000,1.000000,24.000000,,,,0.000000,2.000000,2.000000,0.000000,4.000000,2.000000,2.000000,0.000000,0.000000,4.000000,4.000000,4.000000,4.000000,4.000000,4.000000,0.000000,,,,,,,,,,,,,,,,,,,,,,,,,,,,
1732157463.809789,1732157463.811786,102.000000,0.000000,4279.871582,4305.897461,4317.179688,4295.641113,4287.820313,4271.153809,4334.743652,4399.230957,4292.436035,4288.205078,4459.230957,4503.205078,4372.179688,4386.666504,1536.000000,1.000000,24.000000,,,,0.000000,2.000000,2.000000,0.000000,4.000000,2.000000,2.000000,0.000000,0.000000,4.000000,4.000000,4.000000,4.000000,4.000000,4.000000,0.000000,,,,,,,,,,,,,,,,,,,,,,,,,,,,
1732157463.817598,1732157463.819594,103.000000,0.000000,4289.230957,4305.769043,4316.794922,4298.205078,4283.717773,4274.487305,4335.256348,4400.128418,4302.692383,4301.153809,4464.487305,4505.769043,4379.358887,4389.358887,1569.000000,1.000000,24.000000,,,,0.000000,2.000000,2.000000,0.000000,4.000000,2.000000,2.000000,0.000000,0.000000,4.000000,4.000000,4.000000,4.000000,4.000000,4.000000,0.000000,,,,,,,,,,,,,,,,,,,,,,,,,,,,
1732157463.825406,1732157463.827502,104.000000,0.000000,4290.512695,4308.589844,4316.153809,4297.436035,4280.128418,4274.230957,4336.794922,4401.666504,4308.974121,4302.436035,4464.615234,4506.025879,4380.769043,4388.077148,1698.000000,1.000000,24.000000,,,,0.000000,2.000000,2.000000,0.000000,4.000000,2.000000,2.000000,0.000000,0.000000,4.000000,4.000000,4.000000,4.000000,4.000000,4.000000,0.000000,,,,,,,,,,,,,,,,,26.000000,0.000000,0.498048,0.504150,-0.531555,0.463928,0.967892,0.034672,-0.083018,-35.683689,45.311653,31.204794
1732157463.833214,1732157463.835310,105.000000,0.000000,4281.025879,4309.743652,4316.282227,4295.384766,4280.769043,4276.025879,4334.615234,4399.615234,4306.282227,4299.230957,4461.410156,4504.743652,4380.000000,4391.922852,1651.000000,1.000000,24.000000,,,,0.000000,2.000000,2.000000,0.000000,4.000000,2.000000,2.000000,0.000000,0.000000,4.000000,4.000000,4.000000,4.000000,4.000000,4.000000,0.000000,,,,,,,,,,,,,,,,,,,,,,,,,,,,
1732157463.841022,1732157463.843118,106.000000,0.000000,4277.051270,4304.230957,4319.358887,4292.563965,4280.641113,4277.307617,4332.179688,4396.922852,4301.666504,4299.615234,4460.256348,4505.512695,4378.717773,4390.256348,1536.000000,1.000000,24.000000,,,,0.000000,2.000000,2.000000,0.000000,4.000000,2.000000,2.000000,0.000000,0.000000,4.000000,4.000000,4.000000,4.000000,4.000000,4.000000,0.000000,,,,,,,,,,,,,,,,,,,,,,,,,,,,
1732157463.848831,1732157463.850927,107.000000,0.000000,4280.256348,4304.230957,4320.641113,4294.230957,4281.538574,4278.333496,4333.974121,4398.333496,4307.820313,4301.538574,4460.769043,4502.692383,4373.333496,4382.307617,1569.000000,1.000000,24.000000,,,,0.000000,2.000000,2.000000,0.000000,4.000000,2.000000,2.000000,0.000000,0.000000,4.000000,4.000000,4.000000,4.000000,4.000000,4.000000,0.000000,,,,,,,,,,,,,,,,,,,,,,,,,,,,
1732157463.856639,1732157463.858635,108.000000,0.000000,4282.179688,4307.179688,4317.179688,4297.563965,4284.358887,4281.282227,4334.743652,4400.000000,4319.358887,4310.128418,4464.230957,4496.410156,4375.897461,4384.871582,1698.000000,1.000000,24.000000,,,,0.000000,2.000000,2.000000,0.000000,4.000000,2.000000,2.000000,0.000000,0.000000,4.000000,4.000000,4.000000,4.000000,4.000000,4.000000,0.000000,,,,,,,,,,,,,,,,,27.000000,0.000000,0.497980,0.503967,-0.532166,0.463501,0.967892,0.034672,-0.083018,-35.585457,45.030773,31.324217
1732157463.864447,1732157463.866443,109.000000,0.000000,4280.384766,4301.794922,4317.179688,4295.641113,4282.436035,4280.000000,4333.717773,4398.846191,4314.487305,4312.820313,4463.333496,4491.538574,4383.077148,4389.102539,1651.000000,1.000000,24.000000,,,,0.000000,2.000000,2.000000,0.000000,4.000000,2.000000,2.000000,0.000000,0.000000,4.000000,4.000000,4.000000,4.000000,4.000000,4.000000,0.000000,,,,,,,,,,,,,,,,,,,,,,,,,,,,
1732157463.872255,1732157463.874052,110.000000,0.000000,4278.589844,4295.512695,4320.512695,4294.358887,4280.641113,4279.230957,4334.743652,4399.358887,4305.384766,4306.922852,4456.794922,4488.974121,4378.205078,4381.025879,1536.000000,1.000000,24.000000,,,,0.000000,2.000000,2.000000,0.000000,4.000000,2.000000,2.000000,0.000000,0.000000,4.000000,4.000000,4.000000,4.000000,4.000000,4.000000,0.000000,,,,,,,,,,,,,,,,,,,,,,,,,,,,
1732157463.880063,1732157463.881860,111.000000,0.000000,4278.846191,4297.820313,4321.410156,4296.153809,4284.102539,4287.051270,4336.025879,4401.538574,4311.282227,4311.025879,4457.179688,4489.743652,4372.563965,4381.410156,1569.000000,1.000000,24.000000,,,,0.000000,2.000000,2.000000,0.000000,4.000000,2.000000,2.000000,0.000000,0.000000,4.000000,4.000000,4.000000,4.000000,4.000000,4.000000,0.000000,,,,,,,,,,,,,,,,,,,,,,,,,,,,
1732157463.887872,1732157463.889568,112.000000,0.000000,4280.769043,4302.820313,4322.820313,4296.922852,4286.794922,4290.512695,4335.897461,4400.769043,4312.820313,4308.974121,4462.436035,4493.333496,4375.128418,4393.077148,1698.000000,1.000000,24.000000,,,,0.000000,2.000000,2.000000,0.000000,4.000000,2.000000,2.000000,0.000000,0.000000,4.000000,4.000000,4.000000,4.000000,4.000000,4.000000,0.000000,,,,,,,,,,,,,,,,,28.000000,0.000000,0.497616,0.503052,-0.533264,0.463623,0.949823,0.015139,-0.098157,-35.602554,45.144924,31.270948
1732157463.895680,1732157463.897376,113.000000,0.000000,4278.846191,4297.692383,4322.051270,4294.871582,4283.717773,4286.922852,4335.897461,4401.410156,4310.384766,4296.282227,4461.538574,4494.102539,4373.077148,4391.538574,1651.000000,1.000000,24.000000,,,,0.000000,2.000000,2.000000,0.000000,4.000000,2.000000,2.000000,0.000000,0.000000,4.000000,4.000000,4.000000,4.000000,4.000000,4.000000,0.000000,,,,,,,,,,,,,,,,,,,,,,,,,,,,
1732157463.903488,1732157463.904985,114.000000,0.000000,4277.948730,4291.282227,4320.128418,4293.717773,4279.487305,4284.871582,4335.384766,4402.948730,4312.692383,4298.077148,4458.717773,4491.282227,4367.436035,4382.692383,1536.000000,1.000000,24.000000,,,,0.000000,2.000000,2.000000,0.000000,4.000000,2.000000,2.000000,0.000000,0.000000,4.000000,4.000000,4.000000,4.000000,4.000000,4.000000,0.000000,,,,,,,,,,,,,,,,,,,,,,,,,,,,
1732157463.911296,1732157463.912793,115.000000,0.000000,4277.563965,4292.179688,4322.307617,4294.743652,4282.179688,4283.974121,4334.230957,4400.641113,4308.205078,4302.051270,4456.794922,4489.743652,4366.282227,4381.922852,1569.000000,1.000000,24.000000,,,,0.000000,2.000000,2.000000,0.000000,4.000000,2.000000,2.000000,0.000000,0.000000,4.000000,4.000000,4.000000,4.000000,4.000000,4.000000,0.000000,,,,,,,,,,,,,,,,,,,,,,,,,,,,
1732157463.919105,1732157463.920501,116.000000,0.000000,4274.743652,4293.974121,4322.307617,4296.025879,4286.922852,4283.589844,4334.102539,4400.512695,4310.256348,4302.051270,4457.436035,4492.051270,4368.846191,4383.717773,1698.000000,1.000000,24.000000,,,,0.000000,2.000000,2.000000,0.000000,4.000000,2.000000,2.000000,0.000000,0.000000,4.000000,4.000000,4.000000,4.000000,4.000000,4.000000,0.000000,,,,,,,,,,,,,,,,,29.000000,0.000000,0.497203,0.503479,-0.532715,0.464233,0.963008,0.004395,-0.086925,-35.649734,45.205723,31.204468
1732157463.926913,1732157463.928309,117.000000,0.000000,4273.717773,4291.153809,4320.128418,4296.025879,4288.077148,4284.230957,4334.487305,4403.846191,4321.538574,4307.820313,4459.230957,4492.307617,4367.692383,4385.641113,1651.000000,1.000000,24.000000,,,,0.000000,2.000000,2.000000,0.000000,4.000000,2.000000,2.000000,0.000000,0.000000,4.000000,4.000000,4.000000,4.000000,4.000000,4.000000,0.000000,,,,,,,,,,,,,,,,,,,,,,,,,,,,
1732157463.934721,1732157463.935918,118.000000,0.000000,4276.025879,4291.025879,4321.922852,4295.769043,4291.410156,4281.153809,4334.615234,4401.922852,4316.538574,4308.974121,4458.461426,4490.897461,4367.948730,4391.025879,1536.000000,1.000000,24.000000,,,,0.000000,2.000000,2.000000,0.000000,4.000000,2.000000,2.000000,0.000000,0.000000,4.000000,4.000000,4.000000,4.000000,4.000000,4.000000,0.000000,,,,,,,,,,,,,,,,,,,,,,,,,,,,
1732157463.942530,1732157463.943726,119.000000,0.000000,4278.333496,4295.641113,4322.051270,4295.128418,4293.461426,4277.820313,4335.128418,4395.769043,4305.128418,4297.820313,4457.436035,4493.717773,4372.051270,4390.256348,1569.000000,1.000000,24.000000,,,,0.000000,2.000000,2.000000,0.000000,4.000000,2.000000,2.000000,0.000000,0.000000,4.000000,4.000000,4.000000,4.000000,4.000000,4.000000,0.000000,,,,,,,,,,,,,,,,,,,,,,,,,,,,
1732157463.950338,1732157463.951434,120.000000,0.000000,4278.205078,4294.102539,4320.128418,4292.563965,4292.563965,4280.256348,4334.871582,4397.563965,4314.871582,4300.128418,4460.000000,4499.102539,4373.077148,4384.743652,1698.000000,1.000000,24.000000,,,,0.000000,2.000000,2.000000,0.000000,4.000000,2.000000,2.000000,0.000000,0.000000,4.000000,4.000000,4.000000,4.000000,4.000000,4.000000,0.000000,,,,,,,,,,,,,,,,,30.000000,0.000000,0.497068,0.503662,-0.532349,0.464600,0.959101,-0.015139,-0.075204,-35.691284,45.233303,31.037287
1732157463.958146,1732157463.959243,121.000000,0.000000,4277.436035,4288.974121,4320.897461,4291.538574,4292.820313,4279.615234,4335.384766,4402.051270,4320.000000,4312.948730,4462.948730,4501.666504,4371.282227,4389.102539,1651.000000,1.000000,24.000000,,,,0.000000,2.000000,2.000000,0.000000,4.000000,2.000000,2.000000,0.000000,0.000000,4.000000,4.000000,4.000000,4.000000,4.000000,4.000000,0.000000,,,,,,,,,,,,,,,,,,,,,,,,,,,,
1732157463.965954,1732157463.967251,122.000000,0.000000,4283.461426,4291.025879,4320.000000,4295.000000,4295.512695,4274.871582,4337.179688,4399.358887,4304.230957,4306.666504,4464.358887,4500.897461,4371.922852,4396.794922,1536.000000,1.000000,24.000000,,,,0.000000,2.000000,2.000000,0.000000,4.000000,2.000000,2.000000,0.000000,0.000000,4.000000,4.000000,4.000000,4.000000,4.000000,4.000000,0.000000,,,,,,,,,,,,,,,,,,,,,,,,,,,,
1732157463.973762,1732157463.975059,123.000000,0.000000,4289.102539,4295.000000,4318.846191,4297.179688,4296.410156,4278.717773,4337.307617,4399.871582,4304.358887,4297.307617,4463.974121,4500.000000,4371.794922,4396.794922,1569.000000,1.000000,24.000000,,,,0.000000,2.000000,2.000000,0.000000,4.000000,2.000000,2.000000,0.000000,0.000000,4.000000,4.000000,4.000000,4.000000,4.000000,4.000000,0.000000,,,,,,,,,,,,,,,,,,,,,,,,,,,,
1732157463.981571,1732157463.982767,124.000000,0.000000,4284.358887,4294.871582,4319.230957,4296.153809,4295.384766,4281.666504,4335.769043,4404.102539,4312.051270,4299.615234,4462.692383,4496.410156,4366.410156,4394.871582,1698.000000,1.000000,24.000000,,,,0.000000,2.000000,2.000000,0.000000,4.000000,2.000000,2.000000,0.000000,0.000000,4.000000,4.000000,4.000000,4.000000,4.000000,4.000000,0.000000,,,,,,,,,,,,,,,,,31.000000,0.000000,0.496594,0.503784,-0.531982,0.465393,0.981565,-0.019045,-0.076181,-35.844940,45.347309,31.188536
1732157463.989379,1732157463.990575,125.000000,0.000000,4282.563965,4292.692383,4317.051270,4295.897461,4295.897461,4278.589844,4334.871582,4403.205078,4307.051270,4306.153809,4467.179688,4497.307617,4363.205078,4397.820313,1651.000000,1.000000,24.000000,,,,0.000000,2.000000,2.000000,0.000000,4.000000,2.000000,2.000000,0.000000,0.000000,4.000000,4.000000,4.000000,4.000000,4.000000,4.000000,0.000000,,,,,,,,,,,,,,,,,,,,,,,,,,,,
1732157463.997187,1732157463.998184,126.000000,0.000000,4292.436035,4290.000000,4315.256348,4296.794922,4298.077148,4282.179688,4334.615234,4401.025879,4316.794922,4314.358887,4476.025879,4503.333496,4372.051270,4401.025879,1536.000000,1.000000,24.000000,,,,0.000000,2.000000,2.000000,0.000000,4.000000,2.000000,2.000000,0.000000,0.000000,4.000000,4.000000,4.000000,4.000000,4.000000,4.000000,0.000000,,,,,,,,,,,,,,,,,,,,,,,,,,,,
1732157464.004995,1732157464.005992,127.000000,0.000000,4295.256348,4283.589844,4314.615234,4296.410156,4304.743652,4287.179688,4334.743652,4402.820313,4331.153809,4319.743652,4478.974121,4505.512695,4379.358887,4399.871582,24.000000,1.000000,24.000000,,,,0.000000,2.000000,2.000000,0.000000,4.000000,2.000000,2.000000,0.000000,0.000000,4.000000,4.000000,4.000000,4.000000,4.000000,4.000000,0.000000,,,,,,,,,,,,,,,,,,,,,,,,,,,,
1732157464.012804,1732157464.013900,0.000000,0.000000,4288.974121,4284.487305,4317.436035,4297.436035,4305.384766,4283.077148,4335.769043,4401.794922,4314.743652,4310.897461,4476.153809,4500.512695,4371.794922,4397.692383,0.000000,1.000000,24.000000,,,,0.000000,2.000000,2.000000,0.000000,4.000000,2.000000,2.000000,0.000000,0.000000,4.000000,4.000000,4.000000,4.000000,4.000000,4.000000,0.000000,,,,,,,,,,,,,,,,,0.000000,0.000000,0.495639,0.502869,-0.532776,0.466492,1.001099,-0.024905,-0.080088,-35.712734,45.476318,31.211046
1732157464.020612,1732157464.021708,1.000000,0.000000,4289.615234,4291.922852,4321.666504,4297.948730,4301.025879,4277.436035,4335.512695,4398.077148,4301.666504,4304.358887,4476.153809,4497.179688,4367.436035,4398.717773,1589.000000,1.000000,24.000000,,,,0.000000,2.000000,2.000000,0.000000,4.000000,2.000000,2.000000,0.000000,0.000000,4.000000,4.000000,4.000000,4.000000,4.000000,4.000000,0.000000,,,,,,,,,,,,,,,,,,,,,,,,,,,,
1732157464.028420,1732157464.029716,2.000000,0.000000,4289.615234,4288.077148,4320.897461,4295.512695,4311.922852,4276.410156,4334.358887,4400.128418,4316.538574,4312.563965,4478.205078,4502.692383,4372.307617,4398.717773,1372.000000,1.000000,24.000000,,,,0.000000,2.000000,2.000000,0.000000,4.000000,2.000000,2.000000,0.000000,0.000000,4.000000,4.000000,4.000000,4.000000,4.000000,4.000000,0.000000,,,,,,,,,,,,,,,,,,,,,,,,,,,,
1732157464.036228,1732157464.037525,3.000000,0.000000,4282.948730,4282.051270,4318.077148,4293.461426,4316.666504,4276.538574,4335.256348,4404.358887,4321.025879,4313.846191,4477.179688,4505.384766,4369.102539,4396.794922,1412.000000,1.000000,24.000000,,,,0.000000,2.000000,2.000000,0.000000,4.000000,2.000000,2.000000,0.000000,0.000000,4.000000,4.000000,4.000000,4.000000,4.000000,4.000000,0.000000,,,,,,,,,,,,,,,,,,,,,,,,,,,,
1732157464.044037,1732157464.045433,4.000000,0.000000,4284.743652,4286.410156,4321.538574,4298.589844,4298.077148,4279.230957,4336.153809,4403.717773,4310.512695,4309.615234,4477.948730,4505.256348,4365.000000,4400.128418,1419.000000,1.000000,24.000000,,,,0.000000,2.000000,2.000000,0.000000,4.000000,2.000000,2.000000,0.000000,0.000000,4.000000,4.000000,4.000000,4.000000,4.000000,4.000000,0.000000,,,,,,,,,,,,,,,,,1.000000,0.000000,0.495639,0.502869,-0.532776,0.466492,0.969357,-0.024417,-0.074716,-35.530647,45.535820,31.109282
1732157464.051845,1732157464.053241,5.000000,0.000000,4294.743652,4288.333496,4321.794922,4305.897461,4288.589844,4283.077148,4335.769043,4399.871582,4309.743652,4310.256348,4476.282227,4505.000000,4368.589844,4402.436035,1220.000000,1.000000,24.000000,,,,0.000000,2.000000,2.000000,0.000000,4.000000,2.000000,2.000000,0.000000,0.000000,4.000000,4.000000,4.000000,4.000000,4.000000,4.000000,0.000000,,,,,,,,,,,,,,,,,,,,,,,,,,,,
1732157464.059653,1732157464.061249,6.000000,0.000000,4296.153809,4288.077148,4317.436035,4307.179688,4296.538574,4280.000000,4335.769043,4399.615234,4314.615234,4311.538574,4476.153809,4506.025879,4368.205078,4404.102539,0.000000,1.000000,24.000000,,,,0.000000,2.000000,2.000000,0.000000,4.000000,2.000000,2.000000,0.000000,0.000000,4.000000,4.000000,4.000000,4.000000,4.000000,4.000000,0.000000,,,,,,,,,,,,,,,,,,,,,,,,,,,,
1732157464.067461,1732157464.069057,7.000000,0.000000,4292.948730,4291.538574,4318.717773,4306.153809,4297.692383,4278.461426,4335.897461,4405.256348,4314.487305,4307.948730,4481.666504,4507.820313,4363.846191,4410.128418,0.000000,1.000000,24.000000,,,,0.000000,2.000000,2.000000,0.000000,4.000000,2.000000,2.000000,0.000000,0.000000,4.000000,4.000000,4.000000,4.000000,4.000000,4.000000,0.000000,,,,,,,,,,,,,,,,,,,,,,,,,,,,
1732157464.075270,1732157464.076965,8.000000,0.000000,4295.384766,4286.666504,4321.794922,4306.538574,4293.846191,4281.922852,4336.025879,4409.487305,4312.692383,4307.436035,4487.436035,4508.461426,4365.256348,4413.589844,1523.000000,1.000000,24.000000,,,,0.000000,2.000000,2.000000,0.000000,4.000000,2.000000,2.000000,0.000000,0.000000,4.000000,4.000000,4.000000,4.000000,4.000000,4.000000,0.000000,,,,,,,,,,,,,,,,,2.000000,0.000000,0.495546,0.501648,-0.534119,0.466370,0.975705,-0.007813,-0.078135,-35.619827,45.592346,31.246851
1732157464.083078,1732157464.084773,9.000000,0.000000,4294.871582,4280.128418,4319.743652,4305.641113,4294.230957,4279.615234,4335.641113,4408.333496,4315.384766,4314.230957,4490.000000,4509.230957,4369.102539,4411.666504,1680.000000,1.000000,24.000000,,,,0.000000,2.000000,2.000000,0.000000,4.000000,2.000000,2.000000,0.000000,0.000000,4.000000,4.000000,4.000000,4.000000,4.000000,4.000000,0.000000,,,,,,,,,,,,,,,,,,,,,,,,,,,,
1732157464.090886,1732157464.092781,10.000000,0.000000,4292.307617,4285.512695,4321.025879,4307.692383,4294.743652,4276.282227,4335.769043,4404.743652,4312.563965,4308.077148,4484.230957,4507.051270,4365.641113,4411.153809,1536.000000,1.000000,24.000000,,,,0.000000,2.000000,2.000000,0.000000,4.000000,2.000000,2.000000,0.000000,0.000000,4.000000,4.000000,4.000000,4.000000,4.000000,4.000000,0.000000,,,,,,,,,,,,,,,,,,,,,,,,,,,,
1732157464.098694,1732157464.100590,11.000000,0.000000,4293.333496,4286.410156,4322.692383,4312.692383,4297.820313,4278.846191,4336.410156,4401.794922,4304.615234,4292.948730,4477.179688,4505.384766,4356.794922,4412.563965,1569.000000,1.000000,24.000000,,,,0.000000,2.000000,2.000000,0.000000,4.000000,2.000000,2.000000,0.000000,0.000000,4.000000,4.000000,4.000000,4.000000,4.000000,4.000000,0.000000,,,,,,,,,,,,,,,,,,,,,,,,,,,,
1732157464.106503,1732157464.108498,12.000000,0.000000,4293.205078,4280.512695,4319.358887,4308.589844,4297.692383,4280.128418,4335.128418,4401.410156,4311.153809,4301.025879,4481.025879,4510.000000,4352.436035,4411.666504,1700.000000,1.000000,24.000000,,,,0.000000,2.000000,2.000000,0.000000,4.000000,2.000000,2.000000,0.000000,0.000000,4.000000,4.000000,4.000000,4.000000,4.000000,4.000000,0.000000,,,,,,,,,,,,,,,,,3.000000,0.000000,0.495886,0.500977,-0.534912,0.465820,0.970822,0.005372,-0.086436,-35.660393,45.726467,31.118282
1732157464.114311,1732157464.116306,13.000000,0.000000,4294.358887,4281.153809,4316.153809,4307.179688,4293.205078,4274.102539,4333.589844,4402.179688,4317.563965,4315.512695,4491.538574,4517.948730,4355.512695,4414.615234,1659.000000,1.000000,24.000000,,,,0.000000,2.000000,2.000000,0.000000,4.000000,2.000000,2.000000,0.000000,0.000000,4.000000,4.000000,4.000000,4.000000,4.000000,4.000000,0.000000,,,,,,,,,,,,,,,,,,,,,,,,,,,,
1732157464.122119,1732157464.124314,14.000000,0.000000,4296.666504,4283.717773,4319.102539,4314.230957,4296.282227,4274.615234,4334.871582,4402.051270,4308.589844,4305.897461,4489.487305,4520.256348,4353.974121,4415.897461,1536.000000,1.000000,24.000000,,,,0.000000,2.000000,2.000000,0.000000,4.000000,2.000000,2.000000,0.000000,0.000000,4.000000,4.000000,4.000000,4.000000,4.000000,4.000000,0.000000,1.000000,0.000000,2.000000,2.000000,0.000000,4.000000,2.000000,2.000000,0.000000,0.000000,3.000000,4.000000,4.000000,4.000000,4.000000,4.000000,,,,,,,,,,,,
1732157464.129927,1732157464.132122,15.000000,0.000000,4293.205078,4280.512695,4322.179688,4312.820313,4301.025879,4285.000000,4336.666504,4401.794922,4311.794922,4300.512695,4479.743652,4514.871582,4343.846191,4404.743652,1569.000000,1.000000,24.000000,,,,0.000000,2.000000,2.000000,0.000000,4.000000,2.000000,2.000000,0.000000,0.000000,4.000000,4.000000,4.000000,4.000000,4.000000,4.000000,0.000000,,,,,,,,,,,,,,,,,,,,,,,,,,,,
1732157464.137735,1732157464.140030,16.000000,0.000000,4290.769043,4280.641113,4319.871582,4307.307617,4297.436035,4288.461426,4335.384766,4401.538574,4322.436035,4312.307617,4478.205078,4509.871582,4337.307617,4394.615234,0.000000,1.000000,24.000000,,,,0.000000,2.000000,2.000000,0.000000,4.000000,2.000000,2.000000,0.000000,0.000000,4.000000,4.000000,4.000000,4.000000,4.000000,4.000000,0.000000,,,,,,,,,,,,,,,,,4.000000,0.000000,0.496319,0.500732,-0.535217,0.465271,0.982542,-0.008790,-0.081065,-35.793251,45.648438,31.202477
1732157464.145544,1732157464.147838,17.000000,0.000000,4294.487305,4282.179688,4317.051270,4309.871582,4297.307617,4284.358887,4333.205078,4403.846191,4316.282227,4313.461426,4478.205078,4507.436035,4335.128418,4395.512695,0.000000,1.000000,24.000000,,,,0.000000,2.000000,2.000000,0.000000,4.000000,2.000000,2.000000,0.000000,0.000000,4.000000,4.000000,4.000000,4.000000,4.000000,4.000000,0.000000,,,,,,,,,,,,,,,,,,,,,,,,,,,,
1732157464.153352,1732157464.155846,18.000000,0.000000,4294.615234,4279.743652,4318.974121,4312.179688,4301.794922,4280.769043,4334.358887,4404.615234,4313.077148,4308.077148,4477.948730,4507.948730,4331.794922,4396.538574,0.000000,1.000000,24.000000,,,,0.000000,2.000000,2.000000,0.000000,4.000000,2.000000,2.000000,0.000000,0.000000,4.000000,4.000000,4.000000,4.000000,4.000000,4.000000,0.000000,,,,,,,,,,,,,,,,,,,,,,,,,,,,
1732157464.161160,1732157464.163655,19.000000,0.000000,4291.025879,4277.179688,4322.179688,4307.051270,4299.615234,4282.051270,4336.410156,4403.333496,4318.333496,4307.692383,4476.666504,4508.589844,4326.922852,4393.846191,0.000000,1.000000,24.000000,,,,0.000000,2.000000,2.000000,0.000000,4.000000,2.000000,2.000000,0.000000,0.000000,4.000000,4.000000,4.000000,4.000000,4.000000,4.000000,0.000000,,,,,,,,,,,,,,,,,,,,,,,,,,,,
1732157464.168969,1732157464.171563,20.000000,0.000000,4292.051270,4277.692383,4321.410156,4307.179688,4298.846191,4287.436035,4335.641113,4403.333496,4313.205078,4306.025879,4474.743652,4506.153809,4323.974121,4396.666504,0.000000,1.000000,24.000000,,,,0.000000,2.000000,2.000000,0.000000,4.000000,2.000000,2.000000,0.000000,0.000000,4.000000,4.000000,4.000000,4.000000,4.000000,4.000000,0.000000,,,,,,,,,,,,,,,,,5.000000,0.000000,0.496473,0.500732,-0.535339,0.464966,0.982542,-0.008790,-0.081065,-35.990868,45.936901,31.164005
1732157464.176777,1732157464.179371,21.000000,0.000000,4293.846191,4276.794922,4318.717773,4309.615234,4303.205078,4289.615234,4334.615234,4403.461426,4308.589844,4304.358887,4476.666504,4505.128418,4323.717773,4398.205078,0.000000,1.000000,24.000000,,,,0.000000,2.000000,2.000000,0.000000,4.000000,2.000000,2.000000,0.000000,0.000000,4.000000,4.000000,4.000000,4.000000,4.000000,4.000000,0.000000,,,,,,,,,,,,,,,,,,,,,,,,,,,,
1732157464.184585,1732157464.186979,22.000000,0.000000,4295.128418,4276.282227,4318.205078,4308.717773,4300.000000,4281.794922,4335.384766,4401.410156,4311.794922,4304.743652,4479.743652,4506.410156,4326.538574,4397.051270,0.000000,1.000000,24.000000,,,,0.000000,2.000000,2.000000,0.000000,4.000000,2.000000,2.000000,0.000000,0.000000,4.000000,4.000000,4.000000,4.000000,4.000000,4.000000,0.000000,,,,,,,,,,,,,,,,,,,,,,,,,,,,
1732157464.192393,1732157464.194788,23.000000,0.000000,4298.205078,4277.307617,4319.615234,4309.230957,4295.384766,4279.615234,4336.153809,4402.436035,4311.666504,4302.436035,4480.384766,4509.102539,4325.128418,4400.641113,0.000000,1.000000,24.000000,,,,0.000000,2.000000,2.000000,0.000000,4.000000,2.000000,2.000000,0.000000,0.000000,4.000000,4.000000,4.000000,4.000000,4.000000,4.000000,0.000000,,,,,,,,,,,,,,,,,,,,,,,,,,,,
1732157464.200202,1732157464.202496,24.000000,0.000000,4298.077148,4273.589844,4319.487305,4308.077148,4296.794922,4291.794922,4335.897461,4406.410156,4310.769043,4298.846191,4475.769043,4507.948730,4313.461426,4395.769043,0.000000,1.000000,24.000000,,,,0.000000,2.000000,2.000000,0.000000,4.000000,2.000000,2.000000,0.000000,0.000000,4.000000,4.000000,4.000000,4.000000,4.000000,4.000000,0.000000,,,,,,,,,,,,,,,,,6.000000,0.000000,0.496530,0.500854,-0.535278,0.464844,0.975705,-0.001465,-0.083018,-35.954269,45.853889,31.121178
1732157464.208010,1732157464.210304,25.000000,0.000000,4296.794922,4277.051270,4320.128418,4309.230957,4298.333496,4291.282227,4335.000000,4404.102539,4308.461426,4295.897461,4471.794922,4506.025879,4310.000000,4388.461426,0.000000,1.000000,24.000000,,,,0.000000,2.000000,2.000000,0.000000,4.000000,2.000000,2.000000,0.000000,0.000000,4.000000,4.000000,4.000000,4.000000,4.000000,4.000000,0.000000,,,,,,,,,,,,,,,,,,,,,,,,,,,,
1732157464.215818,1732157464.217912,26.000000,0.000000,4298.333496,4285.512695,4319.615234,4313.077148,4299.871582,4284.102539,4334.743652,4401.794922,4307.307617,4296.538574,4473.333496,4506.794922,4317.563965,4393.333496,0.000000,1.000000,24.000000,,,,0.000000,2.000000,2.000000,0.000000,4.000000,2.000000,2.000000,0.000000,0.000000,4.000000,4.000000,4.000000,4.000000,4.000000,4.000000,0.000000,,,,,,,,,,,,,,,,,,,,,,,,,,,,
1732157464.223626,1732157464.225721,27.000000,0.000000,4297.307617,4276.922852,4316.410156,4310.128418,4301.410156,4287.436035,4335.384766,4404.102539,4305.512695,4297.307617,4471.922852,4506.410156,4318.717773,4393.717773,0.000000,1.000000,24.000000,,,,0.000000,2.000000,2.000000,0.000000,4.000000,2.000000,2.000000,0.000000,0.000000,4.000000,4.000000,4.000000,4.000000,4.000000,4.000000,0.000000,,,,,,,,,,,,,,,,,,,,,,,,,,,,
1732157464.231434,1732157464.233429,28.000000,0.000000,4293.974121,4269.358887,4318.205078,4306.153809,4302.179688,4285.641113,4334.615234,4403.077148,4297.563965,4290.641113,4466.538574,4505.256348,4312.820313,4386.538574,0.000000,1.000000,24.000000,,,,0.000000,2.000000,2.000000,0.000000,4.000000,2.000000,2.000000,0.000000,0.000000,4.000000,4.000000,4.000000,4.000000,4.000000,4.000000,0.000000,,,,,,,,,,,,,,,,,7.000000,0.000000,0.496569,0.501343,-0.535156,0.464417,0.966915,-0.004395,-0.100598,-36.007957,45.819984,31.086487
1732157464.239243,1732157464.241237,29.000000,0.000000,4295.000000,4279.615234,4323.461426,4312.692383,4302.692383,4281.922852,4333.717773,4401.666504,4298.589844,4287.692383,4467.948730,4505.000000,4311.794922,4391.282227,0.000000,1.000000,24.000000,,,,0.000000,2.000000,2.000000,0.000000,4.000000,2.000000,2.000000,0.000000,0.000000,4.000000,4.000000,4.000000,4.000000,4.000000,4.000000,0.000000,,,,,,,,,,,,,,,,,,,,,,,,,,,,
1732157464.247051,1732157464.248846,30.000000,0.000000,4294.743652,4281.282227,4322.820313,4315.384766,4300.769043,4289.743652,4333.974121,4401.025879,4311.410156,4294.871582,4474.871582,4505.128418,4314.871582,4395.641113,0.000000,1.000000,24.000000,,,,0.000000,2.000000,2.000000,0.000000,4.000000,2.000000,2.000000,0.000000,0.000000,4.000000,4.000000,4.000000,4.000000,4.000000,4.000000,0.000000,,,,,,,,,,,,,,,,,,,,,,,,,,,,
1732157464.254859,1732157464.256654,31.000000,0.000000,4290.641113,4270.000000,4318.974121,4309.230957,4300.128418,4290.512695,4333.717773,4400.384766,4311.922852,4297.307617,4473.846191,4504.615234,4313.589844,4385.384766,0.000000,1.000000,24.000000,,,,0.000000,2.000000,2.000000,0.000000,4.000000,2.000000,2.000000,0.000000,0.000000,4.000000,4.000000,4.000000,4.000000,4.000000,4.000000,0.000000,,,,,,,,,,,,,,,,,,,,,,,,,,,,
1732157464.262668,1732157464.264362,32.000000,0.000000,4292.307617,4273.717773,4320.000000,4310.128418,4303.846191,4285.256348,4334.102539,4401.410156,4303.077148,4293.717773,4470.000000,4505.769043,4312.307617,4381.922852,0.000000,1.000000,24.000000,,,,0.000000,2.000000,2.000000,0.000000,4.000000,2.000000,2.000000,0.000000,0.000000,4.000000,4.000000,4.000000,4.000000,4.000000,4.000000,0.000000,,,,,,,,,,,,,,,,,8.000000,0.000000,0.496555,0.501526,-0.535156,0.464233,0.966915,-0.004395,-0.100598,-35.923111,45.872520,31.050055
1732157464.270476,1732157464.272170,33.000000,0.000000,4294.230957,4277.692383,4319.102539,4312.563965,4304.230957,4291.282227,4336.538574,4403.333496,4304.743652,4293.846191,4472.051270,4506.922852,4314.871582,4389.743652,0.000000,1.000000,24.000000,,,,0.000000,2.000000,2.000000,0.000000,4.000000,2.000000,2.000000,0.000000,0.000000,4.000000,4.000000,4.000000,4.000000,4.000000,4.000000,0.000000,,,,,,,,,,,,,,,,,,,,,,,,,,,,
1732157464.278284,1732157464.279779,34.000000,0.000000,4293.077148,4268.974121,4316.666504,4310.128418,4302.563965,4287.948730,4339.102539,4401.922852,4307.692383,4296.025879,4472.948730,4505.641113,4314.230957,4390.128418,0.000000,1.000000,24.000000,,,,0.000000,2.000000,2.000000,0.000000,4.000000,2.000000,2.000000,0.000000,0.000000,4.000000,4.000000,4.000000,4.000000,4.000000,4.000000,0.000000,,,,,,,,,,,,,,,,,,,,,,,,,,,,
1732157464.286092,1732157464.287587,35.000000,0.000000,4292.307617,4267.692383,4320.128418,4309.487305,4301.922852,4279.615234,4337.692383,4399.743652,4305.256348,4292.563965,4472.307617,4504.871582,4310.641113,4384.487305,0.000000,1.000000,24.000000,,,,0.000000,2.000000,2.000000,0.000000,4.000000,2.000000,2.000000,0.000000,0.000000,4.000000,4.000000,4.000000,4.000000,4.000000,4.000000,0.000000,,,,,,,,,,,,,,,,,,,,,,,,,,,,
1732157464.293901,1732157464.295295,36.000000,0.000000,4287.948730,4269.615234,4322.820313,4308.333496,4298.846191,4288.333496,4333.589844,4402.692383,4302.179688,4286.410156,4471.282227,4504.615234,4310.256348,4383.205078,0.000000,1.000000,24.000000,,,,0.000000,2.000000,2.000000,0.000000,4.000000,2.000000,2.000000,0.000000,0.000000,4.000000,4.000000,4.000000,4.000000,4.000000,4.000000,0.000000,,,,,,,,,,,,,,,,,9.000000,0.000000,0.497019,0.501770,-0.534973,0.463684,0.981077,-0.004395,-0.073251,-36.191055,46.118408,31.040545
1732157464.301709,1732157464.303103,37.000000,0.000000,4281.410156,4263.974121,4319.102539,4305.128418,4298.974121,4298.205078,4331.922852,4404.102539,4298.974121,4284.615234,4464.615234,4499.358887,4307.692383,4383.846191,0.000000,1.000000,24.000000,,,,0.000000,2.000000,2.000000,0.000000,4.000000,2.000000,2.000000,0.000000,0.000000,4.000000,4.000000,4.000000,4.000000,4.000000,4.000000,0.000000,,,,,,,,,,,,,,,,,,,,,,,,,,,,
1732157464.309517,1732157464.311111,38.000000,0.000000,4280.512695,4262.948730,4316.025879,4304.102539,4302.948730,4297.051270,4333.461426,4399.230957,4296.025879,4286.922852,4458.974121,4496.538574,4300.000000,4384.230957,0.000000,1.000000,24.000000,,,,0.000000,2.000000,2.000000,0.000000,4.000000,2.000000,2.000000,0.000000,0.000000,4.000000,4.000000,4.000000,4.000000,4.000000,4.000000,0.000000,,,,,,,,,,,,,,,,,,,,,,,,,,,,
1732157464.317325,1732157464.318920,39.000000,0.000000,4282.563965,4266.794922,4317.692383,4305.641113,4304.358887,4296.794922,4335.256348,4398.589844,4297.307617,4289.358887,4464.615234,4502.307617,4301.025879,4386.922852,0.000000,1.000000,24.000000,,,,0.000000,2.000000,2.000000,0.000000,4.000000,2.000000,2.000000,0.000000,0.000000,4.000000,4.000000,4.000000,4.000000,4.000000,4.000000,0.000000,,,,,,,,,,,,,,,,,,,,,,,,,,,,
1732157464.325133,1732157464.326628,40.000000,0.000000,4284.358887,4265.384766,4317.948730,4305.641113,4303.461426,4294.615234,4336.025879,4404.358887,4303.717773,4292.820313,4472.692383,4507.563965,4310.769043,4391.922852,0.000000,1.000000,24.000000,,,,0.000000,2.000000,2.000000,0.000000,4.000000,2.000000,2.000000,0.000000,0.000000,4.000000,4.000000,4.000000,4.000000,4.000000,4.000000,0.000000,,,,,,,,,,,,,,,,,10.000000,0.000000,0.497409,0.501709,-0.534668,0.463684,0.967403,0.012209,-0.072763,-36.119755,45.902576,30.709507
1732157464.332942,1732157464.334436,41.000000,0.000000,4291.282227,4263.846191,4316.025879,4306.282227,4300.000000,4288.846191,4336.538574,4402.692383,4304.615234,4297.563965,4473.846191,4507.820313,4314.358887,4397.692383,0.000000,1.000000,24.000000,,,,0.000000,2.000000,2.000000,0.000000,4.000000,2.000000,2.000000,0.000000,0.000000,4.000000,4.000000,4.000000,4.000000,4.000000,4.000000,0.000000,,,,,,,,,,,,,,,,,,,,,,,,,,,,
1732157464.340750,1732157464.342045,42.000000,0.000000,4294.743652,4266.538574,4320.000000,4309.358887,4301.666504,4291.794922,4336.025879,4400.256348,4300.641113,4297.051270,4473.205078,4507.307617,4310.512695,4397.563965,0.000000,1.000000,24.000000,,,,0.000000,2.000000,2.000000,0.000000,4.000000,2.000000,2.000000,0.000000,0.000000,4.000000,4.000000,4.000000,4.000000,4.000000,4.000000,0.000000,,,,,,,,,,,,,,,,,,,,,,,,,,,,
1732157464.348558,1732157464.349853,43.000000,0.000000,4291.282227,4267.051270,4321.794922,4310.384766,4318.717773,4296.153809,4335.256348,4403.205078,4295.641113,4290.512695,4472.179688,4504.743652,4309.871582,4392.563965,0.000000,1.000000,24.000000,,,,0.000000,2.000000,2.000000,0.000000,4.000000,2.000000,2.000000,0.000000,0.000000,4.000000,4.000000,4.000000,4.000000,4.000000,4.000000,0.000000,,,,,,,,,,,,,,,,,,,,,,,,,,,,
1732157464.356367,1732157464.357761,44.000000,0.000000,4291.666504,4267.051270,4315.641113,4308.846191,4322.179688,4292.436035,4335.256348,4402.820313,4296.153809,4292.051270,4472.563965,4506.153809,4314.871582,4392.948730,0.000000,1.000000,24.000000,,,,0.000000,2.000000,2.000000,0.000000,4.000000,2.000000,2.000000,0.000000,0.000000,4.000000,4.000000,4.000000,4.000000,4.000000,4.000000,0.000000,,,,,,,,,,,,,,,,,11.000000,0.000000,0.497646,0.501404,-0.534363,0.464111,0.974728,0.003907,-0.072274,-36.068668,45.767754,30.706367
1732157464.364175,1732157464.365569,45.000000,0.000000,4295.512695,4266.410156,4314.615234,4307.948730,4298.974121,4290.000000,4336.025879,4400.641113,4304.743652,4299.230957,4476.922852,4512.436035,4320.512695,4398.333496,0.000000,1.000000,24.000000,,,,0.000000,2.000000,2.000000,0.000000,4.000000,2.000000,2.000000,0.000000,0.000000,4.000000,4.000000,4.000000,4.000000,4.000000,4.000000,0.000000,,,,,,,,,,,,,,,,,,,,,,,,,,,,
1732157464.371983,1732157464.373178,46.000000,0.000000,4294.487305,4266.538574,4318.461426,4310.128418,4289.230957,4293.333496,4335.512695,4402.820313,4308.974121,4300.641113,4477.948730,4512.820313,4322.692383,4398.461426,0.000000,1.000000,24.000000,,,,0.000000,2.000000,2.000000,0.000000,4.000000,2.000000,2.000000,0.000000,0.000000,4.000000,4.000000,4.000000,4.000000,4.000000,4.000000,0.000000,,,,,,,,,,,,,,,,,,,,,,,,,,,,
1732157464.379791,1732157464.380986,47.000000,0.000000,4293.461426,4267.948730,4318.333496,4311.282227,4298.589844,4294.743652,4333.589844,4403.461426,4306.153809,4297.948730,4475.256348,4507.948730,4322.820313,4396.410156,0.000000,1.000000,24.000000,,,,0.000000,2.000000,2.000000,0.000000,4.000000,2.000000,2.000000,0.000000,0.000000,4.000000,4.000000,4.000000,4.000000,4.000000,4.000000,0.000000,,,,,,,,,,,,,,,,,,,,,,,,,,,,
1732157464.387599,1732157464.388894,48.000000,0.000000,4295.256348,4267.948730,4316.025879,4310.384766,4301.025879,4293.333496,4335.256348,4401.282227,4301.410156,4297.051270,4475.128418,4506.666504,4323.205078,4395.384766,0.000000,1.000000,24.000000,,,,0.000000,2.000000,2.000000,0.000000,4.000000,2.000000,2.000000,0.000000,0.000000,4.000000,4.000000,4.000000,4.000000,4.000000,4.000000,0.000000,,,,,,,,,,,,,,,,,12.000000,0.000000,0.497847,0.501221,-0.534241,0.464233,0.986937,-0.001953,-0.071298,-35.960621,45.938549,30.603825
1732157464.395408,1732157464.396702,49.000000,0.000000,4288.205078,4265.769043,4316.794922,4305.512695,4299.358887,4292.307617,4336.153809,4401.025879,4298.974121,4295.128418,4473.461426,4502.692383,4320.256348,4388.717773,0.000000,1.000000,24.000000,,,,0.000000,2.000000,2.000000,0.000000,4.000000,2.000000,2.000000,0.000000,0.000000,4.000000,4.000000,4.000000,4.000000,4.000000,4.000000,0.000000,,,,,,,,,,,,,,,,,,,,,,,,,,,,
1732157464.403216,1732157464.404710,50.000000,0.000000,4279.743652,4265.128418,4314.487305,4303.974121,4303.717773,4293.717773,4333.589844,4399.871582,4300.897461,4291.282227,4470.897461,4496.666504,4317.307617,4382.051270,0.000000,1.000000,24.000000,,,,0.000000,2.000000,2.000000,0.000000,4.000000,2.000000,2.000000,0.000000,0.000000,4.000000,4.000000,4.000000,4.000000,4.000000,4.000000,0.000000,,,,,,,,,,,,,,,,,,,,,,,,,,,,
1732157464.411024,1732157464.412518,51.000000,0.000000,4282.948730,4265.512695,4312.948730,4309.358887,4303.974121,4297.436035,4334.615234,4399.871582,4302.563965,4292.436035,4471.025879,4500.000000,4318.589844,4383.589844,0.000000,1.000000,24.000000,,,,0.000000,2.000000,2.000000,0.000000,4.000000,2.000000,2.000000,0.000000,0.000000,4.000000,4.000000,4.000000,4.000000,4.000000,4.000000,0.000000,,,,,,,,,,,,,,,,,,,,,,,,,,,,
1732157464.418832,1732157464.420426,52.000000,0.000000,4288.461426,4267.307617,4314.871582,4312.563965,4303.333496,4295.769043,4336.282227,4401.025879,4303.205078,4294.615234,4470.897461,4505.897461,4319.102539,4385.384766,0.000000,1.000000,24.000000,,,,0.000000,2.000000,2.000000,0.000000,4.000000,2.000000,2.000000,0.000000,0.000000,4.000000,4.000000,4.000000,4.000000,4.000000,4.000000,0.000000,,,,,,,,,,,,,,,,,13.000000,0.000000,0.498150,0.500549,-0.534058,0.464844,0.975705,-0.008302,-0.071786,-36.063103,45.760223,30.900764
1732157464.426641,1732157464.428235,53.000000,0.000000,4288.333496,4268.717773,4316.025879,4310.128418,4304.743652,4293.077148,4333.461426,4402.179688,4306.410156,4294.871582,4471.153809,4503.974121,4318.461426,4382.692383,0.000000,1.000000,24.000000,,,,0.000000,2.000000,2.000000,0.000000,4.000000,2.000000,2.000000,0.000000,0.000000,4.000000,4.000000,4.000000,4.000000,4.000000,4.000000,0.000000,,,,,,,,,,,,,,,,,,,,,,,,,,,,
1732157464.434449,1732157464.436243,54.000000,0.000000,4288.589844,4265.256348,4316.666504,4307.820313,4302.436035,4298.205078,4334.230957,4402.820313,4306.538574,4294.743652,4470.897461,4502.436035,4318.205078,4381.410156,0.000000,1.000000,24.000000,,,,0.000000,2.000000,2.000000,0.000000,4.000000,2.000000,2.000000,0.000000,0.000000,4.000000,4.000000,4.000000,4.000000,4.000000,4.000000,0.000000,,,,,,,,,,,,,,,,,,,,,,,,,,,,
1732157464.442257,1732157464.444051,55.000000,0.000000,4293.589844,4267.692383,4317.051270,4311.666504,4307.307617,4296.922852,4337.179688,4402.563965,4302.051270,4294.102539,4471.282227,4506.025879,4319.871582,4386.410156,0.000000,1.000000,24.000000,,,,0.000000,2.000000,2.000000,0.000000,4.000000,2.000000,2.000000,0.000000,0.000000,4.000000,4.000000,4.000000,4.000000,4.000000,4.000000,0.000000,,,,,,,,,,,,,,,,,,,,,,,,,,,,
1732157464.450065,1732157464.451959,56.000000,0.000000,4293.461426,4276.410156,4314.102539,4311.794922,4310.769043,4291.538574,4335.384766,4400.512695,4301.538574,4294.230957,4473.846191,4505.000000,4322.692383,4389.871582,0.000000,1.000000,24.000000,,,,0.000000,2.000000,2.000000,0.000000,4.000000,2.000000,2.000000,0.000000,0.000000,4.000000,4.000000,4.000000,4.000000,4.000000,4.000000,0.000000,,,,,,,,,,,,,,,,,14.000000,0.000000,0.499326,0.498718,-0.533875,0.465759,0.976193,-0.023929,-0.068368,-36.109447,45.699116,30.741285
1732157464.457874,1732157464.459767,57.000000,0.000000,4285.641113,4274.230957,4313.077148,4303.846191,4304.230957,4296.538574,4333.974121,4398.974121,4299.102539,4291.794922,4470.000000,4500.769043,4323.846191,4390.256348,0.000000,1.000000,24.000000,,,,0.000000,2.000000,2.000000,0.000000,4.000000,2.000000,2.000000,0.000000,0.000000,4.000000,4.000000,4.000000,4.000000,4.000000,4.000000,0.000000,,,,,,,,,,,,,,,,,,,,,,,,,,,,
1732157464.465682,1732157464.467775,58.000000,0.000000,4282.436035,4268.077148,4315.769043,4300.256348,4301.922852,4301.025879,4335.897461,4400.641113,4293.461426,4291.153809,4465.769043,4503.205078,4323.974121,4391.025879,0.000000,1.000000,24.000000,,,,0.000000,2.000000,2.000000,0.000000,4.000000,2.000000,2.000000,0.000000,0.000000,4.000000,4.000000,4.000000,4.000000,4.000000,4.000000,0.000000,,,,,,,,,,,,,,,,,,,,,,,,,,,,
1732157464.473490,1732157464.475583,59.000000,0.000000,4286.410156,4269.615234,4315.769043,4303.589844,4307.948730,4296.538574,4336.538574,4402.820313,4296.538574,4293.717773,4471.282227,4507.563965,4325.512695,4392.179688,0.000000,1.000000,24.000000,,,,0.000000,2.000000,2.000000,0.000000,4.000000,2.000000,2.000000,0.000000,0.000000,4.000000,4.000000,4.000000,4.000000,4.000000,4.000000,0.000000,,,,,,,,,,,,,,,,,,,,,,,,,,,,
1732157464.481298,1732157464.483491,60.000000,0.000000,4288.846191,4268.846191,4312.307617,4303.589844,4309.358887,4297.179688,4335.769043,4402.051270,4298.717773,4292.436035,4470.769043,4501.410156,4326.153809,4390.512695,0.000000,1.000000,24.000000,,,,0.000000,2.000000,2.000000,0.000000,4.000000,2.000000,2.000000,0.000000,0.000000,4.000000,4.000000,4.000000,4.000000,4.000000,4.000000,0.000000,,,,,,,,,,,,,,,,,15.000000,0.000000,0.499613,0.498047,-0.534180,0.465820,1.002075,-0.018069,-0.050299,-36.103653,45.512951,30.922108
1732157464.489107,1732157464.491300,61.000000,0.000000,4287.307617,4264.487305,4313.717773,4298.589844,4303.717773,4297.692383,4334.743652,4400.641113,4294.358887,4289.487305,4459.743652,4494.487305,4325.384766,4386.922852,0.000000,1.000000,24.000000,,,,0.000000,2.000000,2.000000,0.000000,4.000000,2.000000,2.000000,0.000000,0.000000,4.000000,4.000000,4.000000,4.000000,4.000000,4.000000,0.000000,,,,,,,,,,,,,,,,,,,,,,,,,,,,
1732157464.496915,1732157464.499308,62.000000,0.000000,4287.820313,4265.384766,4316.410156,4298.205078,4299.487305,4295.256348,4333.333496,4401.153809,4296.666504,4292.436035,4462.692383,4496.282227,4326.025879,4389.230957,0.000000,1.000000,24.000000,,,,0.000000,2.000000,2.000000,0.000000,4.000000,2.000000,2.000000,0.000000,0.000000,4.000000,4.000000,4.000000,4.000000,4.000000,4.000000,0.000000,,,,,,,,,,,,,,,,,,,,,,,,,,,,
1732157464.504723,1732157464.507116,63.000000,0.000000,4292.307617,4265.384766,4314.230957,4299.102539,4296.410156,4297.692383,4334.102539,4402.179688,4300.256348,4296.025879,4475.128418,4501.410156,4326.666504,4394.230957,0.000000,1.000000,24.000000,,,,0.000000,2.000000,2.000000,0.000000,4.000000,2.000000,2.000000,0.000000,0.000000,4.000000,4.000000,4.000000,4.000000,4.000000,4.000000,0.000000,,,,,,,,,,,,,,,,,,,,,,,,,,,,
1732157464.512531,1732157464.515024,64.000000,0.000000,4296.538574,4263.461426,4314.358887,4298.717773,4300.000000,4300.641113,4335.000000,4401.922852,4297.307617,4293.846191,4472.179688,4505.256348,4325.897461,4395.256348,0.000000,1.000000,24.000000,,,,0.000000,2.000000,2.000000,0.000000,4.000000,2.000000,2.000000,0.000000,0.000000,4.000000,4.000000,4.000000,4.000000,4.000000,4.000000,0.000000,,,,,,,,,,,,,,,,,16.000000,0.000000,0.500296,0.496704,-0.534790,0.465820,0.974240,-0.010743,-0.048834,-35.577290,45.573822,31.316908
1732157464.520340,1732157464.522832,65.000000,0.000000,4294.743652,4265.641113,4316.666504,4300.000000,4307.051270,4301.538574,4336.410156,4401.410156,4300.512695,4293.589844,4465.897461,4506.922852,4326.153809,4393.333496,1599.000000,1.000000,24.000000,,,,0.000000,2.000000,2.000000,0.000000,4.000000,2.000000,2.000000,0.000000,0.000000,4.000000,4.000000,4.000000,4.000000,4.000000,4.000000,0.000000,,,,,,,,,,,,,,,,,,,,,,,,,,,,
1732157464.528148,1732157464.530840,66.000000,0.000000,4290.256348,4266.153809,4313.717773,4299.743652,4305.897461,4304.615234,4339.615234,4401.922852,4308.205078,4295.641113,4470.384766,4507.948730,4327.307617,4394.615234,1376.000000,1.000000,24.000000,,,,0.000000,2.000000,2.000000,0.000000,4.000000,2.000000,2.000000,0.000000,0.000000,4.000000,4.000000,4.000000,4.000000,4.000000,4.000000,0.000000,,,,,,,,,,,,,,,,,,,,,,,,,,,,
1732157464.535956,1732157464.538648,67.000000,0.000000,4288.205078,4265.384766,4310.641113,4296.922852,4306.794922,4304.487305,4335.769043,4400.769043,4303.589844,4295.384766,4475.769043,4506.410156,4327.179688,4395.769043,1422.000000,1.000000,24.000000,,,,0.000000,2.000000,2.000000,0.000000,4.000000,2.000000,2.000000,0.000000,0.000000,4.000000,4.000000,4.000000,4.000000,4.000000,4.000000,0.000000,,,,,,,,,,,,,,,,,,,,,,,,,,,,
1732157464.543764,1732157464.546557,68.000000,0.000000,4282.820313,4266.153809,4313.717773,4296.410156,4311.025879,4302.692383,4330.000000,4398.717773,4293.589844,4291.922852,4471.025879,4503.846191,4325.641113,4391.794922,1419.000000,1.000000,24.000000,,,,0.000000,2.000000,2.000000,0.000000,4.000000,2.000000,2.000000,0.000000,0.000000,4.000000,4.000000,4.000000,4.000000,4.000000,4.000000,0.000000,,,,,,,,,,,,,,,,,17.000000,0.000000,0.501224,0.494629,-0.535950,0.465698,0.991332,-0.006348,-0.057136,-35.585938,45.543129,31.348362
1732157464.551573,1732157464.554365,69.000000,0.000000,4280.512695,4266.410156,4314.615234,4301.538574,4311.410156,4307.948730,4333.205078,4400.897461,4295.000000,4287.692383,4461.538574,4504.230957,4324.230957,4386.153809,1217.000000,1.000000,24.000000,,,,0.000000,2.000000,2.000000,0.000000,4.000000,2.000000,2.000000,0.000000,0.000000,4.000000,4.000000,4.000000,4.000000,4.000000,4.000000,0.000000,,,,,,,,,,,,,,,,,,,,,,,,,,,,
