title:4three, start timestamp:1732157522.082740, stop timestamp:1732157571.368388, headset type:EPOCX, headset serial:E5020C3A, headset firmware:730, channels:67, sampling rate:eeg_128;mot_32, samples:6313      , version:2.2, 
Timestamp,OriginalTimestamp,EEG.Counter,EEG.Interpolated,EEG.AF3,EEG.F7,EEG.F3,EEG.FC5,EEG.T7,EEG.P7,EEG.O1,EEG.O2,EEG.P8,EEG.T8,EEG.FC6,EEG.F4,EEG.F8,EEG.AF4,EEG.RawCq,EEG.Battery,EEG.BatteryPercent,MarkerIndex,MarkerType,MarkerValueInt,EEG.MarkerHardware,CQ.AF3,CQ.F7,CQ.F3,CQ.FC5,CQ.T7,CQ.P7,CQ.O1,CQ.O2,CQ.P8,CQ.T8,CQ.FC6,CQ.F4,CQ.F8,CQ.AF4,CQ.Overall,EQ.SampleRateQuality,EQ.OVERALL,EQ.AF3,EQ.F7,EQ.F3,EQ.FC5,EQ.T7,EQ.P7,EQ.O1,EQ.O2,EQ.P8,EQ.T8,EQ.FC6,EQ.F4,EQ.F8,EQ.AF4,MOT.CounterMems,MOT.InterpolatedMems,MOT.Q0,MOT.Q1,MOT.Q2,MOT.Q3,MOT.AccX,MOT.AccY,MOT.AccZ,MOT.MagX,MOT.MagY,MOT.MagZ
1732157522.082740,1732157522.084346,13.000000,0.000000,4284.871582,4282.179688,4312.051270,4298.077148,4263.846191,4285.000000,4334.871582,4403.205078,4301.410156,4277.948730,4474.487305,4501.282227,4359.102539,4412.692383,1648.000000,1.000000,24.000000,,,,0.000000,2.000000,2.000000,0.000000,4.000000,2.000000,2.000000,0.000000,0.000000,4.000000,4.000000,4.000000,4.000000,4.000000,4.000000,0.000000,,,,,,,,,,,,,,,,,,,,,,,,,,,,
1732157522.090548,1732157522.091955,14.000000,0.000000,4277.051270,4281.153809,4312.436035,4296.153809,4265.128418,4289.743652,4335.897461,4400.128418,4298.077148,4274.230957,4472.436035,4496.025879,4353.205078,4406.025879,1536.000000,1.000000,24.000000,,,,0.000000,2.000000,2.000000,0.000000,4.000000,2.000000,2.000000,0.000000,0.000000,4.000000,4.000000,4.000000,4.000000,4.000000,4.000000,0.000000,1.000000,0.000000,2.000000,2.000000,0.000000,4.000000,2.000000,2.000000,0.000000,0.000000,4.000000,4.000000,4.000000,4.000000,4.000000,4.000000,,,,,,,,,,,,
1732157522.098356,1732157522.099763,15.000000,0.000000,4282.307617,4278.205078,4311.153809,4295.384766,4263.846191,4284.743652,4336.538574,4398.974121,4292.820313,4274.230957,4472.051270,4501.282227,4353.717773,4404.871582,1571.000000,1.000000,24.000000,,,,0.000000,2.000000,2.000000,0.000000,4.000000,2.000000,2.000000,0.000000,0.000000,4.000000,4.000000,4.000000,4.000000,4.000000,4.000000,0.000000,,,,,,,,,,,,,,,,,,,,,,,,,,,,
1732157522.106164,1732157522.107471,16.000000,0.000000,4287.307617,4278.461426,4311.153809,4295.128418,4261.025879,4281.153809,4336.282227,4400.384766,4299.871582,4277.563965,4475.128418,4510.641113,4358.717773,4409.615234,0.000000,1.000000,24.000000,,,,0.000000,2.000000,2.000000,0.000000,4.000000,2.000000,2.000000,0.000000,0.000000,4.000000,4.000000,4.000000,4.000000,4.000000,4.000000,0.000000,,,,,,,,,,,,,,,,,4.000000,0.000000,0.521889,0.501343,-0.523499,0.449707,0.973752,0.041509,-0.040532,-35.007057,46.306080,30.935789
1732157522.113973,1732157522.115279,17.000000,0.000000,4290.000000,4280.256348,4312.051270,4296.666504,4263.717773,4283.461426,4336.410156,4398.846191,4307.948730,4277.820313,4475.384766,4508.333496,4356.153809,4414.230957,0.000000,1.000000,24.000000,,,,0.000000,2.000000,2.000000,0.000000,4.000000,2.000000,2.000000,0.000000,0.000000,4.000000,4.000000,4.000000,4.000000,4.000000,4.000000,0.000000,,,,,,,,,,,,,,,,,,,,,,,,,,,,
1732157522.121781,1732157522.123287,18.000000,0.000000,4294.102539,4280.897461,4310.641113,4296.922852,4266.282227,4282.179688,4337.307617,4397.692383,4305.641113,4276.922852,4473.205078,4507.563965,4355.128418,4415.897461,0.000000,1.000000,24.000000,,,,0.000000,2.000000,2.000000,0.000000,4.000000,2.000000,2.000000,0.000000,0.000000,4.000000,4.000000,4.000000,4.000000,4.000000,4.000000,0.000000,,,,,,,,,,,,,,,,,,,,,,,,,,,,
1732157522.129589,1732157522.131095,19.000000,0.000000,4296.153809,4281.538574,4312.820313,4296.666504,4258.333496,4279.487305,4335.769043,4399.743652,4306.922852,4278.717773,4475.000000,4513.333496,4365.000000,4416.666504,0.000000,1.000000,24.000000,,,,0.000000,2.000000,2.000000,0.000000,4.000000,2.000000,2.000000,0.000000,0.000000,4.000000,4.000000,4.000000,4.000000,4.000000,4.000000,0.000000,,,,,,,,,,,,,,,,,,,,,,,,,,,,
1732157522.137397,1732157522.139004,20.000000,0.000000,4295.641113,4280.256348,4315.128418,4298.333496,4263.077148,4282.051270,4334.487305,4399.487305,4309.615234,4279.358887,4476.666504,4511.410156,4367.692383,4415.769043,0.000000,1.000000,24.000000,,,,0.000000,2.000000,2.000000,0.000000,4.000000,2.000000,2.000000,0.000000,0.000000,4.000000,4.000000,4.000000,4.000000,4.000000,4.000000,0.000000,,,,,,,,,,,,,,,,,5.000000,0.000000,0.524915,0.501831,-0.521362,0.448120,0.987425,0.068856,-0.032719,-34.839050,46.386257,31.077990
1732157522.145206,1732157522.146812,21.000000,0.000000,4295.256348,4281.025879,4311.922852,4296.538574,4280.641113,4281.282227,4335.897461,4397.948730,4299.102539,4277.948730,4475.000000,4507.692383,4357.307617,4412.820313,0.000000,1.000000,24.000000,,,,0.000000,2.000000,2.000000,0.000000,4.000000,2.000000,2.000000,0.000000,0.000000,4.000000,4.000000,4.000000,4.000000,4.000000,4.000000,0.000000,,,,,,,,,,,,,,,,,,,,,,,,,,,,
1732157522.153014,1732157522.154820,22.000000,0.000000,4294.871582,4288.974121,4310.897461,4293.974121,4267.563965,4277.436035,4335.128418,4398.333496,4294.487305,4275.384766,4474.871582,4508.717773,4358.461426,4413.846191,0.000000,1.000000,24.000000,,,,0.000000,2.000000,2.000000,0.000000,4.000000,2.000000,2.000000,0.000000,0.000000,4.000000,4.000000,4.000000,4.000000,4.000000,4.000000,0.000000,,,,,,,,,,,,,,,,,,,,,,,,,,,,
1732157522.160822,1732157522.162628,23.000000,0.000000,4294.615234,4297.692383,4312.563965,4296.410156,4243.589844,4280.000000,4335.897461,4398.461426,4305.769043,4278.077148,4475.256348,4511.025879,4369.102539,4416.922852,0.000000,1.000000,24.000000,,,,0.000000,2.000000,2.000000,0.000000,4.000000,2.000000,2.000000,0.000000,0.000000,4.000000,4.000000,4.000000,4.000000,4.000000,4.000000,0.000000,,,,,,,,,,,,,,,,,,,,,,,,,,,,
1732157522.168630,1732157522.170336,24.000000,0.000000,4295.128418,4295.641113,4309.743652,4297.948730,4253.077148,4284.102539,4336.410156,4398.077148,4308.333496,4278.717773,4476.794922,4508.589844,4364.743652,4417.051270,0.000000,1.000000,24.000000,,,,0.000000,2.000000,2.000000,0.000000,4.000000,2.000000,2.000000,0.000000,0.000000,4.000000,4.000000,4.000000,4.000000,4.000000,4.000000,0.000000,,,,,,,,,,,,,,,,,6.000000,0.000000,0.526669,0.502258,-0.520386,0.446716,0.958125,0.114272,-0.020999,-34.669632,46.234535,31.109838
1732157522.176439,1732157522.178145,25.000000,0.000000,4294.871582,4287.820313,4308.333496,4295.128418,4268.077148,4281.922852,4333.589844,4397.436035,4300.384766,4269.358887,4475.897461,4501.794922,4356.666504,4414.358887,0.000000,1.000000,24.000000,,,,0.000000,2.000000,2.000000,0.000000,4.000000,2.000000,2.000000,0.000000,0.000000,4.000000,4.000000,4.000000,4.000000,4.000000,4.000000,0.000000,,,,,,,,,,,,,,,,,,,,,,,,,,,,
1732157522.184247,1732157522.185753,26.000000,0.000000,4292.051270,4289.102539,4311.282227,4294.102539,4263.205078,4281.538574,4333.205078,4397.436035,4301.282227,4267.563965,4473.717773,4500.769043,4361.922852,4413.205078,0.000000,1.000000,24.000000,,,,0.000000,2.000000,2.000000,0.000000,4.000000,2.000000,2.000000,0.000000,0.000000,4.000000,4.000000,4.000000,4.000000,4.000000,4.000000,0.000000,,,,,,,,,,,,,,,,,,,,,,,,,,,,
1732157522.192055,1732157522.193561,27.000000,0.000000,4292.692383,4297.563965,4308.589844,4298.846191,4262.307617,4284.358887,4334.487305,4399.102539,4307.307617,4278.077148,4482.307617,4504.871582,4368.461426,4415.128418,0.000000,1.000000,24.000000,,,,0.000000,2.000000,2.000000,0.000000,4.000000,2.000000,2.000000,0.000000,0.000000,4.000000,4.000000,4.000000,4.000000,4.000000,4.000000,0.000000,,,,,,,,,,,,,,,,,,,,,,,,,,,,
1732157522.199863,1732157522.201469,28.000000,0.000000,4298.589844,4300.256348,4304.230957,4302.692383,4264.358887,4281.666504,4333.974121,4400.256348,4311.153809,4284.487305,4489.615234,4507.563965,4370.256348,4415.000000,0.000000,1.000000,24.000000,,,,0.000000,2.000000,2.000000,0.000000,4.000000,2.000000,2.000000,0.000000,0.000000,4.000000,4.000000,4.000000,4.000000,4.000000,4.000000,0.000000,,,,,,,,,,,,,,,,,7.000000,0.000000,0.527594,0.502625,-0.519775,0.445923,0.949823,0.131852,-0.033207,-34.827400,46.094975,31.088968
1732157522.207672,1732157522.209277,29.000000,0.000000,4294.358887,4293.589844,4307.436035,4298.589844,4261.153809,4278.205078,4333.974121,4397.307617,4311.153809,4280.897461,4481.410156,4506.282227,4371.282227,4413.333496,0.000000,1.000000,24.000000,,,,0.000000,2.000000,2.000000,0.000000,4.000000,2.000000,2.000000,0.000000,0.000000,4.000000,4.000000,4.000000,4.000000,4.000000,4.000000,0.000000,,,,,,,,,,,,,,,,,,,,,,,,,,,,
1732157522.215480,1732157522.217285,30.000000,0.000000,4283.589844,4289.743652,4305.769043,4292.692383,4263.589844,4279.743652,4334.358887,4395.384766,4309.358887,4280.641113,4474.358887,4505.384766,4368.717773,4412.179688,0.000000,1.000000,24.000000,,,,0.000000,2.000000,2.000000,0.000000,4.000000,2.000000,2.000000,0.000000,0.000000,4.000000,4.000000,4.000000,4.000000,4.000000,4.000000,0.000000,,,,,,,,,,,,,,,,,,,,,,,,,,,,
1732157522.223288,1732157522.225094,31.000000,0.000000,4287.563965,4293.205078,4299.358887,4293.589844,4265.000000,4279.871582,4334.230957,4397.820313,4309.102539,4284.743652,4480.128418,4505.000000,4366.282227,4411.794922,0.000000,1.000000,24.000000,,,,0.000000,2.000000,2.000000,0.000000,4.000000,2.000000,2.000000,0.000000,0.000000,4.000000,4.000000,4.000000,4.000000,4.000000,4.000000,0.000000,,,,,,,,,,,,,,,,,,,,,,,,,,,,
1732157522.231096,1732157522.233002,32.000000,0.000000,4298.333496,4297.179688,4299.230957,4297.692383,4262.692383,4277.948730,4335.000000,4396.922852,4310.000000,4284.871582,4482.692383,4505.128418,4367.307617,4412.436035,0.000000,1.000000,24.000000,,,,0.000000,2.000000,2.000000,0.000000,4.000000,2.000000,2.000000,0.000000,0.000000,4.000000,4.000000,4.000000,4.000000,4.000000,4.000000,0.000000,,,,,,,,,,,,,,,,,8.000000,0.000000,0.529347,0.503967,-0.518311,0.444031,0.968380,0.111830,-0.037602,-34.765194,46.108597,31.262066
1732157522.238905,1732157522.240810,33.000000,0.000000,4295.256348,4295.512695,4299.615234,4297.948730,4260.512695,4278.846191,4335.769043,4396.538574,4309.871582,4285.641113,4478.717773,4506.025879,4366.025879,4409.487305,0.000000,1.000000,24.000000,,,,0.000000,2.000000,2.000000,0.000000,4.000000,2.000000,2.000000,0.000000,0.000000,4.000000,4.000000,4.000000,4.000000,4.000000,4.000000,0.000000,,,,,,,,,,,,,,,,,,,,,,,,,,,,
1732157522.246713,1732157522.248818,34.000000,0.000000,4290.769043,4295.000000,4293.205078,4296.794922,4259.230957,4279.487305,4333.846191,4395.384766,4307.692383,4285.769043,4478.846191,4501.025879,4365.128418,4404.487305,0.000000,1.000000,24.000000,,,,0.000000,2.000000,2.000000,0.000000,4.000000,2.000000,2.000000,0.000000,0.000000,4.000000,4.000000,4.000000,4.000000,4.000000,4.000000,0.000000,,,,,,,,,,,,,,,,,,,,,,,,,,,,
1732157522.254521,1732157522.256626,35.000000,0.000000,4293.974121,4299.871582,4292.563965,4296.794922,4258.205078,4276.666504,4330.256348,4390.897461,4306.922852,4283.846191,4479.487305,4495.897461,4365.897461,4401.666504,0.000000,1.000000,24.000000,,,,0.000000,2.000000,2.000000,0.000000,4.000000,2.000000,2.000000,0.000000,0.000000,4.000000,4.000000,4.000000,4.000000,4.000000,4.000000,0.000000,,,,,,,,,,,,,,,,,,,,,,,,,,,,
1732157522.262329,1732157522.264534,36.000000,0.000000,4294.230957,4300.000000,4292.692383,4296.666504,4256.794922,4277.948730,4328.333496,4388.461426,4310.128418,4281.282227,4476.666504,4494.487305,4362.051270,4399.871582,0.000000,1.000000,24.000000,,,,0.000000,2.000000,2.000000,0.000000,4.000000,2.000000,2.000000,0.000000,0.000000,4.000000,4.000000,4.000000,4.000000,4.000000,4.000000,0.000000,,,,,,,,,,,,,,,,,9.000000,0.000000,0.528948,0.505066,-0.518066,0.443542,0.936149,0.106458,-0.044927,-34.476475,45.926296,31.308939
1732157522.270138,1732157522.272342,37.000000,0.000000,4291.153809,4296.282227,4283.077148,4296.153809,4259.230957,4280.897461,4328.846191,4388.205078,4305.641113,4280.256348,4472.692383,4491.538574,4356.922852,4397.820313,0.000000,1.000000,24.000000,,,,0.000000,2.000000,2.000000,0.000000,4.000000,2.000000,2.000000,0.000000,0.000000,4.000000,4.000000,4.000000,4.000000,4.000000,4.000000,0.000000,,,,,,,,,,,,,,,,,,,,,,,,,,,,
1732157522.277946,1732157522.280350,38.000000,0.000000,4286.666504,4296.666504,4277.436035,4295.256348,4263.205078,4280.256348,4322.692383,4387.307617,4297.179688,4278.846191,4468.461426,4488.846191,4353.461426,4396.153809,0.000000,1.000000,24.000000,,,,0.000000,2.000000,2.000000,0.000000,4.000000,2.000000,2.000000,0.000000,0.000000,4.000000,4.000000,4.000000,4.000000,4.000000,4.000000,0.000000,,,,,,,,,,,,,,,,,,,,,,,,,,,,
1732157522.285754,1732157522.288159,39.000000,0.000000,4284.487305,4297.436035,4279.487305,4294.487305,4261.922852,4284.230957,4316.538574,4388.077148,4304.358887,4278.333496,4462.179688,4490.256348,4349.615234,4394.487305,0.000000,1.000000,24.000000,,,,0.000000,2.000000,2.000000,0.000000,4.000000,2.000000,2.000000,0.000000,0.000000,4.000000,4.000000,4.000000,4.000000,4.000000,4.000000,0.000000,,,,,,,,,,,,,,,,,,,,,,,,,,,,
1732157522.293562,1732157522.296067,40.000000,0.000000,4287.563965,4295.256348,4277.820313,4295.512695,4260.384766,4287.179688,4319.743652,4387.179688,4317.563965,4282.179688,4463.717773,4491.282227,4351.666504,4394.487305,0.000000,1.000000,24.000000,,,,0.000000,2.000000,2.000000,0.000000,4.000000,2.000000,2.000000,0.000000,0.000000,4.000000,4.000000,4.000000,4.000000,4.000000,4.000000,0.000000,,,,,,,,,,,,,,,,,10.000000,0.000000,0.528220,0.504700,-0.518799,0.443970,0.962031,0.075693,-0.042974,-34.277611,45.801968,31.076908
1732157522.301371,1732157522.303875,41.000000,0.000000,4287.948730,4296.282227,4275.512695,4297.307617,4263.077148,4281.410156,4321.794922,4380.769043,4308.589844,4282.563965,4472.563965,4489.102539,4356.410156,4396.666504,0.000000,1.000000,24.000000,,,,0.000000,2.000000,2.000000,0.000000,4.000000,2.000000,2.000000,0.000000,0.000000,4.000000,4.000000,4.000000,4.000000,4.000000,4.000000,0.000000,,,,,,,,,,,,,,,,,,,,,,,,,,,,
1732157522.309179,1732157522.311783,42.000000,0.000000,4287.179688,4300.256348,4278.333496,4297.692383,4263.846191,4278.846191,4320.000000,4381.410156,4295.897461,4279.871582,4473.717773,4488.205078,4353.589844,4396.922852,0.000000,1.000000,24.000000,,,,0.000000,2.000000,2.000000,0.000000,4.000000,2.000000,2.000000,0.000000,0.000000,4.000000,4.000000,4.000000,4.000000,4.000000,4.000000,0.000000,,,,,,,,,,,,,,,,,,,,,,,,,,,,
1732157522.316987,1732157522.319591,43.000000,0.000000,4290.769043,4298.333496,4280.384766,4296.538574,4262.692383,4282.692383,4322.179688,4389.743652,4303.333496,4279.230957,4469.743652,4487.179688,4352.307617,4397.179688,0.000000,1.000000,24.000000,,,,0.000000,2.000000,2.000000,0.000000,4.000000,2.000000,2.000000,0.000000,0.000000,4.000000,4.000000,4.000000,4.000000,4.000000,4.000000,0.000000,,,,,,,,,,,,,,,,,,,,,,,,,,,,
1732157522.324795,1732157522.327300,44.000000,0.000000,4291.538574,4297.436035,4284.615234,4296.282227,4263.846191,4283.077148,4323.589844,4388.461426,4307.307617,4278.717773,4471.410156,4490.256348,4357.307617,4397.436035,0.000000,1.000000,24.000000,,,,0.000000,2.000000,2.000000,0.000000,4.000000,2.000000,2.000000,0.000000,0.000000,4.000000,4.000000,4.000000,4.000000,4.000000,4.000000,0.000000,,,,,,,,,,,,,,,,,11.000000,0.000000,0.527635,0.504578,-0.519043,0.444519,0.961055,0.076181,-0.051276,-34.206532,45.836258,30.828962
1732157522.332604,1732157522.335108,45.000000,0.000000,4286.666504,4301.794922,4291.282227,4297.179688,4263.974121,4281.410156,4325.512695,4385.897461,4299.487305,4277.179688,4473.333496,4493.974121,4358.717773,4396.666504,0.000000,1.000000,24.000000,,,,0.000000,2.000000,2.000000,0.000000,4.000000,2.000000,2.000000,0.000000,0.000000,4.000000,4.000000,4.000000,4.000000,4.000000,4.000000,0.000000,,,,,,,,,,,,,,,,,,,,,,,,,,,,
1732157522.340412,1732157522.342716,46.000000,0.000000,4288.333496,4302.051270,4295.641113,4297.051270,4262.820313,4282.692383,4332.179688,4392.563965,4299.615234,4277.948730,4471.666504,4495.128418,4357.051270,4397.563965,0.000000,1.000000,24.000000,,,,0.000000,2.000000,2.000000,0.000000,4.000000,2.000000,2.000000,0.000000,0.000000,4.000000,4.000000,4.000000,4.000000,4.000000,4.000000,0.000000,,,,,,,,,,,,,,,,,,,,,,,,,,,,
1732157522.348220,1732157522.350524,47.000000,0.000000,4291.538574,4300.384766,4299.102539,4297.307617,4262.051270,4282.307617,4336.538574,4395.512695,4305.000000,4281.025879,4473.974121,4497.436035,4357.948730,4398.846191,0.000000,1.000000,24.000000,,,,0.000000,2.000000,2.000000,0.000000,4.000000,2.000000,2.000000,0.000000,0.000000,4.000000,4.000000,4.000000,4.000000,4.000000,4.000000,0.000000,,,,,,,,,,,,,,,,,,,,,,,,,,,,
1732157522.356028,1732157522.358233,48.000000,0.000000,4291.666504,4303.589844,4305.128418,4297.948730,4261.922852,4281.410156,4334.615234,4392.692383,4305.256348,4282.948730,4477.436035,4502.179688,4360.000000,4398.974121,0.000000,1.000000,24.000000,,,,0.000000,2.000000,2.000000,0.000000,4.000000,2.000000,2.000000,0.000000,0.000000,4.000000,4.000000,4.000000,4.000000,4.000000,4.000000,0.000000,,,,,,,,,,,,,,,,,12.000000,0.000000,0.526076,0.501648,-0.522095,0.446106,0.963497,0.046392,-0.040044,-34.360622,45.627369,30.949793
1732157522.363837,1732157522.366041,49.000000,0.000000,4291.410156,4302.179688,4306.666504,4295.256348,4261.666504,4279.102539,4333.461426,4395.641113,4306.410156,4282.436035,4475.512695,4500.769043,4358.974121,4396.410156,0.000000,1.000000,24.000000,,,,0.000000,2.000000,2.000000,0.000000,4.000000,2.000000,2.000000,0.000000,0.000000,4.000000,4.000000,4.000000,4.000000,4.000000,4.000000,0.000000,,,,,,,,,,,,,,,,,,,,,,,,,,,,
1732157522.371645,1732157522.373649,50.000000,0.000000,4289.487305,4294.230957,4306.922852,4293.589844,4259.487305,4273.974121,4334.487305,4400.000000,4304.230957,4281.025879,4471.538574,4495.641113,4352.820313,4393.974121,0.000000,1.000000,24.000000,,,,0.000000,2.000000,2.000000,0.000000,4.000000,2.000000,2.000000,0.000000,0.000000,4.000000,4.000000,4.000000,4.000000,4.000000,4.000000,0.000000,,,,,,,,,,,,,,,,,,,,,,,,,,,,
1732157522.379453,1732157522.381458,51.000000,0.000000,4290.128418,4296.922852,4310.769043,4296.794922,4259.487305,4273.846191,4335.256348,4398.077148,4298.461426,4281.153809,4471.153809,4492.692383,4348.205078,4395.641113,0.000000,1.000000,24.000000,,,,0.000000,2.000000,2.000000,0.000000,4.000000,2.000000,2.000000,0.000000,0.000000,4.000000,4.000000,4.000000,4.000000,4.000000,4.000000,0.000000,,,,,,,,,,,,,,,,,,,,,,,,,,,,
1732157522.387261,1732157522.389166,52.000000,0.000000,4294.102539,4302.307617,4313.077148,4297.692383,4262.436035,4278.461426,4336.922852,4396.538574,4299.358887,4281.410156,4474.230957,4496.410156,4352.051270,4399.230957,0.000000,1.000000,24.000000,,,,0.000000,2.000000,2.000000,0.000000,4.000000,2.000000,2.000000,0.000000,0.000000,4.000000,4.000000,4.000000,4.000000,4.000000,4.000000,0.000000,,,,,,,,,,,,,,,,,13.000000,0.000000,0.526217,0.499634,-0.523621,0.446411,0.945428,0.043951,-0.041509,-34.602104,45.603168,31.080999
1732157522.395069,1732157522.396974,53.000000,0.000000,4294.487305,4300.000000,4313.846191,4295.128418,4263.717773,4278.077148,4336.666504,4397.820313,4299.102539,4280.641113,4474.102539,4501.922852,4355.384766,4400.512695,0.000000,1.000000,24.000000,,,,0.000000,2.000000,2.000000,0.000000,4.000000,2.000000,2.000000,0.000000,0.000000,4.000000,4.000000,4.000000,4.000000,4.000000,4.000000,0.000000,,,,,,,,,,,,,,,,,,,,,,,,,,,,
1732157522.402878,1732157522.404583,54.000000,0.000000,4289.487305,4299.230957,4319.743652,4295.256348,4262.307617,4274.743652,4335.384766,4401.666504,4294.487305,4279.487305,4470.641113,4497.051270,4348.589844,4397.820313,0.000000,1.000000,24.000000,,,,0.000000,2.000000,2.000000,0.000000,4.000000,2.000000,2.000000,0.000000,0.000000,4.000000,4.000000,4.000000,4.000000,4.000000,4.000000,0.000000,,,,,,,,,,,,,,,,,,,,,,,,,,,,
1732157522.410686,1732157522.412391,55.000000,0.000000,4284.743652,4298.205078,4327.563965,4294.871582,4261.922852,4276.666504,4337.436035,4402.307617,4293.974121,4277.820313,4471.538574,4494.871582,4344.358887,4396.922852,0.000000,1.000000,24.000000,,,,0.000000,2.000000,2.000000,0.000000,4.000000,2.000000,2.000000,0.000000,0.000000,4.000000,4.000000,4.000000,4.000000,4.000000,4.000000,0.000000,,,,,,,,,,,,,,,,,,,,,,,,,,,,
1732157522.418494,1732157522.420099,56.000000,0.000000,4281.282227,4295.384766,4329.743652,4292.948730,4262.692383,4278.205078,4339.743652,4399.102539,4296.794922,4277.051270,4475.000000,4503.846191,4350.000000,4400.384766,0.000000,1.000000,24.000000,,,,0.000000,2.000000,2.000000,0.000000,4.000000,2.000000,2.000000,0.000000,0.000000,4.000000,4.000000,4.000000,4.000000,4.000000,4.000000,0.000000,,,,,,,,,,,,,,,,,14.000000,0.000000,0.526217,0.499634,-0.523621,0.446411,0.981565,0.048834,-0.033207,-34.752705,45.538567,31.337275
1732157522.426303,1732157522.427907,57.000000,0.000000,4282.307617,4293.974121,4328.589844,4292.692383,4262.307617,4274.615234,4340.128418,4404.230957,4298.077148,4282.692383,4470.769043,4508.205078,4349.743652,4400.128418,0.000000,1.000000,24.000000,,,,0.000000,2.000000,2.000000,0.000000,4.000000,2.000000,2.000000,0.000000,0.000000,4.000000,4.000000,4.000000,4.000000,4.000000,4.000000,0.000000,,,,,,,,,,,,,,,,,,,,,,,,,,,,
1732157522.434111,1732157522.435516,58.000000,0.000000,4288.974121,4293.589844,4328.333496,4293.589844,4261.922852,4274.358887,4342.436035,4409.230957,4296.538574,4285.384766,4463.717773,4505.256348,4342.436035,4399.230957,0.000000,1.000000,24.000000,,,,0.000000,2.000000,2.000000,0.000000,4.000000,2.000000,2.000000,0.000000,0.000000,4.000000,4.000000,4.000000,4.000000,4.000000,4.000000,0.000000,,,,,,,,,,,,,,,,,,,,,,,,,,,,
1732157522.441919,1732157522.443324,59.000000,0.000000,4293.974121,4294.743652,4329.230957,4296.410156,4262.307617,4276.922852,4343.461426,4404.102539,4294.871582,4279.871582,4462.692383,4506.153809,4341.794922,4405.000000,0.000000,1.000000,24.000000,,,,0.000000,2.000000,2.000000,0.000000,4.000000,2.000000,2.000000,0.000000,0.000000,4.000000,4.000000,4.000000,4.000000,4.000000,4.000000,0.000000,,,,,,,,,,,,,,,,,,,,,,,,,,,,
1732157522.449727,1732157522.451032,60.000000,0.000000,4295.512695,4297.436035,4328.846191,4299.487305,4263.589844,4277.051270,4339.615234,4402.307617,4294.615234,4276.922852,4462.820313,4509.230957,4343.333496,4405.897461,0.000000,1.000000,24.000000,,,,0.000000,2.000000,2.000000,0.000000,4.000000,2.000000,2.000000,0.000000,0.000000,4.000000,4.000000,4.000000,4.000000,4.000000,4.000000,0.000000,,,,,,,,,,,,,,,,,15.000000,0.000000,0.527518,0.496826,-0.525085,0.446289,0.997192,0.063973,-0.040044,-34.708023,45.702908,31.289860
1732157522.457535,1732157522.458840,61.000000,0.000000,4294.487305,4296.025879,4325.641113,4297.307617,4263.974121,4277.692383,4337.692383,4406.025879,4293.717773,4277.436035,4460.256348,4505.128418,4341.025879,4398.846191,0.000000,1.000000,24.000000,,,,0.000000,2.000000,2.000000,0.000000,4.000000,2.000000,2.000000,0.000000,0.000000,4.000000,4.000000,4.000000,4.000000,4.000000,4.000000,0.000000,,,,,,,,,,,,,,,,,,,,,,,,,,,,
1732157522.465344,1732157522.466449,62.000000,0.000000,4295.128418,4294.230957,4323.461426,4294.871582,4264.358887,4279.871582,4339.743652,4402.051270,4292.820313,4278.077148,4460.769043,4503.589844,4345.641113,4400.769043,0.000000,1.000000,24.000000,,,,0.000000,2.000000,2.000000,0.000000,4.000000,2.000000,2.000000,0.000000,0.000000,4.000000,4.000000,4.000000,4.000000,4.000000,4.000000,0.000000,,,,,,,,,,,,,,,,,,,,,,,,,,,,
1732157522.473152,1732157522.474257,63.000000,0.000000,4297.051270,4292.563965,4324.615234,4296.794922,4267.307617,4280.641113,4339.487305,4400.000000,4296.025879,4281.794922,4467.307617,4505.256348,4350.256348,4407.692383,0.000000,1.000000,24.000000,,,,0.000000,2.000000,2.000000,0.000000,4.000000,2.000000,2.000000,0.000000,0.000000,4.000000,4.000000,4.000000,4.000000,4.000000,4.000000,0.000000,,,,,,,,,,,,,,,,,,,,,,,,,,,,
1732157522.480960,1732157522.481965,64.000000,0.000000,4296.666504,4285.256348,4323.589844,4296.153809,4267.051270,4280.128418,4338.077148,4403.077148,4297.563965,4283.333496,4468.717773,4501.794922,4344.615234,4401.794922,0.000000,1.000000,24.000000,,,,0.000000,2.000000,2.000000,0.000000,4.000000,2.000000,2.000000,0.000000,0.000000,4.000000,4.000000,4.000000,4.000000,4.000000,4.000000,0.000000,,,,,,,,,,,,,,,,,16.000000,0.000000,0.528613,0.495239,-0.526001,0.445679,0.996215,0.092785,-0.031742,-34.638500,45.869354,31.218121
1732157522.488768,1732157522.489774,65.000000,0.000000,4294.743652,4280.384766,4322.563965,4295.000000,4265.641113,4280.256348,4338.461426,4401.410156,4294.358887,4282.307617,4465.128418,4497.563965,4342.307617,4397.307617,1596.000000,1.000000,24.000000,,,,0.000000,2.000000,2.000000,0.000000,4.000000,2.000000,2.000000,0.000000,0.000000,4.000000,4.000000,4.000000,4.000000,4.000000,4.000000,0.000000,,,,,,,,,,,,,,,,,,,,,,,,,,,,
1732157522.496577,1732157522.497782,66.000000,0.000000,4296.282227,4281.794922,4324.871582,4297.820313,4272.051270,4280.897461,4341.025879,4400.769043,4294.102539,4288.333496,4467.563965,4502.692383,4345.641113,4406.922852,1372.000000,1.000000,24.000000,,,,0.000000,2.000000,2.000000,0.000000,4.000000,2.000000,2.000000,0.000000,0.000000,4.000000,4.000000,4.000000,4.000000,4.000000,4.000000,0.000000,,,,,,,,,,,,,,,,,,,,,,,,,,,,
1732157522.504385,1732157522.505590,67.000000,0.000000,4301.410156,4283.077148,4325.769043,4298.333496,4279.487305,4280.128418,4343.461426,4401.922852,4297.051270,4295.128418,4472.051270,4509.230957,4344.230957,4413.589844,1414.000000,1.000000,24.000000,,,,0.000000,2.000000,2.000000,0.000000,4.000000,2.000000,2.000000,0.000000,0.000000,4.000000,4.000000,4.000000,4.000000,4.000000,4.000000,0.000000,,,,,,,,,,,,,,,,,,,,,,,,,,,,
1732157522.512193,1732157522.513298,68.000000,0.000000,4303.846191,4282.307617,4323.974121,4296.794922,4279.871582,4278.077148,4341.794922,4397.563965,4295.512695,4293.461426,4471.922852,4508.333496,4341.282227,4412.436035,1426.000000,1.000000,24.000000,,,,0.000000,2.000000,2.000000,0.000000,4.000000,2.000000,2.000000,0.000000,0.000000,4.000000,4.000000,4.000000,4.000000,4.000000,4.000000,0.000000,,,,,,,,,,,,,,,,,17.000000,0.000000,0.527677,0.494934,-0.526917,0.446045,1.006959,0.058113,-0.061043,-34.545517,45.805843,31.245010
1732157522.520002,1732157522.521106,69.000000,0.000000,4303.333496,4278.846191,4323.974121,4296.538574,4279.871582,4277.820313,4338.461426,4397.692383,4293.717773,4291.153809,4472.563965,4506.922852,4344.743652,4413.461426,1220.000000,1.000000,24.000000,,,,0.000000,2.000000,2.000000,0.000000,4.000000,2.000000,2.000000,0.000000,0.000000,4.000000,4.000000,4.000000,4.000000,4.000000,4.000000,0.000000,,,,,,,,,,,,,,,,,,,,,,,,,,,,
1732157522.527810,1732157522.528715,70.000000,0.000000,4302.948730,4277.563965,4326.538574,4295.256348,4282.692383,4280.128418,4338.333496,4406.410156,4296.153809,4292.692383,4468.717773,4506.794922,4344.230957,4413.461426,0.000000,1.000000,24.000000,,,,0.000000,2.000000,2.000000,0.000000,4.000000,2.000000,2.000000,0.000000,0.000000,4.000000,4.000000,4.000000,4.000000,4.000000,4.000000,0.000000,,,,,,,,,,,,,,,,,,,,,,,,,,,,
1732157522.535618,1732157522.536523,71.000000,0.000000,4302.563965,4279.615234,4328.846191,4294.871582,4283.589844,4280.897461,4341.666504,4408.461426,4295.512695,4291.922852,4459.871582,4505.256348,4334.487305,4409.358887,0.000000,1.000000,24.000000,,,,0.000000,2.000000,2.000000,0.000000,4.000000,2.000000,2.000000,0.000000,0.000000,4.000000,4.000000,4.000000,4.000000,4.000000,4.000000,0.000000,,,,,,,,,,,,,,,,,,,,,,,,,,,,
1732157522.543426,1732157522.544431,72.000000,0.000000,4303.333496,4273.717773,4330.897461,4297.051270,4287.307617,4280.128418,4348.077148,4402.563965,4293.589844,4291.025879,4464.871582,4505.769043,4332.179688,4410.384766,1523.000000,1.000000,24.000000,,,,0.000000,2.000000,2.000000,0.000000,4.000000,2.000000,2.000000,0.000000,0.000000,4.000000,4.000000,4.000000,4.000000,4.000000,4.000000,0.000000,,,,,,,,,,,,,,,,,18.000000,0.000000,0.526772,0.494873,-0.527466,0.446533,1.006959,0.058113,-0.061043,-34.568535,45.494400,31.261791
1732157522.551234,1732157522.552239,73.000000,0.000000,4302.820313,4263.589844,4331.666504,4296.025879,4292.436035,4283.717773,4350.256348,4403.589844,4296.025879,4295.256348,4476.025879,4505.384766,4341.153809,4414.230957,1680.000000,1.000000,24.000000,,,,0.000000,2.000000,2.000000,0.000000,4.000000,2.000000,2.000000,0.000000,0.000000,4.000000,4.000000,4.000000,4.000000,4.000000,4.000000,0.000000,,,,,,,,,,,,,,,,,,,,,,,,,,,,
1732157522.559043,1732157522.560247,74.000000,0.000000,4298.205078,4263.717773,4333.461426,4293.589844,4291.410156,4289.487305,4343.205078,4409.102539,4299.358887,4297.948730,4473.077148,4505.512695,4340.256348,4413.077148,1536.000000,1.000000,24.000000,,,,0.000000,2.000000,2.000000,0.000000,4.000000,2.000000,2.000000,0.000000,0.000000,4.000000,4.000000,4.000000,4.000000,4.000000,4.000000,0.000000,,,,,,,,,,,,,,,,,,,,,,,,,,,,
1732157522.566851,1732157522.568055,75.000000,0.000000,4295.897461,4263.077148,4338.205078,4294.102539,4290.897461,4289.743652,4342.051270,4409.743652,4296.282227,4297.436035,4468.846191,4507.820313,4330.897461,4411.922852,1571.000000,1.000000,24.000000,,,,0.000000,2.000000,2.000000,0.000000,4.000000,2.000000,2.000000,0.000000,0.000000,4.000000,4.000000,4.000000,4.000000,4.000000,4.000000,0.000000,,,,,,,,,,,,,,,,,,,,,,,,,,,,
1732157522.574659,1732157522.575964,76.000000,0.000000,4298.077148,4253.205078,4341.282227,4294.615234,4291.666504,4284.358887,4350.769043,4407.051270,4293.846191,4301.794922,4474.102539,4507.307617,4332.436035,4412.820313,1698.000000,1.000000,24.000000,,,,0.000000,2.000000,2.000000,0.000000,4.000000,2.000000,2.000000,0.000000,0.000000,4.000000,4.000000,4.000000,4.000000,4.000000,4.000000,0.000000,,,,,,,,,,,,,,,,,19.000000,0.000000,0.523117,0.493713,-0.529541,0.449646,0.960078,0.019534,-0.056648,-34.547180,45.685463,31.318718
1732157522.582467,1732157522.583772,77.000000,0.000000,4297.563965,4249.358887,4338.717773,4290.512695,4292.051270,4281.025879,4352.179688,4407.436035,4300.769043,4311.025879,4478.333496,4505.128418,4338.717773,4416.025879,1639.000000,1.000000,24.000000,,,,0.000000,2.000000,2.000000,0.000000,4.000000,2.000000,2.000000,0.000000,0.000000,4.000000,4.000000,4.000000,4.000000,4.000000,4.000000,0.000000,,,,,,,,,,,,,,,,,,,,,,,,,,,,
1732157522.590276,1732157522.591780,78.000000,0.000000,4292.436035,4249.487305,4337.948730,4285.128418,4292.051270,4281.025879,4348.974121,4410.384766,4304.487305,4312.051270,4476.410156,4506.794922,4333.589844,4417.948730,1536.000000,1.000000,24.000000,,,,0.000000,2.000000,2.000000,0.000000,4.000000,2.000000,2.000000,0.000000,0.000000,4.000000,4.000000,4.000000,4.000000,4.000000,4.000000,0.000000,1.000000,0.000000,2.000000,2.000000,0.000000,4.000000,2.000000,2.000000,0.000000,0.000000,4.000000,4.000000,4.000000,4.000000,4.000000,4.000000,,,,,,,,,,,,
1732157522.598084,1732157522.599588,79.000000,0.000000,4292.692383,4248.717773,4339.358887,4286.666504,4292.051270,4280.512695,4351.153809,4410.641113,4298.461426,4304.615234,4473.974121,4506.538574,4328.205078,4417.436035,1571.000000,1.000000,24.000000,,,,0.000000,2.000000,2.000000,0.000000,4.000000,2.000000,2.000000,0.000000,0.000000,4.000000,4.000000,4.000000,4.000000,4.000000,4.000000,0.000000,,,,,,,,,,,,,,,,,,,,,,,,,,,,
1732157522.605892,1732157522.607496,80.000000,0.000000,4300.897461,4253.846191,4338.333496,4293.974121,4292.692383,4281.025879,4349.615234,4410.769043,4296.282227,4303.461426,4475.000000,4508.717773,4330.384766,4421.794922,1698.000000,1.000000,24.000000,,,,0.000000,2.000000,2.000000,0.000000,4.000000,2.000000,2.000000,0.000000,0.000000,4.000000,4.000000,4.000000,4.000000,4.000000,4.000000,0.000000,,,,,,,,,,,,,,,,,20.000000,0.000000,0.522187,0.492798,-0.530273,0.450867,0.979612,0.012209,-0.030765,-34.589882,45.696892,31.349829
1732157522.613701,1732157522.615304,81.000000,0.000000,4305.256348,4257.179688,4336.538574,4296.666504,4295.000000,4281.410156,4346.153809,4408.333496,4297.307617,4308.461426,4476.922852,4514.871582,4329.871582,4427.948730,1639.000000,1.000000,24.000000,,,,0.000000,2.000000,2.000000,0.000000,4.000000,2.000000,2.000000,0.000000,0.000000,4.000000,4.000000,4.000000,4.000000,4.000000,4.000000,0.000000,,,,,,,,,,,,,,,,,,,,,,,,,,,,
1732157522.621509,1732157522.623312,82.000000,0.000000,4302.948730,4252.051270,4334.102539,4294.102539,4297.051270,4281.153809,4347.436035,4405.256348,4297.820313,4310.641113,4476.410156,4513.461426,4325.769043,4426.410156,1536.000000,1.000000,24.000000,,,,0.000000,2.000000,2.000000,0.000000,4.000000,2.000000,2.000000,0.000000,0.000000,4.000000,4.000000,4.000000,4.000000,4.000000,4.000000,0.000000,,,,,,,,,,,,,,,,,,,,,,,,,,,,
1732157522.629317,1732157522.631120,83.000000,0.000000,4301.666504,4251.025879,4332.307617,4295.512695,4298.333496,4284.743652,4347.820313,4408.333496,4304.743652,4309.871582,4474.871582,4506.794922,4325.256348,4417.820313,1571.000000,1.000000,24.000000,,,,0.000000,2.000000,2.000000,0.000000,4.000000,2.000000,2.000000,0.000000,0.000000,4.000000,4.000000,4.000000,4.000000,4.000000,4.000000,0.000000,,,,,,,,,,,,,,,,,,,,,,,,,,,,
1732157522.637125,1732157522.639029,84.000000,0.000000,4300.769043,4251.282227,4330.000000,4296.153809,4300.641113,4289.230957,4344.871582,4408.333496,4306.153809,4308.077148,4474.743652,4508.974121,4326.922852,4415.641113,1698.000000,1.000000,24.000000,,,,0.000000,2.000000,2.000000,0.000000,4.000000,2.000000,2.000000,0.000000,0.000000,4.000000,4.000000,4.000000,4.000000,4.000000,4.000000,0.000000,,,,,,,,,,,,,,,,,21.000000,0.000000,0.521897,0.492432,-0.530640,0.451172,0.969845,0.009767,-0.041021,-34.594471,45.677814,31.761694
1732157522.644933,1732157522.646837,85.000000,0.000000,4300.256348,4250.769043,4325.769043,4294.615234,4301.794922,4284.230957,4341.410156,4404.358887,4299.487305,4308.974121,4476.538574,4513.974121,4327.307617,4421.666504,1639.000000,1.000000,24.000000,,,,0.000000,2.000000,2.000000,0.000000,4.000000,2.000000,2.000000,0.000000,0.000000,4.000000,4.000000,4.000000,4.000000,4.000000,4.000000,0.000000,,,,,,,,,,,,,,,,,,,,,,,,,,,,
1732157522.652742,1732157522.654845,86.000000,0.000000,4303.461426,4256.666504,4323.333496,4298.846191,4302.948730,4279.615234,4338.846191,4403.333496,4304.487305,4311.282227,4477.307617,4511.282227,4328.205078,4422.948730,1536.000000,1.000000,24.000000,,,,0.000000,2.000000,2.000000,0.000000,4.000000,2.000000,2.000000,0.000000,0.000000,4.000000,4.000000,4.000000,4.000000,4.000000,4.000000,0.000000,,,,,,,,,,,,,,,,,,,,,,,,,,,,
1732157522.660550,1732157522.662653,87.000000,0.000000,4301.153809,4258.077148,4324.487305,4304.230957,4305.256348,4285.256348,4338.846191,4406.025879,4311.282227,4311.922852,4476.538574,4509.102539,4328.589844,4416.538574,1571.000000,1.000000,24.000000,,,,0.000000,2.000000,2.000000,0.000000,4.000000,2.000000,2.000000,0.000000,0.000000,4.000000,4.000000,4.000000,4.000000,4.000000,4.000000,0.000000,,,,,,,,,,,,,,,,,,,,,,,,,,,,
1732157522.668358,1732157522.670561,88.000000,0.000000,4295.769043,4253.205078,4323.846191,4306.282227,4305.256348,4284.871582,4340.641113,4404.871582,4305.897461,4310.769043,4476.410156,4510.128418,4328.205078,4412.436035,1698.000000,1.000000,24.000000,,,,0.000000,2.000000,2.000000,0.000000,4.000000,2.000000,2.000000,0.000000,0.000000,4.000000,4.000000,4.000000,4.000000,4.000000,4.000000,0.000000,,,,,,,,,,,,,,,,,22.000000,0.000000,0.521204,0.491882,-0.531311,0.451782,0.981565,0.017092,-0.050299,-34.703190,45.707363,31.521973
1732157522.676166,1732157522.678369,89.000000,0.000000,4299.230957,4257.948730,4321.794922,4308.589844,4305.769043,4282.307617,4339.743652,4403.717773,4305.769043,4311.410156,4477.307617,4508.846191,4328.461426,4414.871582,1639.000000,1.000000,24.000000,,,,0.000000,2.000000,2.000000,0.000000,4.000000,2.000000,2.000000,0.000000,0.000000,4.000000,4.000000,4.000000,4.000000,4.000000,4.000000,0.000000,,,,,,,,,,,,,,,,,,,,,,,,,,,,
1732157522.683975,1732157522.686377,90.000000,0.000000,4302.820313,4262.051270,4321.794922,4310.000000,4309.871582,4289.358887,4339.358887,4406.282227,4312.307617,4312.692383,4477.436035,4507.692383,4328.333496,4419.487305,1536.000000,1.000000,24.000000,,,,0.000000,2.000000,2.000000,0.000000,4.000000,2.000000,2.000000,0.000000,0.000000,4.000000,4.000000,4.000000,4.000000,4.000000,4.000000,0.000000,,,,,,,,,,,,,,,,,,,,,,,,,,,,
1732157522.691783,1732157522.694186,91.000000,0.000000,4303.461426,4256.666504,4322.563965,4306.922852,4307.820313,4292.051270,4340.512695,4404.487305,4309.487305,4311.410156,4476.282227,4507.692383,4328.333496,4420.384766,1571.000000,1.000000,24.000000,,,,0.000000,2.000000,2.000000,0.000000,4.000000,2.000000,2.000000,0.000000,0.000000,4.000000,4.000000,4.000000,4.000000,4.000000,4.000000,0.000000,,,,,,,,,,,,,,,,,,,,,,,,,,,,
1732157522.699591,1732157522.702094,92.000000,0.000000,4303.205078,4258.205078,4321.282227,4305.384766,4301.666504,4289.230957,4341.538574,4404.487305,4307.436035,4308.333496,4476.538574,4508.717773,4328.205078,4417.179688,1698.000000,1.000000,24.000000,,,,0.000000,2.000000,2.000000,0.000000,4.000000,2.000000,2.000000,0.000000,0.000000,4.000000,4.000000,4.000000,4.000000,4.000000,4.000000,0.000000,,,,,,,,,,,,,,,,,23.000000,0.000000,0.518825,0.490417,-0.533325,0.453735,0.988402,0.012209,-0.051764,-34.749584,45.659634,31.597797
1732157522.707399,1732157522.709902,93.000000,0.000000,4300.897461,4261.794922,4316.666504,4305.128418,4300.128418,4291.025879,4342.179688,4408.333496,4310.641113,4306.794922,4476.666504,4511.538574,4328.205078,4419.230957,1639.000000,1.000000,24.000000,,,,0.000000,2.000000,2.000000,0.000000,4.000000,2.000000,2.000000,0.000000,0.000000,4.000000,4.000000,4.000000,4.000000,4.000000,4.000000,0.000000,,,,,,,,,,,,,,,,,,,,,,,,,,,,
1732157522.715208,1732157522.717510,94.000000,0.000000,4299.615234,4256.282227,4315.641113,4301.666504,4299.743652,4292.948730,4341.025879,4409.102539,4310.000000,4308.846191,4476.538574,4513.333496,4328.846191,4426.282227,1536.000000,1.000000,24.000000,,,,0.000000,2.000000,2.000000,0.000000,4.000000,2.000000,2.000000,0.000000,0.000000,4.000000,4.000000,4.000000,4.000000,4.000000,4.000000,0.000000,,,,,,,,,,,,,,,,,,,,,,,,,,,,
1732157522.723016,1732157522.725318,95.000000,0.000000,4303.461426,4256.025879,4322.051270,4300.000000,4295.384766,4290.512695,4341.282227,4404.358887,4307.948730,4310.897461,4477.436035,4515.256348,4328.077148,4428.205078,1571.000000,1.000000,24.000000,,,,0.000000,2.000000,2.000000,0.000000,4.000000,2.000000,2.000000,0.000000,0.000000,4.000000,4.000000,4.000000,4.000000,4.000000,4.000000,0.000000,,,,,,,,,,,,,,,,,,,,,,,,,,,,
1732157522.730824,1732157522.733027,96.000000,0.000000,4306.025879,4263.846191,4322.179688,4306.666504,4297.948730,4292.179688,4342.436035,4401.922852,4310.384766,4310.769043,4478.333496,4517.692383,4328.333496,4426.410156,1698.000000,1.000000,24.000000,,,,0.000000,2.000000,2.000000,0.000000,4.000000,2.000000,2.000000,0.000000,0.000000,4.000000,4.000000,4.000000,4.000000,4.000000,4.000000,0.000000,,,,,,,,,,,,,,,,,24.000000,0.000000,0.518825,0.490417,-0.533325,0.453735,0.984495,-0.001465,-0.057624,-34.622162,45.725967,31.659216
1732157522.738632,1732157522.740835,97.000000,0.000000,4305.256348,4263.589844,4317.820313,4311.410156,4303.974121,4294.743652,4339.615234,4403.589844,4312.948730,4311.794922,4479.102539,4519.487305,4330.256348,4427.563965,1639.000000,1.000000,24.000000,,,,0.000000,2.000000,2.000000,0.000000,4.000000,2.000000,2.000000,0.000000,0.000000,4.000000,4.000000,4.000000,4.000000,4.000000,4.000000,0.000000,,,,,,,,,,,,,,,,,,,,,,,,,,,,
1732157522.746441,1732157522.748443,98.000000,0.000000,4302.692383,4252.307617,4319.487305,4303.333496,4297.563965,4295.000000,4335.000000,4402.179688,4312.563965,4312.179688,4478.717773,4517.307617,4329.358887,4427.948730,1536.000000,1.000000,24.000000,,,,0.000000,2.000000,2.000000,0.000000,4.000000,2.000000,2.000000,0.000000,0.000000,4.000000,4.000000,4.000000,4.000000,4.000000,4.000000,0.000000,,,,,,,,,,,,,,,,,,,,,,,,,,,,
1732157522.754249,1732157522.756252,99.000000,0.000000,4298.205078,4247.051270,4322.307617,4298.589844,4303.974121,4293.717773,4333.717773,4401.666504,4312.179688,4309.871582,4475.512695,4512.307617,4325.512695,4421.922852,1571.000000,1.000000,24.000000,,,,0.000000,2.000000,2.000000,0.000000,4.000000,2.000000,2.000000,0.000000,0.000000,4.000000,4.000000,4.000000,4.000000,4.000000,4.000000,0.000000,,,,,,,,,,,,,,,,,,,,,,,,,,,,
1732157522.762057,1732157522.763960,100.000000,0.000000,4298.077148,4252.436035,4320.000000,4303.461426,4318.717773,4292.692383,4337.051270,4403.333496,4314.230957,4308.846191,4472.051270,4509.102539,4322.692383,4414.230957,1698.000000,1.000000,24.000000,,,,0.000000,2.000000,2.000000,0.000000,4.000000,2.000000,2.000000,0.000000,0.000000,4.000000,4.000000,4.000000,4.000000,4.000000,4.000000,0.000000,,,,,,,,,,,,,,,,,25.000000,0.000000,0.516894,0.488647,-0.535156,0.455688,0.969845,-0.022952,-0.063973,-34.852283,45.556366,31.818966
1732157522.769865,1732157522.771768,101.000000,0.000000,4298.846191,4252.563965,4316.666504,4304.230957,4307.563965,4297.179688,4339.615234,4403.077148,4311.025879,4309.230957,4472.307617,4507.179688,4321.538574,4414.358887,1639.000000,1.000000,24.000000,,,,0.000000,2.000000,2.000000,0.000000,4.000000,2.000000,2.000000,0.000000,0.000000,4.000000,4.000000,4.000000,4.000000,4.000000,4.000000,0.000000,,,,,,,,,,,,,,,,,,,,,,,,,,,,
1732157522.777674,1732157522.779377,102.000000,0.000000,4299.487305,4250.897461,4316.538574,4301.666504,4289.230957,4293.333496,4339.358887,4402.563965,4300.641113,4306.538574,4474.871582,4507.436035,4324.230957,4419.487305,1536.000000,1.000000,24.000000,,,,0.000000,2.000000,2.000000,0.000000,4.000000,2.000000,2.000000,0.000000,0.000000,4.000000,4.000000,4.000000,4.000000,4.000000,4.000000,0.000000,,,,,,,,,,,,,,,,,,,,,,,,,,,,
1732157522.785482,1732157522.787185,103.000000,0.000000,4301.922852,4257.307617,4319.487305,4304.230957,4292.563965,4281.282227,4340.000000,4403.974121,4298.333496,4299.230957,4475.256348,4508.333496,4326.538574,4415.641113,1571.000000,1.000000,24.000000,,,,0.000000,2.000000,2.000000,0.000000,4.000000,2.000000,2.000000,0.000000,0.000000,4.000000,4.000000,4.000000,4.000000,4.000000,4.000000,0.000000,,,,,,,,,,,,,,,,,,,,,,,,,,,,
1732157522.793290,1732157522.795093,104.000000,0.000000,4300.128418,4257.436035,4322.692383,4303.717773,4297.307617,4279.230957,4339.102539,4405.128418,4304.871582,4295.769043,4473.846191,4507.179688,4323.461426,4412.948730,1698.000000,1.000000,24.000000,,,,0.000000,2.000000,2.000000,0.000000,4.000000,2.000000,2.000000,0.000000,0.000000,4.000000,4.000000,4.000000,4.000000,4.000000,4.000000,0.000000,,,,,,,,,,,,,,,,,26.000000,0.000000,0.515689,0.487366,-0.536133,0.457275,0.984984,-0.003907,-0.046881,-34.810352,45.697323,31.578362
1732157522.801098,1732157522.802901,105.000000,0.000000,4299.230957,4253.974121,4320.128418,4302.692383,4292.563965,4283.205078,4336.410156,4402.692383,4306.794922,4302.563965,4477.692383,4509.615234,4325.384766,4422.820313,1639.000000,1.000000,24.000000,,,,0.000000,2.000000,2.000000,0.000000,4.000000,2.000000,2.000000,0.000000,0.000000,4.000000,4.000000,4.000000,4.000000,4.000000,4.000000,0.000000,,,,,,,,,,,,,,,,,,,,,,,,,,,,
1732157522.808907,1732157522.810509,106.000000,0.000000,4306.282227,4263.461426,4318.461426,4308.974121,4294.871582,4281.666504,4334.615234,4401.922852,4302.563965,4305.128418,4482.563965,4520.256348,4334.487305,4431.538574,1536.000000,1.000000,24.000000,,,,0.000000,2.000000,2.000000,0.000000,4.000000,2.000000,2.000000,0.000000,0.000000,4.000000,4.000000,4.000000,4.000000,4.000000,4.000000,0.000000,,,,,,,,,,,,,,,,,,,,,,,,,,,,
1732157522.816715,1732157522.818318,107.000000,0.000000,4312.563965,4270.384766,4318.846191,4312.179688,4297.563965,4280.384766,4335.000000,4405.128418,4303.717773,4297.436035,4478.461426,4528.333496,4337.436035,4432.436035,1571.000000,1.000000,24.000000,,,,0.000000,2.000000,2.000000,0.000000,4.000000,2.000000,2.000000,0.000000,0.000000,4.000000,4.000000,4.000000,4.000000,4.000000,4.000000,0.000000,,,,,,,,,,,,,,,,,,,,,,,,,,,,
1732157522.824523,1732157522.826226,108.000000,0.000000,4312.179688,4266.025879,4317.051270,4307.820313,4292.692383,4282.179688,4335.000000,4408.333496,4308.077148,4294.487305,4476.410156,4526.282227,4333.717773,4432.563965,1698.000000,1.000000,24.000000,,,,0.000000,2.000000,2.000000,0.000000,4.000000,2.000000,2.000000,0.000000,0.000000,4.000000,4.000000,4.000000,4.000000,4.000000,4.000000,0.000000,,,,,,,,,,,,,,,,,27.000000,0.000000,0.515869,0.486206,-0.536804,0.457520,0.997192,-0.013185,-0.052741,-34.856384,45.791500,31.328472
1732157522.832331,1732157522.834034,109.000000,0.000000,4311.794922,4264.487305,4314.487305,4305.897461,4286.282227,4279.358887,4335.128418,4406.666504,4303.333496,4300.384766,4482.307617,4524.358887,4336.025879,4433.461426,1639.000000,1.000000,24.000000,,,,0.000000,2.000000,2.000000,0.000000,4.000000,2.000000,2.000000,0.000000,0.000000,4.000000,4.000000,4.000000,4.000000,4.000000,4.000000,0.000000,,,,,,,,,,,,,,,,,,,,,,,,,,,,
1732157522.840140,1732157522.842042,110.000000,0.000000,4312.051270,4267.307617,4315.384766,4309.358887,4282.179688,4275.641113,4336.025879,4403.846191,4294.871582,4295.641113,4481.025879,4522.436035,4339.230957,4431.410156,1536.000000,1.000000,24.000000,,,,0.000000,2.000000,2.000000,0.000000,4.000000,2.000000,2.000000,0.000000,0.000000,4.000000,4.000000,4.000000,4.000000,4.000000,4.000000,0.000000,,,,,,,,,,,,,,,,,,,,,,,,,,,,
1732157522.847948,1732157522.849850,111.000000,0.000000,4311.538574,4271.282227,4318.974121,4310.512695,4282.179688,4276.282227,4334.743652,4401.794922,4294.487305,4283.846191,4473.461426,4520.641113,4335.256348,4431.153809,1571.000000,1.000000,24.000000,,,,0.000000,2.000000,2.000000,0.000000,4.000000,2.000000,2.000000,0.000000,0.000000,4.000000,4.000000,4.000000,4.000000,4.000000,4.000000,0.000000,,,,,,,,,,,,,,,,,,,,,,,,,,,,
1732157522.855756,1732157522.857758,112.000000,0.000000,4312.948730,4278.333496,4318.205078,4308.589844,4281.025879,4279.102539,4334.743652,4399.743652,4299.871582,4287.820313,4480.256348,4522.948730,4336.794922,4431.538574,1698.000000,1.000000,24.000000,,,,0.000000,2.000000,2.000000,0.000000,4.000000,2.000000,2.000000,0.000000,0.000000,4.000000,4.000000,4.000000,4.000000,4.000000,4.000000,0.000000,,,,,,,,,,,,,,,,,28.000000,0.000000,0.515858,0.485901,-0.536987,0.457642,0.997192,-0.013185,-0.052741,-35.105339,45.609447,31.076063
1732157522.863564,1732157522.865567,113.000000,0.000000,4313.333496,4278.846191,4315.769043,4308.974121,4279.230957,4278.589844,4335.128418,4402.307617,4299.743652,4296.282227,4489.871582,4523.077148,4344.358887,4429.487305,1639.000000,1.000000,24.000000,,,,0.000000,2.000000,2.000000,0.000000,4.000000,2.000000,2.000000,0.000000,0.000000,4.000000,4.000000,4.000000,4.000000,4.000000,4.000000,0.000000,,,,,,,,,,,,,,,,,,,,,,,,,,,,
1732157522.871373,1732157522.873575,114.000000,0.000000,4313.205078,4277.051270,4316.282227,4310.897461,4279.743652,4276.922852,4334.871582,4405.128418,4298.589844,4293.077148,4482.436035,4521.282227,4341.025879,4428.461426,1536.000000,1.000000,24.000000,,,,0.000000,2.000000,2.000000,0.000000,4.000000,2.000000,2.000000,0.000000,0.000000,4.000000,4.000000,4.000000,4.000000,4.000000,4.000000,0.000000,,,,,,,,,,,,,,,,,,,,,,,,,,,,
1732157522.879181,1732157522.881383,115.000000,0.000000,4312.051270,4280.641113,4318.717773,4313.205078,4282.820313,4281.410156,4334.871582,4402.948730,4306.538574,4291.282227,4477.563965,4522.948730,4334.102539,4427.436035,1571.000000,1.000000,24.000000,,,,0.000000,2.000000,2.000000,0.000000,4.000000,2.000000,2.000000,0.000000,0.000000,4.000000,4.000000,4.000000,4.000000,4.000000,4.000000,0.000000,,,,,,,,,,,,,,,,,,,,,,,,,,,,
1732157522.886989,1732157522.889091,116.000000,0.000000,4310.384766,4281.794922,4317.436035,4311.538574,4282.563965,4282.820313,4335.000000,4401.025879,4309.743652,4296.538574,4489.487305,4522.692383,4343.846191,4428.205078,1698.000000,1.000000,24.000000,,,,0.000000,2.000000,2.000000,0.000000,4.000000,2.000000,2.000000,0.000000,0.000000,4.000000,4.000000,4.000000,4.000000,4.000000,4.000000,0.000000,,,,,,,,,,,,,,,,,29.000000,0.000000,0.515979,0.485657,-0.536987,0.457764,1.002075,0.002930,-0.036626,-35.103657,45.436985,31.051611
1732157522.894797,1732157522.896899,117.000000,0.000000,4309.358887,4279.358887,4314.615234,4302.307617,4273.077148,4274.230957,4334.871582,4404.358887,4301.922852,4294.487305,4495.769043,4520.512695,4354.615234,4433.846191,1639.000000,1.000000,24.000000,,,,0.000000,2.000000,2.000000,0.000000,4.000000,2.000000,2.000000,0.000000,0.000000,4.000000,4.000000,4.000000,4.000000,4.000000,4.000000,0.000000,,,,,,,,,,,,,,,,,,,,,,,,,,,,
1732157522.902605,1732157522.904907,118.000000,0.000000,4309.871582,4279.230957,4313.333496,4295.128418,4263.846191,4272.051270,4334.871582,4404.871582,4297.436035,4289.871582,4491.025879,4520.384766,4359.358887,4439.487305,1536.000000,1.000000,24.000000,,,,0.000000,2.000000,2.000000,0.000000,4.000000,2.000000,2.000000,0.000000,0.000000,4.000000,4.000000,4.000000,4.000000,4.000000,4.000000,0.000000,,,,,,,,,,,,,,,,,,,,,,,,,,,,
1732157522.910414,1732157522.912715,119.000000,0.000000,4315.256348,4274.230957,4312.436035,4297.436035,4266.666504,4278.077148,4335.128418,4403.717773,4301.282227,4294.743652,4498.974121,4521.922852,4373.461426,4447.307617,1571.000000,1.000000,24.000000,,,,0.000000,2.000000,2.000000,0.000000,4.000000,2.000000,2.000000,0.000000,0.000000,4.000000,4.000000,4.000000,4.000000,4.000000,4.000000,0.000000,,,,,,,,,,,,,,,,,,,,,,,,,,,,
1732157522.918222,1732157522.920624,120.000000,0.000000,4322.820313,4265.256348,4313.974121,4298.461426,4267.436035,4275.512695,4334.743652,4404.358887,4298.717773,4297.563965,4509.230957,4524.487305,4385.384766,4457.436035,1698.000000,1.000000,24.000000,,,,0.000000,2.000000,2.000000,0.000000,4.000000,2.000000,2.000000,0.000000,0.000000,4.000000,4.000000,4.000000,4.000000,4.000000,4.000000,0.000000,,,,,,,,,,,,,,,,,30.000000,0.000000,0.516821,0.484741,-0.537109,0.457642,0.970822,0.021975,-0.041509,-35.302296,45.420624,31.191805
1732157522.926030,1732157522.928432,121.000000,0.000000,4324.487305,4262.051270,4313.974121,4294.615234,4255.256348,4265.769043,4334.743652,4403.974121,4292.948730,4294.871582,4506.153809,4529.871582,4386.153809,4463.589844,1639.000000,1.000000,24.000000,,,,0.000000,2.000000,2.000000,0.000000,4.000000,2.000000,2.000000,0.000000,0.000000,4.000000,4.000000,4.000000,4.000000,4.000000,4.000000,0.000000,,,,,,,,,,,,,,,,,,,,,,,,,,,,
1732157522.933838,1732157522.936440,122.000000,0.000000,4324.871582,4263.717773,4312.179688,4293.205078,4248.717773,4263.589844,4336.025879,4404.743652,4303.589844,4295.769043,4510.384766,4535.769043,4393.205078,4468.077148,1536.000000,1.000000,24.000000,,,,0.000000,2.000000,2.000000,0.000000,4.000000,2.000000,2.000000,0.000000,0.000000,4.000000,4.000000,4.000000,4.000000,4.000000,4.000000,0.000000,,,,,,,,,,,,,,,,,,,,,,,,,,,,
1732157522.941647,1732157522.944248,123.000000,0.000000,4331.538574,4263.974121,4313.846191,4292.436035,4250.256348,4266.153809,4336.922852,4406.538574,4314.102539,4298.717773,4522.692383,4537.563965,4408.077148,4475.128418,1571.000000,1.000000,24.000000,,,,0.000000,2.000000,2.000000,0.000000,4.000000,2.000000,2.000000,0.000000,0.000000,4.000000,4.000000,4.000000,4.000000,4.000000,4.000000,0.000000,,,,,,,,,,,,,,,,,,,,,,,,,,,,
1732157522.949455,1732157522.952156,124.000000,0.000000,4336.282227,4264.487305,4313.717773,4291.794922,4247.436035,4264.487305,4336.153809,4403.974121,4303.205078,4296.794922,4523.589844,4537.563965,4414.743652,4478.717773,1698.000000,1.000000,24.000000,,,,0.000000,2.000000,2.000000,0.000000,4.000000,2.000000,2.000000,0.000000,0.000000,4.000000,4.000000,4.000000,4.000000,4.000000,4.000000,0.000000,,,,,,,,,,,,,,,,,31.000000,0.000000,0.517113,0.484680,-0.536987,0.457520,0.970822,0.021975,-0.041509,-35.286526,45.367374,31.240362
1732157522.957263,1732157522.959964,125.000000,0.000000,4333.077148,4265.000000,4312.307617,4287.692383,4245.384766,4262.436035,4335.384766,4400.384766,4293.589844,4294.102539,4519.230957,4537.692383,4412.820313,4474.871582,1639.000000,1.000000,24.000000,,,,0.000000,2.000000,2.000000,0.000000,4.000000,2.000000,2.000000,0.000000,0.000000,4.000000,4.000000,4.000000,4.000000,4.000000,4.000000,0.000000,,,,,,,,,,,,,,,,,,,,,,,,,,,,
1732157522.965072,1732157522.967972,126.000000,0.000000,4332.179688,4266.666504,4312.820313,4281.282227,4243.333496,4261.538574,4335.128418,4401.410156,4300.000000,4295.384766,4522.179688,4536.153809,4414.871582,4475.769043,1536.000000,1.000000,24.000000,,,,0.000000,2.000000,2.000000,0.000000,4.000000,2.000000,2.000000,0.000000,0.000000,4.000000,4.000000,4.000000,4.000000,4.000000,4.000000,0.000000,,,,,,,,,,,,,,,,,,,,,,,,,,,,
1732157522.972880,1732157522.975781,127.000000,0.000000,4337.307617,4270.128418,4314.358887,4282.051270,4234.871582,4261.922852,4335.384766,4403.846191,4305.256348,4298.717773,4526.153809,4538.717773,4422.948730,4484.102539,24.000000,1.000000,24.000000,,,,0.000000,2.000000,2.000000,0.000000,4.000000,2.000000,2.000000,0.000000,0.000000,4.000000,4.000000,4.000000,4.000000,4.000000,4.000000,0.000000,,,,,,,,,,,,,,,,,,,,,,,,,,,,
1732157522.980688,1732157522.983489,0.000000,0.000000,4342.692383,4273.077148,4315.000000,4288.333496,4232.307617,4263.077148,4336.153809,4402.563965,4307.179688,4299.230957,4526.410156,4544.102539,4429.743652,4492.051270,0.000000,1.000000,24.000000,,,,0.000000,2.000000,2.000000,0.000000,4.000000,2.000000,2.000000,0.000000,0.000000,4.000000,4.000000,4.000000,4.000000,4.000000,4.000000,0.000000,,,,,,,,,,,,,,,,,0.000000,0.000000,0.517871,0.485046,-0.536133,0.457275,0.976193,0.013674,-0.036626,-35.168755,45.455906,31.416361
1732157522.988496,1732157522.991297,1.000000,0.000000,4342.436035,4276.794922,4315.641113,4289.230957,4240.769043,4263.077148,4336.153809,4401.282227,4311.025879,4296.025879,4523.077148,4542.692383,4425.641113,4493.205078,1594.000000,1.000000,24.000000,,,,0.000000,2.000000,2.000000,0.000000,4.000000,2.000000,2.000000,0.000000,0.000000,4.000000,4.000000,4.000000,4.000000,4.000000,4.000000,0.000000,,,,,,,,,,,,,,,,,,,,,,,,,,,,
1732157522.996304,1732157522.999305,2.000000,0.000000,4336.025879,4280.641113,4315.897461,4283.974121,4245.000000,4263.589844,4336.410156,4400.641113,4303.974121,4296.538574,4521.538574,4534.743652,4418.077148,4485.000000,1372.000000,1.000000,24.000000,,,,0.000000,2.000000,2.000000,0.000000,4.000000,2.000000,2.000000,0.000000,0.000000,4.000000,4.000000,4.000000,4.000000,4.000000,4.000000,0.000000,,,,,,,,,,,,,,,,,,,,,,,,,,,,
1732157523.004113,1732157523.007113,3.000000,0.000000,4328.589844,4276.410156,4314.102539,4281.922852,4244.102539,4263.461426,4335.512695,4400.000000,4294.102539,4295.512695,4518.974121,4531.282227,4414.358887,4477.179688,1412.000000,1.000000,24.000000,,,,0.000000,2.000000,2.000000,0.000000,4.000000,2.000000,2.000000,0.000000,0.000000,4.000000,4.000000,4.000000,4.000000,4.000000,4.000000,0.000000,,,,,,,,,,,,,,,,,,,,,,,,,,,,
1732157523.011921,1732157523.015021,4.000000,0.000000,4322.051270,4268.717773,4313.077148,4282.948730,4245.384766,4266.025879,4334.871582,4400.769043,4299.358887,4290.128418,4509.871582,4527.820313,4407.948730,4470.769043,1422.000000,1.000000,24.000000,,,,0.000000,2.000000,2.000000,0.000000,4.000000,2.000000,2.000000,0.000000,0.000000,4.000000,4.000000,4.000000,4.000000,4.000000,4.000000,0.000000,,,,,,,,,,,,,,,,,1.000000,0.000000,0.517857,0.485352,-0.535767,0.457397,0.986449,0.028324,-0.044927,-35.083355,45.479282,31.385586
1732157523.019729,1732157523.022830,5.000000,0.000000,4317.948730,4265.256348,4313.205078,4280.256348,4246.538574,4277.307617,4337.948730,4403.974121,4309.487305,4288.974121,4504.487305,4526.025879,4399.358887,4463.461426,1220.000000,1.000000,24.000000,,,,0.000000,2.000000,2.000000,0.000000,4.000000,2.000000,2.000000,0.000000,0.000000,4.000000,4.000000,4.000000,4.000000,4.000000,4.000000,0.000000,,,,,,,,,,,,,,,,,,,,,,,,,,,,
1732157523.027537,1732157523.030838,6.000000,0.000000,4317.051270,4263.974121,4314.230957,4279.230957,4248.974121,4283.205078,4339.871582,4403.461426,4307.563965,4287.307617,4506.153809,4529.230957,4395.897461,4458.846191,0.000000,1.000000,24.000000,,,,0.000000,2.000000,2.000000,0.000000,4.000000,2.000000,2.000000,0.000000,0.000000,4.000000,4.000000,4.000000,4.000000,4.000000,4.000000,0.000000,,,,,,,,,,,,,,,,,,,,,,,,,,,,
1732157523.035346,1732157523.038646,7.000000,0.000000,4317.436035,4270.000000,4314.358887,4286.538574,4250.256348,4271.153809,4337.563965,4400.384766,4303.846191,4286.410156,4506.538574,4530.128418,4396.410156,4459.615234,0.000000,1.000000,24.000000,,,,0.000000,2.000000,2.000000,0.000000,4.000000,2.000000,2.000000,0.000000,0.000000,4.000000,4.000000,4.000000,4.000000,4.000000,4.000000,0.000000,,,,,,,,,,,,,,,,,,,,,,,,,,,,
1732157523.043154,1732157523.046554,8.000000,0.000000,4314.615234,4278.846191,4314.487305,4288.205078,4249.487305,4262.692383,4335.384766,4404.487305,4309.487305,4299.358887,4507.051270,4532.179688,4397.179688,4459.230957,1528.000000,1.000000,24.000000,,,,0.000000,2.000000,2.000000,0.000000,4.000000,2.000000,2.000000,0.000000,0.000000,4.000000,4.000000,4.000000,4.000000,4.000000,4.000000,0.000000,,,,,,,,,,,,,,,,,2.000000,0.000000,0.517709,0.485779,-0.535522,0.457397,0.986937,0.033696,-0.046392,-34.892517,45.466553,31.325657
1732157523.050962,1732157523.054362,9.000000,0.000000,4312.692383,4279.615234,4314.102539,4282.948730,4254.230957,4266.538574,4336.025879,4410.512695,4313.974121,4311.666504,4508.461426,4538.717773,4398.461426,4456.666504,1670.000000,1.000000,24.000000,,,,0.000000,2.000000,2.000000,0.000000,4.000000,2.000000,2.000000,0.000000,0.000000,4.000000,4.000000,4.000000,4.000000,4.000000,4.000000,0.000000,,,,,,,,,,,,,,,,,,,,,,,,,,,,
1732157523.058771,1732157523.062270,10.000000,0.000000,4317.179688,4278.846191,4313.589844,4288.717773,4260.897461,4267.948730,4335.897461,4407.051270,4309.358887,4302.307617,4507.436035,4540.769043,4396.922852,4458.846191,1534.000000,1.000000,24.000000,,,,0.000000,2.000000,2.000000,0.000000,4.000000,2.000000,2.000000,0.000000,0.000000,4.000000,4.000000,4.000000,4.000000,4.000000,4.000000,0.000000,,,,,,,,,,,,,,,,,,,,,,,,,,,,
1732157523.066579,1732157523.070078,11.000000,0.000000,4317.307617,4282.436035,4316.282227,4297.820313,4261.922852,4269.615234,4334.615234,4401.153809,4306.282227,4291.410156,4507.051270,4532.307617,4392.179688,4454.230957,1563.000000,1.000000,24.000000,,,,0.000000,2.000000,2.000000,0.000000,4.000000,2.000000,2.000000,0.000000,0.000000,4.000000,4.000000,4.000000,4.000000,4.000000,4.000000,0.000000,,,,,,,,,,,,,,,,,,,,,,,,,,,,
1732157523.074387,1732157523.077787,12.000000,0.000000,4313.077148,4283.846191,4318.333496,4297.436035,4260.897461,4275.897461,4334.743652,4401.794922,4309.102539,4295.897461,4507.692383,4524.102539,4387.307617,4446.794922,1698.000000,1.000000,24.000000,,,,0.000000,2.000000,2.000000,0.000000,4.000000,2.000000,2.000000,0.000000,0.000000,4.000000,4.000000,4.000000,4.000000,4.000000,4.000000,0.000000,,,,,,,,,,,,,,,,,3.000000,0.000000,0.517555,0.485962,-0.535400,0.457520,0.977170,0.019534,-0.053717,-35.071274,45.346241,31.137115
1732157523.082195,1732157523.085595,13.000000,0.000000,4307.820313,4277.307617,4314.871582,4293.461426,4262.179688,4278.717773,4338.333496,4404.358887,4310.769043,4299.615234,4503.333496,4524.102539,4379.230957,4442.948730,1636.000000,1.000000,24.000000,,,,0.000000,2.000000,2.000000,0.000000,4.000000,2.000000,2.000000,0.000000,0.000000,4.000000,4.000000,4.000000,4.000000,4.000000,4.000000,0.000000,,,,,,,,,,,,,,,,,,,,,,,,,,,,
1732157523.090003,1732157523.093203,14.000000,0.000000,4300.769043,4272.948730,4313.717773,4290.641113,4264.871582,4279.487305,4340.512695,4404.230957,4310.897461,4296.025879,4493.974121,4522.563965,4372.436035,4433.974121,1534.000000,1.000000,24.000000,,,,0.000000,2.000000,2.000000,0.000000,4.000000,2.000000,2.000000,0.000000,0.000000,4.000000,4.000000,4.000000,4.000000,4.000000,4.000000,0.000000,1.000000,0.000000,2.000000,2.000000,0.000000,4.000000,2.000000,2.000000,0.000000,0.000000,4.000000,3.000000,4.000000,4.000000,4.000000,4.000000,,,,,,,,,,,,
1732157523.097812,1732157523.101012,15.000000,0.000000,4298.077148,4274.487305,4315.769043,4291.282227,4265.769043,4281.922852,4336.410156,4403.717773,4309.487305,4293.461426,4493.846191,4518.461426,4372.820313,4430.384766,1563.000000,1.000000,24.000000,,,,0.000000,2.000000,2.000000,0.000000,4.000000,2.000000,2.000000,0.000000,0.000000,4.000000,4.000000,4.000000,4.000000,4.000000,4.000000,0.000000,,,,,,,,,,,,,,,,,,,,,,,,,,,,
1732157523.105620,1732157523.108720,16.000000,0.000000,4303.205078,4277.820313,4314.871582,4295.641113,4265.512695,4280.769043,4333.589844,4403.077148,4310.384766,4296.922852,4503.077148,4525.000000,4376.410156,4436.794922,0.000000,1.000000,24.000000,,,,0.000000,2.000000,2.000000,0.000000,4.000000,2.000000,2.000000,0.000000,0.000000,4.000000,4.000000,4.000000,4.000000,4.000000,4.000000,0.000000,,,,,,,,,,,,,,,,,4.000000,0.000000,0.517118,0.486389,-0.535278,0.457703,0.984495,0.016115,-0.044927,-34.994400,45.325455,30.941063
1732157523.113428,1732157523.116528,17.000000,0.000000,4304.487305,4278.461426,4313.205078,4295.512695,4264.871582,4278.077148,4335.384766,4402.820313,4313.461426,4298.589844,4500.512695,4534.358887,4378.461426,4437.948730,0.000000,1.000000,24.000000,,,,0.000000,2.000000,2.000000,0.000000,4.000000,2.000000,2.000000,0.000000,0.000000,4.000000,4.000000,4.000000,4.000000,4.000000,4.000000,0.000000,,,,,,,,,,,,,,,,,,,,,,,,,,,,
1732157523.121236,1732157523.124136,18.000000,0.000000,4296.282227,4277.307617,4313.333496,4290.769043,4264.871582,4277.051270,4336.538574,4402.820313,4311.410156,4295.769043,4490.384766,4531.538574,4378.974121,4431.153809,0.000000,1.000000,24.000000,,,,0.000000,2.000000,2.000000,0.000000,4.000000,2.000000,2.000000,0.000000,0.000000,4.000000,4.000000,4.000000,4.000000,4.000000,4.000000,0.000000,,,,,,,,,,,,,,,,,,,,,,,,,,,,
1732157523.129045,1732157523.131945,19.000000,0.000000,4293.717773,4278.205078,4313.717773,4290.769043,4263.205078,4277.820313,4335.256348,4402.307617,4308.205078,4294.487305,4493.333496,4529.487305,4379.487305,4430.256348,0.000000,1.000000,24.000000,,,,0.000000,2.000000,2.000000,0.000000,4.000000,2.000000,2.000000,0.000000,0.000000,4.000000,4.000000,4.000000,4.000000,4.000000,4.000000,0.000000,,,,,,,,,,,,,,,,,,,,,,,,,,,,
1732157523.136853,1732157523.139653,20.000000,0.000000,4297.436035,4278.333496,4311.794922,4293.974121,4263.589844,4280.769043,4334.871582,4400.641113,4308.717773,4294.487305,4497.948730,4530.512695,4381.538574,4431.666504,0.000000,1.000000,24.000000,,,,0.000000,2.000000,2.000000,0.000000,4.000000,2.000000,2.000000,0.000000,0.000000,4.000000,4.000000,4.000000,4.000000,4.000000,4.000000,0.000000,,,,,,,,,,,,,,,,,5.000000,0.000000,0.516019,0.487183,-0.535095,0.458313,0.975217,0.017092,-0.049811,-34.938797,45.281952,30.995594
1732157523.144661,1732157523.147461,21.000000,0.000000,4295.512695,4277.820313,4311.666504,4293.077148,4266.153809,4281.410156,4335.512695,4402.563965,4309.615234,4294.358887,4492.307617,4525.769043,4381.410156,4427.179688,0.000000,1.000000,24.000000,,,,0.000000,2.000000,2.000000,0.000000,4.000000,2.000000,2.000000,0.000000,0.000000,4.000000,4.000000,4.000000,4.000000,4.000000,4.000000,0.000000,,,,,,,,,,,,,,,,,,,,,,,,,,,,
1732157523.152469,1732157523.155469,22.000000,0.000000,4286.922852,4276.282227,4314.102539,4291.025879,4265.769043,4280.256348,4336.025879,4405.897461,4311.538574,4295.384766,4490.641113,4521.153809,4378.205078,4424.487305,0.000000,1.000000,24.000000,,,,0.000000,2.000000,2.000000,0.000000,4.000000,2.000000,2.000000,0.000000,0.000000,4.000000,4.000000,4.000000,4.000000,4.000000,4.000000,0.000000,,,,,,,,,,,,,,,,,,,,,,,,,,,,
1732157523.160278,1732157523.163277,23.000000,0.000000,4282.307617,4275.256348,4314.615234,4293.077148,4265.512695,4280.769043,4335.897461,4405.769043,4312.179688,4295.897461,4493.461426,4521.666504,4381.153809,4427.307617,0.000000,1.000000,24.000000,,,,0.000000,2.000000,2.000000,0.000000,4.000000,2.000000,2.000000,0.000000,0.000000,4.000000,4.000000,4.000000,4.000000,4.000000,4.000000,0.000000,,,,,,,,,,,,,,,,,,,,,,,,,,,,
1732157523.168086,1732157523.171186,24.000000,0.000000,4283.077148,4278.333496,4313.461426,4295.897461,4267.307617,4282.563965,4335.769043,4403.846191,4308.589844,4294.358887,4493.846191,4521.666504,4384.615234,4429.743652,0.000000,1.000000,24.000000,,,,0.000000,2.000000,2.000000,0.000000,4.000000,2.000000,2.000000,0.000000,0.000000,4.000000,4.000000,4.000000,4.000000,4.000000,4.000000,0.000000,,,,,,,,,,,,,,,,,6.000000,0.000000,0.515856,0.487183,-0.535095,0.458496,0.987425,0.020510,-0.038579,-35.013760,45.321716,30.889765
1732157523.175894,1732157523.178994,25.000000,0.000000,4282.179688,4278.589844,4313.717773,4293.333496,4267.563965,4282.436035,4335.897461,4403.333496,4311.794922,4295.128418,4491.153809,4520.512695,4381.282227,4425.897461,0.000000,1.000000,24.000000,,,,0.000000,2.000000,2.000000,0.000000,4.000000,2.000000,2.000000,0.000000,0.000000,4.000000,4.000000,4.000000,4.000000,4.000000,4.000000,0.000000,,,,,,,,,,,,,,,,,,,,,,,,,,,,
1732157523.183702,1732157523.186602,26.000000,0.000000,4284.487305,4276.025879,4313.846191,4292.051270,4264.743652,4284.102539,4335.897461,4404.358887,4316.538574,4300.256348,4489.743652,4522.948730,4384.487305,4423.717773,0.000000,1.000000,24.000000,,,,0.000000,2.000000,2.000000,0.000000,4.000000,2.000000,2.000000,0.000000,0.000000,4.000000,4.000000,4.000000,4.000000,4.000000,4.000000,0.000000,,,,,,,,,,,,,,,,,,,,,,,,,,,,
1732157523.191511,1732157523.194410,27.000000,0.000000,4291.025879,4275.897461,4314.230957,4294.230957,4263.205078,4283.589844,4335.897461,4403.333496,4316.922852,4303.717773,4497.820313,4530.256348,4397.948730,4427.820313,0.000000,1.000000,24.000000,,,,0.000000,2.000000,2.000000,0.000000,4.000000,2.000000,2.000000,0.000000,0.000000,4.000000,4.000000,4.000000,4.000000,4.000000,4.000000,0.000000,,,,,,,,,,,,,,,,,,,,,,,,,,,,
1732157523.199319,1732157523.202119,28.000000,0.000000,4294.358887,4278.333496,4315.000000,4295.512695,4264.358887,4271.153809,4335.897461,4399.871582,4318.077148,4304.102539,4508.077148,4536.922852,4403.974121,4432.179688,0.000000,1.000000,24.000000,,,,0.000000,2.000000,2.000000,0.000000,4.000000,2.000000,2.000000,0.000000,0.000000,4.000000,4.000000,4.000000,4.000000,4.000000,4.000000,0.000000,,,,,,,,,,,,,,,,,7.000000,0.000000,0.515509,0.487244,-0.535217,0.458679,0.968868,0.022952,-0.049811,-35.201145,45.102257,30.752377
1732157523.207127,1732157523.209927,29.000000,0.000000,4296.666504,4281.410156,4315.000000,4297.307617,4263.717773,4264.230957,4335.897461,4400.256348,4310.128418,4302.948730,4512.563965,4537.563965,4404.743652,4436.410156,0.000000,1.000000,24.000000,,,,0.000000,2.000000,2.000000,0.000000,4.000000,2.000000,2.000000,0.000000,0.000000,4.000000,4.000000,4.000000,4.000000,4.000000,4.000000,0.000000,,,,,,,,,,,,,,,,,,,,,,,,,,,,
1732157523.214935,1732157523.217535,30.000000,0.000000,4299.230957,4281.025879,4313.846191,4296.666504,4262.179688,4275.128418,4335.897461,4401.794922,4296.153809,4303.974121,4507.820313,4535.000000,4409.743652,4435.000000,0.000000,1.000000,24.000000,,,,0.000000,2.000000,2.000000,0.000000,4.000000,2.000000,2.000000,0.000000,0.000000,4.000000,4.000000,4.000000,4.000000,4.000000,4.000000,0.000000,,,,,,,,,,,,,,,,,,,,,,,,,,,,
1732157523.222744,1732157523.225344,31.000000,0.000000,4298.077148,4280.256348,4314.487305,4294.615234,4263.333496,4280.512695,4335.897461,4400.769043,4299.230957,4306.538574,4496.410156,4529.230957,4410.769043,4430.000000,0.000000,1.000000,24.000000,,,,0.000000,2.000000,2.000000,0.000000,4.000000,2.000000,2.000000,0.000000,0.000000,4.000000,4.000000,4.000000,4.000000,4.000000,4.000000,0.000000,,,,,,,,,,,,,,,,,,,,,,,,,,,,
1732157523.230552,1732157523.233052,32.000000,0.000000,4298.461426,4289.871582,4314.230957,4293.461426,4263.846191,4277.692383,4335.897461,4402.563965,4307.051270,4303.974121,4490.641113,4523.846191,4410.256348,4432.820313,0.000000,1.000000,24.000000,,,,0.000000,2.000000,2.000000,0.000000,4.000000,2.000000,2.000000,0.000000,0.000000,4.000000,4.000000,4.000000,4.000000,4.000000,4.000000,0.000000,,,,,,,,,,,,,,,,,8.000000,0.000000,0.515255,0.486755,-0.535645,0.458984,0.980588,0.001465,-0.048346,-35.074593,45.161160,30.774426
1732157523.238360,1732157523.240860,33.000000,0.000000,4301.282227,4306.282227,4314.230957,4295.641113,4264.358887,4282.179688,4335.897461,4406.025879,4299.615234,4298.846191,4500.384766,4524.358887,4420.641113,4441.410156,0.000000,1.000000,24.000000,,,,0.000000,2.000000,2.000000,0.000000,4.000000,2.000000,2.000000,0.000000,0.000000,4.000000,4.000000,4.000000,4.000000,4.000000,4.000000,0.000000,,,,,,,,,,,,,,,,,,,,,,,,,,,,
1732157523.246168,1732157523.248868,34.000000,0.000000,4300.256348,4313.333496,4317.692383,4297.051270,4263.461426,4285.897461,4335.897461,4403.077148,4297.563965,4297.563965,4503.589844,4525.256348,4427.948730,4437.820313,0.000000,1.000000,24.000000,,,,0.000000,2.000000,2.000000,0.000000,4.000000,2.000000,2.000000,0.000000,0.000000,4.000000,4.000000,4.000000,4.000000,4.000000,4.000000,0.000000,,,,,,,,,,,,,,,,,,,,,,,,,,,,
1732157523.253977,1732157523.256676,35.000000,0.000000,4293.846191,4309.743652,4319.102539,4285.769043,4254.487305,4280.512695,4335.897461,4400.000000,4309.230957,4298.205078,4491.153809,4522.436035,4425.512695,4429.358887,0.000000,1.000000,24.000000,,,,0.000000,2.000000,2.000000,0.000000,4.000000,2.000000,2.000000,0.000000,0.000000,4.000000,4.000000,4.000000,4.000000,4.000000,4.000000,0.000000,,,,,,,,,,,,,,,,,,,,,,,,,,,,
1732157523.261785,1732157523.264584,36.000000,0.000000,4291.666504,4319.487305,4316.794922,4278.846191,4247.051270,4279.615234,4335.769043,4404.230957,4311.153809,4296.666504,4492.948730,4522.820313,4430.256348,4435.641113,0.000000,1.000000,24.000000,,,,0.000000,2.000000,2.000000,0.000000,4.000000,2.000000,2.000000,0.000000,0.000000,4.000000,4.000000,4.000000,4.000000,4.000000,4.000000,0.000000,,,,,,,,,,,,,,,,,9.000000,0.000000,0.514860,0.486511,-0.535828,0.459473,0.985472,0.019045,-0.039556,-34.857086,45.210541,30.810617
1732157523.269593,1732157523.272393,37.000000,0.000000,4303.077148,4350.256348,4315.128418,4288.589844,4249.230957,4283.461426,4335.769043,4406.025879,4306.922852,4297.820313,4507.179688,4525.000000,4443.974121,4446.538574,0.000000,1.000000,24.000000,,,,0.000000,2.000000,2.000000,0.000000,4.000000,2.000000,2.000000,0.000000,0.000000,4.000000,4.000000,4.000000,4.000000,4.000000,4.000000,0.000000,,,,,,,,,,,,,,,,,,,,,,,,,,,,
1732157523.277401,1732157523.280401,38.000000,0.000000,4312.179688,4370.128418,4316.025879,4289.487305,4250.897461,4277.692383,4336.025879,4403.205078,4304.358887,4300.256348,4507.948730,4524.102539,4449.358887,4447.436035,0.000000,1.000000,24.000000,,,,0.000000,2.000000,2.000000,0.000000,4.000000,2.000000,2.000000,0.000000,0.000000,4.000000,4.000000,4.000000,4.000000,4.000000,4.000000,0.000000,,,,,,,,,,,,,,,,,,,,,,,,,,,,
1732157523.285210,1732157523.288209,39.000000,0.000000,4307.179688,4365.512695,4317.179688,4280.512695,4248.077148,4266.794922,4335.897461,4403.974121,4299.743652,4295.256348,4501.922852,4523.589844,4446.282227,4443.846191,0.000000,1.000000,24.000000,,,,0.000000,2.000000,2.000000,0.000000,4.000000,2.000000,2.000000,0.000000,0.000000,4.000000,4.000000,4.000000,4.000000,4.000000,4.000000,0.000000,,,,,,,,,,,,,,,,,,,,,,,,,,,,
1732157523.293018,1732157523.295917,40.000000,0.000000,4308.077148,4365.897461,4318.461426,4286.666504,4247.307617,4263.717773,4335.512695,4405.000000,4296.666504,4291.794922,4502.436035,4523.717773,4447.563965,4444.230957,0.000000,1.000000,24.000000,,,,0.000000,2.000000,2.000000,0.000000,4.000000,2.000000,2.000000,0.000000,0.000000,4.000000,4.000000,4.000000,4.000000,4.000000,4.000000,0.000000,,,,,,,,,,,,,,,,,10.000000,0.000000,0.514690,0.486450,-0.535889,0.459656,0.974728,0.021487,-0.040044,-34.820908,45.328869,30.751600
1732157523.300826,1732157523.303725,41.000000,0.000000,4322.692383,4383.717773,4319.230957,4298.077148,4247.692383,4266.666504,4336.410156,4402.051270,4298.461426,4297.820313,4498.974121,4522.692383,4447.948730,4451.025879,0.000000,1.000000,24.000000,,,,0.000000,2.000000,2.000000,0.000000,4.000000,2.000000,2.000000,0.000000,0.000000,4.000000,4.000000,4.000000,4.000000,4.000000,4.000000,0.000000,,,,,,,,,,,,,,,,,,,,,,,,,,,,
1732157523.308634,1732157523.311334,42.000000,0.000000,4329.102539,4393.974121,4317.820313,4298.846191,4246.666504,4262.051270,4336.538574,4402.179688,4290.384766,4295.769043,4495.384766,4523.333496,4447.051270,4459.358887,0.000000,1.000000,24.000000,,,,0.000000,2.000000,2.000000,0.000000,4.000000,2.000000,2.000000,0.000000,0.000000,4.000000,4.000000,4.000000,4.000000,4.000000,4.000000,0.000000,,,,,,,,,,,,,,,,,,,,,,,,,,,,
1732157523.316443,1732157523.319142,43.000000,0.000000,4324.871582,4386.666504,4316.153809,4296.538574,4247.179688,4256.282227,4334.230957,4403.589844,4279.230957,4281.794922,4494.743652,4518.589844,4444.230957,4458.461426,0.000000,1.000000,24.000000,,,,0.000000,2.000000,2.000000,0.000000,4.000000,2.000000,2.000000,0.000000,0.000000,4.000000,4.000000,4.000000,4.000000,4.000000,4.000000,0.000000,,,,,,,,,,,,,,,,,,,,,,,,,,,,
1732157523.324251,1732157523.327050,44.000000,0.000000,4324.743652,4387.563965,4316.282227,4291.922852,4248.589844,4262.051270,4333.333496,4397.179688,4287.307617,4281.410156,4490.000000,4508.974121,4436.538574,4452.051270,0.000000,1.000000,24.000000,,,,0.000000,2.000000,2.000000,0.000000,4.000000,2.000000,2.000000,0.000000,0.000000,4.000000,4.000000,4.000000,4.000000,4.000000,4.000000,0.000000,,,,,,,,,,,,,,,,,11.000000,0.000000,0.514147,0.486572,-0.535828,0.460205,0.984007,0.000488,-0.040044,-34.834934,45.479717,30.880463
1732157523.332059,1732157523.334858,45.000000,0.000000,4328.077148,4405.384766,4316.410156,4290.897461,4248.461426,4260.641113,4334.487305,4397.307617,4296.922852,4291.282227,4495.641113,4513.974121,4435.256348,4456.922852,0.000000,1.000000,24.000000,,,,0.000000,2.000000,2.000000,0.000000,4.000000,2.000000,2.000000,0.000000,0.000000,4.000000,4.000000,4.000000,4.000000,4.000000,4.000000,0.000000,,,,,,,,,,,,,,,,,,,,,,,,,,,,
1732157523.339867,1732157523.342866,46.000000,0.000000,4329.615234,4417.307617,4316.025879,4296.153809,4247.563965,4251.666504,4334.743652,4406.410156,4293.077148,4295.384766,4504.102539,4526.538574,4437.948730,4463.205078,0.000000,1.000000,24.000000,,,,0.000000,2.000000,2.000000,0.000000,4.000000,2.000000,2.000000,0.000000,0.000000,4.000000,4.000000,4.000000,4.000000,4.000000,4.000000,0.000000,,,,,,,,,,,,,,,,,,,,,,,,,,,,
1732157523.347675,1732157523.350674,47.000000,0.000000,4328.461426,4420.000000,4317.051270,4294.871582,4248.077148,4255.897461,4335.000000,4403.333496,4292.436035,4294.743652,4496.538574,4521.410156,4434.487305,4460.384766,0.000000,1.000000,24.000000,,,,0.000000,2.000000,2.000000,0.000000,4.000000,2.000000,2.000000,0.000000,0.000000,4.000000,4.000000,4.000000,4.000000,4.000000,4.000000,0.000000,,,,,,,,,,,,,,,,,,,,,,,,,,,,
1732157523.355484,1732157523.358583,48.000000,0.000000,4325.641113,4424.358887,4317.436035,4289.358887,4248.461426,4263.077148,4336.025879,4398.333496,4295.769043,4287.563965,4487.307617,4510.384766,4425.769043,4456.025879,0.000000,1.000000,24.000000,,,,0.000000,2.000000,2.000000,0.000000,4.000000,2.000000,2.000000,0.000000,0.000000,4.000000,4.000000,4.000000,4.000000,4.000000,4.000000,0.000000,,,,,,,,,,,,,,,,,12.000000,0.000000,0.513486,0.486328,-0.536316,0.460632,0.969357,0.006837,-0.061531,-34.996296,45.735237,31.034842
1732157523.363292,1732157523.366391,49.000000,0.000000,4324.743652,4426.794922,4315.769043,4289.743652,4246.794922,4264.358887,4335.384766,4402.948730,4295.384766,4282.307617,4488.717773,4508.333496,4421.922852,4456.153809,0.000000,1.000000,24.000000,,,,0.000000,2.000000,2.000000,0.000000,4.000000,2.000000,2.000000,0.000000,0.000000,4.000000,4.000000,4.000000,4.000000,4.000000,4.000000,0.000000,,,,,,,,,,,,,,,,,,,,,,,,,,,,
1732157523.371100,1732157523.374399,50.000000,0.000000,4326.794922,4426.666504,4319.615234,4293.589844,4248.077148,4259.230957,4334.487305,4404.615234,4297.692383,4287.948730,4489.230957,4512.563965,4423.846191,4459.102539,0.000000,1.000000,24.000000,,,,0.000000,2.000000,2.000000,0.000000,4.000000,2.000000,2.000000,0.000000,0.000000,4.000000,4.000000,4.000000,4.000000,4.000000,4.000000,0.000000,,,,,,,,,,,,,,,,,,,,,,,,,,,,
1732157523.378909,1732157523.382207,51.000000,0.000000,4328.974121,4433.846191,4324.358887,4296.794922,4250.128418,4251.410156,4334.743652,4401.153809,4292.948730,4291.410156,4488.717773,4515.384766,4426.794922,4461.282227,0.000000,1.000000,24.000000,,,,0.000000,2.000000,2.000000,0.000000,4.000000,2.000000,2.000000,0.000000,0.000000,4.000000,4.000000,4.000000,4.000000,4.000000,4.000000,0.000000,,,,,,,,,,,,,,,,,,,,,,,,,,,,
1732157523.386717,1732157523.390115,52.000000,0.000000,4327.179688,4437.307617,4321.922852,4298.717773,4249.358887,4252.692383,4334.743652,4399.743652,4281.922852,4285.128418,4487.436035,4516.025879,4419.871582,4459.871582,0.000000,1.000000,24.000000,,,,0.000000,2.000000,2.000000,0.000000,4.000000,2.000000,2.000000,0.000000,0.000000,4.000000,4.000000,4.000000,4.000000,4.000000,4.000000,0.000000,,,,,,,,,,,,,,,,,13.000000,0.000000,0.513279,0.486450,-0.536194,0.460876,0.988402,0.010743,-0.045904,-35.103668,45.745544,31.049889
1732157523.394525,1732157523.397923,53.000000,0.000000,4325.256348,4432.948730,4319.230957,4303.333496,4250.384766,4255.641113,4334.358887,4399.230957,4287.820313,4282.948730,4478.333496,4513.461426,4404.102539,4455.000000,0.000000,1.000000,24.000000,,,,0.000000,2.000000,2.000000,0.000000,4.000000,2.000000,2.000000,0.000000,0.000000,4.000000,4.000000,4.000000,4.000000,4.000000,4.000000,0.000000,,,,,,,,,,,,,,,,,,,,,,,,,,,,
1732157523.402333,1732157523.405931,54.000000,0.000000,4326.922852,4432.563965,4319.871582,4307.692383,4249.487305,4249.871582,4334.743652,4400.128418,4298.717773,4283.077148,4474.615234,4514.230957,4405.000000,4455.384766,0.000000,1.000000,24.000000,,,,0.000000,2.000000,2.000000,0.000000,4.000000,2.000000,2.000000,0.000000,0.000000,4.000000,4.000000,4.000000,4.000000,4.000000,4.000000,0.000000,,,,,,,,,,,,,,,,,,,,,,,,,,,,
1732157523.410142,1732157523.413739,55.000000,0.000000,4327.948730,4433.717773,4319.230957,4304.102539,4248.205078,4252.820313,4334.743652,4402.563965,4295.384766,4279.743652,4484.358887,4518.461426,4412.948730,4460.256348,0.000000,1.000000,24.000000,,,,0.000000,2.000000,2.000000,0.000000,4.000000,2.000000,2.000000,0.000000,0.000000,4.000000,4.000000,4.000000,4.000000,4.000000,4.000000,0.000000,,,,,,,,,,,,,,,,,,,,,,,,,,,,
1732157523.417950,1732157523.421648,56.000000,0.000000,4328.333496,4432.307617,4319.102539,4301.922852,4257.948730,4264.487305,4334.743652,4399.487305,4290.256348,4279.743652,4486.410156,4513.077148,4403.205078,4459.487305,0.000000,1.000000,24.000000,,,,0.000000,2.000000,2.000000,0.000000,4.000000,2.000000,2.000000,0.000000,0.000000,4.000000,4.000000,4.000000,4.000000,4.000000,4.000000,0.000000,,,,,,,,,,,,,,,,,14.000000,0.000000,0.512922,0.486633,-0.535950,0.461365,0.984984,0.001953,-0.050787,-35.162304,45.595558,31.053743
1732157523.425758,1732157523.429456,57.000000,0.000000,4329.358887,4424.358887,4318.461426,4304.102539,4263.333496,4263.077148,4335.000000,4395.384766,4292.948730,4282.051270,4478.205078,4510.128418,4391.538574,4456.282227,0.000000,1.000000,24.000000,,,,0.000000,2.000000,2.000000,0.000000,4.000000,2.000000,2.000000,0.000000,0.000000,4.000000,4.000000,4.000000,4.000000,4.000000,4.000000,0.000000,,,,,,,,,,,,,,,,,,,,,,,,,,,,
1732157523.433566,1732157523.437064,58.000000,0.000000,4329.871582,4417.692383,4318.205078,4304.615234,4258.077148,4260.512695,4334.230957,4399.487305,4293.846191,4281.282227,4476.153809,4515.000000,4391.282227,4456.666504,0.000000,1.000000,24.000000,,,,0.000000,2.000000,2.000000,0.000000,4.000000,2.000000,2.000000,0.000000,0.000000,4.000000,4.000000,4.000000,4.000000,4.000000,4.000000,0.000000,,,,,,,,,,,,,,,,,,,,,,,,,,,,
1732157523.441374,1732157523.444872,59.000000,0.000000,4327.436035,4417.820313,4322.436035,4308.077148,4269.102539,4266.410156,4333.461426,4404.743652,4295.641113,4278.974121,4478.717773,4514.358887,4387.563965,4453.717773,0.000000,1.000000,24.000000,,,,0.000000,2.000000,2.000000,0.000000,4.000000,2.000000,2.000000,0.000000,0.000000,4.000000,4.000000,4.000000,4.000000,4.000000,4.000000,0.000000,,,,,,,,,,,,,,,,,,,,,,,,,,,,
1732157523.449183,1732157523.452581,60.000000,0.000000,4326.794922,4416.153809,4322.563965,4309.102539,4281.025879,4266.025879,4333.717773,4401.025879,4298.717773,4281.666504,4476.922852,4507.307617,4379.487305,4444.743652,0.000000,1.000000,24.000000,,,,0.000000,2.000000,2.000000,0.000000,4.000000,2.000000,2.000000,0.000000,0.000000,4.000000,4.000000,4.000000,4.000000,4.000000,4.000000,0.000000,,,,,,,,,,,,,,,,,15.000000,0.000000,0.512201,0.486938,-0.535889,0.461914,0.988402,0.005372,-0.042486,-35.271465,45.607403,31.151865
1732157523.456991,1732157523.460389,61.000000,0.000000,4326.282227,4413.717773,4319.102539,4304.487305,4265.512695,4264.102539,4333.333496,4397.307617,4295.641113,4283.717773,4476.538574,4507.820313,4383.461426,4443.589844,0.000000,1.000000,24.000000,,,,0.000000,2.000000,2.000000,0.000000,4.000000,2.000000,2.000000,0.000000,0.000000,4.000000,4.000000,4.000000,4.000000,4.000000,4.000000,0.000000,,,,,,,,,,,,,,,,,,,,,,,,,,,,
1732157523.464799,1732157523.467997,62.000000,0.000000,4319.102539,4413.205078,4320.256348,4304.102539,4253.846191,4265.384766,4334.871582,4400.897461,4298.077148,4280.384766,4478.846191,4514.358887,4384.615234,4444.871582,0.000000,1.000000,24.000000,,,,0.000000,2.000000,2.000000,0.000000,4.000000,2.000000,2.000000,0.000000,0.000000,4.000000,4.000000,4.000000,4.000000,4.000000,4.000000,0.000000,,,,,,,,,,,,,,,,,,,,,,,,,,,,
1732157523.472607,1732157523.475806,63.000000,0.000000,4316.794922,4413.846191,4320.512695,4310.897461,4264.487305,4265.512695,4333.717773,4400.512695,4304.487305,4280.641113,4475.641113,4510.256348,4377.692383,4442.307617,0.000000,1.000000,24.000000,,,,0.000000,2.000000,2.000000,0.000000,4.000000,2.000000,2.000000,0.000000,0.000000,4.000000,4.000000,4.000000,4.000000,4.000000,4.000000,0.000000,,,,,,,,,,,,,,,,,,,,,,,,,,,,
1732157523.480416,1732157523.483514,64.000000,0.000000,4324.871582,4416.922852,4318.333496,4313.589844,4267.179688,4263.589844,4328.974121,4396.025879,4298.461426,4281.025879,4475.897461,4506.922852,4379.358887,4450.000000,0.000000,1.000000,24.000000,,,,0.000000,2.000000,2.000000,0.000000,4.000000,2.000000,2.000000,0.000000,0.000000,4.000000,4.000000,4.000000,4.000000,4.000000,4.000000,0.000000,,,,,,,,,,,,,,,,,16.000000,0.000000,0.511925,0.487122,-0.535828,0.462097,0.973263,-0.005860,-0.053717,-35.393223,45.516994,31.214678
1732157523.488224,1732157523.491322,65.000000,0.000000,4325.256348,4415.256348,4320.641113,4311.794922,4260.128418,4262.307617,4329.743652,4397.948730,4291.153809,4276.922852,4477.307617,4508.589844,4377.051270,4458.077148,1606.000000,1.000000,24.000000,,,,0.000000,2.000000,2.000000,0.000000,4.000000,2.000000,2.000000,0.000000,0.000000,4.000000,4.000000,4.000000,4.000000,4.000000,4.000000,0.000000,,,,,,,,,,,,,,,,,,,,,,,,,,,,
1732157523.496032,1732157523.498931,66.000000,0.000000,4315.897461,4408.461426,4323.333496,4311.410156,4261.666504,4263.974121,4335.000000,4401.282227,4300.256348,4276.282227,4473.077148,4508.717773,4366.922852,4453.205078,1371.000000,1.000000,24.000000,,,,0.000000,2.000000,2.000000,0.000000,4.000000,2.000000,2.000000,0.000000,0.000000,4.000000,4.000000,4.000000,4.000000,4.000000,4.000000,0.000000,,,,,,,,,,,,,,,,,,,,,,,,,,,,
1732157523.503841,1732157523.506739,67.000000,0.000000,4317.563965,4409.487305,4321.666504,4311.666504,4266.794922,4264.743652,4334.871582,4400.897461,4306.538574,4279.615234,4480.512695,4508.333496,4370.769043,4448.717773,1402.000000,1.000000,24.000000,,,,0.000000,2.000000,2.000000,0.000000,4.000000,2.000000,2.000000,0.000000,0.000000,4.000000,4.000000,4.000000,4.000000,4.000000,4.000000,0.000000,,,,,,,,,,,,,,,,,,,,,,,,,,,,
1732157523.511649,1732157523.514447,68.000000,0.000000,4323.846191,4412.820313,4320.641113,4312.820313,4266.282227,4265.000000,4334.871582,4401.153809,4303.333496,4283.589844,4491.153809,4515.769043,4376.538574,4451.794922,1419.000000,1.000000,24.000000,,,,0.000000,2.000000,2.000000,0.000000,4.000000,2.000000,2.000000,0.000000,0.000000,4.000000,4.000000,4.000000,4.000000,4.000000,4.000000,0.000000,,,,,,,,,,,,,,,,,17.000000,0.000000,0.511850,0.487183,-0.535950,0.461975,0.973263,-0.005860,-0.053717,-35.540176,45.545433,31.458889
1732157523.519457,1732157523.522255,69.000000,0.000000,4320.256348,4410.897461,4321.153809,4316.538574,4262.692383,4266.666504,4335.128418,4400.512695,4301.410156,4282.692383,4485.256348,4523.077148,4367.692383,4450.897461,1239.000000,1.000000,24.000000,,,,0.000000,2.000000,2.000000,0.000000,4.000000,2.000000,2.000000,0.000000,0.000000,4.000000,4.000000,4.000000,4.000000,4.000000,4.000000,0.000000,,,,,,,,,,,,,,,,,,,,,,,,,,,,
1732157523.527265,1732157523.529864,70.000000,0.000000,4320.256348,4410.769043,4321.666504,4318.846191,4271.794922,4265.512695,4329.743652,4399.743652,4293.974121,4275.897461,4479.743652,4517.563965,4362.436035,4446.666504,0.000000,1.000000,24.000000,,,,0.000000,2.000000,2.000000,0.000000,4.000000,2.000000,2.000000,0.000000,0.000000,4.000000,4.000000,4.000000,4.000000,4.000000,4.000000,0.000000,,,,,,,,,,,,,,,,,,,,,,,,,,,,
1732157523.535073,1732157523.537672,71.000000,0.000000,4325.384766,4407.563965,4323.589844,4319.487305,4282.820313,4259.102539,4329.487305,4401.153809,4292.307617,4282.692383,4489.102539,4516.410156,4369.615234,4451.666504,0.000000,1.000000,24.000000,,,,0.000000,2.000000,2.000000,0.000000,4.000000,2.000000,2.000000,0.000000,0.000000,4.000000,4.000000,4.000000,4.000000,4.000000,4.000000,0.000000,,,,,,,,,,,,,,,,,,,,,,,,,,,,
1732157523.542882,1732157523.545380,72.000000,0.000000,4324.230957,4400.384766,4324.871582,4316.794922,4273.333496,4257.179688,4335.128418,4402.563965,4301.922852,4292.820313,4493.333496,4523.461426,4368.333496,4458.717773,1529.000000,1.000000,24.000000,,,,0.000000,2.000000,2.000000,0.000000,4.000000,2.000000,2.000000,0.000000,0.000000,4.000000,4.000000,4.000000,4.000000,4.000000,4.000000,0.000000,,,,,,,,,,,,,,,,,18.000000,0.000000,0.511684,0.487366,-0.535889,0.462036,0.974728,0.000000,-0.062996,-35.629208,45.663467,31.215033
1732157523.550690,1732157523.553188,73.000000,0.000000,4319.615234,4397.307617,4321.538574,4315.256348,4259.487305,4260.769043,4334.230957,4402.179688,4303.077148,4286.794922,4485.641113,4520.128418,4358.974121,4456.153809,1676.000000,1.000000,24.000000,,,,0.000000,2.000000,2.000000,0.000000,4.000000,2.000000,2.000000,0.000000,0.000000,4.000000,4.000000,4.000000,4.000000,4.000000,4.000000,0.000000,,,,,,,,,,,,,,,,,,,,,,,,,,,,
1732157523.558498,1732157523.560797,74.000000,0.000000,4316.666504,4395.897461,4321.025879,4315.000000,4260.897461,4267.051270,4333.205078,4400.769043,4307.307617,4285.897461,4482.179688,4510.256348,4357.436035,4447.563965,1538.000000,1.000000,24.000000,,,,0.000000,2.000000,2.000000,0.000000,4.000000,2.000000,2.000000,0.000000,0.000000,4.000000,4.000000,4.000000,4.000000,4.000000,4.000000,0.000000,,,,,,,,,,,,,,,,,,,,,,,,,,,,
1732157523.566306,1732157523.568605,75.000000,0.000000,4312.436035,4393.717773,4322.948730,4317.179688,4281.794922,4270.384766,4335.769043,4398.717773,4311.666504,4289.743652,4479.230957,4505.897461,4357.820313,4440.769043,1563.000000,1.000000,24.000000,,,,0.000000,2.000000,2.000000,0.000000,4.000000,2.000000,2.000000,0.000000,0.000000,4.000000,4.000000,4.000000,4.000000,4.000000,4.000000,0.000000,,,,,,,,,,,,,,,,,,,,,,,,,,,,
1732157523.574115,1732157523.576513,76.000000,0.000000,4312.436035,4393.205078,4321.538574,4321.794922,4296.922852,4270.384766,4332.307617,4398.461426,4302.436035,4282.436035,4474.230957,4508.846191,4350.512695,4437.563965,1715.000000,1.000000,24.000000,,,,0.000000,2.000000,2.000000,0.000000,4.000000,2.000000,2.000000,0.000000,0.000000,4.000000,4.000000,4.000000,4.000000,4.000000,4.000000,0.000000,,,,,,,,,,,,,,,,,19.000000,0.000000,0.511370,0.487732,-0.535645,0.462280,0.986937,0.002930,-0.046881,-35.664658,45.475742,31.064177
1732157523.581923,1732157523.584321,77.000000,0.000000,4323.333496,4391.666504,4320.769043,4323.589844,4279.102539,4272.820313,4329.358887,4401.794922,4301.410156,4282.436035,4476.794922,4513.461426,4350.256348,4441.282227,1648.000000,1.000000,24.000000,,,,0.000000,2.000000,2.000000,0.000000,4.000000,2.000000,2.000000,0.000000,0.000000,4.000000,4.000000,4.000000,4.000000,4.000000,4.000000,0.000000,,,,,,,,,,,,,,,,,,,,,,,,,,,,
1732157523.589731,1732157523.591930,78.000000,0.000000,4327.563965,4386.538574,4323.077148,4324.871582,4258.589844,4272.820313,4334.230957,4405.384766,4306.410156,4285.384766,4476.922852,4514.871582,4354.615234,4445.512695,1538.000000,1.000000,24.000000,,,,0.000000,2.000000,2.000000,0.000000,4.000000,2.000000,2.000000,0.000000,0.000000,4.000000,4.000000,4.000000,4.000000,4.000000,4.000000,0.000000,1.000000,0.000000,2.000000,2.000000,0.000000,4.000000,2.000000,2.000000,0.000000,0.000000,4.000000,3.000000,4.000000,4.000000,3.000000,4.000000,,,,,,,,,,,,
1732157523.597539,1732157523.599738,79.000000,0.000000,4320.384766,4376.666504,4323.974121,4325.641113,4268.333496,4267.307617,4336.282227,4403.846191,4301.282227,4280.128418,4473.846191,4515.128418,4351.410156,4442.307617,1563.000000,1.000000,24.000000,,,,0.000000,2.000000,2.000000,0.000000,4.000000,2.000000,2.000000,0.000000,0.000000,4.000000,4.000000,4.000000,4.000000,4.000000,4.000000,0.000000,,,,,,,,,,,,,,,,,,,,,,,,,,,,
1732157523.605348,1732157523.607446,80.000000,0.000000,4321.794922,4372.307617,4322.563965,4322.820313,4281.025879,4263.205078,4333.333496,4397.948730,4299.743652,4287.563965,4483.461426,4520.512695,4357.563965,4443.589844,1715.000000,1.000000,24.000000,,,,0.000000,2.000000,2.000000,0.000000,4.000000,2.000000,2.000000,0.000000,0.000000,4.000000,4.000000,4.000000,4.000000,4.000000,4.000000,0.000000,,,,,,,,,,,,,,,,,20.000000,0.000000,0.511286,0.487915,-0.535400,0.462463,0.982542,0.012697,-0.048346,-35.438374,45.505352,30.893650
1732157523.613156,1732157523.615254,81.000000,0.000000,4328.205078,4375.769043,4322.307617,4323.205078,4275.641113,4263.205078,4332.179688,4396.922852,4298.589844,4291.282227,4488.589844,4521.410156,4363.333496,4447.820313,1648.000000,1.000000,24.000000,,,,0.000000,2.000000,2.000000,0.000000,4.000000,2.000000,2.000000,0.000000,0.000000,4.000000,4.000000,4.000000,4.000000,4.000000,4.000000,0.000000,,,,,,,,,,,,,,,,,,,,,,,,,,,,
1732157523.620964,1732157523.622863,82.000000,0.000000,4324.230957,4371.666504,4322.820313,4328.205078,4271.794922,4265.000000,4333.974121,4401.666504,4292.051270,4280.641113,4478.974121,4516.922852,4351.794922,4442.179688,1538.000000,1.000000,24.000000,,,,0.000000,2.000000,2.000000,0.000000,4.000000,2.000000,2.000000,0.000000,0.000000,4.000000,4.000000,4.000000,4.000000,4.000000,4.000000,0.000000,,,,,,,,,,,,,,,,,,,,,,,,,,,,
1732157523.628772,1732157523.630671,83.000000,0.000000,4316.538574,4363.589844,4322.436035,4323.333496,4285.769043,4269.871582,4335.897461,4401.794922,4301.538574,4286.282227,4479.615234,4512.948730,4344.615234,4432.820313,1563.000000,1.000000,24.000000,,,,0.000000,2.000000,2.000000,0.000000,4.000000,2.000000,2.000000,0.000000,0.000000,4.000000,4.000000,4.000000,4.000000,4.000000,4.000000,0.000000,,,,,,,,,,,,,,,,,,,,,,,,,,,,
1732157523.636581,1732157523.638379,84.000000,0.000000,4319.487305,4366.538574,4320.256348,4316.922852,4300.256348,4273.333496,4334.230957,4398.205078,4317.563965,4299.615234,4490.769043,4513.333496,4350.384766,4432.307617,1715.000000,1.000000,24.000000,,,,0.000000,2.000000,2.000000,0.000000,4.000000,2.000000,2.000000,0.000000,0.000000,4.000000,4.000000,4.000000,4.000000,4.000000,4.000000,0.000000,,,,,,,,,,,,,,,,,21.000000,0.000000,0.511286,0.487915,-0.535400,0.462463,0.982542,0.012697,-0.048346,-35.300083,45.454334,30.905523
1732157523.644389,1732157523.646188,85.000000,0.000000,4324.102539,4367.563965,4322.051270,4328.461426,4289.358887,4271.538574,4331.538574,4399.487305,4316.025879,4298.974121,4491.025879,4519.358887,4351.666504,4435.897461,1648.000000,1.000000,24.000000,,,,0.000000,2.000000,2.000000,0.000000,4.000000,2.000000,2.000000,0.000000,0.000000,4.000000,4.000000,4.000000,4.000000,4.000000,4.000000,0.000000,,,,,,,,,,,,,,,,,,,,,,,,,,,,
1732157523.652197,1732157523.653796,86.000000,0.000000,4320.769043,4359.102539,4325.384766,4330.000000,4275.384766,4278.205078,4332.563965,4403.717773,4312.563965,4295.384766,4481.410156,4518.077148,4343.077148,4431.538574,1538.000000,1.000000,24.000000,,,,0.000000,2.000000,2.000000,0.000000,4.000000,2.000000,2.000000,0.000000,0.000000,4.000000,4.000000,4.000000,4.000000,4.000000,4.000000,0.000000,,,,,,,,,,,,,,,,,,,,,,,,,,,,
1732157523.660005,1732157523.661604,87.000000,0.000000,4319.230957,4358.717773,4323.589844,4317.436035,4286.666504,4282.307617,4335.128418,4402.820313,4312.051270,4295.769043,4476.794922,4512.307617,4337.051270,4427.820313,1563.000000,1.000000,24.000000,,,,0.000000,2.000000,2.000000,0.000000,4.000000,2.000000,2.000000,0.000000,0.000000,4.000000,4.000000,4.000000,4.000000,4.000000,4.000000,0.000000,,,,,,,,,,,,,,,,,,,,,,,,,,,,
1732157523.667814,1732157523.669512,88.000000,0.000000,4318.846191,4360.000000,4321.025879,4318.717773,4291.025879,4280.000000,4336.025879,4400.641113,4312.179688,4296.666504,4477.692383,4518.846191,4335.512695,4430.128418,1715.000000,1.000000,24.000000,,,,0.000000,2.000000,2.000000,0.000000,4.000000,2.000000,2.000000,0.000000,0.000000,4.000000,4.000000,4.000000,4.000000,4.000000,4.000000,0.000000,,,,,,,,,,,,,,,,,22.000000,0.000000,0.511695,0.487671,-0.535706,0.461914,0.979612,0.014162,-0.061043,-35.401402,45.203011,30.891808
1732157523.675622,1732157523.677321,89.000000,0.000000,4318.205078,4352.820313,4322.051270,4326.153809,4291.538574,4278.333496,4332.307617,4400.769043,4312.307617,4298.205078,4481.282227,4526.025879,4338.717773,4431.025879,1648.000000,1.000000,24.000000,,,,0.000000,2.000000,2.000000,0.000000,4.000000,2.000000,2.000000,0.000000,0.000000,4.000000,4.000000,4.000000,4.000000,4.000000,4.000000,0.000000,,,,,,,,,,,,,,,,,,,,,,,,,,,,
1732157523.683430,1732157523.685329,90.000000,0.000000,4317.179688,4352.436035,4322.051270,4324.615234,4309.102539,4272.948730,4327.436035,4400.256348,4309.358887,4294.487305,4479.871582,4522.563965,4336.410156,4428.846191,1538.000000,1.000000,24.000000,,,,0.000000,2.000000,2.000000,0.000000,4.000000,2.000000,2.000000,0.000000,0.000000,4.000000,4.000000,4.000000,4.000000,4.000000,4.000000,0.000000,,,,,,,,,,,,,,,,,,,,,,,,,,,,
1732157523.691238,1732157523.693137,91.000000,0.000000,4315.128418,4349.230957,4321.153809,4320.128418,4301.410156,4273.461426,4329.230957,4402.179688,4309.487305,4291.410156,4474.871582,4520.128418,4323.974121,4429.358887,1563.000000,1.000000,24.000000,,,,0.000000,2.000000,2.000000,0.000000,4.000000,2.000000,2.000000,0.000000,0.000000,4.000000,4.000000,4.000000,4.000000,4.000000,4.000000,0.000000,,,,,,,,,,,,,,,,,,,,,,,,,,,,
1732157523.699046,1732157523.700845,92.000000,0.000000,4311.153809,4326.794922,4321.282227,4319.615234,4280.769043,4284.743652,4334.487305,4402.820313,4313.717773,4293.974121,4473.974121,4516.153809,4315.897461,4425.256348,1715.000000,1.000000,24.000000,,,,0.000000,2.000000,2.000000,0.000000,4.000000,2.000000,2.000000,0.000000,0.000000,4.000000,4.000000,4.000000,4.000000,4.000000,4.000000,0.000000,,,,,,,,,,,,,,,,,23.000000,0.000000,0.511541,0.487488,-0.536072,0.461853,0.981077,0.003418,-0.055671,-35.386803,45.222771,31.054029
1732157523.706855,1732157523.708653,93.000000,0.000000,4305.256348,4309.487305,4321.794922,4317.179688,4291.153809,4288.717773,4334.743652,4400.128418,4318.077148,4296.410156,4475.384766,4507.179688,4315.769043,4415.128418,1648.000000,1.000000,24.000000,,,,0.000000,2.000000,2.000000,0.000000,4.000000,2.000000,2.000000,0.000000,0.000000,4.000000,4.000000,4.000000,4.000000,4.000000,4.000000,0.000000,,,,,,,,,,,,,,,,,,,,,,,,,,,,
1732157523.714663,1732157523.716661,94.000000,0.000000,4298.205078,4307.051270,4322.051270,4313.461426,4298.974121,4289.358887,4334.871582,4403.077148,4321.538574,4297.179688,4473.333496,4507.563965,4307.692383,4411.922852,1538.000000,1.000000,24.000000,,,,0.000000,2.000000,2.000000,0.000000,4.000000,2.000000,2.000000,0.000000,0.000000,4.000000,4.000000,4.000000,4.000000,4.000000,4.000000,0.000000,,,,,,,,,,,,,,,,,,,,,,,,,,,,
1732157523.722471,1732157523.724469,95.000000,0.000000,4294.871582,4300.641113,4321.794922,4315.384766,4296.282227,4298.205078,4336.794922,4406.282227,4317.563965,4287.436035,4462.051270,4505.384766,4291.666504,4411.794922,1563.000000,1.000000,24.000000,,,,0.000000,2.000000,2.000000,0.000000,4.000000,2.000000,2.000000,0.000000,0.000000,4.000000,4.000000,4.000000,4.000000,4.000000,4.000000,0.000000,,,,,,,,,,,,,,,,,,,,,,,,,,,,
1732157523.730280,1732157523.732378,96.000000,0.000000,4303.589844,4294.102539,4321.282227,4319.743652,4312.051270,4297.563965,4334.743652,4401.538574,4311.410156,4279.487305,4458.077148,4500.000000,4290.897461,4411.794922,1715.000000,1.000000,24.000000,,,,0.000000,2.000000,2.000000,0.000000,4.000000,2.000000,2.000000,0.000000,0.000000,4.000000,4.000000,4.000000,4.000000,4.000000,4.000000,0.000000,,,,,,,,,,,,,,,,,24.000000,0.000000,0.511541,0.487488,-0.536072,0.461853,0.979123,0.003418,-0.065926,-35.374977,45.088779,31.140430
1732157523.738088,1732157523.740186,97.000000,0.000000,4311.410156,4296.025879,4320.897461,4318.461426,4312.820313,4289.230957,4333.461426,4398.589844,4316.410156,4288.461426,4469.743652,4502.563965,4298.589844,4413.717773,1648.000000,1.000000,24.000000,,,,0.000000,2.000000,2.000000,0.000000,4.000000,2.000000,2.000000,0.000000,0.000000,4.000000,4.000000,4.000000,4.000000,4.000000,4.000000,0.000000,,,,,,,,,,,,,,,,,,,,,,,,,,,,
1732157523.745896,1732157523.748194,98.000000,0.000000,4309.871582,4296.025879,4320.128418,4318.077148,4289.487305,4292.436035,4334.615234,4401.794922,4320.897461,4297.948730,4476.282227,4508.333496,4296.282227,4415.256348,1538.000000,1.000000,24.000000,,,,0.000000,2.000000,2.000000,0.000000,4.000000,2.000000,2.000000,0.000000,0.000000,4.000000,4.000000,4.000000,4.000000,4.000000,4.000000,0.000000,,,,,,,,,,,,,,,,,,,,,,,,,,,,
1732157523.753704,1732157523.756002,99.000000,0.000000,4308.717773,4291.922852,4320.256348,4324.743652,4291.153809,4296.794922,4334.615234,4402.051270,4317.307617,4295.769043,4473.717773,4509.102539,4295.512695,4416.282227,1563.000000,1.000000,24.000000,,,,0.000000,2.000000,2.000000,0.000000,4.000000,2.000000,2.000000,0.000000,0.000000,4.000000,4.000000,4.000000,4.000000,4.000000,4.000000,0.000000,,,,,,,,,,,,,,,,,,,,,,,,,,,,
1732157523.761513,1732157523.763910,100.000000,0.000000,4307.436035,4285.000000,4322.563965,4322.179688,4309.487305,4294.358887,4334.871582,4400.000000,4320.769043,4295.641113,4473.589844,4506.282227,4297.692383,4417.820313,1715.000000,1.000000,24.000000,,,,0.000000,2.000000,2.000000,0.000000,4.000000,2.000000,2.000000,0.000000,0.000000,4.000000,4.000000,4.000000,4.000000,4.000000,4.000000,0.000000,,,,,,,,,,,,,,,,,25.000000,0.000000,0.511390,0.487427,-0.536377,0.461731,0.995727,0.000977,-0.051764,-35.503731,45.056911,31.248749
1732157523.769321,1732157523.771718,101.000000,0.000000,4304.487305,4272.051270,4323.077148,4313.846191,4308.461426,4293.077148,4336.282227,4400.128418,4323.846191,4299.487305,4477.179688,4508.974121,4297.948730,4420.384766,1648.000000,1.000000,24.000000,,,,0.000000,2.000000,2.000000,0.000000,4.000000,2.000000,2.000000,0.000000,0.000000,4.000000,4.000000,4.000000,4.000000,4.000000,4.000000,0.000000,,,,,,,,,,,,,,,,,,,,,,,,,,,,
1732157523.777129,1732157523.779726,102.000000,0.000000,4302.307617,4257.307617,4320.000000,4312.948730,4306.282227,4292.948730,4335.641113,4400.384766,4313.846191,4297.692383,4476.538574,4513.717773,4297.179688,4417.307617,1538.000000,1.000000,24.000000,,,,0.000000,2.000000,2.000000,0.000000,4.000000,2.000000,2.000000,0.000000,0.000000,4.000000,4.000000,4.000000,4.000000,4.000000,4.000000,0.000000,,,,,,,,,,,,,,,,,,,,,,,,,,,,
1732157523.784937,1732157523.787535,103.000000,0.000000,4302.948730,4246.153809,4318.846191,4317.051270,4325.512695,4292.307617,4332.948730,4400.128418,4307.436035,4293.333496,4474.102539,4510.000000,4293.974121,4412.307617,1563.000000,1.000000,24.000000,,,,0.000000,2.000000,2.000000,0.000000,4.000000,2.000000,2.000000,0.000000,0.000000,4.000000,4.000000,4.000000,4.000000,4.000000,4.000000,0.000000,,,,,,,,,,,,,,,,,,,,,,,,,,,,
1732157523.792745,1732157523.795443,104.000000,0.000000,4303.974121,4240.769043,4321.538574,4318.589844,4327.307617,4293.333496,4333.974121,4400.256348,4314.230957,4296.282227,4475.641113,4509.358887,4297.820313,4418.205078,1715.000000,1.000000,24.000000,,,,0.000000,2.000000,2.000000,0.000000,4.000000,2.000000,2.000000,0.000000,0.000000,4.000000,4.000000,4.000000,4.000000,4.000000,4.000000,0.000000,,,,,,,,,,,,,,,,,26.000000,0.000000,0.510823,0.487732,-0.536377,0.462036,0.962520,0.001465,-0.053229,-35.469688,45.096096,31.151487
1732157523.800554,1732157523.803251,105.000000,0.000000,4303.846191,4230.641113,4321.410156,4314.743652,4306.666504,4296.666504,4336.282227,4400.641113,4320.641113,4303.461426,4477.179688,4518.846191,4304.230957,4421.794922,1648.000000,1.000000,24.000000,,,,0.000000,2.000000,2.000000,0.000000,4.000000,2.000000,2.000000,0.000000,0.000000,4.000000,4.000000,4.000000,4.000000,4.000000,4.000000,0.000000,,,,,,,,,,,,,,,,,,,,,,,,,,,,
1732157523.808362,1732157523.811259,106.000000,0.000000,4304.743652,4210.897461,4320.641113,4312.436035,4303.717773,4296.922852,4335.000000,4402.051270,4323.205078,4307.436035,4476.538574,4523.461426,4302.948730,4416.922852,1538.000000,1.000000,24.000000,,,,0.000000,2.000000,2.000000,0.000000,4.000000,2.000000,2.000000,0.000000,0.000000,4.000000,4.000000,4.000000,4.000000,4.000000,4.000000,0.000000,,,,,,,,,,,,,,,,,,,,,,,,,,,,
1732157523.816170,1732157523.819067,107.000000,0.000000,4309.743652,4198.333496,4320.000000,4314.230957,4314.743652,4295.000000,4334.487305,4404.487305,4326.794922,4309.743652,4480.897461,4521.666504,4303.333496,4420.641113,1563.000000,1.000000,24.000000,,,,0.000000,2.000000,2.000000,0.000000,4.000000,2.000000,2.000000,0.000000,0.000000,4.000000,4.000000,4.000000,4.000000,4.000000,4.000000,0.000000,,,,,,,,,,,,,,,,,,,,,,,,,,,,
1732157523.823979,1732157523.826775,108.000000,0.000000,4311.153809,4197.820313,4319.487305,4313.717773,4311.410156,4295.000000,4335.769043,4405.256348,4324.487305,4305.769043,4481.666504,4523.205078,4306.025879,4429.102539,1715.000000,1.000000,24.000000,,,,0.000000,2.000000,2.000000,0.000000,4.000000,2.000000,2.000000,0.000000,0.000000,4.000000,4.000000,4.000000,4.000000,4.000000,4.000000,0.000000,,,,,,,,,,,,,,,,,27.000000,0.000000,0.510077,0.488098,-0.536438,0.462402,0.984984,0.018069,-0.061043,-35.262115,45.106171,31.061037
1732157523.831787,1732157523.834584,109.000000,0.000000,4310.384766,4199.487305,4319.743652,4309.743652,4308.461426,4289.615234,4334.487305,4401.410156,4318.589844,4298.974121,4478.717773,4523.461426,4303.461426,4428.077148,1648.000000,1.000000,24.000000,,,,0.000000,2.000000,2.000000,0.000000,4.000000,2.000000,2.000000,0.000000,0.000000,4.000000,4.000000,4.000000,4.000000,4.000000,4.000000,0.000000,,,,,,,,,,,,,,,,,,,,,,,,,,,,
1732157523.839595,1732157523.842592,110.000000,0.000000,4312.820313,4196.794922,4318.205078,4310.128418,4317.820313,4287.179688,4333.589844,4400.128418,4320.897461,4305.641113,4483.974121,4522.179688,4305.641113,4424.743652,1538.000000,1.000000,24.000000,,,,0.000000,2.000000,2.000000,0.000000,4.000000,2.000000,2.000000,0.000000,0.000000,4.000000,4.000000,4.000000,4.000000,4.000000,4.000000,0.000000,,,,,,,,,,,,,,,,,,,,,,,,,,,,
1732157523.847403,1732157523.850400,111.000000,0.000000,4307.436035,4191.153809,4316.282227,4311.922852,4320.128418,4299.743652,4335.769043,4401.153809,4325.769043,4314.358887,4484.615234,4521.410156,4312.179688,4421.282227,1563.000000,1.000000,24.000000,,,,0.000000,2.000000,2.000000,0.000000,4.000000,2.000000,2.000000,0.000000,0.000000,4.000000,4.000000,4.000000,4.000000,4.000000,4.000000,0.000000,,,,,,,,,,,,,,,,,,,,,,,,,,,,
1732157523.855212,1732157523.858108,112.000000,0.000000,4296.282227,4186.282227,4317.820313,4309.743652,4322.307617,4307.820313,4336.282227,4400.384766,4323.846191,4309.487305,4476.538574,4518.589844,4306.282227,4412.820313,1715.000000,1.000000,24.000000,,,,0.000000,2.000000,2.000000,0.000000,4.000000,2.000000,2.000000,0.000000,0.000000,4.000000,4.000000,4.000000,4.000000,4.000000,4.000000,0.000000,,,,,,,,,,,,,,,,,28.000000,0.000000,0.510077,0.488098,-0.536438,0.462402,0.984984,0.018069,-0.061043,-35.153980,45.024334,31.092773
1732157523.863020,1732157523.865916,113.000000,0.000000,4298.589844,4185.769043,4319.487305,4310.897461,4323.974121,4299.102539,4334.615234,4403.077148,4325.128418,4308.333496,4479.871582,4518.846191,4296.794922,4411.794922,1648.000000,1.000000,24.000000,,,,0.000000,2.000000,2.000000,0.000000,4.000000,2.000000,2.000000,0.000000,0.000000,4.000000,4.000000,4.000000,4.000000,4.000000,4.000000,0.000000,,,,,,,,,,,,,,,,,,,,,,,,,,,,
1732157523.870828,1732157523.873525,114.000000,0.000000,4307.563965,4188.846191,4319.230957,4316.410156,4316.538574,4294.230957,4334.743652,4404.358887,4326.794922,4314.358887,4486.153809,4522.179688,4300.512695,4416.794922,1538.000000,1.000000,24.000000,,,,0.000000,2.000000,2.000000,0.000000,4.000000,2.000000,2.000000,0.000000,0.000000,4.000000,4.000000,4.000000,4.000000,4.000000,4.000000,0.000000,,,,,,,,,,,,,,,,,,,,,,,,,,,,
1732157523.878636,1732157523.881333,115.000000,0.000000,4309.487305,4192.948730,4321.153809,4317.820313,4323.333496,4298.717773,4335.256348,4399.358887,4313.846191,4309.230957,4476.153809,4516.410156,4307.436035,4415.000000,1563.000000,1.000000,24.000000,,,,0.000000,2.000000,2.000000,0.000000,4.000000,2.000000,2.000000,0.000000,0.000000,4.000000,4.000000,4.000000,4.000000,4.000000,4.000000,0.000000,,,,,,,,,,,,,,,,,,,,,,,,,,,,
1732157523.886444,1732157523.889041,116.000000,0.000000,4311.410156,4194.743652,4319.871582,4316.410156,4337.820313,4293.974121,4334.871582,4397.948730,4305.897461,4305.384766,4476.410156,4511.025879,4309.358887,4418.846191,1715.000000,1.000000,24.000000,,,,0.000000,2.000000,2.000000,0.000000,4.000000,2.000000,2.000000,0.000000,0.000000,4.000000,4.000000,4.000000,4.000000,4.000000,4.000000,0.000000,,,,,,,,,,,,,,,,,29.000000,0.000000,0.509742,0.487488,-0.537048,0.462708,0.973263,0.007325,-0.052741,-35.256390,45.214710,31.216814
1732157523.894253,1732157523.896849,117.000000,0.000000,4314.487305,4189.871582,4315.512695,4321.282227,4326.153809,4292.820313,4334.871582,4401.922852,4315.384766,4310.512695,4487.436035,4518.974121,4309.487305,4426.410156,1648.000000,1.000000,24.000000,,,,0.000000,2.000000,2.000000,0.000000,4.000000,2.000000,2.000000,0.000000,0.000000,4.000000,4.000000,4.000000,4.000000,4.000000,4.000000,0.000000,,,,,,,,,,,,,,,,,,,,,,,,,,,,
1732157523.902061,1732157523.904458,118.000000,0.000000,4312.307617,4184.358887,4314.743652,4322.692383,4305.897461,4303.077148,4335.000000,4400.769043,4316.794922,4315.897461,4482.179688,4524.871582,4310.769043,4423.846191,1538.000000,1.000000,24.000000,,,,0.000000,2.000000,2.000000,0.000000,4.000000,2.000000,2.000000,0.000000,0.000000,4.000000,4.000000,4.000000,4.000000,4.000000,4.000000,0.000000,,,,,,,,,,,,,,,,,,,,,,,,,,,,
1732157523.909869,1732157523.912266,119.000000,0.000000,4310.128418,4183.333496,4317.563965,4315.384766,4310.769043,4307.563965,4335.000000,4400.128418,4310.384766,4320.000000,4475.256348,4521.282227,4310.641113,4420.000000,1563.000000,1.000000,24.000000,,,,0.000000,2.000000,2.000000,0.000000,4.000000,2.000000,2.000000,0.000000,0.000000,4.000000,4.000000,4.000000,4.000000,4.000000,4.000000,0.000000,,,,,,,,,,,,,,,,,,,,,,,,,,,,
1732157523.917678,1732157523.919974,120.000000,0.000000,4311.410156,4182.179688,4320.128418,4315.384766,4321.025879,4306.410156,4335.000000,4405.128418,4318.589844,4320.128418,4477.692383,4519.615234,4311.282227,4423.333496,1715.000000,1.000000,24.000000,,,,0.000000,2.000000,2.000000,0.000000,4.000000,2.000000,2.000000,0.000000,0.000000,4.000000,4.000000,4.000000,4.000000,4.000000,4.000000,0.000000,,,,,,,,,,,,,,,,,30.000000,0.000000,0.509447,0.487305,-0.537231,0.463013,0.984007,-0.004395,-0.046881,-35.296009,45.508915,31.135618
1732157523.925486,1732157523.927783,121.000000,0.000000,4312.179688,4181.282227,4319.871582,4317.692383,4318.333496,4305.512695,4335.000000,4405.641113,4327.179688,4317.436035,4477.692383,4520.512695,4311.794922,4424.230957,1648.000000,1.000000,24.000000,,,,0.000000,2.000000,2.000000,0.000000,4.000000,2.000000,2.000000,0.000000,0.000000,4.000000,4.000000,4.000000,4.000000,4.000000,4.000000,0.000000,,,,,,,,,,,,,,,,,,,,,,,,,,,,
1732157523.933294,1732157523.935391,122.000000,0.000000,4310.000000,4182.436035,4316.794922,4312.948730,4316.794922,4306.538574,4335.000000,4400.512695,4317.563965,4313.717773,4473.333496,4518.846191,4311.153809,4421.922852,1538.000000,1.000000,24.000000,,,,0.000000,2.000000,2.000000,0.000000,4.000000,2.000000,2.000000,0.000000,0.000000,4.000000,4.000000,4.000000,4.000000,4.000000,4.000000,0.000000,,,,,,,,,,,,,,,,,,,,,,,,,,,,
1732157523.941102,1732157523.943199,123.000000,0.000000,4308.846191,4184.230957,4317.820313,4311.025879,4320.256348,4310.256348,4335.000000,4398.461426,4304.230957,4305.512695,4473.717773,4519.615234,4312.948730,4424.487305,1563.000000,1.000000,24.000000,,,,0.000000,2.000000,2.000000,0.000000,4.000000,2.000000,2.000000,0.000000,0.000000,4.000000,4.000000,4.000000,4.000000,4.000000,4.000000,0.000000,,,,,,,,,,,,,,,,,,,,,,,,,,,,
1732157523.948910,1732157523.950908,124.000000,0.000000,4309.615234,4185.384766,4320.641113,4313.461426,4319.743652,4306.282227,4335.000000,4400.128418,4304.871582,4299.871582,4474.487305,4522.563965,4313.974121,4424.102539,1715.000000,1.000000,24.000000,,,,0.000000,2.000000,2.000000,0.000000,4.000000,2.000000,2.000000,0.000000,0.000000,4.000000,4.000000,4.000000,4.000000,4.000000,4.000000,0.000000,,,,,,,,,,,,,,,,,31.000000,0.000000,0.509347,0.487427,-0.537109,0.463135,0.984007,-0.004395,-0.046881,-35.091434,45.697220,31.108185
1732157523.956719,1732157523.958716,125.000000,0.000000,4309.230957,4185.384766,4317.948730,4312.436035,4320.897461,4293.205078,4335.000000,4401.410156,4309.487305,4301.025879,4474.102539,4521.025879,4310.641113,4420.256348,1648.000000,1.000000,24.000000,,,,0.000000,2.000000,2.000000,0.000000,4.000000,2.000000,2.000000,0.000000,0.000000,4.000000,4.000000,4.000000,4.000000,4.000000,4.000000,0.000000,,,,,,,,,,,,,,,,,,,,,,,,,,,,
1732157523.964527,1732157523.966324,126.000000,0.000000,4309.102539,4183.589844,4314.743652,4311.282227,4319.743652,4294.358887,4335.000000,4401.153809,4310.769043,4303.589844,4474.871582,4520.000000,4308.846191,4420.000000,1538.000000,1.000000,24.000000,,,,0.000000,2.000000,2.000000,0.000000,4.000000,2.000000,2.000000,0.000000,0.000000,4.000000,4.000000,4.000000,4.000000,4.000000,4.000000,0.000000,,,,,,,,,,,,,,,,,,,,,,,,,,,,
1732157523.972335,1732157523.974132,127.000000,0.000000,4310.128418,4183.589844,4315.897461,4314.358887,4311.153809,4309.871582,4335.000000,4400.256348,4314.102539,4307.051270,4474.871582,4520.897461,4310.384766,4417.948730,24.000000,1.000000,24.000000,,,,0.000000,2.000000,2.000000,0.000000,4.000000,2.000000,2.000000,0.000000,0.000000,4.000000,4.000000,4.000000,4.000000,4.000000,4.000000,0.000000,,,,,,,,,,,,,,,,,,,,,,,,,,,,
1732157523.980143,1732157523.981841,0.000000,0.000000,4307.692383,4182.692383,4315.769043,4311.538574,4312.051270,4307.051270,4334.871582,4401.538574,4319.102539,4310.256348,4475.128418,4516.794922,4310.512695,4416.153809,0.000000,1.000000,24.000000,,,,0.000000,2.000000,2.000000,0.000000,4.000000,2.000000,2.000000,0.000000,0.000000,4.000000,4.000000,4.000000,4.000000,4.000000,4.000000,0.000000,,,,,,,,,,,,,,,,,0.000000,0.000000,0.509089,0.487061,-0.537476,0.463379,0.971310,-0.014162,-0.043951,-35.247395,45.518082,31.142630
1732157523.987952,1732157523.989649,1.000000,0.000000,4306.410156,4182.563965,4313.974121,4307.307617,4316.922852,4294.230957,4334.871582,4403.077148,4319.358887,4310.769043,4475.897461,4513.974121,4310.897461,4421.922852,1601.000000,1.000000,24.000000,,,,0.000000,2.000000,2.000000,0.000000,4.000000,2.000000,2.000000,0.000000,0.000000,4.000000,4.000000,4.000000,4.000000,4.000000,4.000000,0.000000,,,,,,,,,,,,,,,,,,,,,,,,,,,,
1732157523.995760,1732157523.997657,2.000000,0.000000,4308.717773,4184.487305,4315.128418,4308.846191,4301.282227,4302.436035,4335.384766,4403.846191,4318.974121,4311.666504,4476.794922,4521.025879,4313.461426,4428.974121,1371.000000,1.000000,24.000000,,,,0.000000,2.000000,2.000000,0.000000,4.000000,2.000000,2.000000,0.000000,0.000000,4.000000,4.000000,4.000000,4.000000,4.000000,4.000000,0.000000,,,,,,,,,,,,,,,,,,,,,,,,,,,,
1732157524.003568,1732157524.005465,3.000000,0.000000,4307.948730,4183.589844,4314.615234,4312.436035,4285.641113,4314.358887,4334.743652,4405.769043,4322.820313,4311.922852,4476.153809,4522.307617,4311.794922,4420.641113,1422.000000,1.000000,24.000000,,,,0.000000,2.000000,2.000000,0.000000,4.000000,2.000000,2.000000,0.000000,0.000000,4.000000,4.000000,4.000000,4.000000,4.000000,4.000000,0.000000,,,,,,,,,,,,,,,,,,,,,,,,,,,,
1732157524.011377,1732157524.013173,4.000000,0.000000,4306.410156,4184.487305,4314.102539,4312.948730,4295.384766,4304.102539,4334.358887,4404.102539,4322.563965,4308.974121,4474.743652,4509.487305,4310.384766,4411.922852,1417.000000,1.000000,24.000000,,,,0.000000,2.000000,2.000000,0.000000,4.000000,2.000000,2.000000,0.000000,0.000000,4.000000,4.000000,4.000000,4.000000,4.000000,4.000000,0.000000,,,,,,,,,,,,,,,,,1.000000,0.000000,0.509115,0.486755,-0.537781,0.463318,0.988890,-0.009767,-0.056648,-35.390388,45.556313,31.103863
1732157524.019185,1732157524.020982,5.000000,0.000000,4308.205078,4189.358887,4316.922852,4312.563965,4300.641113,4293.846191,4336.922852,4400.384766,4319.615234,4309.615234,4476.282227,4509.358887,4314.743652,4419.358887,1217.000000,1.000000,24.000000,,,,0.000000,2.000000,2.000000,0.000000,4.000000,2.000000,2.000000,0.000000,0.000000,4.000000,4.000000,4.000000,4.000000,4.000000,4.000000,0.000000,,,,,,,,,,,,,,,,,,,,,,,,,,,,
1732157524.026993,1732157524.028590,6.000000,0.000000,4307.948730,4191.153809,4317.563965,4311.922852,4288.205078,4300.000000,4336.666504,4400.512695,4317.436035,4309.487305,4478.846191,4522.307617,4315.769043,4423.461426,0.000000,1.000000,24.000000,,,,0.000000,2.000000,2.000000,0.000000,4.000000,2.000000,2.000000,0.000000,0.000000,4.000000,4.000000,4.000000,4.000000,4.000000,4.000000,0.000000,,,,,,,,,,,,,,,,,,,,,,,,,,,,
1732157524.034801,1732157524.036398,7.000000,0.000000,4304.102539,4185.256348,4315.384766,4309.230957,4296.922852,4300.256348,4332.820313,4401.794922,4315.000000,4302.436035,4476.666504,4523.717773,4311.153809,4417.307617,0.000000,1.000000,24.000000,,,,0.000000,2.000000,2.000000,0.000000,4.000000,2.000000,2.000000,0.000000,0.000000,4.000000,4.000000,4.000000,4.000000,4.000000,4.000000,0.000000,,,,,,,,,,,,,,,,,,,,,,,,,,,,
1732157524.042609,1732157524.044107,8.000000,0.000000,4305.641113,4182.436035,4315.000000,4308.846191,4311.282227,4293.717773,4333.205078,4402.692383,4315.384766,4302.820313,4476.538574,4521.282227,4311.282227,4420.512695,1536.000000,1.000000,24.000000,,,,0.000000,2.000000,2.000000,0.000000,4.000000,2.000000,2.000000,0.000000,0.000000,4.000000,4.000000,4.000000,4.000000,4.000000,4.000000,0.000000,,,,,,,,,,,,,,,,,2.000000,0.000000,0.509090,0.486511,-0.538025,0.463318,0.985472,-0.007813,-0.056648,-35.379551,45.513947,31.274130
1732157524.050418,1732157524.051915,9.000000,0.000000,4311.922852,4190.512695,4314.230957,4311.666504,4293.717773,4295.000000,4336.153809,4402.820313,4314.487305,4308.846191,4480.641113,4518.333496,4314.743652,4426.153809,1675.000000,1.000000,24.000000,,,,0.000000,2.000000,2.000000,0.000000,4.000000,2.000000,2.000000,0.000000,0.000000,4.000000,4.000000,4.000000,4.000000,4.000000,4.000000,0.000000,,,,,,,,,,,,,,,,,,,,,,,,,,,,
1732157524.058226,1732157524.059523,10.000000,0.000000,4312.051270,4195.256348,4313.846191,4311.538574,4275.512695,4297.307617,4335.512695,4398.461426,4311.153809,4305.769043,4480.000000,4512.820313,4314.358887,4421.153809,1538.000000,1.000000,24.000000,,,,0.000000,2.000000,2.000000,0.000000,4.000000,2.000000,2.000000,0.000000,0.000000,4.000000,4.000000,4.000000,4.000000,4.000000,4.000000,0.000000,,,,,,,,,,,,,,,,,,,,,,,,,,,,
1732157524.066034,1732157524.067331,11.000000,0.000000,4305.897461,4193.077148,4314.871582,4307.563965,4281.538574,4297.563965,4334.743652,4396.794922,4312.179688,4303.077148,4477.179688,4515.512695,4314.358887,4418.333496,1563.000000,1.000000,24.000000,,,,0.000000,2.000000,2.000000,0.000000,4.000000,2.000000,2.000000,0.000000,0.000000,4.000000,4.000000,4.000000,4.000000,4.000000,4.000000,0.000000,,,,,,,,,,,,,,,,,,,,,,,,,,,,
1732157524.073842,1732157524.075239,12.000000,0.000000,4302.948730,4193.205078,4315.256348,4304.358887,4297.051270,4296.538574,4335.641113,4402.692383,4314.230957,4303.205078,4476.153809,4522.563965,4313.333496,4420.256348,1706.000000,1.000000,24.000000,,,,0.000000,2.000000,2.000000,0.000000,4.000000,2.000000,2.000000,0.000000,0.000000,4.000000,4.000000,4.000000,4.000000,4.000000,4.000000,0.000000,,,,,,,,,,,,,,,,,3.000000,0.000000,0.508705,0.486267,-0.538452,0.463501,0.979612,0.016115,-0.052252,-35.244102,45.511295,31.602045
1732157524.081651,1732157524.083048,13.000000,0.000000,4304.487305,4197.820313,4314.743652,4307.948730,4304.615234,4291.794922,4335.128418,4401.538574,4310.641113,4298.846191,4474.743652,4518.974121,4310.000000,4416.410156,1644.000000,1.000000,24.000000,,,,0.000000,2.000000,2.000000,0.000000,4.000000,2.000000,2.000000,0.000000,0.000000,4.000000,4.000000,4.000000,4.000000,4.000000,4.000000,0.000000,,,,,,,,,,,,,,,,,,,,,,,,,,,,
1732157524.089459,1732157524.091056,14.000000,0.000000,4304.102539,4198.205078,4314.230957,4308.846191,4294.615234,4292.436035,4335.384766,4396.794922,4309.487305,4298.461426,4474.230957,4512.051270,4311.025879,4412.307617,1538.000000,1.000000,24.000000,,,,0.000000,2.000000,2.000000,0.000000,4.000000,2.000000,2.000000,0.000000,0.000000,4.000000,4.000000,4.000000,4.000000,4.000000,4.000000,0.000000,1.000000,0.000000,2.000000,1.000000,0.000000,4.000000,2.000000,2.000000,0.000000,0.000000,4.000000,4.000000,4.000000,4.000000,3.000000,4.000000,,,,,,,,,,,,
1732157524.097267,1732157524.098864,15.000000,0.000000,4302.436035,4196.666504,4314.487305,4303.461426,4277.179688,4297.563965,4336.538574,4402.820313,4314.358887,4302.051270,4477.051270,4509.230957,4312.436035,4414.230957,1563.000000,1.000000,24.000000,,,,0.000000,2.000000,2.000000,0.000000,4.000000,2.000000,2.000000,0.000000,0.000000,4.000000,4.000000,4.000000,4.000000,4.000000,4.000000,0.000000,,,,,,,,,,,,,,,,,,,,,,,,,,,,
1732157524.105075,1732157524.106772,16.000000,0.000000,4302.692383,4199.230957,4316.025879,4301.410156,4277.179688,4298.077148,4336.794922,4408.461426,4321.538574,4297.307617,4471.153809,4504.230957,4309.871582,4416.794922,0.000000,1.000000,24.000000,,,,0.000000,2.000000,2.000000,0.000000,4.000000,2.000000,2.000000,0.000000,0.000000,4.000000,4.000000,4.000000,4.000000,4.000000,4.000000,0.000000,,,,,,,,,,,,,,,,,4.000000,0.000000,0.507925,0.486267,-0.538452,0.464355,0.982542,-0.005860,-0.064461,-35.467724,45.614151,31.534323
1732157524.112884,1732157524.114580,17.000000,0.000000,4304.102539,4201.153809,4315.384766,4305.128418,4288.205078,4296.153809,4336.794922,4402.051270,4319.871582,4292.948730,4461.025879,4501.794922,4308.717773,4416.153809,0.000000,1.000000,24.000000,,,,0.000000,2.000000,2.000000,0.000000,4.000000,2.000000,2.000000,0.000000,0.000000,4.000000,4.000000,4.000000,4.000000,4.000000,4.000000,0.000000,,,,,,,,,,,,,,,,,,,,,,,,,,,,
