title:three, start timestamp:1732081478.503209, stop timestamp:1732081504.707693, headset type:EPOCX, headset serial:E5020C3A, headset firmware:730, channels:67, sampling rate:eeg_128;mot_32, samples:3357      , version:2.2, 
Timestamp,OriginalTimestamp,EEG.Counter,EEG.Interpolated,EEG.AF3,EEG.F7,EEG.F3,EEG.FC5,EEG.T7,EEG.P7,EEG.O1,EEG.O2,EEG.P8,EEG.T8,EEG.FC6,EEG.F4,EEG.F8,EEG.AF4,EEG.RawCq,EEG.Battery,EEG.BatteryPercent,MarkerIndex,MarkerType,MarkerValueInt,EEG.MarkerHardware,CQ.AF3,CQ.F7,CQ.F3,CQ.FC5,CQ.T7,CQ.P7,CQ.O1,CQ.O2,CQ.P8,CQ.T8,CQ.FC6,CQ.F4,CQ.F8,CQ.AF4,CQ.Overall,EQ.SampleRateQuality,EQ.OVERALL,EQ.AF3,EQ.F7,EQ.F3,EQ.FC5,EQ.T7,EQ.P7,EQ.O1,EQ.O2,EQ.P8,EQ.T8,EQ.FC6,EQ.F4,EQ.F8,EQ.AF4,MOT.CounterMems,MOT.InterpolatedMems,MOT.Q0,MOT.Q1,MOT.Q2,MOT.Q3,MOT.AccX,MOT.AccY,MOT.AccZ,MOT.MagX,MOT.MagY,MOT.MagZ
1732081478.503209,1732081478.504463,125.000000,0.000000,4347.563965,4288.717773,4329.358887,4344.871582,4320.897461,4346.666504,4423.589844,4363.461426,4348.461426,4342.563965,4463.846191,4487.820313,4384.487305,4413.461426,1659.000000,0.000000,13.000000,,,,0.000000,2.000000,2.000000,0.000000,2.000000,2.000000,2.000000,1.000000,2.000000,4.000000,4.000000,4.000000,4.000000,2.000000,4.000000,25.000000,,,,,,,,,,,,,,,,,,,,,,,,,,,,
1732081478.511017,1732081478.512471,126.000000,0.000000,4345.641113,4285.769043,4327.051270,4341.025879,4328.077148,4345.000000,4420.384766,4359.230957,4346.153809,4339.230957,4462.307617,4486.282227,4382.948730,4410.769043,1357.000000,0.000000,13.000000,,,,0.000000,2.000000,2.000000,0.000000,2.000000,2.000000,2.000000,1.000000,2.000000,4.000000,4.000000,4.000000,4.000000,2.000000,4.000000,25.000000,,,,,,,,,,,,,,,,,,,,,,,,,,,,
1732081478.518825,1732081478.520279,127.000000,0.000000,4345.641113,4285.000000,4328.974121,4339.615234,4331.153809,4337.179688,4422.948730,4357.820313,4346.153809,4340.512695,4465.897461,4485.256348,4382.179688,4414.743652,13.000000,0.000000,13.000000,,,,0.000000,2.000000,2.000000,0.000000,2.000000,2.000000,2.000000,1.000000,2.000000,4.000000,4.000000,4.000000,4.000000,2.000000,4.000000,25.000000,,,,,,,,,,,,,,,,,,,,,,,,,,,,
1732081478.526634,1732081478.528187,0.000000,0.000000,4347.179688,4286.922852,4330.256348,4345.256348,4324.615234,4337.820313,4428.461426,4362.436035,4346.153809,4339.358887,4466.410156,4486.922852,4383.205078,4417.051270,0.000000,0.000000,13.000000,,,,0.000000,2.000000,2.000000,0.000000,2.000000,2.000000,2.000000,1.000000,2.000000,4.000000,4.000000,4.000000,4.000000,2.000000,4.000000,25.000000,,,,,,,,,,,,,,,,,0.000000,0.000000,0.623772,0.404785,-0.591553,0.311646,0.961543,0.138689,-0.025882,-76.251823,64.591972,28.026190
1732081478.534442,1732081478.535995,1.000000,0.000000,4345.000000,4288.717773,4325.384766,4349.487305,4329.615234,4339.871582,4423.461426,4362.307617,4345.000000,4335.769043,4462.820313,4485.384766,4382.179688,4411.794922,1280.000000,0.000000,13.000000,,,,0.000000,2.000000,2.000000,0.000000,2.000000,2.000000,2.000000,1.000000,2.000000,4.000000,4.000000,4.000000,4.000000,2.000000,4.000000,25.000000,,,,,,,,,,,,,,,,,,,,,,,,,,,,
1732081478.542250,1732081478.544003,2.000000,0.000000,4343.846191,4289.743652,4324.615234,4345.897461,4336.794922,4334.871582,4420.384766,4359.615234,4345.384766,4335.000000,4464.230957,4483.717773,4382.563965,4411.282227,1210.000000,0.000000,13.000000,,,,0.000000,2.000000,2.000000,0.000000,2.000000,2.000000,2.000000,1.000000,2.000000,4.000000,4.000000,4.000000,4.000000,2.000000,4.000000,25.000000,,,,,,,,,,,,,,,,,,,,,,,,,,,,
1732081478.550058,1732081478.551812,3.000000,0.000000,4345.000000,4288.333496,4326.666504,4341.153809,4326.922852,4333.077148,4422.436035,4361.794922,4345.512695,4338.589844,4469.615234,4483.717773,4385.897461,4416.922852,1167.000000,0.000000,13.000000,,,,0.000000,2.000000,2.000000,0.000000,2.000000,2.000000,2.000000,1.000000,2.000000,4.000000,4.000000,4.000000,4.000000,2.000000,4.000000,25.000000,,,,,,,,,,,,,,,,,,,,,,,,,,,,
1732081478.557867,1732081478.559720,4.000000,0.000000,4343.461426,4284.230957,4329.487305,4341.666504,4315.384766,4337.563965,4425.769043,4365.128418,4344.743652,4341.794922,4467.692383,4482.179688,4386.025879,4412.436035,1180.000000,0.000000,13.000000,,,,0.000000,2.000000,2.000000,0.000000,2.000000,2.000000,2.000000,1.000000,2.000000,4.000000,4.000000,4.000000,4.000000,2.000000,4.000000,25.000000,,,,,,,,,,,,,,,,,1.000000,0.000000,0.624100,0.405457,-0.591003,0.311157,0.962031,0.146502,-0.025394,-76.150642,64.717827,28.056213
1732081478.565675,1732081478.567528,5.000000,0.000000,4343.077148,4287.307617,4327.692383,4346.538574,4322.692383,4340.641113,4422.820313,4365.641113,4346.025879,4338.461426,4459.871582,4480.512695,4382.051270,4405.641113,1068.000000,0.000000,13.000000,,,,0.000000,2.000000,2.000000,0.000000,2.000000,2.000000,2.000000,1.000000,2.000000,4.000000,4.000000,4.000000,4.000000,2.000000,4.000000,25.000000,,,,,,,,,,,,,,,,,,,,,,,,,,,,
1732081478.573483,1732081478.575536,6.000000,0.000000,4341.922852,4292.563965,4328.077148,4346.794922,4330.128418,4340.000000,4420.897461,4360.512695,4345.128418,4333.846191,4459.487305,4480.897461,4378.589844,4411.282227,195.000000,0.000000,13.000000,,,,0.000000,2.000000,2.000000,0.000000,2.000000,2.000000,2.000000,0.000000,2.000000,4.000000,4.000000,4.000000,4.000000,2.000000,4.000000,16.666666,,,,,,,,,,,,,,,,,,,,,,,,,,,,
1732081478.581291,1732081478.583344,7.000000,0.000000,4341.538574,4291.794922,4328.333496,4343.333496,4327.051270,4338.205078,4421.282227,4356.025879,4343.333496,4334.230957,4463.717773,4482.179688,4377.563965,4415.512695,1187.000000,0.000000,13.000000,,,,0.000000,2.000000,2.000000,0.000000,2.000000,2.000000,2.000000,0.000000,2.000000,4.000000,4.000000,4.000000,4.000000,2.000000,4.000000,16.666666,,,,,,,,,,,,,,,,,,,,,,,,,,,,
1732081478.589100,1732081478.591252,8.000000,0.000000,4345.256348,4291.666504,4327.820313,4339.743652,4323.846191,4337.179688,4424.487305,4359.102539,4344.871582,4333.077148,4462.948730,4485.384766,4376.025879,4412.179688,1336.000000,0.000000,13.000000,,,,0.000000,2.000000,2.000000,0.000000,2.000000,2.000000,2.000000,0.000000,2.000000,4.000000,4.000000,4.000000,4.000000,2.000000,4.000000,16.666666,,,,,,,,,,,,,,,,,2.000000,0.000000,0.624126,0.405945,-0.590576,0.311279,0.970822,0.140154,-0.016604,-76.147018,64.868111,27.890533
1732081478.596908,1732081478.599060,9.000000,0.000000,4344.615234,4292.179688,4325.769043,4341.282227,4324.871582,4341.153809,4424.871582,4363.077148,4346.410156,4330.897461,4464.102539,4481.282227,4377.051270,4417.307617,1466.000000,0.000000,13.000000,,,,0.000000,2.000000,2.000000,0.000000,2.000000,2.000000,2.000000,0.000000,2.000000,4.000000,4.000000,4.000000,4.000000,2.000000,4.000000,16.666666,,,,,,,,,,,,,,,,,,,,,,,,,,,,
1732081478.604716,1732081478.607068,10.000000,0.000000,4344.230957,4291.794922,4327.051270,4346.666504,4333.846191,4338.333496,4421.025879,4358.333496,4339.487305,4330.000000,4465.384766,4471.666504,4375.641113,4420.512695,1359.000000,0.000000,13.000000,,,,0.000000,2.000000,2.000000,0.000000,2.000000,2.000000,2.000000,0.000000,2.000000,4.000000,4.000000,4.000000,4.000000,2.000000,4.000000,16.666666,,,,,,,,,,,,,,,,,,,,,,,,,,,,
1732081478.612524,1732081478.614877,11.000000,0.000000,4352.307617,4291.922852,4330.769043,4344.743652,4337.436035,4328.461426,4419.102539,4353.846191,4336.153809,4327.820313,4461.153809,4472.820313,4374.487305,4415.769043,1496.000000,0.000000,13.000000,,,,0.000000,2.000000,2.000000,0.000000,2.000000,2.000000,2.000000,0.000000,2.000000,4.000000,4.000000,4.000000,4.000000,2.000000,4.000000,16.666666,,,,,,,,,,,,,,,,,,,,,,,,,,,,
1732081478.620333,1732081478.622785,12.000000,0.000000,4353.333496,4294.487305,4335.641113,4342.179688,4325.256348,4332.692383,4420.769043,4357.179688,4342.307617,4327.051270,4462.692383,4480.512695,4375.256348,4417.692383,1723.000000,0.000000,13.000000,,,,0.000000,2.000000,2.000000,0.000000,2.000000,2.000000,2.000000,0.000000,2.000000,4.000000,4.000000,4.000000,4.000000,2.000000,4.000000,16.666666,,,,,,,,,,,,,,,,,3.000000,0.000000,0.624301,0.406250,-0.590149,0.311340,0.974728,0.134782,-0.022464,-75.739090,64.988167,27.816332
1732081478.628141,1732081478.630593,13.000000,0.000000,4350.000000,4295.641113,4334.102539,4350.384766,4320.769043,4336.666504,4421.410156,4358.461426,4342.820313,4331.410156,4467.820313,4483.077148,4377.692383,4424.358887,1663.000000,0.000000,13.000000,,,,0.000000,2.000000,2.000000,0.000000,2.000000,2.000000,2.000000,0.000000,2.000000,4.000000,4.000000,4.000000,4.000000,2.000000,4.000000,16.666666,,,,,,,,,,,,,,,,,,,,,,,,,,,,
1732081478.635949,1732081478.638601,14.000000,0.000000,4359.358887,4295.769043,4328.717773,4355.897461,4327.820313,4328.205078,4419.102539,4356.538574,4337.948730,4336.538574,4465.769043,4479.615234,4380.128418,4424.358887,1359.000000,0.000000,13.000000,,,,0.000000,2.000000,2.000000,0.000000,2.000000,2.000000,2.000000,0.000000,2.000000,4.000000,4.000000,4.000000,4.000000,2.000000,4.000000,16.666666,1.000000,16.666666,2.000000,2.000000,0.000000,2.000000,2.000000,2.000000,0.000000,2.000000,3.000000,4.000000,4.000000,4.000000,2.000000,4.000000,,,,,,,,,,,,
1732081478.643757,1732081478.646409,15.000000,0.000000,4365.384766,4297.820313,4329.871582,4353.077148,4328.205078,4325.897461,4422.307617,4357.563965,4337.948730,4333.205078,4460.897461,4476.538574,4376.025879,4421.538574,1496.000000,0.000000,13.000000,,,,0.000000,2.000000,2.000000,0.000000,2.000000,2.000000,2.000000,0.000000,2.000000,4.000000,4.000000,4.000000,4.000000,2.000000,4.000000,16.666666,,,,,,,,,,,,,,,,,,,,,,,,,,,,
1732081478.651566,1732081478.654317,16.000000,0.000000,4359.358887,4301.025879,4331.538574,4353.974121,4323.077148,4333.974121,4425.256348,4357.563965,4340.000000,4327.563965,4459.871582,4477.307617,4368.717773,4421.538574,0.000000,0.000000,13.000000,,,,0.000000,2.000000,2.000000,0.000000,2.000000,2.000000,2.000000,0.000000,2.000000,4.000000,4.000000,4.000000,4.000000,2.000000,4.000000,16.666666,,,,,,,,,,,,,,,,,4.000000,0.000000,0.623859,0.405762,-0.590759,0.311707,0.982053,0.112807,-0.025882,-75.746994,64.833748,27.917894
1732081478.659374,1732081478.662125,17.000000,0.000000,4356.153809,4301.794922,4331.666504,4352.563965,4320.897461,4337.563965,4426.282227,4358.205078,4340.769043,4328.205078,4458.461426,4483.974121,4368.717773,4421.538574,0.000000,0.000000,13.000000,,,,0.000000,2.000000,2.000000,0.000000,2.000000,2.000000,2.000000,0.000000,2.000000,4.000000,4.000000,4.000000,4.000000,2.000000,4.000000,16.666666,,,,,,,,,,,,,,,,,,,,,,,,,,,,
1732081478.667182,1732081478.669734,18.000000,0.000000,4355.641113,4297.948730,4328.974121,4346.666504,4331.922852,4334.230957,4422.436035,4362.179688,4343.974121,4333.205078,4457.948730,4487.692383,4370.897461,4419.230957,0.000000,0.000000,13.000000,,,,0.000000,2.000000,2.000000,0.000000,2.000000,2.000000,2.000000,0.000000,2.000000,4.000000,4.000000,4.000000,4.000000,2.000000,4.000000,16.666666,,,,,,,,,,,,,,,,,,,,,,,,,,,,
1732081478.674991,1732081478.677542,19.000000,0.000000,4351.282227,4295.256348,4330.512695,4346.410156,4340.384766,4329.871582,4418.461426,4360.000000,4345.769043,4333.717773,4456.538574,4483.205078,4368.077148,4413.077148,0.000000,0.000000,13.000000,,,,0.000000,2.000000,2.000000,0.000000,2.000000,2.000000,2.000000,0.000000,2.000000,4.000000,4.000000,4.000000,4.000000,2.000000,4.000000,16.666666,,,,,,,,,,,,,,,,,,,,,,,,,,,,
1732081478.682799,1732081478.685350,20.000000,0.000000,4350.256348,4298.717773,4329.871582,4346.538574,4325.384766,4332.948730,4418.974121,4356.410156,4345.384766,4333.205078,4456.153809,4477.948730,4371.538574,4413.077148,0.000000,0.000000,13.000000,,,,0.000000,2.000000,2.000000,0.000000,2.000000,2.000000,2.000000,0.000000,2.000000,4.000000,4.000000,4.000000,4.000000,2.000000,4.000000,16.666666,,,,,,,,,,,,,,,,,5.000000,0.000000,0.623467,0.405151,-0.591431,0.312012,0.960078,0.116225,-0.020022,-75.941734,64.688667,27.943495
1732081478.690607,1732081478.693158,21.000000,0.000000,4353.846191,4299.743652,4332.307617,4343.333496,4318.077148,4337.307617,4423.717773,4358.974121,4346.538574,4337.948730,4457.820313,4477.948730,4376.153809,4418.077148,0.000000,0.000000,13.000000,,,,0.000000,2.000000,2.000000,0.000000,2.000000,2.000000,2.000000,0.000000,2.000000,4.000000,4.000000,4.000000,4.000000,2.000000,4.000000,16.666666,,,,,,,,,,,,,,,,,,,,,,,,,,,,
1732081478.698415,1732081478.700767,22.000000,0.000000,4357.051270,4300.641113,4335.000000,4348.717773,4330.000000,4332.179688,4420.128418,4360.000000,4346.282227,4339.743652,4455.256348,4480.769043,4369.615234,4413.846191,0.000000,0.000000,13.000000,,,,0.000000,2.000000,2.000000,0.000000,2.000000,2.000000,2.000000,0.000000,2.000000,4.000000,4.000000,4.000000,4.000000,2.000000,4.000000,16.666666,,,,,,,,,,,,,,,,,,,,,,,,,,,,
1732081478.706223,1732081478.708575,23.000000,0.000000,4353.461426,4300.000000,4335.769043,4351.025879,4329.487305,4331.282227,4417.307617,4358.717773,4343.333496,4334.487305,4452.436035,4485.512695,4366.666504,4410.897461,0.000000,0.000000,13.000000,,,,0.000000,2.000000,2.000000,0.000000,2.000000,2.000000,2.000000,0.000000,2.000000,4.000000,4.000000,4.000000,4.000000,2.000000,4.000000,16.666666,,,,,,,,,,,,,,,,,,,,,,,,,,,,
1732081478.714032,1732081478.716283,24.000000,0.000000,4346.666504,4295.256348,4330.384766,4342.563965,4329.358887,4334.743652,4418.333496,4359.358887,4341.922852,4330.641113,4456.025879,4487.051270,4370.641113,4417.307617,0.000000,0.000000,13.000000,,,,0.000000,2.000000,2.000000,0.000000,2.000000,2.000000,2.000000,0.000000,2.000000,4.000000,4.000000,4.000000,4.000000,2.000000,4.000000,16.666666,,,,,,,,,,,,,,,,,6.000000,0.000000,0.623320,0.404968,-0.591614,0.312195,0.980100,0.128922,-0.033207,-76.332802,64.684486,27.922564
1732081478.721840,1732081478.724092,25.000000,0.000000,4345.256348,4294.358887,4328.461426,4339.102539,4336.153809,4332.948730,4415.897461,4357.051270,4344.487305,4330.769043,4459.871582,4484.615234,4369.358887,4417.820313,0.000000,0.000000,13.000000,,,,0.000000,2.000000,2.000000,0.000000,2.000000,2.000000,2.000000,0.000000,2.000000,4.000000,4.000000,4.000000,4.000000,2.000000,4.000000,16.666666,,,,,,,,,,,,,,,,,,,,,,,,,,,,
1732081478.729648,1732081478.731700,26.000000,0.000000,4345.512695,4296.410156,4332.307617,4341.153809,4326.153809,4335.512695,4415.384766,4354.615234,4345.384766,4335.384766,4460.897461,4487.051270,4369.615234,4412.820313,0.000000,0.000000,13.000000,,,,0.000000,2.000000,2.000000,0.000000,2.000000,2.000000,2.000000,0.000000,2.000000,4.000000,4.000000,4.000000,4.000000,2.000000,4.000000,16.666666,,,,,,,,,,,,,,,,,,,,,,,,,,,,
1732081478.737456,1732081478.739508,27.000000,0.000000,4344.358887,4294.102539,4332.563965,4339.871582,4319.743652,4336.538574,4419.871582,4357.820313,4344.358887,4339.487305,4463.077148,4491.538574,4376.025879,4417.820313,0.000000,0.000000,13.000000,,,,0.000000,2.000000,2.000000,0.000000,2.000000,2.000000,2.000000,0.000000,2.000000,4.000000,4.000000,4.000000,4.000000,2.000000,4.000000,16.666666,,,,,,,,,,,,,,,,,,,,,,,,,,,,
1732081478.745265,1732081478.747217,28.000000,0.000000,4346.538574,4291.153809,4330.000000,4341.025879,4331.794922,4329.102539,4419.358887,4358.974121,4345.256348,4341.282227,4467.179688,4486.538574,4379.871582,4424.615234,0.000000,0.000000,13.000000,,,,0.000000,2.000000,2.000000,0.000000,2.000000,2.000000,2.000000,0.000000,2.000000,4.000000,4.000000,4.000000,4.000000,2.000000,4.000000,16.666666,,,,,,,,,,,,,,,,,7.000000,0.000000,0.622957,0.404663,-0.591980,0.312622,1.002564,0.130387,-0.029789,-76.474571,64.751106,28.092278
1732081478.753073,1732081478.755025,29.000000,0.000000,4346.282227,4294.615234,4330.897461,4343.846191,4330.384766,4330.897461,4418.333496,4357.179688,4345.897461,4340.769043,4466.794922,4485.641113,4378.077148,4420.897461,0.000000,0.000000,13.000000,,,,0.000000,2.000000,2.000000,0.000000,2.000000,2.000000,2.000000,0.000000,2.000000,4.000000,4.000000,4.000000,4.000000,2.000000,4.000000,16.666666,,,,,,,,,,,,,,,,,,,,,,,,,,,,
1732081478.760881,1732081478.762633,30.000000,0.000000,4341.282227,4296.153809,4335.512695,4341.538574,4321.538574,4336.922852,4420.128418,4358.589844,4346.025879,4338.846191,4462.179688,4493.974121,4371.025879,4415.897461,0.000000,0.000000,13.000000,,,,0.000000,2.000000,2.000000,0.000000,2.000000,2.000000,2.000000,0.000000,2.000000,4.000000,4.000000,4.000000,4.000000,2.000000,4.000000,16.666666,,,,,,,,,,,,,,,,,,,,,,,,,,,,
1732081478.768690,1732081478.770441,31.000000,0.000000,4343.077148,4295.641113,4335.769043,4340.641113,4337.563965,4334.743652,4415.384766,4358.077148,4346.025879,4338.846191,4459.871582,4489.102539,4367.307617,4413.974121,0.000000,0.000000,13.000000,,,,0.000000,2.000000,2.000000,0.000000,2.000000,2.000000,2.000000,0.000000,2.000000,4.000000,4.000000,4.000000,4.000000,2.000000,4.000000,16.666666,,,,,,,,,,,,,,,,,,,,,,,,,,,,
1732081478.776498,1732081478.778150,32.000000,0.000000,4346.282227,4298.077148,4332.436035,4341.282227,4345.512695,4334.487305,4414.615234,4357.692383,4347.820313,4340.256348,4459.230957,4476.282227,4368.077148,4411.666504,0.000000,0.000000,13.000000,,,,0.000000,2.000000,2.000000,0.000000,2.000000,2.000000,2.000000,0.000000,2.000000,4.000000,4.000000,4.000000,4.000000,2.000000,4.000000,16.666666,,,,,,,,,,,,,,,,,8.000000,0.000000,0.621060,0.404419,-0.593201,0.314392,0.941033,0.137712,-0.039556,-76.389404,64.671730,28.079744
1732081478.784306,1732081478.785958,33.000000,0.000000,4339.871582,4294.743652,4329.743652,4336.922852,4326.794922,4337.179688,4417.179688,4360.128418,4350.512695,4343.589844,4459.743652,4477.563965,4366.922852,4411.410156,0.000000,0.000000,13.000000,,,,0.000000,2.000000,2.000000,0.000000,2.000000,2.000000,2.000000,0.000000,2.000000,4.000000,4.000000,4.000000,4.000000,2.000000,4.000000,16.666666,,,,,,,,,,,,,,,,,,,,,,,,,,,,
1732081478.792114,1732081478.793566,34.000000,0.000000,4333.077148,4288.205078,4332.820313,4334.102539,4315.897461,4335.256348,4418.077148,4361.153809,4349.615234,4344.743652,4460.000000,4484.743652,4366.025879,4414.487305,0.000000,0.000000,13.000000,,,,0.000000,2.000000,2.000000,0.000000,2.000000,2.000000,2.000000,0.000000,2.000000,4.000000,4.000000,4.000000,4.000000,2.000000,4.000000,16.666666,,,,,,,,,,,,,,,,,,,,,,,,,,,,
1732081478.799922,1732081478.801374,35.000000,0.000000,4337.307617,4292.948730,4332.820313,4339.230957,4324.871582,4336.282227,4417.051270,4362.820313,4350.512695,4346.025879,4460.128418,4485.512695,4367.563965,4416.282227,0.000000,0.000000,13.000000,,,,0.000000,2.000000,2.000000,0.000000,2.000000,2.000000,2.000000,0.000000,2.000000,4.000000,4.000000,4.000000,4.000000,2.000000,4.000000,16.666666,,,,,,,,,,,,,,,,,,,,,,,,,,,,
1732081478.807731,1732081478.809083,36.000000,0.000000,4343.205078,4300.512695,4333.333496,4345.256348,4336.538574,4336.025879,4416.794922,4365.384766,4352.820313,4344.871582,4460.512695,4485.000000,4367.179688,4415.897461,0.000000,0.000000,13.000000,,,,0.000000,2.000000,2.000000,0.000000,2.000000,2.000000,2.000000,0.000000,2.000000,4.000000,4.000000,4.000000,4.000000,2.000000,4.000000,16.666666,,,,,,,,,,,,,,,,,9.000000,0.000000,0.620546,0.404602,-0.593323,0.314941,0.941033,0.137712,-0.039556,-76.415413,64.480766,28.106260
1732081478.815539,1732081478.816891,37.000000,0.000000,4340.384766,4298.077148,4333.974121,4343.461426,4332.563965,4331.794922,4413.333496,4365.769043,4351.922852,4340.769043,4460.641113,4489.615234,4366.282227,4416.025879,0.000000,0.000000,13.000000,,,,0.000000,2.000000,2.000000,0.000000,2.000000,2.000000,2.000000,0.000000,2.000000,4.000000,4.000000,4.000000,4.000000,2.000000,4.000000,16.666666,,,,,,,,,,,,,,,,,,,,,,,,,,,,
1732081478.823347,1732081478.824499,38.000000,0.000000,4336.153809,4293.589844,4336.538574,4338.333496,4320.000000,4332.948730,4415.769043,4365.128418,4349.743652,4340.000000,4459.743652,4497.051270,4367.948730,4415.769043,0.000000,0.000000,13.000000,,,,0.000000,2.000000,2.000000,0.000000,2.000000,2.000000,2.000000,0.000000,2.000000,4.000000,4.000000,4.000000,4.000000,2.000000,4.000000,16.666666,,,,,,,,,,,,,,,,,,,,,,,,,,,,
1732081478.831155,1732081478.832308,39.000000,0.000000,4338.974121,4295.769043,4336.282227,4340.641113,4315.641113,4336.794922,4416.153809,4364.871582,4352.948730,4342.307617,4459.230957,4498.077148,4370.897461,4414.871582,0.000000,0.000000,13.000000,,,,0.000000,2.000000,2.000000,0.000000,2.000000,2.000000,2.000000,0.000000,2.000000,4.000000,4.000000,4.000000,4.000000,2.000000,4.000000,16.666666,,,,,,,,,,,,,,,,,,,,,,,,,,,,
1732081478.838964,1732081478.840016,40.000000,0.000000,4337.563965,4296.794922,4335.512695,4345.384766,4322.307617,4337.436035,4414.102539,4366.410156,4354.230957,4341.922852,4457.948730,4494.102539,4368.974121,4411.666504,0.000000,0.000000,13.000000,,,,0.000000,2.000000,2.000000,0.000000,2.000000,2.000000,2.000000,0.000000,2.000000,4.000000,4.000000,4.000000,4.000000,2.000000,4.000000,16.666666,,,,,,,,,,,,,,,,,10.000000,0.000000,0.620193,0.404846,-0.593201,0.315552,0.943963,0.096691,-0.027835,-76.486488,64.336090,27.966070
1732081478.846772,1732081478.847824,41.000000,0.000000,4329.487305,4296.410156,4331.794922,4343.077148,4331.538574,4336.922852,4414.230957,4367.179688,4350.384766,4336.153809,4454.102539,4489.615234,4361.922852,4407.307617,0.000000,0.000000,13.000000,,,,0.000000,2.000000,2.000000,0.000000,2.000000,2.000000,2.000000,0.000000,2.000000,4.000000,4.000000,4.000000,4.000000,2.000000,4.000000,16.666666,,,,,,,,,,,,,,,,,,,,,,,,,,,,
1732081478.854580,1732081478.855433,42.000000,0.000000,4330.256348,4297.179688,4331.922852,4340.128418,4333.974121,4331.153809,4414.871582,4362.948730,4347.948730,4333.589844,4456.538574,4488.461426,4362.820313,4411.410156,0.000000,0.000000,13.000000,,,,0.000000,2.000000,2.000000,0.000000,2.000000,2.000000,2.000000,0.000000,2.000000,4.000000,4.000000,4.000000,4.000000,2.000000,4.000000,16.666666,,,,,,,,,,,,,,,,,,,,,,,,,,,,
1732081478.862388,1732081478.863241,43.000000,0.000000,4335.641113,4298.077148,4333.461426,4342.692383,4326.666504,4328.205078,4415.128418,4361.538574,4348.846191,4334.487305,4463.717773,4488.077148,4370.256348,4417.307617,0.000000,0.000000,13.000000,,,,0.000000,2.000000,2.000000,0.000000,2.000000,2.000000,2.000000,0.000000,2.000000,4.000000,4.000000,4.000000,4.000000,2.000000,4.000000,16.666666,,,,,,,,,,,,,,,,,,,,,,,,,,,,
1732081478.870197,1732081478.870949,44.000000,0.000000,4331.794922,4297.307617,4333.077148,4344.358887,4320.256348,4336.794922,4417.179688,4365.128418,4348.205078,4332.436035,4458.974121,4483.333496,4366.282227,4414.358887,0.000000,0.000000,13.000000,,,,0.000000,2.000000,2.000000,0.000000,2.000000,2.000000,2.000000,0.000000,2.000000,4.000000,4.000000,4.000000,4.000000,2.000000,4.000000,16.666666,,,,,,,,,,,,,,,,,11.000000,0.000000,0.620546,0.404907,-0.592529,0.316040,0.979123,0.094738,-0.022952,-76.475723,64.163895,27.762518
1732081478.878005,1732081478.878757,45.000000,0.000000,4330.128418,4294.743652,4333.205078,4342.948730,4328.589844,4340.641113,4417.179688,4364.358887,4345.000000,4331.538574,4450.512695,4480.256348,4361.794922,4411.794922,0.000000,0.000000,13.000000,,,,0.000000,2.000000,2.000000,0.000000,2.000000,2.000000,2.000000,0.000000,2.000000,4.000000,4.000000,4.000000,4.000000,2.000000,4.000000,16.666666,,,,,,,,,,,,,,,,,,,,,,,,,,,,
1732081478.885813,1732081478.886365,46.000000,0.000000,4337.436035,4295.384766,4332.051270,4343.974121,4330.128418,4336.922852,4413.717773,4361.153809,4346.410156,4335.512695,4455.128418,4480.897461,4369.358887,4415.000000,0.000000,0.000000,13.000000,,,,0.000000,2.000000,2.000000,0.000000,2.000000,2.000000,2.000000,0.000000,2.000000,4.000000,4.000000,4.000000,4.000000,2.000000,4.000000,16.666666,,,,,,,,,,,,,,,,,,,,,,,,,,,,
1732081478.893621,1732081478.894173,47.000000,0.000000,4335.256348,4298.589844,4330.641113,4343.205078,4328.846191,4336.666504,4414.871582,4363.333496,4347.948730,4337.563965,4460.000000,4479.871582,4372.051270,4417.436035,0.000000,0.000000,13.000000,,,,0.000000,2.000000,2.000000,0.000000,2.000000,2.000000,2.000000,0.000000,2.000000,4.000000,4.000000,4.000000,4.000000,2.000000,4.000000,16.666666,,,,,,,,,,,,,,,,,,,,,,,,,,,,
1732081478.901430,1732081478.902081,48.000000,0.000000,4326.922852,4295.769043,4329.615234,4338.333496,4339.102539,4334.230957,4411.538574,4364.230957,4345.128418,4334.102539,4458.461426,4480.512695,4369.230957,4417.436035,0.000000,0.000000,13.000000,,,,0.000000,2.000000,2.000000,0.000000,2.000000,2.000000,2.000000,0.000000,2.000000,4.000000,4.000000,4.000000,4.000000,2.000000,4.000000,16.666666,,,,,,,,,,,,,,,,,12.000000,0.000000,0.621242,0.404358,-0.592468,0.315491,0.986937,0.122574,-0.035161,-76.493668,64.186089,27.774305
1732081478.909238,1732081478.909889,49.000000,0.000000,4328.333496,4291.410156,4330.256348,4335.769043,4331.922852,4331.025879,4408.461426,4363.077148,4345.512695,4334.358887,4458.717773,4485.897461,4369.615234,4414.102539,0.000000,0.000000,13.000000,,,,0.000000,2.000000,2.000000,0.000000,2.000000,2.000000,2.000000,0.000000,2.000000,4.000000,4.000000,4.000000,4.000000,2.000000,4.000000,16.666666,,,,,,,,,,,,,,,,,,,,,,,,,,,,
1732081478.917046,1732081478.917897,50.000000,0.000000,4330.897461,4290.897461,4328.846191,4339.487305,4317.179688,4333.333496,4410.384766,4363.077148,4345.897461,4337.692383,4460.512695,4483.461426,4366.410156,4408.589844,0.000000,0.000000,13.000000,,,,0.000000,2.000000,2.000000,0.000000,2.000000,2.000000,2.000000,0.000000,2.000000,4.000000,4.000000,4.000000,4.000000,2.000000,4.000000,16.666666,,,,,,,,,,,,,,,,,,,,,,,,,,,,
1732081478.924854,1732081478.925705,51.000000,0.000000,4328.589844,4291.282227,4333.205078,4339.871582,4317.692383,4332.948730,4414.743652,4362.948730,4341.794922,4336.410156,4458.846191,4482.948730,4362.820313,4412.692383,0.000000,0.000000,13.000000,,,,0.000000,2.000000,2.000000,0.000000,2.000000,2.000000,2.000000,0.000000,2.000000,4.000000,4.000000,4.000000,4.000000,2.000000,4.000000,16.666666,,,,,,,,,,,,,,,,,,,,,,,,,,,,
1732081478.932663,1732081478.933614,52.000000,0.000000,4331.025879,4289.230957,4334.615234,4336.025879,4327.948730,4327.820313,4411.666504,4363.717773,4343.077148,4335.512695,4458.205078,4493.205078,4362.307617,4421.538574,0.000000,0.000000,13.000000,,,,0.000000,2.000000,2.000000,0.000000,2.000000,2.000000,2.000000,0.000000,2.000000,4.000000,4.000000,4.000000,4.000000,2.000000,4.000000,16.666666,,,,,,,,,,,,,,,,,13.000000,0.000000,0.621472,0.404053,-0.592468,0.315430,0.986937,0.122574,-0.035161,-76.621536,64.277397,27.722187
1732081478.940471,1732081478.941422,53.000000,0.000000,4332.307617,4288.717773,4333.974121,4335.256348,4334.871582,4325.641113,4407.307617,4364.358887,4345.000000,4335.769043,4458.461426,4495.128418,4359.102539,4418.717773,0.000000,0.000000,13.000000,,,,0.000000,2.000000,2.000000,0.000000,2.000000,2.000000,2.000000,0.000000,2.000000,4.000000,4.000000,4.000000,4.000000,2.000000,4.000000,16.666666,,,,,,,,,,,,,,,,,,,,,,,,,,,,
1732081478.948279,1732081478.949030,54.000000,0.000000,4327.820313,4290.128418,4334.358887,4338.461426,4330.128418,4328.974121,4406.666504,4366.410156,4343.205078,4335.641113,4457.948730,4487.436035,4354.871582,4410.897461,0.000000,0.000000,13.000000,,,,0.000000,2.000000,2.000000,0.000000,2.000000,2.000000,2.000000,0.000000,2.000000,4.000000,4.000000,4.000000,4.000000,2.000000,4.000000,16.666666,,,,,,,,,,,,,,,,,,,,,,,,,,,,
1732081478.956087,1732081478.956838,55.000000,0.000000,4328.461426,4287.051270,4335.769043,4336.025879,4320.769043,4336.025879,4407.563965,4369.102539,4346.410156,4334.871582,4457.179688,4484.487305,4353.077148,4408.589844,0.000000,0.000000,13.000000,,,,0.000000,2.000000,2.000000,0.000000,2.000000,2.000000,2.000000,0.000000,2.000000,4.000000,4.000000,4.000000,4.000000,2.000000,4.000000,16.666666,,,,,,,,,,,,,,,,,,,,,,,,,,,,
1732081478.963896,1732081478.964746,56.000000,0.000000,4334.358887,4288.717773,4334.102539,4333.589844,4322.692383,4337.820313,4403.589844,4368.589844,4350.512695,4337.692383,4456.538574,4483.846191,4355.384766,4410.128418,0.000000,0.000000,13.000000,,,,0.000000,2.000000,2.000000,0.000000,2.000000,2.000000,2.000000,0.000000,2.000000,4.000000,4.000000,4.000000,4.000000,2.000000,4.000000,16.666666,,,,,,,,,,,,,,,,,14.000000,0.000000,0.621748,0.403687,-0.592102,0.316040,0.973263,0.137712,-0.014162,-76.430115,64.421364,27.863306
1732081478.971704,1732081478.972554,57.000000,0.000000,4336.538574,4296.025879,4335.512695,4337.179688,4327.179688,4331.922852,4401.153809,4367.307617,4347.179688,4339.358887,4461.282227,4486.153809,4361.666504,4414.487305,0.000000,0.000000,13.000000,,,,0.000000,2.000000,2.000000,0.000000,2.000000,2.000000,2.000000,0.000000,2.000000,4.000000,4.000000,4.000000,4.000000,2.000000,4.000000,16.666666,,,,,,,,,,,,,,,,,,,,,,,,,,,,
1732081478.979512,1732081478.980562,58.000000,0.000000,4336.794922,4297.692383,4335.512695,4342.307617,4330.897461,4329.487305,4401.153809,4366.922852,4343.974121,4334.615234,4463.077148,4489.743652,4363.077148,4416.922852,0.000000,0.000000,13.000000,,,,0.000000,2.000000,2.000000,0.000000,2.000000,2.000000,2.000000,0.000000,2.000000,4.000000,4.000000,4.000000,4.000000,2.000000,4.000000,16.666666,,,,,,,,,,,,,,,,,,,,,,,,,,,,
1732081478.987320,1732081478.988370,59.000000,0.000000,4335.384766,4296.282227,4334.230957,4342.820313,4339.358887,4327.563965,4400.384766,4363.077148,4344.743652,4331.410156,4458.333496,4485.384766,4358.846191,4408.589844,0.000000,0.000000,13.000000,,,,0.000000,2.000000,2.000000,0.000000,2.000000,2.000000,2.000000,0.000000,2.000000,4.000000,4.000000,4.000000,4.000000,2.000000,4.000000,16.666666,,,,,,,,,,,,,,,,,,,,,,,,,,,,
1732081478.995129,1732081478.996279,60.000000,0.000000,4332.307617,4296.538574,4333.077148,4341.794922,4325.769043,4327.179688,4399.230957,4359.615234,4344.102539,4331.282227,4459.102539,4485.769043,4357.436035,4405.000000,0.000000,0.000000,13.000000,,,,0.000000,2.000000,2.000000,0.000000,2.000000,2.000000,2.000000,0.000000,2.000000,4.000000,4.000000,4.000000,4.000000,2.000000,4.000000,16.666666,,,,,,,,,,,,,,,,,15.000000,0.000000,0.622027,0.404175,-0.591248,0.316467,0.969845,0.144061,-0.031254,-76.161720,64.474632,27.992611
1732081479.002937,1732081479.004087,61.000000,0.000000,4331.538574,4295.512695,4331.282227,4342.307617,4308.846191,4330.641113,4398.077148,4359.487305,4341.922852,4329.743652,4458.205078,4494.615234,4355.641113,4410.128418,0.000000,0.000000,13.000000,,,,0.000000,2.000000,2.000000,0.000000,2.000000,2.000000,2.000000,0.000000,2.000000,4.000000,4.000000,4.000000,4.000000,2.000000,4.000000,16.666666,,,,,,,,,,,,,,,,,,,,,,,,,,,,
1732081479.010745,1732081479.012095,62.000000,0.000000,4333.077148,4292.948730,4330.512695,4342.436035,4327.692383,4330.000000,4397.563965,4358.717773,4341.153809,4327.436035,4450.769043,4491.410156,4351.025879,4406.922852,0.000000,0.000000,13.000000,,,,0.000000,2.000000,2.000000,0.000000,2.000000,2.000000,2.000000,0.000000,2.000000,4.000000,4.000000,4.000000,4.000000,2.000000,4.000000,16.666666,,,,,,,,,,,,,,,,,,,,,,,,,,,,
1732081479.018553,1732081479.019903,63.000000,0.000000,4333.461426,4295.641113,4330.769043,4340.256348,4336.410156,4327.307617,4395.897461,4359.487305,4342.948730,4328.717773,4447.179688,4480.641113,4352.179688,4403.205078,0.000000,0.000000,13.000000,,,,0.000000,2.000000,2.000000,0.000000,2.000000,2.000000,2.000000,0.000000,2.000000,4.000000,4.000000,4.000000,4.000000,2.000000,4.000000,16.666666,,,,,,,,,,,,,,,,,,,,,,,,,,,,
1732081479.026362,1732081479.027811,64.000000,0.000000,4333.974121,4297.436035,4333.846191,4337.051270,4317.179688,4330.384766,4395.769043,4359.230957,4343.461426,4330.256348,4449.487305,4480.000000,4354.358887,4406.410156,0.000000,0.000000,13.000000,,,,0.000000,2.000000,2.000000,0.000000,2.000000,2.000000,2.000000,0.000000,2.000000,4.000000,4.000000,4.000000,4.000000,2.000000,4.000000,16.666666,,,,,,,,,,,,,,,,,16.000000,0.000000,0.622027,0.404175,-0.591248,0.316467,0.950311,0.155292,-0.026370,-76.049332,64.397789,28.007347
1732081479.034170,1732081479.035619,65.000000,0.000000,4336.025879,4296.153809,4334.358887,4335.897461,4315.641113,4335.000000,4392.948730,4356.666504,4342.563965,4331.922852,4452.436035,4479.871582,4353.974121,4406.410156,1282.000000,0.000000,13.000000,,,,0.000000,2.000000,2.000000,0.000000,2.000000,2.000000,2.000000,0.000000,2.000000,4.000000,4.000000,4.000000,4.000000,2.000000,4.000000,16.666666,,,,,,,,,,,,,,,,,,,,,,,,,,,,
1732081479.041978,1732081479.043627,66.000000,0.000000,4336.410156,4296.666504,4334.102539,4338.846191,4328.077148,4336.025879,4393.205078,4360.000000,4344.743652,4333.974121,4455.641113,4478.974121,4355.897461,4405.769043,1212.000000,0.000000,13.000000,,,,0.000000,2.000000,2.000000,0.000000,2.000000,2.000000,2.000000,0.000000,2.000000,4.000000,4.000000,4.000000,4.000000,2.000000,4.000000,16.666666,,,,,,,,,,,,,,,,,,,,,,,,,,,,
1732081479.049786,1732081479.051436,67.000000,0.000000,4335.769043,4298.717773,4332.179688,4341.538574,4325.128418,4334.102539,4388.846191,4365.000000,4346.025879,4333.846191,4456.794922,4483.333496,4360.769043,4412.179688,1162.000000,0.000000,13.000000,,,,0.000000,2.000000,2.000000,0.000000,2.000000,2.000000,2.000000,0.000000,2.000000,4.000000,4.000000,4.000000,4.000000,2.000000,4.000000,16.666666,,,,,,,,,,,,,,,,,,,,,,,,,,,,
1732081479.057595,1732081479.059144,68.000000,0.000000,4336.153809,4298.077148,4335.384766,4339.230957,4319.871582,4333.717773,4384.871582,4365.256348,4344.487305,4332.051270,4457.179688,4486.538574,4362.436035,4417.179688,1189.000000,0.000000,13.000000,,,,0.000000,2.000000,2.000000,0.000000,2.000000,2.000000,2.000000,0.000000,2.000000,4.000000,4.000000,4.000000,4.000000,2.000000,4.000000,16.666666,,,,,,,,,,,,,,,,,17.000000,0.000000,0.622348,0.405640,-0.589905,0.316467,0.932731,0.179221,-0.022464,-76.166626,64.468872,27.785952
1732081479.065403,1732081479.066952,69.000000,0.000000,4337.436035,4295.897461,4333.974121,4337.948730,4322.307617,4338.077148,4383.846191,4366.538574,4348.589844,4332.563965,4462.179688,4486.282227,4358.077148,4418.077148,1068.000000,0.000000,13.000000,,,,0.000000,2.000000,2.000000,0.000000,2.000000,2.000000,2.000000,0.000000,2.000000,4.000000,4.000000,4.000000,4.000000,2.000000,4.000000,16.666666,,,,,,,,,,,,,,,,,,,,,,,,,,,,
1732081479.073211,1732081479.074560,70.000000,0.000000,4337.948730,4297.948730,4332.820313,4341.538574,4322.307617,4335.384766,4379.615234,4364.230957,4352.307617,4334.230957,4463.846191,4486.922852,4355.512695,4418.461426,197.000000,0.000000,13.000000,,,,0.000000,2.000000,2.000000,0.000000,2.000000,2.000000,2.000000,1.000000,2.000000,4.000000,4.000000,4.000000,4.000000,2.000000,4.000000,25.000000,,,,,,,,,,,,,,,,,,,,,,,,,,,,
1732081479.081019,1732081479.082369,71.000000,0.000000,4340.384766,4303.205078,4334.871582,4343.974121,4318.974121,4325.897461,4371.025879,4356.153809,4344.487305,4331.410156,4461.153809,4489.743652,4361.025879,4422.307617,1187.000000,0.000000,13.000000,,,,0.000000,2.000000,2.000000,0.000000,2.000000,2.000000,2.000000,1.000000,2.000000,4.000000,4.000000,4.000000,4.000000,2.000000,4.000000,25.000000,,,,,,,,,,,,,,,,,,,,,,,,,,,,
1732081479.088828,1732081479.090077,72.000000,0.000000,4347.307617,4303.205078,4337.820313,4345.256348,4316.794922,4326.666504,4371.410156,4354.743652,4336.538574,4324.615234,4460.769043,4492.179688,4363.974121,4428.846191,1336.000000,0.000000,13.000000,,,,0.000000,2.000000,2.000000,0.000000,2.000000,2.000000,2.000000,1.000000,2.000000,4.000000,4.000000,4.000000,4.000000,2.000000,4.000000,25.000000,,,,,,,,,,,,,,,,,18.000000,0.000000,0.624117,0.413452,-0.583984,0.313843,0.987914,0.170919,-0.040532,-76.264969,64.448120,27.653288
1732081479.096636,1732081479.097885,73.000000,0.000000,4352.948730,4298.846191,4337.692383,4345.897461,4314.358887,4330.256348,4375.000000,4363.205078,4341.666504,4324.358887,4459.487305,4489.743652,4358.589844,4426.922852,1461.000000,0.000000,13.000000,,,,0.000000,2.000000,2.000000,0.000000,2.000000,2.000000,2.000000,1.000000,2.000000,4.000000,4.000000,4.000000,4.000000,2.000000,4.000000,25.000000,,,,,,,,,,,,,,,,,,,,,,,,,,,,
1732081479.104444,1732081479.105494,74.000000,0.000000,4352.307617,4296.153809,4338.205078,4336.794922,4305.256348,4321.794922,4371.282227,4366.410156,4345.769043,4328.333496,4457.948730,4486.794922,4355.512695,4424.871582,1359.000000,0.000000,13.000000,,,,0.000000,2.000000,2.000000,0.000000,2.000000,2.000000,2.000000,1.000000,2.000000,4.000000,4.000000,4.000000,4.000000,2.000000,4.000000,25.000000,,,,,,,,,,,,,,,,,,,,,,,,,,,,
1732081479.112252,1732081479.113302,75.000000,0.000000,4355.256348,4297.307617,4339.871582,4332.179688,4296.025879,4317.820313,4368.717773,4362.051270,4342.307617,4327.051270,4460.000000,4488.589844,4362.563965,4432.051270,1492.000000,0.000000,13.000000,,,,0.000000,2.000000,2.000000,0.000000,2.000000,2.000000,2.000000,1.000000,2.000000,4.000000,4.000000,4.000000,4.000000,2.000000,4.000000,25.000000,,,,,,,,,,,,,,,,,,,,,,,,,,,,
1732081479.120061,1732081479.121010,76.000000,0.000000,4361.282227,4299.615234,4340.128418,4344.615234,4306.410156,4319.871582,4367.948730,4358.077148,4341.410156,4327.820313,4462.307617,4486.153809,4365.128418,4433.461426,1725.000000,0.000000,13.000000,,,,0.000000,2.000000,2.000000,0.000000,2.000000,2.000000,2.000000,1.000000,2.000000,4.000000,4.000000,4.000000,4.000000,2.000000,4.000000,25.000000,,,,,,,,,,,,,,,,,19.000000,0.000000,0.623919,0.415527,-0.582886,0.313538,0.991820,0.126969,-0.041997,-76.271286,64.491310,27.905830
1732081479.127869,1732081479.128818,77.000000,0.000000,4359.102539,4299.615234,4341.410156,4348.205078,4318.205078,4317.051270,4364.615234,4354.358887,4340.256348,4329.230957,4461.025879,4479.615234,4357.820313,4426.922852,1663.000000,0.000000,13.000000,,,,0.000000,2.000000,2.000000,0.000000,2.000000,2.000000,2.000000,1.000000,2.000000,4.000000,4.000000,4.000000,4.000000,2.000000,4.000000,25.000000,,,,,,,,,,,,,,,,,,,,,,,,,,,,
1732081479.135677,1732081479.136826,78.000000,0.000000,4355.256348,4297.436035,4342.307617,4336.538574,4305.641113,4317.436035,4359.487305,4353.717773,4335.256348,4327.307617,4460.128418,4476.922852,4352.051270,4426.538574,1359.000000,0.000000,13.000000,,,,0.000000,2.000000,2.000000,0.000000,2.000000,2.000000,2.000000,1.000000,2.000000,4.000000,4.000000,4.000000,4.000000,2.000000,4.000000,25.000000,1.000000,16.666666,2.000000,2.000000,0.000000,2.000000,2.000000,2.000000,0.000000,2.000000,3.000000,3.000000,4.000000,4.000000,2.000000,4.000000,,,,,,,,,,,,
1732081479.143485,1732081479.144635,79.000000,0.000000,4355.769043,4297.307617,4342.563965,4333.461426,4292.820313,4323.717773,4361.282227,4358.589844,4333.077148,4326.538574,4455.384766,4476.153809,4350.384766,4424.358887,1492.000000,0.000000,13.000000,,,,0.000000,2.000000,2.000000,0.000000,2.000000,2.000000,2.000000,1.000000,2.000000,4.000000,4.000000,4.000000,4.000000,2.000000,4.000000,25.000000,,,,,,,,,,,,,,,,,,,,,,,,,,,,
1732081479.151294,1732081479.152343,80.000000,0.000000,4354.871582,4303.333496,4338.717773,4341.922852,4304.230957,4329.102539,4362.436035,4360.128418,4335.897461,4328.717773,4445.769043,4474.487305,4348.333496,4416.922852,1725.000000,0.000000,13.000000,,,,0.000000,2.000000,2.000000,0.000000,2.000000,2.000000,2.000000,1.000000,2.000000,4.000000,4.000000,4.000000,4.000000,2.000000,4.000000,25.000000,,,,,,,,,,,,,,,,,20.000000,0.000000,0.623919,0.415527,-0.582886,0.313538,0.988402,0.095226,-0.034672,-76.186409,64.526299,28.110388
1732081479.159102,1732081479.160151,81.000000,0.000000,4347.692383,4303.846191,4337.436035,4343.717773,4316.794922,4329.487305,4361.794922,4353.077148,4337.948730,4332.436035,4442.051270,4472.307617,4344.358887,4410.384766,1663.000000,0.000000,13.000000,,,,0.000000,2.000000,2.000000,0.000000,2.000000,2.000000,2.000000,1.000000,2.000000,4.000000,4.000000,4.000000,4.000000,2.000000,4.000000,25.000000,,,,,,,,,,,,,,,,,,,,,,,,,,,,
1732081479.166910,1732081479.167759,82.000000,0.000000,4340.897461,4296.410156,4335.769043,4337.563965,4314.871582,4325.897461,4357.563965,4350.641113,4338.717773,4333.333496,4441.410156,4468.077148,4342.051270,4404.102539,1359.000000,0.000000,13.000000,,,,0.000000,2.000000,2.000000,0.000000,2.000000,2.000000,2.000000,1.000000,2.000000,4.000000,4.000000,4.000000,4.000000,2.000000,4.000000,25.000000,,,,,,,,,,,,,,,,,,,,,,,,,,,,
1732081479.174718,1732081479.175568,83.000000,0.000000,4339.102539,4291.666504,4336.794922,4331.153809,4313.717773,4327.307617,4357.563965,4358.333496,4339.102539,4328.717773,4437.948730,4468.077148,4339.743652,4398.205078,1492.000000,0.000000,13.000000,,,,0.000000,2.000000,2.000000,0.000000,2.000000,2.000000,2.000000,1.000000,2.000000,4.000000,4.000000,4.000000,4.000000,2.000000,4.000000,25.000000,,,,,,,,,,,,,,,,,,,,,,,,,,,,
1732081479.182527,1732081479.183276,84.000000,0.000000,4343.077148,4292.820313,4335.769043,4332.948730,4317.820313,4332.563965,4354.743652,4361.794922,4342.436035,4328.077148,4435.384766,4467.820313,4337.692383,4396.153809,1725.000000,0.000000,13.000000,,,,0.000000,2.000000,2.000000,0.000000,2.000000,2.000000,2.000000,1.000000,2.000000,4.000000,4.000000,4.000000,4.000000,2.000000,4.000000,25.000000,,,,,,,,,,,,,,,,,21.000000,0.000000,0.623667,0.411926,-0.584656,0.315491,0.951288,0.089366,-0.022464,-75.715996,64.664635,27.744415
1732081479.190335,1732081479.191084,85.000000,0.000000,4344.102539,4292.692383,4334.871582,4339.102539,4319.487305,4327.563965,4349.230957,4358.461426,4346.025879,4333.077148,4434.743652,4464.230957,4337.820313,4394.102539,1663.000000,0.000000,13.000000,,,,0.000000,2.000000,2.000000,0.000000,2.000000,2.000000,2.000000,1.000000,2.000000,4.000000,4.000000,4.000000,4.000000,2.000000,4.000000,25.000000,,,,,,,,,,,,,,,,,,,,,,,,,,,,
1732081479.198143,1732081479.198693,86.000000,0.000000,4340.128418,4291.153809,4332.179688,4337.820313,4321.153809,4321.153809,4347.948730,4354.230957,4345.128418,4336.410156,4437.179688,4470.000000,4342.307617,4392.692383,1359.000000,0.000000,13.000000,,,,0.000000,2.000000,2.000000,0.000000,2.000000,2.000000,2.000000,1.000000,2.000000,4.000000,4.000000,4.000000,4.000000,2.000000,4.000000,25.000000,,,,,,,,,,,,,,,,,,,,,,,,,,,,
1732081479.205951,1732081479.206501,87.000000,0.000000,4340.641113,4292.179688,4332.179688,4337.692383,4324.230957,4325.769043,4348.461426,4353.077148,4342.051270,4335.256348,4441.410156,4477.307617,4346.922852,4397.436035,1492.000000,0.000000,13.000000,,,,0.000000,2.000000,2.000000,0.000000,2.000000,2.000000,2.000000,1.000000,2.000000,4.000000,4.000000,4.000000,4.000000,2.000000,4.000000,25.000000,,,,,,,,,,,,,,,,,,,,,,,,,,,,
1732081479.213760,1732081479.214209,88.000000,0.000000,4342.307617,4294.615234,4333.077148,4343.077148,4325.256348,4329.230957,4347.820313,4354.615234,4339.102539,4331.282227,4441.153809,4475.128418,4344.230957,4399.487305,1725.000000,0.000000,13.000000,,,,0.000000,2.000000,2.000000,0.000000,2.000000,2.000000,2.000000,1.000000,2.000000,4.000000,4.000000,4.000000,4.000000,2.000000,4.000000,25.000000,,,,,,,,,,,,,,,,,22.000000,0.000000,0.624516,0.405701,-0.587402,0.316772,0.954218,0.104993,-0.021487,-75.433289,64.508354,27.641310
1732081479.221568,1732081479.222017,89.000000,0.000000,4337.179688,4294.230957,4330.641113,4340.769043,4323.974121,4327.179688,4350.384766,4356.153809,4337.307617,4325.897461,4436.538574,4476.025879,4340.897461,4395.256348,1663.000000,0.000000,13.000000,,,,0.000000,2.000000,2.000000,0.000000,2.000000,2.000000,2.000000,1.000000,2.000000,4.000000,4.000000,4.000000,4.000000,2.000000,4.000000,25.000000,,,,,,,,,,,,,,,,,,,,,,,,,,,,
1732081479.229376,1732081479.230025,90.000000,0.000000,4333.846191,4291.153809,4330.897461,4333.974121,4326.794922,4324.615234,4352.307617,4356.025879,4340.128418,4326.794922,4437.436035,4486.025879,4345.000000,4395.769043,1359.000000,0.000000,13.000000,,,,0.000000,2.000000,2.000000,0.000000,2.000000,2.000000,2.000000,1.000000,2.000000,4.000000,4.000000,4.000000,4.000000,2.000000,4.000000,25.000000,,,,,,,,,,,,,,,,,,,,,,,,,,,,
1732081479.237184,1732081479.237834,91.000000,0.000000,4336.410156,4292.692383,4331.666504,4335.128418,4328.974121,4324.102539,4349.230957,4354.230957,4346.922852,4332.692383,4444.230957,4485.641113,4349.230957,4401.538574,1492.000000,0.000000,13.000000,,,,0.000000,2.000000,2.000000,0.000000,2.000000,2.000000,2.000000,1.000000,2.000000,4.000000,4.000000,4.000000,4.000000,2.000000,4.000000,25.000000,,,,,,,,,,,,,,,,,,,,,,,,,,,,
1732081479.244993,1732081479.245542,92.000000,0.000000,4333.461426,4296.666504,4333.461426,4336.282227,4323.589844,4327.948730,4348.846191,4355.128418,4349.230957,4331.410156,4444.230957,4472.948730,4346.153809,4396.153809,1725.000000,0.000000,13.000000,,,,0.000000,2.000000,2.000000,0.000000,2.000000,2.000000,2.000000,1.000000,2.000000,4.000000,4.000000,4.000000,4.000000,2.000000,4.000000,25.000000,,,,,,,,,,,,,,,,,23.000000,0.000000,0.625003,0.403564,-0.588257,0.316956,0.954218,0.104993,-0.021487,-75.464294,64.210098,27.761127
1732081479.252801,1732081479.253350,93.000000,0.000000,4329.102539,4294.230957,4329.102539,4329.102539,4329.230957,4326.794922,4346.922852,4357.692383,4347.179688,4328.205078,4441.666504,4467.436035,4343.077148,4385.000000,1663.000000,0.000000,13.000000,,,,0.000000,2.000000,2.000000,0.000000,2.000000,2.000000,2.000000,1.000000,2.000000,4.000000,4.000000,4.000000,4.000000,2.000000,4.000000,25.000000,,,,,,,,,,,,,,,,,,,,,,,,,,,,
1732081479.260609,1732081479.261358,94.000000,0.000000,4331.153809,4288.461426,4328.077148,4323.333496,4338.333496,4318.205078,4345.256348,4356.666504,4345.384766,4330.641113,4444.871582,4477.820313,4345.384766,4388.974121,1359.000000,0.000000,13.000000,,,,0.000000,2.000000,2.000000,0.000000,2.000000,2.000000,2.000000,1.000000,2.000000,4.000000,4.000000,4.000000,4.000000,2.000000,4.000000,25.000000,,,,,,,,,,,,,,,,,,,,,,,,,,,,
1732081479.268417,1732081479.269166,95.000000,0.000000,4331.025879,4289.871582,4328.205078,4326.153809,4330.000000,4321.282227,4347.692383,4358.846191,4347.051270,4335.000000,4447.948730,4485.128418,4347.563965,4397.820313,1492.000000,0.000000,13.000000,,,,0.000000,2.000000,2.000000,0.000000,2.000000,2.000000,2.000000,1.000000,2.000000,4.000000,4.000000,4.000000,4.000000,2.000000,4.000000,25.000000,,,,,,,,,,,,,,,,,,,,,,,,,,,,
1732081479.276226,1732081479.276874,96.000000,0.000000,4328.333496,4293.846191,4328.974121,4332.563965,4323.205078,4331.025879,4351.282227,4365.897461,4349.487305,4333.846191,4446.025879,4475.897461,4350.769043,4396.025879,1725.000000,0.000000,13.000000,,,,0.000000,2.000000,2.000000,0.000000,2.000000,2.000000,2.000000,1.000000,2.000000,4.000000,4.000000,4.000000,4.000000,2.000000,4.000000,25.000000,,,,,,,,,,,,,,,,,24.000000,0.000000,0.625643,0.400574,-0.588928,0.318237,0.970333,0.131364,-0.020022,-75.644417,64.203514,27.623180
1732081479.284034,1732081479.284682,97.000000,0.000000,4333.974121,4295.128418,4327.436035,4336.410156,4332.563965,4328.846191,4348.846191,4365.384766,4348.205078,4332.948730,4447.179688,4467.948730,4352.307617,4394.487305,1663.000000,0.000000,13.000000,,,,0.000000,2.000000,2.000000,0.000000,2.000000,2.000000,2.000000,1.000000,2.000000,4.000000,4.000000,4.000000,4.000000,2.000000,4.000000,25.000000,,,,,,,,,,,,,,,,,,,,,,,,,,,,
1732081479.291842,1732081479.292290,98.000000,0.000000,4340.897461,4295.384766,4330.897461,4334.615234,4334.487305,4323.205078,4346.025879,4361.410156,4342.051270,4331.282227,4444.487305,4469.871582,4346.153809,4396.153809,1359.000000,0.000000,13.000000,,,,0.000000,2.000000,2.000000,0.000000,2.000000,2.000000,2.000000,1.000000,2.000000,4.000000,4.000000,4.000000,4.000000,2.000000,4.000000,25.000000,,,,,,,,,,,,,,,,,,,,,,,,,,,,
1732081479.299650,1732081479.300098,99.000000,0.000000,4340.769043,4294.230957,4332.051270,4333.717773,4327.051270,4319.487305,4342.692383,4363.974121,4337.051270,4325.256348,4438.205078,4470.256348,4341.922852,4395.641113,1492.000000,0.000000,13.000000,,,,0.000000,2.000000,2.000000,0.000000,2.000000,2.000000,2.000000,1.000000,2.000000,4.000000,4.000000,4.000000,4.000000,2.000000,4.000000,25.000000,,,,,,,,,,,,,,,,,,,,,,,,,,,,
1732081479.307459,1732081479.308006,100.000000,0.000000,4342.179688,4294.743652,4328.333496,4336.282227,4327.051270,4316.282227,4340.641113,4363.205078,4337.948730,4324.871582,4438.333496,4469.358887,4348.846191,4396.153809,1725.000000,0.000000,13.000000,,,,0.000000,2.000000,2.000000,0.000000,2.000000,2.000000,2.000000,1.000000,2.000000,4.000000,4.000000,4.000000,4.000000,2.000000,4.000000,25.000000,,,,,,,,,,,,,,,,,25.000000,0.000000,0.625739,0.398315,-0.588867,0.320984,1.001587,0.102552,-0.025882,-75.796974,64.161514,27.624775
1732081479.315267,1732081479.315814,101.000000,0.000000,4348.589844,4300.256348,4327.948730,4340.128418,4328.846191,4317.563965,4334.487305,4355.384766,4339.358887,4330.512695,4441.922852,4467.820313,4355.000000,4397.563965,1663.000000,0.000000,13.000000,,,,0.000000,2.000000,2.000000,0.000000,2.000000,2.000000,2.000000,1.000000,2.000000,4.000000,4.000000,4.000000,4.000000,2.000000,4.000000,25.000000,,,,,,,,,,,,,,,,,,,,,,,,,,,,
1732081479.323075,1732081479.323822,102.000000,0.000000,4350.000000,4303.205078,4331.666504,4337.051270,4322.563965,4321.282227,4329.871582,4357.051270,4340.897461,4333.077148,4443.717773,4467.179688,4350.384766,4396.666504,1359.000000,0.000000,13.000000,,,,0.000000,2.000000,2.000000,0.000000,2.000000,2.000000,2.000000,1.000000,2.000000,4.000000,4.000000,4.000000,4.000000,2.000000,4.000000,25.000000,,,,,,,,,,,,,,,,,,,,,,,,,,,,
1732081479.330883,1732081479.331631,103.000000,0.000000,4345.641113,4300.384766,4330.769043,4331.666504,4320.384766,4318.717773,4329.615234,4363.333496,4342.307617,4331.282227,4443.717773,4469.615234,4347.436035,4395.000000,1492.000000,0.000000,13.000000,,,,0.000000,2.000000,2.000000,0.000000,2.000000,2.000000,2.000000,1.000000,2.000000,4.000000,4.000000,4.000000,4.000000,2.000000,4.000000,25.000000,,,,,,,,,,,,,,,,,,,,,,,,,,,,
1732081479.338692,1732081479.339539,104.000000,0.000000,4347.051270,4298.333496,4330.384766,4333.461426,4333.077148,4315.641113,4329.230957,4361.282227,4341.153809,4329.871582,4440.512695,4464.358887,4351.410156,4392.179688,1725.000000,0.000000,13.000000,,,,0.000000,2.000000,2.000000,0.000000,2.000000,2.000000,2.000000,1.000000,2.000000,4.000000,4.000000,4.000000,4.000000,2.000000,4.000000,25.000000,,,,,,,,,,,,,,,,,26.000000,0.000000,0.625174,0.397766,-0.589172,0.322205,0.984495,0.079600,-0.004883,-76.125549,64.034157,27.774401
1732081479.346500,1732081479.347347,105.000000,0.000000,4353.846191,4296.282227,4332.692383,4337.820313,4338.974121,4318.974121,4326.410156,4361.025879,4343.205078,4333.717773,4441.153809,4458.589844,4352.820313,4393.205078,1663.000000,0.000000,13.000000,,,,0.000000,2.000000,2.000000,0.000000,2.000000,2.000000,2.000000,1.000000,2.000000,4.000000,4.000000,4.000000,4.000000,2.000000,4.000000,25.000000,,,,,,,,,,,,,,,,,,,,,,,,,,,,
1732081479.354308,1732081479.355355,106.000000,0.000000,4354.358887,4293.846191,4329.615234,4336.538574,4325.128418,4323.589844,4324.102539,4365.769043,4346.538574,4337.307617,4445.641113,4463.974121,4351.794922,4397.179688,1359.000000,0.000000,13.000000,,,,0.000000,2.000000,2.000000,0.000000,2.000000,2.000000,2.000000,1.000000,2.000000,4.000000,4.000000,4.000000,4.000000,2.000000,4.000000,25.000000,,,,,,,,,,,,,,,,,,,,,,,,,,,,
1732081479.362116,1732081479.363163,107.000000,0.000000,4348.717773,4296.410156,4331.922852,4332.051270,4321.538574,4326.025879,4322.179688,4365.000000,4344.358887,4333.077148,4442.307617,4468.205078,4352.179688,4394.743652,1492.000000,0.000000,13.000000,,,,0.000000,2.000000,2.000000,0.000000,2.000000,2.000000,2.000000,1.000000,2.000000,4.000000,4.000000,4.000000,4.000000,2.000000,4.000000,25.000000,,,,,,,,,,,,,,,,,,,,,,,,,,,,
1732081479.369925,1732081479.371071,108.000000,0.000000,4346.794922,4298.974121,4336.025879,4332.307617,4335.512695,4327.307617,4319.358887,4364.358887,4344.615234,4331.153809,4434.615234,4461.153809,4352.051270,4392.307617,1725.000000,0.000000,13.000000,,,,0.000000,2.000000,2.000000,0.000000,2.000000,2.000000,2.000000,1.000000,2.000000,4.000000,4.000000,4.000000,4.000000,2.000000,4.000000,25.000000,,,,,,,,,,,,,,,,,27.000000,0.000000,0.624912,0.397461,-0.589355,0.322754,0.984495,0.079600,-0.004883,-76.078362,63.971001,27.972265
1732081479.377733,1732081479.378879,109.000000,0.000000,4348.077148,4296.282227,4333.589844,4333.461426,4339.230957,4329.358887,4319.102539,4365.769043,4349.102539,4332.820313,4435.000000,4458.333496,4351.922852,4398.205078,1663.000000,0.000000,13.000000,,,,0.000000,2.000000,2.000000,0.000000,2.000000,2.000000,2.000000,1.000000,2.000000,4.000000,4.000000,4.000000,4.000000,2.000000,4.000000,25.000000,,,,,,,,,,,,,,,,,,,,,,,,,,,,
1732081479.385541,1732081479.386887,110.000000,0.000000,4347.179688,4295.000000,4332.179688,4333.077148,4332.563965,4328.333496,4315.897461,4362.307617,4346.282227,4330.384766,4436.025879,4463.717773,4354.358887,4399.615234,1359.000000,0.000000,13.000000,,,,0.000000,2.000000,2.000000,0.000000,2.000000,2.000000,2.000000,1.000000,2.000000,4.000000,4.000000,4.000000,4.000000,2.000000,4.000000,25.000000,,,,,,,,,,,,,,,,,,,,,,,,,,,,
1732081479.393349,1732081479.394696,111.000000,0.000000,4344.102539,4296.153809,4337.051270,4332.948730,4330.512695,4327.820313,4314.487305,4359.230957,4341.666504,4327.563965,4431.794922,4466.922852,4354.487305,4391.282227,1492.000000,0.000000,13.000000,,,,0.000000,2.000000,2.000000,0.000000,2.000000,2.000000,2.000000,1.000000,2.000000,4.000000,4.000000,4.000000,4.000000,2.000000,4.000000,25.000000,,,,,,,,,,,,,,,,,,,,,,,,,,,,
1732081479.401158,1732081479.402604,112.000000,0.000000,4341.794922,4294.743652,4333.846191,4330.000000,4327.692383,4331.922852,4315.384766,4364.743652,4346.666504,4331.153809,4433.333496,4465.769043,4352.692383,4390.384766,1725.000000,0.000000,13.000000,,,,0.000000,2.000000,2.000000,0.000000,2.000000,2.000000,2.000000,1.000000,2.000000,4.000000,4.000000,4.000000,4.000000,2.000000,4.000000,25.000000,,,,,,,,,,,,,,,,,28.000000,0.000000,0.624924,0.397827,-0.588928,0.323059,0.942010,0.130875,-0.029300,-76.316803,63.501511,27.755869
1732081479.408966,1732081479.410412,113.000000,0.000000,4341.666504,4291.153809,4332.179688,4323.589844,4324.102539,4326.794922,4317.051270,4365.512695,4348.974121,4332.436035,4441.410156,4463.461426,4352.051270,4399.230957,1663.000000,0.000000,13.000000,,,,0.000000,2.000000,2.000000,0.000000,2.000000,2.000000,2.000000,1.000000,2.000000,4.000000,4.000000,4.000000,4.000000,2.000000,4.000000,25.000000,,,,,,,,,,,,,,,,,,,,,,,,,,,,
1732081479.416774,1732081479.418420,114.000000,0.000000,4343.846191,4291.922852,4336.538574,4322.563965,4323.077148,4317.692383,4312.051270,4362.436035,4344.615234,4327.692383,4441.538574,4458.846191,4352.692383,4400.897461,1359.000000,0.000000,13.000000,,,,0.000000,2.000000,2.000000,0.000000,2.000000,2.000000,2.000000,1.000000,2.000000,4.000000,4.000000,4.000000,4.000000,2.000000,4.000000,25.000000,,,,,,,,,,,,,,,,,,,,,,,,,,,,
1732081479.424582,1732081479.426228,115.000000,0.000000,4345.384766,4294.487305,4336.282227,4330.000000,4319.871582,4318.077148,4307.051270,4363.589844,4345.512695,4324.615234,4434.743652,4459.487305,4354.102539,4396.922852,1492.000000,0.000000,13.000000,,,,0.000000,2.000000,2.000000,0.000000,2.000000,2.000000,2.000000,1.000000,2.000000,4.000000,4.000000,4.000000,4.000000,2.000000,4.000000,25.000000,,,,,,,,,,,,,,,,,,,,,,,,,,,,
1732081479.432391,1732081479.434136,116.000000,0.000000,4348.717773,4296.922852,4330.769043,4333.333496,4316.282227,4319.102539,4305.384766,4364.615234,4349.871582,4323.077148,4438.205078,4470.897461,4354.230957,4400.641113,1725.000000,0.000000,13.000000,,,,0.000000,2.000000,2.000000,0.000000,2.000000,2.000000,2.000000,1.000000,2.000000,4.000000,4.000000,4.000000,4.000000,2.000000,4.000000,25.000000,,,,,,,,,,,,,,,,,29.000000,0.000000,0.625478,0.399048,-0.587646,0.322815,0.962520,0.120620,-0.031254,-76.476616,63.287891,27.547253
1732081479.440199,1732081479.441944,117.000000,0.000000,4352.307617,4300.384766,4330.641113,4332.436035,4314.358887,4319.230957,4307.563965,4365.897461,4349.102539,4319.102539,4442.051270,4478.333496,4351.025879,4404.230957,1663.000000,0.000000,13.000000,,,,0.000000,2.000000,2.000000,0.000000,2.000000,2.000000,2.000000,1.000000,2.000000,4.000000,4.000000,4.000000,4.000000,2.000000,4.000000,25.000000,,,,,,,,,,,,,,,,,,,,,,,,,,,,
1732081479.448007,1732081479.449952,118.000000,0.000000,4354.871582,4300.000000,4330.000000,4333.077148,4312.436035,4324.743652,4306.025879,4366.410156,4346.922852,4318.077148,4436.282227,4471.153809,4349.487305,4402.563965,1359.000000,0.000000,13.000000,,,,0.000000,2.000000,2.000000,0.000000,2.000000,2.000000,2.000000,1.000000,2.000000,4.000000,4.000000,4.000000,4.000000,2.000000,4.000000,25.000000,,,,,,,,,,,,,,,,,,,,,,,,,,,,
1732081479.455815,1732081479.457761,119.000000,0.000000,4363.077148,4298.077148,4327.051270,4332.820313,4311.666504,4324.102539,4300.128418,4361.282227,4346.410156,4322.563965,4436.025879,4466.922852,4354.743652,4406.153809,1492.000000,0.000000,13.000000,,,,0.000000,2.000000,2.000000,0.000000,2.000000,2.000000,2.000000,1.000000,2.000000,4.000000,4.000000,4.000000,4.000000,2.000000,4.000000,25.000000,,,,,,,,,,,,,,,,,,,,,,,,,,,,
1732081479.463624,1732081479.465469,120.000000,0.000000,4371.025879,4303.077148,4323.461426,4335.769043,4311.282227,4317.179688,4295.128418,4356.538574,4345.128418,4322.948730,4443.589844,4467.820313,4363.077148,4415.256348,1725.000000,0.000000,13.000000,,,,0.000000,2.000000,2.000000,0.000000,2.000000,2.000000,2.000000,1.000000,2.000000,4.000000,4.000000,4.000000,4.000000,2.000000,4.000000,25.000000,,,,,,,,,,,,,,,,,30.000000,0.000000,0.625785,0.399536,-0.586853,0.323059,0.984495,0.063484,-0.009278,-76.576057,63.264858,27.474941
1732081479.471432,1732081479.473277,121.000000,0.000000,4368.205078,4306.025879,4320.769043,4337.307617,4307.051270,4315.769043,4292.051270,4357.436035,4341.922852,4320.256348,4447.307617,4465.384766,4366.153809,4419.230957,1663.000000,0.000000,13.000000,,,,0.000000,2.000000,2.000000,0.000000,2.000000,2.000000,2.000000,1.000000,2.000000,4.000000,4.000000,4.000000,4.000000,2.000000,4.000000,25.000000,,,,,,,,,,,,,,,,,,,,,,,,,,,,
1732081479.479240,1732081479.480886,122.000000,0.000000,4368.461426,4299.871582,4319.871582,4331.666504,4303.974121,4316.538574,4289.743652,4361.153809,4341.794922,4323.077148,4447.563965,4464.743652,4364.230957,4421.025879,1359.000000,0.000000,13.000000,,,,0.000000,2.000000,2.000000,0.000000,2.000000,2.000000,2.000000,1.000000,2.000000,4.000000,4.000000,4.000000,4.000000,2.000000,4.000000,25.000000,,,,,,,,,,,,,,,,,,,,,,,,,,,,
1732081479.487048,1732081479.488694,123.000000,0.000000,4374.871582,4295.384766,4320.128418,4329.358887,4305.384766,4316.153809,4289.102539,4361.794922,4343.333496,4324.230957,4448.974121,4467.692383,4365.384766,4424.102539,1492.000000,0.000000,13.000000,,,,0.000000,2.000000,2.000000,0.000000,2.000000,2.000000,2.000000,1.000000,2.000000,4.000000,4.000000,4.000000,4.000000,2.000000,4.000000,25.000000,,,,,,,,,,,,,,,,,,,,,,,,,,,,
1732081479.494856,1732081479.496402,124.000000,0.000000,4377.563965,4299.230957,4321.153809,4336.666504,4307.563965,4313.717773,4288.333496,4356.025879,4340.000000,4322.179688,4450.256348,4473.333496,4369.102539,4428.974121,1725.000000,0.000000,13.000000,,,,0.000000,2.000000,2.000000,0.000000,2.000000,2.000000,2.000000,1.000000,2.000000,4.000000,4.000000,4.000000,4.000000,2.000000,4.000000,25.000000,,,,,,,,,,,,,,,,,31.000000,0.000000,0.627102,0.397522,-0.586243,0.324097,0.989379,0.041021,0.018557,-76.561607,63.246201,27.891369
1732081479.502665,1732081479.504210,125.000000,0.000000,4384.487305,4302.563965,4323.589844,4341.025879,4308.333496,4308.717773,4287.307617,4348.333496,4333.974121,4321.153809,4450.128418,4478.846191,4369.871582,4436.538574,1663.000000,0.000000,13.000000,,,,0.000000,2.000000,2.000000,0.000000,2.000000,2.000000,2.000000,1.000000,2.000000,4.000000,4.000000,4.000000,4.000000,2.000000,4.000000,25.000000,,,,,,,,,,,,,,,,,,,,,,,,,,,,
1732081479.510473,1732081479.511819,126.000000,0.000000,4393.717773,4301.410156,4327.179688,4336.922852,4303.461426,4308.717773,4289.743652,4348.205078,4334.615234,4322.179688,4448.974121,4478.333496,4368.077148,4440.256348,1359.000000,0.000000,13.000000,,,,0.000000,2.000000,2.000000,0.000000,2.000000,2.000000,2.000000,1.000000,2.000000,4.000000,4.000000,4.000000,4.000000,2.000000,4.000000,25.000000,,,,,,,,,,,,,,,,,,,,,,,,,,,,
1732081479.518281,1732081479.519627,127.000000,0.000000,4393.461426,4297.692383,4327.692383,4332.820313,4299.358887,4312.307617,4289.487305,4351.794922,4337.692383,4325.897461,4452.051270,4476.538574,4369.871582,4439.871582,13.000000,0.000000,13.000000,,,,0.000000,2.000000,2.000000,0.000000,2.000000,2.000000,2.000000,1.000000,2.000000,4.000000,4.000000,4.000000,4.000000,2.000000,4.000000,25.000000,,,,,,,,,,,,,,,,,,,,,,,,,,,,
1732081479.526090,1732081479.527335,0.000000,0.000000,4396.922852,4296.666504,4326.025879,4331.538574,4310.769043,4304.871582,4288.333496,4351.410156,4335.512695,4325.000000,4457.179688,4478.333496,4375.897461,4445.512695,5.000000,0.000000,13.000000,,,,0.000000,2.000000,2.000000,0.000000,2.000000,2.000000,2.000000,1.000000,2.000000,4.000000,4.000000,4.000000,4.000000,2.000000,4.000000,25.000000,,,,,,,,,,,,,,,,,0.000000,0.000000,0.629354,0.391296,-0.588318,0.323547,0.983518,0.085948,0.014650,-76.564903,63.341091,27.897009
1732081479.533898,1732081479.535143,1.000000,0.000000,4407.051270,4298.846191,4325.384766,4335.512695,4320.384766,4294.871582,4287.436035,4350.256348,4336.922852,4323.077148,4458.205078,4479.615234,4380.256348,4456.282227,1277.000000,0.000000,13.000000,,,,0.000000,2.000000,2.000000,0.000000,2.000000,2.000000,2.000000,1.000000,2.000000,4.000000,4.000000,4.000000,4.000000,2.000000,4.000000,25.000000,,,,,,,,,,,,,,,,,,,,,,,,,,,,
1732081479.541706,1732081479.543151,2.000000,0.000000,4408.461426,4297.692383,4327.820313,4335.769043,4305.897461,4295.769043,4285.000000,4351.410156,4339.487305,4325.256348,4458.333496,4480.769043,4382.948730,4460.897461,1205.000000,0.000000,13.000000,,,,0.000000,2.000000,2.000000,0.000000,2.000000,2.000000,2.000000,1.000000,2.000000,4.000000,4.000000,4.000000,4.000000,2.000000,4.000000,25.000000,,,,,,,,,,,,,,,,,,,,,,,,,,,,
1732081479.549514,1732081479.550960,3.000000,0.000000,4409.230957,4297.436035,4327.179688,4331.282227,4291.282227,4300.256348,4279.743652,4349.871582,4332.179688,4324.358887,4459.871582,4480.384766,4386.666504,4464.743652,1162.000000,0.000000,13.000000,,,,0.000000,2.000000,2.000000,0.000000,2.000000,2.000000,2.000000,1.000000,2.000000,4.000000,4.000000,4.000000,4.000000,2.000000,4.000000,25.000000,,,,,,,,,,,,,,,,,,,,,,,,,,,,
1732081479.557323,1732081479.558668,4.000000,0.000000,4412.692383,4299.230957,4327.820313,4330.128418,4295.128418,4298.461426,4281.922852,4346.666504,4325.641113,4320.256348,4462.179688,4478.717773,4390.128418,4474.615234,1190.000000,0.000000,13.000000,,,,0.000000,2.000000,2.000000,0.000000,2.000000,2.000000,2.000000,1.000000,2.000000,4.000000,4.000000,4.000000,4.000000,2.000000,4.000000,25.000000,,,,,,,,,,,,,,,,,1.000000,0.000000,0.630895,0.388855,-0.588989,0.322266,0.968380,0.127945,0.006348,-76.485901,63.086285,27.899910
1732081479.565131,1732081479.566476,5.000000,0.000000,4411.794922,4296.410156,4328.077148,4330.256348,4298.974121,4294.871582,4282.948730,4348.717773,4329.871582,4321.666504,4468.717773,4482.179688,4391.153809,4479.230957,1067.000000,0.000000,13.000000,,,,0.000000,2.000000,2.000000,0.000000,2.000000,2.000000,2.000000,1.000000,2.000000,4.000000,4.000000,4.000000,4.000000,2.000000,4.000000,25.000000,,,,,,,,,,,,,,,,,,,,,,,,,,,,
1732081479.572939,1732081479.574085,6.000000,0.000000,4409.487305,4293.205078,4327.051270,4326.666504,4293.846191,4296.538574,4280.897461,4352.179688,4331.538574,4323.461426,4471.666504,4487.179688,4387.820313,4475.256348,202.000000,0.000000,13.000000,,,,0.000000,2.000000,2.000000,0.000000,2.000000,2.000000,2.000000,1.000000,2.000000,4.000000,4.000000,4.000000,4.000000,2.000000,4.000000,25.000000,,,,,,,,,,,,,,,,,,,,,,,,,,,,
1732081479.580747,1732081479.581893,7.000000,0.000000,4409.743652,4298.333496,4325.128418,4326.153809,4289.487305,4296.025879,4277.179688,4351.794922,4328.333496,4321.922852,4468.205078,4485.256348,4385.512695,4480.000000,1187.000000,0.000000,13.000000,,,,0.000000,2.000000,2.000000,0.000000,2.000000,2.000000,2.000000,1.000000,2.000000,4.000000,4.000000,4.000000,4.000000,2.000000,4.000000,25.000000,,,,,,,,,,,,,,,,,,,,,,,,,,,,
1732081479.588555,1732081479.589801,8.000000,0.000000,4412.051270,4303.589844,4325.897461,4329.615234,4290.128418,4291.025879,4274.102539,4346.538574,4329.871582,4319.871582,4469.102539,4485.512695,4390.384766,4490.641113,1334.000000,0.000000,13.000000,,,,0.000000,2.000000,2.000000,0.000000,2.000000,2.000000,2.000000,1.000000,2.000000,4.000000,4.000000,4.000000,4.000000,2.000000,4.000000,25.000000,,,,,,,,,,,,,,,,,2.000000,0.000000,0.631699,0.387817,-0.589111,0.321716,0.958613,0.135270,0.006348,-76.576912,63.196556,28.152262
1732081479.596364,1732081479.597609,9.000000,0.000000,4412.563965,4300.641113,4325.897461,4328.077148,4294.871582,4289.615234,4271.666504,4341.922852,4331.153809,4319.358887,4470.256348,4488.717773,4394.230957,4484.871582,1461.000000,0.000000,13.000000,,,,0.000000,2.000000,2.000000,0.000000,2.000000,2.000000,2.000000,1.000000,2.000000,4.000000,4.000000,4.000000,4.000000,2.000000,4.000000,25.000000,,,,,,,,,,,,,,,,,,,,,,,,,,,,
1732081479.604172,1732081479.605217,10.000000,0.000000,4411.922852,4298.461426,4327.051270,4327.692383,4288.846191,4292.436035,4268.974121,4344.743652,4329.358887,4317.948730,4464.102539,4486.025879,4387.179688,4472.948730,1352.000000,0.000000,13.000000,,,,0.000000,2.000000,2.000000,0.000000,2.000000,2.000000,2.000000,1.000000,2.000000,4.000000,4.000000,4.000000,4.000000,2.000000,4.000000,25.000000,,,,,,,,,,,,,,,,,,,,,,,,,,,,
1732081479.611980,1732081479.613025,11.000000,0.000000,4411.025879,4297.948730,4330.384766,4331.794922,4282.307617,4294.102539,4266.410156,4350.000000,4327.820313,4315.128418,4462.179688,4481.153809,4382.179688,4477.820313,1484.000000,0.000000,13.000000,,,,0.000000,2.000000,2.000000,0.000000,2.000000,2.000000,2.000000,1.000000,2.000000,4.000000,4.000000,4.000000,4.000000,2.000000,4.000000,25.000000,,,,,,,,,,,,,,,,,,,,,,,,,,,,
1732081479.619789,1732081479.620733,12.000000,0.000000,4413.333496,4296.153809,4330.000000,4330.000000,4299.102539,4292.692383,4265.769043,4349.743652,4328.717773,4314.230957,4466.153809,4484.230957,4389.358887,4485.128418,1716.000000,0.000000,13.000000,,,,0.000000,2.000000,2.000000,0.000000,2.000000,2.000000,2.000000,1.000000,2.000000,4.000000,4.000000,4.000000,4.000000,2.000000,4.000000,25.000000,,,,,,,,,,,,,,,,,3.000000,0.000000,0.634538,0.386414,-0.587280,0.321167,0.974728,0.147967,0.039067,-76.620636,63.160877,28.376665
1732081479.627597,1732081479.628541,13.000000,0.000000,4413.589844,4296.410156,4328.846191,4325.897461,4308.205078,4292.820313,4266.282227,4348.461426,4330.384766,4318.589844,4469.487305,4492.948730,4392.307617,4482.051270,1663.000000,0.000000,13.000000,,,,0.000000,2.000000,2.000000,0.000000,2.000000,2.000000,2.000000,1.000000,2.000000,4.000000,4.000000,4.000000,4.000000,2.000000,4.000000,25.000000,,,,,,,,,,,,,,,,,,,,,,,,,,,,
1732081479.635405,1732081479.636549,14.000000,0.000000,4411.538574,4300.000000,4329.487305,4329.871582,4290.897461,4295.769043,4262.179688,4350.641113,4330.512695,4319.230957,4466.538574,4493.717773,4386.922852,4480.512695,1352.000000,0.000000,13.000000,,,,0.000000,2.000000,2.000000,0.000000,2.000000,2.000000,2.000000,1.000000,2.000000,4.000000,4.000000,4.000000,4.000000,2.000000,4.000000,25.000000,1.000000,16.666666,2.000000,2.000000,0.000000,2.000000,2.000000,2.000000,0.000000,2.000000,3.000000,3.000000,4.000000,4.000000,2.000000,4.000000,,,,,,,,,,,,
1732081479.643213,1732081479.644357,15.000000,0.000000,4411.922852,4302.051270,4331.153809,4331.922852,4284.743652,4297.179688,4261.410156,4350.128418,4330.641113,4315.256348,4465.641113,4491.922852,4385.256348,4481.794922,1484.000000,0.000000,13.000000,,,,0.000000,2.000000,2.000000,0.000000,2.000000,2.000000,2.000000,1.000000,2.000000,4.000000,4.000000,4.000000,4.000000,2.000000,4.000000,25.000000,,,,,,,,,,,,,,,,,,,,,,,,,,,,
1732081479.651022,1732081479.652266,16.000000,0.000000,4408.717773,4298.333496,4331.153809,4325.256348,4298.077148,4295.512695,4262.051270,4349.743652,4330.128418,4316.666504,4469.487305,4492.948730,4385.128418,4477.179688,0.000000,0.000000,13.000000,,,,0.000000,2.000000,2.000000,0.000000,2.000000,2.000000,2.000000,1.000000,2.000000,4.000000,4.000000,4.000000,4.000000,2.000000,4.000000,25.000000,,,,,,,,,,,,,,,,,4.000000,0.000000,0.635721,0.386536,-0.585449,0.322021,0.989867,0.148944,0.031254,-76.706047,63.098644,28.725098
1732081479.658830,1732081479.660074,17.000000,0.000000,4402.820313,4298.974121,4330.000000,4324.871582,4298.205078,4293.205078,4261.794922,4350.897461,4329.102539,4321.025879,4469.358887,4491.153809,4385.384766,4474.487305,0.000000,0.000000,13.000000,,,,0.000000,2.000000,2.000000,0.000000,2.000000,2.000000,2.000000,1.000000,2.000000,4.000000,4.000000,4.000000,4.000000,2.000000,4.000000,25.000000,,,,,,,,,,,,,,,,,,,,,,,,,,,,
1732081479.666638,1732081479.668082,18.000000,0.000000,4399.743652,4305.000000,4327.436035,4330.512695,4289.487305,4295.384766,4260.000000,4350.641113,4330.256348,4323.077148,4468.205078,4487.436035,4388.461426,4476.922852,0.000000,0.000000,13.000000,,,,0.000000,2.000000,2.000000,0.000000,2.000000,2.000000,2.000000,1.000000,2.000000,4.000000,4.000000,4.000000,4.000000,2.000000,4.000000,25.000000,,,,,,,,,,,,,,,,,,,,,,,,,,,,
1732081479.674446,1732081479.675890,19.000000,0.000000,4396.025879,4303.846191,4328.589844,4327.563965,4300.512695,4297.820313,4260.769043,4351.025879,4331.538574,4321.794922,4466.410156,4488.077148,4388.333496,4472.307617,0.000000,0.000000,13.000000,,,,0.000000,2.000000,2.000000,0.000000,2.000000,2.000000,2.000000,1.000000,2.000000,4.000000,4.000000,4.000000,4.000000,2.000000,4.000000,25.000000,,,,,,,,,,,,,,,,,,,,,,,,,,,,
1732081479.682254,1732081479.683798,20.000000,0.000000,4389.871582,4298.205078,4330.256348,4322.948730,4313.205078,4295.769043,4259.487305,4347.436035,4330.128418,4320.128418,4463.077148,4486.153809,4384.743652,4464.487305,0.000000,0.000000,13.000000,,,,0.000000,2.000000,2.000000,0.000000,2.000000,2.000000,2.000000,1.000000,2.000000,4.000000,4.000000,4.000000,4.000000,2.000000,4.000000,25.000000,,,,,,,,,,,,,,,,,5.000000,0.000000,0.635721,0.386536,-0.585449,0.322021,0.999145,0.117690,0.035649,-76.955231,63.018234,28.947330
1732081479.690063,1732081479.691606,21.000000,0.000000,4388.846191,4298.974121,4329.615234,4324.743652,4302.436035,4292.563965,4258.974121,4344.102539,4328.461426,4321.794922,4460.256348,4482.563965,4383.974121,4468.205078,0.000000,0.000000,13.000000,,,,0.000000,2.000000,2.000000,0.000000,2.000000,2.000000,2.000000,1.000000,2.000000,4.000000,4.000000,4.000000,4.000000,2.000000,4.000000,25.000000,,,,,,,,,,,,,,,,,,,,,,,,,,,,
1732081479.697871,1732081479.699614,22.000000,0.000000,4392.820313,4302.051270,4326.410156,4328.589844,4292.436035,4293.846191,4255.769043,4344.871582,4329.743652,4323.846191,4460.128418,4486.282227,4388.077148,4475.897461,0.000000,0.000000,13.000000,,,,0.000000,2.000000,2.000000,0.000000,2.000000,2.000000,2.000000,1.000000,2.000000,4.000000,4.000000,4.000000,4.000000,2.000000,4.000000,25.000000,,,,,,,,,,,,,,,,,,,,,,,,,,,,
1732081479.705679,1732081479.707423,23.000000,0.000000,4392.563965,4299.487305,4327.051270,4327.692383,4299.615234,4296.153809,4254.230957,4343.333496,4328.846191,4320.512695,4459.615234,4492.051270,4391.282227,4473.333496,0.000000,0.000000,13.000000,,,,0.000000,2.000000,2.000000,0.000000,2.000000,2.000000,2.000000,1.000000,2.000000,4.000000,4.000000,4.000000,4.000000,2.000000,4.000000,25.000000,,,,,,,,,,,,,,,,,,,,,,,,,,,,
1732081479.713488,1732081479.715331,24.000000,0.000000,4389.230957,4296.794922,4328.846191,4323.077148,4303.205078,4294.871582,4258.974121,4340.897461,4328.205078,4319.743652,4459.230957,4491.794922,4394.230957,4469.102539,0.000000,0.000000,13.000000,,,,0.000000,2.000000,2.000000,0.000000,2.000000,2.000000,2.000000,1.000000,2.000000,4.000000,4.000000,4.000000,4.000000,2.000000,4.000000,25.000000,,,,,,,,,,,,,,,,,6.000000,0.000000,0.636725,0.387573,-0.582520,0.324097,0.971310,0.098157,0.055671,-77.032074,63.128105,29.027338
1732081479.721296,1732081479.723139,25.000000,0.000000,4385.512695,4293.717773,4329.871582,4320.000000,4303.846191,4292.692383,4263.077148,4341.538574,4329.358887,4325.641113,4463.077148,4492.820313,4394.615234,4473.974121,0.000000,0.000000,13.000000,,,,0.000000,2.000000,2.000000,0.000000,2.000000,2.000000,2.000000,1.000000,2.000000,4.000000,4.000000,4.000000,4.000000,2.000000,4.000000,25.000000,,,,,,,,,,,,,,,,,,,,,,,,,,,,
1732081479.729104,1732081479.731147,26.000000,0.000000,4384.615234,4291.922852,4329.743652,4323.333496,4306.538574,4293.077148,4258.333496,4340.641113,4328.974121,4326.666504,4460.384766,4496.410156,4393.846191,4475.384766,0.000000,0.000000,13.000000,,,,0.000000,2.000000,2.000000,0.000000,2.000000,2.000000,2.000000,1.000000,2.000000,4.000000,4.000000,4.000000,4.000000,2.000000,4.000000,25.000000,,,,,,,,,,,,,,,,,,,,,,,,,,,,
1732081479.736912,1732081479.738955,27.000000,0.000000,4384.743652,4295.769043,4330.641113,4328.205078,4295.897461,4291.410156,4255.897461,4339.230957,4329.487305,4325.000000,4457.563965,4495.769043,4393.461426,4467.436035,0.000000,0.000000,13.000000,,,,0.000000,2.000000,2.000000,0.000000,2.000000,2.000000,2.000000,1.000000,2.000000,4.000000,4.000000,4.000000,4.000000,2.000000,4.000000,25.000000,,,,,,,,,,,,,,,,,,,,,,,,,,,,
1732081479.744721,1732081479.746863,28.000000,0.000000,4382.436035,4299.102539,4328.974121,4327.307617,4290.769043,4292.051270,4260.769043,4343.333496,4328.589844,4324.743652,4459.487305,4488.717773,4387.307617,4460.897461,0.000000,0.000000,13.000000,,,,0.000000,2.000000,2.000000,0.000000,2.000000,2.000000,2.000000,1.000000,2.000000,4.000000,4.000000,4.000000,4.000000,2.000000,4.000000,25.000000,,,,,,,,,,,,,,,,,7.000000,0.000000,0.636520,0.388489,-0.581726,0.324829,0.990355,0.113783,0.049322,-76.849312,63.128765,29.212143
1732081479.752529,1732081479.754671,29.000000,0.000000,4380.641113,4299.102539,4326.153809,4322.692383,4301.666504,4295.256348,4258.974121,4341.538574,4323.333496,4320.000000,4455.256348,4481.025879,4381.922852,4461.922852,0.000000,0.000000,13.000000,,,,0.000000,2.000000,2.000000,0.000000,2.000000,2.000000,2.000000,1.000000,2.000000,4.000000,4.000000,4.000000,4.000000,2.000000,4.000000,25.000000,,,,,,,,,,,,,,,,,,,,,,,,,,,,
1732081479.760337,1732081479.762679,30.000000,0.000000,4374.871582,4296.025879,4326.282227,4320.512695,4303.077148,4298.205078,4252.820313,4339.871582,4321.282227,4312.820313,4444.615234,4474.615234,4376.282227,4458.077148,0.000000,0.000000,13.000000,,,,0.000000,2.000000,2.000000,0.000000,2.000000,2.000000,2.000000,1.000000,2.000000,4.000000,4.000000,4.000000,4.000000,2.000000,4.000000,25.000000,,,,,,,,,,,,,,,,,,,,,,,,,,,,
1732081479.768145,1732081479.770488,31.000000,0.000000,4364.487305,4287.948730,4325.256348,4319.743652,4305.000000,4302.948730,4251.922852,4349.615234,4328.589844,4312.820313,4436.153809,4468.974121,4365.512695,4444.230957,0.000000,0.000000,13.000000,,,,0.000000,2.000000,2.000000,0.000000,2.000000,2.000000,2.000000,1.000000,2.000000,4.000000,4.000000,4.000000,4.000000,2.000000,4.000000,25.000000,,,,,,,,,,,,,,,,,,,,,,,,,,,,
1732081479.775953,1732081479.778396,32.000000,0.000000,4361.025879,4284.871582,4322.436035,4317.820313,4316.410156,4303.077148,4255.256348,4353.589844,4332.051270,4316.153809,4434.230957,4468.846191,4361.794922,4435.256348,0.000000,0.000000,13.000000,,,,0.000000,2.000000,2.000000,0.000000,2.000000,2.000000,2.000000,1.000000,2.000000,4.000000,4.000000,4.000000,4.000000,2.000000,4.000000,25.000000,,,,,,,,,,,,,,,,,8.000000,0.000000,0.635899,0.388733,-0.582275,0.324768,0.981565,0.107435,0.026859,-76.839607,63.192631,29.395168
1732081479.783762,1732081479.786204,33.000000,0.000000,4368.333496,4292.436035,4321.666504,4318.589844,4308.717773,4297.051270,4253.333496,4342.820313,4328.717773,4320.256348,4438.333496,4472.948730,4373.077148,4439.487305,0.000000,0.000000,13.000000,,,,0.000000,2.000000,2.000000,0.000000,2.000000,2.000000,2.000000,1.000000,2.000000,4.000000,4.000000,4.000000,4.000000,2.000000,4.000000,25.000000,,,,,,,,,,,,,,,,,,,,,,,,,,,,
1732081479.791570,1732081479.794012,34.000000,0.000000,4373.333496,4298.974121,4324.871582,4326.794922,4294.230957,4295.384766,4254.615234,4333.974121,4328.077148,4325.256348,4445.897461,4475.384766,4382.563965,4446.025879,0.000000,0.000000,13.000000,,,,0.000000,2.000000,2.000000,0.000000,2.000000,2.000000,2.000000,1.000000,2.000000,4.000000,4.000000,4.000000,4.000000,2.000000,4.000000,25.000000,,,,,,,,,,,,,,,,,,,,,,,,,,,,
1732081479.799378,1732081479.801820,35.000000,0.000000,4371.410156,4300.384766,4325.000000,4335.128418,4297.948730,4295.897461,4259.743652,4337.820313,4327.820313,4325.256348,4449.615234,4478.589844,4377.436035,4446.666504,0.000000,0.000000,13.000000,,,,0.000000,2.000000,2.000000,0.000000,2.000000,2.000000,2.000000,1.000000,2.000000,4.000000,4.000000,4.000000,4.000000,2.000000,4.000000,25.000000,,,,,,,,,,,,,,,,,,,,,,,,,,,,
1732081479.807186,1732081479.809728,36.000000,0.000000,4369.743652,4301.025879,4323.974121,4332.436035,4302.692383,4297.820313,4263.846191,4342.948730,4325.897461,4318.846191,4446.922852,4483.333496,4372.436035,4444.615234,0.000000,0.000000,13.000000,,,,0.000000,2.000000,2.000000,0.000000,2.000000,2.000000,2.000000,1.000000,2.000000,4.000000,4.000000,4.000000,4.000000,2.000000,4.000000,25.000000,,,,,,,,,,,,,,,,,9.000000,0.000000,0.635682,0.388672,-0.582520,0.324829,0.981565,0.107435,0.026859,-76.996750,62.997700,29.510088
1732081479.814995,1732081479.817537,37.000000,0.000000,4370.256348,4298.461426,4322.563965,4326.410156,4307.051270,4303.205078,4259.102539,4341.666504,4326.153809,4314.230957,4445.641113,4483.846191,4374.743652,4443.461426,0.000000,0.000000,13.000000,,,,0.000000,2.000000,2.000000,0.000000,2.000000,2.000000,2.000000,1.000000,2.000000,4.000000,4.000000,4.000000,4.000000,2.000000,4.000000,25.000000,,,,,,,,,,,,,,,,,,,,,,,,,,,,
1732081479.822803,1732081479.825545,38.000000,0.000000,4367.948730,4296.538574,4323.717773,4327.692383,4312.436035,4306.153809,4257.051270,4343.589844,4333.717773,4319.102539,4447.051270,4486.410156,4374.102539,4445.769043,0.000000,0.000000,13.000000,,,,0.000000,2.000000,2.000000,0.000000,2.000000,2.000000,2.000000,1.000000,2.000000,4.000000,4.000000,4.000000,4.000000,2.000000,4.000000,25.000000,,,,,,,,,,,,,,,,,,,,,,,,,,,,
1732081479.830611,1732081479.833353,39.000000,0.000000,4359.487305,4297.307617,4323.974121,4325.128418,4304.358887,4299.230957,4256.538574,4347.179688,4338.205078,4324.358887,4446.922852,4487.307617,4367.051270,4446.282227,0.000000,0.000000,13.000000,,,,0.000000,2.000000,2.000000,0.000000,2.000000,2.000000,2.000000,1.000000,2.000000,4.000000,4.000000,4.000000,4.000000,2.000000,4.000000,25.000000,,,,,,,,,,,,,,,,,,,,,,,,,,,,
1732081479.838420,1732081479.841061,40.000000,0.000000,4351.794922,4295.641113,4323.333496,4317.820313,4291.282227,4297.436035,4253.846191,4344.871582,4333.333496,4320.641113,4442.820313,4481.025879,4362.179688,4437.692383,0.000000,0.000000,13.000000,,,,0.000000,2.000000,2.000000,0.000000,2.000000,2.000000,2.000000,1.000000,2.000000,4.000000,4.000000,4.000000,4.000000,2.000000,4.000000,25.000000,,,,,,,,,,,,,,,,,10.000000,0.000000,0.634753,0.388367,-0.583496,0.325256,0.967403,0.108900,0.036137,-76.930702,63.141468,29.484837
1732081479.846228,1732081479.848869,41.000000,0.000000,4354.230957,4294.358887,4323.205078,4318.589844,4295.256348,4304.102539,4256.794922,4343.589844,4334.358887,4322.563965,4443.333496,4481.282227,4366.794922,4436.538574,0.000000,0.000000,13.000000,,,,0.000000,2.000000,2.000000,0.000000,2.000000,2.000000,2.000000,1.000000,2.000000,4.000000,4.000000,4.000000,4.000000,2.000000,4.000000,25.000000,,,,,,,,,,,,,,,,,,,,,,,,,,,,
1732081479.854036,1732081479.856478,42.000000,0.000000,4360.769043,4295.256348,4325.384766,4320.897461,4310.512695,4305.000000,4262.307617,4349.871582,4339.743652,4328.205078,4448.333496,4487.179688,4372.436035,4445.384766,0.000000,0.000000,13.000000,,,,0.000000,2.000000,2.000000,0.000000,2.000000,2.000000,2.000000,1.000000,2.000000,4.000000,4.000000,4.000000,4.000000,2.000000,4.000000,25.000000,,,,,,,,,,,,,,,,,,,,,,,,,,,,
1732081479.861844,1732081479.864286,43.000000,0.000000,4360.256348,4296.410156,4324.358887,4321.282227,4312.692383,4304.358887,4261.666504,4352.051270,4335.128418,4322.307617,4443.974121,4481.153809,4368.589844,4441.794922,0.000000,0.000000,13.000000,,,,0.000000,2.000000,2.000000,0.000000,2.000000,2.000000,2.000000,1.000000,2.000000,4.000000,4.000000,4.000000,4.000000,2.000000,4.000000,25.000000,,,,,,,,,,,,,,,,,,,,,,,,,,,,
1732081479.869653,1732081479.871994,44.000000,0.000000,4352.948730,4299.102539,4321.538574,4327.948730,4301.410156,4306.025879,4257.563965,4349.487305,4330.769043,4317.692383,4438.077148,4477.307617,4365.000000,4427.692383,0.000000,0.000000,13.000000,,,,0.000000,2.000000,2.000000,0.000000,2.000000,2.000000,2.000000,1.000000,2.000000,4.000000,4.000000,4.000000,4.000000,2.000000,4.000000,25.000000,,,,,,,,,,,,,,,,,11.000000,0.000000,0.634342,0.388306,-0.583984,0.325256,0.974728,0.109388,0.026370,-76.982201,63.157925,29.569386
1732081479.877461,1732081479.879803,45.000000,0.000000,4349.358887,4299.102539,4325.384766,4331.410156,4294.230957,4301.922852,4259.487305,4350.128418,4336.794922,4325.128418,4441.794922,4488.717773,4367.307617,4431.282227,0.000000,0.000000,13.000000,,,,0.000000,2.000000,2.000000,0.000000,2.000000,2.000000,2.000000,1.000000,2.000000,4.000000,4.000000,4.000000,4.000000,2.000000,4.000000,25.000000,,,,,,,,,,,,,,,,,,,,,,,,,,,,
1732081479.885269,1732081479.887411,46.000000,0.000000,4352.179688,4297.820313,4329.871582,4325.641113,4296.794922,4296.282227,4260.512695,4351.282227,4339.487305,4329.487305,4448.717773,4490.000000,4370.512695,4440.384766,0.000000,0.000000,13.000000,,,,0.000000,2.000000,2.000000,0.000000,2.000000,2.000000,2.000000,1.000000,2.000000,4.000000,4.000000,4.000000,4.000000,2.000000,4.000000,25.000000,,,,,,,,,,,,,,,,,,,,,,,,,,,,
1732081479.893077,1732081479.895219,47.000000,0.000000,4351.153809,4300.256348,4327.563965,4321.410156,4304.487305,4296.153809,4259.358887,4350.897461,4336.922852,4325.256348,4445.512695,4478.333496,4370.256348,4434.358887,0.000000,0.000000,13.000000,,,,0.000000,2.000000,2.000000,0.000000,2.000000,2.000000,2.000000,1.000000,2.000000,4.000000,4.000000,4.000000,4.000000,2.000000,4.000000,25.000000,,,,,,,,,,,,,,,,,,,,,,,,,,,,
1732081479.900885,1732081479.902927,48.000000,0.000000,4346.025879,4300.512695,4324.102539,4323.205078,4313.333496,4300.384766,4257.692383,4351.666504,4338.461426,4324.230957,4435.512695,4474.102539,4367.436035,4426.153809,0.000000,0.000000,13.000000,,,,0.000000,2.000000,2.000000,0.000000,2.000000,2.000000,2.000000,1.000000,2.000000,4.000000,4.000000,4.000000,4.000000,2.000000,4.000000,25.000000,,,,,,,,,,,,,,,,,12.000000,0.000000,0.634111,0.388489,-0.584045,0.325378,0.980100,0.111342,0.010255,-76.922249,63.157917,29.439535
1732081479.908694,1732081479.910736,49.000000,0.000000,4342.820313,4300.128418,4327.051270,4326.666504,4313.461426,4307.179688,4258.333496,4352.051270,4339.102539,4320.897461,4430.641113,4475.897461,4360.384766,4421.153809,0.000000,0.000000,13.000000,,,,0.000000,2.000000,2.000000,0.000000,2.000000,2.000000,2.000000,1.000000,2.000000,4.000000,4.000000,4.000000,4.000000,2.000000,4.000000,25.000000,,,,,,,,,,,,,,,,,,,,,,,,,,,,
1732081479.916502,1732081479.918744,50.000000,0.000000,4342.692383,4306.153809,4327.563965,4330.641113,4302.948730,4317.051270,4262.051270,4352.307617,4338.333496,4315.897461,4429.102539,4469.871582,4355.512695,4416.410156,0.000000,0.000000,13.000000,,,,0.000000,2.000000,2.000000,0.000000,2.000000,2.000000,2.000000,1.000000,2.000000,4.000000,4.000000,4.000000,4.000000,2.000000,4.000000,25.000000,,,,,,,,,,,,,,,,,,,,,,,,,,,,
1732081479.924310,1732081479.926552,51.000000,0.000000,4340.256348,4305.512695,4326.922852,4327.307617,4306.794922,4314.871582,4262.948730,4350.769043,4333.974121,4315.000000,4424.871582,4465.897461,4358.461426,4414.230957,0.000000,0.000000,13.000000,,,,0.000000,2.000000,2.000000,0.000000,2.000000,2.000000,2.000000,1.000000,2.000000,4.000000,4.000000,4.000000,4.000000,2.000000,4.000000,25.000000,,,,,,,,,,,,,,,,,,,,,,,,,,,,
1732081479.932119,1732081479.934460,52.000000,0.000000,4336.153809,4296.922852,4326.153809,4320.128418,4323.077148,4306.922852,4254.743652,4348.717773,4329.487305,4313.974121,4422.179688,4468.717773,4355.128418,4412.436035,0.000000,0.000000,13.000000,,,,0.000000,2.000000,2.000000,0.000000,2.000000,2.000000,2.000000,1.000000,2.000000,4.000000,4.000000,4.000000,4.000000,2.000000,4.000000,25.000000,,,,,,,,,,,,,,,,,13.000000,0.000000,0.633786,0.388794,-0.584229,0.325317,0.969357,0.119155,0.026859,-76.747025,63.317913,29.736023
1732081479.939927,1732081479.942268,53.000000,0.000000,4337.692383,4296.282227,4325.769043,4319.743652,4313.717773,4308.717773,4253.205078,4350.128418,4333.589844,4314.871582,4427.179688,4472.436035,4350.641113,4411.666504,0.000000,0.000000,13.000000,,,,0.000000,2.000000,2.000000,0.000000,2.000000,2.000000,2.000000,1.000000,2.000000,4.000000,4.000000,4.000000,4.000000,2.000000,4.000000,25.000000,,,,,,,,,,,,,,,,,,,,,,,,,,,,
1732081479.947735,1732081479.949877,54.000000,0.000000,4341.794922,4298.846191,4325.256348,4324.743652,4292.179688,4312.436035,4256.410156,4352.179688,4339.358887,4320.256348,4432.436035,4477.948730,4354.358887,4413.974121,0.000000,0.000000,13.000000,,,,0.000000,2.000000,2.000000,0.000000,2.000000,2.000000,2.000000,1.000000,2.000000,4.000000,4.000000,4.000000,4.000000,2.000000,4.000000,25.000000,,,,,,,,,,,,,,,,,,,,,,,,,,,,
1732081479.955543,1732081479.957685,55.000000,0.000000,4338.589844,4296.282227,4326.410156,4322.051270,4298.717773,4310.000000,4255.897461,4351.794922,4337.563965,4321.666504,4430.512695,4478.846191,4351.794922,4412.563965,0.000000,0.000000,13.000000,,,,0.000000,2.000000,2.000000,0.000000,2.000000,2.000000,2.000000,1.000000,2.000000,4.000000,4.000000,4.000000,4.000000,2.000000,4.000000,25.000000,,,,,,,,,,,,,,,,,,,,,,,,,,,,
1732081479.963352,1732081479.965393,56.000000,0.000000,4335.512695,4294.102539,4325.128418,4313.077148,4312.051270,4308.974121,4252.179688,4352.820313,4338.333496,4320.000000,4429.102539,4476.025879,4345.897461,4407.820313,0.000000,0.000000,13.000000,,,,0.000000,2.000000,2.000000,0.000000,2.000000,2.000000,2.000000,1.000000,2.000000,4.000000,4.000000,4.000000,4.000000,2.000000,4.000000,25.000000,,,,,,,,,,,,,,,,,14.000000,0.000000,0.632564,0.390137,-0.584045,0.326416,0.966915,0.104993,0.015627,-76.506752,62.987511,29.757845
1732081479.971160,1732081479.973201,57.000000,0.000000,4340.384766,4296.282227,4324.743652,4313.589844,4301.794922,4311.794922,4251.794922,4353.461426,4340.512695,4320.384766,4430.384766,4474.871582,4347.307617,4406.153809,0.000000,0.000000,13.000000,,,,0.000000,2.000000,2.000000,0.000000,2.000000,2.000000,2.000000,1.000000,2.000000,4.000000,4.000000,4.000000,4.000000,2.000000,4.000000,25.000000,,,,,,,,,,,,,,,,,,,,,,,,,,,,
1732081479.978968,1732081479.980809,58.000000,0.000000,4343.846191,4297.436035,4327.563965,4320.897461,4291.538574,4312.563965,4251.410156,4350.897461,4333.846191,4317.307617,4426.922852,4470.256348,4347.948730,4405.897461,0.000000,0.000000,13.000000,,,,0.000000,2.000000,2.000000,0.000000,2.000000,2.000000,2.000000,1.000000,2.000000,4.000000,4.000000,4.000000,4.000000,2.000000,4.000000,25.000000,,,,,,,,,,,,,,,,,,,,,,,,,,,,
1732081479.986776,1732081479.988617,59.000000,0.000000,4341.922852,4298.333496,4328.461426,4320.128418,4299.615234,4310.384766,4248.717773,4349.102539,4328.974121,4313.717773,4424.871582,4465.384766,4343.846191,4406.410156,0.000000,0.000000,13.000000,,,,0.000000,2.000000,2.000000,0.000000,2.000000,2.000000,2.000000,1.000000,2.000000,4.000000,4.000000,4.000000,4.000000,2.000000,4.000000,25.000000,,,,,,,,,,,,,,,,,,,,,,,,,,,,
1732081479.994584,1732081479.996326,60.000000,0.000000,4343.333496,4296.794922,4324.487305,4313.846191,4311.282227,4310.128418,4248.589844,4349.230957,4333.589844,4314.743652,4428.717773,4467.820313,4346.666504,4403.846191,0.000000,0.000000,13.000000,,,,0.000000,2.000000,2.000000,0.000000,2.000000,2.000000,2.000000,1.000000,2.000000,4.000000,4.000000,4.000000,4.000000,2.000000,4.000000,25.000000,,,,,,,,,,,,,,,,,15.000000,0.000000,0.632564,0.390137,-0.584045,0.326416,0.967892,0.104505,0.018557,-76.387138,62.989883,29.775522
1732081480.002393,1732081480.004134,61.000000,0.000000,4344.871582,4294.743652,4323.846191,4312.692383,4314.102539,4310.769043,4248.846191,4348.974121,4332.692383,4314.871582,4427.307617,4470.000000,4347.820313,4397.692383,0.000000,0.000000,13.000000,,,,0.000000,2.000000,2.000000,0.000000,2.000000,2.000000,2.000000,1.000000,2.000000,4.000000,4.000000,4.000000,4.000000,2.000000,4.000000,25.000000,,,,,,,,,,,,,,,,,,,,,,,,,,,,
1732081480.010201,1732081480.012142,62.000000,0.000000,4342.563965,4296.282227,4328.461426,4318.077148,4303.461426,4312.820313,4252.563965,4350.512695,4330.000000,4313.717773,4422.948730,4465.128418,4344.487305,4397.179688,0.000000,0.000000,13.000000,,,,0.000000,2.000000,2.000000,0.000000,2.000000,2.000000,2.000000,1.000000,2.000000,4.000000,4.000000,4.000000,4.000000,2.000000,4.000000,25.000000,,,,,,,,,,,,,,,,,,,,,,,,,,,,
1732081480.018009,1732081480.019950,63.000000,0.000000,4341.025879,4297.436035,4328.461426,4320.641113,4295.000000,4310.512695,4253.333496,4349.358887,4334.871582,4314.102539,4425.128418,4464.615234,4345.256348,4400.256348,0.000000,0.000000,13.000000,,,,0.000000,2.000000,2.000000,0.000000,2.000000,2.000000,2.000000,1.000000,2.000000,4.000000,4.000000,4.000000,4.000000,2.000000,4.000000,25.000000,,,,,,,,,,,,,,,,,,,,,,,,,,,,
1732081480.025818,1732081480.027858,64.000000,0.000000,4340.512695,4296.666504,4324.871582,4318.077148,4299.102539,4305.769043,4250.769043,4345.641113,4337.948730,4313.717773,4426.410156,4466.666504,4344.102539,4398.846191,10.000000,0.000000,13.000000,,,,0.000000,2.000000,2.000000,0.000000,2.000000,2.000000,2.000000,1.000000,2.000000,4.000000,4.000000,4.000000,4.000000,2.000000,4.000000,25.000000,,,,,,,,,,,,,,,,,16.000000,0.000000,0.631903,0.390503,-0.584106,0.327148,0.974240,0.107435,0.020510,-76.376915,63.150139,29.564838
1732081480.033626,1732081480.035666,65.000000,0.000000,4339.358887,4296.025879,4324.102539,4318.461426,4302.948730,4307.051270,4247.563965,4346.410156,4335.512695,4313.717773,4424.615234,4465.641113,4341.153809,4396.922852,1285.000000,0.000000,13.000000,,,,0.000000,2.000000,2.000000,0.000000,2.000000,2.000000,2.000000,1.000000,2.000000,4.000000,4.000000,4.000000,4.000000,2.000000,4.000000,25.000000,,,,,,,,,,,,,,,,,,,,,,,,,,,,
1732081480.041434,1732081480.043674,66.000000,0.000000,4338.846191,4296.282227,4326.410156,4320.384766,4311.410156,4305.128418,4246.538574,4348.589844,4331.410156,4310.897461,4423.974121,4469.102539,4343.589844,4399.358887,1205.000000,0.000000,13.000000,,,,0.000000,2.000000,2.000000,0.000000,2.000000,2.000000,2.000000,1.000000,2.000000,4.000000,4.000000,4.000000,4.000000,2.000000,4.000000,25.000000,,,,,,,,,,,,,,,,,,,,,,,,,,,,
1732081480.049242,1732081480.051482,67.000000,0.000000,4342.563965,4298.333496,4325.512695,4318.974121,4315.000000,4298.846191,4245.512695,4345.384766,4328.589844,4308.205078,4424.487305,4474.487305,4348.974121,4404.487305,1162.000000,0.000000,13.000000,,,,0.000000,2.000000,2.000000,0.000000,2.000000,2.000000,2.000000,1.000000,2.000000,4.000000,4.000000,4.000000,4.000000,2.000000,4.000000,25.000000,,,,,,,,,,,,,,,,,,,,,,,,,,,,
1732081480.057051,1732081480.059390,68.000000,0.000000,4345.384766,4299.230957,4326.410156,4319.871582,4296.538574,4303.077148,4247.820313,4344.487305,4333.077148,4315.769043,4430.000000,4477.307617,4352.563965,4408.461426,1197.000000,0.000000,13.000000,,,,0.000000,2.000000,2.000000,0.000000,2.000000,2.000000,2.000000,1.000000,2.000000,4.000000,4.000000,4.000000,4.000000,2.000000,4.000000,25.000000,,,,,,,,,,,,,,,,,17.000000,0.000000,0.630670,0.391418,-0.584106,0.328430,0.987914,0.100598,0.016115,-76.525299,63.256611,29.500853
1732081480.064859,1732081480.067199,69.000000,0.000000,4342.436035,4297.692383,4325.512695,4322.692383,4296.538574,4308.333496,4247.563965,4346.922852,4337.307617,4322.563965,4432.820313,4473.461426,4353.205078,4405.769043,1067.000000,0.000000,13.000000,,,,0.000000,2.000000,2.000000,0.000000,2.000000,2.000000,2.000000,1.000000,2.000000,4.000000,4.000000,4.000000,4.000000,2.000000,4.000000,25.000000,,,,,,,,,,,,,,,,,,,,,,,,,,,,
1732081480.072667,1732081480.074807,70.000000,0.000000,4335.256348,4296.666504,4323.717773,4319.487305,4320.000000,4302.436035,4246.282227,4344.102539,4331.410156,4315.256348,4422.307617,4462.436035,4346.922852,4395.512695,215.000000,0.000000,13.000000,,,,0.000000,2.000000,2.000000,0.000000,2.000000,2.000000,2.000000,1.000000,2.000000,4.000000,4.000000,4.000000,4.000000,2.000000,4.000000,25.000000,,,,,,,,,,,,,,,,,,,,,,,,,,,,
1732081480.080475,1732081480.082615,71.000000,0.000000,4330.000000,4297.563965,4323.077148,4317.948730,4315.128418,4302.692383,4248.333496,4339.743652,4326.922852,4310.128418,4415.769043,4457.948730,4341.794922,4387.563965,1187.000000,0.000000,13.000000,,,,0.000000,2.000000,2.000000,0.000000,2.000000,2.000000,2.000000,1.000000,2.000000,4.000000,4.000000,4.000000,4.000000,2.000000,4.000000,25.000000,,,,,,,,,,,,,,,,,,,,,,,,,,,,
1732081480.088283,1732081480.090523,72.000000,0.000000,4328.974121,4295.641113,4323.461426,4323.205078,4298.974121,4313.205078,4252.820313,4343.974121,4330.897461,4314.743652,4420.128418,4463.717773,4343.974121,4388.717773,1334.000000,0.000000,13.000000,,,,0.000000,2.000000,2.000000,0.000000,2.000000,2.000000,2.000000,1.000000,2.000000,4.000000,4.000000,4.000000,4.000000,2.000000,4.000000,25.000000,,,,,,,,,,,,,,,,,18.000000,0.000000,0.629859,0.392212,-0.584106,0.329041,0.976682,0.132829,0.006348,-76.848824,63.342857,29.440691
1732081480.096092,1732081480.098331,73.000000,0.000000,4329.102539,4295.641113,4322.051270,4323.717773,4303.717773,4311.922852,4251.025879,4347.820313,4333.205078,4315.769043,4422.179688,4469.615234,4345.641113,4393.846191,1461.000000,0.000000,13.000000,,,,0.000000,2.000000,2.000000,0.000000,2.000000,2.000000,2.000000,1.000000,2.000000,4.000000,4.000000,4.000000,4.000000,2.000000,4.000000,25.000000,,,,,,,,,,,,,,,,,,,,,,,,,,,,
1732081480.103900,1732081480.106339,74.000000,0.000000,4329.102539,4298.077148,4323.974121,4317.307617,4306.666504,4304.487305,4248.589844,4344.487305,4332.051270,4311.922852,4422.179688,4471.153809,4342.948730,4394.102539,1352.000000,0.000000,13.000000,,,,0.000000,2.000000,2.000000,0.000000,2.000000,2.000000,2.000000,1.000000,2.000000,4.000000,4.000000,4.000000,4.000000,2.000000,4.000000,25.000000,,,,,,,,,,,,,,,,,,,,,,,,,,,,
1732081480.111708,1732081480.114147,75.000000,0.000000,4326.666504,4296.282227,4326.025879,4312.692383,4306.794922,4303.205078,4250.512695,4341.922852,4331.794922,4312.692383,4425.897461,4469.102539,4342.692383,4389.615234,1484.000000,0.000000,13.000000,,,,0.000000,2.000000,2.000000,0.000000,2.000000,2.000000,2.000000,1.000000,2.000000,4.000000,4.000000,4.000000,4.000000,2.000000,4.000000,25.000000,,,,,,,,,,,,,,,,,,,,,,,,,,,,
1732081480.119516,1732081480.122055,76.000000,0.000000,4324.102539,4294.871582,4324.230957,4312.436035,4311.538574,4300.641113,4248.717773,4341.410156,4333.077148,4314.487305,4427.948730,4462.692383,4344.487305,4384.615234,1718.000000,0.000000,13.000000,,,,0.000000,2.000000,2.000000,0.000000,2.000000,2.000000,2.000000,1.000000,2.000000,4.000000,4.000000,4.000000,4.000000,2.000000,4.000000,25.000000,,,,,,,,,,,,,,,,,19.000000,0.000000,0.629472,0.392639,-0.584167,0.329163,0.976682,0.132829,0.006348,-76.687553,63.087715,29.325293
1732081480.127325,1732081480.129864,77.000000,0.000000,4327.179688,4296.153809,4323.589844,4313.077148,4298.333496,4298.589844,4247.051270,4341.153809,4333.717773,4314.615234,4427.179688,4461.794922,4345.769043,4385.128418,1663.000000,0.000000,13.000000,,,,0.000000,2.000000,2.000000,0.000000,2.000000,2.000000,2.000000,1.000000,2.000000,4.000000,4.000000,4.000000,4.000000,2.000000,4.000000,25.000000,,,,,,,,,,,,,,,,,,,,,,,,,,,,
1732081480.135133,1732081480.137872,78.000000,0.000000,4332.820313,4295.384766,4324.615234,4313.589844,4289.487305,4301.410156,4249.358887,4342.692383,4332.179688,4318.077148,4427.820313,4470.641113,4349.615234,4392.179688,1352.000000,0.000000,13.000000,,,,0.000000,2.000000,2.000000,0.000000,2.000000,2.000000,2.000000,1.000000,2.000000,4.000000,4.000000,4.000000,4.000000,2.000000,4.000000,25.000000,1.000000,8.333333,2.000000,1.000000,0.000000,2.000000,2.000000,2.000000,0.000000,2.000000,4.000000,3.000000,4.000000,4.000000,2.000000,4.000000,,,,,,,,,,,,
1732081480.142941,1732081480.145680,79.000000,0.000000,4328.461426,4295.897461,4322.820313,4312.051270,4308.461426,4299.615234,4251.153809,4341.282227,4329.487305,4317.563965,4425.897461,4470.641113,4346.666504,4389.615234,1484.000000,0.000000,13.000000,,,,0.000000,2.000000,2.000000,0.000000,2.000000,2.000000,2.000000,1.000000,2.000000,4.000000,4.000000,4.000000,4.000000,2.000000,4.000000,25.000000,,,,,,,,,,,,,,,,,,,,,,,,,,,,
1732081480.150750,1732081480.153588,80.000000,0.000000,4319.615234,4298.846191,4320.897461,4311.794922,4311.025879,4297.820313,4249.487305,4339.615234,4329.102539,4313.846191,4423.077148,4463.077148,4341.025879,4380.769043,1718.000000,0.000000,13.000000,,,,0.000000,2.000000,2.000000,0.000000,2.000000,2.000000,2.000000,1.000000,2.000000,4.000000,4.000000,4.000000,4.000000,2.000000,4.000000,25.000000,,,,,,,,,,,,,,,,,20.000000,0.000000,0.629231,0.392883,-0.584229,0.329224,0.976682,0.097180,0.001465,-76.686913,63.079380,29.553488
1732081480.158558,1732081480.161396,81.000000,0.000000,4320.128418,4297.307617,4323.846191,4314.102539,4293.077148,4303.974121,4253.717773,4345.384766,4331.282227,4313.589844,4423.846191,4463.974121,4342.692383,4381.282227,1663.000000,0.000000,13.000000,,,,0.000000,2.000000,2.000000,0.000000,2.000000,2.000000,2.000000,1.000000,2.000000,4.000000,4.000000,4.000000,4.000000,2.000000,4.000000,25.000000,,,,,,,,,,,,,,,,,,,,,,,,,,,,
1732081480.166366,1732081480.169404,82.000000,0.000000,4322.820313,4294.358887,4323.333496,4314.487305,4294.871582,4305.000000,4257.051270,4350.384766,4334.230957,4314.871582,4425.512695,4468.974121,4344.358887,4385.384766,1352.000000,0.000000,13.000000,,,,0.000000,2.000000,2.000000,0.000000,2.000000,2.000000,2.000000,1.000000,2.000000,4.000000,4.000000,4.000000,4.000000,2.000000,4.000000,25.000000,,,,,,,,,,,,,,,,,,,,,,,,,,,,
1732081480.174174,1732081480.177212,83.000000,0.000000,4318.333496,4295.384766,4320.128418,4310.000000,4299.743652,4300.256348,4257.820313,4346.153809,4334.743652,4313.333496,4427.436035,4470.384766,4342.948730,4384.102539,1484.000000,0.000000,13.000000,,,,0.000000,2.000000,2.000000,0.000000,2.000000,2.000000,2.000000,1.000000,2.000000,4.000000,4.000000,4.000000,4.000000,2.000000,4.000000,25.000000,,,,,,,,,,,,,,,,,,,,,,,,,,,,
1732081480.181982,1732081480.185120,84.000000,0.000000,4317.820313,4294.871582,4319.230957,4308.846191,4295.128418,4303.846191,4257.307617,4343.461426,4333.846191,4313.205078,4427.820313,4465.384766,4343.333496,4383.333496,1718.000000,0.000000,13.000000,,,,0.000000,2.000000,2.000000,0.000000,2.000000,2.000000,2.000000,1.000000,2.000000,4.000000,4.000000,4.000000,4.000000,2.000000,4.000000,25.000000,,,,,,,,,,,,,,,,,21.000000,0.000000,0.628120,0.393921,-0.584656,0.329346,0.981565,0.098157,0.005860,-76.629738,62.877632,29.568325
1732081480.189791,1732081480.192929,85.000000,0.000000,4319.230957,4294.230957,4322.051270,4310.512695,4292.820313,4305.256348,4256.282227,4344.871582,4331.153809,4312.051270,4423.589844,4458.717773,4340.128418,4382.692383,1663.000000,0.000000,13.000000,,,,0.000000,2.000000,2.000000,0.000000,2.000000,2.000000,2.000000,1.000000,2.000000,4.000000,4.000000,4.000000,4.000000,2.000000,4.000000,25.000000,,,,,,,,,,,,,,,,,,,,,,,,,,,,
1732081480.197599,1732081480.200637,86.000000,0.000000,4314.871582,4293.333496,4322.179688,4308.461426,4292.563965,4297.820313,4252.179688,4343.461426,4330.641113,4310.384766,4418.846191,4459.230957,4334.102539,4379.871582,1352.000000,0.000000,13.000000,,,,0.000000,2.000000,2.000000,0.000000,2.000000,2.000000,2.000000,1.000000,2.000000,4.000000,4.000000,4.000000,4.000000,2.000000,4.000000,25.000000,,,,,,,,,,,,,,,,,,,,,,,,,,,,
1732081480.205407,1732081480.208445,87.000000,0.000000,4311.794922,4290.000000,4323.717773,4306.025879,4300.128418,4295.384766,4251.794922,4340.000000,4332.307617,4312.051270,4417.436035,4464.230957,4334.487305,4379.230957,1484.000000,0.000000,13.000000,,,,0.000000,2.000000,2.000000,0.000000,2.000000,2.000000,2.000000,1.000000,2.000000,4.000000,4.000000,4.000000,4.000000,2.000000,4.000000,25.000000,,,,,,,,,,,,,,,,,,,,,,,,,,,,
1732081480.213215,1732081480.216153,88.000000,0.000000,4312.820313,4291.666504,4324.743652,4309.615234,4303.589844,4299.615234,4252.307617,4340.256348,4331.794922,4313.461426,4420.384766,4469.487305,4335.897461,4381.410156,1718.000000,0.000000,13.000000,,,,0.000000,2.000000,2.000000,0.000000,2.000000,2.000000,2.000000,1.000000,2.000000,4.000000,4.000000,4.000000,4.000000,2.000000,4.000000,25.000000,,,,,,,,,,,,,,,,,22.000000,0.000000,0.627797,0.394165,-0.584839,0.329346,0.981565,0.098157,0.005860,-76.746750,62.874214,29.562010
1732081480.221024,1732081480.223962,89.000000,0.000000,4311.666504,4294.230957,4325.000000,4313.589844,4286.922852,4299.871582,4251.922852,4340.512695,4328.333496,4311.410156,4420.256348,4472.051270,4331.410156,4380.128418,1663.000000,0.000000,13.000000,,,,0.000000,2.000000,2.000000,0.000000,2.000000,2.000000,2.000000,1.000000,2.000000,4.000000,4.000000,4.000000,4.000000,2.000000,4.000000,25.000000,,,,,,,,,,,,,,,,,,,,,,,,,,,,
1732081480.228832,1732081480.231570,90.000000,0.000000,4311.282227,4293.846191,4323.333496,4313.974121,4280.897461,4298.461426,4254.487305,4339.487305,4327.563965,4310.641113,4415.769043,4469.487305,4328.205078,4378.205078,1352.000000,0.000000,13.000000,,,,0.000000,2.000000,2.000000,0.000000,2.000000,2.000000,2.000000,1.000000,2.000000,4.000000,4.000000,4.000000,4.000000,2.000000,4.000000,25.000000,,,,,,,,,,,,,,,,,,,,,,,,,,,,
1732081480.236640,1732081480.239378,91.000000,0.000000,4312.692383,4292.179688,4320.897461,4308.461426,4292.692383,4299.230957,4255.256348,4341.410156,4330.897461,4312.051270,4416.794922,4468.461426,4332.820313,4379.230957,1484.000000,0.000000,13.000000,,,,0.000000,2.000000,2.000000,0.000000,2.000000,2.000000,2.000000,1.000000,2.000000,4.000000,4.000000,4.000000,4.000000,2.000000,4.000000,25.000000,,,,,,,,,,,,,,,,,,,,,,,,,,,,
1732081480.244449,1732081480.247087,92.000000,0.000000,4308.077148,4286.538574,4319.230957,4299.871582,4288.461426,4298.077148,4252.436035,4340.000000,4330.000000,4311.153809,4417.307617,4465.769043,4334.230957,4376.282227,1718.000000,0.000000,13.000000,,,,0.000000,2.000000,2.000000,0.000000,2.000000,2.000000,2.000000,1.000000,2.000000,4.000000,4.000000,4.000000,4.000000,2.000000,4.000000,25.000000,,,,,,,,,,,,,,,,,23.000000,0.000000,0.626388,0.395142,-0.585449,0.329773,0.964962,0.114272,0.000488,-76.573204,63.214783,29.486895
1732081480.252257,1732081480.254895,93.000000,0.000000,4305.128418,4277.820313,4319.487305,4298.333496,4281.538574,4295.897461,4249.487305,4333.846191,4324.358887,4307.563965,4412.436035,4452.820313,4326.666504,4369.615234,1663.000000,0.000000,13.000000,,,,0.000000,2.000000,2.000000,0.000000,2.000000,2.000000,2.000000,1.000000,2.000000,4.000000,4.000000,4.000000,4.000000,2.000000,4.000000,25.000000,,,,,,,,,,,,,,,,,,,,,,,,,,,,
1732081480.260065,1732081480.262903,94.000000,0.000000,4307.051270,4277.307617,4322.436035,4298.717773,4295.769043,4295.512695,4250.769043,4334.358887,4320.512695,4305.641113,4410.897461,4448.205078,4326.922852,4370.897461,1352.000000,0.000000,13.000000,,,,0.000000,2.000000,2.000000,0.000000,2.000000,2.000000,2.000000,1.000000,2.000000,4.000000,4.000000,4.000000,4.000000,2.000000,4.000000,25.000000,,,,,,,,,,,,,,,,,,,,,,,,,,,,
1732081480.267873,1732081480.270711,95.000000,0.000000,4306.282227,4282.051270,4323.589844,4293.077148,4297.051270,4296.025879,4251.794922,4339.102539,4324.871582,4308.077148,4416.538574,4461.666504,4332.563965,4376.538574,1484.000000,0.000000,13.000000,,,,0.000000,2.000000,2.000000,0.000000,2.000000,2.000000,2.000000,1.000000,2.000000,4.000000,4.000000,4.000000,4.000000,2.000000,4.000000,25.000000,,,,,,,,,,,,,,,,,,,,,,,,,,,,
1732081480.275681,1732081480.278419,96.000000,0.000000,4305.641113,4285.512695,4321.794922,4296.282227,4282.563965,4298.333496,4254.487305,4339.871582,4330.256348,4309.615234,4417.436035,4469.487305,4330.897461,4373.077148,1718.000000,0.000000,13.000000,,,,0.000000,2.000000,2.000000,0.000000,2.000000,2.000000,2.000000,1.000000,2.000000,4.000000,4.000000,4.000000,4.000000,2.000000,4.000000,25.000000,,,,,,,,,,,,,,,,,24.000000,0.000000,0.625163,0.395752,-0.586243,0.329956,0.970822,0.095226,-0.012209,-76.669296,63.062305,29.389385
1732081480.283490,1732081480.286228,97.000000,0.000000,4306.410156,4286.282227,4319.615234,4307.692383,4282.436035,4300.512695,4253.077148,4338.717773,4328.589844,4306.666504,4415.128418,4462.563965,4330.384766,4368.461426,1663.000000,0.000000,13.000000,,,,0.000000,2.000000,2.000000,0.000000,2.000000,2.000000,2.000000,1.000000,2.000000,4.000000,4.000000,4.000000,4.000000,2.000000,4.000000,25.000000,,,,,,,,,,,,,,,,,,,,,,,,,,,,
1732081480.291298,1732081480.293836,98.000000,0.000000,4304.487305,4285.000000,4322.692383,4307.436035,4299.358887,4302.563965,4251.666504,4339.358887,4324.871582,4303.205078,4415.000000,4459.871582,4332.948730,4370.384766,1352.000000,0.000000,13.000000,,,,0.000000,2.000000,2.000000,0.000000,2.000000,2.000000,2.000000,1.000000,2.000000,4.000000,4.000000,4.000000,4.000000,2.000000,4.000000,25.000000,,,,,,,,,,,,,,,,,,,,,,,,,,,,
1732081480.299106,1732081480.301644,99.000000,0.000000,4303.077148,4287.307617,4324.615234,4302.179688,4305.000000,4304.487305,4251.153809,4340.641113,4324.230957,4302.948730,4414.615234,4461.922852,4331.025879,4371.025879,1484.000000,0.000000,13.000000,,,,0.000000,2.000000,2.000000,0.000000,2.000000,2.000000,2.000000,1.000000,2.000000,4.000000,4.000000,4.000000,4.000000,2.000000,4.000000,25.000000,,,,,,,,,,,,,,,,,,,,,,,,,,,,
1732081480.306914,1732081480.309352,100.000000,0.000000,4304.102539,4291.410156,4324.102539,4304.615234,4289.487305,4302.692383,4252.436035,4342.692383,4325.897461,4307.436035,4413.333496,4460.512695,4329.743652,4368.846191,1718.000000,0.000000,13.000000,,,,0.000000,2.000000,2.000000,0.000000,2.000000,2.000000,2.000000,1.000000,2.000000,4.000000,4.000000,4.000000,4.000000,2.000000,4.000000,25.000000,,,,,,,,,,,,,,,,,25.000000,0.000000,0.624742,0.395874,-0.586609,0.329956,0.964962,0.097668,-0.001465,-76.815460,62.923801,29.303736
1732081480.314723,1732081480.317161,101.000000,0.000000,4302.692383,4289.358887,4321.153809,4306.538574,4282.307617,4300.769043,4249.358887,4339.871582,4326.282227,4310.384766,4411.666504,4457.436035,4329.615234,4367.692383,1663.000000,0.000000,13.000000,,,,0.000000,2.000000,2.000000,0.000000,2.000000,2.000000,2.000000,1.000000,2.000000,4.000000,4.000000,4.000000,4.000000,2.000000,4.000000,25.000000,,,,,,,,,,,,,,,,,,,,,,,,,,,,
1732081480.322531,1732081480.324769,102.000000,0.000000,4301.282227,4286.538574,4321.282227,4305.769043,4287.820313,4300.000000,4247.307617,4334.487305,4324.743652,4307.692383,4412.948730,4456.666504,4328.717773,4370.000000,1352.000000,0.000000,13.000000,,,,0.000000,2.000000,2.000000,0.000000,2.000000,2.000000,2.000000,1.000000,2.000000,4.000000,4.000000,4.000000,4.000000,2.000000,4.000000,25.000000,,,,,,,,,,,,,,,,,,,,,,,,,,,,
1732081480.330339,1732081480.332577,103.000000,0.000000,4304.358887,4287.563965,4323.333496,4301.282227,4285.641113,4297.820313,4247.820313,4333.205078,4325.897461,4306.410156,4414.743652,4462.820313,4331.153809,4374.871582,1484.000000,0.000000,13.000000,,,,0.000000,2.000000,2.000000,0.000000,2.000000,2.000000,2.000000,1.000000,2.000000,4.000000,4.000000,4.000000,4.000000,2.000000,4.000000,25.000000,,,,,,,,,,,,,,,,,,,,,,,,,,,,
1732081480.338148,1732081480.340485,104.000000,0.000000,4303.846191,4288.589844,4325.384766,4297.051270,4283.974121,4295.897461,4251.025879,4336.025879,4329.871582,4309.358887,4414.743652,4469.871582,4331.666504,4373.717773,1718.000000,0.000000,13.000000,,,,0.000000,2.000000,2.000000,0.000000,2.000000,2.000000,2.000000,1.000000,2.000000,4.000000,4.000000,4.000000,4.000000,2.000000,4.000000,25.000000,,,,,,,,,,,,,,,,,26.000000,0.000000,0.624609,0.395813,-0.586792,0.329956,0.964962,0.084971,-0.001465,-76.723854,62.843281,29.277693
1732081480.345956,1732081480.348294,105.000000,0.000000,4298.974121,4290.769043,4323.205078,4303.077148,4296.922852,4297.820313,4252.820313,4340.256348,4329.487305,4310.641113,4414.615234,4468.077148,4329.358887,4365.897461,1663.000000,0.000000,13.000000,,,,0.000000,2.000000,2.000000,0.000000,2.000000,2.000000,2.000000,1.000000,2.000000,4.000000,4.000000,4.000000,4.000000,2.000000,4.000000,25.000000,,,,,,,,,,,,,,,,,,,,,,,,,,,,
1732081480.353764,1732081480.356302,106.000000,0.000000,4294.743652,4289.871582,4319.871582,4305.128418,4296.922852,4298.461426,4252.436035,4337.820313,4325.769043,4306.153809,4410.000000,4459.743652,4327.820313,4364.102539,1352.000000,0.000000,13.000000,,,,0.000000,2.000000,2.000000,0.000000,2.000000,2.000000,2.000000,1.000000,2.000000,4.000000,4.000000,4.000000,4.000000,2.000000,4.000000,25.000000,,,,,,,,,,,,,,,,,,,,,,,,,,,,
1732081480.361572,1732081480.364110,107.000000,0.000000,4293.589844,4288.974121,4320.897461,4298.077148,4274.871582,4294.615234,4251.794922,4331.410156,4326.025879,4302.563965,4408.589844,4458.333496,4325.384766,4368.461426,1484.000000,0.000000,13.000000,,,,0.000000,2.000000,2.000000,0.000000,2.000000,2.000000,2.000000,1.000000,2.000000,4.000000,4.000000,4.000000,4.000000,2.000000,4.000000,25.000000,,,,,,,,,,,,,,,,,,,,,,,,,,,,
1732081480.369380,1732081480.372018,108.000000,0.000000,4296.538574,4290.128418,4321.538574,4297.692383,4271.282227,4293.717773,4250.256348,4332.948730,4325.384766,4301.666504,4409.743652,4454.743652,4324.230957,4366.153809,1718.000000,0.000000,13.000000,,,,0.000000,2.000000,2.000000,0.000000,2.000000,2.000000,2.000000,1.000000,2.000000,4.000000,4.000000,4.000000,4.000000,2.000000,4.000000,25.000000,,,,,,,,,,,,,,,,,27.000000,0.000000,0.624535,0.395630,-0.587097,0.329773,0.974728,0.100598,-0.015139,-76.859657,63.091389,29.334930
1732081480.377189,1732081480.379826,109.000000,0.000000,4295.641113,4288.846191,4318.205078,4300.128418,4294.358887,4295.897461,4251.282227,4335.897461,4320.512695,4300.641113,4403.333496,4440.128418,4323.846191,4359.230957,1663.000000,0.000000,13.000000,,,,0.000000,2.000000,2.000000,0.000000,2.000000,2.000000,2.000000,1.000000,2.000000,4.000000,4.000000,4.000000,4.000000,2.000000,4.000000,25.000000,,,,,,,,,,,,,,,,,,,,,,,,,,,,
1732081480.384997,1732081480.387435,110.000000,0.000000,4292.563965,4288.846191,4317.179688,4299.743652,4302.948730,4298.205078,4253.846191,4333.589844,4321.282227,4302.692383,4398.461426,4441.666504,4324.871582,4361.794922,1352.000000,0.000000,13.000000,,,,0.000000,2.000000,2.000000,0.000000,2.000000,2.000000,2.000000,1.000000,2.000000,4.000000,4.000000,4.000000,4.000000,2.000000,4.000000,25.000000,,,,,,,,,,,,,,,,,,,,,,,,,,,,
1732081480.392805,1732081480.395243,111.000000,0.000000,4293.974121,4289.743652,4322.948730,4297.051270,4285.384766,4297.179688,4257.307617,4333.461426,4328.461426,4306.410156,4402.307617,4457.692383,4327.307617,4368.974121,1484.000000,0.000000,13.000000,,,,0.000000,2.000000,2.000000,0.000000,2.000000,2.000000,2.000000,1.000000,2.000000,4.000000,4.000000,4.000000,4.000000,2.000000,4.000000,25.000000,,,,,,,,,,,,,,,,,,,,,,,,,,,,
1732081480.400613,1732081480.402951,112.000000,0.000000,4293.077148,4286.153809,4323.205078,4296.153809,4276.666504,4296.410156,4257.436035,4335.128418,4329.102539,4305.512695,4402.692383,4457.563965,4326.666504,4367.436035,1718.000000,0.000000,13.000000,,,,0.000000,2.000000,2.000000,0.000000,2.000000,2.000000,2.000000,1.000000,2.000000,4.000000,4.000000,4.000000,4.000000,2.000000,4.000000,25.000000,,,,,,,,,,,,,,,,,28.000000,0.000000,0.624394,0.395569,-0.587219,0.329895,0.965450,0.095226,-0.016115,-76.806320,62.982357,29.299627
1732081480.408422,1732081480.410759,113.000000,0.000000,4284.871582,4285.897461,4318.974121,4299.230957,4287.051270,4298.077148,4257.051270,4332.436035,4324.230957,4302.051270,4398.461426,4451.025879,4322.820313,4360.128418,1663.000000,0.000000,13.000000,,,,0.000000,2.000000,2.000000,0.000000,2.000000,2.000000,2.000000,1.000000,2.000000,4.000000,4.000000,4.000000,4.000000,2.000000,4.000000,25.000000,,,,,,,,,,,,,,,,,,,,,,,,,,,,
1732081480.416230,1732081480.418367,114.000000,0.000000,4281.794922,4289.871582,4320.256348,4301.922852,4298.589844,4297.563965,4257.307617,4333.461426,4324.743652,4302.948730,4397.179688,4456.794922,4323.077148,4361.153809,1352.000000,0.000000,13.000000,,,,0.000000,2.000000,2.000000,0.000000,2.000000,2.000000,2.000000,1.000000,2.000000,4.000000,4.000000,4.000000,4.000000,2.000000,4.000000,25.000000,,,,,,,,,,,,,,,,,,,,,,,,,,,,
1732081480.424038,1732081480.426175,115.000000,0.000000,4287.307617,4287.692383,4323.589844,4298.205078,4291.794922,4296.538574,4259.871582,4335.384766,4325.769043,4305.000000,4398.205078,4460.641113,4325.128418,4367.820313,1484.000000,0.000000,13.000000,,,,0.000000,2.000000,2.000000,0.000000,2.000000,2.000000,2.000000,1.000000,2.000000,4.000000,4.000000,4.000000,4.000000,2.000000,4.000000,25.000000,,,,,,,,,,,,,,,,,,,,,,,,,,,,
1732081480.431847,1732081480.434083,116.000000,0.000000,4287.179688,4288.333496,4320.897461,4299.230957,4279.102539,4299.487305,4258.589844,4333.846191,4323.333496,4304.230957,4401.666504,4451.538574,4323.846191,4367.692383,1718.000000,0.000000,13.000000,,,,0.000000,2.000000,2.000000,0.000000,2.000000,2.000000,2.000000,1.000000,2.000000,4.000000,4.000000,4.000000,4.000000,2.000000,4.000000,25.000000,,,,,,,,,,,,,,,,,29.000000,0.000000,0.624433,0.395508,-0.587219,0.329895,0.977170,0.104505,-0.008790,-76.916458,63.030712,29.329365
1732081480.439655,1732081480.441891,117.000000,0.000000,4283.205078,4291.538574,4321.538574,4303.461426,4280.512695,4304.743652,4258.205078,4335.128418,4324.743652,4305.128418,4405.641113,4446.282227,4324.102539,4365.897461,1663.000000,0.000000,13.000000,,,,0.000000,2.000000,2.000000,0.000000,2.000000,2.000000,2.000000,1.000000,2.000000,4.000000,4.000000,4.000000,4.000000,2.000000,4.000000,25.000000,,,,,,,,,,,,,,,,,,,,,,,,,,,,
1732081480.447463,1732081480.449899,118.000000,0.000000,4285.897461,4290.641113,4322.436035,4301.153809,4291.282227,4304.615234,4257.563965,4337.692383,4328.846191,4307.436035,4407.051270,4448.717773,4330.000000,4368.589844,1352.000000,0.000000,13.000000,,,,0.000000,2.000000,2.000000,0.000000,2.000000,2.000000,2.000000,1.000000,2.000000,4.000000,4.000000,4.000000,4.000000,2.000000,4.000000,25.000000,,,,,,,,,,,,,,,,,,,,,,,,,,,,
1732081480.455271,1732081480.457707,119.000000,0.000000,4291.282227,4294.358887,4322.820313,4303.717773,4293.717773,4302.436035,4253.974121,4336.922852,4329.102539,4308.461426,4406.153809,4452.307617,4332.948730,4371.282227,1484.000000,0.000000,13.000000,,,,0.000000,2.000000,2.000000,0.000000,2.000000,2.000000,2.000000,1.000000,2.000000,4.000000,4.000000,4.000000,4.000000,2.000000,4.000000,25.000000,,,,,,,,,,,,,,,,,,,,,,,,,,,,
1732081480.463079,1732081480.465616,120.000000,0.000000,4292.436035,4298.333496,4323.205078,4308.974121,4288.717773,4306.538574,4249.230957,4334.102539,4328.077148,4307.820313,4406.025879,4452.692383,4328.717773,4368.717773,1718.000000,0.000000,13.000000,,,,0.000000,2.000000,2.000000,0.000000,2.000000,2.000000,2.000000,1.000000,2.000000,4.000000,4.000000,4.000000,4.000000,2.000000,4.000000,25.000000,,,,,,,,,,,,,,,,,30.000000,0.000000,0.624610,0.395081,-0.587524,0.329529,0.978635,0.100110,-0.006837,-77.280663,63.088207,29.203451
1732081480.470888,1732081480.473424,121.000000,0.000000,4290.000000,4293.974121,4325.128418,4303.077148,4293.974121,4308.333496,4248.205078,4334.871582,4327.820313,4305.256348,4408.974121,4452.948730,4327.051270,4362.307617,1663.000000,0.000000,13.000000,,,,0.000000,2.000000,2.000000,0.000000,2.000000,2.000000,2.000000,1.000000,2.000000,4.000000,4.000000,4.000000,4.000000,2.000000,4.000000,25.000000,,,,,,,,,,,,,,,,,,,,,,,,,,,,
1732081480.478696,1732081480.481032,122.000000,0.000000,4290.256348,4293.461426,4323.461426,4301.282227,4304.743652,4300.512695,4245.769043,4337.563965,4328.717773,4306.153809,4412.051270,4451.410156,4329.615234,4361.794922,1352.000000,0.000000,13.000000,,,,0.000000,2.000000,2.000000,0.000000,2.000000,2.000000,2.000000,1.000000,2.000000,4.000000,4.000000,4.000000,4.000000,2.000000,4.000000,25.000000,,,,,,,,,,,,,,,,,,,,,,,,,,,,
1732081480.486504,1732081480.488840,123.000000,0.000000,4293.205078,4300.512695,4323.974121,4311.666504,4300.769043,4295.641113,4238.717773,4337.948730,4328.846191,4307.948730,4410.384766,4445.769043,4329.230957,4367.436035,1484.000000,0.000000,13.000000,,,,0.000000,2.000000,2.000000,0.000000,2.000000,2.000000,2.000000,1.000000,2.000000,4.000000,4.000000,4.000000,4.000000,2.000000,4.000000,25.000000,,,,,,,,,,,,,,,,,,,,,,,,,,,,
1732081480.494312,1732081480.496748,124.000000,0.000000,4295.512695,4298.589844,4325.897461,4317.307617,4285.000000,4300.384766,4235.897461,4335.256348,4326.922852,4304.358887,4407.436035,4444.487305,4329.230957,4369.358887,1718.000000,0.000000,13.000000,,,,0.000000,2.000000,2.000000,0.000000,2.000000,2.000000,2.000000,1.000000,2.000000,4.000000,4.000000,4.000000,4.000000,2.000000,4.000000,25.000000,,,,,,,,,,,,,,,,,31.000000,0.000000,0.624515,0.394958,-0.587708,0.329529,0.980588,0.095715,-0.001953,-77.325668,63.101448,29.018129
1732081480.502121,1732081480.504556,125.000000,0.000000,4296.538574,4295.641113,4322.563965,4310.512695,4284.743652,4304.871582,4234.487305,4332.948730,4327.948730,4303.717773,4408.846191,4447.051270,4329.487305,4367.692383,1663.000000,0.000000,13.000000,,,,0.000000,2.000000,2.000000,0.000000,2.000000,2.000000,2.000000,1.000000,2.000000,4.000000,4.000000,4.000000,4.000000,2.000000,4.000000,25.000000,,,,,,,,,,,,,,,,,,,,,,,,,,,,
1732081480.509929,1732081480.512564,126.000000,0.000000,4290.641113,4297.179688,4320.256348,4303.846191,4302.948730,4303.461426,4232.948730,4334.615234,4330.769043,4309.615234,4410.897461,4446.794922,4329.615234,4369.615234,1352.000000,0.000000,13.000000,,,,0.000000,2.000000,2.000000,0.000000,2.000000,2.000000,2.000000,1.000000,2.000000,4.000000,4.000000,4.000000,4.000000,2.000000,4.000000,25.000000,,,,,,,,,,,,,,,,,,,,,,,,,,,,
1732081480.517737,1732081480.520372,127.000000,0.000000,4282.563965,4296.282227,4319.230957,4302.179688,4303.846191,4302.692383,4231.410156,4337.307617,4330.384766,4310.256348,4408.333496,4444.487305,4333.333496,4367.307617,13.000000,0.000000,13.000000,,,,0.000000,2.000000,2.000000,0.000000,2.000000,2.000000,2.000000,1.000000,2.000000,4.000000,4.000000,4.000000,4.000000,2.000000,4.000000,25.000000,,,,,,,,,,,,,,,,,,,,,,,,,,,,
1732081480.525545,1732081480.528281,0.000000,0.000000,4278.974121,4293.333496,4319.615234,4301.282227,4287.948730,4308.333496,4233.717773,4340.128418,4329.743652,4304.615234,4400.897461,4450.384766,4331.794922,4358.461426,11.000000,0.000000,13.000000,,,,0.000000,2.000000,2.000000,0.000000,2.000000,2.000000,2.000000,1.000000,2.000000,4.000000,4.000000,4.000000,4.000000,2.000000,4.000000,25.000000,,,,,,,,,,,,,,,,,0.000000,0.000000,0.624555,0.394592,-0.588013,0.329346,0.986449,0.093761,-0.004395,-77.287125,63.098839,28.943018
1732081480.533354,1732081480.536089,1.000000,0.000000,4283.974121,4294.230957,4320.512695,4301.922852,4288.205078,4309.743652,4231.153809,4339.615234,4331.282227,4306.410156,4398.589844,4457.692383,4324.615234,4358.205078,1284.000000,0.000000,13.000000,,,,0.000000,2.000000,2.000000,0.000000,2.000000,2.000000,2.000000,1.000000,2.000000,4.000000,4.000000,4.000000,4.000000,2.000000,4.000000,25.000000,,,,,,,,,,,,,,,,,,,,,,,,,,,,
