title:three4, start timestamp:1732083113.210986, stop timestamp:1732083166.057327, headset type:EPOCX, headset serial:E5020C3A, headset firmware:730, channels:67, sampling rate:eeg_128;mot_32, samples:6769      , version:2.2, 
Timestamp,OriginalTimestamp,EEG.Counter,EEG.Interpolated,EEG.AF3,EEG.F7,EEG.F3,EEG.FC5,EEG.T7,EEG.P7,EEG.O1,EEG.O2,EEG.P8,EEG.T8,EEG.FC6,EEG.F4,EEG.F8,EEG.AF4,EEG.RawCq,EEG.Battery,EEG.BatteryPercent,MarkerIndex,MarkerType,MarkerValueInt,EEG.MarkerHardware,CQ.AF3,CQ.F7,CQ.F3,CQ.FC5,CQ.T7,CQ.P7,CQ.O1,CQ.O2,CQ.P8,CQ.T8,CQ.FC6,CQ.F4,CQ.F8,CQ.AF4,CQ.Overall,EQ.SampleRateQuality,EQ.OVERALL,EQ.AF3,EQ.F7,EQ.F3,EQ.FC5,EQ.T7,EQ.P7,EQ.O1,EQ.O2,EQ.P8,EQ.T8,EQ.FC6,EQ.F4,EQ.F8,EQ.AF4,MOT.CounterMems,MOT.InterpolatedMems,MOT.Q0,MOT.Q1,MOT.Q2,MOT.Q3,MOT.AccX,MOT.AccY,MOT.AccZ,MOT.MagX,MOT.MagY,MOT.MagZ
1732083113.210986,1732083113.212851,73.000000,0.000000,4318.846191,4315.000000,4323.205078,4331.410156,4313.717773,4303.717773,4328.589844,4328.461426,4324.230957,4310.384766,4456.282227,4483.333496,4346.922852,4410.256348,1501.000000,0.000000,7.000000,,,,0.000000,2.000000,2.000000,0.000000,2.000000,2.000000,2.000000,0.000000,2.000000,4.000000,4.000000,4.000000,4.000000,2.000000,4.000000,16.666666,,,,,,,,,,,,,,,,,,,,,,,,,,,,
1732083113.218794,1732083113.220859,74.000000,0.000000,4318.974121,4314.743652,4322.563965,4326.410156,4307.436035,4307.948730,4330.256348,4327.436035,4319.358887,4315.384766,4457.692383,4482.692383,4346.666504,4406.538574,1362.000000,0.000000,7.000000,,,,0.000000,2.000000,2.000000,0.000000,2.000000,2.000000,2.000000,0.000000,2.000000,4.000000,4.000000,4.000000,4.000000,2.000000,4.000000,16.666666,,,,,,,,,,,,,,,,,,,,,,,,,,,,
1732083113.226602,1732083113.228668,75.000000,0.000000,4321.794922,4312.436035,4323.589844,4326.538574,4306.922852,4305.384766,4335.641113,4333.461426,4321.025879,4309.615234,4456.922852,4482.436035,4347.436035,4406.538574,1503.000000,0.000000,7.000000,,,,0.000000,2.000000,2.000000,0.000000,2.000000,2.000000,2.000000,0.000000,2.000000,4.000000,4.000000,4.000000,4.000000,2.000000,4.000000,16.666666,,,,,,,,,,,,,,,,,,,,,,,,,,,,
1732083113.234411,1732083113.236376,76.000000,0.000000,4320.897461,4309.487305,4321.025879,4328.717773,4311.666504,4303.205078,4333.205078,4335.000000,4323.077148,4297.948730,4453.589844,4481.666504,4342.307617,4407.179688,1733.000000,0.000000,7.000000,,,,0.000000,2.000000,2.000000,0.000000,2.000000,2.000000,2.000000,0.000000,2.000000,4.000000,4.000000,4.000000,4.000000,2.000000,4.000000,16.666666,,,,,,,,,,,,,,,,,19.000000,0.000000,0.631888,0.386963,-0.592468,0.316162,0.969357,0.110853,-0.002442,-75.055847,62.612206,31.377354
1732083113.242219,1732083113.244184,77.000000,0.000000,4319.871582,4311.153809,4322.179688,4323.205078,4309.358887,4305.641113,4329.487305,4334.230957,4323.461426,4305.000000,4449.358887,4482.436035,4340.897461,4408.974121,1629.000000,0.000000,7.000000,,,,0.000000,2.000000,2.000000,0.000000,2.000000,2.000000,2.000000,0.000000,2.000000,4.000000,4.000000,4.000000,4.000000,2.000000,4.000000,16.666666,,,,,,,,,,,,,,,,,,,,,,,,,,,,
1732083113.250027,1732083113.251792,78.000000,0.000000,4319.102539,4311.153809,4322.179688,4319.487305,4304.743652,4306.794922,4328.846191,4337.179688,4321.794922,4312.563965,4446.922852,4477.179688,4342.436035,4405.641113,1362.000000,0.000000,7.000000,,,,0.000000,2.000000,2.000000,0.000000,2.000000,2.000000,2.000000,0.000000,2.000000,4.000000,4.000000,4.000000,4.000000,2.000000,4.000000,16.666666,1.000000,8.333333,2.000000,2.000000,0.000000,2.000000,2.000000,2.000000,0.000000,2.000000,1.000000,4.000000,4.000000,4.000000,2.000000,4.000000,,,,,,,,,,,,
1732083113.257836,1732083113.259601,79.000000,0.000000,4312.179688,4303.717773,4323.846191,4319.615234,4303.461426,4307.307617,4332.563965,4337.436035,4321.666504,4305.897461,4448.974121,4467.563965,4340.897461,4399.358887,1503.000000,0.000000,7.000000,,,,0.000000,2.000000,2.000000,0.000000,2.000000,2.000000,2.000000,0.000000,2.000000,4.000000,4.000000,4.000000,4.000000,2.000000,4.000000,16.666666,,,,,,,,,,,,,,,,,,,,,,,,,,,,
1732083113.265644,1732083113.267309,80.000000,0.000000,4307.563965,4305.000000,4321.538574,4318.974121,4303.974121,4308.461426,4333.974121,4336.282227,4327.563965,4307.179688,4453.974121,4470.256348,4344.230957,4403.077148,1733.000000,0.000000,7.000000,,,,0.000000,2.000000,2.000000,0.000000,2.000000,2.000000,2.000000,0.000000,2.000000,4.000000,4.000000,4.000000,4.000000,2.000000,4.000000,16.666666,,,,,,,,,,,,,,,,,20.000000,0.000000,0.631440,0.388489,-0.592468,0.315186,0.958613,0.111830,-0.009767,-75.401901,62.587551,31.288990
1732083113.273452,1732083113.275117,81.000000,0.000000,4312.179688,4313.077148,4322.948730,4319.358887,4308.717773,4308.846191,4333.974121,4337.436035,4328.333496,4311.025879,4458.846191,4481.666504,4350.384766,4409.871582,1629.000000,0.000000,7.000000,,,,0.000000,2.000000,2.000000,0.000000,2.000000,2.000000,2.000000,0.000000,2.000000,4.000000,4.000000,4.000000,4.000000,2.000000,4.000000,16.666666,,,,,,,,,,,,,,,,,,,,,,,,,,,,
1732083113.281260,1732083113.282726,82.000000,0.000000,4316.538574,4314.230957,4322.563965,4324.102539,4309.358887,4306.794922,4332.051270,4336.153809,4320.256348,4303.717773,4459.230957,4483.846191,4348.717773,4410.000000,1362.000000,0.000000,7.000000,,,,0.000000,2.000000,2.000000,0.000000,2.000000,2.000000,2.000000,0.000000,2.000000,4.000000,4.000000,4.000000,4.000000,2.000000,4.000000,16.666666,,,,,,,,,,,,,,,,,,,,,,,,,,,,
1732083113.289069,1732083113.290534,83.000000,0.000000,4315.897461,4313.077148,4321.025879,4328.717773,4303.333496,4306.666504,4331.794922,4335.769043,4321.922852,4298.846191,4453.974121,4481.666504,4345.000000,4406.922852,1503.000000,0.000000,7.000000,,,,0.000000,2.000000,2.000000,0.000000,2.000000,2.000000,2.000000,0.000000,2.000000,4.000000,4.000000,4.000000,4.000000,2.000000,4.000000,16.666666,,,,,,,,,,,,,,,,,,,,,,,,,,,,
1732083113.296877,1732083113.298242,84.000000,0.000000,4314.358887,4314.615234,4321.410156,4328.461426,4314.743652,4307.948730,4333.461426,4335.256348,4326.666504,4298.205078,4450.384766,4479.871582,4346.282227,4406.153809,1733.000000,0.000000,7.000000,,,,0.000000,2.000000,2.000000,0.000000,2.000000,2.000000,2.000000,0.000000,2.000000,4.000000,4.000000,4.000000,4.000000,2.000000,4.000000,16.666666,,,,,,,,,,,,,,,,,21.000000,0.000000,0.630087,0.392761,-0.592224,0.313049,0.966915,0.184105,-0.048834,-75.515541,62.667583,31.100750
1732083113.304685,1732083113.306050,85.000000,0.000000,4315.256348,4315.769043,4324.102539,4327.436035,4324.871582,4307.563965,4333.461426,4330.641113,4321.410156,4298.077148,4451.025879,4474.615234,4345.000000,4403.717773,1629.000000,0.000000,7.000000,,,,0.000000,2.000000,2.000000,0.000000,2.000000,2.000000,2.000000,0.000000,2.000000,4.000000,4.000000,4.000000,4.000000,2.000000,4.000000,16.666666,,,,,,,,,,,,,,,,,,,,,,,,,,,,
1732083113.312493,1732083113.313659,86.000000,0.000000,4315.897461,4315.641113,4323.974121,4328.077148,4307.692383,4308.717773,4332.307617,4329.743652,4321.410156,4299.487305,4451.025879,4471.153809,4343.461426,4401.153809,1362.000000,0.000000,7.000000,,,,0.000000,2.000000,2.000000,0.000000,2.000000,2.000000,2.000000,0.000000,2.000000,4.000000,4.000000,4.000000,4.000000,2.000000,4.000000,16.666666,,,,,,,,,,,,,,,,,,,,,,,,,,,,
1732083113.320301,1732083113.321467,87.000000,0.000000,4314.871582,4315.512695,4321.410156,4329.615234,4296.922852,4314.102539,4333.589844,4336.025879,4330.128418,4300.641113,4453.333496,4469.871582,4346.922852,4404.487305,1503.000000,0.000000,7.000000,,,,0.000000,2.000000,2.000000,0.000000,2.000000,2.000000,2.000000,0.000000,2.000000,4.000000,4.000000,4.000000,4.000000,2.000000,4.000000,16.666666,,,,,,,,,,,,,,,,,,,,,,,,,,,,
1732083113.328110,1732083113.329175,88.000000,0.000000,4316.666504,4316.025879,4320.769043,4333.333496,4309.871582,4314.615234,4335.897461,4337.307617,4331.794922,4305.897461,4458.974121,4468.333496,4352.692383,4405.641113,1733.000000,0.000000,7.000000,,,,0.000000,2.000000,2.000000,0.000000,2.000000,2.000000,2.000000,0.000000,2.000000,4.000000,4.000000,4.000000,4.000000,2.000000,4.000000,16.666666,,,,,,,,,,,,,,,,,22.000000,0.000000,0.629532,0.394043,-0.592285,0.312439,0.954218,0.191430,-0.041997,-75.442589,62.769077,31.091606
1732083113.335918,1732083113.336983,89.000000,0.000000,4319.230957,4313.333496,4320.256348,4333.205078,4311.410156,4309.358887,4334.102539,4332.051270,4327.436035,4315.512695,4460.384766,4467.820313,4354.102539,4401.538574,1629.000000,0.000000,7.000000,,,,0.000000,2.000000,2.000000,0.000000,2.000000,2.000000,2.000000,0.000000,2.000000,4.000000,4.000000,4.000000,4.000000,2.000000,4.000000,16.666666,,,,,,,,,,,,,,,,,,,,,,,,,,,,
1732083113.343726,1732083113.344991,90.000000,0.000000,4314.358887,4306.922852,4322.179688,4323.974121,4295.000000,4310.897461,4336.153809,4338.589844,4329.743652,4313.846191,4453.205078,4469.102539,4348.461426,4396.538574,1362.000000,0.000000,7.000000,,,,0.000000,2.000000,2.000000,0.000000,2.000000,2.000000,2.000000,0.000000,2.000000,4.000000,4.000000,4.000000,4.000000,2.000000,4.000000,16.666666,,,,,,,,,,,,,,,,,,,,,,,,,,,,
1732083113.351534,1732083113.352800,91.000000,0.000000,4313.333496,4304.102539,4321.922852,4321.538574,4291.410156,4318.077148,4337.563965,4346.538574,4331.410156,4306.794922,4449.871582,4471.410156,4345.641113,4396.282227,1503.000000,0.000000,7.000000,,,,0.000000,2.000000,2.000000,0.000000,2.000000,2.000000,2.000000,0.000000,2.000000,4.000000,4.000000,4.000000,4.000000,2.000000,4.000000,16.666666,,,,,,,,,,,,,,,,,,,,,,,,,,,,
1732083113.359343,1732083113.360708,92.000000,0.000000,4313.461426,4304.230957,4320.128418,4326.922852,4298.461426,4316.538574,4339.230957,4340.641113,4325.641113,4309.871582,4454.615234,4475.769043,4349.871582,4396.666504,1733.000000,0.000000,7.000000,,,,0.000000,2.000000,2.000000,0.000000,2.000000,2.000000,2.000000,0.000000,2.000000,4.000000,4.000000,4.000000,4.000000,2.000000,4.000000,16.666666,,,,,,,,,,,,,,,,,23.000000,0.000000,0.628551,0.396484,-0.592468,0.310974,0.934196,0.216335,-0.053229,-75.355164,62.637951,30.984201
1732083113.367151,1732083113.368516,93.000000,0.000000,4308.077148,4302.563965,4318.077148,4326.922852,4300.000000,4313.717773,4339.230957,4340.128418,4326.025879,4316.025879,4458.205078,4479.743652,4349.743652,4398.077148,1629.000000,0.000000,7.000000,,,,0.000000,2.000000,2.000000,0.000000,2.000000,2.000000,2.000000,0.000000,2.000000,4.000000,4.000000,4.000000,4.000000,2.000000,4.000000,16.666666,,,,,,,,,,,,,,,,,,,,,,,,,,,,
1732083113.374959,1732083113.376124,94.000000,0.000000,4305.256348,4302.436035,4324.871582,4323.333496,4297.051270,4319.102539,4342.692383,4350.769043,4331.025879,4307.948730,4452.307617,4483.333496,4341.538574,4396.922852,1362.000000,0.000000,7.000000,,,,0.000000,2.000000,2.000000,0.000000,2.000000,2.000000,2.000000,0.000000,2.000000,4.000000,4.000000,4.000000,4.000000,2.000000,4.000000,16.666666,,,,,,,,,,,,,,,,,,,,,,,,,,,,
1732083113.382768,1732083113.383933,95.000000,0.000000,4309.102539,4304.102539,4327.820313,4320.256348,4293.333496,4319.102539,4342.820313,4349.871582,4326.666504,4296.666504,4447.820313,4483.717773,4338.974121,4394.743652,1503.000000,0.000000,7.000000,,,,0.000000,2.000000,2.000000,0.000000,2.000000,2.000000,2.000000,0.000000,2.000000,4.000000,4.000000,4.000000,4.000000,2.000000,4.000000,16.666666,,,,,,,,,,,,,,,,,,,,,,,,,,,,
1732083113.390576,1732083113.391841,96.000000,0.000000,4316.538574,4306.282227,4332.692383,4318.589844,4287.051270,4303.333496,4341.410156,4332.179688,4313.717773,4299.358887,4455.897461,4482.820313,4347.692383,4403.974121,1733.000000,0.000000,7.000000,,,,0.000000,2.000000,2.000000,0.000000,2.000000,2.000000,2.000000,0.000000,2.000000,4.000000,4.000000,4.000000,4.000000,2.000000,4.000000,16.666666,,,,,,,,,,,,,,,,,24.000000,0.000000,0.626820,0.400146,-0.592224,0.310242,0.990355,0.154804,-0.045904,-75.269348,62.633408,30.853870
1732083113.398384,1732083113.399649,97.000000,0.000000,4323.974121,4312.436035,4337.307617,4324.230957,4286.153809,4290.512695,4339.743652,4321.153809,4309.743652,4306.538574,4463.461426,4485.384766,4355.769043,4415.641113,1629.000000,0.000000,7.000000,,,,0.000000,2.000000,2.000000,0.000000,2.000000,2.000000,2.000000,0.000000,2.000000,4.000000,4.000000,4.000000,4.000000,2.000000,4.000000,16.666666,,,,,,,,,,,,,,,,,,,,,,,,,,,,
1732083113.406192,1732083113.407257,98.000000,0.000000,4322.692383,4314.230957,4336.922852,4325.512695,4294.871582,4297.948730,4341.410156,4321.922852,4317.051270,4305.128418,4455.384766,4486.922852,4351.538574,4412.307617,1362.000000,0.000000,7.000000,,,,0.000000,2.000000,2.000000,0.000000,2.000000,2.000000,2.000000,0.000000,2.000000,4.000000,4.000000,4.000000,4.000000,2.000000,4.000000,16.666666,,,,,,,,,,,,,,,,,,,,,,,,,,,,
1732083113.414001,1732083113.415066,99.000000,0.000000,4311.282227,4309.487305,4331.794922,4317.051270,4297.692383,4311.922852,4347.692383,4336.922852,4324.615234,4299.743652,4441.666504,4481.025879,4339.230957,4400.769043,1503.000000,0.000000,7.000000,,,,0.000000,2.000000,2.000000,0.000000,2.000000,2.000000,2.000000,0.000000,2.000000,4.000000,4.000000,4.000000,4.000000,2.000000,4.000000,16.666666,,,,,,,,,,,,,,,,,,,,,,,,,,,,
1732083113.421809,1732083113.422774,100.000000,0.000000,4305.512695,4303.333496,4327.563965,4312.563965,4288.205078,4319.230957,4349.487305,4353.205078,4326.922852,4296.794922,4440.000000,4475.128418,4333.077148,4395.769043,1733.000000,0.000000,7.000000,,,,0.000000,2.000000,2.000000,0.000000,2.000000,2.000000,2.000000,0.000000,2.000000,4.000000,4.000000,4.000000,4.000000,2.000000,4.000000,16.666666,,,,,,,,,,,,,,,,,25.000000,0.000000,0.624940,0.400269,-0.593262,0.311890,0.976193,0.129410,-0.043951,-75.233170,62.563061,30.731634
1732083113.429617,1732083113.430582,101.000000,0.000000,4311.666504,4300.256348,4320.897461,4315.897461,4291.794922,4315.256348,4341.282227,4342.692383,4326.922852,4296.794922,4444.743652,4475.000000,4339.358887,4398.589844,1629.000000,0.000000,7.000000,,,,0.000000,2.000000,2.000000,0.000000,2.000000,2.000000,2.000000,0.000000,2.000000,4.000000,4.000000,4.000000,4.000000,2.000000,4.000000,16.666666,,,,,,,,,,,,,,,,,,,,,,,,,,,,
1732083113.437425,1732083113.438590,102.000000,0.000000,4319.487305,4306.025879,4310.128418,4318.974121,4307.820313,4301.410156,4330.769043,4322.051270,4325.384766,4302.307617,4445.897461,4469.615234,4347.051270,4402.436035,1362.000000,0.000000,7.000000,,,,0.000000,2.000000,2.000000,0.000000,2.000000,2.000000,2.000000,0.000000,2.000000,4.000000,4.000000,4.000000,4.000000,2.000000,4.000000,16.666666,,,,,,,,,,,,,,,,,,,,,,,,,,,,
1732083113.445234,1732083113.446398,103.000000,0.000000,4321.025879,4307.307617,4312.051270,4318.846191,4300.897461,4298.205078,4333.589844,4322.563965,4323.717773,4310.128418,4445.256348,4468.846191,4346.282227,4404.102539,1503.000000,0.000000,7.000000,,,,0.000000,2.000000,2.000000,0.000000,2.000000,2.000000,2.000000,0.000000,2.000000,4.000000,4.000000,4.000000,4.000000,2.000000,4.000000,16.666666,,,,,,,,,,,,,,,,,,,,,,,,,,,,
1732083113.453042,1732083113.454306,104.000000,0.000000,4317.179688,4296.538574,4316.282227,4316.282227,4283.461426,4307.948730,4336.922852,4331.410156,4323.205078,4311.410156,4447.051270,4476.025879,4343.077148,4400.641113,1733.000000,0.000000,7.000000,,,,0.000000,2.000000,2.000000,0.000000,2.000000,2.000000,2.000000,0.000000,2.000000,4.000000,4.000000,4.000000,4.000000,2.000000,4.000000,16.666666,,,,,,,,,,,,,,,,,26.000000,0.000000,0.624093,0.399475,-0.594238,0.312744,0.976193,0.129410,-0.043951,-75.600540,62.392746,30.750957
1732083113.460850,1732083113.462115,105.000000,0.000000,4315.256348,4291.538574,4321.282227,4316.153809,4287.436035,4306.794922,4335.128418,4327.307617,4319.615234,4306.922852,4450.897461,4478.333496,4346.153809,4400.000000,1629.000000,0.000000,7.000000,,,,0.000000,2.000000,2.000000,0.000000,2.000000,2.000000,2.000000,0.000000,2.000000,4.000000,4.000000,4.000000,4.000000,2.000000,4.000000,16.666666,,,,,,,,,,,,,,,,,,,,,,,,,,,,
1732083113.468659,1732083113.470123,106.000000,0.000000,4314.871582,4296.922852,4318.461426,4319.102539,4300.128418,4302.179688,4334.743652,4328.589844,4321.538574,4303.717773,4447.563965,4470.897461,4345.128418,4400.384766,1362.000000,0.000000,7.000000,,,,0.000000,2.000000,2.000000,0.000000,2.000000,2.000000,2.000000,0.000000,2.000000,4.000000,4.000000,4.000000,4.000000,2.000000,4.000000,16.666666,,,,,,,,,,,,,,,,,,,,,,,,,,,,
1732083113.476467,1732083113.477931,107.000000,0.000000,4315.256348,4300.384766,4313.461426,4319.743652,4300.769043,4311.794922,4338.077148,4340.897461,4327.563965,4302.692383,4443.077148,4474.615234,4338.461426,4398.205078,1503.000000,0.000000,7.000000,,,,0.000000,2.000000,2.000000,0.000000,2.000000,2.000000,2.000000,0.000000,2.000000,4.000000,4.000000,4.000000,4.000000,2.000000,4.000000,16.666666,,,,,,,,,,,,,,,,,,,,,,,,,,,,
1732083113.484275,1732083113.485839,108.000000,0.000000,4320.641113,4305.641113,4306.282227,4324.358887,4300.128418,4313.846191,4333.974121,4342.948730,4323.846191,4309.358887,4457.692383,4491.025879,4350.000000,4409.102539,1733.000000,0.000000,7.000000,,,,0.000000,2.000000,2.000000,0.000000,2.000000,2.000000,2.000000,0.000000,2.000000,4.000000,4.000000,4.000000,4.000000,2.000000,4.000000,16.666666,,,,,,,,,,,,,,,,,27.000000,0.000000,0.620780,0.394714,-0.597473,0.319153,0.967403,0.075693,-0.002930,-75.569771,62.383125,30.429941
1732083113.492083,1732083113.493647,109.000000,0.000000,4323.461426,4308.333496,4305.512695,4325.384766,4300.384766,4299.615234,4329.358887,4332.692383,4316.538574,4316.794922,4471.922852,4495.000000,4365.000000,4423.461426,1629.000000,0.000000,7.000000,,,,0.000000,2.000000,2.000000,0.000000,2.000000,2.000000,2.000000,0.000000,2.000000,4.000000,4.000000,4.000000,4.000000,2.000000,4.000000,16.666666,,,,,,,,,,,,,,,,,,,,,,,,,,,,
1732083113.499892,1732083113.501655,110.000000,0.000000,4320.256348,4301.025879,4302.179688,4319.743652,4298.205078,4295.256348,4325.641113,4323.717773,4319.615234,4314.615234,4463.846191,4484.358887,4358.461426,4420.256348,1362.000000,0.000000,7.000000,,,,0.000000,2.000000,2.000000,0.000000,2.000000,2.000000,2.000000,0.000000,2.000000,4.000000,4.000000,4.000000,4.000000,2.000000,4.000000,16.666666,,,,,,,,,,,,,,,,,,,,,,,,,,,,
1732083113.507700,1732083113.509463,111.000000,0.000000,4321.410156,4300.256348,4297.692383,4321.025879,4304.871582,4304.487305,4323.974121,4327.436035,4324.102539,4311.025879,4455.769043,4479.487305,4348.974121,4412.307617,1503.000000,0.000000,7.000000,,,,0.000000,2.000000,2.000000,0.000000,2.000000,2.000000,2.000000,0.000000,2.000000,4.000000,4.000000,4.000000,4.000000,2.000000,4.000000,16.666666,,,,,,,,,,,,,,,,,,,,,,,,,,,,
1732083113.515508,1732083113.517371,112.000000,0.000000,4327.563965,4308.589844,4298.846191,4327.307617,4310.128418,4308.077148,4324.358887,4333.717773,4325.000000,4309.871582,4460.128418,4488.717773,4353.974121,4415.256348,1733.000000,0.000000,7.000000,,,,0.000000,2.000000,2.000000,0.000000,2.000000,2.000000,2.000000,0.000000,2.000000,4.000000,4.000000,4.000000,4.000000,2.000000,4.000000,16.666666,,,,,,,,,,,,,,,,,28.000000,0.000000,0.618780,0.389893,-0.599121,0.325806,0.987425,0.042486,0.012697,-75.703178,62.371998,30.178253
1732083113.523317,1732083113.525180,113.000000,0.000000,4325.769043,4307.436035,4302.948730,4326.666504,4307.179688,4302.436035,4326.922852,4334.743652,4327.692383,4305.384766,4462.051270,4490.641113,4356.666504,4416.153809,1629.000000,0.000000,7.000000,,,,0.000000,2.000000,2.000000,0.000000,2.000000,2.000000,2.000000,0.000000,2.000000,4.000000,4.000000,4.000000,4.000000,2.000000,4.000000,16.666666,,,,,,,,,,,,,,,,,,,,,,,,,,,,
1732083113.531125,1732083113.533188,114.000000,0.000000,4322.692383,4300.384766,4308.205078,4324.102539,4306.025879,4302.820313,4326.794922,4333.205078,4325.512695,4305.128418,4459.487305,4484.615234,4350.384766,4414.743652,1362.000000,0.000000,7.000000,,,,0.000000,2.000000,2.000000,0.000000,2.000000,2.000000,2.000000,0.000000,2.000000,4.000000,4.000000,4.000000,4.000000,2.000000,4.000000,16.666666,,,,,,,,,,,,,,,,,,,,,,,,,,,,
1732083113.538933,1732083113.540996,115.000000,0.000000,4328.077148,4301.025879,4307.692383,4328.333496,4310.256348,4306.794922,4326.538574,4331.282227,4318.077148,4306.538574,4453.461426,4486.025879,4348.461426,4417.820313,1503.000000,0.000000,7.000000,,,,0.000000,2.000000,2.000000,0.000000,2.000000,2.000000,2.000000,0.000000,2.000000,4.000000,4.000000,4.000000,4.000000,2.000000,4.000000,16.666666,,,,,,,,,,,,,,,,,,,,,,,,,,,,
1732083113.546741,1732083113.548904,116.000000,0.000000,4332.563965,4305.512695,4307.948730,4327.948730,4312.820313,4300.769043,4328.077148,4327.820313,4312.307617,4296.282227,4449.743652,4492.307617,4350.769043,4419.487305,1733.000000,0.000000,7.000000,,,,0.000000,2.000000,2.000000,0.000000,2.000000,2.000000,2.000000,0.000000,2.000000,4.000000,4.000000,4.000000,4.000000,2.000000,4.000000,16.666666,,,,,,,,,,,,,,,,,29.000000,0.000000,0.617451,0.387634,-0.599854,0.329651,0.964473,0.045904,0.045416,-75.732910,62.121319,29.986052
1732083113.554550,1732083113.556712,117.000000,0.000000,4333.717773,4303.333496,4305.641113,4324.230957,4308.205078,4295.000000,4326.794922,4327.051270,4313.077148,4294.487305,4454.743652,4493.205078,4351.666504,4422.563965,1629.000000,0.000000,7.000000,,,,0.000000,2.000000,2.000000,0.000000,2.000000,2.000000,2.000000,0.000000,2.000000,4.000000,4.000000,4.000000,4.000000,2.000000,4.000000,16.666666,,,,,,,,,,,,,,,,,,,,,,,,,,,,
1732083113.562358,1732083113.564720,118.000000,0.000000,4340.897461,4299.102539,4309.487305,4326.794922,4305.000000,4296.794922,4328.846191,4332.436035,4315.384766,4298.717773,4453.589844,4493.077148,4349.230957,4425.897461,1362.000000,0.000000,7.000000,,,,0.000000,2.000000,2.000000,0.000000,2.000000,2.000000,2.000000,0.000000,2.000000,4.000000,4.000000,4.000000,4.000000,2.000000,4.000000,16.666666,,,,,,,,,,,,,,,,,,,,,,,,,,,,
1732083113.570166,1732083113.572528,119.000000,0.000000,4349.358887,4304.743652,4309.743652,4327.179688,4309.230957,4296.794922,4329.102539,4333.333496,4314.743652,4295.512695,4452.051270,4491.922852,4354.615234,4428.205078,1503.000000,0.000000,7.000000,,,,0.000000,2.000000,2.000000,0.000000,2.000000,2.000000,2.000000,0.000000,2.000000,4.000000,4.000000,4.000000,4.000000,2.000000,4.000000,16.666666,,,,,,,,,,,,,,,,,,,,,,,,,,,,
1732083113.577974,1732083113.580437,120.000000,0.000000,4354.743652,4310.641113,4311.794922,4318.974121,4304.487305,4295.512695,4327.563965,4328.205078,4312.948730,4295.897461,4459.358887,4490.128418,4364.358887,4431.922852,1733.000000,0.000000,7.000000,,,,0.000000,2.000000,2.000000,0.000000,2.000000,2.000000,2.000000,0.000000,2.000000,4.000000,4.000000,4.000000,4.000000,2.000000,4.000000,16.666666,,,,,,,,,,,,,,,,,30.000000,0.000000,0.616704,0.386841,-0.600159,0.331421,0.965450,0.034184,0.024905,-75.846992,61.876602,29.893702
1732083113.585783,1732083113.588245,121.000000,0.000000,4367.820313,4313.846191,4312.820313,4320.384766,4293.333496,4297.436035,4326.282227,4326.922852,4312.436035,4294.743652,4461.794922,4492.692383,4363.077148,4439.358887,1629.000000,0.000000,7.000000,,,,0.000000,2.000000,2.000000,0.000000,2.000000,2.000000,2.000000,0.000000,2.000000,4.000000,4.000000,4.000000,4.000000,2.000000,4.000000,16.666666,,,,,,,,,,,,,,,,,,,,,,,,,,,,
1732083113.593591,1732083113.596253,122.000000,0.000000,4376.153809,4314.615234,4317.179688,4326.538574,4304.102539,4293.717773,4329.102539,4328.461426,4311.666504,4286.666504,4458.077148,4496.666504,4360.512695,4445.897461,1362.000000,0.000000,7.000000,,,,0.000000,2.000000,2.000000,0.000000,2.000000,2.000000,2.000000,0.000000,2.000000,4.000000,4.000000,4.000000,4.000000,2.000000,4.000000,16.666666,,,,,,,,,,,,,,,,,,,,,,,,,,,,
1732083113.601399,1732083113.604061,123.000000,0.000000,4372.307617,4311.922852,4318.589844,4322.948730,4316.025879,4288.589844,4331.410156,4327.692383,4311.666504,4288.846191,4458.461426,4495.000000,4365.384766,4444.871582,1503.000000,0.000000,7.000000,,,,0.000000,2.000000,2.000000,0.000000,2.000000,2.000000,2.000000,0.000000,2.000000,4.000000,4.000000,4.000000,4.000000,2.000000,4.000000,16.666666,,,,,,,,,,,,,,,,,,,,,,,,,,,,
1732083113.609207,1732083113.611769,124.000000,0.000000,4374.487305,4311.282227,4321.025879,4320.641113,4299.230957,4290.256348,4334.487305,4325.128418,4310.769043,4297.820313,4459.487305,4492.051270,4369.230957,4442.563965,1733.000000,0.000000,7.000000,,,,0.000000,2.000000,2.000000,0.000000,2.000000,2.000000,2.000000,0.000000,2.000000,4.000000,4.000000,4.000000,4.000000,2.000000,4.000000,16.666666,,,,,,,,,,,,,,,,,31.000000,0.000000,0.613246,0.388123,-0.600159,0.336304,0.989379,0.064461,0.004883,-76.129395,61.621712,29.742231
1732083113.617016,1732083113.619577,125.000000,0.000000,4385.512695,4316.666504,4321.410156,4325.384766,4284.487305,4291.922852,4331.922852,4326.922852,4311.538574,4300.000000,4465.384766,4493.077148,4371.794922,4452.563965,1629.000000,0.000000,7.000000,,,,0.000000,2.000000,2.000000,0.000000,2.000000,2.000000,2.000000,0.000000,2.000000,4.000000,4.000000,4.000000,4.000000,2.000000,4.000000,16.666666,,,,,,,,,,,,,,,,,,,,,,,,,,,,
1732083113.624824,1732083113.627186,126.000000,0.000000,4387.820313,4318.717773,4322.307617,4324.743652,4290.128418,4290.256348,4330.256348,4330.384766,4315.512695,4298.077148,4470.897461,4498.589844,4371.922852,4461.538574,1362.000000,0.000000,7.000000,,,,0.000000,2.000000,2.000000,0.000000,2.000000,2.000000,2.000000,0.000000,2.000000,4.000000,4.000000,4.000000,4.000000,2.000000,4.000000,16.666666,,,,,,,,,,,,,,,,,,,,,,,,,,,,
1732083113.632632,1732083113.634994,127.000000,0.000000,4389.871582,4317.436035,4327.051270,4327.179688,4291.794922,4288.205078,4332.563965,4327.051270,4311.922852,4294.230957,4468.461426,4505.769043,4369.615234,4459.743652,7.000000,0.000000,7.000000,,,,0.000000,2.000000,2.000000,0.000000,2.000000,2.000000,2.000000,0.000000,2.000000,4.000000,4.000000,4.000000,4.000000,2.000000,4.000000,16.666666,,,,,,,,,,,,,,,,,,,,,,,,,,,,
1732083113.640440,1732083113.642702,0.000000,0.000000,4396.666504,4320.769043,4328.333496,4332.948730,4286.538574,4285.128418,4335.000000,4325.512695,4305.641113,4290.128418,4471.410156,4508.589844,4376.025879,4462.436035,0.000000,0.000000,7.000000,,,,0.000000,2.000000,2.000000,0.000000,2.000000,2.000000,2.000000,0.000000,2.000000,4.000000,4.000000,4.000000,4.000000,2.000000,4.000000,16.666666,,,,,,,,,,,,,,,,,0.000000,0.000000,0.610928,0.390137,-0.599670,0.339050,1.028934,0.034672,-0.003418,-76.318146,61.250256,29.616207
1732083113.648249,1732083113.650511,1.000000,0.000000,4395.384766,4321.666504,4325.384766,4329.102539,4286.410156,4285.384766,4335.769043,4332.563965,4310.128418,4292.948730,4475.769043,4508.077148,4378.461426,4465.128418,1312.000000,0.000000,7.000000,,,,0.000000,2.000000,2.000000,0.000000,2.000000,2.000000,2.000000,0.000000,2.000000,4.000000,4.000000,4.000000,4.000000,2.000000,4.000000,16.666666,,,,,,,,,,,,,,,,,,,,,,,,,,,,
1732083113.656057,1732083113.658119,2.000000,0.000000,4390.512695,4318.589844,4324.230957,4326.025879,4285.512695,4286.922852,4335.512695,4332.051270,4311.794922,4294.230957,4474.230957,4505.256348,4368.846191,4459.615234,1227.000000,0.000000,7.000000,,,,0.000000,2.000000,2.000000,0.000000,2.000000,2.000000,2.000000,0.000000,2.000000,4.000000,4.000000,4.000000,4.000000,2.000000,4.000000,16.666666,,,,,,,,,,,,,,,,,,,,,,,,,,,,
1732083113.663865,1732083113.665927,3.000000,0.000000,4391.922852,4313.846191,4329.487305,4325.128418,4280.000000,4282.563965,4333.333496,4326.025879,4308.205078,4291.538574,4474.871582,4504.230957,4371.666504,4462.436035,1185.000000,0.000000,7.000000,,,,0.000000,2.000000,2.000000,0.000000,2.000000,2.000000,2.000000,0.000000,2.000000,4.000000,4.000000,4.000000,4.000000,2.000000,4.000000,16.666666,,,,,,,,,,,,,,,,,,,,,,,,,,,,
1732083113.671673,1732083113.673636,4.000000,0.000000,4393.333496,4308.461426,4330.256348,4319.743652,4279.487305,4279.871582,4335.256348,4328.589844,4311.666504,4294.615234,4471.282227,4505.256348,4378.974121,4468.589844,1207.000000,0.000000,7.000000,,,,0.000000,2.000000,2.000000,0.000000,2.000000,2.000000,2.000000,0.000000,2.000000,4.000000,4.000000,4.000000,4.000000,2.000000,4.000000,16.666666,,,,,,,,,,,,,,,,,1.000000,0.000000,0.610928,0.390137,-0.599670,0.339050,1.008424,0.036626,-0.019045,-76.276031,61.024372,29.319128
1732083113.679482,1732083113.681444,5.000000,0.000000,4388.461426,4305.769043,4327.692383,4315.512695,4281.153809,4282.436035,4340.512695,4323.589844,4308.974121,4298.077148,4462.563965,4506.538574,4370.769043,4466.153809,1090.000000,0.000000,7.000000,,,,0.000000,2.000000,2.000000,0.000000,2.000000,2.000000,2.000000,0.000000,2.000000,4.000000,4.000000,4.000000,4.000000,2.000000,4.000000,16.666666,,,,,,,,,,,,,,,,,,,,,,,,,,,,
1732083113.687290,1732083113.689452,6.000000,0.000000,4385.897461,4307.948730,4328.205078,4318.846191,4282.436035,4282.948730,4336.922852,4313.077148,4299.102539,4296.666504,4462.692383,4505.384766,4366.922852,4467.692383,30.000000,0.000000,7.000000,,,,0.000000,2.000000,2.000000,0.000000,2.000000,2.000000,2.000000,0.000000,2.000000,4.000000,4.000000,4.000000,4.000000,2.000000,4.000000,16.666666,,,,,,,,,,,,,,,,,,,,,,,,,,,,
1732083113.695098,1732083113.697260,7.000000,0.000000,4389.358887,4311.025879,4332.436035,4324.358887,4284.230957,4278.974121,4334.743652,4317.692383,4301.922852,4296.025879,4466.538574,4506.153809,4370.384766,4472.051270,1204.000000,0.000000,7.000000,,,,0.000000,2.000000,2.000000,0.000000,2.000000,2.000000,2.000000,0.000000,2.000000,4.000000,4.000000,4.000000,4.000000,2.000000,4.000000,16.666666,,,,,,,,,,,,,,,,,,,,,,,,,,,,
1732083113.702906,1732083113.705168,8.000000,0.000000,4391.794922,4311.794922,4329.743652,4325.000000,4282.179688,4279.743652,4338.205078,4329.102539,4313.205078,4302.179688,4468.846191,4507.051270,4372.820313,4472.051270,1371.000000,0.000000,7.000000,,,,0.000000,2.000000,2.000000,0.000000,2.000000,2.000000,2.000000,0.000000,2.000000,4.000000,4.000000,4.000000,4.000000,2.000000,4.000000,16.666666,,,,,,,,,,,,,,,,,2.000000,0.000000,0.605862,0.394226,-0.600159,0.342529,0.971310,0.098645,-0.046392,-76.380249,60.731407,29.105160
1732083113.710715,1732083113.712976,9.000000,0.000000,4391.538574,4311.025879,4327.051270,4323.333496,4275.769043,4283.974121,4342.436035,4330.641113,4316.666504,4304.230957,4474.615234,4505.512695,4380.641113,4477.051270,1506.000000,0.000000,7.000000,,,,0.000000,2.000000,2.000000,0.000000,2.000000,2.000000,2.000000,0.000000,2.000000,4.000000,4.000000,4.000000,4.000000,2.000000,4.000000,16.666666,,,,,,,,,,,,,,,,,,,,,,,,,,,,
1732083113.718523,1732083113.720585,10.000000,0.000000,4391.794922,4314.358887,4328.333496,4326.794922,4286.666504,4283.461426,4338.205078,4319.487305,4311.538574,4301.666504,4477.051270,4508.461426,4385.256348,4479.358887,1369.000000,0.000000,7.000000,,,,0.000000,2.000000,2.000000,0.000000,2.000000,2.000000,2.000000,0.000000,2.000000,4.000000,4.000000,4.000000,4.000000,2.000000,4.000000,16.666666,,,,,,,,,,,,,,,,,,,,,,,,,,,,
1732083113.726331,1732083113.728393,11.000000,0.000000,4392.179688,4319.743652,4329.358887,4330.128418,4295.897461,4280.641113,4335.512695,4313.846191,4306.410156,4301.025879,4474.102539,4515.256348,4380.641113,4474.871582,1506.000000,0.000000,7.000000,,,,0.000000,2.000000,2.000000,0.000000,2.000000,2.000000,2.000000,0.000000,2.000000,4.000000,4.000000,4.000000,4.000000,2.000000,4.000000,16.666666,,,,,,,,,,,,,,,,,,,,,,,,,,,,
1732083113.734140,1732083113.736101,12.000000,0.000000,4394.230957,4318.077148,4325.897461,4329.358887,4280.512695,4286.922852,4337.307617,4323.077148,4311.922852,4296.538574,4476.410156,4515.512695,4382.692383,4479.615234,1735.000000,0.000000,7.000000,,,,0.000000,2.000000,2.000000,0.000000,2.000000,2.000000,2.000000,0.000000,2.000000,4.000000,4.000000,4.000000,4.000000,2.000000,4.000000,16.666666,,,,,,,,,,,,,,,,,3.000000,0.000000,0.603107,0.397705,-0.599976,0.343689,0.991332,0.062508,-0.048834,-76.568001,60.600773,28.771847
1732083113.741948,1732083113.743909,13.000000,0.000000,4396.025879,4315.897461,4327.563965,4332.692383,4272.436035,4297.307617,4339.871582,4326.538574,4315.256348,4291.153809,4480.256348,4508.974121,4387.436035,4484.487305,1634.000000,0.000000,7.000000,,,,0.000000,2.000000,2.000000,0.000000,2.000000,2.000000,2.000000,0.000000,2.000000,4.000000,4.000000,4.000000,4.000000,2.000000,4.000000,16.666666,,,,,,,,,,,,,,,,,,,,,,,,,,,,
1732083113.749756,1732083113.751518,14.000000,0.000000,4391.794922,4318.077148,4329.102539,4336.153809,4281.794922,4296.153809,4338.589844,4323.333496,4308.846191,4292.692383,4479.230957,4505.897461,4383.333496,4477.692383,1369.000000,0.000000,7.000000,,,,0.000000,2.000000,2.000000,0.000000,2.000000,2.000000,2.000000,0.000000,2.000000,4.000000,4.000000,4.000000,4.000000,2.000000,4.000000,16.666666,1.000000,16.666666,2.000000,2.000000,0.000000,2.000000,2.000000,2.000000,0.000000,2.000000,3.000000,4.000000,4.000000,4.000000,2.000000,4.000000,,,,,,,,,,,,
1732083113.757564,1732083113.759326,15.000000,0.000000,4389.358887,4318.974121,4328.846191,4331.153809,4281.282227,4292.436035,4339.743652,4327.563965,4307.948730,4293.974121,4477.307617,4507.307617,4379.358887,4472.820313,1506.000000,0.000000,7.000000,,,,0.000000,2.000000,2.000000,0.000000,2.000000,2.000000,2.000000,0.000000,2.000000,4.000000,4.000000,4.000000,4.000000,2.000000,4.000000,16.666666,,,,,,,,,,,,,,,,,,,,,,,,,,,,
1732083113.765373,1732083113.767234,16.000000,0.000000,4394.102539,4319.615234,4330.256348,4329.615234,4279.615234,4296.410156,4339.871582,4324.358887,4308.846191,4291.922852,4475.769043,4508.846191,4379.615234,4474.871582,0.000000,0.000000,7.000000,,,,0.000000,2.000000,2.000000,0.000000,2.000000,2.000000,2.000000,0.000000,2.000000,4.000000,4.000000,4.000000,4.000000,2.000000,4.000000,16.666666,,,,,,,,,,,,,,,,,4.000000,0.000000,0.600661,0.398071,-0.601379,0.345093,0.990844,0.039556,-0.043951,-76.823418,60.411629,28.310196
1732083113.773181,1732083113.775042,17.000000,0.000000,4395.769043,4318.717773,4332.436035,4333.205078,4286.666504,4292.948730,4336.538574,4317.948730,4306.410156,4295.897461,4474.358887,4508.205078,4377.948730,4475.384766,0.000000,0.000000,7.000000,,,,0.000000,2.000000,2.000000,0.000000,2.000000,2.000000,2.000000,0.000000,2.000000,4.000000,4.000000,4.000000,4.000000,2.000000,4.000000,16.666666,,,,,,,,,,,,,,,,,,,,,,,,,,,,
1732083113.780989,1732083113.783050,18.000000,0.000000,4388.717773,4315.128418,4328.974121,4331.794922,4285.000000,4282.179688,4334.358887,4326.794922,4309.743652,4299.615234,4472.436035,4506.666504,4376.410156,4472.948730,0.000000,0.000000,7.000000,,,,0.000000,2.000000,2.000000,0.000000,2.000000,2.000000,2.000000,0.000000,2.000000,4.000000,4.000000,4.000000,4.000000,2.000000,4.000000,16.666666,,,,,,,,,,,,,,,,,,,,,,,,,,,,
1732083113.788798,1732083113.790859,19.000000,0.000000,4384.871582,4312.563965,4326.922852,4330.000000,4278.589844,4278.974121,4333.205078,4322.051270,4312.307617,4297.820313,4473.077148,4511.282227,4378.077148,4473.333496,0.000000,0.000000,7.000000,,,,0.000000,2.000000,2.000000,0.000000,2.000000,2.000000,2.000000,0.000000,2.000000,4.000000,4.000000,4.000000,4.000000,2.000000,4.000000,16.666666,,,,,,,,,,,,,,,,,,,,,,,,,,,,
1732083113.796606,1732083113.798767,20.000000,0.000000,4386.922852,4313.717773,4332.436035,4329.230957,4278.589844,4282.179688,4333.077148,4306.282227,4307.307617,4303.589844,4476.794922,4518.077148,4379.230957,4474.871582,0.000000,0.000000,7.000000,,,,0.000000,2.000000,2.000000,0.000000,2.000000,2.000000,2.000000,0.000000,2.000000,4.000000,4.000000,4.000000,4.000000,2.000000,4.000000,16.666666,,,,,,,,,,,,,,,,,5.000000,0.000000,0.600661,0.398071,-0.601379,0.345093,0.990844,0.039556,-0.043951,-77.030296,60.258419,27.936258
1732083113.804414,1732083113.806575,21.000000,0.000000,4387.948730,4314.102539,4335.384766,4326.538574,4280.128418,4285.128418,4336.025879,4316.538574,4309.102539,4306.666504,4476.282227,4517.820313,4377.692383,4474.102539,0.000000,0.000000,7.000000,,,,0.000000,2.000000,2.000000,0.000000,2.000000,2.000000,2.000000,0.000000,2.000000,4.000000,4.000000,4.000000,4.000000,2.000000,4.000000,16.666666,,,,,,,,,,,,,,,,,,,,,,,,,,,,
1732083113.812222,1732083113.814583,22.000000,0.000000,4390.512695,4314.358887,4333.205078,4325.384766,4282.563965,4287.948730,4338.717773,4328.717773,4314.743652,4301.153809,4478.717773,4518.974121,4379.871582,4472.948730,0.000000,0.000000,7.000000,,,,0.000000,2.000000,2.000000,0.000000,2.000000,2.000000,2.000000,0.000000,2.000000,4.000000,4.000000,4.000000,4.000000,2.000000,4.000000,16.666666,,,,,,,,,,,,,,,,,,,,,,,,,,,,
1732083113.820031,1732083113.822391,23.000000,0.000000,4391.410156,4314.743652,4329.102539,4327.563965,4281.666504,4291.922852,4337.307617,4320.128418,4314.358887,4304.743652,4484.102539,4524.102539,4384.615234,4475.128418,0.000000,0.000000,7.000000,,,,0.000000,2.000000,2.000000,0.000000,2.000000,2.000000,2.000000,0.000000,2.000000,4.000000,4.000000,4.000000,4.000000,2.000000,4.000000,16.666666,,,,,,,,,,,,,,,,,,,,,,,,,,,,
1732083113.827839,1732083113.830299,24.000000,0.000000,4384.871582,4313.461426,4327.820313,4328.717773,4283.717773,4292.563965,4338.589844,4319.102539,4316.025879,4312.307617,4484.871582,4524.102539,4383.717773,4475.641113,0.000000,0.000000,7.000000,,,,0.000000,2.000000,2.000000,0.000000,2.000000,2.000000,2.000000,0.000000,2.000000,4.000000,4.000000,4.000000,4.000000,2.000000,4.000000,16.666666,,,,,,,,,,,,,,,,,6.000000,0.000000,0.597205,0.394653,-0.607117,0.344971,0.983030,0.041021,-0.050299,-77.071213,60.065987,27.680037
1732083113.835647,1732083113.838107,25.000000,0.000000,4380.641113,4314.871582,4330.384766,4325.384766,4288.333496,4290.769043,4339.615234,4330.128418,4319.358887,4310.256348,4483.717773,4520.769043,4385.512695,4473.077148,0.000000,0.000000,7.000000,,,,0.000000,2.000000,2.000000,0.000000,2.000000,2.000000,2.000000,0.000000,2.000000,4.000000,4.000000,4.000000,4.000000,2.000000,4.000000,16.666666,,,,,,,,,,,,,,,,,,,,,,,,,,,,
1732083113.843455,1732083113.846115,26.000000,0.000000,4381.794922,4316.025879,4334.358887,4323.077148,4286.666504,4294.102539,4340.000000,4325.256348,4316.794922,4310.256348,4485.512695,4521.666504,4386.922852,4469.743652,0.000000,0.000000,7.000000,,,,0.000000,2.000000,2.000000,0.000000,2.000000,2.000000,2.000000,0.000000,2.000000,4.000000,4.000000,4.000000,4.000000,2.000000,4.000000,16.666666,,,,,,,,,,,,,,,,,,,,,,,,,,,,
1732083113.851264,1732083113.853924,27.000000,0.000000,4384.615234,4318.846191,4331.410156,4328.333496,4284.871582,4296.922852,4337.436035,4313.589844,4314.358887,4314.230957,4488.077148,4520.512695,4382.436035,4465.769043,0.000000,0.000000,7.000000,,,,0.000000,2.000000,2.000000,0.000000,2.000000,2.000000,2.000000,0.000000,2.000000,4.000000,4.000000,4.000000,4.000000,2.000000,4.000000,16.666666,,,,,,,,,,,,,,,,,,,,,,,,,,,,
1732083113.859072,1732083113.861832,28.000000,0.000000,4385.128418,4322.692383,4329.615234,4330.897461,4288.333496,4289.487305,4335.897461,4318.461426,4313.974121,4309.615234,4486.410156,4514.743652,4381.666504,4463.333496,0.000000,0.000000,7.000000,,,,0.000000,2.000000,2.000000,0.000000,2.000000,2.000000,2.000000,0.000000,2.000000,4.000000,4.000000,4.000000,4.000000,2.000000,4.000000,16.666666,,,,,,,,,,,,,,,,,7.000000,0.000000,0.596602,0.394165,-0.608337,0.344421,0.980100,0.061043,-0.068856,-77.057678,59.896782,27.402496
1732083113.866880,1732083113.869640,29.000000,0.000000,4379.871582,4320.000000,4329.615234,4325.641113,4293.077148,4286.922852,4334.615234,4327.563965,4314.102539,4308.974121,4480.897461,4509.102539,4384.102539,4460.769043,0.000000,0.000000,7.000000,,,,0.000000,2.000000,2.000000,0.000000,2.000000,2.000000,2.000000,0.000000,2.000000,4.000000,4.000000,4.000000,4.000000,2.000000,4.000000,16.666666,,,,,,,,,,,,,,,,,,,,,,,,,,,,
1732083113.874688,1732083113.877648,30.000000,0.000000,4372.307617,4317.948730,4331.538574,4324.358887,4293.717773,4297.436035,4337.692383,4324.102539,4314.230957,4306.538574,4473.974121,4507.307617,4381.025879,4457.692383,0.000000,0.000000,7.000000,,,,0.000000,2.000000,2.000000,0.000000,2.000000,2.000000,2.000000,0.000000,2.000000,4.000000,4.000000,4.000000,4.000000,2.000000,4.000000,16.666666,,,,,,,,,,,,,,,,,,,,,,,,,,,,
1732083113.882497,1732083113.885456,31.000000,0.000000,4371.666504,4321.666504,4332.179688,4327.692383,4295.000000,4301.794922,4338.461426,4316.153809,4312.051270,4293.846191,4472.692383,4507.820313,4374.871582,4456.922852,0.000000,0.000000,7.000000,,,,0.000000,2.000000,2.000000,0.000000,2.000000,2.000000,2.000000,0.000000,2.000000,4.000000,4.000000,4.000000,4.000000,2.000000,4.000000,16.666666,,,,,,,,,,,,,,,,,,,,,,,,,,,,
1732083113.890305,1732083113.893364,32.000000,0.000000,4367.436035,4318.333496,4332.179688,4326.282227,4297.563965,4295.512695,4338.589844,4322.179688,4313.846191,4294.358887,4474.358887,4508.589844,4369.871582,4452.307617,0.000000,0.000000,7.000000,,,,0.000000,2.000000,2.000000,0.000000,2.000000,2.000000,2.000000,0.000000,2.000000,4.000000,4.000000,4.000000,4.000000,2.000000,4.000000,16.666666,,,,,,,,,,,,,,,,,8.000000,0.000000,0.596087,0.393738,-0.609497,0.343750,0.980100,0.061043,-0.068856,-77.085052,59.651394,27.357689
1732083113.898113,1732083113.901172,33.000000,0.000000,4358.461426,4310.512695,4330.641113,4321.794922,4296.025879,4294.871582,4338.717773,4333.333496,4322.948730,4310.256348,4473.077148,4510.128418,4372.307617,4449.487305,0.000000,0.000000,7.000000,,,,0.000000,2.000000,2.000000,0.000000,2.000000,2.000000,2.000000,0.000000,2.000000,4.000000,4.000000,4.000000,4.000000,2.000000,4.000000,16.666666,,,,,,,,,,,,,,,,,,,,,,,,,,,,
1732083113.905921,1732083113.909180,34.000000,0.000000,4362.820313,4314.743652,4328.333496,4320.128418,4290.769043,4297.436035,4338.461426,4333.974121,4323.846191,4316.794922,4476.666504,4510.897461,4382.307617,4457.820313,0.000000,0.000000,7.000000,,,,0.000000,2.000000,2.000000,0.000000,2.000000,2.000000,2.000000,0.000000,2.000000,4.000000,4.000000,4.000000,4.000000,2.000000,4.000000,16.666666,,,,,,,,,,,,,,,,,,,,,,,,,,,,
1732083113.913730,1732083113.916989,35.000000,0.000000,4371.025879,4323.589844,4328.077148,4327.051270,4291.153809,4295.256348,4335.256348,4321.538574,4313.333496,4312.436035,4479.487305,4509.871582,4386.922852,4462.692383,0.000000,0.000000,7.000000,,,,0.000000,2.000000,2.000000,0.000000,2.000000,2.000000,2.000000,0.000000,2.000000,4.000000,4.000000,4.000000,4.000000,2.000000,4.000000,16.666666,,,,,,,,,,,,,,,,,,,,,,,,,,,,
1732083113.921538,1732083113.924897,36.000000,0.000000,4367.051270,4321.666504,4329.230957,4332.692383,4298.205078,4293.589844,4332.179688,4310.897461,4308.205078,4310.256348,4477.179688,4514.358887,4383.846191,4459.871582,0.000000,0.000000,7.000000,,,,0.000000,2.000000,2.000000,0.000000,2.000000,2.000000,2.000000,0.000000,2.000000,4.000000,4.000000,4.000000,4.000000,2.000000,4.000000,16.666666,,,,,,,,,,,,,,,,,9.000000,0.000000,0.594343,0.392334,-0.613159,0.341858,0.958125,0.079600,-0.078623,-77.098892,59.135963,27.099728
1732083113.929346,1732083113.932705,37.000000,0.000000,4359.871582,4313.974121,4330.000000,4323.846191,4296.282227,4294.358887,4333.333496,4321.153809,4312.051270,4310.769043,4478.333496,4517.051270,4383.717773,4460.641113,0.000000,0.000000,7.000000,,,,0.000000,2.000000,2.000000,0.000000,2.000000,2.000000,2.000000,0.000000,2.000000,4.000000,4.000000,4.000000,4.000000,2.000000,4.000000,16.666666,,,,,,,,,,,,,,,,,,,,,,,,,,,,
1732083113.937154,1732083113.940313,38.000000,0.000000,4358.461426,4312.563965,4326.538574,4314.102539,4292.179688,4295.000000,4334.743652,4335.641113,4317.948730,4311.153809,4482.563965,4512.692383,4383.846191,4456.922852,0.000000,0.000000,7.000000,,,,0.000000,2.000000,2.000000,0.000000,2.000000,2.000000,2.000000,0.000000,2.000000,4.000000,4.000000,4.000000,4.000000,2.000000,4.000000,16.666666,,,,,,,,,,,,,,,,,,,,,,,,,,,,
1732083113.944963,1732083113.948122,39.000000,0.000000,4360.128418,4312.692383,4327.436035,4317.820313,4292.692383,4294.487305,4335.256348,4331.282227,4319.743652,4308.846191,4480.384766,4512.948730,4380.512695,4451.666504,0.000000,0.000000,7.000000,,,,0.000000,2.000000,2.000000,0.000000,2.000000,2.000000,2.000000,0.000000,2.000000,4.000000,4.000000,4.000000,4.000000,2.000000,4.000000,16.666666,,,,,,,,,,,,,,,,,,,,,,,,,,,,
1732083113.952771,1732083113.955830,40.000000,0.000000,4359.230957,4310.512695,4329.102539,4322.820313,4294.871582,4294.743652,4337.179688,4322.051270,4314.743652,4303.717773,4476.410156,4515.256348,4380.256348,4453.717773,0.000000,0.000000,7.000000,,,,0.000000,2.000000,2.000000,0.000000,2.000000,2.000000,2.000000,0.000000,2.000000,4.000000,4.000000,4.000000,4.000000,2.000000,4.000000,16.666666,,,,,,,,,,,,,,,,,10.000000,0.000000,0.593277,0.392334,-0.614258,0.341736,0.967892,0.092296,-0.091320,-77.193436,58.718464,26.940779
1732083113.960579,1732083113.963638,41.000000,0.000000,4357.563965,4310.384766,4330.641113,4321.410156,4298.717773,4295.897461,4341.410156,4326.794922,4312.692383,4303.333496,4476.410156,4509.871582,4381.410156,4453.205078,0.000000,0.000000,7.000000,,,,0.000000,2.000000,2.000000,0.000000,2.000000,2.000000,2.000000,0.000000,2.000000,4.000000,4.000000,4.000000,4.000000,2.000000,4.000000,16.666666,,,,,,,,,,,,,,,,,,,,,,,,,,,,
1732083113.968387,1732083113.971247,42.000000,0.000000,4359.102539,4314.102539,4331.025879,4321.794922,4294.230957,4297.563965,4338.077148,4330.128418,4316.153809,4311.794922,4475.897461,4507.563965,4381.922852,4451.666504,0.000000,0.000000,7.000000,,,,0.000000,2.000000,2.000000,0.000000,2.000000,2.000000,2.000000,0.000000,2.000000,4.000000,4.000000,4.000000,4.000000,2.000000,4.000000,16.666666,,,,,,,,,,,,,,,,,,,,,,,,,,,,
1732083113.976196,1732083113.979055,43.000000,0.000000,4360.641113,4319.230957,4332.820313,4324.102539,4296.153809,4294.743652,4334.230957,4327.179688,4316.666504,4313.589844,4476.025879,4512.563965,4382.179688,4452.436035,0.000000,0.000000,7.000000,,,,0.000000,2.000000,2.000000,0.000000,2.000000,2.000000,2.000000,0.000000,2.000000,4.000000,4.000000,4.000000,4.000000,2.000000,4.000000,16.666666,,,,,,,,,,,,,,,,,,,,,,,,,,,,
1732083113.984004,1732083113.986763,44.000000,0.000000,4356.922852,4319.230957,4332.051270,4321.666504,4307.307617,4290.769043,4334.230957,4328.461426,4316.153809,4309.230957,4476.025879,4509.871582,4381.410156,4447.051270,0.000000,0.000000,7.000000,,,,0.000000,2.000000,2.000000,0.000000,2.000000,2.000000,2.000000,0.000000,2.000000,4.000000,4.000000,4.000000,4.000000,2.000000,4.000000,16.666666,,,,,,,,,,,,,,,,,11.000000,0.000000,0.592713,0.392517,-0.614685,0.341736,0.955683,0.093761,-0.089855,-77.156685,58.455288,26.857031
1732083113.991812,1732083113.994571,45.000000,0.000000,4350.641113,4317.692383,4331.410156,4320.128418,4302.692383,4297.436035,4338.461426,4325.641113,4317.307617,4311.922852,4471.410156,4503.205078,4380.256348,4442.051270,0.000000,0.000000,7.000000,,,,0.000000,2.000000,2.000000,0.000000,2.000000,2.000000,2.000000,0.000000,2.000000,4.000000,4.000000,4.000000,4.000000,2.000000,4.000000,16.666666,,,,,,,,,,,,,,,,,,,,,,,,,,,,
1732083113.999621,1732083114.002180,46.000000,0.000000,4350.384766,4320.512695,4330.128418,4326.282227,4294.743652,4305.000000,4339.358887,4324.230957,4320.769043,4316.153809,4470.128418,4501.538574,4379.615234,4443.846191,0.000000,0.000000,7.000000,,,,0.000000,2.000000,2.000000,0.000000,2.000000,2.000000,2.000000,0.000000,2.000000,4.000000,4.000000,4.000000,4.000000,2.000000,4.000000,16.666666,,,,,,,,,,,,,,,,,,,,,,,,,,,,
1732083114.007429,1732083114.009988,47.000000,0.000000,4348.846191,4320.512695,4327.820313,4327.436035,4299.358887,4301.538574,4337.051270,4332.563965,4322.436035,4311.538574,4471.282227,4496.025879,4377.820313,4439.615234,0.000000,0.000000,7.000000,,,,0.000000,2.000000,2.000000,0.000000,2.000000,2.000000,2.000000,0.000000,2.000000,4.000000,4.000000,4.000000,4.000000,2.000000,4.000000,16.666666,,,,,,,,,,,,,,,,,,,,,,,,,,,,
1732083114.015237,1732083114.017696,48.000000,0.000000,4344.743652,4317.948730,4327.307617,4325.512695,4302.307617,4295.384766,4334.230957,4337.436035,4318.589844,4308.589844,4463.461426,4491.922852,4371.538574,4433.205078,0.000000,0.000000,7.000000,,,,0.000000,2.000000,2.000000,0.000000,2.000000,2.000000,2.000000,0.000000,2.000000,4.000000,4.000000,4.000000,4.000000,2.000000,4.000000,16.666666,,,,,,,,,,,,,,,,,12.000000,0.000000,0.591127,0.393494,-0.615112,0.342590,0.979612,0.049322,-0.094250,-76.936913,58.305450,26.852530
1732083114.023045,1732083114.025504,49.000000,0.000000,4347.307617,4320.769043,4329.102539,4331.794922,4298.205078,4296.410156,4335.384766,4330.128418,4314.487305,4307.179688,4457.436035,4497.563965,4368.717773,4434.615234,0.000000,0.000000,7.000000,,,,0.000000,2.000000,2.000000,0.000000,2.000000,2.000000,2.000000,0.000000,2.000000,4.000000,4.000000,4.000000,4.000000,2.000000,4.000000,16.666666,,,,,,,,,,,,,,,,,,,,,,,,,,,,
1732083114.030854,1732083114.033113,50.000000,0.000000,4354.230957,4324.358887,4328.974121,4333.205078,4299.102539,4298.205078,4337.563965,4324.102539,4313.974121,4298.077148,4464.871582,4504.871582,4377.179688,4438.077148,0.000000,0.000000,7.000000,,,,0.000000,2.000000,2.000000,0.000000,2.000000,2.000000,2.000000,0.000000,2.000000,4.000000,4.000000,4.000000,4.000000,2.000000,4.000000,16.666666,,,,,,,,,,,,,,,,,,,,,,,,,,,,
1732083114.038662,1732083114.040921,51.000000,0.000000,4358.077148,4326.922852,4328.717773,4335.641113,4302.692383,4296.666504,4334.871582,4324.615234,4310.256348,4292.436035,4469.871582,4506.410156,4382.563965,4441.666504,0.000000,0.000000,7.000000,,,,0.000000,2.000000,2.000000,0.000000,2.000000,2.000000,2.000000,0.000000,2.000000,4.000000,4.000000,4.000000,4.000000,2.000000,4.000000,16.666666,,,,,,,,,,,,,,,,,,,,,,,,,,,,
1732083114.046470,1732083114.048629,52.000000,0.000000,4359.230957,4330.641113,4331.666504,4350.256348,4300.384766,4297.179688,4333.846191,4325.384766,4308.974121,4298.589844,4466.153809,4508.205078,4377.436035,4445.897461,0.000000,0.000000,7.000000,,,,0.000000,2.000000,2.000000,0.000000,2.000000,2.000000,2.000000,0.000000,2.000000,4.000000,4.000000,4.000000,4.000000,2.000000,4.000000,16.666666,,,,,,,,,,,,,,,,,13.000000,0.000000,0.588111,0.393311,-0.615967,0.346436,0.976193,0.013185,-0.073739,-77.557236,58.037415,26.590548
1732083114.054278,1732083114.056438,53.000000,0.000000,4360.769043,4325.769043,4332.436035,4348.461426,4299.743652,4296.538574,4336.025879,4327.563965,4321.922852,4311.922852,4470.769043,4510.897461,4378.589844,4448.461426,0.000000,0.000000,7.000000,,,,0.000000,2.000000,2.000000,0.000000,2.000000,2.000000,2.000000,0.000000,2.000000,4.000000,4.000000,4.000000,4.000000,2.000000,4.000000,16.666666,,,,,,,,,,,,,,,,,,,,,,,,,,,,
1732083114.062087,1732083114.064046,54.000000,0.000000,4357.820313,4322.179688,4331.666504,4328.077148,4308.205078,4295.512695,4336.538574,4327.948730,4324.615234,4316.794922,4480.769043,4512.820313,4386.153809,4449.871582,0.000000,0.000000,7.000000,,,,0.000000,2.000000,2.000000,0.000000,2.000000,2.000000,2.000000,0.000000,2.000000,4.000000,4.000000,4.000000,4.000000,2.000000,4.000000,16.666666,,,,,,,,,,,,,,,,,,,,,,,,,,,,
1732083114.069895,1732083114.071854,55.000000,0.000000,4348.717773,4325.000000,4329.358887,4326.538574,4312.051270,4305.128418,4337.692383,4326.794922,4313.205078,4306.922852,4472.948730,4505.512695,4377.948730,4444.358887,0.000000,0.000000,7.000000,,,,0.000000,2.000000,2.000000,0.000000,2.000000,2.000000,2.000000,0.000000,2.000000,4.000000,4.000000,4.000000,4.000000,2.000000,4.000000,16.666666,,,,,,,,,,,,,,,,,,,,,,,,,,,,
1732083114.077703,1732083114.079562,56.000000,0.000000,4340.128418,4318.717773,4330.128418,4333.077148,4297.692383,4315.000000,4345.000000,4337.820313,4317.179688,4303.846191,4460.256348,4495.384766,4362.692383,4432.307617,0.000000,0.000000,7.000000,,,,0.000000,2.000000,2.000000,0.000000,2.000000,2.000000,2.000000,0.000000,2.000000,4.000000,4.000000,4.000000,4.000000,2.000000,4.000000,16.666666,,,,,,,,,,,,,,,,,14.000000,0.000000,0.586650,0.391663,-0.617065,0.348816,0.976682,-0.004883,-0.084971,-77.963028,57.695305,26.303345
1732083114.085512,1732083114.087371,57.000000,0.000000,4340.384766,4314.230957,4332.051270,4327.820313,4292.179688,4309.487305,4346.025879,4347.948730,4330.897461,4311.666504,4470.384766,4501.410156,4369.615234,4436.153809,0.000000,0.000000,7.000000,,,,0.000000,2.000000,2.000000,0.000000,2.000000,2.000000,2.000000,0.000000,2.000000,4.000000,4.000000,4.000000,4.000000,2.000000,4.000000,16.666666,,,,,,,,,,,,,,,,,,,,,,,,,,,,
1732083114.093320,1732083114.094979,58.000000,0.000000,4345.384766,4323.589844,4333.846191,4327.820313,4307.051270,4300.897461,4340.384766,4336.410156,4322.820313,4307.948730,4481.538574,4508.333496,4379.743652,4445.897461,0.000000,0.000000,7.000000,,,,0.000000,2.000000,2.000000,0.000000,2.000000,2.000000,2.000000,0.000000,2.000000,4.000000,4.000000,4.000000,4.000000,2.000000,4.000000,16.666666,,,,,,,,,,,,,,,,,,,,,,,,,,,,
1732083114.101128,1732083114.102787,59.000000,0.000000,4345.128418,4327.948730,4331.025879,4331.153809,4311.153809,4303.333496,4338.333496,4324.871582,4309.230957,4299.102539,4472.948730,4496.282227,4370.384766,4436.153809,0.000000,0.000000,7.000000,,,,0.000000,2.000000,2.000000,0.000000,2.000000,2.000000,2.000000,0.000000,2.000000,4.000000,4.000000,4.000000,4.000000,2.000000,4.000000,16.666666,,,,,,,,,,,,,,,,,,,,,,,,,,,,
1732083114.108936,1732083114.110695,60.000000,0.000000,4339.230957,4320.897461,4331.666504,4326.153809,4303.717773,4305.384766,4343.333496,4336.794922,4317.692383,4302.051270,4466.922852,4489.615234,4362.692383,4423.717773,0.000000,0.000000,7.000000,,,,0.000000,2.000000,2.000000,0.000000,2.000000,2.000000,2.000000,0.000000,2.000000,4.000000,4.000000,4.000000,4.000000,2.000000,4.000000,16.666666,,,,,,,,,,,,,,,,,15.000000,0.000000,0.585970,0.390381,-0.617798,0.350098,0.979123,-0.023929,-0.080088,-77.855049,57.664864,26.265709
1732083114.116745,1732083114.118504,61.000000,0.000000,4336.922852,4320.256348,4333.077148,4320.512695,4301.666504,4302.051270,4340.512695,4344.743652,4328.333496,4305.256348,4474.487305,4503.846191,4371.666504,4432.307617,0.000000,0.000000,7.000000,,,,0.000000,2.000000,2.000000,0.000000,2.000000,2.000000,2.000000,0.000000,2.000000,4.000000,4.000000,4.000000,4.000000,2.000000,4.000000,16.666666,,,,,,,,,,,,,,,,,,,,,,,,,,,,
1732083114.124553,1732083114.126112,62.000000,0.000000,4335.897461,4322.948730,4331.282227,4318.205078,4296.922852,4303.846191,4336.410156,4333.846191,4326.025879,4303.974121,4476.666504,4510.384766,4377.563965,4440.769043,0.000000,0.000000,7.000000,,,,0.000000,2.000000,2.000000,0.000000,2.000000,2.000000,2.000000,0.000000,2.000000,4.000000,4.000000,4.000000,4.000000,2.000000,4.000000,16.666666,,,,,,,,,,,,,,,,,,,,,,,,,,,,
1732083114.132361,1732083114.133920,63.000000,0.000000,4333.333496,4325.128418,4329.743652,4320.512695,4297.692383,4307.692383,4337.692383,4323.077148,4321.025879,4306.666504,4473.589844,4497.307617,4375.384766,4433.974121,0.000000,0.000000,7.000000,,,,0.000000,2.000000,2.000000,0.000000,2.000000,2.000000,2.000000,0.000000,2.000000,4.000000,4.000000,4.000000,4.000000,2.000000,4.000000,16.666666,,,,,,,,,,,,,,,,,,,,,,,,,,,,
1732083114.140170,1732083114.141629,64.000000,0.000000,4330.256348,4325.256348,4331.666504,4318.846191,4313.717773,4306.922852,4341.025879,4327.948730,4322.563965,4308.717773,4475.000000,4488.846191,4374.743652,4427.692383,0.000000,0.000000,7.000000,,,,0.000000,2.000000,2.000000,0.000000,2.000000,2.000000,2.000000,0.000000,2.000000,4.000000,4.000000,4.000000,4.000000,2.000000,4.000000,16.666666,,,,,,,,,,,,,,,,,16.000000,0.000000,0.583382,0.383911,-0.621399,0.355164,0.975217,-0.054694,-0.075204,-77.909256,57.473541,25.981892
1732083114.147978,1732083114.149437,65.000000,0.000000,4329.487305,4322.692383,4330.512695,4313.717773,4313.589844,4303.974121,4337.692383,4344.743652,4331.282227,4310.128418,4477.051270,4499.487305,4377.563965,4432.692383,1304.000000,0.000000,7.000000,,,,0.000000,2.000000,2.000000,0.000000,2.000000,2.000000,2.000000,0.000000,2.000000,4.000000,4.000000,4.000000,4.000000,2.000000,4.000000,16.666666,,,,,,,,,,,,,,,,,,,,,,,,,,,,
1732083114.155786,1732083114.157045,66.000000,0.000000,4333.461426,4322.436035,4326.794922,4321.153809,4294.615234,4305.641113,4336.282227,4351.410156,4333.846191,4314.358887,4478.077148,4509.615234,4379.102539,4438.461426,1224.000000,0.000000,7.000000,,,,0.000000,2.000000,2.000000,0.000000,2.000000,2.000000,2.000000,0.000000,2.000000,4.000000,4.000000,4.000000,4.000000,2.000000,4.000000,16.666666,,,,,,,,,,,,,,,,,,,,,,,,,,,,
1732083114.163594,1732083114.164853,67.000000,0.000000,4335.000000,4321.282227,4330.128418,4331.666504,4295.641113,4312.307617,4342.179688,4339.871582,4320.769043,4305.512695,4475.128418,4500.512695,4374.230957,4433.717773,1182.000000,0.000000,7.000000,,,,0.000000,2.000000,2.000000,0.000000,2.000000,2.000000,2.000000,0.000000,2.000000,4.000000,4.000000,4.000000,4.000000,2.000000,4.000000,16.666666,,,,,,,,,,,,,,,,,,,,,,,,,,,,
1732083114.171403,1732083114.172562,68.000000,0.000000,4332.179688,4319.487305,4334.102539,4327.307617,4307.436035,4307.948730,4343.077148,4331.025879,4311.666504,4291.282227,4471.666504,4488.974121,4372.179688,4427.563965,1192.000000,0.000000,7.000000,,,,0.000000,2.000000,2.000000,0.000000,2.000000,2.000000,2.000000,0.000000,2.000000,4.000000,4.000000,4.000000,4.000000,2.000000,4.000000,16.666666,,,,,,,,,,,,,,,,,17.000000,0.000000,0.582947,0.380371,-0.623108,0.356689,1.004029,-0.045904,-0.066903,-78.034836,57.100235,25.811998
1732083114.179211,1732083114.180370,69.000000,0.000000,4329.615234,4316.410156,4332.563965,4322.820313,4301.922852,4299.871582,4337.563965,4334.230957,4319.743652,4300.512695,4471.922852,4488.846191,4375.384766,4426.282227,1085.000000,0.000000,7.000000,,,,0.000000,2.000000,2.000000,0.000000,2.000000,2.000000,2.000000,0.000000,2.000000,4.000000,4.000000,4.000000,4.000000,2.000000,4.000000,16.666666,,,,,,,,,,,,,,,,,,,,,,,,,,,,
1732083114.187019,1732083114.188378,70.000000,0.000000,4329.102539,4314.358887,4329.487305,4326.666504,4302.563965,4305.512695,4335.512695,4336.025879,4325.000000,4312.179688,4473.974121,4488.461426,4373.846191,4426.025879,30.000000,0.000000,7.000000,,,,0.000000,2.000000,2.000000,0.000000,2.000000,2.000000,2.000000,0.000000,2.000000,4.000000,4.000000,4.000000,4.000000,2.000000,4.000000,16.666666,,,,,,,,,,,,,,,,,,,,,,,,,,,,
1732083114.194827,1732083114.196186,71.000000,0.000000,4329.487305,4315.641113,4330.128418,4329.230957,4314.102539,4313.846191,4339.102539,4332.948730,4322.307617,4300.512695,4473.974121,4487.820313,4373.333496,4427.179688,1199.000000,0.000000,7.000000,,,,0.000000,2.000000,2.000000,0.000000,2.000000,2.000000,2.000000,0.000000,2.000000,4.000000,4.000000,4.000000,4.000000,2.000000,4.000000,16.666666,,,,,,,,,,,,,,,,,,,,,,,,,,,,
1732083114.202636,1732083114.204094,72.000000,0.000000,4330.256348,4315.256348,4330.000000,4330.512695,4313.205078,4313.077148,4337.436035,4334.102539,4327.307617,4300.256348,4473.974121,4490.000000,4376.794922,4429.615234,1381.000000,0.000000,7.000000,,,,0.000000,2.000000,2.000000,0.000000,2.000000,2.000000,2.000000,0.000000,2.000000,4.000000,4.000000,4.000000,4.000000,2.000000,4.000000,16.666666,,,,,,,,,,,,,,,,,18.000000,0.000000,0.583052,0.378662,-0.623840,0.357056,0.985472,-0.042486,-0.059089,-78.091545,56.827858,25.689384
1732083114.210444,1732083114.211902,73.000000,0.000000,4328.333496,4311.025879,4331.922852,4325.000000,4309.102539,4309.487305,4336.666504,4335.000000,4330.769043,4316.153809,4473.589844,4490.128418,4375.128418,4427.563965,1508.000000,0.000000,7.000000,,,,0.000000,2.000000,2.000000,0.000000,2.000000,2.000000,2.000000,0.000000,2.000000,4.000000,4.000000,4.000000,4.000000,2.000000,4.000000,16.666666,,,,,,,,,,,,,,,,,,,,,,,,,,,,
1732083114.218252,1732083114.219910,74.000000,0.000000,4322.692383,4309.487305,4329.743652,4316.538574,4310.384766,4308.589844,4337.051270,4335.256348,4326.153809,4313.846191,4472.307617,4489.615234,4376.410156,4426.666504,1369.000000,0.000000,7.000000,,,,0.000000,2.000000,2.000000,0.000000,2.000000,2.000000,2.000000,0.000000,2.000000,4.000000,4.000000,4.000000,4.000000,2.000000,4.000000,16.666666,,,,,,,,,,,,,,,,,,,,,,,,,,,,
1732083114.226060,1732083114.227719,75.000000,0.000000,4319.615234,4309.358887,4325.769043,4317.563965,4309.871582,4307.563965,4338.717773,4338.974121,4327.051270,4309.358887,4472.820313,4494.487305,4383.974121,4430.256348,1503.000000,0.000000,7.000000,,,,0.000000,2.000000,2.000000,0.000000,2.000000,2.000000,2.000000,0.000000,2.000000,4.000000,4.000000,4.000000,4.000000,2.000000,4.000000,16.666666,,,,,,,,,,,,,,,,,,,,,,,,,,,,
1732083114.233868,1732083114.235627,76.000000,0.000000,4319.487305,4302.563965,4326.794922,4317.692383,4310.641113,4309.615234,4338.846191,4343.589844,4333.589844,4316.922852,4471.794922,4496.025879,4377.563965,4428.205078,1733.000000,0.000000,7.000000,,,,0.000000,2.000000,2.000000,0.000000,2.000000,2.000000,2.000000,0.000000,2.000000,4.000000,4.000000,4.000000,4.000000,2.000000,4.000000,16.666666,,,,,,,,,,,,,,,,,19.000000,0.000000,0.583227,0.375488,-0.625488,0.357239,0.998657,-0.022464,-0.078135,-78.149155,56.618896,25.716736
1732083114.241677,1732083114.243435,77.000000,0.000000,4321.410156,4301.538574,4331.666504,4315.128418,4311.794922,4309.743652,4339.102539,4343.077148,4331.282227,4317.692383,4470.641113,4492.307617,4368.333496,4425.000000,1624.000000,0.000000,7.000000,,,,0.000000,2.000000,2.000000,0.000000,2.000000,2.000000,2.000000,0.000000,2.000000,4.000000,4.000000,4.000000,4.000000,2.000000,4.000000,16.666666,,,,,,,,,,,,,,,,,,,,,,,,,,,,
1732083114.249485,1732083114.251043,78.000000,0.000000,4327.307617,4310.897461,4330.512695,4319.871582,4309.871582,4307.307617,4336.538574,4336.922852,4325.512695,4316.410156,4473.846191,4497.307617,4375.641113,4428.974121,1369.000000,0.000000,7.000000,,,,0.000000,2.000000,2.000000,0.000000,2.000000,2.000000,2.000000,0.000000,2.000000,4.000000,4.000000,4.000000,4.000000,2.000000,4.000000,16.666666,1.000000,16.666666,2.000000,2.000000,0.000000,2.000000,2.000000,2.000000,0.000000,2.000000,4.000000,4.000000,4.000000,4.000000,2.000000,4.000000,,,,,,,,,,,,
1732083114.257293,1732083114.258852,79.000000,0.000000,4326.282227,4309.102539,4329.102539,4321.282227,4307.820313,4309.230957,4336.922852,4332.307617,4327.820313,4318.077148,4477.179688,4506.153809,4381.794922,4430.641113,1503.000000,0.000000,7.000000,,,,0.000000,2.000000,2.000000,0.000000,2.000000,2.000000,2.000000,0.000000,2.000000,4.000000,4.000000,4.000000,4.000000,2.000000,4.000000,16.666666,,,,,,,,,,,,,,,,,,,,,,,,,,,,
1732083114.265102,1732083114.266760,80.000000,0.000000,4318.461426,4297.307617,4331.410156,4315.000000,4310.256348,4309.615234,4339.358887,4337.948730,4332.179688,4311.794922,4473.846191,4506.794922,4373.974121,4423.589844,1733.000000,0.000000,7.000000,,,,0.000000,2.000000,2.000000,0.000000,2.000000,2.000000,2.000000,0.000000,2.000000,4.000000,4.000000,4.000000,4.000000,2.000000,4.000000,16.666666,,,,,,,,,,,,,,,,,20.000000,0.000000,0.583105,0.371216,-0.627869,0.357727,0.972287,-0.009278,-0.061043,-78.329147,56.499641,25.522223
1732083114.272910,1732083114.274568,81.000000,0.000000,4318.589844,4298.461426,4331.153809,4315.256348,4314.743652,4310.897461,4341.666504,4349.615234,4331.666504,4308.461426,4471.282227,4503.589844,4367.820313,4420.384766,1624.000000,0.000000,7.000000,,,,0.000000,2.000000,2.000000,0.000000,2.000000,2.000000,2.000000,0.000000,2.000000,4.000000,4.000000,4.000000,4.000000,2.000000,4.000000,16.666666,,,,,,,,,,,,,,,,,,,,,,,,,,,,
1732083114.280718,1732083114.282576,82.000000,0.000000,4324.743652,4311.025879,4331.153809,4322.563965,4310.769043,4313.589844,4342.179688,4347.436035,4330.512695,4315.769043,4476.410156,4506.794922,4371.922852,4426.666504,1369.000000,0.000000,7.000000,,,,0.000000,2.000000,2.000000,0.000000,2.000000,2.000000,2.000000,0.000000,2.000000,4.000000,4.000000,4.000000,4.000000,2.000000,4.000000,16.666666,,,,,,,,,,,,,,,,,,,,,,,,,,,,
1732083114.288526,1732083114.290384,83.000000,0.000000,4320.128418,4308.077148,4328.846191,4321.282227,4313.461426,4312.179688,4339.743652,4335.128418,4329.871582,4316.410156,4470.897461,4501.794922,4367.948730,4421.025879,1503.000000,0.000000,7.000000,,,,0.000000,2.000000,2.000000,0.000000,2.000000,2.000000,2.000000,0.000000,2.000000,4.000000,4.000000,4.000000,4.000000,2.000000,4.000000,16.666666,,,,,,,,,,,,,,,,,,,,,,,,,,,,
1732083114.296335,1732083114.298292,84.000000,0.000000,4310.897461,4296.282227,4326.538574,4313.974121,4326.794922,4309.230957,4338.846191,4331.538574,4327.948730,4308.589844,4460.384766,4490.512695,4361.794922,4410.512695,1733.000000,0.000000,7.000000,,,,0.000000,2.000000,2.000000,0.000000,2.000000,2.000000,2.000000,0.000000,2.000000,4.000000,4.000000,4.000000,4.000000,2.000000,4.000000,16.666666,,,,,,,,,,,,,,,,,21.000000,0.000000,0.583200,0.369263,-0.628479,0.358521,0.972775,-0.033696,-0.072274,-78.536606,56.189709,25.403000
1732083114.304143,1732083114.306100,85.000000,0.000000,4315.256348,4299.102539,4328.205078,4317.563965,4320.769043,4309.230957,4338.589844,4335.128418,4330.256348,4312.948730,4467.948730,4495.769043,4372.692383,4417.563965,1624.000000,0.000000,7.000000,,,,0.000000,2.000000,2.000000,0.000000,2.000000,2.000000,2.000000,0.000000,2.000000,4.000000,4.000000,4.000000,4.000000,2.000000,4.000000,16.666666,,,,,,,,,,,,,,,,,,,,,,,,,,,,
1732083114.311951,1732083114.314108,86.000000,0.000000,4320.512695,4306.538574,4330.769043,4324.230957,4305.512695,4311.922852,4339.487305,4340.897461,4332.436035,4318.205078,4479.230957,4508.077148,4378.077148,4424.358887,1369.000000,0.000000,7.000000,,,,0.000000,2.000000,2.000000,0.000000,2.000000,2.000000,2.000000,0.000000,2.000000,4.000000,4.000000,4.000000,4.000000,2.000000,4.000000,16.666666,,,,,,,,,,,,,,,,,,,,,,,,,,,,
1732083114.319759,1732083114.321917,87.000000,0.000000,4313.333496,4304.358887,4327.436035,4317.179688,4307.948730,4312.563965,4337.820313,4341.282227,4328.077148,4310.128418,4471.025879,4505.641113,4362.948730,4413.333496,1503.000000,0.000000,7.000000,,,,0.000000,2.000000,2.000000,0.000000,2.000000,2.000000,2.000000,0.000000,2.000000,4.000000,4.000000,4.000000,4.000000,2.000000,4.000000,16.666666,,,,,,,,,,,,,,,,,,,,,,,,,,,,
1732083114.327568,1732083114.329825,88.000000,0.000000,4311.538574,4303.717773,4328.333496,4312.179688,4312.820313,4310.256348,4338.461426,4329.615234,4322.948730,4305.384766,4469.358887,4499.871582,4364.615234,4412.563965,1733.000000,0.000000,7.000000,,,,0.000000,2.000000,2.000000,0.000000,2.000000,2.000000,2.000000,0.000000,2.000000,4.000000,4.000000,4.000000,4.000000,2.000000,4.000000,16.666666,,,,,,,,,,,,,,,,,22.000000,0.000000,0.583230,0.368591,-0.628601,0.358948,0.972775,-0.033696,-0.072274,-78.846321,55.710331,25.484764
1732083114.335376,1732083114.337633,89.000000,0.000000,4320.897461,4307.179688,4330.128418,4320.769043,4305.769043,4305.512695,4339.871582,4331.666504,4326.410156,4310.000000,4483.461426,4507.692383,4383.077148,4425.769043,1624.000000,0.000000,7.000000,,,,0.000000,2.000000,2.000000,0.000000,2.000000,2.000000,2.000000,0.000000,2.000000,4.000000,4.000000,4.000000,4.000000,2.000000,4.000000,16.666666,,,,,,,,,,,,,,,,,,,,,,,,,,,,
1732083114.343184,1732083114.345641,90.000000,0.000000,4318.717773,4303.333496,4326.666504,4321.153809,4299.358887,4306.538574,4343.589844,4352.692383,4336.794922,4315.512695,4483.717773,4509.358887,4378.333496,4422.948730,1369.000000,0.000000,7.000000,,,,0.000000,2.000000,2.000000,0.000000,2.000000,2.000000,2.000000,0.000000,2.000000,4.000000,4.000000,4.000000,4.000000,2.000000,4.000000,16.666666,,,,,,,,,,,,,,,,,,,,,,,,,,,,
1732083114.350993,1732083114.353449,91.000000,0.000000,4309.615234,4301.794922,4327.051270,4316.282227,4307.948730,4310.769043,4343.717773,4348.974121,4338.846191,4320.897461,4474.102539,4496.025879,4371.153809,4411.153809,1503.000000,0.000000,7.000000,,,,0.000000,2.000000,2.000000,0.000000,2.000000,2.000000,2.000000,0.000000,2.000000,4.000000,4.000000,4.000000,4.000000,2.000000,4.000000,16.666666,,,,,,,,,,,,,,,,,,,,,,,,,,,,
1732083114.358801,1732083114.361357,92.000000,0.000000,4314.230957,4306.922852,4331.025879,4322.436035,4324.230957,4310.128418,4343.205078,4331.922852,4329.487305,4321.794922,4474.230957,4487.307617,4383.717773,4412.692383,1733.000000,0.000000,7.000000,,,,0.000000,2.000000,2.000000,0.000000,2.000000,2.000000,2.000000,0.000000,2.000000,4.000000,4.000000,4.000000,4.000000,2.000000,4.000000,16.666666,,,,,,,,,,,,,,,,,23.000000,0.000000,0.583160,0.366699,-0.628479,0.361206,0.973263,-0.045904,-0.057624,-78.900520,55.433701,25.392658
1732083114.366609,1732083114.369165,93.000000,0.000000,4321.025879,4309.487305,4330.000000,4330.641113,4323.333496,4315.384766,4343.461426,4345.128418,4326.538574,4317.179688,4480.384766,4489.871582,4386.538574,4420.512695,1624.000000,0.000000,7.000000,,,,0.000000,2.000000,2.000000,0.000000,2.000000,2.000000,2.000000,0.000000,2.000000,4.000000,4.000000,4.000000,4.000000,2.000000,4.000000,16.666666,,,,,,,,,,,,,,,,,,,,,,,,,,,,
1732083114.374417,1732083114.376774,94.000000,0.000000,4318.846191,4310.128418,4329.871582,4329.487305,4303.589844,4316.153809,4341.282227,4352.179688,4335.128418,4322.051270,4481.538574,4495.641113,4381.025879,4420.641113,1369.000000,0.000000,7.000000,,,,0.000000,2.000000,2.000000,0.000000,2.000000,2.000000,2.000000,0.000000,2.000000,4.000000,4.000000,4.000000,4.000000,2.000000,4.000000,16.666666,,,,,,,,,,,,,,,,,,,,,,,,,,,,
1732083114.382226,1732083114.384582,95.000000,0.000000,4318.589844,4311.153809,4330.641113,4327.692383,4304.358887,4299.102539,4333.461426,4328.589844,4332.692383,4327.179688,4477.563965,4498.461426,4385.128418,4416.538574,1503.000000,0.000000,7.000000,,,,0.000000,2.000000,2.000000,0.000000,2.000000,2.000000,2.000000,0.000000,2.000000,4.000000,4.000000,4.000000,4.000000,2.000000,4.000000,16.666666,,,,,,,,,,,,,,,,,,,,,,,,,,,,
1732083114.390034,1732083114.392290,96.000000,0.000000,4323.461426,4312.179688,4328.717773,4333.589844,4315.769043,4292.436035,4332.692383,4321.794922,4321.282227,4319.102539,4476.410156,4503.333496,4390.769043,4422.051270,1733.000000,0.000000,7.000000,,,,0.000000,2.000000,2.000000,0.000000,2.000000,2.000000,2.000000,0.000000,2.000000,4.000000,4.000000,4.000000,4.000000,2.000000,4.000000,16.666666,,,,,,,,,,,,,,,,,24.000000,0.000000,0.583140,0.365784,-0.628540,0.362061,0.977658,-0.039067,-0.058601,-78.976089,55.344631,25.086386
1732083114.397842,1732083114.400099,97.000000,0.000000,4328.717773,4317.563965,4327.307617,4340.256348,4310.384766,4306.025879,4336.282227,4331.922852,4318.589844,4315.000000,4478.717773,4504.487305,4389.102539,4431.153809,1624.000000,0.000000,7.000000,,,,0.000000,2.000000,2.000000,0.000000,2.000000,2.000000,2.000000,0.000000,2.000000,4.000000,4.000000,4.000000,4.000000,2.000000,4.000000,16.666666,,,,,,,,,,,,,,,,,,,,,,,,,,,,
1732083114.405651,1732083114.407707,98.000000,0.000000,4324.743652,4316.794922,4328.461426,4335.641113,4316.410156,4307.692383,4335.256348,4330.256348,4320.512695,4312.563965,4476.410156,4494.358887,4384.487305,4423.846191,1369.000000,0.000000,7.000000,,,,0.000000,2.000000,2.000000,0.000000,2.000000,2.000000,2.000000,0.000000,2.000000,4.000000,4.000000,4.000000,4.000000,2.000000,4.000000,16.666666,,,,,,,,,,,,,,,,,,,,,,,,,,,,
1732083114.413459,1732083114.415515,99.000000,0.000000,4315.769043,4302.820313,4328.589844,4324.871582,4322.948730,4296.538574,4333.717773,4333.333496,4328.205078,4316.025879,4478.077148,4489.743652,4385.128418,4415.384766,1503.000000,0.000000,7.000000,,,,0.000000,2.000000,2.000000,0.000000,2.000000,2.000000,2.000000,0.000000,2.000000,4.000000,4.000000,4.000000,4.000000,2.000000,4.000000,16.666666,,,,,,,,,,,,,,,,,,,,,,,,,,,,
1732083114.421267,1732083114.423224,100.000000,0.000000,4317.948730,4300.384766,4328.717773,4326.794922,4307.051270,4299.615234,4337.563965,4341.538574,4333.846191,4321.922852,4485.128418,4493.333496,4386.153809,4420.512695,1733.000000,0.000000,7.000000,,,,0.000000,2.000000,2.000000,0.000000,2.000000,2.000000,2.000000,0.000000,2.000000,4.000000,4.000000,4.000000,4.000000,2.000000,4.000000,16.666666,,,,,,,,,,,,,,,,,25.000000,0.000000,0.583211,0.365234,-0.628723,0.362183,0.977658,-0.043951,-0.048834,-79.050629,55.069153,25.109974
1732083114.429075,1732083114.431032,101.000000,0.000000,4321.282227,4306.025879,4329.487305,4331.666504,4301.666504,4312.563965,4343.846191,4347.436035,4332.436035,4316.666504,4479.230957,4491.410156,4377.948730,4417.948730,1624.000000,0.000000,7.000000,,,,0.000000,2.000000,2.000000,0.000000,2.000000,2.000000,2.000000,0.000000,2.000000,4.000000,4.000000,4.000000,4.000000,2.000000,4.000000,16.666666,,,,,,,,,,,,,,,,,,,,,,,,,,,,
1732083114.436884,1732083114.438640,102.000000,0.000000,4312.307617,4298.205078,4328.077148,4326.794922,4312.051270,4312.051270,4344.487305,4354.615234,4336.025879,4315.384766,4470.256348,4493.333496,4373.333496,4415.256348,1369.000000,0.000000,7.000000,,,,0.000000,2.000000,2.000000,0.000000,2.000000,2.000000,2.000000,0.000000,2.000000,4.000000,4.000000,4.000000,4.000000,2.000000,4.000000,16.666666,,,,,,,,,,,,,,,,,,,,,,,,,,,,
1732083114.444692,1732083114.446448,103.000000,0.000000,4310.897461,4291.538574,4328.333496,4323.717773,4312.307617,4301.666504,4340.641113,4343.205078,4338.461426,4323.717773,4478.205078,4505.384766,4382.307617,4426.538574,1503.000000,0.000000,7.000000,,,,0.000000,2.000000,2.000000,0.000000,2.000000,2.000000,2.000000,0.000000,2.000000,4.000000,4.000000,4.000000,4.000000,2.000000,4.000000,16.666666,,,,,,,,,,,,,,,,,,,,,,,,,,,,
1732083114.452500,1732083114.454157,104.000000,0.000000,4325.256348,4302.436035,4330.384766,4329.615234,4308.333496,4303.589844,4336.153809,4321.153809,4324.102539,4327.051270,4488.974121,4511.922852,4389.358887,4435.000000,1733.000000,0.000000,7.000000,,,,0.000000,2.000000,2.000000,0.000000,2.000000,2.000000,2.000000,0.000000,2.000000,4.000000,4.000000,4.000000,4.000000,2.000000,4.000000,16.666666,,,,,,,,,,,,,,,,,26.000000,0.000000,0.583642,0.364075,-0.628784,0.362549,0.988402,-0.049811,-0.059578,-79.262680,54.802681,25.089079
1732083114.460308,1732083114.461965,105.000000,0.000000,4329.230957,4309.102539,4332.563965,4334.102539,4307.563965,4307.179688,4336.666504,4324.487305,4315.897461,4320.769043,4487.820313,4510.384766,4386.025879,4432.051270,1624.000000,0.000000,7.000000,,,,0.000000,2.000000,2.000000,0.000000,2.000000,2.000000,2.000000,0.000000,2.000000,4.000000,4.000000,4.000000,4.000000,2.000000,4.000000,16.666666,,,,,,,,,,,,,,,,,,,,,,,,,,,,
1732083114.468117,1732083114.469573,106.000000,0.000000,4322.179688,4301.025879,4327.692383,4328.589844,4311.025879,4294.102539,4333.333496,4337.307617,4331.922852,4321.922852,4483.589844,4508.717773,4384.743652,4427.179688,1369.000000,0.000000,7.000000,,,,0.000000,2.000000,2.000000,0.000000,2.000000,2.000000,2.000000,0.000000,2.000000,4.000000,4.000000,4.000000,4.000000,2.000000,4.000000,16.666666,,,,,,,,,,,,,,,,,,,,,,,,,,,,
1732083114.475925,1732083114.477382,107.000000,0.000000,4320.000000,4295.384766,4323.846191,4321.025879,4317.948730,4292.179688,4332.051270,4335.512695,4339.358887,4331.538574,4482.179688,4506.025879,4384.743652,4420.128418,1503.000000,0.000000,7.000000,,,,0.000000,2.000000,2.000000,0.000000,2.000000,2.000000,2.000000,0.000000,2.000000,4.000000,4.000000,4.000000,4.000000,2.000000,4.000000,16.666666,,,,,,,,,,,,,,,,,,,,,,,,,,,,
1732083114.483733,1732083114.485090,108.000000,0.000000,4325.000000,4297.563965,4327.436035,4321.922852,4312.051270,4307.436035,4336.153809,4331.538574,4326.410156,4334.871582,4484.230957,4507.948730,4387.051270,4419.102539,1733.000000,0.000000,7.000000,,,,0.000000,2.000000,2.000000,0.000000,2.000000,2.000000,2.000000,0.000000,2.000000,4.000000,4.000000,4.000000,4.000000,2.000000,4.000000,16.666666,,,,,,,,,,,,,,,,,27.000000,0.000000,0.584545,0.361877,-0.628967,0.362976,0.968380,-0.048834,-0.048346,-79.327766,54.455170,25.123819
1732083114.491541,1732083114.492898,109.000000,0.000000,4323.717773,4300.641113,4331.153809,4324.743652,4303.974121,4313.461426,4341.666504,4335.384766,4323.717773,4322.307617,4483.333496,4504.871582,4386.922852,4420.769043,1624.000000,0.000000,7.000000,,,,0.000000,2.000000,2.000000,0.000000,2.000000,2.000000,2.000000,0.000000,2.000000,4.000000,4.000000,4.000000,4.000000,2.000000,4.000000,16.666666,,,,,,,,,,,,,,,,,,,,,,,,,,,,
1732083114.499350,1732083114.500506,110.000000,0.000000,4313.589844,4297.436035,4327.179688,4320.512695,4315.384766,4313.589844,4342.436035,4340.641113,4334.615234,4312.820313,4476.410156,4492.692383,4381.794922,4413.333496,1369.000000,0.000000,7.000000,,,,0.000000,2.000000,2.000000,0.000000,2.000000,2.000000,2.000000,0.000000,2.000000,4.000000,4.000000,4.000000,4.000000,2.000000,4.000000,16.666666,,,,,,,,,,,,,,,,,,,,,,,,,,,,
1732083114.507158,1732083114.508315,111.000000,0.000000,4307.051270,4288.077148,4325.512695,4313.205078,4318.589844,4315.512695,4341.666504,4341.153809,4336.538574,4323.846191,4468.589844,4487.179688,4377.051270,4405.769043,1503.000000,0.000000,7.000000,,,,0.000000,2.000000,2.000000,0.000000,2.000000,2.000000,2.000000,0.000000,2.000000,4.000000,4.000000,4.000000,4.000000,2.000000,4.000000,16.666666,,,,,,,,,,,,,,,,,,,,,,,,,,,,
1732083114.514966,1732083114.516223,112.000000,0.000000,4307.436035,4283.846191,4327.692383,4313.717773,4304.615234,4310.256348,4338.974121,4343.077148,4335.769043,4331.410156,4468.717773,4492.436035,4377.051270,4407.436035,1733.000000,0.000000,7.000000,,,,0.000000,2.000000,2.000000,0.000000,2.000000,2.000000,2.000000,0.000000,2.000000,4.000000,4.000000,4.000000,4.000000,2.000000,4.000000,16.666666,,,,,,,,,,,,,,,,,28.000000,0.000000,0.585042,0.360840,-0.628784,0.363525,0.991332,-0.054206,-0.047857,-79.237160,54.350353,24.958628
1732083114.522774,1732083114.524031,113.000000,0.000000,4311.410156,4292.948730,4325.256348,4317.692383,4309.487305,4302.692383,4336.538574,4343.461426,4338.205078,4328.205078,4476.282227,4499.230957,4385.256348,4415.769043,1624.000000,0.000000,7.000000,,,,0.000000,2.000000,2.000000,0.000000,2.000000,2.000000,2.000000,0.000000,2.000000,4.000000,4.000000,4.000000,4.000000,2.000000,4.000000,16.666666,,,,,,,,,,,,,,,,,,,,,,,,,,,,
1732083114.530583,1732083114.531639,114.000000,0.000000,4313.846191,4297.948730,4324.743652,4316.922852,4320.512695,4295.384766,4333.333496,4332.948730,4331.025879,4325.128418,4477.051270,4504.487305,4383.461426,4419.102539,1369.000000,0.000000,7.000000,,,,0.000000,2.000000,2.000000,0.000000,2.000000,2.000000,2.000000,0.000000,2.000000,4.000000,4.000000,4.000000,4.000000,2.000000,4.000000,16.666666,,,,,,,,,,,,,,,,,,,,,,,,,,,,
1732083114.538391,1732083114.539448,115.000000,0.000000,4312.563965,4286.025879,4327.307617,4316.922852,4306.666504,4294.230957,4332.820313,4327.820313,4328.717773,4318.333496,4472.563965,4505.128418,4371.666504,4413.333496,1503.000000,0.000000,7.000000,,,,0.000000,2.000000,2.000000,0.000000,2.000000,2.000000,2.000000,0.000000,2.000000,4.000000,4.000000,4.000000,4.000000,2.000000,4.000000,16.666666,,,,,,,,,,,,,,,,,,,,,,,,,,,,
1732083114.546199,1732083114.547156,116.000000,0.000000,4313.717773,4284.358887,4328.077148,4320.256348,4294.743652,4302.179688,4336.794922,4337.179688,4336.794922,4319.871582,4475.128418,4504.358887,4376.538574,4414.487305,1733.000000,0.000000,7.000000,,,,0.000000,2.000000,2.000000,0.000000,2.000000,2.000000,2.000000,0.000000,2.000000,4.000000,4.000000,4.000000,4.000000,2.000000,4.000000,16.666666,,,,,,,,,,,,,,,,,29.000000,0.000000,0.585031,0.360718,-0.628723,0.363770,0.978147,-0.042974,-0.042486,-79.350433,54.315453,25.029821
1732083114.554007,1732083114.554964,117.000000,0.000000,4316.794922,4294.743652,4329.102539,4320.641113,4305.384766,4303.589844,4336.666504,4340.256348,4334.487305,4329.358887,4479.102539,4508.589844,4386.025879,4419.743652,1624.000000,0.000000,7.000000,,,,0.000000,2.000000,2.000000,0.000000,2.000000,2.000000,2.000000,0.000000,2.000000,4.000000,4.000000,4.000000,4.000000,2.000000,4.000000,16.666666,,,,,,,,,,,,,,,,,,,,,,,,,,,,
1732083114.561816,1732083114.562573,118.000000,0.000000,4311.153809,4289.230957,4329.487305,4316.410156,4317.051270,4305.256348,4335.512695,4333.205078,4328.205078,4321.410156,4469.487305,4504.230957,4375.000000,4405.769043,1369.000000,0.000000,7.000000,,,,0.000000,2.000000,2.000000,0.000000,2.000000,2.000000,2.000000,0.000000,2.000000,4.000000,4.000000,4.000000,4.000000,2.000000,4.000000,16.666666,,,,,,,,,,,,,,,,,,,,,,,,,,,,
1732083114.569624,1732083114.570381,119.000000,0.000000,4303.974121,4280.000000,4326.666504,4314.230957,4314.615234,4316.922852,4339.871582,4333.333496,4330.384766,4307.307617,4460.512695,4491.282227,4367.179688,4392.179688,1503.000000,0.000000,7.000000,,,,0.000000,2.000000,2.000000,0.000000,2.000000,2.000000,2.000000,0.000000,2.000000,4.000000,4.000000,4.000000,4.000000,2.000000,4.000000,16.666666,,,,,,,,,,,,,,,,,,,,,,,,,,,,
1732083114.577432,1732083114.578089,120.000000,0.000000,4306.025879,4286.538574,4325.512695,4315.128418,4315.000000,4318.333496,4346.282227,4339.230957,4329.358887,4311.538574,4462.820313,4489.102539,4376.025879,4399.230957,1733.000000,0.000000,7.000000,,,,0.000000,2.000000,2.000000,0.000000,2.000000,2.000000,2.000000,0.000000,2.000000,4.000000,4.000000,4.000000,4.000000,2.000000,4.000000,16.666666,,,,,,,,,,,,,,,,,30.000000,0.000000,0.585529,0.359741,-0.628784,0.363831,0.980100,-0.032719,-0.044439,-79.127182,54.017185,25.274155
1732083114.585240,1732083114.585897,121.000000,0.000000,4306.794922,4287.692383,4325.641113,4313.846191,4327.179688,4311.922852,4343.461426,4342.692383,4328.974121,4320.897461,4461.282227,4488.974121,4372.948730,4398.717773,1624.000000,0.000000,7.000000,,,,0.000000,2.000000,2.000000,0.000000,2.000000,2.000000,2.000000,0.000000,2.000000,4.000000,4.000000,4.000000,4.000000,2.000000,4.000000,16.666666,,,,,,,,,,,,,,,,,,,,,,,,,,,,
1732083114.593049,1732083114.593905,122.000000,0.000000,4303.333496,4279.743652,4325.000000,4311.410156,4323.846191,4308.589844,4340.769043,4343.589844,4334.615234,4321.538574,4459.615234,4488.589844,4366.794922,4394.358887,1369.000000,0.000000,7.000000,,,,0.000000,2.000000,2.000000,0.000000,2.000000,2.000000,2.000000,0.000000,2.000000,4.000000,4.000000,4.000000,4.000000,2.000000,4.000000,16.666666,,,,,,,,,,,,,,,,,,,,,,,,,,,,
1732083114.600857,1732083114.601713,123.000000,0.000000,4310.897461,4285.641113,4326.410156,4313.589844,4300.128418,4300.000000,4338.974121,4339.230957,4335.128418,4323.974121,4470.897461,4501.025879,4378.974121,4411.025879,1503.000000,0.000000,7.000000,,,,0.000000,2.000000,2.000000,0.000000,2.000000,2.000000,2.000000,0.000000,2.000000,4.000000,4.000000,4.000000,4.000000,2.000000,4.000000,16.666666,,,,,,,,,,,,,,,,,,,,,,,,,,,,
1732083114.608665,1732083114.609622,124.000000,0.000000,4320.256348,4295.128418,4329.743652,4318.461426,4291.153809,4293.846191,4338.589844,4333.461426,4332.307617,4328.077148,4480.769043,4507.051270,4386.666504,4423.974121,1733.000000,0.000000,7.000000,,,,0.000000,2.000000,2.000000,0.000000,2.000000,2.000000,2.000000,0.000000,2.000000,4.000000,4.000000,4.000000,4.000000,2.000000,4.000000,16.666666,,,,,,,,,,,,,,,,,31.000000,0.000000,0.585874,0.359375,-0.628601,0.363953,0.968868,-0.034184,-0.030765,-79.026352,53.910587,25.595400
1732083114.616474,1732083114.617430,125.000000,0.000000,4315.384766,4290.769043,4328.205078,4318.205078,4304.743652,4304.358887,4337.692383,4333.205078,4332.307617,4327.179688,4473.333496,4493.717773,4374.743652,4413.205078,1624.000000,0.000000,7.000000,,,,0.000000,2.000000,2.000000,0.000000,2.000000,2.000000,2.000000,0.000000,2.000000,4.000000,4.000000,4.000000,4.000000,2.000000,4.000000,16.666666,,,,,,,,,,,,,,,,,,,,,,,,,,,,
1732083114.624282,1732083114.625438,126.000000,0.000000,4306.666504,4286.538574,4327.563965,4315.769043,4308.077148,4310.000000,4338.717773,4335.641113,4330.512695,4319.487305,4461.922852,4489.358887,4365.128418,4403.333496,1369.000000,0.000000,7.000000,,,,0.000000,2.000000,2.000000,0.000000,2.000000,2.000000,2.000000,0.000000,2.000000,4.000000,4.000000,4.000000,4.000000,2.000000,4.000000,16.666666,,,,,,,,,,,,,,,,,,,,,,,,,,,,
1732083114.632090,1732083114.633246,127.000000,0.000000,4303.205078,4289.615234,4326.666504,4317.179688,4305.128418,4307.692383,4340.256348,4332.820313,4327.179688,4312.820313,4459.871582,4492.179688,4367.563965,4402.179688,7.000000,0.000000,7.000000,,,,0.000000,2.000000,2.000000,0.000000,2.000000,2.000000,2.000000,0.000000,2.000000,4.000000,4.000000,4.000000,4.000000,2.000000,4.000000,16.666666,,,,,,,,,,,,,,,,,,,,,,,,,,,,
1732083114.639898,1732083114.641154,0.000000,0.000000,4300.128418,4288.333496,4325.897461,4316.153809,4313.077148,4316.922852,4344.743652,4336.666504,4326.153809,4313.589844,4457.820313,4482.307617,4364.871582,4394.487305,0.000000,0.000000,7.000000,,,,0.000000,2.000000,2.000000,0.000000,2.000000,2.000000,2.000000,0.000000,2.000000,4.000000,4.000000,4.000000,4.000000,2.000000,4.000000,16.666666,,,,,,,,,,,,,,,,,0.000000,0.000000,0.585874,0.359375,-0.628601,0.363953,0.968868,-0.034184,-0.030765,-79.084679,53.484241,25.640606
1732083114.647707,1732083114.648962,1.000000,0.000000,4295.000000,4281.410156,4326.153809,4311.153809,4325.769043,4321.794922,4346.794922,4353.717773,4329.871582,4309.230957,4451.666504,4476.794922,4356.025879,4389.615234,1299.000000,0.000000,7.000000,,,,0.000000,2.000000,2.000000,0.000000,2.000000,2.000000,2.000000,0.000000,2.000000,4.000000,4.000000,4.000000,4.000000,2.000000,4.000000,16.666666,,,,,,,,,,,,,,,,,,,,,,,,,,,,
1732083114.655515,1732083114.656970,2.000000,0.000000,4292.692383,4279.615234,4324.871582,4307.307617,4327.563965,4319.230957,4344.615234,4354.487305,4333.205078,4305.897461,4449.615234,4481.025879,4355.641113,4389.102539,1222.000000,0.000000,7.000000,,,,0.000000,2.000000,2.000000,0.000000,2.000000,2.000000,2.000000,0.000000,2.000000,4.000000,4.000000,4.000000,4.000000,2.000000,4.000000,16.666666,,,,,,,,,,,,,,,,,,,,,,,,,,,,
1732083114.663323,1732083114.664779,3.000000,0.000000,4292.692383,4279.358887,4323.205078,4308.205078,4315.384766,4324.358887,4344.743652,4335.512695,4330.897461,4314.102539,4451.666504,4479.230957,4357.948730,4385.256348,1177.000000,0.000000,7.000000,,,,0.000000,2.000000,2.000000,0.000000,2.000000,2.000000,2.000000,0.000000,2.000000,4.000000,4.000000,4.000000,4.000000,2.000000,4.000000,16.666666,,,,,,,,,,,,,,,,,,,,,,,,,,,,
1732083114.671131,1732083114.672687,4.000000,0.000000,4292.948730,4280.256348,4322.948730,4310.641113,4309.487305,4325.128418,4344.743652,4329.871582,4326.666504,4316.153809,4451.025879,4476.794922,4353.974121,4386.410156,1199.000000,0.000000,7.000000,,,,0.000000,2.000000,2.000000,0.000000,2.000000,2.000000,2.000000,0.000000,2.000000,4.000000,4.000000,4.000000,4.000000,2.000000,4.000000,16.666666,,,,,,,,,,,,,,,,,1.000000,0.000000,0.585929,0.359375,-0.628479,0.364075,0.986449,-0.032719,-0.046392,-79.300255,53.375568,25.725557
1732083114.678940,1732083114.680495,5.000000,0.000000,4295.512695,4283.333496,4323.333496,4309.743652,4314.743652,4315.256348,4343.461426,4344.358887,4330.641113,4312.692383,4453.461426,4483.205078,4354.358887,4392.307617,1083.000000,0.000000,7.000000,,,,0.000000,2.000000,2.000000,0.000000,2.000000,2.000000,2.000000,0.000000,2.000000,4.000000,4.000000,4.000000,4.000000,2.000000,4.000000,16.666666,,,,,,,,,,,,,,,,,,,,,,,,,,,,
1732083114.686748,1732083114.688503,6.000000,0.000000,4302.436035,4283.974121,4324.871582,4309.487305,4320.512695,4309.743652,4340.128418,4353.205078,4337.692383,4320.384766,4462.051270,4491.153809,4363.846191,4394.743652,28.000000,0.000000,7.000000,,,,0.000000,2.000000,2.000000,0.000000,2.000000,2.000000,2.000000,0.000000,2.000000,4.000000,4.000000,4.000000,4.000000,2.000000,4.000000,16.666666,,,,,,,,,,,,,,,,,,,,,,,,,,,,
1732083114.694556,1732083114.696311,7.000000,0.000000,4309.358887,4284.358887,4326.922852,4311.922852,4319.230957,4310.641113,4338.974121,4345.128418,4332.948730,4322.051270,4465.769043,4493.974121,4368.205078,4396.282227,1195.000000,0.000000,7.000000,,,,0.000000,2.000000,2.000000,0.000000,2.000000,2.000000,2.000000,0.000000,2.000000,4.000000,4.000000,4.000000,4.000000,2.000000,4.000000,16.666666,,,,,,,,,,,,,,,,,,,,,,,,,,,,
1732083114.702365,1732083114.704219,8.000000,0.000000,4310.384766,4292.051270,4326.410156,4315.256348,4312.179688,4307.820313,4338.974121,4333.846191,4324.230957,4315.384766,4462.436035,4492.436035,4365.897461,4401.666504,1389.000000,0.000000,7.000000,,,,0.000000,2.000000,2.000000,0.000000,2.000000,2.000000,2.000000,0.000000,2.000000,4.000000,4.000000,4.000000,4.000000,2.000000,4.000000,16.666666,,,,,,,,,,,,,,,,,2.000000,0.000000,0.585986,0.359497,-0.628357,0.364075,0.989867,-0.035649,-0.047857,-79.291542,53.379211,25.982702
1732083114.710173,1732083114.712027,9.000000,0.000000,4304.743652,4296.153809,4327.051270,4317.820313,4308.333496,4311.922852,4342.051270,4333.589844,4322.179688,4315.769043,4462.179688,4490.384766,4367.436035,4403.589844,1523.000000,0.000000,7.000000,,,,0.000000,2.000000,2.000000,0.000000,2.000000,2.000000,2.000000,0.000000,2.000000,4.000000,4.000000,4.000000,4.000000,2.000000,4.000000,16.666666,,,,,,,,,,,,,,,,,,,,,,,,,,,,
1732083114.717981,1732083114.720035,10.000000,0.000000,4297.307617,4291.410156,4326.794922,4318.333496,4312.436035,4326.538574,4343.717773,4341.794922,4324.743652,4312.179688,4463.205078,4489.358887,4366.794922,4397.307617,1377.000000,0.000000,7.000000,,,,0.000000,2.000000,2.000000,0.000000,2.000000,2.000000,2.000000,0.000000,2.000000,4.000000,4.000000,4.000000,4.000000,2.000000,4.000000,16.666666,,,,,,,,,,,,,,,,,,,,,,,,,,,,
1732083114.725789,1732083114.727844,11.000000,0.000000,4291.922852,4287.820313,4326.153809,4315.512695,4325.384766,4331.282227,4345.769043,4343.461426,4323.589844,4307.051270,4454.615234,4482.051270,4355.256348,4387.051270,1504.000000,0.000000,7.000000,,,,0.000000,2.000000,2.000000,0.000000,2.000000,2.000000,2.000000,0.000000,2.000000,4.000000,4.000000,4.000000,4.000000,2.000000,4.000000,16.666666,,,,,,,,,,,,,,,,,,,,,,,,,,,,
1732083114.733598,1732083114.735552,12.000000,0.000000,4291.282227,4286.922852,4326.410156,4313.589844,4334.615234,4320.512695,4343.589844,4340.128418,4324.487305,4309.871582,4449.102539,4474.487305,4346.666504,4385.512695,1738.000000,0.000000,7.000000,,,,0.000000,2.000000,2.000000,0.000000,2.000000,2.000000,2.000000,0.000000,2.000000,4.000000,4.000000,4.000000,4.000000,2.000000,4.000000,16.666666,,,,,,,,,,,,,,,,,3.000000,0.000000,0.585825,0.359680,-0.628296,0.364258,0.989867,-0.035649,-0.047857,-79.249481,53.425495,26.009321
1732083114.741406,1732083114.743360,13.000000,0.000000,4298.333496,4287.307617,4326.410156,4317.563965,4324.230957,4309.743652,4339.487305,4342.051270,4329.487305,4307.563965,4457.307617,4481.666504,4356.410156,4395.512695,1631.000000,0.000000,7.000000,,,,0.000000,2.000000,2.000000,0.000000,2.000000,2.000000,2.000000,0.000000,2.000000,4.000000,4.000000,4.000000,4.000000,2.000000,4.000000,16.666666,,,,,,,,,,,,,,,,,,,,,,,,,,,,
1732083114.749214,1732083114.751068,14.000000,0.000000,4305.384766,4292.179688,4324.358887,4322.563965,4306.410156,4310.769043,4337.692383,4342.563965,4329.743652,4311.282227,4463.974121,4494.358887,4366.666504,4400.256348,1377.000000,0.000000,7.000000,,,,0.000000,2.000000,2.000000,0.000000,2.000000,2.000000,2.000000,0.000000,2.000000,4.000000,4.000000,4.000000,4.000000,2.000000,4.000000,16.666666,1.000000,16.666666,2.000000,2.000000,0.000000,2.000000,2.000000,2.000000,0.000000,2.000000,4.000000,4.000000,4.000000,4.000000,2.000000,4.000000,,,,,,,,,,,,
1732083114.757022,1732083114.758877,15.000000,0.000000,4302.692383,4295.000000,4327.948730,4322.307617,4310.000000,4309.871582,4338.974121,4332.307617,4321.794922,4322.179688,4460.128418,4494.743652,4360.384766,4397.179688,1504.000000,0.000000,7.000000,,,,0.000000,2.000000,2.000000,0.000000,2.000000,2.000000,2.000000,0.000000,2.000000,4.000000,4.000000,4.000000,4.000000,2.000000,4.000000,16.666666,,,,,,,,,,,,,,,,,,,,,,,,,,,,
1732083114.764831,1732083114.766585,16.000000,0.000000,4299.743652,4295.384766,4328.846191,4322.307617,4317.563965,4297.051270,4336.666504,4323.974121,4313.333496,4318.717773,4458.589844,4488.333496,4357.179688,4398.589844,0.000000,0.000000,7.000000,,,,0.000000,2.000000,2.000000,0.000000,2.000000,2.000000,2.000000,0.000000,2.000000,4.000000,4.000000,4.000000,4.000000,2.000000,4.000000,16.666666,,,,,,,,,,,,,,,,,4.000000,0.000000,0.585425,0.360352,-0.627930,0.364868,0.975705,-0.036137,-0.038579,-79.518745,53.407982,25.975883
1732083114.772639,1732083114.774393,17.000000,0.000000,4301.794922,4293.589844,4325.641113,4322.436035,4311.794922,4294.102539,4336.025879,4327.563965,4313.333496,4312.307617,4462.179688,4488.077148,4363.205078,4403.205078,0.000000,0.000000,7.000000,,,,0.000000,2.000000,2.000000,0.000000,2.000000,2.000000,2.000000,0.000000,2.000000,4.000000,4.000000,4.000000,4.000000,2.000000,4.000000,16.666666,,,,,,,,,,,,,,,,,,,,,,,,,,,,
1732083114.780447,1732083114.782002,18.000000,0.000000,4297.948730,4290.128418,4326.282227,4316.794922,4314.871582,4306.025879,4339.102539,4333.077148,4323.077148,4316.025879,4460.641113,4491.538574,4360.384766,4401.794922,0.000000,0.000000,7.000000,,,,0.000000,2.000000,2.000000,0.000000,2.000000,2.000000,2.000000,0.000000,2.000000,4.000000,4.000000,4.000000,4.000000,2.000000,4.000000,16.666666,,,,,,,,,,,,,,,,,,,,,,,,,,,,
1732083114.788255,1732083114.789810,19.000000,0.000000,4294.871582,4290.512695,4328.333496,4313.589844,4319.615234,4312.436035,4342.692383,4338.974121,4332.051270,4317.307617,4458.717773,4490.256348,4354.358887,4396.153809,0.000000,0.000000,7.000000,,,,0.000000,2.000000,2.000000,0.000000,2.000000,2.000000,2.000000,0.000000,2.000000,4.000000,4.000000,4.000000,4.000000,2.000000,4.000000,16.666666,,,,,,,,,,,,,,,,,,,,,,,,,,,,
1732083114.796064,1732083114.797518,20.000000,0.000000,4299.487305,4291.922852,4325.512695,4314.102539,4314.102539,4312.436035,4346.410156,4340.641113,4324.487305,4311.666504,4459.615234,4481.666504,4357.692383,4393.589844,0.000000,0.000000,7.000000,,,,0.000000,2.000000,2.000000,0.000000,2.000000,2.000000,2.000000,0.000000,2.000000,4.000000,4.000000,4.000000,4.000000,2.000000,4.000000,16.666666,,,,,,,,,,,,,,,,,5.000000,0.000000,0.584962,0.360962,-0.627869,0.365112,0.975217,-0.045416,-0.041509,-79.611855,53.502132,25.920465
1732083114.803872,1732083114.805326,21.000000,0.000000,4296.282227,4285.384766,4323.333496,4310.641113,4316.153809,4320.641113,4346.922852,4336.538574,4316.153809,4310.512695,4455.128418,4474.871582,4356.025879,4391.922852,0.000000,0.000000,7.000000,,,,0.000000,2.000000,2.000000,0.000000,2.000000,2.000000,2.000000,0.000000,2.000000,4.000000,4.000000,4.000000,4.000000,2.000000,4.000000,16.666666,,,,,,,,,,,,,,,,,,,,,,,,,,,,
1732083114.811680,1732083114.812935,22.000000,0.000000,4289.230957,4282.436035,4324.743652,4308.589844,4331.922852,4321.538574,4343.589844,4332.563965,4319.358887,4311.538574,4449.230957,4477.307617,4350.512695,4388.717773,0.000000,0.000000,7.000000,,,,0.000000,2.000000,2.000000,0.000000,2.000000,2.000000,2.000000,0.000000,2.000000,4.000000,4.000000,4.000000,4.000000,2.000000,4.000000,16.666666,,,,,,,,,,,,,,,,,,,,,,,,,,,,
1732083114.819488,1732083114.820743,23.000000,0.000000,4294.102539,4288.974121,4325.000000,4310.769043,4333.077148,4313.205078,4338.974121,4331.410156,4319.358887,4308.974121,4454.102539,4478.205078,4354.743652,4390.256348,0.000000,0.000000,7.000000,,,,0.000000,2.000000,2.000000,0.000000,2.000000,2.000000,2.000000,0.000000,2.000000,4.000000,4.000000,4.000000,4.000000,2.000000,4.000000,16.666666,,,,,,,,,,,,,,,,,,,,,,,,,,,,
1732083114.827297,1732083114.828451,24.000000,0.000000,4298.077148,4292.563965,4325.897461,4312.051270,4313.205078,4314.743652,4339.358887,4331.922852,4318.461426,4310.128418,4461.282227,4479.230957,4358.205078,4397.179688,0.000000,0.000000,7.000000,,,,0.000000,2.000000,2.000000,0.000000,2.000000,2.000000,2.000000,0.000000,2.000000,4.000000,4.000000,4.000000,4.000000,2.000000,4.000000,16.666666,,,,,,,,,,,,,,,,,6.000000,0.000000,0.584698,0.361389,-0.627869,0.365112,0.974240,-0.032230,-0.054206,-79.717270,53.583393,25.900578
1732083114.835105,1732083114.836259,25.000000,0.000000,4295.128418,4291.282227,4327.692383,4311.538574,4304.615234,4309.871582,4337.179688,4332.179688,4322.051270,4315.256348,4458.846191,4484.230957,4357.179688,4398.589844,0.000000,0.000000,7.000000,,,,0.000000,2.000000,2.000000,0.000000,2.000000,2.000000,2.000000,0.000000,2.000000,4.000000,4.000000,4.000000,4.000000,2.000000,4.000000,16.666666,,,,,,,,,,,,,,,,,,,,,,,,,,,,
1732083114.842913,1732083114.843868,26.000000,0.000000,4293.205078,4289.102539,4328.846191,4308.205078,4311.025879,4298.461426,4339.102539,4331.666504,4319.871582,4309.102539,4458.205078,4483.077148,4358.333496,4394.230957,0.000000,0.000000,7.000000,,,,0.000000,2.000000,2.000000,0.000000,2.000000,2.000000,2.000000,0.000000,2.000000,4.000000,4.000000,4.000000,4.000000,2.000000,4.000000,16.666666,,,,,,,,,,,,,,,,,,,,,,,,,,,,
1732083114.850721,1732083114.851676,27.000000,0.000000,4293.846191,4286.922852,4327.692383,4308.333496,4311.025879,4305.256348,4340.641113,4332.436035,4318.589844,4300.897461,4460.641113,4479.358887,4357.307617,4391.666504,0.000000,0.000000,7.000000,,,,0.000000,2.000000,2.000000,0.000000,2.000000,2.000000,2.000000,0.000000,2.000000,4.000000,4.000000,4.000000,4.000000,2.000000,4.000000,16.666666,,,,,,,,,,,,,,,,,,,,,,,,,,,,
1732083114.858530,1732083114.859384,28.000000,0.000000,4293.333496,4289.102539,4327.948730,4312.307617,4309.102539,4316.410156,4337.692383,4334.230957,4325.384766,4307.563965,4453.974121,4479.102539,4348.846191,4389.358887,0.000000,0.000000,7.000000,,,,0.000000,2.000000,2.000000,0.000000,2.000000,2.000000,2.000000,0.000000,2.000000,4.000000,4.000000,4.000000,4.000000,2.000000,4.000000,16.666666,,,,,,,,,,,,,,,,,7.000000,0.000000,0.584719,0.361389,-0.627991,0.364868,0.955195,-0.051764,-0.058113,-79.739319,53.535885,26.204468
1732083114.866338,1732083114.867193,29.000000,0.000000,4293.846191,4293.589844,4326.666504,4312.179688,4315.000000,4313.589844,4333.974121,4334.358887,4324.743652,4311.282227,4446.282227,4477.563965,4345.641113,4384.358887,0.000000,0.000000,7.000000,,,,0.000000,2.000000,2.000000,0.000000,2.000000,2.000000,2.000000,0.000000,2.000000,4.000000,4.000000,4.000000,4.000000,2.000000,4.000000,16.666666,,,,,,,,,,,,,,,,,,,,,,,,,,,,
1732083114.874146,1732083114.874801,30.000000,0.000000,4294.743652,4293.205078,4327.051270,4309.871582,4315.384766,4312.051270,4340.512695,4339.102539,4322.948730,4305.000000,4447.179688,4476.666504,4347.563965,4383.077148,0.000000,0.000000,7.000000,,,,0.000000,2.000000,2.000000,0.000000,2.000000,2.000000,2.000000,0.000000,2.000000,4.000000,4.000000,4.000000,4.000000,2.000000,4.000000,16.666666,,,,,,,,,,,,,,,,,,,,,,,,,,,,
1732083114.881955,1732083114.882609,31.000000,0.000000,4294.358887,4290.000000,4328.589844,4310.769043,4321.922852,4315.000000,4342.820313,4340.000000,4325.897461,4307.436035,4450.897461,4477.179688,4345.641113,4385.384766,0.000000,0.000000,7.000000,,,,0.000000,2.000000,2.000000,0.000000,2.000000,2.000000,2.000000,0.000000,2.000000,4.000000,4.000000,4.000000,4.000000,2.000000,4.000000,16.666666,,,,,,,,,,,,,,,,,,,,,,,,,,,,
1732083114.889763,1732083114.890317,32.000000,0.000000,4294.871582,4287.307617,4328.333496,4309.871582,4331.794922,4312.436035,4336.666504,4326.794922,4318.205078,4306.025879,4448.205078,4474.230957,4345.384766,4385.128418,0.000000,0.000000,7.000000,,,,0.000000,2.000000,2.000000,0.000000,2.000000,2.000000,2.000000,0.000000,2.000000,4.000000,4.000000,4.000000,4.000000,2.000000,4.000000,16.666666,,,,,,,,,,,,,,,,,8.000000,0.000000,0.584845,0.361633,-0.628052,0.364319,0.992797,-0.042486,-0.054206,-79.773849,53.594067,26.180618
1732083114.897571,1732083114.898126,33.000000,0.000000,4297.051270,4288.589844,4326.794922,4310.000000,4322.051270,4311.153809,4335.128418,4324.358887,4315.512695,4299.487305,4447.563965,4478.589844,4350.128418,4387.692383,0.000000,0.000000,7.000000,,,,0.000000,2.000000,2.000000,0.000000,2.000000,2.000000,2.000000,0.000000,2.000000,4.000000,4.000000,4.000000,4.000000,2.000000,4.000000,16.666666,,,,,,,,,,,,,,,,,,,,,,,,,,,,
1732083114.905379,1732083114.906134,34.000000,0.000000,4300.897461,4295.256348,4327.692383,4317.563965,4304.102539,4313.846191,4339.230957,4337.563965,4326.410156,4303.717773,4456.410156,4492.820313,4353.589844,4395.897461,0.000000,0.000000,7.000000,,,,0.000000,2.000000,2.000000,0.000000,2.000000,2.000000,2.000000,0.000000,2.000000,4.000000,4.000000,4.000000,4.000000,2.000000,4.000000,16.666666,,,,,,,,,,,,,,,,,,,,,,,,,,,,
1732083114.913188,1732083114.913942,35.000000,0.000000,4302.307617,4297.051270,4328.461426,4319.743652,4304.230957,4311.538574,4339.230957,4337.563965,4327.820313,4308.589844,4461.025879,4494.230957,4354.743652,4399.230957,0.000000,0.000000,7.000000,,,,0.000000,2.000000,2.000000,0.000000,2.000000,2.000000,2.000000,0.000000,2.000000,4.000000,4.000000,4.000000,4.000000,2.000000,4.000000,16.666666,,,,,,,,,,,,,,,,,,,,,,,,,,,,
1732083114.920996,1732083114.921850,36.000000,0.000000,4298.717773,4290.769043,4326.410156,4311.794922,4323.974121,4301.153809,4335.897461,4327.948730,4321.538574,4310.128418,4456.794922,4487.179688,4355.512695,4396.666504,0.000000,0.000000,7.000000,,,,0.000000,2.000000,2.000000,0.000000,2.000000,2.000000,2.000000,0.000000,2.000000,4.000000,4.000000,4.000000,4.000000,2.000000,4.000000,16.666666,,,,,,,,,,,,,,,,,9.000000,0.000000,0.584457,0.362305,-0.627991,0.364380,0.977658,-0.031742,-0.060066,-79.778481,53.832859,25.981302
1732083114.928804,1732083114.929658,37.000000,0.000000,4295.512695,4287.179688,4324.615234,4309.102539,4321.538574,4297.948730,4338.846191,4330.128418,4325.769043,4315.128418,4457.436035,4489.487305,4358.205078,4397.307617,0.000000,0.000000,7.000000,,,,0.000000,2.000000,2.000000,0.000000,2.000000,2.000000,2.000000,0.000000,2.000000,4.000000,4.000000,4.000000,4.000000,2.000000,4.000000,16.666666,,,,,,,,,,,,,,,,,,,,,,,,,,,,
1732083114.936612,1732083114.937666,38.000000,0.000000,4295.512695,4290.897461,4324.102539,4310.384766,4297.692383,4306.666504,4340.769043,4333.205078,4330.897461,4311.025879,4460.512695,4488.846191,4362.436035,4399.230957,0.000000,0.000000,7.000000,,,,0.000000,2.000000,2.000000,0.000000,2.000000,2.000000,2.000000,0.000000,2.000000,4.000000,4.000000,4.000000,4.000000,2.000000,4.000000,16.666666,,,,,,,,,,,,,,,,,,,,,,,,,,,,
1732083114.944421,1732083114.945474,39.000000,0.000000,4294.102539,4291.025879,4324.871582,4304.871582,4294.871582,4315.512695,4342.692383,4340.512695,4329.871582,4302.948730,4457.692383,4478.333496,4360.384766,4393.461426,0.000000,0.000000,7.000000,,,,0.000000,2.000000,2.000000,0.000000,2.000000,2.000000,2.000000,0.000000,2.000000,4.000000,4.000000,4.000000,4.000000,2.000000,4.000000,16.666666,,,,,,,,,,,,,,,,,,,,,,,,,,,,
1732083114.952229,1732083114.953183,40.000000,0.000000,4289.615234,4287.692383,4324.615234,4298.589844,4310.769043,4316.666504,4343.461426,4349.615234,4332.307617,4308.974121,4453.205078,4472.436035,4353.589844,4387.051270,0.000000,0.000000,7.000000,,,,0.000000,2.000000,2.000000,0.000000,2.000000,2.000000,2.000000,0.000000,2.000000,4.000000,4.000000,4.000000,4.000000,2.000000,4.000000,16.666666,,,,,,,,,,,,,,,,,10.000000,0.000000,0.584268,0.362488,-0.627991,0.364502,0.983030,-0.036137,-0.059089,-79.643906,53.876282,25.899855
1732083114.960037,1732083114.960991,41.000000,0.000000,4288.077148,4288.205078,4322.563965,4301.922852,4314.743652,4313.717773,4344.102539,4337.692383,4329.487305,4312.307617,4448.974121,4474.230957,4352.436035,4385.128418,0.000000,0.000000,7.000000,,,,0.000000,2.000000,2.000000,0.000000,2.000000,2.000000,2.000000,0.000000,2.000000,4.000000,4.000000,4.000000,4.000000,2.000000,4.000000,16.666666,,,,,,,,,,,,,,,,,,,,,,,,,,,,
1732083114.967846,1732083114.968599,42.000000,0.000000,4292.051270,4293.333496,4322.692383,4310.384766,4308.461426,4312.179688,4341.794922,4323.205078,4325.641113,4307.692383,4451.538574,4479.871582,4355.128418,4386.282227,0.000000,0.000000,7.000000,,,,0.000000,2.000000,2.000000,0.000000,2.000000,2.000000,2.000000,0.000000,2.000000,4.000000,4.000000,4.000000,4.000000,2.000000,4.000000,16.666666,,,,,,,,,,,,,,,,,,,,,,,,,,,,
1732083114.975654,1732083114.976408,43.000000,0.000000,4294.743652,4295.128418,4327.692383,4313.077148,4319.230957,4313.717773,4340.512695,4331.282227,4328.717773,4308.717773,4456.666504,4486.922852,4354.358887,4385.384766,0.000000,0.000000,7.000000,,,,0.000000,2.000000,2.000000,0.000000,2.000000,2.000000,2.000000,0.000000,2.000000,4.000000,4.000000,4.000000,4.000000,2.000000,4.000000,16.666666,,,,,,,,,,,,,,,,,,,,,,,,,,,,
1732083114.983462,1732083114.984316,44.000000,0.000000,4294.871582,4293.974121,4328.077148,4309.487305,4325.384766,4310.256348,4337.820313,4338.717773,4328.974121,4311.025879,4455.384766,4492.179688,4355.512695,4387.051270,0.000000,0.000000,7.000000,,,,0.000000,2.000000,2.000000,0.000000,2.000000,2.000000,2.000000,0.000000,2.000000,4.000000,4.000000,4.000000,4.000000,2.000000,4.000000,16.666666,,,,,,,,,,,,,,,,,11.000000,0.000000,0.584078,0.362610,-0.627991,0.364685,0.998657,-0.038579,-0.059578,-79.173233,53.773121,25.950548
1732083114.991270,1732083114.992124,45.000000,0.000000,4299.615234,4294.230957,4325.000000,4309.487305,4308.846191,4302.948730,4337.051270,4327.820313,4325.512695,4308.461426,4458.333496,4492.692383,4361.282227,4396.282227,0.000000,0.000000,7.000000,,,,0.000000,2.000000,2.000000,0.000000,2.000000,2.000000,2.000000,0.000000,2.000000,4.000000,4.000000,4.000000,4.000000,2.000000,4.000000,16.666666,,,,,,,,,,,,,,,,,,,,,,,,,,,,
1732083114.999079,1732083115.000132,46.000000,0.000000,4309.743652,4298.589844,4325.384766,4317.307617,4294.487305,4306.794922,4338.974121,4322.692383,4324.487305,4309.871582,4464.230957,4491.794922,4364.487305,4402.692383,0.000000,0.000000,7.000000,,,,0.000000,2.000000,2.000000,0.000000,2.000000,2.000000,2.000000,0.000000,2.000000,4.000000,4.000000,4.000000,4.000000,2.000000,4.000000,16.666666,,,,,,,,,,,,,,,,,,,,,,,,,,,,
1732083115.006887,1732083115.007940,47.000000,0.000000,4310.769043,4302.307617,4329.743652,4318.589844,4310.384766,4307.948730,4339.743652,4331.025879,4324.871582,4310.512695,4461.410156,4490.769043,4361.666504,4398.205078,0.000000,0.000000,7.000000,,,,0.000000,2.000000,2.000000,0.000000,2.000000,2.000000,2.000000,0.000000,2.000000,4.000000,4.000000,4.000000,4.000000,2.000000,4.000000,16.666666,,,,,,,,,,,,,,,,,,,,,,,,,,,,
1732083115.014695,1732083115.015848,48.000000,0.000000,4300.000000,4297.563965,4327.692383,4310.769043,4327.563965,4302.563965,4336.282227,4332.179688,4325.000000,4306.794922,4456.282227,4487.948730,4357.051270,4393.077148,0.000000,0.000000,7.000000,,,,0.000000,2.000000,2.000000,0.000000,2.000000,2.000000,2.000000,0.000000,2.000000,4.000000,4.000000,4.000000,4.000000,2.000000,4.000000,16.666666,,,,,,,,,,,,,,,,,12.000000,0.000000,0.583925,0.362671,-0.627991,0.364868,0.984007,-0.027347,-0.064461,-79.313652,53.857895,25.943277
1732083115.022504,1732083115.023656,49.000000,0.000000,4294.487305,4293.717773,4323.333496,4308.974121,4308.333496,4307.563965,4336.794922,4328.333496,4326.410156,4308.974121,4451.922852,4486.794922,4354.487305,4394.615234,0.000000,0.000000,7.000000,,,,0.000000,2.000000,2.000000,0.000000,2.000000,2.000000,2.000000,0.000000,2.000000,4.000000,4.000000,4.000000,4.000000,2.000000,4.000000,16.666666,,,,,,,,,,,,,,,,,,,,,,,,,,,,
1732083115.030312,1732083115.031664,50.000000,0.000000,4296.666504,4294.871582,4324.230957,4311.025879,4295.384766,4313.461426,4339.487305,4332.948730,4326.410156,4305.512695,4447.563965,4487.563965,4352.563965,4396.666504,0.000000,0.000000,7.000000,,,,0.000000,2.000000,2.000000,0.000000,2.000000,2.000000,2.000000,0.000000,2.000000,4.000000,4.000000,4.000000,4.000000,2.000000,4.000000,16.666666,,,,,,,,,,,,,,,,,,,,,,,,,,,,
1732083115.038120,1732083115.039473,51.000000,0.000000,4297.179688,4295.641113,4327.051270,4311.666504,4307.948730,4311.153809,4338.333496,4335.897461,4323.589844,4293.077148,4447.307617,4488.974121,4349.230957,4394.102539,0.000000,0.000000,7.000000,,,,0.000000,2.000000,2.000000,0.000000,2.000000,2.000000,2.000000,0.000000,2.000000,4.000000,4.000000,4.000000,4.000000,2.000000,4.000000,16.666666,,,,,,,,,,,,,,,,,,,,,,,,,,,,
1732083115.045928,1732083115.047381,52.000000,0.000000,4296.282227,4294.102539,4325.000000,4312.563965,4311.666504,4311.025879,4338.461426,4330.769043,4323.205078,4293.333496,4449.615234,4488.974121,4347.820313,4390.769043,0.000000,0.000000,7.000000,,,,0.000000,2.000000,2.000000,0.000000,2.000000,2.000000,2.000000,0.000000,2.000000,4.000000,4.000000,4.000000,4.000000,2.000000,4.000000,16.666666,,,,,,,,,,,,,,,,,13.000000,0.000000,0.583891,0.362549,-0.628235,0.364624,0.980100,-0.045416,-0.056159,-79.312393,53.788227,26.172388
1732083115.053737,1732083115.055189,53.000000,0.000000,4295.769043,4292.820313,4322.179688,4312.563965,4314.743652,4306.538574,4339.743652,4330.256348,4325.128418,4303.461426,4450.512695,4490.384766,4350.769043,4390.384766,0.000000,0.000000,7.000000,,,,0.000000,2.000000,2.000000,0.000000,2.000000,2.000000,2.000000,0.000000,2.000000,4.000000,4.000000,4.000000,4.000000,2.000000,4.000000,16.666666,,,,,,,,,,,,,,,,,,,,,,,,,,,,
1732083115.061545,1732083115.063197,54.000000,0.000000,4296.153809,4295.000000,4326.794922,4311.922852,4320.128418,4299.487305,4339.487305,4330.641113,4323.589844,4303.333496,4452.051270,4491.282227,4352.820313,4394.743652,0.000000,0.000000,7.000000,,,,0.000000,2.000000,2.000000,0.000000,2.000000,2.000000,2.000000,0.000000,2.000000,4.000000,4.000000,4.000000,4.000000,2.000000,4.000000,16.666666,,,,,,,,,,,,,,,,,,,,,,,,,,,,
1732083115.069353,1732083115.071005,55.000000,0.000000,4300.000000,4296.153809,4330.384766,4313.589844,4304.102539,4304.871582,4336.794922,4328.974121,4321.794922,4301.922852,4455.769043,4491.025879,4355.769043,4400.512695,0.000000,0.000000,7.000000,,,,0.000000,2.000000,2.000000,0.000000,2.000000,2.000000,2.000000,0.000000,2.000000,4.000000,4.000000,4.000000,4.000000,2.000000,4.000000,16.666666,,,,,,,,,,,,,,,,,,,,,,,,,,,,
1732083115.077161,1732083115.078913,56.000000,0.000000,4300.384766,4293.077148,4327.179688,4313.333496,4290.384766,4308.717773,4337.692383,4332.179688,4327.436035,4308.974121,4459.615234,4491.538574,4356.922852,4397.820313,0.000000,0.000000,7.000000,,,,0.000000,2.000000,2.000000,0.000000,2.000000,2.000000,2.000000,0.000000,2.000000,4.000000,4.000000,4.000000,4.000000,2.000000,4.000000,16.666666,,,,,,,,,,,,,,,,,14.000000,0.000000,0.583901,0.362549,-0.628296,0.364502,0.981077,-0.031742,-0.053229,-79.158035,53.923466,26.329634
1732083115.084970,1732083115.086721,57.000000,0.000000,4294.871582,4291.538574,4321.794922,4308.461426,4304.102539,4305.128418,4337.307617,4336.025879,4333.077148,4308.333496,4457.948730,4485.769043,4352.307617,4390.256348,0.000000,0.000000,7.000000,,,,0.000000,2.000000,2.000000,0.000000,2.000000,2.000000,2.000000,0.000000,2.000000,4.000000,4.000000,4.000000,4.000000,2.000000,4.000000,16.666666,,,,,,,,,,,,,,,,,,,,,,,,,,,,
1732083115.092778,1732083115.094729,58.000000,0.000000,4292.948730,4288.974121,4323.461426,4306.153809,4312.563965,4309.487305,4338.717773,4340.384766,4329.358887,4303.589844,4449.871582,4474.871582,4347.051270,4386.025879,0.000000,0.000000,7.000000,,,,0.000000,2.000000,2.000000,0.000000,2.000000,2.000000,2.000000,0.000000,2.000000,4.000000,4.000000,4.000000,4.000000,2.000000,4.000000,16.666666,,,,,,,,,,,,,,,,,,,,,,,,,,,,
1732083115.100586,1732083115.102538,59.000000,0.000000,4292.436035,4284.615234,4324.230957,4304.487305,4304.230957,4314.615234,4339.102539,4339.615234,4324.871582,4306.538574,4450.000000,4472.051270,4347.436035,4385.384766,0.000000,0.000000,7.000000,,,,0.000000,2.000000,2.000000,0.000000,2.000000,2.000000,2.000000,0.000000,2.000000,4.000000,4.000000,4.000000,4.000000,2.000000,4.000000,16.666666,,,,,,,,,,,,,,,,,,,,,,,,,,,,
1732083115.108394,1732083115.110446,60.000000,0.000000,4291.153809,4284.230957,4323.974121,4301.153809,4301.794922,4306.538574,4340.000000,4330.897461,4324.358887,4306.538574,4453.974121,4478.974121,4351.025879,4386.025879,0.000000,0.000000,7.000000,,,,0.000000,2.000000,2.000000,0.000000,2.000000,2.000000,2.000000,0.000000,2.000000,4.000000,4.000000,4.000000,4.000000,2.000000,4.000000,16.666666,,,,,,,,,,,,,,,,,15.000000,0.000000,0.583950,0.362427,-0.628357,0.364441,0.983518,-0.031742,-0.053229,-79.416344,53.969673,26.398670
1732083115.116202,1732083115.118254,61.000000,0.000000,4289.487305,4282.563965,4323.333496,4297.051270,4312.692383,4298.205078,4340.384766,4328.846191,4323.846191,4300.897461,4446.538574,4479.615234,4350.000000,4381.410156,0.000000,0.000000,7.000000,,,,0.000000,2.000000,2.000000,0.000000,2.000000,2.000000,2.000000,0.000000,2.000000,4.000000,4.000000,4.000000,4.000000,2.000000,4.000000,16.666666,,,,,,,,,,,,,,,,,,,,,,,,,,,,
1732083115.124011,1732083115.126262,62.000000,0.000000,4286.794922,4281.538574,4322.563965,4298.205078,4314.615234,4301.410156,4342.307617,4332.051270,4321.922852,4302.948730,4443.077148,4477.051270,4347.820313,4378.333496,0.000000,0.000000,7.000000,,,,0.000000,2.000000,2.000000,0.000000,2.000000,2.000000,2.000000,0.000000,2.000000,4.000000,4.000000,4.000000,4.000000,2.000000,4.000000,16.666666,,,,,,,,,,,,,,,,,,,,,,,,,,,,
1732083115.131819,1732083115.134070,63.000000,0.000000,4290.128418,4290.128418,4323.846191,4303.846191,4297.051270,4309.743652,4343.589844,4332.436035,4324.102539,4305.000000,4453.205078,4484.102539,4351.538574,4389.743652,0.000000,0.000000,7.000000,,,,0.000000,2.000000,2.000000,0.000000,2.000000,2.000000,2.000000,0.000000,2.000000,4.000000,4.000000,4.000000,4.000000,2.000000,4.000000,16.666666,,,,,,,,,,,,,,,,,,,,,,,,,,,,
1732083115.139627,1732083115.141779,64.000000,0.000000,4295.512695,4297.563965,4325.641113,4304.871582,4287.179688,4312.436035,4341.538574,4337.692383,4328.589844,4300.000000,4461.153809,4492.820313,4355.769043,4400.769043,0.000000,0.000000,7.000000,,,,0.000000,2.000000,2.000000,0.000000,2.000000,2.000000,2.000000,0.000000,2.000000,4.000000,4.000000,4.000000,4.000000,2.000000,4.000000,16.666666,,,,,,,,,,,,,,,,,16.000000,0.000000,0.583629,0.362854,-0.628479,0.364319,0.979612,-0.036137,-0.070809,-79.475571,54.107101,26.404591
1732083115.147436,1732083115.149587,65.000000,0.000000,4294.358887,4294.230957,4324.871582,4304.743652,4300.769043,4307.436035,4338.589844,4341.794922,4329.358887,4303.846191,4459.230957,4491.025879,4353.846191,4396.025879,1302.000000,0.000000,7.000000,,,,0.000000,2.000000,2.000000,0.000000,2.000000,2.000000,2.000000,0.000000,2.000000,4.000000,4.000000,4.000000,4.000000,2.000000,4.000000,16.666666,,,,,,,,,,,,,,,,,,,,,,,,,,,,
1732083115.155244,1732083115.157195,66.000000,0.000000,4292.563965,4293.589844,4325.000000,4305.384766,4302.307617,4306.666504,4340.641113,4341.153809,4330.769043,4315.384766,4460.256348,4487.692383,4351.922852,4392.563965,1222.000000,0.000000,7.000000,,,,0.000000,2.000000,2.000000,0.000000,2.000000,2.000000,2.000000,0.000000,2.000000,4.000000,4.000000,4.000000,4.000000,2.000000,4.000000,16.666666,,,,,,,,,,,,,,,,,,,,,,,,,,,,
1732083115.163052,1732083115.165003,67.000000,0.000000,4295.512695,4297.051270,4327.436035,4304.102539,4292.948730,4310.384766,4343.717773,4339.871582,4332.179688,4315.384766,4458.846191,4491.666504,4350.512695,4398.333496,1179.000000,0.000000,7.000000,,,,0.000000,2.000000,2.000000,0.000000,2.000000,2.000000,2.000000,0.000000,2.000000,4.000000,4.000000,4.000000,4.000000,2.000000,4.000000,16.666666,,,,,,,,,,,,,,,,,,,,,,,,,,,,
1732083115.170860,1732083115.172712,68.000000,0.000000,4294.871582,4297.051270,4326.282227,4299.487305,4308.461426,4307.820313,4341.025879,4334.871582,4325.641113,4305.769043,4447.692383,4489.102539,4343.589844,4394.102539,1207.000000,0.000000,7.000000,,,,0.000000,2.000000,2.000000,0.000000,2.000000,2.000000,2.000000,0.000000,2.000000,4.000000,4.000000,4.000000,4.000000,2.000000,4.000000,16.666666,,,,,,,,,,,,,,,,,17.000000,0.000000,0.583487,0.362976,-0.628540,0.364319,0.971310,-0.047857,-0.048834,-79.625214,54.116753,26.372717
1732083115.178669,1732083115.180520,69.000000,0.000000,4291.153809,4294.615234,4324.358887,4297.563965,4316.153809,4304.102539,4341.153809,4336.794922,4321.666504,4302.563965,4445.512695,4481.666504,4342.692383,4385.512695,1080.000000,0.000000,7.000000,,,,0.000000,2.000000,2.000000,0.000000,2.000000,2.000000,2.000000,0.000000,2.000000,4.000000,4.000000,4.000000,4.000000,2.000000,4.000000,16.666666,,,,,,,,,,,,,,,,,,,,,,,,,,,,
1732083115.186477,1732083115.188128,70.000000,0.000000,4290.384766,4293.717773,4324.487305,4300.512695,4294.615234,4311.922852,4343.205078,4343.205078,4328.589844,4305.769043,4453.846191,4482.948730,4348.717773,4386.282227,30.000000,0.000000,7.000000,,,,0.000000,2.000000,2.000000,0.000000,2.000000,2.000000,2.000000,0.000000,2.000000,4.000000,4.000000,4.000000,4.000000,2.000000,4.000000,16.666666,,,,,,,,,,,,,,,,,,,,,,,,,,,,
1732083115.194285,1732083115.195936,71.000000,0.000000,4292.692383,4296.922852,4324.230957,4304.358887,4290.000000,4319.743652,4343.717773,4337.563965,4331.153809,4307.692383,4456.538574,4490.384766,4346.666504,4388.461426,1205.000000,0.000000,7.000000,,,,0.000000,2.000000,2.000000,0.000000,2.000000,2.000000,2.000000,0.000000,2.000000,4.000000,4.000000,4.000000,4.000000,2.000000,4.000000,16.666666,,,,,,,,,,,,,,,,,,,,,,,,,,,,
1732083115.202093,1732083115.203645,72.000000,0.000000,4293.846191,4299.102539,4325.000000,4305.000000,4307.692383,4314.487305,4339.871582,4331.538574,4325.256348,4307.051270,4454.358887,4488.974121,4343.589844,4388.846191,1379.000000,0.000000,7.000000,,,,0.000000,2.000000,2.000000,0.000000,2.000000,2.000000,2.000000,0.000000,2.000000,4.000000,4.000000,4.000000,4.000000,2.000000,4.000000,16.666666,,,,,,,,,,,,,,,,,18.000000,0.000000,0.583401,0.363098,-0.628479,0.364441,0.985960,-0.028812,-0.054694,-79.454758,53.887901,26.313568
1732083115.209902,1732083115.211453,73.000000,0.000000,4289.102539,4296.153809,4324.102539,4301.025879,4302.436035,4308.333496,4340.256348,4334.615234,4322.051270,4304.615234,4453.205078,4479.230957,4346.922852,4388.077148,1508.000000,0.000000,7.000000,,,,0.000000,2.000000,2.000000,0.000000,2.000000,2.000000,2.000000,0.000000,2.000000,4.000000,4.000000,4.000000,4.000000,2.000000,4.000000,16.666666,,,,,,,,,,,,,,,,,,,,,,,,,,,,
1732083115.217710,1732083115.219061,74.000000,0.000000,4286.794922,4294.743652,4320.128418,4303.461426,4298.974121,4307.563965,4341.025879,4335.000000,4322.692383,4303.974121,4450.256348,4476.410156,4346.538574,4385.384766,1377.000000,0.000000,7.000000,,,,0.000000,2.000000,2.000000,0.000000,2.000000,2.000000,2.000000,0.000000,2.000000,4.000000,4.000000,4.000000,4.000000,2.000000,4.000000,16.666666,,,,,,,,,,,,,,,,,,,,,,,,,,,,
1732083115.225518,1732083115.226870,75.000000,0.000000,4287.820313,4297.948730,4321.794922,4306.922852,4320.256348,4308.333496,4342.436035,4337.563965,4324.487305,4301.922852,4447.179688,4473.077148,4340.897461,4379.230957,1508.000000,0.000000,7.000000,,,,0.000000,2.000000,2.000000,0.000000,2.000000,2.000000,2.000000,0.000000,2.000000,4.000000,4.000000,4.000000,4.000000,2.000000,4.000000,16.666666,,,,,,,,,,,,,,,,,,,,,,,,,,,,
1732083115.233327,1732083115.234578,76.000000,0.000000,4288.461426,4298.205078,4323.589844,4308.205078,4312.948730,4312.563965,4342.179688,4338.077148,4323.846191,4303.717773,4450.384766,4464.743652,4341.410156,4377.179688,1738.000000,0.000000,7.000000,,,,0.000000,2.000000,2.000000,0.000000,2.000000,2.000000,2.000000,0.000000,2.000000,4.000000,4.000000,4.000000,4.000000,2.000000,4.000000,16.666666,,,,,,,,,,,,,,,,,19.000000,0.000000,0.583404,0.362915,-0.628723,0.364197,0.979123,-0.027835,-0.060066,-79.273354,53.845867,26.222324
1732083115.241135,1732083115.242386,77.000000,0.000000,4291.025879,4296.666504,4325.000000,4311.794922,4285.897461,4315.512695,4340.384766,4330.641113,4319.743652,4304.487305,4450.769043,4465.897461,4346.153809,4382.179688,1636.000000,0.000000,7.000000,,,,0.000000,2.000000,2.000000,0.000000,2.000000,2.000000,2.000000,0.000000,2.000000,4.000000,4.000000,4.000000,4.000000,2.000000,4.000000,16.666666,,,,,,,,,,,,,,,,,,,,,,,,,,,,
