title:three4, start timestamp:1732083172.085205, stop timestamp:1732083218.528764, headset type:EPOCX, headset serial:E5020C3A, headset firmware:730, channels:67, sampling rate:eeg_128;mot_32, samples:5949      , version:2.2, 
Timestamp,OriginalTimestamp,EEG.Counter,EEG.Interpolated,EEG.AF3,EEG.F7,EEG.F3,EEG.FC5,EEG.T7,EEG.P7,EEG.O1,EEG.O2,EEG.P8,EEG.T8,EEG.FC6,EEG.F4,EEG.F8,EEG.AF4,EEG.RawCq,EEG.Battery,EEG.BatteryPercent,MarkerIndex,MarkerType,MarkerValueInt,EEG.MarkerHardware,CQ.AF3,CQ.F7,CQ.F3,CQ.FC5,CQ.T7,CQ.P7,CQ.O1,CQ.O2,CQ.P8,CQ.T8,CQ.FC6,CQ.F4,CQ.F8,CQ.AF4,CQ.Overall,EQ.SampleRateQuality,EQ.OVERALL,EQ.AF3,EQ.F7,EQ.F3,EQ.FC5,EQ.T7,EQ.P7,EQ.O1,EQ.O2,EQ.P8,EQ.T8,EQ.FC6,EQ.F4,EQ.F8,EQ.AF4,MOT.CounterMems,MOT.InterpolatedMems,MOT.Q0,MOT.Q1,MOT.Q2,MOT.Q3,MOT.AccX,MOT.AccY,MOT.AccZ,MOT.MagX,MOT.MagY,MOT.MagZ
1732083172.085205,1732083172.087542,61.000000,0.000000,4315.000000,4295.384766,4315.641113,4312.692383,4297.307617,4292.307617,4301.282227,4326.538574,4309.871582,4301.794922,4446.410156,4493.333496,4349.102539,4401.794922,0.000000,0.000000,7.000000,,,,0.000000,2.000000,2.000000,0.000000,2.000000,2.000000,2.000000,0.000000,2.000000,4.000000,4.000000,4.000000,4.000000,2.000000,4.000000,16.666666,,,,,,,,,,,,,,,,,,,,,,,,,,,,
1732083172.093013,1732083172.095151,62.000000,0.000000,4314.102539,4295.897461,4315.512695,4308.846191,4294.102539,4293.461426,4302.563965,4325.897461,4311.794922,4303.461426,4447.692383,4492.436035,4344.871582,4399.871582,0.000000,0.000000,7.000000,,,,0.000000,2.000000,2.000000,0.000000,2.000000,2.000000,2.000000,0.000000,2.000000,4.000000,4.000000,4.000000,4.000000,2.000000,4.000000,16.666666,,,,,,,,,,,,,,,,,,,,,,,,,,,,
1732083172.100821,1732083172.102959,63.000000,0.000000,4317.820313,4293.974121,4313.333496,4310.128418,4291.025879,4293.974121,4301.025879,4325.512695,4311.282227,4300.000000,4450.256348,4496.153809,4346.794922,4402.948730,0.000000,0.000000,7.000000,,,,0.000000,2.000000,2.000000,0.000000,2.000000,2.000000,2.000000,0.000000,2.000000,4.000000,4.000000,4.000000,4.000000,2.000000,4.000000,16.666666,,,,,,,,,,,,,,,,,,,,,,,,,,,,
1732083172.108629,1732083172.110667,64.000000,0.000000,4316.025879,4291.153809,4314.358887,4308.205078,4294.487305,4293.461426,4300.384766,4325.641113,4311.282227,4289.615234,4450.769043,4498.333496,4344.102539,4406.410156,0.000000,0.000000,7.000000,,,,0.000000,2.000000,2.000000,0.000000,2.000000,2.000000,2.000000,0.000000,2.000000,4.000000,4.000000,4.000000,4.000000,2.000000,4.000000,16.666666,,,,,,,,,,,,,,,,,16.000000,0.000000,0.647041,0.400330,-0.573730,0.303162,0.957148,0.161152,0.030277,-73.599655,65.555000,32.188671
1732083172.116438,1732083172.118475,65.000000,0.000000,4310.512695,4288.974121,4317.051270,4301.282227,4292.179688,4294.358887,4300.769043,4326.410156,4315.128418,4291.666504,4456.410156,4498.461426,4343.717773,4409.615234,1312.000000,0.000000,7.000000,,,,0.000000,2.000000,2.000000,0.000000,2.000000,2.000000,2.000000,0.000000,2.000000,4.000000,4.000000,4.000000,4.000000,2.000000,4.000000,16.666666,,,,,,,,,,,,,,,,,,,,,,,,,,,,
1732083172.124246,1732083172.126084,66.000000,0.000000,4312.692383,4291.922852,4315.512695,4301.666504,4292.179688,4292.692383,4300.384766,4329.615234,4317.307617,4304.743652,4460.769043,4498.333496,4350.384766,4412.051270,1230.000000,0.000000,7.000000,,,,0.000000,2.000000,2.000000,0.000000,2.000000,2.000000,2.000000,0.000000,2.000000,4.000000,4.000000,4.000000,4.000000,2.000000,4.000000,16.666666,,,,,,,,,,,,,,,,,,,,,,,,,,,,
1732083172.132054,1732083172.133892,67.000000,0.000000,4318.589844,4295.512695,4313.974121,4309.102539,4294.615234,4292.692383,4300.256348,4331.025879,4317.051270,4308.077148,4461.282227,4497.692383,4355.512695,4411.922852,1187.000000,0.000000,7.000000,,,,0.000000,2.000000,2.000000,0.000000,2.000000,2.000000,2.000000,0.000000,2.000000,4.000000,4.000000,4.000000,4.000000,2.000000,4.000000,16.666666,,,,,,,,,,,,,,,,,,,,,,,,,,,,
1732083172.139862,1732083172.141600,68.000000,0.000000,4318.205078,4294.230957,4315.128418,4310.256348,4292.051270,4296.666504,4304.230957,4329.102539,4316.794922,4302.179688,4461.025879,4500.384766,4352.948730,4410.000000,1210.000000,0.000000,7.000000,,,,0.000000,2.000000,2.000000,0.000000,2.000000,2.000000,2.000000,0.000000,2.000000,4.000000,4.000000,4.000000,4.000000,2.000000,4.000000,16.666666,,,,,,,,,,,,,,,,,17.000000,0.000000,0.646706,0.401123,-0.573425,0.303406,0.977170,0.162618,0.036626,-73.802391,65.734550,32.184490
1732083172.147671,1732083172.149409,69.000000,0.000000,4315.512695,4290.641113,4314.230957,4306.666504,4288.205078,4297.436035,4302.051270,4325.897461,4314.230957,4301.538574,4462.820313,4502.179688,4349.230957,4408.717773,1077.000000,0.000000,7.000000,,,,0.000000,2.000000,2.000000,0.000000,2.000000,2.000000,2.000000,0.000000,2.000000,4.000000,4.000000,4.000000,4.000000,2.000000,4.000000,16.666666,,,,,,,,,,,,,,,,,,,,,,,,,,,,
1732083172.155479,1732083172.157017,70.000000,0.000000,4311.538574,4288.205078,4316.153809,4303.846191,4297.948730,4293.846191,4297.692383,4325.641113,4310.897461,4303.461426,4461.025879,4499.743652,4347.948730,4407.948730,28.000000,0.000000,7.000000,,,,0.000000,2.000000,2.000000,0.000000,2.000000,2.000000,2.000000,0.000000,2.000000,4.000000,4.000000,4.000000,4.000000,2.000000,4.000000,16.666666,,,,,,,,,,,,,,,,,,,,,,,,,,,,
1732083172.163287,1732083172.164825,71.000000,0.000000,4306.666504,4288.333496,4316.282227,4301.153809,4306.922852,4294.615234,4298.077148,4330.641113,4313.333496,4302.436035,4457.179688,4497.563965,4345.641113,4407.179688,1182.000000,0.000000,7.000000,,,,0.000000,2.000000,2.000000,0.000000,2.000000,2.000000,2.000000,0.000000,2.000000,4.000000,4.000000,4.000000,4.000000,2.000000,4.000000,16.666666,,,,,,,,,,,,,,,,,,,,,,,,,,,,
1732083172.171095,1732083172.172534,72.000000,0.000000,4309.743652,4290.000000,4315.256348,4300.128418,4293.717773,4301.025879,4302.563965,4332.563965,4318.589844,4301.794922,4458.974121,4497.307617,4347.820313,4408.333496,1359.000000,0.000000,7.000000,,,,0.000000,2.000000,2.000000,0.000000,2.000000,2.000000,2.000000,0.000000,2.000000,4.000000,4.000000,4.000000,4.000000,2.000000,4.000000,16.666666,,,,,,,,,,,,,,,,,18.000000,0.000000,0.645571,0.403809,-0.572754,0.303528,0.954218,0.180686,0.022952,-73.649933,65.974983,31.864437
1732083172.178904,1732083172.180342,73.000000,0.000000,4318.461426,4291.538574,4310.128418,4305.256348,4280.897461,4302.948730,4300.384766,4327.307617,4318.461426,4306.538574,4461.410156,4493.717773,4352.307617,4410.256348,1509.000000,0.000000,7.000000,,,,0.000000,2.000000,2.000000,0.000000,2.000000,2.000000,2.000000,0.000000,2.000000,4.000000,4.000000,4.000000,4.000000,2.000000,4.000000,16.666666,,,,,,,,,,,,,,,,,,,,,,,,,,,,
1732083172.186712,1732083172.187950,74.000000,0.000000,4317.179688,4290.128418,4314.102539,4308.461426,4286.794922,4302.820313,4300.256348,4330.641113,4318.717773,4307.820313,4456.410156,4489.230957,4348.205078,4407.179688,1369.000000,0.000000,7.000000,,,,0.000000,2.000000,2.000000,0.000000,2.000000,2.000000,2.000000,0.000000,2.000000,4.000000,4.000000,4.000000,4.000000,2.000000,4.000000,16.666666,,,,,,,,,,,,,,,,,,,,,,,,,,,,
1732083172.194520,1732083172.195758,75.000000,0.000000,4309.743652,4289.743652,4317.179688,4304.615234,4291.922852,4306.666504,4301.410156,4340.769043,4323.717773,4300.512695,4452.820313,4491.153809,4343.589844,4405.000000,1516.000000,0.000000,7.000000,,,,0.000000,2.000000,2.000000,0.000000,2.000000,2.000000,2.000000,0.000000,2.000000,4.000000,4.000000,4.000000,4.000000,2.000000,4.000000,16.666666,,,,,,,,,,,,,,,,,,,,,,,,,,,,
1732083172.202329,1732083172.203666,76.000000,0.000000,4309.615234,4290.897461,4316.153809,4301.666504,4284.871582,4304.615234,4300.384766,4337.051270,4320.000000,4295.000000,4456.410156,4495.897461,4349.487305,4406.410156,1743.000000,0.000000,7.000000,,,,0.000000,2.000000,2.000000,0.000000,2.000000,2.000000,2.000000,0.000000,2.000000,4.000000,4.000000,4.000000,4.000000,2.000000,4.000000,16.666666,,,,,,,,,,,,,,,,,19.000000,0.000000,0.644671,0.410278,-0.571289,0.299500,0.949823,0.284703,-0.025394,-73.678116,65.818069,32.001862
1732083172.210137,1732083172.211475,77.000000,0.000000,4316.410156,4296.153809,4311.282227,4305.000000,4284.615234,4296.153809,4298.846191,4327.179688,4312.436035,4300.384766,4459.487305,4492.692383,4355.256348,4407.563965,1628.000000,0.000000,7.000000,,,,0.000000,2.000000,2.000000,0.000000,2.000000,2.000000,2.000000,0.000000,2.000000,4.000000,4.000000,4.000000,4.000000,2.000000,4.000000,16.666666,,,,,,,,,,,,,,,,,,,,,,,,,,,,
1732083172.217945,1732083172.219483,78.000000,0.000000,4313.974121,4298.205078,4314.487305,4305.512695,4286.794922,4295.512695,4302.051270,4323.461426,4309.615234,4302.436035,4455.897461,4485.769043,4351.282227,4405.641113,1369.000000,0.000000,7.000000,,,,0.000000,2.000000,2.000000,0.000000,2.000000,2.000000,2.000000,0.000000,2.000000,4.000000,4.000000,4.000000,4.000000,2.000000,4.000000,16.666666,1.000000,8.333333,2.000000,2.000000,0.000000,2.000000,1.000000,2.000000,0.000000,2.000000,3.000000,4.000000,4.000000,4.000000,2.000000,4.000000,,,,,,,,,,,,
1732083172.225753,1732083172.227291,79.000000,0.000000,4305.000000,4290.128418,4317.820313,4301.538574,4279.615234,4298.205078,4304.358887,4320.256348,4307.948730,4295.641113,4453.974121,4484.230957,4348.205078,4398.846191,1516.000000,0.000000,7.000000,,,,0.000000,2.000000,2.000000,0.000000,2.000000,2.000000,2.000000,0.000000,2.000000,4.000000,4.000000,4.000000,4.000000,2.000000,4.000000,16.666666,,,,,,,,,,,,,,,,,,,,,,,,,,,,
1732083172.233562,1732083172.235199,80.000000,0.000000,4308.333496,4290.641113,4317.820313,4301.666504,4282.820313,4293.846191,4305.000000,4318.717773,4308.461426,4296.282227,4454.487305,4488.974121,4351.282227,4396.922852,1743.000000,0.000000,7.000000,,,,0.000000,2.000000,2.000000,0.000000,2.000000,2.000000,2.000000,0.000000,2.000000,4.000000,4.000000,4.000000,4.000000,2.000000,4.000000,16.666666,,,,,,,,,,,,,,,,,20.000000,0.000000,0.644567,0.413269,-0.570557,0.296997,0.989379,0.227567,-0.000488,-73.779274,66.067635,31.869841
1732083172.241370,1732083172.243007,81.000000,0.000000,4315.769043,4299.871582,4317.692383,4306.282227,4290.512695,4291.538574,4306.153809,4319.871582,4310.512695,4301.922852,4456.922852,4491.410156,4353.205078,4405.128418,1628.000000,0.000000,7.000000,,,,0.000000,2.000000,2.000000,0.000000,2.000000,2.000000,2.000000,0.000000,2.000000,4.000000,4.000000,4.000000,4.000000,2.000000,4.000000,16.666666,,,,,,,,,,,,,,,,,,,,,,,,,,,,
1732083172.249178,1732083172.250616,82.000000,0.000000,4311.538574,4297.307617,4319.230957,4307.051270,4276.410156,4293.077148,4308.205078,4318.333496,4308.846191,4301.794922,4457.179688,4488.717773,4353.333496,4407.307617,1369.000000,0.000000,7.000000,,,,0.000000,2.000000,2.000000,0.000000,2.000000,2.000000,2.000000,0.000000,2.000000,4.000000,4.000000,4.000000,4.000000,2.000000,4.000000,16.666666,,,,,,,,,,,,,,,,,,,,,,,,,,,,
1732083172.256987,1732083172.258424,83.000000,0.000000,4307.563965,4289.615234,4325.897461,4302.692383,4261.025879,4290.897461,4312.436035,4316.666504,4306.922852,4302.179688,4455.897461,4488.589844,4352.948730,4403.974121,1516.000000,0.000000,7.000000,,,,0.000000,2.000000,2.000000,0.000000,2.000000,2.000000,2.000000,0.000000,2.000000,4.000000,4.000000,4.000000,4.000000,2.000000,4.000000,16.666666,,,,,,,,,,,,,,,,,,,,,,,,,,,,
1732083172.264795,1732083172.266132,84.000000,0.000000,4312.948730,4290.897461,4328.589844,4302.307617,4269.871582,4289.615234,4311.410156,4318.461426,4310.256348,4307.436035,4456.794922,4492.179688,4354.871582,4407.948730,1743.000000,0.000000,7.000000,,,,0.000000,2.000000,2.000000,0.000000,2.000000,2.000000,2.000000,0.000000,2.000000,4.000000,4.000000,4.000000,4.000000,2.000000,4.000000,16.666666,,,,,,,,,,,,,,,,,21.000000,0.000000,0.644438,0.414124,-0.570496,0.296204,0.967403,0.213893,0.004395,-73.789543,66.149788,31.609571
1732083172.272603,1732083172.273940,85.000000,0.000000,4309.230957,4291.153809,4330.512695,4303.974121,4276.282227,4292.436035,4312.051270,4323.077148,4314.743652,4305.512695,4457.051270,4490.897461,4352.051270,4406.922852,1628.000000,0.000000,7.000000,,,,0.000000,2.000000,2.000000,0.000000,2.000000,2.000000,2.000000,0.000000,2.000000,4.000000,4.000000,4.000000,4.000000,2.000000,4.000000,16.666666,,,,,,,,,,,,,,,,,,,,,,,,,,,,
1732083172.280411,1732083172.281948,86.000000,0.000000,4303.077148,4287.179688,4325.769043,4303.589844,4271.282227,4296.922852,4311.922852,4328.077148,4317.563965,4304.615234,4453.205078,4483.333496,4346.282227,4398.846191,1369.000000,0.000000,7.000000,,,,0.000000,2.000000,2.000000,0.000000,2.000000,2.000000,2.000000,0.000000,2.000000,4.000000,4.000000,4.000000,4.000000,2.000000,4.000000,16.666666,,,,,,,,,,,,,,,,,,,,,,,,,,,,
1732083172.288220,1732083172.289757,87.000000,0.000000,4307.820313,4285.897461,4324.487305,4300.384766,4272.820313,4295.512695,4309.358887,4323.974121,4312.307617,4309.871582,4447.820313,4483.077148,4349.871582,4399.487305,1516.000000,0.000000,7.000000,,,,0.000000,2.000000,2.000000,0.000000,2.000000,2.000000,2.000000,0.000000,2.000000,4.000000,4.000000,4.000000,4.000000,2.000000,4.000000,16.666666,,,,,,,,,,,,,,,,,,,,,,,,,,,,
1732083172.296028,1732083172.297665,88.000000,0.000000,4312.948730,4287.179688,4320.256348,4299.743652,4276.538574,4290.000000,4305.512695,4316.538574,4305.000000,4307.692383,4449.230957,4486.794922,4355.256348,4406.922852,1743.000000,0.000000,7.000000,,,,0.000000,2.000000,2.000000,0.000000,2.000000,2.000000,2.000000,0.000000,2.000000,4.000000,4.000000,4.000000,4.000000,2.000000,4.000000,16.666666,,,,,,,,,,,,,,,,,22.000000,0.000000,0.642801,0.411255,-0.574341,0.296326,0.975217,0.159687,0.045416,-73.372864,66.227997,31.518753
1732083172.303836,1732083172.305473,89.000000,0.000000,4311.538574,4289.871582,4321.282227,4305.897461,4282.436035,4292.179688,4309.102539,4321.025879,4308.974121,4302.436035,4453.205078,4487.051270,4350.769043,4408.461426,1628.000000,0.000000,7.000000,,,,0.000000,2.000000,2.000000,0.000000,2.000000,2.000000,2.000000,0.000000,2.000000,4.000000,4.000000,4.000000,4.000000,2.000000,4.000000,16.666666,,,,,,,,,,,,,,,,,,,,,,,,,,,,
1732083172.311644,1732083172.313481,90.000000,0.000000,4308.589844,4292.820313,4320.128418,4311.153809,4290.256348,4300.641113,4309.102539,4326.794922,4316.922852,4307.820313,4449.743652,4486.410156,4343.717773,4405.128418,1369.000000,0.000000,7.000000,,,,0.000000,2.000000,2.000000,0.000000,2.000000,2.000000,2.000000,0.000000,2.000000,4.000000,4.000000,4.000000,4.000000,2.000000,4.000000,16.666666,,,,,,,,,,,,,,,,,,,,,,,,,,,,
1732083172.319453,1732083172.321289,91.000000,0.000000,4308.077148,4291.153809,4317.948730,4309.102539,4283.461426,4301.666504,4305.897461,4322.563965,4313.717773,4311.410156,4444.871582,4491.025879,4344.230957,4404.743652,1516.000000,0.000000,7.000000,,,,0.000000,2.000000,2.000000,0.000000,2.000000,2.000000,2.000000,0.000000,2.000000,4.000000,4.000000,4.000000,4.000000,2.000000,4.000000,16.666666,,,,,,,,,,,,,,,,,,,,,,,,,,,,
1732083172.327261,1732083172.328997,92.000000,0.000000,4312.307617,4289.743652,4316.153809,4307.051270,4285.000000,4293.333496,4305.128418,4320.128418,4309.358887,4302.179688,4449.230957,4494.871582,4347.692383,4408.589844,1743.000000,0.000000,7.000000,,,,0.000000,2.000000,2.000000,0.000000,2.000000,2.000000,2.000000,0.000000,2.000000,4.000000,4.000000,4.000000,4.000000,2.000000,4.000000,16.666666,,,,,,,,,,,,,,,,,23.000000,0.000000,0.641056,0.407410,-0.577820,0.298645,0.973752,0.159687,0.034672,-73.285355,66.358009,31.561855
1732083172.335069,1732083172.336806,93.000000,0.000000,4316.794922,4292.179688,4313.077148,4309.487305,4297.820313,4287.563965,4305.641113,4322.692383,4312.179688,4299.743652,4452.948730,4491.282227,4344.615234,4407.051270,1628.000000,0.000000,7.000000,,,,0.000000,2.000000,2.000000,0.000000,2.000000,2.000000,2.000000,0.000000,2.000000,4.000000,4.000000,4.000000,4.000000,2.000000,4.000000,16.666666,,,,,,,,,,,,,,,,,,,,,,,,,,,,
1732083172.342877,1732083172.344414,94.000000,0.000000,4314.230957,4292.948730,4312.820313,4312.179688,4290.000000,4293.205078,4305.897461,4323.333496,4314.871582,4310.256348,4449.487305,4485.512695,4342.307617,4402.563965,1369.000000,0.000000,7.000000,,,,0.000000,2.000000,2.000000,0.000000,2.000000,2.000000,2.000000,0.000000,2.000000,4.000000,4.000000,4.000000,4.000000,2.000000,4.000000,16.666666,,,,,,,,,,,,,,,,,,,,,,,,,,,,
1732083172.350686,1732083172.352222,95.000000,0.000000,4311.282227,4294.102539,4312.307617,4311.538574,4277.307617,4301.666504,4305.128418,4322.051270,4314.358887,4311.025879,4446.538574,4482.948730,4345.897461,4406.538574,1516.000000,0.000000,7.000000,,,,0.000000,2.000000,2.000000,0.000000,2.000000,2.000000,2.000000,0.000000,2.000000,4.000000,4.000000,4.000000,4.000000,2.000000,4.000000,16.666666,,,,,,,,,,,,,,,,,,,,,,,,,,,,
1732083172.358494,1732083172.360130,96.000000,0.000000,4309.358887,4293.333496,4312.179688,4307.436035,4285.641113,4297.436035,4302.051270,4322.307617,4312.948730,4303.461426,4443.846191,4485.512695,4346.538574,4407.948730,1743.000000,0.000000,7.000000,,,,0.000000,2.000000,2.000000,0.000000,2.000000,2.000000,2.000000,0.000000,2.000000,4.000000,4.000000,4.000000,4.000000,2.000000,4.000000,16.666666,,,,,,,,,,,,,,,,,24.000000,0.000000,0.641056,0.407410,-0.577820,0.298645,0.974240,0.186058,0.026370,-73.349472,66.403320,31.656771
1732083172.366302,1732083172.367939,97.000000,0.000000,4303.589844,4289.615234,4304.487305,4302.820313,4294.230957,4292.692383,4296.922852,4323.974121,4313.974121,4304.230957,4442.307617,4479.743652,4340.256348,4399.102539,1628.000000,0.000000,7.000000,,,,0.000000,2.000000,2.000000,0.000000,2.000000,2.000000,2.000000,0.000000,2.000000,4.000000,4.000000,4.000000,4.000000,2.000000,4.000000,16.666666,,,,,,,,,,,,,,,,,,,,,,,,,,,,
1732083172.374110,1732083172.375947,98.000000,0.000000,4301.922852,4289.102539,4305.128418,4302.948730,4289.102539,4296.282227,4297.948730,4327.692383,4315.384766,4304.102539,4441.794922,4471.666504,4336.922852,4396.410156,1369.000000,0.000000,7.000000,,,,0.000000,2.000000,2.000000,0.000000,2.000000,2.000000,2.000000,0.000000,2.000000,4.000000,4.000000,4.000000,4.000000,2.000000,4.000000,16.666666,,,,,,,,,,,,,,,,,,,,,,,,,,,,
1732083172.381919,1732083172.383755,99.000000,0.000000,4311.282227,4292.948730,4304.615234,4307.436035,4291.666504,4297.563965,4298.205078,4329.358887,4315.512695,4305.000000,4449.358887,4477.179688,4344.743652,4405.897461,1516.000000,0.000000,7.000000,,,,0.000000,2.000000,2.000000,0.000000,2.000000,2.000000,2.000000,0.000000,2.000000,4.000000,4.000000,4.000000,4.000000,2.000000,4.000000,16.666666,,,,,,,,,,,,,,,,,,,,,,,,,,,,
1732083172.389727,1732083172.391663,100.000000,0.000000,4324.871582,4297.436035,4306.025879,4311.153809,4297.051270,4295.384766,4298.589844,4327.051270,4314.871582,4312.692383,4458.717773,4491.153809,4353.589844,4413.333496,1743.000000,0.000000,7.000000,,,,0.000000,2.000000,2.000000,0.000000,2.000000,2.000000,2.000000,0.000000,2.000000,4.000000,4.000000,4.000000,4.000000,2.000000,4.000000,16.666666,,,,,,,,,,,,,,,,,25.000000,0.000000,0.634871,0.401367,-0.585510,0.304993,0.942010,0.168966,0.005372,-73.651405,66.231689,31.616983
1732083172.397535,1732083172.399471,101.000000,0.000000,4334.230957,4304.230957,4306.282227,4316.282227,4294.358887,4292.307617,4295.256348,4326.153809,4315.000000,4311.282227,4460.769043,4497.051270,4356.410156,4419.871582,1628.000000,0.000000,7.000000,,,,0.000000,2.000000,2.000000,0.000000,2.000000,2.000000,2.000000,0.000000,2.000000,4.000000,4.000000,4.000000,4.000000,2.000000,4.000000,16.666666,,,,,,,,,,,,,,,,,,,,,,,,,,,,
1732083172.405343,1732083172.407479,102.000000,0.000000,4336.794922,4306.538574,4308.205078,4317.563965,4292.692383,4288.974121,4294.615234,4326.538574,4317.051270,4304.615234,4458.974121,4498.589844,4356.538574,4426.153809,1369.000000,0.000000,7.000000,,,,0.000000,2.000000,2.000000,0.000000,2.000000,2.000000,2.000000,0.000000,2.000000,4.000000,4.000000,4.000000,4.000000,2.000000,4.000000,16.666666,,,,,,,,,,,,,,,,,,,,,,,,,,,,
1732083172.413152,1732083172.415287,103.000000,0.000000,4336.666504,4304.871582,4306.153809,4314.615234,4292.692383,4290.641113,4297.051270,4327.436035,4318.717773,4310.128418,4460.897461,4500.256348,4356.410156,4427.179688,1516.000000,0.000000,7.000000,,,,0.000000,2.000000,2.000000,0.000000,2.000000,2.000000,2.000000,0.000000,2.000000,4.000000,4.000000,4.000000,4.000000,2.000000,4.000000,16.666666,,,,,,,,,,,,,,,,,,,,,,,,,,,,
1732083172.420960,1732083172.423195,104.000000,0.000000,4339.487305,4307.179688,4309.358887,4311.282227,4290.897461,4290.897461,4297.436035,4325.256348,4316.153809,4313.461426,4459.743652,4500.256348,4355.512695,4424.358887,1743.000000,0.000000,7.000000,,,,0.000000,2.000000,2.000000,0.000000,2.000000,2.000000,2.000000,0.000000,2.000000,4.000000,4.000000,4.000000,4.000000,2.000000,4.000000,16.666666,,,,,,,,,,,,,,,,,26.000000,0.000000,0.627935,0.400696,-0.589478,0.312500,0.940544,0.162618,-0.020999,-74.020973,65.759338,31.439756
1732083172.428768,1732083172.431004,105.000000,0.000000,4346.282227,4310.128418,4311.794922,4310.512695,4288.974121,4283.333496,4293.333496,4320.641113,4309.743652,4306.410156,4455.897461,4497.820313,4355.897461,4426.922852,1628.000000,0.000000,7.000000,,,,0.000000,2.000000,2.000000,0.000000,2.000000,2.000000,2.000000,0.000000,2.000000,4.000000,4.000000,4.000000,4.000000,2.000000,4.000000,16.666666,,,,,,,,,,,,,,,,,,,,,,,,,,,,
1732083172.436576,1732083172.439012,106.000000,0.000000,4349.743652,4307.051270,4311.153809,4310.000000,4290.512695,4279.743652,4295.128418,4318.333496,4307.692383,4303.077148,4457.820313,4494.487305,4357.307617,4431.538574,1369.000000,0.000000,7.000000,,,,0.000000,2.000000,2.000000,0.000000,2.000000,2.000000,2.000000,0.000000,2.000000,4.000000,4.000000,4.000000,4.000000,2.000000,4.000000,16.666666,,,,,,,,,,,,,,,,,,,,,,,,,,,,
1732083172.444385,1732083172.446820,107.000000,0.000000,4351.794922,4309.487305,4311.282227,4311.794922,4289.102539,4284.743652,4299.358887,4319.743652,4308.974121,4301.410156,4456.794922,4493.333496,4353.077148,4428.589844,1516.000000,0.000000,7.000000,,,,0.000000,2.000000,2.000000,0.000000,2.000000,2.000000,2.000000,0.000000,2.000000,4.000000,4.000000,4.000000,4.000000,2.000000,4.000000,16.666666,,,,,,,,,,,,,,,,,,,,,,,,,,,,
1732083172.452193,1732083172.454728,108.000000,0.000000,4357.948730,4316.282227,4312.307617,4316.410156,4286.282227,4286.282227,4299.743652,4320.256348,4304.871582,4293.205078,4450.897461,4494.615234,4350.000000,4428.205078,1743.000000,0.000000,7.000000,,,,0.000000,2.000000,2.000000,0.000000,2.000000,2.000000,2.000000,0.000000,2.000000,4.000000,4.000000,4.000000,4.000000,2.000000,4.000000,16.666666,,,,,,,,,,,,,,,,,27.000000,0.000000,0.619944,0.403503,-0.591492,0.320923,0.990844,0.116225,-0.027835,-74.365318,65.160065,31.071203
1732083172.460001,1732083172.462536,109.000000,0.000000,4366.153809,4315.897461,4315.512695,4316.538574,4297.563965,4282.307617,4296.922852,4318.333496,4301.282227,4286.794922,4451.153809,4496.538574,4356.922852,4436.794922,1628.000000,0.000000,7.000000,,,,0.000000,2.000000,2.000000,0.000000,2.000000,2.000000,2.000000,0.000000,2.000000,4.000000,4.000000,4.000000,4.000000,2.000000,4.000000,16.666666,,,,,,,,,,,,,,,,,,,,,,,,,,,,
1732083172.467810,1732083172.470244,110.000000,0.000000,4370.769043,4315.000000,4315.000000,4316.153809,4301.922852,4280.512695,4295.512695,4318.205078,4302.948730,4291.666504,4457.307617,4498.717773,4362.436035,4445.256348,1369.000000,0.000000,7.000000,,,,0.000000,2.000000,2.000000,0.000000,2.000000,2.000000,2.000000,0.000000,2.000000,4.000000,4.000000,4.000000,4.000000,2.000000,4.000000,16.666666,,,,,,,,,,,,,,,,,,,,,,,,,,,,
1732083172.475618,1732083172.478053,111.000000,0.000000,4376.538574,4318.846191,4314.871582,4318.333496,4282.820313,4281.025879,4296.538574,4318.974121,4307.051270,4296.794922,4462.692383,4506.153809,4362.179688,4447.692383,1516.000000,0.000000,7.000000,,,,0.000000,2.000000,2.000000,0.000000,2.000000,2.000000,2.000000,0.000000,2.000000,4.000000,4.000000,4.000000,4.000000,2.000000,4.000000,16.666666,,,,,,,,,,,,,,,,,,,,,,,,,,,,
1732083172.483426,1732083172.485761,112.000000,0.000000,4383.846191,4324.358887,4312.692383,4323.589844,4274.102539,4283.589844,4297.820313,4320.128418,4311.025879,4293.205078,4463.077148,4508.974121,4361.666504,4451.922852,1743.000000,0.000000,7.000000,,,,0.000000,2.000000,2.000000,0.000000,2.000000,2.000000,2.000000,0.000000,2.000000,4.000000,4.000000,4.000000,4.000000,2.000000,4.000000,16.666666,,,,,,,,,,,,,,,,,28.000000,0.000000,0.617206,0.404602,-0.592041,0.323792,0.990844,0.116225,-0.027835,-74.802574,64.749649,30.234341
1732083172.491234,1732083172.493569,113.000000,0.000000,4386.538574,4327.820313,4315.000000,4327.948730,4283.205078,4281.666504,4297.948730,4320.128418,4311.538574,4292.051270,4463.077148,4505.641113,4362.820313,4457.051270,1628.000000,0.000000,7.000000,,,,0.000000,2.000000,2.000000,0.000000,2.000000,2.000000,2.000000,0.000000,2.000000,4.000000,4.000000,4.000000,4.000000,2.000000,4.000000,16.666666,,,,,,,,,,,,,,,,,,,,,,,,,,,,
1732083172.499043,1732083172.501577,114.000000,0.000000,4387.820313,4324.358887,4316.410156,4327.051270,4283.333496,4280.512695,4299.102539,4318.461426,4308.077148,4299.615234,4463.461426,4502.179688,4363.333496,4458.461426,1369.000000,0.000000,7.000000,,,,0.000000,2.000000,2.000000,0.000000,2.000000,2.000000,2.000000,0.000000,2.000000,4.000000,4.000000,4.000000,4.000000,2.000000,4.000000,16.666666,,,,,,,,,,,,,,,,,,,,,,,,,,,,
1732083172.506851,1732083172.509385,115.000000,0.000000,4390.128418,4317.820313,4320.128418,4322.436035,4276.025879,4282.051270,4300.000000,4318.974121,4307.179688,4304.615234,4465.256348,4507.307617,4363.974121,4461.025879,1516.000000,0.000000,7.000000,,,,0.000000,2.000000,2.000000,0.000000,2.000000,2.000000,2.000000,0.000000,2.000000,4.000000,4.000000,4.000000,4.000000,2.000000,4.000000,16.666666,,,,,,,,,,,,,,,,,,,,,,,,,,,,
1732083172.514659,1732083172.517294,116.000000,0.000000,4392.179688,4318.077148,4318.846191,4322.692383,4278.717773,4281.538574,4297.051270,4321.025879,4310.769043,4306.025879,4468.461426,4510.256348,4363.589844,4462.436035,1743.000000,0.000000,7.000000,,,,0.000000,2.000000,2.000000,0.000000,2.000000,2.000000,2.000000,0.000000,2.000000,4.000000,4.000000,4.000000,4.000000,2.000000,4.000000,16.666666,,,,,,,,,,,,,,,,,29.000000,0.000000,0.607023,0.406250,-0.595459,0.334534,0.963985,0.055183,-0.022952,-75.058418,64.160553,29.721483
1732083172.522467,1732083172.525102,117.000000,0.000000,4390.641113,4319.102539,4318.846191,4322.563965,4278.974121,4278.589844,4298.717773,4319.230957,4306.922852,4301.538574,4465.384766,4505.641113,4359.743652,4459.230957,1628.000000,0.000000,7.000000,,,,0.000000,2.000000,2.000000,0.000000,2.000000,2.000000,2.000000,0.000000,2.000000,4.000000,4.000000,4.000000,4.000000,2.000000,4.000000,16.666666,,,,,,,,,,,,,,,,,,,,,,,,,,,,
1732083172.530276,1732083172.532710,118.000000,0.000000,4390.769043,4315.384766,4319.102539,4320.897461,4278.205078,4279.615234,4299.615234,4317.051270,4303.205078,4295.000000,4458.077148,4500.128418,4356.538574,4457.820313,1369.000000,0.000000,7.000000,,,,0.000000,2.000000,2.000000,0.000000,2.000000,2.000000,2.000000,0.000000,2.000000,4.000000,4.000000,4.000000,4.000000,2.000000,4.000000,16.666666,,,,,,,,,,,,,,,,,,,,,,,,,,,,
1732083172.538084,1732083172.540518,119.000000,0.000000,4393.205078,4317.948730,4319.871582,4323.589844,4281.153809,4282.948730,4298.846191,4320.512695,4307.948730,4294.615234,4456.025879,4496.666504,4353.205078,4455.897461,1516.000000,0.000000,7.000000,,,,0.000000,2.000000,2.000000,0.000000,2.000000,2.000000,2.000000,0.000000,2.000000,4.000000,4.000000,4.000000,4.000000,2.000000,4.000000,16.666666,,,,,,,,,,,,,,,,,,,,,,,,,,,,
1732083172.545892,1732083172.548227,120.000000,0.000000,4394.871582,4323.717773,4318.589844,4325.000000,4280.512695,4282.307617,4298.333496,4321.153809,4309.615234,4299.615234,4462.307617,4496.538574,4359.102539,4455.641113,1743.000000,0.000000,7.000000,,,,0.000000,2.000000,2.000000,0.000000,2.000000,2.000000,2.000000,0.000000,2.000000,4.000000,4.000000,4.000000,4.000000,2.000000,4.000000,16.666666,,,,,,,,,,,,,,,,,30.000000,0.000000,0.604867,0.406128,-0.596497,0.336731,0.951776,0.062508,-0.027835,-75.167320,63.813377,29.247734
1732083172.553701,1732083172.556035,121.000000,0.000000,4396.025879,4322.436035,4318.333496,4320.897461,4281.282227,4280.769043,4299.230957,4316.153809,4303.205078,4298.717773,4465.256348,4501.410156,4365.641113,4460.384766,1628.000000,0.000000,7.000000,,,,0.000000,2.000000,2.000000,0.000000,2.000000,2.000000,2.000000,0.000000,2.000000,4.000000,4.000000,4.000000,4.000000,2.000000,4.000000,16.666666,,,,,,,,,,,,,,,,,,,,,,,,,,,,
1732083172.561509,1732083172.563643,122.000000,0.000000,4395.512695,4322.307617,4319.102539,4321.282227,4284.487305,4281.666504,4296.538574,4308.461426,4300.384766,4291.282227,4461.794922,4502.563965,4362.948730,4462.179688,1369.000000,0.000000,7.000000,,,,0.000000,2.000000,2.000000,0.000000,2.000000,2.000000,2.000000,0.000000,2.000000,4.000000,4.000000,4.000000,4.000000,2.000000,4.000000,16.666666,,,,,,,,,,,,,,,,,,,,,,,,,,,,
1732083172.569317,1732083172.571451,123.000000,0.000000,4393.461426,4320.384766,4319.615234,4322.820313,4283.589844,4282.179688,4298.333496,4309.615234,4306.922852,4288.589844,4460.384766,4498.974121,4360.000000,4458.846191,1516.000000,0.000000,7.000000,,,,0.000000,2.000000,2.000000,0.000000,2.000000,2.000000,2.000000,0.000000,2.000000,4.000000,4.000000,4.000000,4.000000,2.000000,4.000000,16.666666,,,,,,,,,,,,,,,,,,,,,,,,,,,,
1732083172.577125,1732083172.579160,124.000000,0.000000,4390.256348,4312.948730,4317.307617,4316.794922,4278.205078,4281.666504,4300.512695,4325.256348,4313.717773,4293.846191,4463.077148,4502.948730,4362.307617,4457.179688,1743.000000,0.000000,7.000000,,,,0.000000,2.000000,2.000000,0.000000,2.000000,2.000000,2.000000,0.000000,2.000000,4.000000,4.000000,4.000000,4.000000,2.000000,4.000000,16.666666,,,,,,,,,,,,,,,,,31.000000,0.000000,0.602967,0.405945,-0.597473,0.338623,0.951776,0.062508,-0.027835,-75.575531,63.360504,28.688999
1732083172.584934,1732083172.586968,125.000000,0.000000,4388.846191,4315.384766,4317.820313,4315.384766,4277.179688,4281.153809,4298.077148,4326.666504,4311.794922,4295.897461,4463.846191,4507.820313,4366.410156,4459.358887,1628.000000,0.000000,7.000000,,,,0.000000,2.000000,2.000000,0.000000,2.000000,2.000000,2.000000,0.000000,2.000000,4.000000,4.000000,4.000000,4.000000,2.000000,4.000000,16.666666,,,,,,,,,,,,,,,,,,,,,,,,,,,,
1732083172.592742,1732083172.594576,126.000000,0.000000,4390.128418,4324.487305,4320.128418,4325.128418,4279.615234,4281.794922,4295.897461,4309.743652,4302.307617,4290.897461,4465.128418,4506.666504,4368.974121,4460.897461,1369.000000,0.000000,7.000000,,,,0.000000,2.000000,2.000000,0.000000,2.000000,2.000000,2.000000,0.000000,2.000000,4.000000,4.000000,4.000000,4.000000,2.000000,4.000000,16.666666,,,,,,,,,,,,,,,,,,,,,,,,,,,,
1732083172.600550,1732083172.602385,127.000000,0.000000,4392.948730,4326.025879,4319.230957,4328.077148,4281.410156,4281.922852,4297.820313,4304.743652,4299.102539,4289.358887,4466.410156,4503.589844,4369.743652,4461.282227,7.000000,0.000000,7.000000,,,,0.000000,2.000000,2.000000,0.000000,2.000000,2.000000,2.000000,0.000000,2.000000,4.000000,4.000000,4.000000,4.000000,2.000000,4.000000,16.666666,,,,,,,,,,,,,,,,,,,,,,,,,,,,
1732083172.608358,1732083172.610293,0.000000,0.000000,4393.717773,4323.333496,4321.282227,4319.871582,4279.743652,4280.897461,4298.589844,4312.051270,4306.282227,4292.307617,4465.128418,4505.897461,4368.589844,4463.205078,0.000000,0.000000,7.000000,,,,0.000000,2.000000,2.000000,0.000000,2.000000,2.000000,2.000000,0.000000,2.000000,4.000000,4.000000,4.000000,4.000000,2.000000,4.000000,16.666666,,,,,,,,,,,,,,,,,0.000000,0.000000,0.597084,0.405273,-0.601074,0.343445,0.992309,0.087901,-0.056648,-75.617844,62.823673,28.064754
1732083172.616167,1732083172.618101,1.000000,0.000000,4391.666504,4323.974121,4323.974121,4316.794922,4277.179688,4281.410156,4296.538574,4312.563965,4308.974121,4297.051270,4465.384766,4506.922852,4369.487305,4463.717773,1315.000000,0.000000,7.000000,,,,0.000000,2.000000,2.000000,0.000000,2.000000,2.000000,2.000000,0.000000,2.000000,4.000000,4.000000,4.000000,4.000000,2.000000,4.000000,16.666666,,,,,,,,,,,,,,,,,,,,,,,,,,,,
1732083172.623975,1732083172.625709,2.000000,0.000000,4393.333496,4325.512695,4323.974121,4322.051270,4280.769043,4282.051270,4296.666504,4311.153809,4302.563965,4297.563965,4463.846191,4507.051270,4368.077148,4464.230957,1230.000000,0.000000,7.000000,,,,0.000000,2.000000,2.000000,0.000000,2.000000,2.000000,2.000000,0.000000,2.000000,4.000000,4.000000,4.000000,4.000000,2.000000,4.000000,16.666666,,,,,,,,,,,,,,,,,,,,,,,,,,,,
1732083172.631783,1732083172.633518,3.000000,0.000000,4397.051270,4327.307617,4323.589844,4322.692383,4283.077148,4280.128418,4298.461426,4311.538574,4299.230957,4285.641113,4462.179688,4506.282227,4366.153809,4467.179688,1190.000000,0.000000,7.000000,,,,0.000000,2.000000,2.000000,0.000000,2.000000,2.000000,2.000000,0.000000,2.000000,4.000000,4.000000,4.000000,4.000000,2.000000,4.000000,16.666666,,,,,,,,,,,,,,,,,,,,,,,,,,,,
1732083172.639591,1732083172.641226,4.000000,0.000000,4395.256348,4329.358887,4327.948730,4321.794922,4277.563965,4281.666504,4301.794922,4312.051270,4303.205078,4280.000000,4463.846191,4506.153809,4368.333496,4467.051270,1210.000000,0.000000,7.000000,,,,0.000000,2.000000,2.000000,0.000000,2.000000,2.000000,2.000000,0.000000,2.000000,4.000000,4.000000,4.000000,4.000000,2.000000,4.000000,16.666666,,,,,,,,,,,,,,,,,1.000000,0.000000,0.593012,0.404663,-0.604736,0.344788,1.002564,0.071298,-0.072763,-75.802124,62.188843,27.409119
1732083172.647400,1732083172.649034,5.000000,0.000000,4393.333496,4328.846191,4329.871582,4327.307617,4286.025879,4283.333496,4302.820313,4313.717773,4303.589844,4288.717773,4461.153809,4507.948730,4364.487305,4462.051270,1077.000000,0.000000,7.000000,,,,0.000000,2.000000,2.000000,0.000000,2.000000,2.000000,2.000000,0.000000,2.000000,4.000000,4.000000,4.000000,4.000000,2.000000,4.000000,16.666666,,,,,,,,,,,,,,,,,,,,,,,,,,,,
1732083172.655208,1732083172.656642,6.000000,0.000000,4394.615234,4327.692383,4330.384766,4327.692383,4299.102539,4281.153809,4303.589844,4313.333496,4301.922852,4293.461426,4460.256348,4506.794922,4361.922852,4460.512695,28.000000,0.000000,7.000000,,,,0.000000,2.000000,2.000000,0.000000,2.000000,2.000000,2.000000,0.000000,2.000000,4.000000,4.000000,4.000000,4.000000,2.000000,4.000000,16.666666,,,,,,,,,,,,,,,,,,,,,,,,,,,,
1732083172.663016,1732083172.664451,7.000000,0.000000,4395.897461,4328.846191,4329.230957,4324.358887,4287.179688,4283.077148,4301.922852,4313.461426,4303.717773,4293.717773,4467.307617,4505.897461,4366.282227,4462.179688,1182.000000,0.000000,7.000000,,,,0.000000,2.000000,2.000000,0.000000,2.000000,2.000000,2.000000,0.000000,2.000000,4.000000,4.000000,4.000000,4.000000,2.000000,4.000000,16.666666,,,,,,,,,,,,,,,,,,,,,,,,,,,,
1732083172.670824,1732083172.672159,8.000000,0.000000,4389.230957,4326.153809,4331.410156,4323.077148,4272.307617,4289.230957,4302.820313,4320.384766,4304.102539,4296.410156,4466.794922,4508.077148,4362.436035,4458.974121,1366.000000,0.000000,7.000000,,,,0.000000,2.000000,2.000000,0.000000,2.000000,2.000000,2.000000,0.000000,2.000000,4.000000,4.000000,4.000000,4.000000,2.000000,4.000000,16.666666,,,,,,,,,,,,,,,,,2.000000,0.000000,0.593012,0.404663,-0.604736,0.344788,1.000610,0.056159,-0.082041,-76.131386,61.539631,26.968052
1732083172.678633,1732083172.679967,9.000000,0.000000,4385.256348,4325.000000,4332.307617,4324.230957,4277.051270,4283.846191,4301.025879,4325.000000,4307.436035,4296.666504,4459.102539,4509.487305,4357.179688,4456.666504,1508.000000,0.000000,7.000000,,,,0.000000,2.000000,2.000000,0.000000,2.000000,2.000000,2.000000,0.000000,2.000000,4.000000,4.000000,4.000000,4.000000,2.000000,4.000000,16.666666,,,,,,,,,,,,,,,,,,,,,,,,,,,,
1732083172.686441,1732083172.687576,10.000000,0.000000,4392.051270,4334.615234,4331.410156,4331.410156,4283.077148,4277.692383,4302.948730,4319.358887,4311.282227,4296.410156,4462.307617,4512.692383,4365.641113,4461.025879,1371.000000,0.000000,7.000000,,,,0.000000,2.000000,2.000000,0.000000,2.000000,2.000000,2.000000,0.000000,2.000000,4.000000,4.000000,4.000000,4.000000,2.000000,4.000000,16.666666,,,,,,,,,,,,,,,,,,,,,,,,,,,,
1732083172.694249,1732083172.695384,11.000000,0.000000,4395.000000,4340.000000,4331.025879,4338.846191,4282.948730,4290.384766,4307.692383,4315.641113,4311.153809,4305.769043,4466.282227,4516.538574,4370.897461,4461.666504,1516.000000,0.000000,7.000000,,,,0.000000,2.000000,2.000000,0.000000,2.000000,2.000000,2.000000,0.000000,2.000000,4.000000,4.000000,4.000000,4.000000,2.000000,4.000000,16.666666,,,,,,,,,,,,,,,,,,,,,,,,,,,,
1732083172.702057,1732083172.703292,12.000000,0.000000,4384.743652,4330.256348,4332.692383,4331.794922,4289.615234,4295.128418,4306.666504,4319.615234,4311.666504,4304.230957,4461.794922,4512.436035,4364.230957,4456.666504,1743.000000,0.000000,7.000000,,,,0.000000,2.000000,2.000000,0.000000,2.000000,2.000000,2.000000,0.000000,2.000000,4.000000,4.000000,4.000000,4.000000,2.000000,4.000000,16.666666,,,,,,,,,,,,,,,,,3.000000,0.000000,0.588245,0.403870,-0.609070,0.346252,0.972287,0.043951,-0.088390,-76.296425,61.057098,26.625790
1732083172.709866,1732083172.711100,13.000000,0.000000,4375.128418,4323.205078,4330.897461,4322.563965,4295.897461,4280.769043,4299.487305,4314.487305,4309.871582,4290.128418,4458.461426,4504.743652,4364.743652,4455.769043,1633.000000,0.000000,7.000000,,,,0.000000,2.000000,2.000000,0.000000,2.000000,2.000000,2.000000,0.000000,2.000000,4.000000,4.000000,4.000000,4.000000,2.000000,4.000000,16.666666,,,,,,,,,,,,,,,,,,,,,,,,,,,,
1732083172.717674,1732083172.719108,14.000000,0.000000,4377.563965,4327.436035,4330.000000,4329.230957,4288.717773,4280.000000,4300.256348,4307.436035,4305.000000,4288.205078,4459.358887,4504.102539,4366.538574,4456.025879,1371.000000,0.000000,7.000000,,,,0.000000,2.000000,2.000000,0.000000,2.000000,2.000000,2.000000,0.000000,2.000000,4.000000,4.000000,4.000000,4.000000,2.000000,4.000000,16.666666,1.000000,8.333333,2.000000,2.000000,0.000000,2.000000,2.000000,2.000000,0.000000,2.000000,1.000000,3.000000,4.000000,4.000000,2.000000,4.000000,,,,,,,,,,,,
1732083172.725482,1732083172.726916,15.000000,0.000000,4379.743652,4328.461426,4331.794922,4332.563965,4280.512695,4295.128418,4306.025879,4321.282227,4309.871582,4297.307617,4459.871582,4508.077148,4358.974121,4453.205078,1516.000000,0.000000,7.000000,,,,0.000000,2.000000,2.000000,0.000000,2.000000,2.000000,2.000000,0.000000,2.000000,4.000000,4.000000,4.000000,4.000000,2.000000,4.000000,16.666666,,,,,,,,,,,,,,,,,,,,,,,,,,,,
1732083172.733291,1732083172.734625,16.000000,0.000000,4373.077148,4324.871582,4328.461426,4326.153809,4283.974121,4298.205078,4304.358887,4328.461426,4315.641113,4297.563965,4460.128418,4510.384766,4361.666504,4451.922852,0.000000,0.000000,7.000000,,,,0.000000,2.000000,2.000000,0.000000,2.000000,2.000000,2.000000,0.000000,2.000000,4.000000,4.000000,4.000000,4.000000,2.000000,4.000000,16.666666,,,,,,,,,,,,,,,,,4.000000,0.000000,0.583609,0.400757,-0.615173,0.346924,0.937126,0.049811,-0.107435,-76.631767,60.364586,26.146889
1732083172.741099,1732083172.742433,17.000000,0.000000,4370.384766,4323.974121,4326.538574,4324.871582,4296.153809,4293.717773,4300.897461,4312.051270,4308.461426,4292.563965,4460.641113,4510.256348,4373.077148,4455.512695,0.000000,0.000000,7.000000,,,,0.000000,2.000000,2.000000,0.000000,2.000000,2.000000,2.000000,0.000000,2.000000,4.000000,4.000000,4.000000,4.000000,2.000000,4.000000,16.666666,,,,,,,,,,,,,,,,,,,,,,,,,,,,
1732083172.748907,1732083172.750041,18.000000,0.000000,4374.102539,4325.128418,4328.846191,4326.153809,4296.410156,4297.179688,4301.153809,4307.692383,4310.000000,4295.128418,4461.794922,4507.948730,4370.384766,4454.487305,0.000000,0.000000,7.000000,,,,0.000000,2.000000,2.000000,0.000000,2.000000,2.000000,2.000000,0.000000,2.000000,4.000000,4.000000,4.000000,4.000000,2.000000,4.000000,16.666666,,,,,,,,,,,,,,,,,,,,,,,,,,,,
1732083172.756715,1732083172.757850,19.000000,0.000000,4372.179688,4324.615234,4331.153809,4323.974121,4289.358887,4296.410156,4300.256348,4314.871582,4317.563965,4299.615234,4461.538574,4507.051270,4362.820313,4451.794922,0.000000,0.000000,7.000000,,,,0.000000,2.000000,2.000000,0.000000,2.000000,2.000000,2.000000,0.000000,2.000000,4.000000,4.000000,4.000000,4.000000,2.000000,4.000000,16.666666,,,,,,,,,,,,,,,,,,,,,,,,,,,,
1732083172.764524,1732083172.765758,20.000000,0.000000,4368.717773,4322.563965,4326.538574,4324.358887,4287.179688,4291.794922,4297.820313,4315.000000,4314.487305,4301.922852,4461.794922,4511.666504,4369.358887,4454.102539,0.000000,0.000000,7.000000,,,,0.000000,2.000000,2.000000,0.000000,2.000000,2.000000,2.000000,0.000000,2.000000,4.000000,4.000000,4.000000,4.000000,2.000000,4.000000,16.666666,,,,,,,,,,,,,,,,,5.000000,0.000000,0.581865,0.399536,-0.617615,0.346924,0.931754,0.054694,-0.112807,-76.845062,59.853645,25.783979
1732083172.772332,1732083172.773566,21.000000,0.000000,4369.358887,4324.615234,4327.307617,4327.051270,4289.615234,4294.230957,4300.256348,4311.538574,4310.384766,4294.871582,4462.820313,4513.205078,4373.333496,4454.487305,0.000000,0.000000,7.000000,,,,0.000000,2.000000,2.000000,0.000000,2.000000,2.000000,2.000000,0.000000,2.000000,4.000000,4.000000,4.000000,4.000000,2.000000,4.000000,16.666666,,,,,,,,,,,,,,,,,,,,,,,,,,,,
1732083172.780140,1732083172.781574,22.000000,0.000000,4364.615234,4325.512695,4328.077148,4325.384766,4303.974121,4297.436035,4301.410156,4312.820313,4311.282227,4283.589844,4460.000000,4506.282227,4365.256348,4447.436035,0.000000,0.000000,7.000000,,,,0.000000,2.000000,2.000000,0.000000,2.000000,2.000000,2.000000,0.000000,2.000000,4.000000,4.000000,4.000000,4.000000,2.000000,4.000000,16.666666,,,,,,,,,,,,,,,,,,,,,,,,,,,,
1732083172.787948,1732083172.789382,23.000000,0.000000,4357.948730,4320.769043,4325.897461,4322.179688,4310.128418,4295.641113,4301.922852,4316.025879,4310.512695,4283.077148,4458.205078,4508.846191,4363.461426,4443.974121,0.000000,0.000000,7.000000,,,,0.000000,2.000000,2.000000,0.000000,2.000000,2.000000,2.000000,0.000000,2.000000,4.000000,4.000000,4.000000,4.000000,2.000000,4.000000,16.666666,,,,,,,,,,,,,,,,,,,,,,,,,,,,
1732083172.795757,1732083172.797290,24.000000,0.000000,4362.563965,4323.205078,4324.743652,4327.307617,4293.846191,4298.461426,4302.692383,4320.384766,4312.563965,4293.333496,4465.128418,4518.974121,4370.128418,4454.743652,0.000000,0.000000,7.000000,,,,0.000000,2.000000,2.000000,0.000000,2.000000,2.000000,2.000000,0.000000,2.000000,4.000000,4.000000,4.000000,4.000000,2.000000,4.000000,16.666666,,,,,,,,,,,,,,,,,6.000000,0.000000,0.581210,0.398926,-0.618591,0.346985,0.935173,0.063484,-0.104505,-77.062836,59.504787,25.575024
1732083172.803565,1732083172.805098,25.000000,0.000000,4367.948730,4331.282227,4328.077148,4333.333496,4284.230957,4302.436035,4303.589844,4322.307617,4317.179688,4301.538574,4470.512695,4514.743652,4373.205078,4457.179688,0.000000,0.000000,7.000000,,,,0.000000,2.000000,2.000000,0.000000,2.000000,2.000000,2.000000,0.000000,2.000000,4.000000,4.000000,4.000000,4.000000,2.000000,4.000000,16.666666,,,,,,,,,,,,,,,,,,,,,,,,,,,,
1732083172.811373,1732083172.813106,26.000000,0.000000,4362.436035,4329.615234,4327.051270,4327.307617,4293.974121,4297.563965,4298.205078,4317.179688,4316.025879,4301.794922,4465.897461,4504.487305,4370.128418,4444.743652,0.000000,0.000000,7.000000,,,,0.000000,2.000000,2.000000,0.000000,2.000000,2.000000,2.000000,0.000000,2.000000,4.000000,4.000000,4.000000,4.000000,2.000000,4.000000,16.666666,,,,,,,,,,,,,,,,,,,,,,,,,,,,
1732083172.819182,1732083172.820915,27.000000,0.000000,4350.128418,4319.358887,4323.974121,4316.410156,4294.358887,4292.820313,4298.461426,4319.615234,4317.692383,4299.871582,4461.666504,4505.256348,4367.179688,4440.512695,0.000000,0.000000,7.000000,,,,0.000000,2.000000,2.000000,0.000000,2.000000,2.000000,2.000000,0.000000,2.000000,4.000000,4.000000,4.000000,4.000000,2.000000,4.000000,16.666666,,,,,,,,,,,,,,,,,,,,,,,,,,,,
1732083172.826990,1732083172.828823,28.000000,0.000000,4344.358887,4317.179688,4323.974121,4316.794922,4287.692383,4294.487305,4301.282227,4332.179688,4325.769043,4302.820313,4468.974121,4508.461426,4368.589844,4446.153809,0.000000,0.000000,7.000000,,,,0.000000,2.000000,2.000000,0.000000,2.000000,2.000000,2.000000,0.000000,2.000000,4.000000,4.000000,4.000000,4.000000,2.000000,4.000000,16.666666,,,,,,,,,,,,,,,,,7.000000,0.000000,0.579963,0.397827,-0.620056,0.347717,0.961543,0.055671,-0.113783,-77.254234,59.208878,25.414103
1732083172.834798,1732083172.836631,29.000000,0.000000,4347.563965,4321.922852,4324.487305,4322.820313,4294.487305,4297.436035,4301.153809,4328.589844,4323.974121,4305.256348,4471.666504,4505.384766,4369.615234,4445.384766,0.000000,0.000000,7.000000,,,,0.000000,2.000000,2.000000,0.000000,2.000000,2.000000,2.000000,0.000000,2.000000,4.000000,4.000000,4.000000,4.000000,2.000000,4.000000,16.666666,,,,,,,,,,,,,,,,,,,,,,,,,,,,
1732083172.842606,1732083172.844639,30.000000,0.000000,4347.436035,4323.077148,4323.846191,4326.153809,4300.256348,4298.717773,4300.128418,4310.384766,4310.897461,4296.922852,4466.666504,4502.051270,4369.487305,4440.384766,0.000000,0.000000,7.000000,,,,0.000000,2.000000,2.000000,0.000000,2.000000,2.000000,2.000000,0.000000,2.000000,4.000000,4.000000,4.000000,4.000000,2.000000,4.000000,16.666666,,,,,,,,,,,,,,,,,,,,,,,,,,,,
1732083172.850415,1732083172.852447,31.000000,0.000000,4342.436035,4318.205078,4327.051270,4326.922852,4299.743652,4296.282227,4299.487305,4305.512695,4306.410156,4290.384766,4466.153809,4500.384766,4370.512695,4443.333496,0.000000,0.000000,7.000000,,,,0.000000,2.000000,2.000000,0.000000,2.000000,2.000000,2.000000,0.000000,2.000000,4.000000,4.000000,4.000000,4.000000,2.000000,4.000000,16.666666,,,,,,,,,,,,,,,,,,,,,,,,,,,,
1732083172.858223,1732083172.860355,32.000000,0.000000,4342.948730,4314.102539,4330.512695,4325.384766,4302.179688,4293.461426,4297.563965,4312.307617,4313.589844,4292.563965,4471.025879,4502.436035,4370.641113,4447.436035,0.000000,0.000000,7.000000,,,,0.000000,2.000000,2.000000,0.000000,2.000000,2.000000,2.000000,0.000000,2.000000,4.000000,4.000000,4.000000,4.000000,2.000000,4.000000,16.666666,,,,,,,,,,,,,,,,,8.000000,0.000000,0.577013,0.395081,-0.622253,0.351807,0.991820,0.043462,-0.112807,-77.545929,58.822525,25.277090
1732083172.866031,1732083172.868163,33.000000,0.000000,4348.589844,4318.333496,4325.384766,4324.358887,4301.282227,4298.589844,4299.615234,4316.153809,4316.794922,4297.307617,4470.256348,4506.794922,4368.333496,4447.051270,0.000000,0.000000,7.000000,,,,0.000000,2.000000,2.000000,0.000000,2.000000,2.000000,2.000000,0.000000,2.000000,4.000000,4.000000,4.000000,4.000000,2.000000,4.000000,16.666666,,,,,,,,,,,,,,,,,,,,,,,,,,,,
1732083172.873840,1732083172.876171,34.000000,0.000000,4347.307617,4318.205078,4325.384766,4322.563965,4294.615234,4301.282227,4305.128418,4321.410156,4316.922852,4306.025879,4469.615234,4502.436035,4367.563965,4445.512695,0.000000,0.000000,7.000000,,,,0.000000,2.000000,2.000000,0.000000,2.000000,2.000000,2.000000,0.000000,2.000000,4.000000,4.000000,4.000000,4.000000,2.000000,4.000000,16.666666,,,,,,,,,,,,,,,,,,,,,,,,,,,,
1732083172.881648,1732083172.883980,35.000000,0.000000,4343.205078,4311.153809,4331.666504,4318.333496,4302.820313,4293.846191,4302.051270,4325.256348,4321.794922,4310.769043,4470.641113,4494.487305,4367.051270,4442.948730,0.000000,0.000000,7.000000,,,,0.000000,2.000000,2.000000,0.000000,2.000000,2.000000,2.000000,0.000000,2.000000,4.000000,4.000000,4.000000,4.000000,2.000000,4.000000,16.666666,,,,,,,,,,,,,,,,,,,,,,,,,,,,
1732083172.889456,1732083172.891888,36.000000,0.000000,4342.051270,4310.128418,4334.487305,4315.000000,4313.461426,4296.794922,4302.179688,4331.282227,4326.025879,4305.256348,4466.922852,4496.410156,4362.692383,4441.153809,0.000000,0.000000,7.000000,,,,0.000000,2.000000,2.000000,0.000000,2.000000,2.000000,2.000000,0.000000,2.000000,4.000000,4.000000,4.000000,4.000000,2.000000,4.000000,16.666666,,,,,,,,,,,,,,,,,9.000000,0.000000,0.575762,0.394348,-0.623047,0.353271,0.991820,0.043462,-0.112807,-77.750534,58.539577,25.139442
1732083172.897264,1732083172.899696,37.000000,0.000000,4341.666504,4314.615234,4329.230957,4317.948730,4301.666504,4309.230957,4306.794922,4334.743652,4323.974121,4303.717773,4467.436035,4498.974121,4360.512695,4440.128418,0.000000,0.000000,7.000000,,,,0.000000,2.000000,2.000000,0.000000,2.000000,2.000000,2.000000,0.000000,2.000000,4.000000,4.000000,4.000000,4.000000,2.000000,4.000000,16.666666,,,,,,,,,,,,,,,,,,,,,,,,,,,,
1732083172.905072,1732083172.907304,38.000000,0.000000,4341.922852,4315.769043,4329.743652,4324.743652,4290.128418,4308.077148,4307.563965,4319.102539,4316.025879,4307.820313,4466.153809,4490.897461,4363.846191,4435.897461,0.000000,0.000000,7.000000,,,,0.000000,2.000000,2.000000,0.000000,2.000000,2.000000,2.000000,0.000000,2.000000,4.000000,4.000000,4.000000,4.000000,2.000000,4.000000,16.666666,,,,,,,,,,,,,,,,,,,,,,,,,,,,
1732083172.912881,1732083172.915113,39.000000,0.000000,4341.666504,4315.128418,4331.025879,4327.179688,4300.256348,4300.769043,4303.461426,4308.717773,4312.692383,4305.128418,4459.102539,4486.666504,4366.410156,4433.846191,0.000000,0.000000,7.000000,,,,0.000000,2.000000,2.000000,0.000000,2.000000,2.000000,2.000000,0.000000,2.000000,4.000000,4.000000,4.000000,4.000000,2.000000,4.000000,16.666666,,,,,,,,,,,,,,,,,,,,,,,,,,,,
1732083172.920689,1732083172.922821,40.000000,0.000000,4340.769043,4315.641113,4329.615234,4325.897461,4308.846191,4305.000000,4306.025879,4317.692383,4315.256348,4303.717773,4459.487305,4493.717773,4362.436035,4436.025879,0.000000,0.000000,7.000000,,,,0.000000,2.000000,2.000000,0.000000,2.000000,2.000000,2.000000,0.000000,2.000000,4.000000,4.000000,4.000000,4.000000,2.000000,4.000000,16.666666,,,,,,,,,,,,,,,,,10.000000,0.000000,0.572444,0.392883,-0.624939,0.356934,0.981077,-0.026859,-0.110365,-77.901268,57.883724,24.942949
1732083172.928497,1732083172.930629,41.000000,0.000000,4338.846191,4314.615234,4329.358887,4323.589844,4306.153809,4310.000000,4308.077148,4327.436035,4319.230957,4306.282227,4463.077148,4493.717773,4361.282227,4434.358887,0.000000,0.000000,7.000000,,,,0.000000,2.000000,2.000000,0.000000,2.000000,2.000000,2.000000,0.000000,2.000000,4.000000,4.000000,4.000000,4.000000,2.000000,4.000000,16.666666,,,,,,,,,,,,,,,,,,,,,,,,,,,,
1732083172.936305,1732083172.938237,42.000000,0.000000,4333.717773,4311.922852,4330.128418,4318.333496,4306.922852,4308.205078,4307.820313,4325.512695,4321.794922,4301.922852,4460.769043,4487.436035,4365.000000,4429.487305,0.000000,0.000000,7.000000,,,,0.000000,2.000000,2.000000,0.000000,2.000000,2.000000,2.000000,0.000000,2.000000,4.000000,4.000000,4.000000,4.000000,2.000000,4.000000,16.666666,,,,,,,,,,,,,,,,,,,,,,,,,,,,
1732083172.944114,1732083172.946046,43.000000,0.000000,4328.846191,4311.410156,4328.333496,4315.641113,4304.487305,4310.256348,4305.641113,4318.205078,4323.333496,4302.307617,4462.436035,4487.692383,4363.974121,4428.333496,0.000000,0.000000,7.000000,,,,0.000000,2.000000,2.000000,0.000000,2.000000,2.000000,2.000000,0.000000,2.000000,4.000000,4.000000,4.000000,4.000000,2.000000,4.000000,16.666666,,,,,,,,,,,,,,,,,,,,,,,,,,,,
1732083172.951922,1732083172.953754,44.000000,0.000000,4331.153809,4312.948730,4329.230957,4317.436035,4308.846191,4307.820313,4300.897461,4317.051270,4325.000000,4309.230957,4468.205078,4491.282227,4363.846191,4430.128418,0.000000,0.000000,7.000000,,,,0.000000,2.000000,2.000000,0.000000,2.000000,2.000000,2.000000,0.000000,2.000000,4.000000,4.000000,4.000000,4.000000,2.000000,4.000000,16.666666,,,,,,,,,,,,,,,,,11.000000,0.000000,0.566025,0.386658,-0.630066,0.364868,0.980100,-0.092785,-0.105482,-78.023361,57.602482,24.750456
1732083172.959730,1732083172.961562,45.000000,0.000000,4332.051270,4312.307617,4330.384766,4314.743652,4320.384766,4299.487305,4297.179688,4322.307617,4323.589844,4308.333496,4467.307617,4492.051270,4366.794922,4429.615234,0.000000,0.000000,7.000000,,,,0.000000,2.000000,2.000000,0.000000,2.000000,2.000000,2.000000,0.000000,2.000000,4.000000,4.000000,4.000000,4.000000,2.000000,4.000000,16.666666,,,,,,,,,,,,,,,,,,,,,,,,,,,,
1732083172.967538,1732083172.969171,46.000000,0.000000,4326.666504,4309.230957,4325.641113,4312.563965,4312.948730,4305.000000,4300.769043,4323.589844,4321.282227,4303.205078,4466.025879,4490.000000,4363.974121,4429.743652,0.000000,0.000000,7.000000,,,,0.000000,2.000000,2.000000,0.000000,2.000000,2.000000,2.000000,0.000000,2.000000,4.000000,4.000000,4.000000,4.000000,2.000000,4.000000,16.666666,,,,,,,,,,,,,,,,,,,,,,,,,,,,
1732083172.975347,1732083172.976979,47.000000,0.000000,4327.692383,4310.769043,4324.743652,4321.153809,4301.410156,4312.051270,4303.846191,4320.897461,4320.384766,4303.589844,4463.846191,4491.282227,4361.666504,4431.025879,0.000000,0.000000,7.000000,,,,0.000000,2.000000,2.000000,0.000000,2.000000,2.000000,2.000000,0.000000,2.000000,4.000000,4.000000,4.000000,4.000000,2.000000,4.000000,16.666666,,,,,,,,,,,,,,,,,,,,,,,,,,,,
1732083172.983155,1732083172.984687,48.000000,0.000000,4332.948730,4313.461426,4328.077148,4324.358887,4308.077148,4310.256348,4302.692383,4322.820313,4323.461426,4302.563965,4459.358887,4490.512695,4363.205078,4427.051270,0.000000,0.000000,7.000000,,,,0.000000,2.000000,2.000000,0.000000,2.000000,2.000000,2.000000,0.000000,2.000000,4.000000,4.000000,4.000000,4.000000,2.000000,4.000000,16.666666,,,,,,,,,,,,,,,,,12.000000,0.000000,0.562325,0.380127,-0.634277,0.370117,0.966427,-0.097180,-0.099622,-78.405586,56.963013,24.422869
1732083172.990963,1732083172.992495,49.000000,0.000000,4328.461426,4310.897461,4329.358887,4315.641113,4315.128418,4310.000000,4302.563965,4322.692383,4326.153809,4301.410156,4458.717773,4487.436035,4361.666504,4422.179688,0.000000,0.000000,7.000000,,,,0.000000,2.000000,2.000000,0.000000,2.000000,2.000000,2.000000,0.000000,2.000000,4.000000,4.000000,4.000000,4.000000,2.000000,4.000000,16.666666,,,,,,,,,,,,,,,,,,,,,,,,,,,,
1732083172.998772,1732083173.000104,50.000000,0.000000,4325.256348,4309.230957,4325.769043,4314.615234,4312.692383,4306.666504,4301.282227,4319.102539,4322.051270,4306.922852,4461.410156,4488.974121,4363.461426,4424.615234,0.000000,0.000000,7.000000,,,,0.000000,2.000000,2.000000,0.000000,2.000000,2.000000,2.000000,0.000000,2.000000,4.000000,4.000000,4.000000,4.000000,2.000000,4.000000,16.666666,,,,,,,,,,,,,,,,,,,,,,,,,,,,
1732083173.006580,1732083173.007912,51.000000,0.000000,4329.487305,4311.025879,4327.179688,4318.077148,4307.051270,4297.948730,4299.615234,4321.666504,4321.025879,4308.461426,4462.563965,4493.589844,4366.153809,4428.077148,0.000000,0.000000,7.000000,,,,0.000000,2.000000,2.000000,0.000000,2.000000,2.000000,2.000000,0.000000,2.000000,4.000000,4.000000,4.000000,4.000000,2.000000,4.000000,16.666666,,,,,,,,,,,,,,,,,,,,,,,,,,,,
1732083173.014388,1732083173.015620,52.000000,0.000000,4326.922852,4307.692383,4325.897461,4313.717773,4306.794922,4298.846191,4299.102539,4327.051270,4329.487305,4309.743652,4461.282227,4493.589844,4363.974121,4425.641113,0.000000,0.000000,7.000000,,,,0.000000,2.000000,2.000000,0.000000,2.000000,2.000000,2.000000,0.000000,2.000000,4.000000,4.000000,4.000000,4.000000,2.000000,4.000000,16.666666,,,,,,,,,,,,,,,,,13.000000,0.000000,0.561635,0.377808,-0.635559,0.371338,0.969845,-0.097668,-0.100598,-78.581856,56.115040,24.437523
1732083173.022196,1732083173.023428,53.000000,0.000000,4317.692383,4300.897461,4323.846191,4309.102539,4318.205078,4305.641113,4301.153809,4326.794922,4330.897461,4311.538574,4462.307617,4490.641113,4365.256348,4425.128418,0.000000,0.000000,7.000000,,,,0.000000,2.000000,2.000000,0.000000,2.000000,2.000000,2.000000,0.000000,2.000000,4.000000,4.000000,4.000000,4.000000,2.000000,4.000000,16.666666,,,,,,,,,,,,,,,,,,,,,,,,,,,,
1732083173.030005,1732083173.031436,54.000000,0.000000,4317.692383,4305.641113,4321.922852,4311.153809,4320.641113,4308.205078,4301.282227,4326.410156,4324.358887,4307.692383,4469.487305,4493.333496,4368.077148,4426.025879,0.000000,0.000000,7.000000,,,,0.000000,2.000000,2.000000,0.000000,2.000000,2.000000,2.000000,0.000000,2.000000,4.000000,4.000000,4.000000,4.000000,2.000000,4.000000,16.666666,,,,,,,,,,,,,,,,,,,,,,,,,,,,
1732083173.037813,1732083173.039245,55.000000,0.000000,4324.743652,4314.487305,4324.615234,4315.000000,4303.077148,4310.512695,4302.436035,4333.077148,4330.769043,4305.128418,4475.512695,4501.538574,4365.897461,4429.871582,0.000000,0.000000,7.000000,,,,0.000000,2.000000,2.000000,0.000000,2.000000,2.000000,2.000000,0.000000,2.000000,4.000000,4.000000,4.000000,4.000000,2.000000,4.000000,16.666666,,,,,,,,,,,,,,,,,,,,,,,,,,,,
1732083173.045621,1732083173.046953,56.000000,0.000000,4325.897461,4312.820313,4325.384766,4316.922852,4300.128418,4310.641113,4299.230957,4337.179688,4339.102539,4313.846191,4476.794922,4508.846191,4367.563965,4439.487305,0.000000,0.000000,7.000000,,,,0.000000,2.000000,2.000000,0.000000,2.000000,2.000000,2.000000,0.000000,2.000000,4.000000,4.000000,4.000000,4.000000,2.000000,4.000000,16.666666,,,,,,,,,,,,,,,,,14.000000,0.000000,0.560285,0.369568,-0.639648,0.374634,0.976193,-0.094738,-0.090343,-78.924637,55.341515,24.286060
1732083173.053429,1732083173.054761,57.000000,0.000000,4319.102539,4310.128418,4325.128418,4318.461426,4313.077148,4308.846191,4299.230957,4333.974121,4334.102539,4320.128418,4476.922852,4506.025879,4371.922852,4441.794922,0.000000,0.000000,7.000000,,,,0.000000,2.000000,2.000000,0.000000,2.000000,2.000000,2.000000,0.000000,2.000000,4.000000,4.000000,4.000000,4.000000,2.000000,4.000000,16.666666,,,,,,,,,,,,,,,,,,,,,,,,,,,,
1732083173.061238,1732083173.062769,58.000000,0.000000,4314.743652,4312.051270,4326.538574,4319.230957,4314.615234,4311.282227,4305.256348,4335.128418,4335.512695,4317.948730,4475.512695,4497.307617,4370.641113,4437.436035,0.000000,0.000000,7.000000,,,,0.000000,2.000000,2.000000,0.000000,2.000000,2.000000,2.000000,0.000000,2.000000,4.000000,4.000000,4.000000,4.000000,2.000000,4.000000,16.666666,,,,,,,,,,,,,,,,,,,,,,,,,,,,
1732083173.069046,1732083173.070577,59.000000,0.000000,4314.230957,4311.538574,4326.025879,4316.025879,4312.307617,4311.153809,4309.102539,4332.692383,4338.461426,4314.615234,4473.717773,4492.948730,4368.974121,4434.102539,0.000000,0.000000,7.000000,,,,0.000000,2.000000,2.000000,0.000000,2.000000,2.000000,2.000000,0.000000,2.000000,4.000000,4.000000,4.000000,4.000000,2.000000,4.000000,16.666666,,,,,,,,,,,,,,,,,,,,,,,,,,,,
1732083173.076854,1732083173.078286,60.000000,0.000000,4312.948730,4310.128418,4325.897461,4309.871582,4310.641113,4311.153809,4304.102539,4325.384766,4329.487305,4312.820313,4473.846191,4492.692383,4371.666504,4431.282227,0.000000,0.000000,7.000000,,,,0.000000,2.000000,2.000000,0.000000,2.000000,2.000000,2.000000,0.000000,2.000000,4.000000,4.000000,4.000000,4.000000,2.000000,4.000000,16.666666,,,,,,,,,,,,,,,,,15.000000,0.000000,0.560100,0.365662,-0.641479,0.375610,0.969357,-0.091808,-0.087413,-79.248955,54.629959,24.156710
1732083173.084663,1732083173.086094,61.000000,0.000000,4312.436035,4306.794922,4325.512695,4310.256348,4314.230957,4311.410156,4301.025879,4328.077148,4329.615234,4314.358887,4475.512695,4492.179688,4372.179688,4430.128418,0.000000,0.000000,7.000000,,,,0.000000,2.000000,2.000000,0.000000,2.000000,2.000000,2.000000,0.000000,2.000000,4.000000,4.000000,4.000000,4.000000,2.000000,4.000000,16.666666,,,,,,,,,,,,,,,,,,,,,,,,,,,,
1732083173.092471,1732083173.093702,62.000000,0.000000,4312.563965,4301.153809,4324.871582,4312.436035,4320.256348,4303.333496,4302.436035,4334.230957,4337.436035,4316.025879,4475.769043,4496.666504,4368.461426,4430.641113,0.000000,0.000000,7.000000,,,,0.000000,2.000000,2.000000,0.000000,2.000000,2.000000,2.000000,0.000000,2.000000,4.000000,4.000000,4.000000,4.000000,2.000000,4.000000,16.666666,,,,,,,,,,,,,,,,,,,,,,,,,,,,
1732083173.100279,1732083173.101511,63.000000,0.000000,4308.717773,4298.589844,4322.820313,4309.358887,4307.563965,4305.641113,4306.282227,4340.256348,4340.128418,4321.666504,4471.410156,4500.897461,4366.282227,4427.179688,0.000000,0.000000,7.000000,,,,0.000000,2.000000,2.000000,0.000000,2.000000,2.000000,2.000000,0.000000,2.000000,4.000000,4.000000,4.000000,4.000000,2.000000,4.000000,16.666666,,,,,,,,,,,,,,,,,,,,,,,,,,,,
1732083173.108087,1732083173.109419,64.000000,0.000000,4304.743652,4296.666504,4324.871582,4308.461426,4295.769043,4318.461426,4307.179688,4344.743652,4340.128418,4328.846191,4465.769043,4495.256348,4366.922852,4424.871582,0.000000,0.000000,7.000000,,,,0.000000,2.000000,2.000000,0.000000,2.000000,2.000000,2.000000,0.000000,2.000000,4.000000,4.000000,4.000000,4.000000,2.000000,4.000000,16.666666,,,,,,,,,,,,,,,,,16.000000,0.000000,0.560129,0.363953,-0.642212,0.375977,0.961055,-0.087901,-0.087901,-79.634987,54.221935,23.963602
1732083173.115896,1732083173.117227,65.000000,0.000000,4308.846191,4298.717773,4324.871582,4314.358887,4307.436035,4317.436035,4302.820313,4334.358887,4335.128418,4322.307617,4464.358887,4488.846191,4364.487305,4424.615234,1315.000000,0.000000,7.000000,,,,0.000000,2.000000,2.000000,0.000000,2.000000,2.000000,2.000000,0.000000,2.000000,4.000000,4.000000,4.000000,4.000000,2.000000,4.000000,16.666666,,,,,,,,,,,,,,,,,,,,,,,,,,,,
1732083173.123704,1732083173.125235,66.000000,0.000000,4311.922852,4305.000000,4324.358887,4317.563965,4317.820313,4307.051270,4301.538574,4323.077148,4328.205078,4308.077148,4462.692383,4492.179688,4360.384766,4417.179688,1230.000000,0.000000,7.000000,,,,0.000000,2.000000,2.000000,0.000000,2.000000,2.000000,2.000000,0.000000,2.000000,4.000000,4.000000,4.000000,4.000000,2.000000,4.000000,16.666666,,,,,,,,,,,,,,,,,,,,,,,,,,,,
1732083173.131512,1732083173.133043,67.000000,0.000000,4310.384766,4304.358887,4324.358887,4314.871582,4308.077148,4303.717773,4299.871582,4328.717773,4330.769043,4308.589844,4463.846191,4494.743652,4362.948730,4416.794922,1189.000000,0.000000,7.000000,,,,0.000000,2.000000,2.000000,0.000000,2.000000,2.000000,2.000000,0.000000,2.000000,4.000000,4.000000,4.000000,4.000000,2.000000,4.000000,16.666666,,,,,,,,,,,,,,,,,,,,,,,,,,,,
1732083173.139320,1732083173.140951,68.000000,0.000000,4314.615234,4302.051270,4327.179688,4314.358887,4305.512695,4305.769043,4297.692383,4333.461426,4331.025879,4314.102539,4473.333496,4494.615234,4365.897461,4426.282227,1210.000000,0.000000,7.000000,,,,0.000000,2.000000,2.000000,0.000000,2.000000,2.000000,2.000000,0.000000,2.000000,4.000000,4.000000,4.000000,4.000000,2.000000,4.000000,16.666666,,,,,,,,,,,,,,,,,17.000000,0.000000,0.560167,0.361084,-0.643188,0.377014,0.956660,-0.096691,-0.080088,-80.052673,53.768101,24.192184
1732083173.147129,1732083173.148759,69.000000,0.000000,4321.666504,4309.230957,4328.205078,4321.794922,4326.410156,4308.717773,4299.102539,4326.025879,4325.897461,4313.333496,4474.871582,4496.794922,4365.128418,4427.820313,1077.000000,0.000000,7.000000,,,,0.000000,2.000000,2.000000,0.000000,2.000000,2.000000,2.000000,0.000000,2.000000,4.000000,4.000000,4.000000,4.000000,2.000000,4.000000,16.666666,,,,,,,,,,,,,,,,,,,,,,,,,,,,
1732083173.154937,1732083173.156368,70.000000,0.000000,4319.102539,4315.769043,4326.794922,4321.410156,4330.384766,4310.512695,4302.948730,4326.153809,4331.666504,4318.846191,4467.563965,4496.153809,4366.538574,4422.948730,23.000000,0.000000,7.000000,,,,0.000000,2.000000,2.000000,0.000000,2.000000,2.000000,2.000000,0.000000,2.000000,4.000000,4.000000,4.000000,4.000000,2.000000,4.000000,16.666666,,,,,,,,,,,,,,,,,,,,,,,,,,,,
1732083173.162745,1732083173.164176,71.000000,0.000000,4312.948730,4311.282227,4325.641113,4311.794922,4309.358887,4310.384766,4300.000000,4336.794922,4341.153809,4326.153809,4468.461426,4493.974121,4366.666504,4423.461426,1184.000000,0.000000,7.000000,,,,0.000000,2.000000,2.000000,0.000000,2.000000,2.000000,2.000000,0.000000,2.000000,4.000000,4.000000,4.000000,4.000000,2.000000,4.000000,16.666666,,,,,,,,,,,,,,,,,,,,,,,,,,,,
1732083173.170553,1732083173.172084,72.000000,0.000000,4313.077148,4301.410156,4326.410156,4310.128418,4303.717773,4317.948730,4303.205078,4345.384766,4341.153809,4323.205078,4473.717773,4493.205078,4365.897461,4425.000000,1366.000000,0.000000,7.000000,,,,0.000000,2.000000,2.000000,0.000000,2.000000,2.000000,2.000000,0.000000,2.000000,4.000000,4.000000,4.000000,4.000000,2.000000,4.000000,16.666666,,,,,,,,,,,,,,,,,18.000000,0.000000,0.560343,0.355957,-0.644958,0.378601,0.983030,-0.092296,-0.075204,-80.357666,53.117161,24.194002
1732083173.178362,1732083173.179892,73.000000,0.000000,4312.051270,4298.333496,4325.256348,4313.846191,4315.769043,4323.077148,4305.384766,4343.589844,4338.974121,4319.743652,4473.717773,4492.820313,4366.666504,4422.563965,1506.000000,0.000000,7.000000,,,,0.000000,2.000000,2.000000,0.000000,2.000000,2.000000,2.000000,0.000000,2.000000,4.000000,4.000000,4.000000,4.000000,2.000000,4.000000,16.666666,,,,,,,,,,,,,,,,,,,,,,,,,,,,
1732083173.186170,1732083173.187900,74.000000,0.000000,4307.948730,4301.922852,4322.948730,4311.794922,4311.794922,4312.179688,4300.128418,4336.794922,4336.153809,4318.717773,4468.589844,4491.922852,4362.307617,4419.743652,1381.000000,0.000000,7.000000,,,,0.000000,2.000000,2.000000,0.000000,2.000000,2.000000,2.000000,0.000000,2.000000,4.000000,4.000000,4.000000,4.000000,2.000000,4.000000,16.666666,,,,,,,,,,,,,,,,,,,,,,,,,,,,
1732083173.193978,1732083173.195709,75.000000,0.000000,4307.563965,4300.128418,4324.230957,4310.641113,4311.282227,4309.230957,4300.000000,4334.358887,4328.077148,4313.589844,4459.615234,4489.358887,4354.102539,4414.230957,1503.000000,0.000000,7.000000,,,,0.000000,2.000000,2.000000,0.000000,2.000000,2.000000,2.000000,0.000000,2.000000,4.000000,4.000000,4.000000,4.000000,2.000000,4.000000,16.666666,,,,,,,,,,,,,,,,,,,,,,,,,,,,
1732083173.201786,1732083173.203617,76.000000,0.000000,4305.000000,4291.666504,4325.384766,4307.307617,4315.128418,4323.846191,4306.794922,4333.333496,4326.922852,4309.230957,4454.743652,4488.461426,4351.538574,4407.051270,1745.000000,0.000000,7.000000,,,,0.000000,2.000000,2.000000,0.000000,2.000000,2.000000,2.000000,0.000000,2.000000,4.000000,4.000000,4.000000,4.000000,2.000000,4.000000,16.666666,,,,,,,,,,,,,,,,,19.000000,0.000000,0.559562,0.353394,-0.645752,0.380798,0.980100,-0.102063,-0.086436,-80.541374,52.518234,23.947142
1732083173.209595,1732083173.211425,77.000000,0.000000,4302.563965,4292.179688,4322.563965,4299.358887,4308.846191,4326.538574,4303.846191,4331.153809,4335.384766,4312.948730,4461.666504,4490.384766,4357.436035,4407.692383,1626.000000,0.000000,7.000000,,,,0.000000,2.000000,2.000000,0.000000,2.000000,2.000000,2.000000,0.000000,2.000000,4.000000,4.000000,4.000000,4.000000,2.000000,4.000000,16.666666,,,,,,,,,,,,,,,,,,,,,,,,,,,,
1732083173.217403,1732083173.219433,78.000000,0.000000,4305.384766,4300.128418,4322.307617,4300.641113,4319.743652,4311.538574,4298.974121,4329.487305,4335.128418,4320.512695,4466.666504,4490.256348,4364.102539,4416.538574,1381.000000,0.000000,7.000000,,,,0.000000,2.000000,2.000000,0.000000,2.000000,2.000000,2.000000,0.000000,2.000000,4.000000,4.000000,4.000000,4.000000,2.000000,4.000000,16.666666,1.000000,16.666666,2.000000,2.000000,0.000000,2.000000,2.000000,2.000000,0.000000,2.000000,4.000000,4.000000,4.000000,4.000000,2.000000,4.000000,,,,,,,,,,,,
1732083173.225211,1732083173.227241,79.000000,0.000000,4310.897461,4301.282227,4327.563965,4307.307617,4325.769043,4306.410156,4301.666504,4326.922852,4328.589844,4324.230957,4464.102539,4492.692383,4365.769043,4424.487305,1503.000000,0.000000,7.000000,,,,0.000000,2.000000,2.000000,0.000000,2.000000,2.000000,2.000000,0.000000,2.000000,4.000000,4.000000,4.000000,4.000000,2.000000,4.000000,16.666666,,,,,,,,,,,,,,,,,,,,,,,,,,,,
1732083173.233019,1732083173.235149,80.000000,0.000000,4313.205078,4301.025879,4325.512695,4310.512695,4311.153809,4316.794922,4302.436035,4329.102539,4328.589844,4323.846191,4465.256348,4497.179688,4364.358887,4425.000000,1745.000000,0.000000,7.000000,,,,0.000000,2.000000,2.000000,0.000000,2.000000,2.000000,2.000000,0.000000,2.000000,4.000000,4.000000,4.000000,4.000000,2.000000,4.000000,16.666666,,,,,,,,,,,,,,,,,20.000000,0.000000,0.559301,0.352661,-0.645874,0.381653,0.969845,-0.106947,-0.091808,-80.565178,51.849770,23.988852
1732083173.240828,1732083173.242957,81.000000,0.000000,4309.358887,4304.871582,4321.794922,4311.282227,4314.102539,4323.846191,4303.077148,4334.230957,4333.589844,4324.743652,4466.282227,4497.179688,4366.282227,4419.102539,1626.000000,0.000000,7.000000,,,,0.000000,2.000000,2.000000,0.000000,2.000000,2.000000,2.000000,0.000000,2.000000,4.000000,4.000000,4.000000,4.000000,2.000000,4.000000,16.666666,,,,,,,,,,,,,,,,,,,,,,,,,,,,
1732083173.248636,1732083173.250566,82.000000,0.000000,4302.179688,4303.846191,4322.692383,4311.282227,4332.307617,4325.641113,4305.641113,4336.538574,4336.153809,4326.538574,4464.615234,4489.871582,4366.794922,4415.256348,1381.000000,0.000000,7.000000,,,,0.000000,2.000000,2.000000,0.000000,2.000000,2.000000,2.000000,0.000000,2.000000,4.000000,4.000000,4.000000,4.000000,2.000000,4.000000,16.666666,,,,,,,,,,,,,,,,,,,,,,,,,,,,
1732083173.256444,1732083173.258374,83.000000,0.000000,4301.025879,4298.333496,4325.256348,4310.897461,4331.282227,4325.641113,4307.692383,4338.461426,4335.256348,4321.410156,4461.282227,4482.563965,4357.179688,4414.358887,1503.000000,0.000000,7.000000,,,,0.000000,2.000000,2.000000,0.000000,2.000000,2.000000,2.000000,0.000000,2.000000,4.000000,4.000000,4.000000,4.000000,2.000000,4.000000,16.666666,,,,,,,,,,,,,,,,,,,,,,,,,,,,
1732083173.264253,1732083173.266282,84.000000,0.000000,4304.230957,4301.666504,4322.436035,4310.512695,4325.128418,4320.000000,4305.256348,4343.589844,4335.000000,4317.179688,4459.230957,4482.307617,4351.282227,4413.461426,1745.000000,0.000000,7.000000,,,,0.000000,2.000000,2.000000,0.000000,2.000000,2.000000,2.000000,0.000000,2.000000,4.000000,4.000000,4.000000,4.000000,2.000000,4.000000,16.666666,,,,,,,,,,,,,,,,,21.000000,0.000000,0.558549,0.350525,-0.646240,0.384094,0.982053,-0.138200,-0.077158,-80.636131,51.563313,24.045969
1732083173.272061,1732083173.274090,85.000000,0.000000,4303.846191,4305.256348,4321.410156,4309.743652,4327.179688,4321.025879,4305.897461,4340.512695,4336.666504,4321.666504,4459.615234,4487.948730,4358.846191,4412.820313,1626.000000,0.000000,7.000000,,,,0.000000,2.000000,2.000000,0.000000,2.000000,2.000000,2.000000,0.000000,2.000000,4.000000,4.000000,4.000000,4.000000,2.000000,4.000000,16.666666,,,,,,,,,,,,,,,,,,,,,,,,,,,,
1732083173.279869,1732083173.282098,86.000000,0.000000,4302.179688,4298.974121,4323.205078,4310.256348,4322.307617,4325.256348,4306.282227,4333.974121,4339.743652,4322.692383,4462.948730,4490.128418,4365.000000,4412.307617,1381.000000,0.000000,7.000000,,,,0.000000,2.000000,2.000000,0.000000,2.000000,2.000000,2.000000,0.000000,2.000000,4.000000,4.000000,4.000000,4.000000,2.000000,4.000000,16.666666,,,,,,,,,,,,,,,,,,,,,,,,,,,,
1732083173.287677,1732083173.289907,87.000000,0.000000,4299.102539,4294.102539,4324.743652,4308.589844,4328.461426,4321.794922,4306.794922,4343.717773,4341.794922,4316.794922,4460.769043,4482.563965,4356.410156,4407.563965,1503.000000,0.000000,7.000000,,,,0.000000,2.000000,2.000000,0.000000,2.000000,2.000000,2.000000,0.000000,2.000000,4.000000,4.000000,4.000000,4.000000,2.000000,4.000000,16.666666,,,,,,,,,,,,,,,,,,,,,,,,,,,,
1732083173.295486,1732083173.297615,88.000000,0.000000,4297.307617,4299.102539,4325.000000,4306.794922,4336.153809,4318.589844,4305.769043,4353.077148,4343.333496,4316.794922,4457.307617,4477.051270,4352.820313,4405.384766,1745.000000,0.000000,7.000000,,,,0.000000,2.000000,2.000000,0.000000,2.000000,2.000000,2.000000,0.000000,2.000000,4.000000,4.000000,4.000000,4.000000,2.000000,4.000000,16.666666,,,,,,,,,,,,,,,,,22.000000,0.000000,0.558078,0.349060,-0.646240,0.386108,0.981565,-0.132829,-0.071786,-80.785263,51.294617,23.875568
1732083173.303294,1732083173.305423,89.000000,0.000000,4301.666504,4305.641113,4323.589844,4311.922852,4316.282227,4317.436035,4303.205078,4335.512695,4334.871582,4323.717773,4462.051270,4477.820313,4366.666504,4410.641113,1626.000000,0.000000,7.000000,,,,0.000000,2.000000,2.000000,0.000000,2.000000,2.000000,2.000000,0.000000,2.000000,4.000000,4.000000,4.000000,4.000000,2.000000,4.000000,16.666666,,,,,,,,,,,,,,,,,,,,,,,,,,,,
1732083173.311102,1732083173.313031,90.000000,0.000000,4305.512695,4304.102539,4323.589844,4315.256348,4301.922852,4316.025879,4301.538574,4316.025879,4324.615234,4325.000000,4462.692383,4475.128418,4369.871582,4408.846191,1381.000000,0.000000,7.000000,,,,0.000000,2.000000,2.000000,0.000000,2.000000,2.000000,2.000000,0.000000,2.000000,4.000000,4.000000,4.000000,4.000000,2.000000,4.000000,16.666666,,,,,,,,,,,,,,,,,,,,,,,,,,,,
1732083173.318910,1732083173.320840,91.000000,0.000000,4300.641113,4298.589844,4323.077148,4311.538574,4320.256348,4317.051270,4304.358887,4324.358887,4330.000000,4317.051270,4456.794922,4468.461426,4355.897461,4399.871582,1503.000000,0.000000,7.000000,,,,0.000000,2.000000,2.000000,0.000000,2.000000,2.000000,2.000000,0.000000,2.000000,4.000000,4.000000,4.000000,4.000000,2.000000,4.000000,16.666666,,,,,,,,,,,,,,,,,,,,,,,,,,,,
1732083173.326719,1732083173.328548,92.000000,0.000000,4297.051270,4297.179688,4322.307617,4310.897461,4322.563965,4321.153809,4307.692383,4336.922852,4335.128418,4310.256348,4457.307617,4468.974121,4354.102539,4398.846191,1745.000000,0.000000,7.000000,,,,0.000000,2.000000,2.000000,0.000000,2.000000,2.000000,2.000000,0.000000,2.000000,4.000000,4.000000,4.000000,4.000000,2.000000,4.000000,16.666666,,,,,,,,,,,,,,,,,23.000000,0.000000,0.558026,0.348694,-0.646118,0.386719,0.981565,-0.132829,-0.071786,-80.717735,50.900307,23.955877
1732083173.334527,1732083173.336356,93.000000,0.000000,4299.743652,4300.128418,4323.589844,4312.307617,4309.358887,4321.153809,4308.077148,4335.897461,4328.846191,4313.717773,4462.307617,4475.641113,4361.922852,4401.666504,1626.000000,0.000000,7.000000,,,,0.000000,2.000000,2.000000,0.000000,2.000000,2.000000,2.000000,0.000000,2.000000,4.000000,4.000000,4.000000,4.000000,2.000000,4.000000,16.666666,,,,,,,,,,,,,,,,,,,,,,,,,,,,
1732083173.342335,1732083173.343965,94.000000,0.000000,4299.358887,4299.615234,4323.589844,4307.948730,4323.461426,4317.179688,4303.717773,4332.307617,4325.256348,4321.794922,4462.179688,4477.563965,4363.461426,4403.974121,1381.000000,0.000000,7.000000,,,,0.000000,2.000000,2.000000,0.000000,2.000000,2.000000,2.000000,0.000000,2.000000,4.000000,4.000000,4.000000,4.000000,2.000000,4.000000,16.666666,,,,,,,,,,,,,,,,,,,,,,,,,,,,
1732083173.350144,1732083173.351773,95.000000,0.000000,4299.743652,4296.922852,4321.794922,4303.589844,4323.077148,4315.128418,4302.948730,4332.692383,4332.051270,4320.641113,4461.282227,4476.794922,4362.051270,4409.230957,1503.000000,0.000000,7.000000,,,,0.000000,2.000000,2.000000,0.000000,2.000000,2.000000,2.000000,0.000000,2.000000,4.000000,4.000000,4.000000,4.000000,2.000000,4.000000,16.666666,,,,,,,,,,,,,,,,,,,,,,,,,,,,
1732083173.357952,1732083173.359481,96.000000,0.000000,4300.897461,4296.282227,4322.307617,4304.230957,4298.846191,4317.307617,4307.563965,4342.820313,4342.307617,4316.153809,4460.641113,4478.717773,4360.897461,4408.846191,1745.000000,0.000000,7.000000,,,,0.000000,2.000000,2.000000,0.000000,2.000000,2.000000,2.000000,0.000000,2.000000,4.000000,4.000000,4.000000,4.000000,2.000000,4.000000,16.666666,,,,,,,,,,,,,,,,,24.000000,0.000000,0.557982,0.348267,-0.646057,0.387268,0.966427,-0.133317,-0.072274,-80.834694,50.824249,23.805927
1732083173.365760,1732083173.367289,97.000000,0.000000,4298.717773,4296.410156,4324.358887,4303.333496,4302.692383,4321.282227,4307.692383,4344.102539,4341.025879,4316.153809,4456.538574,4484.871582,4359.743652,4402.179688,1626.000000,0.000000,7.000000,,,,0.000000,2.000000,2.000000,0.000000,2.000000,2.000000,2.000000,0.000000,2.000000,4.000000,4.000000,4.000000,4.000000,2.000000,4.000000,16.666666,,,,,,,,,,,,,,,,,,,,,,,,,,,,
1732083173.373568,1732083173.374898,98.000000,0.000000,4295.000000,4296.282227,4322.307617,4298.846191,4317.820313,4320.384766,4304.743652,4330.128418,4332.051270,4316.282227,4456.410156,4491.410156,4360.256348,4400.769043,1381.000000,0.000000,7.000000,,,,0.000000,2.000000,2.000000,0.000000,2.000000,2.000000,2.000000,0.000000,2.000000,4.000000,4.000000,4.000000,4.000000,2.000000,4.000000,16.666666,,,,,,,,,,,,,,,,,,,,,,,,,,,,
1732083173.381377,1732083173.382706,99.000000,0.000000,4294.615234,4295.256348,4320.512695,4295.384766,4313.077148,4317.436035,4304.230957,4330.384766,4333.846191,4317.051270,4459.743652,4491.410156,4360.256348,4400.641113,1503.000000,0.000000,7.000000,,,,0.000000,2.000000,2.000000,0.000000,2.000000,2.000000,2.000000,0.000000,2.000000,4.000000,4.000000,4.000000,4.000000,2.000000,4.000000,16.666666,,,,,,,,,,,,,,,,,,,,,,,,,,,,
1732083173.389185,1732083173.390414,100.000000,0.000000,4295.384766,4294.358887,4321.153809,4297.436035,4311.410156,4318.077148,4309.230957,4344.743652,4339.358887,4318.077148,4458.077148,4489.230957,4354.871582,4397.692383,1745.000000,0.000000,7.000000,,,,0.000000,2.000000,2.000000,0.000000,2.000000,2.000000,2.000000,0.000000,2.000000,4.000000,4.000000,4.000000,4.000000,2.000000,4.000000,16.666666,,,,,,,,,,,,,,,,,25.000000,0.000000,0.558799,0.346680,-0.645508,0.388428,0.969357,-0.120620,-0.059578,-80.957771,50.499310,23.931135
1732083173.396993,1732083173.398222,101.000000,0.000000,4296.282227,4294.871582,4319.102539,4299.358887,4312.307617,4326.922852,4310.384766,4343.205078,4337.948730,4314.487305,4456.282227,4489.743652,4352.179688,4400.769043,1626.000000,0.000000,7.000000,,,,0.000000,2.000000,2.000000,0.000000,2.000000,2.000000,2.000000,0.000000,2.000000,4.000000,4.000000,4.000000,4.000000,2.000000,4.000000,16.666666,,,,,,,,,,,,,,,,,,,,,,,,,,,,
1732083173.404801,1732083173.405831,102.000000,0.000000,4297.436035,4296.025879,4319.358887,4299.487305,4313.589844,4326.922852,4306.794922,4331.025879,4336.922852,4312.692383,4460.769043,4488.461426,4360.256348,4407.563965,1381.000000,0.000000,7.000000,,,,0.000000,2.000000,2.000000,0.000000,2.000000,2.000000,2.000000,0.000000,2.000000,4.000000,4.000000,4.000000,4.000000,2.000000,4.000000,16.666666,,,,,,,,,,,,,,,,,,,,,,,,,,,,
1732083173.412610,1732083173.413639,103.000000,0.000000,4300.256348,4295.769043,4322.179688,4302.948730,4326.794922,4313.589844,4302.563965,4331.666504,4338.461426,4318.461426,4463.461426,4495.256348,4366.025879,4410.000000,1503.000000,0.000000,7.000000,,,,0.000000,2.000000,2.000000,0.000000,2.000000,2.000000,2.000000,0.000000,2.000000,4.000000,4.000000,4.000000,4.000000,2.000000,4.000000,16.666666,,,,,,,,,,,,,,,,,,,,,,,,,,,,
1732083173.420418,1732083173.421347,104.000000,0.000000,4303.974121,4298.333496,4324.615234,4306.025879,4323.205078,4313.205078,4306.410156,4339.871582,4336.666504,4320.000000,4461.538574,4503.333496,4358.333496,4409.230957,1745.000000,0.000000,7.000000,,,,0.000000,2.000000,2.000000,0.000000,2.000000,2.000000,2.000000,0.000000,2.000000,4.000000,4.000000,4.000000,4.000000,2.000000,4.000000,16.666666,,,,,,,,,,,,,,,,,26.000000,0.000000,0.559215,0.346191,-0.645447,0.388367,0.969357,-0.120620,-0.059578,-81.014130,50.172771,24.230886
1732083173.428226,1732083173.429156,105.000000,0.000000,4305.256348,4302.692383,4324.487305,4305.769043,4305.897461,4322.307617,4306.922852,4340.256348,4338.077148,4318.717773,4460.641113,4495.512695,4356.025879,4408.974121,1626.000000,0.000000,7.000000,,,,0.000000,2.000000,2.000000,0.000000,2.000000,2.000000,2.000000,0.000000,2.000000,4.000000,4.000000,4.000000,4.000000,2.000000,4.000000,16.666666,,,,,,,,,,,,,,,,,,,,,,,,,,,,
1732083173.436035,1732083173.437164,106.000000,0.000000,4307.179688,4301.666504,4325.000000,4309.743652,4307.692383,4320.897461,4307.051270,4333.205078,4338.974121,4318.846191,4461.025879,4486.666504,4365.128418,4409.743652,1381.000000,0.000000,7.000000,,,,0.000000,2.000000,2.000000,0.000000,2.000000,2.000000,2.000000,0.000000,2.000000,4.000000,4.000000,4.000000,4.000000,2.000000,4.000000,16.666666,,,,,,,,,,,,,,,,,,,,,,,,,,,,
1732083173.443843,1732083173.444972,107.000000,0.000000,4309.615234,4297.436035,4325.641113,4310.000000,4314.487305,4316.794922,4311.282227,4335.897461,4339.230957,4316.666504,4461.282227,4494.615234,4362.948730,4410.512695,1503.000000,0.000000,7.000000,,,,0.000000,2.000000,2.000000,0.000000,2.000000,2.000000,2.000000,0.000000,2.000000,4.000000,4.000000,4.000000,4.000000,2.000000,4.000000,16.666666,,,,,,,,,,,,,,,,,,,,,,,,,,,,
1732083173.451651,1732083173.452680,108.000000,0.000000,4302.948730,4295.769043,4324.230957,4299.102539,4310.897461,4318.461426,4312.051270,4345.000000,4344.743652,4315.000000,4460.769043,4501.153809,4357.307617,4405.512695,1745.000000,0.000000,7.000000,,,,0.000000,2.000000,2.000000,0.000000,2.000000,2.000000,2.000000,0.000000,2.000000,4.000000,4.000000,4.000000,4.000000,2.000000,4.000000,16.666666,,,,,,,,,,,,,,,,,27.000000,0.000000,0.560084,0.345398,-0.644897,0.388733,0.967892,-0.125015,-0.066414,-81.074776,50.171612,24.028685
1732083173.459459,1732083173.460488,109.000000,0.000000,4293.974121,4297.179688,4323.461426,4300.641113,4312.179688,4322.820313,4310.128418,4342.307617,4344.487305,4318.205078,4460.128418,4492.436035,4358.205078,4396.794922,1626.000000,0.000000,7.000000,,,,0.000000,2.000000,2.000000,0.000000,2.000000,2.000000,2.000000,0.000000,2.000000,4.000000,4.000000,4.000000,4.000000,2.000000,4.000000,16.666666,,,,,,,,,,,,,,,,,,,,,,,,,,,,
1732083173.467267,1732083173.468097,110.000000,0.000000,4293.846191,4297.436035,4322.563965,4309.871582,4316.538574,4329.230957,4311.666504,4336.922852,4340.512695,4318.461426,4458.974121,4488.589844,4356.922852,4398.461426,1381.000000,0.000000,7.000000,,,,0.000000,2.000000,2.000000,0.000000,2.000000,2.000000,2.000000,0.000000,2.000000,4.000000,4.000000,4.000000,4.000000,2.000000,4.000000,16.666666,,,,,,,,,,,,,,,,,,,,,,,,,,,,
1732083173.475076,1732083173.475905,111.000000,0.000000,4296.922852,4296.025879,4320.897461,4302.051270,4323.589844,4322.948730,4309.102539,4337.948730,4340.641113,4314.358887,4460.384766,4496.922852,4357.563965,4410.384766,1503.000000,0.000000,7.000000,,,,0.000000,2.000000,2.000000,0.000000,2.000000,2.000000,2.000000,0.000000,2.000000,4.000000,4.000000,4.000000,4.000000,2.000000,4.000000,16.666666,,,,,,,,,,,,,,,,,,,,,,,,,,,,
1732083173.482884,1732083173.483813,112.000000,0.000000,4297.692383,4294.615234,4323.717773,4295.512695,4323.461426,4310.384766,4306.666504,4338.205078,4339.615234,4315.128418,4463.333496,4505.897461,4357.563965,4415.769043,1745.000000,0.000000,7.000000,,,,0.000000,2.000000,2.000000,0.000000,2.000000,2.000000,2.000000,0.000000,2.000000,4.000000,4.000000,4.000000,4.000000,2.000000,4.000000,16.666666,,,,,,,,,,,,,,,,,28.000000,0.000000,0.561259,0.344788,-0.644165,0.388794,0.977170,-0.126969,-0.053717,-81.035568,49.910671,24.213234
1732083173.490692,1732083173.491621,113.000000,0.000000,4299.102539,4296.025879,4325.128418,4307.436035,4303.846191,4314.230957,4313.205078,4340.128418,4342.820313,4315.256348,4462.820313,4508.205078,4353.333496,4411.025879,1626.000000,0.000000,7.000000,,,,0.000000,2.000000,2.000000,0.000000,2.000000,2.000000,2.000000,0.000000,2.000000,4.000000,4.000000,4.000000,4.000000,2.000000,4.000000,16.666666,,,,,,,,,,,,,,,,,,,,,,,,,,,,
1732083173.498500,1732083173.499629,114.000000,0.000000,4301.794922,4296.794922,4321.282227,4311.025879,4294.615234,4321.922852,4315.641113,4341.666504,4346.922852,4313.461426,4460.641113,4502.692383,4355.000000,4408.717773,1381.000000,0.000000,7.000000,,,,0.000000,2.000000,2.000000,0.000000,2.000000,2.000000,2.000000,0.000000,2.000000,4.000000,4.000000,4.000000,4.000000,2.000000,4.000000,16.666666,,,,,,,,,,,,,,,,,,,,,,,,,,,,
1732083173.506309,1732083173.507438,115.000000,0.000000,4306.153809,4297.563965,4323.077148,4302.563965,4305.256348,4318.974121,4311.282227,4339.487305,4340.256348,4313.077148,4461.538574,4493.461426,4361.410156,4409.871582,1503.000000,0.000000,7.000000,,,,0.000000,2.000000,2.000000,0.000000,2.000000,2.000000,2.000000,0.000000,2.000000,4.000000,4.000000,4.000000,4.000000,2.000000,4.000000,16.666666,,,,,,,,,,,,,,,,,,,,,,,,,,,,
1732083173.514117,1732083173.515346,116.000000,0.000000,4306.922852,4298.846191,4325.769043,4303.846191,4307.692383,4317.820313,4308.717773,4338.077148,4335.512695,4314.615234,4461.794922,4490.000000,4361.666504,4408.205078,1745.000000,0.000000,7.000000,,,,0.000000,2.000000,2.000000,0.000000,2.000000,2.000000,2.000000,0.000000,2.000000,4.000000,4.000000,4.000000,4.000000,2.000000,4.000000,16.666666,,,,,,,,,,,,,,,,,29.000000,0.000000,0.561878,0.344666,-0.643433,0.389221,0.982542,-0.115248,-0.058601,-80.990479,49.929310,24.229385
1732083173.521925,1732083173.523154,117.000000,0.000000,4303.077148,4300.641113,4321.410156,4308.461426,4304.871582,4319.230957,4310.769043,4335.256348,4339.358887,4316.153809,4460.512695,4494.871582,4359.743652,4405.897461,1626.000000,0.000000,7.000000,,,,0.000000,2.000000,2.000000,0.000000,2.000000,2.000000,2.000000,0.000000,2.000000,4.000000,4.000000,4.000000,4.000000,2.000000,4.000000,16.666666,,,,,,,,,,,,,,,,,,,,,,,,,,,,
1732083173.529734,1732083173.531162,118.000000,0.000000,4303.717773,4303.717773,4319.615234,4310.000000,4310.641113,4318.974121,4310.512695,4333.333496,4338.846191,4317.307617,4459.615234,4492.820313,4359.487305,4406.153809,1381.000000,0.000000,7.000000,,,,0.000000,2.000000,2.000000,0.000000,2.000000,2.000000,2.000000,0.000000,2.000000,4.000000,4.000000,4.000000,4.000000,2.000000,4.000000,16.666666,,,,,,,,,,,,,,,,,,,,,,,,,,,,
1732083173.537542,1732083173.538970,119.000000,0.000000,4304.358887,4305.256348,4322.820313,4311.410156,4313.846191,4323.717773,4311.794922,4335.384766,4335.128418,4313.461426,4452.436035,4482.820313,4356.025879,4400.641113,1503.000000,0.000000,7.000000,,,,0.000000,2.000000,2.000000,0.000000,2.000000,2.000000,2.000000,0.000000,2.000000,4.000000,4.000000,4.000000,4.000000,2.000000,4.000000,16.666666,,,,,,,,,,,,,,,,,,,,,,,,,,,,
1732083173.545350,1732083173.546878,120.000000,0.000000,4302.948730,4306.410156,4321.538574,4311.794922,4310.897461,4324.871582,4311.282227,4331.538574,4336.410156,4310.512695,4449.615234,4483.205078,4354.871582,4393.589844,1745.000000,0.000000,7.000000,,,,0.000000,2.000000,2.000000,0.000000,2.000000,2.000000,2.000000,0.000000,2.000000,4.000000,4.000000,4.000000,4.000000,2.000000,4.000000,16.666666,,,,,,,,,,,,,,,,,30.000000,0.000000,0.561878,0.344666,-0.643433,0.389221,0.981077,-0.114760,-0.061531,-80.863953,50.079411,24.107470
1732083173.553158,1732083173.554686,121.000000,0.000000,4306.282227,4311.025879,4321.666504,4311.794922,4309.487305,4318.974121,4310.000000,4329.230957,4338.974121,4318.205078,4459.358887,4491.538574,4358.589844,4397.563965,1626.000000,0.000000,7.000000,,,,0.000000,2.000000,2.000000,0.000000,2.000000,2.000000,2.000000,0.000000,2.000000,4.000000,4.000000,4.000000,4.000000,2.000000,4.000000,16.666666,,,,,,,,,,,,,,,,,,,,,,,,,,,,
1732083173.560967,1732083173.562694,122.000000,0.000000,4308.461426,4309.358887,4322.563965,4311.666504,4320.256348,4316.025879,4309.230957,4337.948730,4341.538574,4322.307617,4464.230957,4493.589844,4359.871582,4402.948730,1381.000000,0.000000,7.000000,,,,0.000000,2.000000,2.000000,0.000000,2.000000,2.000000,2.000000,0.000000,2.000000,4.000000,4.000000,4.000000,4.000000,2.000000,4.000000,16.666666,,,,,,,,,,,,,,,,,,,,,,,,,,,,
1732083173.568775,1732083173.570503,123.000000,0.000000,4305.897461,4302.563965,4321.153809,4311.538574,4327.692383,4319.615234,4314.102539,4338.974121,4340.897461,4321.922852,4460.128418,4490.897461,4358.205078,4398.717773,1503.000000,0.000000,7.000000,,,,0.000000,2.000000,2.000000,0.000000,2.000000,2.000000,2.000000,0.000000,2.000000,4.000000,4.000000,4.000000,4.000000,2.000000,4.000000,16.666666,,,,,,,,,,,,,,,,,,,,,,,,,,,,
1732083173.576583,1732083173.578411,124.000000,0.000000,4308.461426,4304.487305,4322.179688,4313.589844,4311.794922,4324.487305,4315.384766,4336.794922,4340.641113,4323.077148,4461.666504,4491.922852,4357.436035,4395.641113,1745.000000,0.000000,7.000000,,,,0.000000,2.000000,2.000000,0.000000,2.000000,2.000000,2.000000,0.000000,2.000000,4.000000,4.000000,4.000000,4.000000,2.000000,4.000000,16.666666,,,,,,,,,,,,,,,,,31.000000,0.000000,0.562046,0.344727,-0.642883,0.389832,0.976682,-0.128434,-0.048834,-80.969803,50.037655,24.103718
1732083173.584391,1732083173.586219,125.000000,0.000000,4310.641113,4306.794922,4324.102539,4318.333496,4303.974121,4322.820313,4311.282227,4340.128418,4346.153809,4317.692383,4461.794922,4489.230957,4358.077148,4396.538574,1626.000000,0.000000,7.000000,,,,0.000000,2.000000,2.000000,0.000000,2.000000,2.000000,2.000000,0.000000,2.000000,4.000000,4.000000,4.000000,4.000000,2.000000,4.000000,16.666666,,,,,,,,,,,,,,,,,,,,,,,,,,,,
1732083173.592200,1732083173.594227,126.000000,0.000000,4301.538574,4299.871582,4321.794922,4315.897461,4316.410156,4318.333496,4310.128418,4338.974121,4345.897461,4311.153809,4455.000000,4484.615234,4356.794922,4393.077148,1381.000000,0.000000,7.000000,,,,0.000000,2.000000,2.000000,0.000000,2.000000,2.000000,2.000000,0.000000,2.000000,4.000000,4.000000,4.000000,4.000000,2.000000,4.000000,16.666666,,,,,,,,,,,,,,,,,,,,,,,,,,,,
1732083173.600008,1732083173.602035,127.000000,0.000000,4295.897461,4297.692383,4318.333496,4309.102539,4312.692383,4322.307617,4313.077148,4341.282227,4338.717773,4312.692383,4452.948730,4481.538574,4353.589844,4391.153809,7.000000,0.000000,7.000000,,,,0.000000,2.000000,2.000000,0.000000,2.000000,2.000000,2.000000,0.000000,2.000000,4.000000,4.000000,4.000000,4.000000,2.000000,4.000000,16.666666,,,,,,,,,,,,,,,,,,,,,,,,,,,,
1732083173.607816,1732083173.609943,0.000000,0.000000,4303.589844,4306.153809,4321.666504,4312.179688,4306.666504,4328.846191,4313.974121,4344.743652,4334.743652,4311.282227,4453.333496,4479.871582,4351.666504,4394.871582,0.000000,0.000000,7.000000,,,,0.000000,2.000000,2.000000,0.000000,2.000000,2.000000,2.000000,0.000000,2.000000,4.000000,4.000000,4.000000,4.000000,2.000000,4.000000,16.666666,,,,,,,,,,,,,,,,,0.000000,0.000000,0.562739,0.344299,-0.642395,0.390015,0.981565,-0.127945,-0.053717,-80.920540,49.860500,24.349010
1732083173.615625,1732083173.617751,1.000000,0.000000,4310.000000,4310.641113,4328.333496,4317.179688,4324.743652,4326.153809,4310.128418,4333.589844,4332.051270,4307.948730,4446.922852,4479.615234,4352.692383,4394.871582,1312.000000,0.000000,7.000000,,,,0.000000,2.000000,2.000000,0.000000,2.000000,2.000000,2.000000,0.000000,2.000000,4.000000,4.000000,4.000000,4.000000,2.000000,4.000000,16.666666,,,,,,,,,,,,,,,,,,,,,,,,,,,,
1732083173.623433,1732083173.625759,2.000000,0.000000,4305.128418,4306.666504,4325.128418,4315.128418,4327.179688,4325.769043,4311.025879,4329.743652,4332.051270,4313.077148,4445.384766,4480.897461,4354.743652,4392.051270,1234.000000,0.000000,7.000000,,,,0.000000,2.000000,2.000000,0.000000,2.000000,2.000000,2.000000,0.000000,2.000000,4.000000,4.000000,4.000000,4.000000,2.000000,4.000000,16.666666,,,,,,,,,,,,,,,,,,,,,,,,,,,,
1732083173.631241,1732083173.633568,3.000000,0.000000,4300.256348,4304.487305,4319.487305,4312.820313,4307.307617,4329.743652,4313.205078,4344.230957,4340.128418,4316.410156,4454.743652,4480.769043,4356.025879,4393.205078,1189.000000,0.000000,7.000000,,,,0.000000,2.000000,2.000000,0.000000,2.000000,2.000000,2.000000,0.000000,2.000000,4.000000,4.000000,4.000000,4.000000,2.000000,4.000000,16.666666,,,,,,,,,,,,,,,,,,,,,,,,,,,,
1732083173.639049,1732083173.641476,4.000000,0.000000,4304.615234,4306.410156,4322.179688,4314.615234,4305.256348,4327.948730,4312.692383,4347.563965,4344.358887,4314.871582,4458.589844,4481.282227,4356.666504,4396.410156,1204.000000,0.000000,7.000000,,,,0.000000,2.000000,2.000000,0.000000,2.000000,2.000000,2.000000,0.000000,2.000000,4.000000,4.000000,4.000000,4.000000,2.000000,4.000000,16.666666,,,,,,,,,,,,,,,,,1.000000,0.000000,0.562916,0.344238,-0.642273,0.390015,0.993285,-0.114760,-0.043462,-81.103973,49.808670,24.489365
1732083173.646858,1732083173.649284,5.000000,0.000000,4309.102539,4309.743652,4325.512695,4315.641113,4315.256348,4324.615234,4308.333496,4335.000000,4336.794922,4315.769043,4453.717773,4484.230957,4356.922852,4397.563965,1073.000000,0.000000,7.000000,,,,0.000000,2.000000,2.000000,0.000000,2.000000,2.000000,2.000000,0.000000,2.000000,4.000000,4.000000,4.000000,4.000000,2.000000,4.000000,16.666666,,,,,,,,,,,,,,,,,,,,,,,,,,,,
1732083173.654666,1732083173.657292,6.000000,0.000000,4306.410156,4308.333496,4324.358887,4312.692383,4313.077148,4320.256348,4311.025879,4334.102539,4334.743652,4320.897461,4456.538574,4483.846191,4358.461426,4395.641113,20.000000,0.000000,7.000000,,,,0.000000,2.000000,2.000000,0.000000,2.000000,2.000000,2.000000,0.000000,2.000000,4.000000,4.000000,4.000000,4.000000,2.000000,4.000000,16.666666,,,,,,,,,,,,,,,,,,,,,,,,,,,,
1732083173.662474,1732083173.665100,7.000000,0.000000,4304.358887,4305.000000,4322.563965,4311.410156,4304.487305,4318.717773,4316.153809,4347.307617,4342.692383,4326.025879,4462.307617,4481.666504,4359.102539,4396.025879,1189.000000,0.000000,7.000000,,,,0.000000,2.000000,2.000000,0.000000,2.000000,2.000000,2.000000,0.000000,2.000000,4.000000,4.000000,4.000000,4.000000,2.000000,4.000000,16.666666,,,,,,,,,,,,,,,,,,,,,,,,,,,,
1732083173.670282,1732083173.672808,8.000000,0.000000,4302.820313,4304.743652,4324.102539,4310.641113,4313.974121,4322.563965,4318.717773,4347.563965,4339.230957,4314.615234,4455.256348,4480.384766,4356.153809,4397.436035,1371.000000,0.000000,7.000000,,,,0.000000,2.000000,2.000000,0.000000,2.000000,2.000000,2.000000,0.000000,2.000000,4.000000,4.000000,4.000000,4.000000,2.000000,4.000000,16.666666,,,,,,,,,,,,,,,,,2.000000,0.000000,0.563134,0.344360,-0.642090,0.389893,0.977658,-0.114272,-0.044927,-81.400887,49.781693,24.459719
1732083173.678091,1732083173.680617,9.000000,0.000000,4302.948730,4305.897461,4325.512695,4311.153809,4324.871582,4320.769043,4315.384766,4335.000000,4327.692383,4299.102539,4448.461426,4476.025879,4353.717773,4396.666504,1513.000000,0.000000,7.000000,,,,0.000000,2.000000,2.000000,0.000000,2.000000,2.000000,2.000000,0.000000,2.000000,4.000000,4.000000,4.000000,4.000000,2.000000,4.000000,16.666666,,,,,,,,,,,,,,,,,,,,,,,,,,,,
1732083173.685899,1732083173.688225,10.000000,0.000000,4307.692383,4305.512695,4323.717773,4313.077148,4312.692383,4316.666504,4312.820313,4337.051270,4331.538574,4304.358887,4455.384766,4470.769043,4354.358887,4397.563965,1374.000000,0.000000,7.000000,,,,0.000000,2.000000,2.000000,0.000000,2.000000,2.000000,2.000000,0.000000,2.000000,4.000000,4.000000,4.000000,4.000000,2.000000,4.000000,16.666666,,,,,,,,,,,,,,,,,,,,,,,,,,,,
1732083173.693707,1732083173.696033,11.000000,0.000000,4309.102539,4303.205078,4320.897461,4311.794922,4299.743652,4321.153809,4313.205078,4343.077148,4340.897461,4317.563965,4460.512695,4471.410156,4355.000000,4398.205078,1504.000000,0.000000,7.000000,,,,0.000000,2.000000,2.000000,0.000000,2.000000,2.000000,2.000000,0.000000,2.000000,4.000000,4.000000,4.000000,4.000000,2.000000,4.000000,16.666666,,,,,,,,,,,,,,,,,,,,,,,,,,,,
1732083173.701516,1732083173.703742,12.000000,0.000000,4305.384766,4304.871582,4322.179688,4309.615234,4303.333496,4324.102539,4317.051270,4334.230957,4337.948730,4318.333496,4455.769043,4468.589844,4355.384766,4394.615234,1745.000000,0.000000,7.000000,,,,0.000000,2.000000,2.000000,0.000000,2.000000,2.000000,2.000000,0.000000,2.000000,4.000000,4.000000,4.000000,4.000000,2.000000,4.000000,16.666666,,,,,,,,,,,,,,,,,3.000000,0.000000,0.563191,0.344910,-0.641968,0.389526,0.970333,-0.100110,-0.053229,-81.529716,49.618168,24.380707
1732083173.709324,1732083173.711550,13.000000,0.000000,4305.769043,4309.102539,4323.974121,4310.000000,4311.666504,4317.051270,4317.179688,4329.871582,4333.333496,4315.256348,4455.256348,4464.743652,4357.307617,4394.230957,1633.000000,0.000000,7.000000,,,,0.000000,2.000000,2.000000,0.000000,2.000000,2.000000,2.000000,0.000000,2.000000,4.000000,4.000000,4.000000,4.000000,2.000000,4.000000,16.666666,,,,,,,,,,,,,,,,,,,,,,,,,,,,
1732083173.717132,1732083173.719158,14.000000,0.000000,4305.641113,4305.512695,4323.333496,4309.871582,4320.000000,4312.820313,4316.025879,4334.615234,4331.538574,4315.000000,4455.000000,4466.794922,4355.769043,4393.974121,1374.000000,0.000000,7.000000,,,,0.000000,2.000000,2.000000,0.000000,2.000000,2.000000,2.000000,0.000000,2.000000,4.000000,4.000000,4.000000,4.000000,2.000000,4.000000,16.666666,1.000000,16.666666,2.000000,2.000000,0.000000,2.000000,2.000000,2.000000,0.000000,2.000000,4.000000,4.000000,4.000000,4.000000,2.000000,4.000000,,,,,,,,,,,,
1732083173.724940,1732083173.726966,15.000000,0.000000,4297.307617,4297.563965,4321.538574,4306.410156,4316.153809,4317.820313,4318.205078,4337.436035,4329.871582,4312.948730,4449.102539,4465.256348,4350.384766,4386.282227,1504.000000,0.000000,7.000000,,,,0.000000,2.000000,2.000000,0.000000,2.000000,2.000000,2.000000,0.000000,2.000000,4.000000,4.000000,4.000000,4.000000,2.000000,4.000000,16.666666,,,,,,,,,,,,,,,,,,,,,,,,,,,,
1732083173.732749,1732083173.734675,16.000000,0.000000,4296.666504,4299.487305,4320.769043,4306.410156,4296.794922,4321.666504,4319.743652,4342.563965,4334.615234,4312.051270,4452.179688,4462.307617,4350.128418,4382.179688,0.000000,0.000000,7.000000,,,,0.000000,2.000000,2.000000,0.000000,2.000000,2.000000,2.000000,0.000000,2.000000,4.000000,4.000000,4.000000,4.000000,2.000000,4.000000,16.666666,,,,,,,,,,,,,,,,,4.000000,0.000000,0.563204,0.345642,-0.641785,0.389160,0.973263,-0.102552,-0.059089,-81.602402,49.484051,24.248371
1732083173.740557,1732083173.742483,17.000000,0.000000,4302.948730,4307.948730,4320.512695,4310.000000,4297.179688,4319.871582,4318.205078,4344.743652,4337.179688,4310.000000,4459.102539,4462.820313,4355.384766,4387.051270,0.000000,0.000000,7.000000,,,,0.000000,2.000000,2.000000,0.000000,2.000000,2.000000,2.000000,0.000000,2.000000,4.000000,4.000000,4.000000,4.000000,2.000000,4.000000,16.666666,,,,,,,,,,,,,,,,,,,,,,,,,,,,
1732083173.748365,1732083173.750491,18.000000,0.000000,4299.358887,4309.871582,4320.641113,4310.641113,4313.717773,4320.384766,4315.384766,4338.461426,4330.512695,4308.589844,4458.077148,4461.922852,4356.666504,4388.589844,0.000000,0.000000,7.000000,,,,0.000000,2.000000,2.000000,0.000000,2.000000,2.000000,2.000000,0.000000,2.000000,4.000000,4.000000,4.000000,4.000000,2.000000,4.000000,16.666666,,,,,,,,,,,,,,,,,,,,,,,,,,,,
1732083173.756173,1732083173.758299,19.000000,0.000000,4295.384766,4306.410156,4322.563965,4310.512695,4310.128418,4327.692383,4316.538574,4338.717773,4330.256348,4307.179688,4455.897461,4458.846191,4355.512695,4388.589844,0.000000,0.000000,7.000000,,,,0.000000,2.000000,2.000000,0.000000,2.000000,2.000000,2.000000,0.000000,2.000000,4.000000,4.000000,4.000000,4.000000,2.000000,4.000000,16.666666,,,,,,,,,,,,,,,,,,,,,,,,,,,,
1732083173.763981,1732083173.766007,20.000000,0.000000,4301.025879,4305.000000,4325.256348,4308.974121,4312.051270,4326.922852,4315.641113,4344.615234,4338.589844,4304.102539,4458.589844,4458.461426,4356.282227,4390.256348,0.000000,0.000000,7.000000,,,,0.000000,2.000000,2.000000,0.000000,2.000000,2.000000,2.000000,0.000000,2.000000,4.000000,4.000000,4.000000,4.000000,2.000000,4.000000,16.666666,,,,,,,,,,,,,,,,,5.000000,0.000000,0.563155,0.345947,-0.641663,0.389160,0.968380,-0.094738,-0.066903,-81.582947,49.645416,24.391182
1732083173.771790,1732083173.773816,21.000000,0.000000,4303.077148,4304.615234,4324.358887,4310.256348,4324.358887,4317.436035,4316.410156,4343.461426,4337.820313,4305.769043,4457.692383,4459.102539,4354.102539,4390.384766,0.000000,0.000000,7.000000,,,,0.000000,2.000000,2.000000,0.000000,2.000000,2.000000,2.000000,0.000000,2.000000,4.000000,4.000000,4.000000,4.000000,2.000000,4.000000,16.666666,,,,,,,,,,,,,,,,,,,,,,,,,,,,
1732083173.779598,1732083173.781824,22.000000,0.000000,4300.384766,4308.205078,4323.077148,4314.743652,4312.563965,4318.205078,4318.205078,4335.641113,4330.256348,4311.410156,4457.563965,4459.358887,4352.820313,4392.948730,0.000000,0.000000,7.000000,,,,0.000000,2.000000,2.000000,0.000000,2.000000,2.000000,2.000000,0.000000,2.000000,4.000000,4.000000,4.000000,4.000000,2.000000,4.000000,16.666666,,,,,,,,,,,,,,,,,,,,,,,,,,,,
1732083173.787406,1732083173.789632,23.000000,0.000000,4300.384766,4306.025879,4323.717773,4311.538574,4294.743652,4323.077148,4318.589844,4331.922852,4331.153809,4313.974121,4459.358887,4454.358887,4354.487305,4395.384766,0.000000,0.000000,7.000000,,,,0.000000,2.000000,2.000000,0.000000,2.000000,2.000000,2.000000,0.000000,2.000000,4.000000,4.000000,4.000000,4.000000,2.000000,4.000000,16.666666,,,,,,,,,,,,,,,,,,,,,,,,,,,,
1732083173.795215,1732083173.797340,24.000000,0.000000,4298.205078,4295.897461,4322.179688,4307.179688,4298.461426,4318.589844,4316.025879,4339.743652,4337.820313,4318.974121,4458.205078,4449.871582,4353.974121,4389.102539,0.000000,0.000000,7.000000,,,,0.000000,2.000000,2.000000,0.000000,2.000000,2.000000,2.000000,0.000000,2.000000,4.000000,4.000000,4.000000,4.000000,2.000000,4.000000,16.666666,,,,,,,,,,,,,,,,,6.000000,0.000000,0.563240,0.346375,-0.641357,0.389160,0.969357,-0.106947,-0.068856,-81.573853,49.586121,24.463524
1732083173.803023,1732083173.805148,25.000000,0.000000,4295.384766,4296.025879,4321.666504,4310.000000,4304.871582,4316.922852,4317.948730,4344.871582,4338.589844,4319.871582,4459.102539,4451.794922,4351.410156,4383.461426,0.000000,0.000000,7.000000,,,,0.000000,2.000000,2.000000,0.000000,2.000000,2.000000,2.000000,0.000000,2.000000,4.000000,4.000000,4.000000,4.000000,2.000000,4.000000,16.666666,,,,,,,,,,,,,,,,,,,,,,,,,,,,
1732083173.810831,1732083173.812757,26.000000,0.000000,4300.897461,4307.436035,4321.794922,4311.153809,4306.282227,4319.871582,4318.461426,4337.820313,4332.820313,4312.820313,4459.615234,4448.717773,4352.436035,4388.846191,0.000000,0.000000,7.000000,,,,0.000000,2.000000,2.000000,0.000000,2.000000,2.000000,2.000000,0.000000,2.000000,4.000000,4.000000,4.000000,4.000000,2.000000,4.000000,16.666666,,,,,,,,,,,,,,,,,,,,,,,,,,,,
1732083173.818639,1732083173.820565,27.000000,0.000000,4304.102539,4309.230957,4323.205078,4308.846191,4308.589844,4316.538574,4317.179688,4331.025879,4328.205078,4311.282227,4455.128418,4444.871582,4357.563965,4393.333496,0.000000,0.000000,7.000000,,,,0.000000,2.000000,2.000000,0.000000,2.000000,2.000000,2.000000,0.000000,2.000000,4.000000,4.000000,4.000000,4.000000,2.000000,4.000000,16.666666,,,,,,,,,,,,,,,,,,,,,,,,,,,,
1732083173.826448,1732083173.828273,28.000000,0.000000,4297.051270,4301.666504,4322.051270,4310.000000,4308.717773,4314.230957,4318.589844,4332.436035,4328.461426,4314.615234,4451.538574,4447.820313,4356.153809,4385.641113,0.000000,0.000000,7.000000,,,,0.000000,2.000000,2.000000,0.000000,2.000000,2.000000,2.000000,0.000000,2.000000,4.000000,4.000000,4.000000,4.000000,2.000000,4.000000,16.666666,,,,,,,,,,,,,,,,,7.000000,0.000000,0.563197,0.346558,-0.641296,0.389160,0.974240,-0.109877,-0.066903,-81.338158,49.443089,24.617121
1732083173.834256,1732083173.836082,29.000000,0.000000,4292.436035,4297.948730,4319.230957,4309.102539,4315.000000,4316.666504,4319.743652,4334.487305,4327.692383,4312.307617,4447.948730,4446.410156,4345.512695,4376.794922,0.000000,0.000000,7.000000,,,,0.000000,2.000000,2.000000,0.000000,2.000000,2.000000,2.000000,0.000000,2.000000,4.000000,4.000000,4.000000,4.000000,2.000000,4.000000,16.666666,,,,,,,,,,,,,,,,,,,,,,,,,,,,
1732083173.842064,1732083173.844090,30.000000,0.000000,4296.538574,4298.333496,4320.128418,4308.205078,4317.820313,4316.153809,4316.538574,4332.307617,4326.153809,4308.077148,4446.410156,4442.436035,4343.717773,4377.820313,0.000000,0.000000,7.000000,,,,0.000000,2.000000,2.000000,0.000000,2.000000,2.000000,2.000000,0.000000,2.000000,4.000000,4.000000,4.000000,4.000000,2.000000,4.000000,16.666666,,,,,,,,,,,,,,,,,,,,,,,,,,,,
1732083173.849872,1732083173.851898,31.000000,0.000000,4302.179688,4301.538574,4324.615234,4312.820313,4301.538574,4316.922852,4316.666504,4331.794922,4330.256348,4306.410156,4450.384766,4447.051270,4352.307617,4385.128418,0.000000,0.000000,7.000000,,,,0.000000,2.000000,2.000000,0.000000,2.000000,2.000000,2.000000,0.000000,2.000000,4.000000,4.000000,4.000000,4.000000,2.000000,4.000000,16.666666,,,,,,,,,,,,,,,,,,,,,,,,,,,,
1732083173.857681,1732083173.859606,32.000000,0.000000,4299.230957,4301.025879,4324.615234,4313.974121,4295.000000,4322.563965,4321.922852,4337.436035,4333.461426,4308.077148,4449.615234,4449.487305,4347.948730,4385.641113,0.000000,0.000000,7.000000,,,,0.000000,2.000000,2.000000,0.000000,2.000000,2.000000,2.000000,0.000000,2.000000,4.000000,4.000000,4.000000,4.000000,2.000000,4.000000,16.666666,,,,,,,,,,,,,,,,,8.000000,0.000000,0.563197,0.346558,-0.641296,0.389160,0.972287,-0.108900,-0.057624,-80.980568,49.393902,24.591534
1732083173.865489,1732083173.867414,33.000000,0.000000,4293.205078,4294.230957,4322.051270,4308.974121,4309.102539,4322.563965,4323.333496,4344.615234,4334.358887,4313.333496,4443.589844,4445.256348,4341.410156,4378.205078,0.000000,0.000000,7.000000,,,,0.000000,2.000000,2.000000,0.000000,2.000000,2.000000,2.000000,0.000000,2.000000,4.000000,4.000000,4.000000,4.000000,2.000000,4.000000,16.666666,,,,,,,,,,,,,,,,,,,,,,,,,,,,
1732083173.873297,1732083173.875422,34.000000,0.000000,4293.846191,4298.846191,4322.051270,4310.641113,4310.384766,4313.974121,4323.717773,4342.948730,4335.641113,4316.922852,4451.538574,4442.948730,4351.153809,4375.769043,0.000000,0.000000,7.000000,,,,0.000000,2.000000,2.000000,0.000000,2.000000,2.000000,2.000000,0.000000,2.000000,4.000000,4.000000,4.000000,4.000000,2.000000,4.000000,16.666666,,,,,,,,,,,,,,,,,,,,,,,,,,,,
1732083173.881106,1732083173.883230,35.000000,0.000000,4297.820313,4309.102539,4321.666504,4316.794922,4302.820313,4311.794922,4322.820313,4337.820313,4335.000000,4315.641113,4459.230957,4445.512695,4355.897461,4381.153809,0.000000,0.000000,7.000000,,,,0.000000,2.000000,2.000000,0.000000,2.000000,2.000000,2.000000,0.000000,2.000000,4.000000,4.000000,4.000000,4.000000,2.000000,4.000000,16.666666,,,,,,,,,,,,,,,,,,,,,,,,,,,,
1732083173.888914,1732083173.891139,36.000000,0.000000,4297.307617,4305.128418,4321.666504,4314.230957,4315.897461,4317.051270,4321.410156,4336.410156,4329.230957,4307.307617,4449.743652,4443.205078,4345.769043,4382.692383,0.000000,0.000000,7.000000,,,,0.000000,2.000000,2.000000,0.000000,2.000000,2.000000,2.000000,0.000000,2.000000,4.000000,4.000000,4.000000,4.000000,2.000000,4.000000,16.666666,,,,,,,,,,,,,,,,,9.000000,0.000000,0.563207,0.346497,-0.641357,0.389099,0.976682,-0.111830,-0.060554,-80.904266,49.600727,24.924143
1732083173.896722,1732083173.898947,37.000000,0.000000,4295.641113,4302.948730,4322.051270,4310.384766,4321.538574,4320.256348,4320.769043,4329.871582,4324.230957,4302.436035,4443.461426,4435.128418,4345.000000,4381.025879,0.000000,0.000000,7.000000,,,,0.000000,2.000000,2.000000,0.000000,2.000000,2.000000,2.000000,0.000000,2.000000,4.000000,4.000000,4.000000,4.000000,2.000000,4.000000,16.666666,,,,,,,,,,,,,,,,,,,,,,,,,,,,
1732083173.904530,1732083173.906955,38.000000,0.000000,4292.948730,4307.179688,4321.282227,4314.615234,4305.769043,4320.000000,4323.846191,4327.692383,4326.538574,4309.743652,4452.563965,4434.230957,4352.179688,4378.461426,0.000000,0.000000,7.000000,,,,0.000000,2.000000,2.000000,0.000000,2.000000,2.000000,2.000000,0.000000,2.000000,4.000000,4.000000,4.000000,4.000000,2.000000,4.000000,16.666666,,,,,,,,,,,,,,,,,,,,,,,,,,,,
1732083173.912339,1732083173.914763,39.000000,0.000000,4291.666504,4298.589844,4321.025879,4317.563965,4299.230957,4319.615234,4321.153809,4333.333496,4330.769043,4315.256348,4457.820313,4441.282227,4351.282227,4377.051270,0.000000,0.000000,7.000000,,,,0.000000,2.000000,2.000000,0.000000,2.000000,2.000000,2.000000,0.000000,2.000000,4.000000,4.000000,4.000000,4.000000,2.000000,4.000000,16.666666,,,,,,,,,,,,,,,,,,,,,,,,,,,,
1732083173.920147,1732083173.922671,40.000000,0.000000,4296.025879,4294.230957,4323.077148,4314.102539,4306.666504,4314.743652,4321.922852,4333.846191,4327.820313,4313.077148,4452.307617,4445.256348,4346.922852,4381.538574,0.000000,0.000000,7.000000,,,,0.000000,2.000000,2.000000,0.000000,2.000000,2.000000,2.000000,0.000000,2.000000,4.000000,4.000000,4.000000,4.000000,2.000000,4.000000,16.666666,,,,,,,,,,,,,,,,,10.000000,0.000000,0.563154,0.346313,-0.641541,0.389038,0.980588,-0.098157,-0.055671,-80.974121,49.664925,24.696890
1732083173.927955,1732083173.930479,41.000000,0.000000,4296.410156,4304.230957,4321.538574,4311.282227,4310.128418,4310.128418,4326.922852,4335.769043,4326.794922,4310.256348,4450.897461,4445.256348,4346.922852,4382.820313,0.000000,0.000000,7.000000,,,,0.000000,2.000000,2.000000,0.000000,2.000000,2.000000,2.000000,0.000000,2.000000,4.000000,4.000000,4.000000,4.000000,2.000000,4.000000,16.666666,,,,,,,,,,,,,,,,,,,,,,,,,,,,
1732083173.935763,1732083173.938487,42.000000,0.000000,4293.077148,4306.922852,4320.128418,4311.794922,4303.717773,4312.563965,4328.846191,4343.333496,4333.205078,4308.974121,4455.000000,4446.153809,4349.487305,4376.666504,0.000000,0.000000,7.000000,,,,0.000000,2.000000,2.000000,0.000000,2.000000,2.000000,2.000000,0.000000,2.000000,4.000000,4.000000,4.000000,4.000000,2.000000,4.000000,16.666666,,,,,,,,,,,,,,,,,,,,,,,,,,,,
1732083173.943572,1732083173.946296,43.000000,0.000000,4296.794922,4300.897461,4320.512695,4312.179688,4305.000000,4313.846191,4325.128418,4347.436035,4339.358887,4315.641113,4455.512695,4450.128418,4351.153809,4376.025879,0.000000,0.000000,7.000000,,,,0.000000,2.000000,2.000000,0.000000,2.000000,2.000000,2.000000,0.000000,2.000000,4.000000,4.000000,4.000000,4.000000,2.000000,4.000000,16.666666,,,,,,,,,,,,,,,,,,,,,,,,,,,,
1732083173.951380,1732083173.954204,44.000000,0.000000,4299.358887,4298.077148,4321.666504,4309.358887,4317.307617,4310.000000,4321.794922,4341.922852,4337.307617,4322.179688,4455.512695,4453.077148,4349.615234,4381.410156,0.000000,0.000000,7.000000,,,,0.000000,2.000000,2.000000,0.000000,2.000000,2.000000,2.000000,0.000000,2.000000,4.000000,4.000000,4.000000,4.000000,2.000000,4.000000,16.666666,,,,,,,,,,,,,,,,,11.000000,0.000000,0.562968,0.346252,-0.641663,0.389160,0.972775,-0.111830,-0.065438,-80.997368,49.800255,24.629480
1732083173.959188,1732083173.962012,45.000000,0.000000,4297.692383,4303.846191,4321.666504,4310.512695,4320.897461,4311.153809,4321.153809,4334.871582,4329.743652,4315.000000,4459.487305,4456.410156,4351.410156,4387.436035,0.000000,0.000000,7.000000,,,,0.000000,2.000000,2.000000,0.000000,2.000000,2.000000,2.000000,0.000000,2.000000,4.000000,4.000000,4.000000,4.000000,2.000000,4.000000,16.666666,,,,,,,,,,,,,,,,,,,,,,,,,,,,
1732083173.966997,1732083173.970020,46.000000,0.000000,4299.871582,4313.205078,4321.922852,4319.230957,4311.153809,4317.692383,4322.692383,4333.846191,4326.153809,4308.205078,4455.384766,4455.641113,4355.128418,4387.307617,0.000000,0.000000,7.000000,,,,0.000000,2.000000,2.000000,0.000000,2.000000,2.000000,2.000000,0.000000,2.000000,4.000000,4.000000,4.000000,4.000000,2.000000,4.000000,16.666666,,,,,,,,,,,,,,,,,,,,,,,,,,,,
1732083173.974805,1732083173.977828,47.000000,0.000000,4299.487305,4306.410156,4321.666504,4320.256348,4305.384766,4320.128418,4322.820313,4335.128418,4327.307617,4313.205078,4443.717773,4449.871582,4344.871582,4380.769043,0.000000,0.000000,7.000000,,,,0.000000,2.000000,2.000000,0.000000,2.000000,2.000000,2.000000,0.000000,2.000000,4.000000,4.000000,4.000000,4.000000,2.000000,4.000000,16.666666,,,,,,,,,,,,,,,,,,,,,,,,,,,,
1732083173.982613,1732083173.985536,48.000000,0.000000,4291.666504,4295.641113,4321.025879,4309.615234,4309.487305,4320.897461,4322.436035,4331.282227,4324.358887,4310.128418,4441.025879,4445.641113,4333.333496,4375.769043,0.000000,0.000000,7.000000,,,,0.000000,2.000000,2.000000,0.000000,2.000000,2.000000,2.000000,0.000000,2.000000,4.000000,4.000000,4.000000,4.000000,2.000000,4.000000,16.666666,,,,,,,,,,,,,,,,,12.000000,0.000000,0.562808,0.346375,-0.641663,0.389282,0.980100,-0.104505,-0.076670,-81.092873,49.806538,24.383213
1732083173.990421,1732083173.993345,49.000000,0.000000,4290.897461,4303.461426,4322.051270,4308.333496,4311.153809,4320.641113,4324.871582,4330.641113,4323.461426,4297.948730,4443.333496,4448.461426,4340.128418,4376.794922,0.000000,0.000000,7.000000,,,,0.000000,2.000000,2.000000,0.000000,2.000000,2.000000,2.000000,0.000000,2.000000,4.000000,4.000000,4.000000,4.000000,2.000000,4.000000,16.666666,,,,,,,,,,,,,,,,,,,,,,,,,,,,
1732083173.998230,1732083174.000953,50.000000,0.000000,4297.692383,4312.179688,4323.077148,4318.205078,4308.461426,4314.487305,4324.615234,4340.641113,4329.230957,4300.256348,4444.871582,4450.256348,4350.897461,4379.230957,0.000000,0.000000,7.000000,,,,0.000000,2.000000,2.000000,0.000000,2.000000,2.000000,2.000000,0.000000,2.000000,4.000000,4.000000,4.000000,4.000000,2.000000,4.000000,16.666666,,,,,,,,,,,,,,,,,,,,,,,,,,,,
1732083174.006038,1732083174.008761,51.000000,0.000000,4302.307617,4307.948730,4322.563965,4322.436035,4307.948730,4308.846191,4324.871582,4344.358887,4330.128418,4314.615234,4450.256348,4450.256348,4352.948730,4385.000000,0.000000,0.000000,7.000000,,,,0.000000,2.000000,2.000000,0.000000,2.000000,2.000000,2.000000,0.000000,2.000000,4.000000,4.000000,4.000000,4.000000,2.000000,4.000000,16.666666,,,,,,,,,,,,,,,,,,,,,,,,,,,,
1732083174.013846,1732083174.016470,52.000000,0.000000,4302.307617,4307.948730,4321.538574,4318.461426,4319.743652,4310.769043,4323.205078,4338.077148,4327.948730,4317.692383,4455.256348,4454.871582,4352.179688,4389.230957,0.000000,0.000000,7.000000,,,,0.000000,2.000000,2.000000,0.000000,2.000000,2.000000,2.000000,0.000000,2.000000,4.000000,4.000000,4.000000,4.000000,2.000000,4.000000,16.666666,,,,,,,,,,,,,,,,,13.000000,0.000000,0.562505,0.346436,-0.641785,0.389465,0.987914,-0.111342,-0.067879,-81.360222,49.589962,24.342068
1732083174.021654,1732083174.024278,53.000000,0.000000,4300.128418,4309.871582,4322.051270,4314.615234,4324.871582,4313.077148,4320.769043,4335.128418,4329.871582,4311.922852,4450.384766,4456.538574,4352.051270,4385.769043,0.000000,0.000000,7.000000,,,,0.000000,2.000000,2.000000,0.000000,2.000000,2.000000,2.000000,0.000000,2.000000,4.000000,4.000000,4.000000,4.000000,2.000000,4.000000,16.666666,,,,,,,,,,,,,,,,,,,,,,,,,,,,
1732083174.029463,1732083174.031886,54.000000,0.000000,4300.384766,4307.051270,4322.307617,4315.256348,4310.000000,4311.282227,4321.153809,4335.000000,4329.358887,4313.333496,4446.153809,4455.641113,4351.410156,4387.948730,0.000000,0.000000,7.000000,,,,0.000000,2.000000,2.000000,0.000000,2.000000,2.000000,2.000000,0.000000,2.000000,4.000000,4.000000,4.000000,4.000000,2.000000,4.000000,16.666666,,,,,,,,,,,,,,,,,,,,,,,,,,,,
1732083174.037271,1732083174.039694,55.000000,0.000000,4300.769043,4302.948730,4320.128418,4317.051270,4300.512695,4314.230957,4326.025879,4335.128418,4327.307617,4316.153809,4448.974121,4456.025879,4352.051270,4391.025879,0.000000,0.000000,7.000000,,,,0.000000,2.000000,2.000000,0.000000,2.000000,2.000000,2.000000,0.000000,2.000000,4.000000,4.000000,4.000000,4.000000,2.000000,4.000000,16.666666,,,,,,,,,,,,,,,,,,,,,,,,,,,,
1732083174.045079,1732083174.047403,56.000000,0.000000,4296.153809,4299.230957,4318.974121,4313.717773,4306.666504,4318.974121,4325.641113,4337.307617,4326.282227,4313.077148,4447.563965,4453.846191,4349.615234,4382.179688,0.000000,0.000000,7.000000,,,,0.000000,2.000000,2.000000,0.000000,2.000000,2.000000,2.000000,0.000000,2.000000,4.000000,4.000000,4.000000,4.000000,2.000000,4.000000,16.666666,,,,,,,,,,,,,,,,,14.000000,0.000000,0.562133,0.346741,-0.641724,0.389832,0.978147,-0.114760,-0.067391,-81.393448,49.781204,24.372076
1732083174.052887,1732083174.055211,57.000000,0.000000,4292.179688,4300.256348,4321.538574,4310.384766,4319.743652,4316.538574,4326.410156,4344.487305,4325.000000,4307.307617,4443.205078,4451.666504,4345.641113,4375.384766,0.000000,0.000000,7.000000,,,,0.000000,2.000000,2.000000,0.000000,2.000000,2.000000,2.000000,0.000000,2.000000,4.000000,4.000000,4.000000,4.000000,2.000000,4.000000,16.666666,,,,,,,,,,,,,,,,,,,,,,,,,,,,
1732083174.060696,1732083174.062819,58.000000,0.000000,4295.384766,4302.436035,4324.487305,4313.077148,4320.641113,4310.897461,4327.692383,4348.461426,4328.589844,4305.384766,4447.948730,4453.077148,4347.692383,4382.692383,0.000000,0.000000,7.000000,,,,0.000000,2.000000,2.000000,0.000000,2.000000,2.000000,2.000000,0.000000,2.000000,4.000000,4.000000,4.000000,4.000000,2.000000,4.000000,16.666666,,,,,,,,,,,,,,,,,,,,,,,,,,,,
1732083174.068504,1732083174.070627,59.000000,0.000000,4300.384766,4302.820313,4325.000000,4316.922852,4299.230957,4311.794922,4327.436035,4347.179688,4333.333496,4310.512695,4453.846191,4458.077148,4352.307617,4390.128418,0.000000,0.000000,7.000000,,,,0.000000,2.000000,2.000000,0.000000,2.000000,2.000000,2.000000,0.000000,2.000000,4.000000,4.000000,4.000000,4.000000,2.000000,4.000000,16.666666,,,,,,,,,,,,,,,,,,,,,,,,,,,,
1732083174.076312,1732083174.078336,60.000000,0.000000,4305.000000,4305.512695,4323.077148,4318.205078,4295.256348,4311.410156,4323.974121,4341.025879,4330.384766,4315.384766,4452.179688,4459.743652,4351.538574,4388.589844,0.000000,0.000000,7.000000,,,,0.000000,2.000000,2.000000,0.000000,2.000000,2.000000,2.000000,0.000000,2.000000,4.000000,4.000000,4.000000,4.000000,2.000000,4.000000,16.666666,,,,,,,,,,,,,,,,,15.000000,0.000000,0.561951,0.346741,-0.641846,0.389893,0.975705,-0.105482,-0.070809,-81.603691,49.836109,24.446381
1732083174.084120,1732083174.086144,61.000000,0.000000,4304.871582,4305.769043,4323.077148,4317.307617,4317.051270,4303.717773,4321.025879,4332.179688,4322.563965,4311.922852,4449.487305,4454.487305,4349.487305,4386.666504,0.000000,0.000000,7.000000,,,,0.000000,2.000000,2.000000,0.000000,2.000000,2.000000,2.000000,0.000000,2.000000,4.000000,4.000000,4.000000,4.000000,2.000000,4.000000,16.666666,,,,,,,,,,,,,,,,,,,,,,,,,,,,
1732083174.091929,1732083174.093752,62.000000,0.000000,4299.102539,4306.282227,4323.974121,4318.205078,4311.538574,4305.512695,4320.769043,4330.128418,4321.794922,4306.794922,4448.205078,4451.538574,4354.358887,4387.948730,0.000000,0.000000,7.000000,,,,0.000000,2.000000,2.000000,0.000000,2.000000,2.000000,2.000000,0.000000,2.000000,4.000000,4.000000,4.000000,4.000000,2.000000,4.000000,16.666666,,,,,,,,,,,,,,,,,,,,,,,,,,,,
1732083174.099737,1732083174.101561,63.000000,0.000000,4298.333496,4307.692383,4322.948730,4318.717773,4289.871582,4312.948730,4321.538574,4334.358887,4324.230957,4307.563965,4446.538574,4453.333496,4356.922852,4389.743652,0.000000,0.000000,7.000000,,,,0.000000,2.000000,2.000000,0.000000,2.000000,2.000000,2.000000,0.000000,2.000000,4.000000,4.000000,4.000000,4.000000,2.000000,4.000000,16.666666,,,,,,,,,,,,,,,,,,,,,,,,,,,,
1732083174.107545,1732083174.109269,64.000000,0.000000,4299.743652,4302.820313,4321.282227,4316.794922,4296.922852,4310.897461,4323.205078,4334.487305,4319.358887,4308.974121,4443.333496,4452.051270,4351.666504,4387.436035,0.000000,0.000000,7.000000,,,,0.000000,2.000000,2.000000,0.000000,2.000000,2.000000,2.000000,0.000000,2.000000,4.000000,4.000000,4.000000,4.000000,2.000000,4.000000,16.666666,,,,,,,,,,,,,,,,,16.000000,0.000000,0.561919,0.346680,-0.641907,0.389893,0.959590,-0.105482,-0.066903,-81.710655,49.645580,24.424902
1732083174.115353,1732083174.117077,65.000000,0.000000,4296.794922,4300.897461,4321.153809,4314.230957,4308.205078,4307.692383,4324.230957,4331.794922,4317.692383,4308.205078,4442.051270,4451.153809,4347.820313,4383.589844,1309.000000,0.000000,7.000000,,,,0.000000,2.000000,2.000000,0.000000,2.000000,2.000000,2.000000,0.000000,2.000000,4.000000,4.000000,4.000000,4.000000,2.000000,4.000000,16.666666,,,,,,,,,,,,,,,,,,,,,,,,,,,,
