title:three2, start timestamp:1732081515.420654, stop timestamp:1732081547.996672, headset type:EPOCX, headset serial:E5020C3A, headset firmware:730, channels:67, sampling rate:eeg_128;mot_32, samples:4173      , version:2.2, 
Timestamp,OriginalTimestamp,EEG.Counter,EEG.Interpolated,EEG.AF3,EEG.F7,EEG.F3,EEG.FC5,EEG.T7,EEG.P7,EEG.O1,EEG.O2,EEG.P8,EEG.T8,EEG.FC6,EEG.F4,EEG.F8,EEG.AF4,EEG.RawCq,EEG.Battery,EEG.BatteryPercent,MarkerIndex,MarkerType,MarkerValueInt,EEG.MarkerHardware,CQ.AF3,CQ.F7,CQ.F3,CQ.FC5,CQ.T7,CQ.P7,CQ.O1,CQ.O2,CQ.P8,CQ.T8,CQ.FC6,CQ.F4,CQ.F8,CQ.AF4,CQ.Overall,EQ.SampleRateQuality,EQ.OVERALL,EQ.AF3,EQ.F7,EQ.F3,EQ.FC5,EQ.T7,EQ.P7,EQ.O1,EQ.O2,EQ.P8,EQ.T8,EQ.FC6,EQ.F4,EQ.F8,EQ.AF4,MOT.CounterMems,MOT.InterpolatedMems,MOT.Q0,MOT.Q1,MOT.Q2,MOT.Q3,MOT.AccX,MOT.AccY,MOT.AccZ,MOT.MagX,MOT.MagY,MOT.MagZ
1732081515.420654,1732081515.423286,117.000000,0.000000,4263.974121,4255.641113,4277.563965,4272.563965,4247.692383,4261.410156,4298.461426,4264.487305,4255.769043,4241.153809,4340.641113,4391.794922,4264.743652,4314.615234,1686.000000,0.000000,13.000000,,,,0.000000,2.000000,2.000000,0.000000,2.000000,2.000000,2.000000,1.000000,2.000000,4.000000,4.000000,4.000000,4.000000,2.000000,4.000000,25.000000,,,,,,,,,,,,,,,,,,,,,,,,,,,,
1732081515.428463,1732081515.430894,118.000000,0.000000,4264.615234,4255.769043,4278.461426,4268.974121,4252.563965,4253.589844,4297.436035,4266.794922,4255.128418,4240.000000,4337.307617,4390.897461,4265.641113,4315.000000,1382.000000,0.000000,13.000000,,,,0.000000,2.000000,2.000000,0.000000,2.000000,2.000000,2.000000,1.000000,2.000000,4.000000,4.000000,4.000000,4.000000,2.000000,4.000000,25.000000,,,,,,,,,,,,,,,,,,,,,,,,,,,,
1732081515.436271,1732081515.438702,119.000000,0.000000,4260.384766,4254.487305,4279.358887,4270.128418,4247.051270,4256.410156,4296.666504,4269.615234,4258.461426,4243.205078,4343.846191,4389.358887,4264.743652,4316.538574,1514.000000,0.000000,13.000000,,,,0.000000,2.000000,2.000000,0.000000,2.000000,2.000000,2.000000,1.000000,2.000000,4.000000,4.000000,4.000000,4.000000,2.000000,4.000000,25.000000,,,,,,,,,,,,,,,,,,,,,,,,,,,,
1732081515.444079,1732081515.446610,120.000000,0.000000,4259.871582,4257.051270,4278.974121,4273.717773,4246.922852,4259.743652,4296.538574,4269.871582,4258.205078,4246.025879,4348.333496,4387.948730,4264.871582,4315.769043,1745.000000,0.000000,13.000000,,,,0.000000,2.000000,2.000000,0.000000,2.000000,2.000000,2.000000,1.000000,2.000000,4.000000,4.000000,4.000000,4.000000,2.000000,4.000000,25.000000,,,,,,,,,,,,,,,,,30.000000,0.000000,0.627351,0.402893,-0.592651,0.304749,0.975217,0.140642,-0.034184,-75.607536,64.086082,28.783798
1732081515.451887,1732081515.454419,121.000000,0.000000,4260.897461,4260.769043,4276.922852,4274.487305,4261.922852,4251.922852,4293.077148,4269.615234,4256.410156,4244.230957,4343.974121,4387.563965,4266.025879,4319.102539,1686.000000,0.000000,13.000000,,,,0.000000,2.000000,2.000000,0.000000,2.000000,2.000000,2.000000,1.000000,2.000000,4.000000,4.000000,4.000000,4.000000,2.000000,4.000000,25.000000,,,,,,,,,,,,,,,,,,,,,,,,,,,,
1732081515.459695,1732081515.462427,122.000000,0.000000,4264.230957,4261.282227,4280.769043,4275.128418,4262.436035,4251.025879,4292.948730,4268.589844,4255.000000,4244.358887,4343.461426,4392.948730,4268.589844,4324.871582,1382.000000,0.000000,13.000000,,,,0.000000,2.000000,2.000000,0.000000,2.000000,2.000000,2.000000,1.000000,2.000000,4.000000,4.000000,4.000000,4.000000,2.000000,4.000000,25.000000,,,,,,,,,,,,,,,,,,,,,,,,,,,,
1732081515.467504,1732081515.470235,123.000000,0.000000,4267.307617,4260.769043,4282.820313,4276.666504,4244.743652,4262.692383,4297.820313,4266.153809,4252.692383,4244.871582,4347.051270,4393.717773,4267.563965,4322.692383,1514.000000,0.000000,13.000000,,,,0.000000,2.000000,2.000000,0.000000,2.000000,2.000000,2.000000,1.000000,2.000000,4.000000,4.000000,4.000000,4.000000,2.000000,4.000000,25.000000,,,,,,,,,,,,,,,,,,,,,,,,,,,,
1732081515.475312,1732081515.478143,124.000000,0.000000,4260.769043,4256.794922,4281.410156,4273.589844,4244.487305,4270.256348,4297.820313,4266.153809,4250.384766,4241.025879,4341.025879,4386.153809,4262.179688,4314.487305,1745.000000,0.000000,13.000000,,,,0.000000,2.000000,2.000000,0.000000,2.000000,2.000000,2.000000,1.000000,2.000000,4.000000,4.000000,4.000000,4.000000,2.000000,4.000000,25.000000,,,,,,,,,,,,,,,,,31.000000,0.000000,0.626978,0.403687,-0.592224,0.305298,0.975217,0.140642,-0.034184,-75.748772,64.189728,28.659878
1732081515.483120,1732081515.485951,125.000000,0.000000,4254.358887,4249.102539,4279.102539,4266.794922,4254.102539,4265.128418,4296.410156,4266.666504,4252.820313,4237.820313,4332.563965,4383.461426,4259.871582,4310.512695,1686.000000,0.000000,13.000000,,,,0.000000,2.000000,2.000000,0.000000,2.000000,2.000000,2.000000,1.000000,2.000000,4.000000,4.000000,4.000000,4.000000,2.000000,4.000000,25.000000,,,,,,,,,,,,,,,,,,,,,,,,,,,,
1732081515.490929,1732081515.493959,126.000000,0.000000,4255.897461,4248.717773,4278.589844,4263.589844,4249.615234,4261.666504,4296.282227,4265.897461,4258.589844,4241.410156,4335.512695,4388.461426,4261.410156,4310.128418,1382.000000,0.000000,13.000000,,,,0.000000,2.000000,2.000000,0.000000,2.000000,2.000000,2.000000,1.000000,2.000000,4.000000,4.000000,4.000000,4.000000,2.000000,4.000000,25.000000,,,,,,,,,,,,,,,,,,,,,,,,,,,,
1732081515.498737,1732081515.501767,127.000000,0.000000,4259.487305,4253.333496,4278.974121,4267.307617,4246.794922,4263.589844,4296.666504,4267.051270,4260.384766,4246.153809,4342.051270,4395.000000,4266.282227,4310.000000,13.000000,0.000000,13.000000,,,,0.000000,2.000000,2.000000,0.000000,2.000000,2.000000,2.000000,1.000000,2.000000,4.000000,4.000000,4.000000,4.000000,2.000000,4.000000,25.000000,,,,,,,,,,,,,,,,,,,,,,,,,,,,
1732081515.506545,1732081515.509676,0.000000,0.000000,4257.179688,4251.666504,4277.307617,4272.948730,4245.641113,4263.589844,4295.769043,4267.820313,4259.230957,4252.820313,4348.717773,4402.436035,4273.846191,4314.871582,16.000000,0.000000,13.000000,,,,0.000000,2.000000,2.000000,0.000000,2.000000,2.000000,2.000000,1.000000,2.000000,4.000000,4.000000,4.000000,4.000000,2.000000,4.000000,25.000000,,,,,,,,,,,,,,,,,0.000000,0.000000,0.626456,0.404785,-0.591553,0.306213,0.955195,0.126480,-0.030765,-75.663170,64.245346,28.609501
1732081515.514353,1732081515.517484,1.000000,0.000000,4255.512695,4250.384766,4276.410156,4273.205078,4250.512695,4255.256348,4296.025879,4266.538574,4258.974121,4254.871582,4355.769043,4408.205078,4280.641113,4318.077148,1294.000000,0.000000,13.000000,,,,0.000000,2.000000,2.000000,0.000000,2.000000,2.000000,2.000000,1.000000,2.000000,4.000000,4.000000,4.000000,4.000000,2.000000,4.000000,25.000000,,,,,,,,,,,,,,,,,,,,,,,,,,,,
1732081515.522162,1732081515.525492,2.000000,0.000000,4256.794922,4254.230957,4277.179688,4272.307617,4261.666504,4253.717773,4293.717773,4265.256348,4258.846191,4249.487305,4352.820313,4407.179688,4278.205078,4314.102539,1224.000000,0.000000,13.000000,,,,0.000000,2.000000,2.000000,0.000000,2.000000,2.000000,2.000000,1.000000,2.000000,4.000000,4.000000,4.000000,4.000000,2.000000,4.000000,25.000000,,,,,,,,,,,,,,,,,,,,,,,,,,,,
1732081515.529970,1732081515.533300,3.000000,0.000000,4259.615234,4255.769043,4279.230957,4274.230957,4249.102539,4262.820313,4295.000000,4265.512695,4256.922852,4246.282227,4347.307617,4408.333496,4272.436035,4312.307617,1169.000000,0.000000,13.000000,,,,0.000000,2.000000,2.000000,0.000000,2.000000,2.000000,2.000000,1.000000,2.000000,4.000000,4.000000,4.000000,4.000000,2.000000,4.000000,25.000000,,,,,,,,,,,,,,,,,,,,,,,,,,,,
1732081515.537778,1732081515.541008,4.000000,0.000000,4261.153809,4254.871582,4279.230957,4274.743652,4235.256348,4265.256348,4296.025879,4266.666504,4256.153809,4248.589844,4348.589844,4408.974121,4275.256348,4317.692383,1185.000000,0.000000,13.000000,,,,0.000000,2.000000,2.000000,0.000000,2.000000,2.000000,2.000000,1.000000,2.000000,4.000000,4.000000,4.000000,4.000000,2.000000,4.000000,25.000000,,,,,,,,,,,,,,,,,1.000000,0.000000,0.626258,0.406128,-0.590271,0.307312,0.960078,0.122085,-0.019534,-75.560501,64.340393,28.452028
1732081515.545586,1732081515.548816,5.000000,0.000000,4256.282227,4256.282227,4280.769043,4272.307617,4248.077148,4263.205078,4296.282227,4265.256348,4256.794922,4245.897461,4347.563965,4398.974121,4276.922852,4316.538574,1077.000000,0.000000,13.000000,,,,0.000000,2.000000,2.000000,0.000000,2.000000,2.000000,2.000000,1.000000,2.000000,4.000000,4.000000,4.000000,4.000000,2.000000,4.000000,25.000000,,,,,,,,,,,,,,,,,,,,,,,,,,,,
1732081515.553394,1732081515.556425,6.000000,0.000000,4253.333496,4257.820313,4278.589844,4271.025879,4255.897461,4263.846191,4296.410156,4264.102539,4257.179688,4242.179688,4344.358887,4387.436035,4274.743652,4310.641113,215.000000,0.000000,13.000000,,,,0.000000,2.000000,2.000000,0.000000,2.000000,2.000000,2.000000,1.000000,2.000000,4.000000,4.000000,4.000000,4.000000,2.000000,4.000000,25.000000,,,,,,,,,,,,,,,,,,,,,,,,,,,,
1732081515.561203,1732081515.564233,7.000000,0.000000,4256.410156,4257.563965,4278.974121,4273.077148,4251.025879,4263.077148,4295.384766,4266.153809,4255.769043,4247.436035,4343.717773,4391.922852,4276.025879,4311.922852,1197.000000,0.000000,13.000000,,,,0.000000,2.000000,2.000000,0.000000,2.000000,2.000000,2.000000,1.000000,2.000000,4.000000,4.000000,4.000000,4.000000,2.000000,4.000000,25.000000,,,,,,,,,,,,,,,,,,,,,,,,,,,,
1732081515.569011,1732081515.571941,8.000000,0.000000,4260.256348,4257.307617,4278.846191,4276.794922,4248.589844,4262.563965,4292.563965,4266.666504,4256.922852,4254.230957,4343.974121,4400.384766,4278.205078,4315.128418,1352.000000,0.000000,13.000000,,,,0.000000,2.000000,2.000000,0.000000,2.000000,2.000000,2.000000,1.000000,2.000000,4.000000,4.000000,4.000000,4.000000,2.000000,4.000000,25.000000,,,,,,,,,,,,,,,,,2.000000,0.000000,0.626814,0.406738,-0.589355,0.307129,0.968868,0.125992,-0.021487,-75.544006,64.470718,28.111143
1732081515.576819,1732081515.579750,9.000000,0.000000,4259.358887,4255.384766,4277.051270,4276.153809,4249.871582,4262.692383,4294.102539,4264.743652,4261.025879,4254.102539,4346.282227,4395.897461,4276.025879,4312.179688,1479.000000,0.000000,13.000000,,,,0.000000,2.000000,2.000000,0.000000,2.000000,2.000000,2.000000,1.000000,2.000000,4.000000,4.000000,4.000000,4.000000,2.000000,4.000000,25.000000,,,,,,,,,,,,,,,,,,,,,,,,,,,,
1732081515.584628,1732081515.587358,10.000000,0.000000,4256.538574,4254.230957,4275.384766,4272.179688,4260.256348,4260.769043,4295.512695,4265.384766,4261.025879,4253.589844,4350.256348,4388.205078,4275.897461,4312.051270,1372.000000,0.000000,13.000000,,,,0.000000,2.000000,2.000000,0.000000,2.000000,2.000000,2.000000,1.000000,2.000000,4.000000,4.000000,4.000000,4.000000,2.000000,4.000000,25.000000,,,,,,,,,,,,,,,,,,,,,,,,,,,,
1732081515.592436,1732081515.595166,11.000000,0.000000,4260.769043,4254.615234,4279.358887,4272.563965,4262.563965,4262.820313,4294.615234,4266.666504,4259.230957,4255.384766,4349.230957,4389.230957,4280.000000,4316.922852,1509.000000,0.000000,13.000000,,,,0.000000,2.000000,2.000000,0.000000,2.000000,2.000000,2.000000,1.000000,2.000000,4.000000,4.000000,4.000000,4.000000,2.000000,4.000000,25.000000,,,,,,,,,,,,,,,,,,,,,,,,,,,,
1732081515.600244,1732081515.602875,12.000000,0.000000,4263.846191,4255.769043,4281.922852,4278.589844,4245.897461,4265.512695,4294.358887,4265.512695,4260.256348,4256.153809,4347.436035,4395.641113,4278.974121,4319.358887,1738.000000,0.000000,13.000000,,,,0.000000,2.000000,2.000000,0.000000,2.000000,2.000000,2.000000,1.000000,2.000000,4.000000,4.000000,4.000000,4.000000,2.000000,4.000000,25.000000,,,,,,,,,,,,,,,,,3.000000,0.000000,0.627060,0.406982,-0.588989,0.307007,0.967403,0.141131,-0.016604,-75.630646,64.539619,27.931692
1732081515.608052,1732081515.610683,13.000000,0.000000,4261.153809,4258.589844,4280.641113,4280.384766,4242.563965,4264.871582,4296.025879,4265.512695,4260.769043,4253.846191,4349.615234,4397.307617,4277.692383,4320.000000,1678.000000,0.000000,13.000000,,,,0.000000,2.000000,2.000000,0.000000,2.000000,2.000000,2.000000,1.000000,2.000000,4.000000,4.000000,4.000000,4.000000,2.000000,4.000000,25.000000,,,,,,,,,,,,,,,,,,,,,,,,,,,,
1732081515.615861,1732081515.618291,14.000000,0.000000,4260.641113,4259.871582,4277.307617,4272.692383,4256.153809,4264.615234,4296.794922,4267.307617,4257.179688,4253.846191,4350.256348,4391.410156,4279.743652,4319.615234,1372.000000,0.000000,13.000000,,,,0.000000,2.000000,2.000000,0.000000,2.000000,2.000000,2.000000,1.000000,2.000000,4.000000,4.000000,4.000000,4.000000,2.000000,4.000000,25.000000,1.000000,25.000000,2.000000,2.000000,0.000000,2.000000,2.000000,2.000000,1.000000,2.000000,3.000000,3.000000,4.000000,4.000000,2.000000,4.000000,,,,,,,,,,,,
1732081515.623669,1732081515.626099,15.000000,0.000000,4261.410156,4260.128418,4273.974121,4271.025879,4256.153809,4264.615234,4294.615234,4266.794922,4257.948730,4254.487305,4348.974121,4387.307617,4278.846191,4316.282227,1509.000000,0.000000,13.000000,,,,0.000000,2.000000,2.000000,0.000000,2.000000,2.000000,2.000000,1.000000,2.000000,4.000000,4.000000,4.000000,4.000000,2.000000,4.000000,25.000000,,,,,,,,,,,,,,,,,,,,,,,,,,,,
1732081515.631477,1732081515.633808,16.000000,0.000000,4257.948730,4259.487305,4275.000000,4281.538574,4252.948730,4263.974121,4295.256348,4268.077148,4263.077148,4253.974121,4348.717773,4388.461426,4278.846191,4311.922852,0.000000,0.000000,13.000000,,,,0.000000,2.000000,2.000000,0.000000,2.000000,2.000000,2.000000,1.000000,2.000000,4.000000,4.000000,4.000000,4.000000,2.000000,4.000000,25.000000,,,,,,,,,,,,,,,,,4.000000,0.000000,0.628823,0.406677,-0.587891,0.305908,0.964962,0.156269,-0.015139,-75.674156,64.525421,27.949671
1732081515.639285,1732081515.641616,17.000000,0.000000,4258.589844,4260.641113,4275.897461,4288.333496,4257.948730,4264.871582,4294.615234,4268.205078,4262.307617,4252.563965,4346.538574,4387.436035,4279.615234,4312.179688,0.000000,0.000000,13.000000,,,,0.000000,2.000000,2.000000,0.000000,2.000000,2.000000,2.000000,1.000000,2.000000,4.000000,4.000000,4.000000,4.000000,2.000000,4.000000,25.000000,,,,,,,,,,,,,,,,,,,,,,,,,,,,
1732081515.647094,1732081515.649224,18.000000,0.000000,4262.436035,4264.102539,4278.205078,4286.153809,4254.102539,4265.128418,4295.897461,4268.461426,4257.051270,4251.282227,4345.641113,4387.436035,4273.717773,4315.128418,0.000000,0.000000,13.000000,,,,0.000000,2.000000,2.000000,0.000000,2.000000,2.000000,2.000000,1.000000,2.000000,4.000000,4.000000,4.000000,4.000000,2.000000,4.000000,25.000000,,,,,,,,,,,,,,,,,,,,,,,,,,,,
1732081515.654902,1732081515.657033,19.000000,0.000000,4261.794922,4263.333496,4278.205078,4285.384766,4256.282227,4264.358887,4296.282227,4271.153809,4258.717773,4254.102539,4350.897461,4393.846191,4270.384766,4316.282227,0.000000,0.000000,13.000000,,,,0.000000,2.000000,2.000000,0.000000,2.000000,2.000000,2.000000,1.000000,2.000000,4.000000,4.000000,4.000000,4.000000,2.000000,4.000000,25.000000,,,,,,,,,,,,,,,,,,,,,,,,,,,,
1732081515.662710,1732081515.664741,20.000000,0.000000,4261.922852,4258.077148,4278.589844,4284.743652,4263.333496,4263.846191,4297.436035,4275.512695,4261.922852,4257.051270,4354.615234,4398.077148,4272.948730,4315.384766,0.000000,0.000000,13.000000,,,,0.000000,2.000000,2.000000,0.000000,2.000000,2.000000,2.000000,1.000000,2.000000,4.000000,4.000000,4.000000,4.000000,2.000000,4.000000,25.000000,,,,,,,,,,,,,,,,,5.000000,0.000000,0.629614,0.406311,-0.587646,0.305237,0.963985,0.152851,-0.010743,-75.666069,64.477257,27.902567
1732081515.670518,1732081515.672549,21.000000,0.000000,4265.769043,4256.922852,4276.666504,4283.974121,4253.205078,4265.128418,4297.051270,4275.641113,4260.512695,4255.897461,4350.897461,4394.230957,4267.179688,4311.410156,0.000000,0.000000,13.000000,,,,0.000000,2.000000,2.000000,0.000000,2.000000,2.000000,2.000000,1.000000,2.000000,4.000000,4.000000,4.000000,4.000000,2.000000,4.000000,25.000000,,,,,,,,,,,,,,,,,,,,,,,,,,,,
1732081515.678326,1732081515.680157,22.000000,0.000000,4266.025879,4257.051270,4275.769043,4285.512695,4241.794922,4266.666504,4297.179688,4274.615234,4261.794922,4256.025879,4347.436035,4389.743652,4261.794922,4306.153809,0.000000,0.000000,13.000000,,,,0.000000,2.000000,2.000000,0.000000,2.000000,2.000000,2.000000,1.000000,2.000000,4.000000,4.000000,4.000000,4.000000,2.000000,4.000000,25.000000,,,,,,,,,,,,,,,,,,,,,,,,,,,,
1732081515.686135,1732081515.687966,23.000000,0.000000,4267.820313,4256.794922,4276.666504,4287.436035,4252.692383,4266.153809,4295.512695,4275.512695,4264.615234,4259.871582,4347.948730,4387.692383,4268.974121,4304.487305,0.000000,0.000000,13.000000,,,,0.000000,2.000000,2.000000,0.000000,2.000000,2.000000,2.000000,1.000000,2.000000,4.000000,4.000000,4.000000,4.000000,2.000000,4.000000,25.000000,,,,,,,,,,,,,,,,,,,,,,,,,,,,
1732081515.693943,1732081515.695874,24.000000,0.000000,4273.461426,4260.256348,4281.025879,4286.410156,4259.230957,4265.000000,4294.230957,4273.846191,4260.769043,4259.871582,4347.307617,4389.230957,4271.282227,4308.589844,0.000000,0.000000,13.000000,,,,0.000000,2.000000,2.000000,0.000000,2.000000,2.000000,2.000000,1.000000,2.000000,4.000000,4.000000,4.000000,4.000000,2.000000,4.000000,25.000000,,,,,,,,,,,,,,,,,6.000000,0.000000,0.629871,0.406311,-0.587402,0.305176,0.972287,0.159687,-0.016604,-75.394516,64.721581,28.114412
1732081515.701751,1732081515.703682,25.000000,0.000000,4276.922852,4261.282227,4280.641113,4282.948730,4249.615234,4265.128418,4293.846191,4271.410156,4257.692383,4255.384766,4347.179688,4394.871582,4267.179688,4314.230957,0.000000,0.000000,13.000000,,,,0.000000,2.000000,2.000000,0.000000,2.000000,2.000000,2.000000,1.000000,2.000000,4.000000,4.000000,4.000000,4.000000,2.000000,4.000000,25.000000,,,,,,,,,,,,,,,,,,,,,,,,,,,,
1732081515.709560,1732081515.711690,26.000000,0.000000,4274.487305,4257.948730,4278.589844,4282.051270,4248.077148,4266.025879,4294.358887,4271.794922,4262.051270,4252.307617,4348.717773,4397.179688,4266.282227,4311.922852,0.000000,0.000000,13.000000,,,,0.000000,2.000000,2.000000,0.000000,2.000000,2.000000,2.000000,1.000000,2.000000,4.000000,4.000000,4.000000,4.000000,2.000000,4.000000,25.000000,,,,,,,,,,,,,,,,,,,,,,,,,,,,
1732081515.717368,1732081515.719498,27.000000,0.000000,4271.410156,4260.128418,4278.717773,4282.820313,4250.641113,4266.666504,4295.641113,4270.256348,4262.563965,4252.051270,4346.922852,4394.230957,4265.384766,4304.102539,0.000000,0.000000,13.000000,,,,0.000000,2.000000,2.000000,0.000000,2.000000,2.000000,2.000000,1.000000,2.000000,4.000000,4.000000,4.000000,4.000000,2.000000,4.000000,25.000000,,,,,,,,,,,,,,,,,,,,,,,,,,,,
1732081515.725176,1732081515.727207,28.000000,0.000000,4271.794922,4260.000000,4278.717773,4277.948730,4261.025879,4266.025879,4292.948730,4266.922852,4259.871582,4252.307617,4343.717773,4390.512695,4264.743652,4303.846191,0.000000,0.000000,13.000000,,,,0.000000,2.000000,2.000000,0.000000,2.000000,2.000000,2.000000,1.000000,2.000000,4.000000,4.000000,4.000000,4.000000,2.000000,4.000000,25.000000,,,,,,,,,,,,,,,,,7.000000,0.000000,0.630321,0.406372,-0.587036,0.304871,0.959590,0.172873,-0.009278,-75.319557,64.711143,28.314341
1732081515.732984,1732081515.735015,29.000000,0.000000,4273.846191,4255.000000,4277.179688,4270.384766,4268.717773,4265.384766,4291.666504,4271.025879,4261.153809,4254.230957,4344.487305,4394.102539,4269.487305,4309.871582,0.000000,0.000000,13.000000,,,,0.000000,2.000000,2.000000,0.000000,2.000000,2.000000,2.000000,1.000000,2.000000,4.000000,4.000000,4.000000,4.000000,2.000000,4.000000,25.000000,,,,,,,,,,,,,,,,,,,,,,,,,,,,
1732081515.740793,1732081515.742623,30.000000,0.000000,4274.102539,4256.153809,4276.153809,4273.974121,4252.692383,4264.102539,4295.000000,4276.922852,4264.743652,4257.051270,4347.692383,4398.589844,4273.333496,4309.871582,0.000000,0.000000,13.000000,,,,0.000000,2.000000,2.000000,0.000000,2.000000,2.000000,2.000000,1.000000,2.000000,4.000000,4.000000,4.000000,4.000000,2.000000,4.000000,25.000000,,,,,,,,,,,,,,,,,,,,,,,,,,,,
1732081515.748601,1732081515.750431,31.000000,0.000000,4275.256348,4258.333496,4274.871582,4280.000000,4244.615234,4265.128418,4296.282227,4270.384766,4265.128418,4255.128418,4347.563965,4395.000000,4270.769043,4308.461426,0.000000,0.000000,13.000000,,,,0.000000,2.000000,2.000000,0.000000,2.000000,2.000000,2.000000,1.000000,2.000000,4.000000,4.000000,4.000000,4.000000,2.000000,4.000000,25.000000,,,,,,,,,,,,,,,,,,,,,,,,,,,,
1732081515.756409,1732081515.758140,32.000000,0.000000,4278.974121,4261.153809,4276.538574,4276.666504,4256.410156,4266.922852,4293.205078,4262.692383,4261.538574,4252.179688,4349.743652,4392.436035,4271.538574,4314.615234,0.000000,0.000000,13.000000,,,,0.000000,2.000000,2.000000,0.000000,2.000000,2.000000,2.000000,1.000000,2.000000,4.000000,4.000000,4.000000,4.000000,2.000000,4.000000,25.000000,,,,,,,,,,,,,,,,,8.000000,0.000000,0.630493,0.406982,-0.586365,0.304993,0.981565,0.153827,-0.013185,-75.332176,65.034363,28.396282
1732081515.764217,1732081515.765948,33.000000,0.000000,4279.871582,4262.948730,4281.153809,4277.179688,4259.487305,4266.153809,4293.461426,4267.563965,4258.205078,4252.820313,4355.512695,4397.179688,4275.512695,4318.205078,0.000000,0.000000,13.000000,,,,0.000000,2.000000,2.000000,0.000000,2.000000,2.000000,2.000000,1.000000,2.000000,4.000000,4.000000,4.000000,4.000000,2.000000,4.000000,25.000000,,,,,,,,,,,,,,,,,,,,,,,,,,,,
1732081515.772025,1732081515.773556,34.000000,0.000000,4278.717773,4263.974121,4278.333496,4287.307617,4256.025879,4267.051270,4291.922852,4277.948730,4258.589844,4256.922852,4355.641113,4397.948730,4276.410156,4315.897461,0.000000,0.000000,13.000000,,,,0.000000,2.000000,2.000000,0.000000,2.000000,2.000000,2.000000,1.000000,2.000000,4.000000,4.000000,4.000000,4.000000,2.000000,4.000000,25.000000,,,,,,,,,,,,,,,,,,,,,,,,,,,,
1732081515.779834,1732081515.781364,35.000000,0.000000,4280.128418,4265.128418,4277.820313,4291.153809,4258.333496,4268.974121,4291.282227,4276.538574,4262.436035,4258.077148,4352.948730,4394.487305,4277.179688,4318.077148,0.000000,0.000000,13.000000,,,,0.000000,2.000000,2.000000,0.000000,2.000000,2.000000,2.000000,1.000000,2.000000,4.000000,4.000000,4.000000,4.000000,2.000000,4.000000,25.000000,,,,,,,,,,,,,,,,,,,,,,,,,,,,
1732081515.787642,1732081515.789272,36.000000,0.000000,4282.948730,4267.051270,4280.512695,4287.436035,4263.077148,4267.307617,4288.589844,4270.000000,4263.461426,4256.410156,4353.974121,4393.333496,4279.871582,4321.153809,0.000000,0.000000,13.000000,,,,0.000000,2.000000,2.000000,0.000000,2.000000,2.000000,2.000000,1.000000,2.000000,4.000000,4.000000,4.000000,4.000000,2.000000,4.000000,25.000000,,,,,,,,,,,,,,,,,9.000000,0.000000,0.630108,0.406982,-0.586365,0.305786,0.975217,0.156757,-0.013674,-75.489059,65.131165,28.380989
1732081515.795450,1732081515.797080,37.000000,0.000000,4280.256348,4263.205078,4280.000000,4285.384766,4270.256348,4263.974121,4285.384766,4267.179688,4257.820313,4252.179688,4352.179688,4392.307617,4278.205078,4314.743652,0.000000,0.000000,13.000000,,,,0.000000,2.000000,2.000000,0.000000,2.000000,2.000000,2.000000,1.000000,2.000000,4.000000,4.000000,4.000000,4.000000,2.000000,4.000000,25.000000,,,,,,,,,,,,,,,,,,,,,,,,,,,,
1732081515.803259,1732081515.805088,38.000000,0.000000,4276.666504,4261.153809,4274.358887,4284.743652,4266.282227,4265.256348,4285.512695,4265.897461,4256.282227,4251.666504,4348.589844,4387.948730,4276.153809,4308.461426,0.000000,0.000000,13.000000,,,,0.000000,2.000000,2.000000,0.000000,2.000000,2.000000,2.000000,1.000000,2.000000,4.000000,4.000000,4.000000,4.000000,2.000000,4.000000,25.000000,,,,,,,,,,,,,,,,,,,,,,,,,,,,
1732081515.811067,1732081515.812897,39.000000,0.000000,4278.717773,4265.128418,4275.897461,4283.461426,4250.897461,4268.717773,4289.743652,4266.794922,4260.769043,4255.769043,4351.794922,4390.512695,4280.256348,4311.794922,0.000000,0.000000,13.000000,,,,0.000000,2.000000,2.000000,0.000000,2.000000,2.000000,2.000000,1.000000,2.000000,4.000000,4.000000,4.000000,4.000000,2.000000,4.000000,25.000000,,,,,,,,,,,,,,,,,,,,,,,,,,,,
1732081515.818875,1732081515.820805,40.000000,0.000000,4281.153809,4264.743652,4278.333496,4287.307617,4252.948730,4269.102539,4287.948730,4267.820313,4263.077148,4257.692383,4354.743652,4396.410156,4283.589844,4316.538574,0.000000,0.000000,13.000000,,,,0.000000,2.000000,2.000000,0.000000,2.000000,2.000000,2.000000,1.000000,2.000000,4.000000,4.000000,4.000000,4.000000,2.000000,4.000000,25.000000,,,,,,,,,,,,,,,,,10.000000,0.000000,0.629891,0.407043,-0.586365,0.306152,0.971310,0.152362,-0.003907,-75.206139,65.296242,28.213602
1732081515.826683,1732081515.828613,41.000000,0.000000,4279.102539,4262.307617,4277.563965,4285.256348,4262.820313,4268.461426,4288.205078,4268.205078,4262.307617,4258.205078,4352.820313,4395.897461,4283.333496,4316.153809,0.000000,0.000000,13.000000,,,,0.000000,2.000000,2.000000,0.000000,2.000000,2.000000,2.000000,1.000000,2.000000,4.000000,4.000000,4.000000,4.000000,2.000000,4.000000,25.000000,,,,,,,,,,,,,,,,,,,,,,,,,,,,
1732081515.834492,1732081515.836221,42.000000,0.000000,4276.153809,4262.179688,4275.641113,4276.794922,4257.436035,4271.410156,4291.538574,4271.025879,4260.769043,4258.846191,4353.205078,4393.846191,4281.538574,4313.461426,0.000000,0.000000,13.000000,,,,0.000000,2.000000,2.000000,0.000000,2.000000,2.000000,2.000000,1.000000,2.000000,4.000000,4.000000,4.000000,4.000000,2.000000,4.000000,25.000000,,,,,,,,,,,,,,,,,,,,,,,,,,,,
1732081515.842300,1732081515.844029,43.000000,0.000000,4279.743652,4264.230957,4277.692383,4277.179688,4254.487305,4272.820313,4291.794922,4272.179688,4259.871582,4256.794922,4353.333496,4394.230957,4279.487305,4313.205078,0.000000,0.000000,13.000000,,,,0.000000,2.000000,2.000000,0.000000,2.000000,2.000000,2.000000,1.000000,2.000000,4.000000,4.000000,4.000000,4.000000,2.000000,4.000000,25.000000,,,,,,,,,,,,,,,,,,,,,,,,,,,,
1732081515.850108,1732081515.851937,44.000000,0.000000,4279.230957,4261.666504,4279.102539,4281.922852,4268.333496,4267.563965,4291.794922,4268.974121,4260.769043,4255.128418,4350.000000,4394.487305,4278.846191,4313.589844,0.000000,0.000000,13.000000,,,,0.000000,2.000000,2.000000,0.000000,2.000000,2.000000,2.000000,1.000000,2.000000,4.000000,4.000000,4.000000,4.000000,2.000000,4.000000,25.000000,,,,,,,,,,,,,,,,,11.000000,0.000000,0.629379,0.407410,-0.586182,0.307068,0.938591,0.164571,-0.010743,-75.163643,65.393295,28.283016
1732081515.857916,1732081515.859745,45.000000,0.000000,4277.307617,4261.282227,4276.794922,4285.256348,4270.000000,4262.563965,4291.666504,4268.974121,4264.743652,4258.077148,4351.410156,4393.077148,4280.128418,4316.410156,0.000000,0.000000,13.000000,,,,0.000000,2.000000,2.000000,0.000000,2.000000,2.000000,2.000000,1.000000,2.000000,4.000000,4.000000,4.000000,4.000000,2.000000,4.000000,25.000000,,,,,,,,,,,,,,,,,,,,,,,,,,,,
1732081515.865724,1732081515.867753,46.000000,0.000000,4284.230957,4272.820313,4276.922852,4291.794922,4254.871582,4267.692383,4289.230957,4274.230957,4264.615234,4260.512695,4358.077148,4394.871582,4284.871582,4321.666504,0.000000,0.000000,13.000000,,,,0.000000,2.000000,2.000000,0.000000,2.000000,2.000000,2.000000,1.000000,2.000000,4.000000,4.000000,4.000000,4.000000,2.000000,4.000000,25.000000,,,,,,,,,,,,,,,,,,,,,,,,,,,,
1732081515.873533,1732081515.875562,47.000000,0.000000,4286.410156,4277.692383,4277.692383,4295.000000,4253.717773,4273.974121,4285.897461,4276.666504,4264.102539,4260.769043,4362.436035,4398.846191,4290.128418,4321.025879,0.000000,0.000000,13.000000,,,,0.000000,2.000000,2.000000,0.000000,2.000000,2.000000,2.000000,1.000000,2.000000,4.000000,4.000000,4.000000,4.000000,2.000000,4.000000,25.000000,,,,,,,,,,,,,,,,,,,,,,,,,,,,
1732081515.881341,1732081515.883470,48.000000,0.000000,4282.948730,4272.563965,4278.589844,4286.794922,4264.358887,4270.128418,4288.461426,4275.897461,4264.487305,4260.128418,4362.436035,4398.717773,4287.948730,4318.589844,0.000000,0.000000,13.000000,,,,0.000000,2.000000,2.000000,0.000000,2.000000,2.000000,2.000000,1.000000,2.000000,4.000000,4.000000,4.000000,4.000000,2.000000,4.000000,25.000000,,,,,,,,,,,,,,,,,12.000000,0.000000,0.629578,0.409241,-0.584595,0.307251,0.943963,0.216335,-0.024417,-75.135880,65.398567,28.224243
1732081515.889149,1732081515.891278,49.000000,0.000000,4284.230957,4270.512695,4280.641113,4284.230957,4261.538574,4262.820313,4290.256348,4276.025879,4262.820313,4257.820313,4357.436035,4396.922852,4280.897461,4319.871582,0.000000,0.000000,13.000000,,,,0.000000,2.000000,2.000000,0.000000,2.000000,2.000000,2.000000,1.000000,2.000000,4.000000,4.000000,4.000000,4.000000,2.000000,4.000000,25.000000,,,,,,,,,,,,,,,,,,,,,,,,,,,,
1732081515.896958,1732081515.899286,50.000000,0.000000,4285.641113,4273.846191,4280.769043,4292.820313,4258.077148,4267.179688,4291.282227,4278.205078,4261.410156,4255.512695,4353.974121,4400.000000,4280.897461,4319.487305,0.000000,0.000000,13.000000,,,,0.000000,2.000000,2.000000,0.000000,2.000000,2.000000,2.000000,1.000000,2.000000,4.000000,4.000000,4.000000,4.000000,2.000000,4.000000,25.000000,,,,,,,,,,,,,,,,,,,,,,,,,,,,
1732081515.904766,1732081515.907094,51.000000,0.000000,4285.512695,4274.230957,4276.794922,4293.333496,4264.871582,4278.461426,4288.974121,4279.487305,4261.666504,4257.051270,4356.922852,4405.000000,4285.128418,4320.256348,0.000000,0.000000,13.000000,,,,0.000000,2.000000,2.000000,0.000000,2.000000,2.000000,2.000000,1.000000,2.000000,4.000000,4.000000,4.000000,4.000000,2.000000,4.000000,25.000000,,,,,,,,,,,,,,,,,,,,,,,,,,,,
1732081515.912574,1732081515.915002,52.000000,0.000000,4290.641113,4274.102539,4279.615234,4286.794922,4260.128418,4273.205078,4289.230957,4278.589844,4262.948730,4258.333496,4360.128418,4406.666504,4286.410156,4325.897461,0.000000,0.000000,13.000000,,,,0.000000,2.000000,2.000000,0.000000,2.000000,2.000000,2.000000,1.000000,2.000000,4.000000,4.000000,4.000000,4.000000,2.000000,4.000000,25.000000,,,,,,,,,,,,,,,,,13.000000,0.000000,0.629835,0.410461,-0.583557,0.307068,0.943963,0.216335,-0.024417,-75.186729,65.341171,28.151638
1732081515.920382,1732081515.922810,53.000000,0.000000,4292.692383,4270.512695,4280.384766,4285.641113,4252.820313,4261.794922,4289.487305,4280.897461,4262.179688,4257.820313,4365.897461,4410.384766,4289.615234,4330.384766,0.000000,0.000000,13.000000,,,,0.000000,2.000000,2.000000,0.000000,2.000000,2.000000,2.000000,1.000000,2.000000,4.000000,4.000000,4.000000,4.000000,2.000000,4.000000,25.000000,,,,,,,,,,,,,,,,,,,,,,,,,,,,
1732081515.928191,1732081515.930419,54.000000,0.000000,4288.974121,4265.641113,4279.615234,4287.179688,4255.512695,4263.205078,4288.205078,4277.692383,4258.974121,4255.641113,4368.333496,4415.384766,4291.153809,4333.717773,0.000000,0.000000,13.000000,,,,0.000000,2.000000,2.000000,0.000000,2.000000,2.000000,2.000000,1.000000,2.000000,4.000000,4.000000,4.000000,4.000000,2.000000,4.000000,25.000000,,,,,,,,,,,,,,,,,,,,,,,,,,,,
1732081515.935999,1732081515.938227,55.000000,0.000000,4293.846191,4270.769043,4283.717773,4287.051270,4249.743652,4265.769043,4287.051270,4273.717773,4256.410156,4252.692383,4361.282227,4415.384766,4284.615234,4338.077148,0.000000,0.000000,13.000000,,,,0.000000,2.000000,2.000000,0.000000,2.000000,2.000000,2.000000,1.000000,2.000000,4.000000,4.000000,4.000000,4.000000,2.000000,4.000000,25.000000,,,,,,,,,,,,,,,,,,,,,,,,,,,,
1732081515.943807,1732081515.945935,56.000000,0.000000,4302.307617,4275.000000,4288.589844,4291.153809,4245.641113,4263.461426,4289.615234,4277.436035,4254.615234,4251.153809,4360.256348,4418.589844,4283.205078,4339.615234,0.000000,0.000000,13.000000,,,,0.000000,2.000000,2.000000,0.000000,2.000000,2.000000,2.000000,1.000000,2.000000,4.000000,4.000000,4.000000,4.000000,2.000000,4.000000,25.000000,,,,,,,,,,,,,,,,,14.000000,0.000000,0.630040,0.412109,-0.582397,0.306641,0.967892,0.222195,-0.033696,-75.071251,65.369682,28.234493
1732081515.951615,1732081515.953744,57.000000,0.000000,4307.948730,4275.512695,4285.384766,4295.256348,4257.820313,4261.282227,4291.153809,4278.974121,4256.282227,4253.974121,4371.282227,4422.948730,4293.589844,4343.205078,0.000000,0.000000,13.000000,,,,0.000000,2.000000,2.000000,0.000000,2.000000,2.000000,2.000000,1.000000,2.000000,4.000000,4.000000,4.000000,4.000000,2.000000,4.000000,25.000000,,,,,,,,,,,,,,,,,,,,,,,,,,,,
1732081515.959423,1732081515.961352,58.000000,0.000000,4311.794922,4275.384766,4284.743652,4290.000000,4254.230957,4259.102539,4290.641113,4277.563965,4260.769043,4257.948730,4372.436035,4418.974121,4298.589844,4349.487305,0.000000,0.000000,13.000000,,,,0.000000,2.000000,2.000000,0.000000,2.000000,2.000000,2.000000,1.000000,2.000000,4.000000,4.000000,4.000000,4.000000,2.000000,4.000000,25.000000,,,,,,,,,,,,,,,,,,,,,,,,,,,,
1732081515.967232,1732081515.969160,59.000000,0.000000,4314.102539,4276.282227,4287.307617,4287.692383,4233.717773,4259.102539,4291.282227,4279.102539,4263.974121,4257.692383,4363.589844,4414.743652,4291.794922,4348.717773,0.000000,0.000000,13.000000,,,,0.000000,2.000000,2.000000,0.000000,2.000000,2.000000,2.000000,1.000000,2.000000,4.000000,4.000000,4.000000,4.000000,2.000000,4.000000,25.000000,,,,,,,,,,,,,,,,,,,,,,,,,,,,
1732081515.975040,1732081515.976868,60.000000,0.000000,4317.563965,4278.589844,4288.589844,4291.025879,4232.948730,4262.307617,4291.410156,4280.384766,4260.769043,4259.102539,4365.384766,4418.974121,4289.871582,4346.282227,0.000000,0.000000,13.000000,,,,0.000000,2.000000,2.000000,0.000000,2.000000,2.000000,2.000000,1.000000,2.000000,4.000000,4.000000,4.000000,4.000000,2.000000,4.000000,25.000000,,,,,,,,,,,,,,,,,15.000000,0.000000,0.629220,0.419067,-0.578918,0.305481,0.988890,0.142596,-0.034672,-75.164383,65.434441,27.964939
1732081515.982848,1732081515.984677,61.000000,0.000000,4321.282227,4277.563965,4291.153809,4290.256348,4244.743652,4261.794922,4294.743652,4277.563965,4258.077148,4262.051270,4370.000000,4421.794922,4297.820313,4349.230957,0.000000,0.000000,13.000000,,,,0.000000,2.000000,2.000000,0.000000,2.000000,2.000000,2.000000,1.000000,2.000000,4.000000,4.000000,4.000000,4.000000,2.000000,4.000000,25.000000,,,,,,,,,,,,,,,,,,,,,,,,,,,,
1732081515.990657,1732081515.992285,62.000000,0.000000,4322.179688,4278.333496,4289.871582,4289.487305,4242.820313,4259.615234,4293.717773,4273.077148,4259.615234,4260.512695,4369.743652,4417.307617,4297.563965,4352.692383,0.000000,0.000000,13.000000,,,,0.000000,2.000000,2.000000,0.000000,2.000000,2.000000,2.000000,1.000000,2.000000,4.000000,4.000000,4.000000,4.000000,2.000000,4.000000,25.000000,,,,,,,,,,,,,,,,,,,,,,,,,,,,
1732081515.998465,1732081516.000093,63.000000,0.000000,4322.436035,4279.743652,4289.102539,4291.666504,4240.512695,4264.871582,4290.897461,4273.333496,4261.794922,4257.948730,4367.820313,4415.897461,4285.128418,4352.692383,0.000000,0.000000,13.000000,,,,0.000000,2.000000,2.000000,0.000000,2.000000,2.000000,2.000000,1.000000,2.000000,4.000000,4.000000,4.000000,4.000000,2.000000,4.000000,25.000000,,,,,,,,,,,,,,,,,,,,,,,,,,,,
1732081516.006273,1732081516.007802,64.000000,0.000000,4326.410156,4280.384766,4289.871582,4292.051270,4242.436035,4262.948730,4288.974121,4276.153809,4260.897461,4257.820313,4365.897461,4418.974121,4284.871582,4355.512695,20.000000,0.000000,13.000000,,,,0.000000,2.000000,2.000000,0.000000,2.000000,2.000000,2.000000,1.000000,2.000000,4.000000,4.000000,4.000000,4.000000,2.000000,4.000000,25.000000,,,,,,,,,,,,,,,,,16.000000,0.000000,0.628607,0.420105,-0.578735,0.305664,0.988890,0.142596,-0.034672,-75.298149,65.736900,27.753267
1732081516.014081,1732081516.015610,65.000000,0.000000,4332.307617,4279.615234,4292.692383,4289.102539,4237.820313,4254.871582,4289.615234,4270.897461,4258.717773,4257.179688,4368.974121,4419.743652,4296.282227,4365.897461,1289.000000,0.000000,13.000000,,,,0.000000,2.000000,2.000000,0.000000,2.000000,2.000000,2.000000,1.000000,2.000000,4.000000,4.000000,4.000000,4.000000,2.000000,4.000000,25.000000,,,,,,,,,,,,,,,,,,,,,,,,,,,,
1732081516.021890,1732081516.023218,66.000000,0.000000,4338.333496,4280.384766,4290.384766,4288.717773,4236.282227,4252.179688,4287.179688,4263.974121,4257.307617,4257.563965,4372.692383,4417.820313,4298.589844,4374.743652,1209.000000,0.000000,13.000000,,,,0.000000,2.000000,2.000000,0.000000,2.000000,2.000000,2.000000,1.000000,2.000000,4.000000,4.000000,4.000000,4.000000,2.000000,4.000000,25.000000,,,,,,,,,,,,,,,,,,,,,,,,,,,,
1732081516.029698,1732081516.031026,67.000000,0.000000,4341.794922,4281.922852,4290.384766,4291.922852,4238.333496,4253.333496,4286.538574,4266.666504,4256.410156,4257.692383,4370.769043,4420.000000,4292.948730,4374.102539,1167.000000,0.000000,13.000000,,,,0.000000,2.000000,2.000000,0.000000,2.000000,2.000000,2.000000,1.000000,2.000000,4.000000,4.000000,4.000000,4.000000,2.000000,4.000000,25.000000,,,,,,,,,,,,,,,,,,,,,,,,,,,,
1732081516.037506,1732081516.038735,68.000000,0.000000,4344.487305,4285.000000,4290.512695,4293.333496,4239.102539,4256.666504,4285.769043,4268.589844,4257.948730,4255.256348,4371.794922,4422.692383,4293.077148,4374.743652,1185.000000,0.000000,13.000000,,,,0.000000,2.000000,2.000000,0.000000,2.000000,2.000000,2.000000,1.000000,2.000000,4.000000,4.000000,4.000000,4.000000,2.000000,4.000000,25.000000,,,,,,,,,,,,,,,,,17.000000,0.000000,0.626901,0.419495,-0.580444,0.306763,0.965450,0.114760,-0.020510,-75.051498,65.628555,27.610147
1732081516.045314,1732081516.046543,69.000000,0.000000,4349.871582,4286.794922,4291.153809,4292.436035,4240.000000,4256.153809,4286.153809,4265.128418,4256.538574,4255.769043,4375.897461,4420.000000,4297.820313,4382.820313,1075.000000,0.000000,13.000000,,,,0.000000,2.000000,2.000000,0.000000,2.000000,2.000000,2.000000,1.000000,2.000000,4.000000,4.000000,4.000000,4.000000,2.000000,4.000000,25.000000,,,,,,,,,,,,,,,,,,,,,,,,,,,,
1732081516.053123,1732081516.054151,70.000000,0.000000,4357.436035,4282.948730,4290.128418,4297.692383,4239.615234,4252.692383,4285.128418,4270.512695,4256.025879,4259.102539,4377.820313,4417.051270,4299.615234,4386.666504,217.000000,0.000000,13.000000,,,,0.000000,2.000000,2.000000,0.000000,2.000000,2.000000,2.000000,1.000000,2.000000,4.000000,4.000000,4.000000,4.000000,2.000000,4.000000,25.000000,,,,,,,,,,,,,,,,,,,,,,,,,,,,
1732081516.060931,1732081516.061960,71.000000,0.000000,4365.256348,4284.615234,4288.846191,4304.487305,4239.102539,4249.871582,4284.230957,4274.487305,4260.897461,4257.436035,4380.897461,4418.077148,4298.077148,4384.871582,1197.000000,0.000000,13.000000,,,,0.000000,2.000000,2.000000,0.000000,2.000000,2.000000,2.000000,1.000000,2.000000,4.000000,4.000000,4.000000,4.000000,2.000000,4.000000,25.000000,,,,,,,,,,,,,,,,,,,,,,,,,,,,
1732081516.068739,1732081516.069668,72.000000,0.000000,4370.128418,4290.128418,4290.512695,4304.487305,4242.307617,4250.128418,4284.230957,4268.846191,4264.102539,4256.153809,4381.794922,4420.641113,4298.461426,4388.333496,1351.000000,0.000000,13.000000,,,,0.000000,2.000000,2.000000,0.000000,2.000000,2.000000,2.000000,1.000000,2.000000,4.000000,4.000000,4.000000,4.000000,2.000000,4.000000,25.000000,,,,,,,,,,,,,,,,,18.000000,0.000000,0.626197,0.413635,-0.584167,0.309082,0.964962,0.131852,-0.037114,-74.945045,65.710793,27.387552
1732081516.076547,1732081516.077476,73.000000,0.000000,4368.846191,4286.153809,4291.025879,4301.025879,4242.563965,4250.256348,4281.666504,4264.871582,4258.974121,4257.948730,4380.384766,4422.051270,4301.922852,4394.487305,1472.000000,0.000000,13.000000,,,,0.000000,2.000000,2.000000,0.000000,2.000000,2.000000,2.000000,1.000000,2.000000,4.000000,4.000000,4.000000,4.000000,2.000000,4.000000,25.000000,,,,,,,,,,,,,,,,,,,,,,,,,,,,
1732081516.084355,1732081516.085484,74.000000,0.000000,4369.230957,4283.461426,4290.384766,4302.436035,4241.025879,4248.333496,4280.769043,4265.256348,4256.666504,4251.666504,4379.615234,4425.384766,4298.589844,4393.974121,1359.000000,0.000000,13.000000,,,,0.000000,2.000000,2.000000,0.000000,2.000000,2.000000,2.000000,1.000000,2.000000,4.000000,4.000000,4.000000,4.000000,2.000000,4.000000,25.000000,,,,,,,,,,,,,,,,,,,,,,,,,,,,
1732081516.092164,1732081516.093292,75.000000,0.000000,4377.692383,4294.102539,4288.974121,4308.461426,4244.871582,4249.615234,4283.461426,4267.563965,4260.384766,4245.512695,4380.128418,4425.128418,4296.410156,4394.102539,1506.000000,0.000000,13.000000,,,,0.000000,2.000000,2.000000,0.000000,2.000000,2.000000,2.000000,1.000000,2.000000,4.000000,4.000000,4.000000,4.000000,2.000000,4.000000,25.000000,,,,,,,,,,,,,,,,,,,,,,,,,,,,
1732081516.099972,1732081516.101001,76.000000,0.000000,4380.897461,4299.871582,4290.897461,4303.077148,4239.871582,4249.487305,4281.666504,4268.205078,4258.846191,4251.282227,4385.256348,4426.410156,4306.025879,4403.205078,1738.000000,0.000000,13.000000,,,,0.000000,2.000000,2.000000,0.000000,2.000000,2.000000,2.000000,1.000000,2.000000,4.000000,4.000000,4.000000,4.000000,2.000000,4.000000,25.000000,,,,,,,,,,,,,,,,,19.000000,0.000000,0.626451,0.408142,-0.586975,0.310547,0.969845,0.120620,-0.026859,-74.695488,65.452408,27.282251
1732081516.107780,1732081516.108809,77.000000,0.000000,4379.871582,4293.846191,4289.871582,4291.922852,4232.436035,4249.230957,4277.820313,4268.974121,4258.974121,4256.538574,4392.563965,4429.358887,4312.051270,4413.205078,1681.000000,0.000000,13.000000,,,,0.000000,2.000000,2.000000,0.000000,2.000000,2.000000,2.000000,1.000000,2.000000,4.000000,4.000000,4.000000,4.000000,2.000000,4.000000,25.000000,,,,,,,,,,,,,,,,,,,,,,,,,,,,
1732081516.115589,1732081516.116817,78.000000,0.000000,4384.102539,4293.205078,4292.051270,4298.846191,4232.820313,4247.051270,4282.179688,4273.333496,4261.922852,4253.333496,4391.538574,4429.487305,4311.025879,4414.871582,1359.000000,0.000000,13.000000,,,,0.000000,2.000000,2.000000,0.000000,2.000000,2.000000,2.000000,1.000000,2.000000,4.000000,4.000000,4.000000,4.000000,2.000000,4.000000,25.000000,1.000000,25.000000,2.000000,2.000000,0.000000,2.000000,2.000000,2.000000,1.000000,2.000000,3.000000,3.000000,4.000000,4.000000,2.000000,4.000000,,,,,,,,,,,,
1732081516.123397,1732081516.124625,79.000000,0.000000,4387.179688,4299.102539,4292.563965,4308.974121,4236.538574,4247.948730,4285.000000,4275.000000,4264.230957,4258.461426,4391.410156,4429.615234,4313.589844,4411.410156,1506.000000,0.000000,13.000000,,,,0.000000,2.000000,2.000000,0.000000,2.000000,2.000000,2.000000,1.000000,2.000000,4.000000,4.000000,4.000000,4.000000,2.000000,4.000000,25.000000,,,,,,,,,,,,,,,,,,,,,,,,,,,,
1732081516.131205,1732081516.132333,80.000000,0.000000,4382.307617,4297.563965,4290.384766,4301.282227,4232.692383,4249.230957,4283.461426,4276.153809,4263.717773,4266.922852,4399.102539,4436.666504,4315.897461,4415.384766,1738.000000,0.000000,13.000000,,,,0.000000,2.000000,2.000000,0.000000,2.000000,2.000000,2.000000,1.000000,2.000000,4.000000,4.000000,4.000000,4.000000,2.000000,4.000000,25.000000,,,,,,,,,,,,,,,,,20.000000,0.000000,0.626451,0.408142,-0.586975,0.310547,0.959101,0.125504,-0.019045,-74.703346,65.198120,27.106956
1732081516.139013,1732081516.140141,81.000000,0.000000,4379.743652,4294.230957,4288.974121,4297.820313,4229.230957,4246.794922,4283.589844,4277.948730,4262.436035,4262.948730,4401.282227,4442.820313,4316.410156,4423.461426,1681.000000,0.000000,13.000000,,,,0.000000,2.000000,2.000000,0.000000,2.000000,2.000000,2.000000,1.000000,2.000000,4.000000,4.000000,4.000000,4.000000,2.000000,4.000000,25.000000,,,,,,,,,,,,,,,,,,,,,,,,,,,,
1732081516.146822,1732081516.147749,82.000000,0.000000,4386.153809,4296.538574,4293.205078,4303.974121,4241.153809,4246.282227,4285.384766,4271.666504,4264.871582,4258.077148,4397.051270,4442.692383,4319.102539,4422.820313,1359.000000,0.000000,13.000000,,,,0.000000,2.000000,2.000000,0.000000,2.000000,2.000000,2.000000,1.000000,2.000000,4.000000,4.000000,4.000000,4.000000,2.000000,4.000000,25.000000,,,,,,,,,,,,,,,,,,,,,,,,,,,,
1732081516.154630,1732081516.155557,83.000000,0.000000,4390.897461,4298.717773,4294.102539,4303.461426,4259.487305,4244.230957,4281.538574,4264.230957,4266.025879,4261.922852,4394.102539,4438.717773,4316.025879,4415.769043,1506.000000,0.000000,13.000000,,,,0.000000,2.000000,2.000000,0.000000,2.000000,2.000000,2.000000,1.000000,2.000000,4.000000,4.000000,4.000000,4.000000,2.000000,4.000000,25.000000,,,,,,,,,,,,,,,,,,,,,,,,,,,,
1732081516.162438,1732081516.163265,84.000000,0.000000,4388.846191,4298.974121,4293.717773,4302.948730,4256.410156,4248.461426,4282.436035,4271.666504,4259.743652,4260.897461,4390.000000,4436.794922,4308.846191,4414.487305,1738.000000,0.000000,13.000000,,,,0.000000,2.000000,2.000000,0.000000,2.000000,2.000000,2.000000,1.000000,2.000000,4.000000,4.000000,4.000000,4.000000,2.000000,4.000000,25.000000,,,,,,,,,,,,,,,,,21.000000,0.000000,0.627035,0.404358,-0.588806,0.310852,0.968868,0.136735,-0.032230,-74.686378,65.022141,27.423302
1732081516.170246,1732081516.171073,85.000000,0.000000,4387.436035,4301.666504,4294.358887,4304.871582,4242.820313,4257.436035,4284.615234,4276.922852,4257.051270,4256.922852,4391.538574,4440.128418,4313.974121,4420.897461,1681.000000,0.000000,13.000000,,,,0.000000,2.000000,2.000000,0.000000,2.000000,2.000000,2.000000,1.000000,2.000000,4.000000,4.000000,4.000000,4.000000,2.000000,4.000000,25.000000,,,,,,,,,,,,,,,,,,,,,,,,,,,,
1732081516.178054,1732081516.179081,86.000000,0.000000,4389.743652,4300.256348,4293.846191,4301.282227,4248.589844,4255.000000,4283.974121,4268.974121,4261.922852,4258.717773,4398.333496,4442.948730,4316.666504,4423.461426,1359.000000,0.000000,13.000000,,,,0.000000,2.000000,2.000000,0.000000,2.000000,2.000000,2.000000,1.000000,2.000000,4.000000,4.000000,4.000000,4.000000,2.000000,4.000000,25.000000,,,,,,,,,,,,,,,,,,,,,,,,,,,,
1732081516.185863,1732081516.186889,87.000000,0.000000,4389.230957,4295.384766,4295.641113,4302.563965,4251.025879,4252.820313,4284.102539,4272.179688,4263.333496,4262.307617,4399.358887,4444.358887,4309.102539,4423.717773,1506.000000,0.000000,13.000000,,,,0.000000,2.000000,2.000000,0.000000,2.000000,2.000000,2.000000,1.000000,2.000000,4.000000,4.000000,4.000000,4.000000,2.000000,4.000000,25.000000,,,,,,,,,,,,,,,,,,,,,,,,,,,,
1732081516.193671,1732081516.194798,88.000000,0.000000,4386.538574,4299.102539,4298.077148,4306.153809,4247.563965,4262.307617,4285.897461,4280.641113,4262.948730,4264.230957,4396.410156,4446.794922,4314.102539,4424.230957,1738.000000,0.000000,13.000000,,,,0.000000,2.000000,2.000000,0.000000,2.000000,2.000000,2.000000,1.000000,2.000000,4.000000,4.000000,4.000000,4.000000,2.000000,4.000000,25.000000,,,,,,,,,,,,,,,,,22.000000,0.000000,0.628019,0.398865,-0.591370,0.311096,0.967892,0.134294,-0.030765,-74.940964,64.626266,27.471207
1732081516.201479,1732081516.202606,89.000000,0.000000,4381.538574,4302.692383,4295.641113,4299.743652,4261.282227,4264.871582,4283.205078,4277.948730,4265.128418,4263.461426,4398.205078,4444.487305,4321.153809,4419.230957,1681.000000,0.000000,13.000000,,,,0.000000,2.000000,2.000000,0.000000,2.000000,2.000000,2.000000,1.000000,2.000000,4.000000,4.000000,4.000000,4.000000,2.000000,4.000000,25.000000,,,,,,,,,,,,,,,,,,,,,,,,,,,,
1732081516.209288,1732081516.210614,90.000000,0.000000,4373.461426,4298.077148,4292.051270,4295.512695,4260.384766,4258.461426,4284.230957,4274.743652,4265.512695,4263.333496,4396.410156,4434.487305,4312.436035,4411.025879,1359.000000,0.000000,13.000000,,,,0.000000,2.000000,2.000000,0.000000,2.000000,2.000000,2.000000,1.000000,2.000000,4.000000,4.000000,4.000000,4.000000,2.000000,4.000000,25.000000,,,,,,,,,,,,,,,,,,,,,,,,,,,,
1732081516.217096,1732081516.218422,91.000000,0.000000,4370.256348,4296.794922,4293.846191,4296.922852,4250.000000,4262.051270,4287.179688,4274.358887,4263.461426,4263.974121,4386.794922,4428.205078,4305.512695,4405.769043,1506.000000,0.000000,13.000000,,,,0.000000,2.000000,2.000000,0.000000,2.000000,2.000000,2.000000,1.000000,2.000000,4.000000,4.000000,4.000000,4.000000,2.000000,4.000000,25.000000,,,,,,,,,,,,,,,,,,,,,,,,,,,,
1732081516.224904,1732081516.226330,92.000000,0.000000,4367.948730,4297.051270,4293.461426,4296.410156,4261.282227,4265.512695,4282.948730,4270.641113,4263.077148,4263.846191,4382.307617,4426.794922,4305.641113,4401.282227,1738.000000,0.000000,13.000000,,,,0.000000,2.000000,2.000000,0.000000,2.000000,2.000000,2.000000,1.000000,2.000000,4.000000,4.000000,4.000000,4.000000,2.000000,4.000000,25.000000,,,,,,,,,,,,,,,,,23.000000,0.000000,0.628325,0.398315,-0.591125,0.311646,0.967892,0.140154,-0.032230,-75.118851,64.503944,27.835011
1732081516.232712,1732081516.234138,93.000000,0.000000,4364.230957,4296.666504,4293.333496,4294.102539,4268.589844,4261.410156,4283.589844,4270.384766,4263.077148,4262.307617,4383.589844,4427.051270,4300.000000,4400.641113,1681.000000,0.000000,13.000000,,,,0.000000,2.000000,2.000000,0.000000,2.000000,2.000000,2.000000,1.000000,2.000000,4.000000,4.000000,4.000000,4.000000,2.000000,4.000000,25.000000,,,,,,,,,,,,,,,,,,,,,,,,,,,,
1732081516.240521,1732081516.242146,94.000000,0.000000,4367.948730,4302.563965,4295.384766,4298.974121,4261.410156,4263.333496,4286.922852,4276.153809,4263.589844,4262.563965,4388.974121,4430.128418,4299.871582,4408.333496,1359.000000,0.000000,13.000000,,,,0.000000,2.000000,2.000000,0.000000,2.000000,2.000000,2.000000,1.000000,2.000000,4.000000,4.000000,4.000000,4.000000,2.000000,4.000000,25.000000,,,,,,,,,,,,,,,,,,,,,,,,,,,,
1732081516.248329,1732081516.249955,95.000000,0.000000,4370.256348,4307.436035,4295.000000,4307.948730,4263.205078,4266.666504,4285.128418,4276.794922,4264.743652,4265.769043,4396.282227,4432.692383,4308.461426,4410.897461,1506.000000,0.000000,13.000000,,,,0.000000,2.000000,2.000000,0.000000,2.000000,2.000000,2.000000,1.000000,2.000000,4.000000,4.000000,4.000000,4.000000,2.000000,4.000000,25.000000,,,,,,,,,,,,,,,,,,,,,,,,,,,,
1732081516.256137,1732081516.257863,96.000000,0.000000,4366.922852,4305.897461,4292.563965,4310.256348,4268.205078,4265.897461,4282.692383,4276.538574,4267.307617,4269.871582,4398.077148,4430.641113,4311.025879,4407.179688,1738.000000,0.000000,13.000000,,,,0.000000,2.000000,2.000000,0.000000,2.000000,2.000000,2.000000,1.000000,2.000000,4.000000,4.000000,4.000000,4.000000,2.000000,4.000000,25.000000,,,,,,,,,,,,,,,,,24.000000,0.000000,0.628325,0.398315,-0.591125,0.311646,0.964962,0.131364,-0.039067,-75.127937,64.344864,28.024693
1732081516.263945,1732081516.265671,97.000000,0.000000,4366.666504,4304.102539,4295.256348,4305.000000,4265.256348,4264.358887,4285.128418,4279.487305,4269.743652,4271.794922,4398.717773,4428.205078,4311.666504,4406.538574,1681.000000,0.000000,13.000000,,,,0.000000,2.000000,2.000000,0.000000,2.000000,2.000000,2.000000,1.000000,2.000000,4.000000,4.000000,4.000000,4.000000,2.000000,4.000000,25.000000,,,,,,,,,,,,,,,,,,,,,,,,,,,,
1732081516.271753,1732081516.273679,98.000000,0.000000,4369.358887,4301.922852,4296.410156,4300.897461,4267.051270,4264.871582,4284.743652,4280.000000,4270.256348,4270.128418,4399.230957,4428.333496,4311.538574,4405.769043,1359.000000,0.000000,13.000000,,,,0.000000,2.000000,2.000000,0.000000,2.000000,2.000000,2.000000,1.000000,2.000000,4.000000,4.000000,4.000000,4.000000,2.000000,4.000000,25.000000,,,,,,,,,,,,,,,,,,,,,,,,,,,,
1732081516.279562,1732081516.281487,99.000000,0.000000,4366.153809,4300.128418,4293.461426,4302.436035,4265.641113,4268.717773,4284.743652,4279.102539,4270.769043,4268.974121,4394.871582,4428.717773,4307.307617,4402.051270,1506.000000,0.000000,13.000000,,,,0.000000,2.000000,2.000000,0.000000,2.000000,2.000000,2.000000,1.000000,2.000000,4.000000,4.000000,4.000000,4.000000,2.000000,4.000000,25.000000,,,,,,,,,,,,,,,,,,,,,,,,,,,,
1732081516.287370,1732081516.289395,100.000000,0.000000,4360.897461,4299.743652,4289.743652,4302.948730,4270.256348,4269.487305,4284.358887,4279.102539,4267.692383,4267.820313,4391.025879,4428.846191,4305.897461,4398.077148,1738.000000,0.000000,13.000000,,,,0.000000,2.000000,2.000000,0.000000,2.000000,2.000000,2.000000,1.000000,2.000000,4.000000,4.000000,4.000000,4.000000,2.000000,4.000000,25.000000,,,,,,,,,,,,,,,,,25.000000,0.000000,0.629113,0.398499,-0.589355,0.313171,0.957636,0.122085,-0.018069,-75.305290,64.162674,28.056667
1732081516.295178,1732081516.297203,101.000000,0.000000,4358.461426,4299.871582,4288.974121,4300.769043,4287.692383,4267.692383,4284.230957,4276.410156,4263.974121,4266.025879,4392.436035,4426.410156,4306.538574,4394.358887,1681.000000,0.000000,13.000000,,,,0.000000,2.000000,2.000000,0.000000,2.000000,2.000000,2.000000,1.000000,2.000000,4.000000,4.000000,4.000000,4.000000,2.000000,4.000000,25.000000,,,,,,,,,,,,,,,,,,,,,,,,,,,,
1732081516.302987,1732081516.305211,102.000000,0.000000,4360.769043,4300.769043,4288.846191,4297.179688,4282.820313,4271.538574,4285.256348,4276.153809,4267.051270,4271.410156,4394.743652,4426.025879,4308.717773,4394.102539,1359.000000,0.000000,13.000000,,,,0.000000,2.000000,2.000000,0.000000,2.000000,2.000000,2.000000,1.000000,2.000000,4.000000,4.000000,4.000000,4.000000,2.000000,4.000000,25.000000,,,,,,,,,,,,,,,,,,,,,,,,,,,,
1732081516.310795,1732081516.313020,103.000000,0.000000,4358.077148,4297.307617,4290.256348,4297.436035,4264.871582,4276.922852,4286.282227,4279.487305,4270.641113,4279.358887,4396.794922,4432.051270,4310.384766,4394.102539,1506.000000,0.000000,13.000000,,,,0.000000,2.000000,2.000000,0.000000,2.000000,2.000000,2.000000,1.000000,2.000000,4.000000,4.000000,4.000000,4.000000,2.000000,4.000000,25.000000,,,,,,,,,,,,,,,,,,,,,,,,,,,,
1732081516.318603,1732081516.320928,104.000000,0.000000,4347.436035,4294.102539,4288.717773,4304.230957,4269.743652,4275.384766,4282.820313,4278.461426,4270.641113,4279.743652,4397.307617,4432.692383,4311.538574,4393.077148,1738.000000,0.000000,13.000000,,,,0.000000,2.000000,2.000000,0.000000,2.000000,2.000000,2.000000,1.000000,2.000000,4.000000,4.000000,4.000000,4.000000,2.000000,4.000000,25.000000,,,,,,,,,,,,,,,,,26.000000,0.000000,0.630126,0.398254,-0.587524,0.314880,0.972775,0.099133,0.000488,-75.207291,64.060097,28.004234
1732081516.326411,1732081516.328736,105.000000,0.000000,4344.102539,4298.077148,4285.641113,4304.871582,4277.948730,4276.666504,4282.563965,4277.307617,4274.358887,4278.589844,4397.307617,4427.179688,4313.461426,4394.102539,1681.000000,0.000000,13.000000,,,,0.000000,2.000000,2.000000,0.000000,2.000000,2.000000,2.000000,1.000000,2.000000,4.000000,4.000000,4.000000,4.000000,2.000000,4.000000,25.000000,,,,,,,,,,,,,,,,,,,,,,,,,,,,
1732081516.334220,1732081516.336344,106.000000,0.000000,4346.922852,4298.461426,4284.871582,4302.307617,4276.025879,4280.384766,4284.615234,4280.641113,4279.871582,4279.871582,4395.000000,4425.641113,4313.077148,4389.487305,1359.000000,0.000000,13.000000,,,,0.000000,2.000000,2.000000,0.000000,2.000000,2.000000,2.000000,1.000000,2.000000,4.000000,4.000000,4.000000,4.000000,2.000000,4.000000,25.000000,,,,,,,,,,,,,,,,,,,,,,,,,,,,
1732081516.342028,1732081516.344152,107.000000,0.000000,4342.820313,4293.717773,4285.897461,4302.307617,4286.282227,4272.820313,4281.282227,4281.666504,4276.410156,4278.333496,4386.153809,4423.974121,4307.948730,4381.282227,1506.000000,0.000000,13.000000,,,,0.000000,2.000000,2.000000,0.000000,2.000000,2.000000,2.000000,1.000000,2.000000,4.000000,4.000000,4.000000,4.000000,2.000000,4.000000,25.000000,,,,,,,,,,,,,,,,,,,,,,,,,,,,
1732081516.349836,1732081516.351861,108.000000,0.000000,4340.256348,4294.230957,4286.538574,4299.743652,4292.948730,4270.000000,4280.384766,4278.333496,4273.974121,4277.051270,4385.641113,4423.333496,4305.256348,4386.153809,1738.000000,0.000000,13.000000,,,,0.000000,2.000000,2.000000,0.000000,2.000000,2.000000,2.000000,1.000000,2.000000,4.000000,4.000000,4.000000,4.000000,2.000000,4.000000,25.000000,,,,,,,,,,,,,,,,,27.000000,0.000000,0.630643,0.397644,-0.587219,0.315186,0.975217,0.103528,0.013185,-75.326233,63.763680,28.225096
1732081516.357644,1732081516.359669,109.000000,0.000000,4346.025879,4296.922852,4290.000000,4299.102539,4275.512695,4280.256348,4284.487305,4279.102539,4274.871582,4280.897461,4396.794922,4433.077148,4309.743652,4398.717773,1681.000000,0.000000,13.000000,,,,0.000000,2.000000,2.000000,0.000000,2.000000,2.000000,2.000000,1.000000,2.000000,4.000000,4.000000,4.000000,4.000000,2.000000,4.000000,25.000000,,,,,,,,,,,,,,,,,,,,,,,,,,,,
1732081516.365452,1732081516.367277,110.000000,0.000000,4346.282227,4296.538574,4291.922852,4303.846191,4273.077148,4281.538574,4288.333496,4282.436035,4272.179688,4282.436035,4400.641113,4438.846191,4312.307617,4401.025879,1359.000000,0.000000,13.000000,,,,0.000000,2.000000,2.000000,0.000000,2.000000,2.000000,2.000000,1.000000,2.000000,4.000000,4.000000,4.000000,4.000000,2.000000,4.000000,25.000000,,,,,,,,,,,,,,,,,,,,,,,,,,,,
1732081516.373261,1732081516.375086,111.000000,0.000000,4341.282227,4294.230957,4290.000000,4304.102539,4292.051270,4277.820313,4288.461426,4282.179688,4273.461426,4281.025879,4395.641113,4433.077148,4309.102539,4394.230957,1506.000000,0.000000,13.000000,,,,0.000000,2.000000,2.000000,0.000000,2.000000,2.000000,2.000000,1.000000,2.000000,4.000000,4.000000,4.000000,4.000000,2.000000,4.000000,25.000000,,,,,,,,,,,,,,,,,,,,,,,,,,,,
1732081516.381069,1732081516.382794,112.000000,0.000000,4337.307617,4291.666504,4291.794922,4297.051270,4291.666504,4282.948730,4288.333496,4281.410156,4283.077148,4285.641113,4391.794922,4427.307617,4306.410156,4385.897461,1738.000000,0.000000,13.000000,,,,0.000000,2.000000,2.000000,0.000000,2.000000,2.000000,2.000000,1.000000,2.000000,4.000000,4.000000,4.000000,4.000000,2.000000,4.000000,25.000000,,,,,,,,,,,,,,,,,28.000000,0.000000,0.631820,0.395752,-0.587036,0.315552,0.985960,0.094250,0.023929,-75.420921,63.916912,28.418995
1732081516.388877,1732081516.390602,113.000000,0.000000,4336.410156,4291.153809,4291.794922,4295.769043,4277.563965,4282.051270,4281.025879,4281.794922,4287.307617,4293.974121,4391.025879,4430.000000,4306.410156,4385.512695,1681.000000,0.000000,13.000000,,,,0.000000,2.000000,2.000000,0.000000,2.000000,2.000000,2.000000,1.000000,2.000000,4.000000,4.000000,4.000000,4.000000,2.000000,4.000000,25.000000,,,,,,,,,,,,,,,,,,,,,,,,,,,,
1732081516.396685,1732081516.398211,114.000000,0.000000,4337.692383,4290.128418,4287.820313,4299.743652,4281.410156,4273.333496,4279.487305,4288.333496,4286.025879,4298.333496,4393.717773,4438.077148,4306.538574,4386.922852,1359.000000,0.000000,13.000000,,,,0.000000,2.000000,2.000000,0.000000,2.000000,2.000000,2.000000,1.000000,2.000000,4.000000,4.000000,4.000000,4.000000,2.000000,4.000000,25.000000,,,,,,,,,,,,,,,,,,,,,,,,,,,,
1732081516.404494,1732081516.406019,115.000000,0.000000,4338.205078,4290.128418,4286.922852,4302.179688,4287.307617,4276.538574,4284.615234,4293.974121,4290.000000,4296.794922,4395.000000,4439.102539,4307.692383,4383.461426,1506.000000,0.000000,13.000000,,,,0.000000,2.000000,2.000000,0.000000,2.000000,2.000000,2.000000,1.000000,2.000000,4.000000,4.000000,4.000000,4.000000,2.000000,4.000000,25.000000,,,,,,,,,,,,,,,,,,,,,,,,,,,,
1732081516.412302,1732081516.413727,116.000000,0.000000,4338.205078,4293.077148,4292.692383,4302.948730,4285.512695,4282.948730,4285.512695,4287.948730,4288.589844,4289.102539,4390.512695,4431.025879,4306.666504,4380.000000,1738.000000,0.000000,13.000000,,,,0.000000,2.000000,2.000000,0.000000,2.000000,2.000000,2.000000,1.000000,2.000000,4.000000,4.000000,4.000000,4.000000,2.000000,4.000000,25.000000,,,,,,,,,,,,,,,,,29.000000,0.000000,0.633674,0.392151,-0.587585,0.315308,0.965450,0.134782,0.015139,-75.362610,63.884365,28.407719
1732081516.420110,1732081516.421535,117.000000,0.000000,4339.871582,4293.077148,4292.948730,4304.743652,4298.589844,4280.384766,4281.025879,4280.512695,4280.256348,4281.538574,4385.256348,4424.102539,4303.461426,4376.666504,1681.000000,0.000000,13.000000,,,,0.000000,2.000000,2.000000,0.000000,2.000000,2.000000,2.000000,1.000000,2.000000,4.000000,4.000000,4.000000,4.000000,2.000000,4.000000,25.000000,,,,,,,,,,,,,,,,,,,,,,,,,,,,
1732081516.427919,1732081516.429144,118.000000,0.000000,4340.769043,4294.102539,4289.871582,4305.256348,4304.102539,4278.717773,4283.205078,4279.615234,4274.358887,4280.128418,4383.461426,4422.436035,4305.256348,4375.384766,1359.000000,0.000000,13.000000,,,,0.000000,2.000000,2.000000,0.000000,2.000000,2.000000,2.000000,1.000000,2.000000,4.000000,4.000000,4.000000,4.000000,2.000000,4.000000,25.000000,,,,,,,,,,,,,,,,,,,,,,,,,,,,
1732081516.435727,1732081516.436952,119.000000,0.000000,4338.461426,4295.641113,4291.025879,4301.025879,4284.871582,4282.563965,4287.563965,4280.256348,4275.641113,4286.282227,4388.461426,4422.820313,4309.487305,4377.051270,1506.000000,0.000000,13.000000,,,,0.000000,2.000000,2.000000,0.000000,2.000000,2.000000,2.000000,1.000000,2.000000,4.000000,4.000000,4.000000,4.000000,2.000000,4.000000,25.000000,,,,,,,,,,,,,,,,,,,,,,,,,,,,
1732081516.443535,1732081516.444660,120.000000,0.000000,4339.102539,4290.641113,4294.487305,4298.717773,4279.358887,4282.179688,4285.641113,4280.384766,4279.230957,4292.179688,4392.948730,4426.538574,4309.615234,4375.000000,1738.000000,0.000000,13.000000,,,,0.000000,2.000000,2.000000,0.000000,2.000000,2.000000,2.000000,1.000000,2.000000,4.000000,4.000000,4.000000,4.000000,2.000000,4.000000,25.000000,,,,,,,,,,,,,,,,,30.000000,0.000000,0.634206,0.391296,-0.587646,0.315186,0.958125,0.156269,0.005860,-75.553711,63.793003,28.538586
1732081516.451343,1732081516.452468,121.000000,0.000000,4340.512695,4288.461426,4292.307617,4302.948730,4296.153809,4279.230957,4281.282227,4281.410156,4280.128418,4292.179688,4392.563965,4430.641113,4309.871582,4369.871582,1681.000000,0.000000,13.000000,,,,0.000000,2.000000,2.000000,0.000000,2.000000,2.000000,2.000000,1.000000,2.000000,4.000000,4.000000,4.000000,4.000000,2.000000,4.000000,25.000000,,,,,,,,,,,,,,,,,,,,,,,,,,,,
1732081516.459152,1732081516.460077,122.000000,0.000000,4336.922852,4290.769043,4290.769043,4304.102539,4296.794922,4280.000000,4284.358887,4282.692383,4283.077148,4293.846191,4396.282227,4431.410156,4307.436035,4369.743652,1359.000000,0.000000,13.000000,,,,0.000000,2.000000,2.000000,0.000000,2.000000,2.000000,2.000000,1.000000,2.000000,4.000000,4.000000,4.000000,4.000000,2.000000,4.000000,25.000000,,,,,,,,,,,,,,,,,,,,,,,,,,,,
1732081516.466960,1732081516.467885,123.000000,0.000000,4333.461426,4288.589844,4290.000000,4298.717773,4290.769043,4281.666504,4286.666504,4285.641113,4283.333496,4295.641113,4396.282227,4431.025879,4300.897461,4370.769043,1506.000000,0.000000,13.000000,,,,0.000000,2.000000,2.000000,0.000000,2.000000,2.000000,2.000000,1.000000,2.000000,4.000000,4.000000,4.000000,4.000000,2.000000,4.000000,25.000000,,,,,,,,,,,,,,,,,,,,,,,,,,,,
1732081516.474768,1732081516.475593,124.000000,0.000000,4331.410156,4290.000000,4286.922852,4295.769043,4304.871582,4281.410156,4283.717773,4286.922852,4280.641113,4288.077148,4384.871582,4428.717773,4297.820313,4369.230957,1738.000000,0.000000,13.000000,,,,0.000000,2.000000,2.000000,0.000000,2.000000,2.000000,2.000000,1.000000,2.000000,4.000000,4.000000,4.000000,4.000000,2.000000,4.000000,25.000000,,,,,,,,,,,,,,,,,31.000000,0.000000,0.634311,0.391174,-0.587646,0.315125,0.958125,0.156269,0.005860,-75.663506,63.569000,28.719587
1732081516.482576,1732081516.483402,125.000000,0.000000,4335.897461,4295.897461,4288.205078,4302.948730,4307.948730,4279.487305,4284.358887,4287.820313,4280.128418,4283.717773,4380.641113,4428.717773,4298.333496,4368.974121,1681.000000,0.000000,13.000000,,,,0.000000,2.000000,2.000000,0.000000,2.000000,2.000000,2.000000,1.000000,2.000000,4.000000,4.000000,4.000000,4.000000,2.000000,4.000000,25.000000,,,,,,,,,,,,,,,,,,,,,,,,,,,,
1732081516.490384,1732081516.491410,126.000000,0.000000,4343.205078,4296.666504,4291.025879,4313.077148,4294.615234,4280.384766,4285.897461,4295.897461,4284.871582,4290.128418,4388.333496,4430.128418,4298.461426,4368.974121,1359.000000,0.000000,13.000000,,,,0.000000,2.000000,2.000000,0.000000,2.000000,2.000000,2.000000,1.000000,2.000000,4.000000,4.000000,4.000000,4.000000,2.000000,4.000000,25.000000,,,,,,,,,,,,,,,,,,,,,,,,,,,,
1732081516.498193,1732081516.499218,127.000000,0.000000,4342.948730,4295.384766,4292.948730,4311.153809,4295.000000,4286.538574,4285.897461,4296.153809,4285.384766,4287.692383,4388.717773,4428.333496,4298.589844,4368.205078,13.000000,0.000000,13.000000,,,,0.000000,2.000000,2.000000,0.000000,2.000000,2.000000,2.000000,1.000000,2.000000,4.000000,4.000000,4.000000,4.000000,2.000000,4.000000,25.000000,,,,,,,,,,,,,,,,,,,,,,,,,,,,
1732081516.506001,1732081516.507126,0.000000,0.000000,4336.666504,4294.102539,4294.743652,4304.615234,4303.077148,4292.436035,4285.641113,4284.230957,4279.358887,4276.153809,4384.230957,4428.461426,4297.820313,4366.538574,8.000000,0.000000,13.000000,,,,0.000000,2.000000,2.000000,0.000000,2.000000,2.000000,2.000000,1.000000,2.000000,4.000000,4.000000,4.000000,4.000000,2.000000,4.000000,25.000000,,,,,,,,,,,,,,,,,0.000000,0.000000,0.634141,0.392212,-0.586548,0.316223,0.972287,0.129899,0.020510,-75.850777,63.764221,28.937866
1732081516.513809,1732081516.514934,1.000000,0.000000,4334.743652,4290.897461,4293.717773,4307.307617,4297.307617,4291.666504,4287.179688,4281.025879,4278.461426,4277.692383,4384.487305,4434.487305,4297.563965,4366.922852,1287.000000,0.000000,13.000000,,,,0.000000,2.000000,2.000000,0.000000,2.000000,2.000000,2.000000,1.000000,2.000000,4.000000,4.000000,4.000000,4.000000,2.000000,4.000000,25.000000,,,,,,,,,,,,,,,,,,,,,,,,,,,,
1732081516.521618,1732081516.522942,2.000000,0.000000,4335.000000,4292.563965,4289.358887,4311.025879,4300.769043,4284.230957,4284.102539,4287.307617,4283.205078,4287.436035,4386.922852,4435.384766,4299.743652,4369.743652,1207.000000,0.000000,13.000000,,,,0.000000,2.000000,2.000000,0.000000,2.000000,2.000000,2.000000,1.000000,2.000000,4.000000,4.000000,4.000000,4.000000,2.000000,4.000000,25.000000,,,,,,,,,,,,,,,,,,,,,,,,,,,,
1732081516.529426,1732081516.530750,3.000000,0.000000,4329.871582,4292.563965,4289.487305,4304.743652,4313.333496,4282.051270,4283.077148,4289.358887,4286.794922,4286.410156,4385.256348,4427.563965,4297.051270,4363.717773,1169.000000,0.000000,13.000000,,,,0.000000,2.000000,2.000000,0.000000,2.000000,2.000000,2.000000,1.000000,2.000000,4.000000,4.000000,4.000000,4.000000,2.000000,4.000000,25.000000,,,,,,,,,,,,,,,,,,,,,,,,,,,,
1732081516.537234,1732081516.538658,4.000000,0.000000,4325.512695,4289.871582,4291.282227,4302.307617,4299.743652,4286.538574,4281.666504,4291.153809,4287.051270,4286.153809,4382.948730,4426.153809,4294.871582,4357.307617,1182.000000,0.000000,13.000000,,,,0.000000,2.000000,2.000000,0.000000,2.000000,2.000000,2.000000,1.000000,2.000000,4.000000,4.000000,4.000000,4.000000,2.000000,4.000000,25.000000,,,,,,,,,,,,,,,,,1.000000,0.000000,0.633876,0.392944,-0.585815,0.317200,0.975705,0.123550,0.022952,-75.619125,63.605686,28.981339
1732081516.545042,1732081516.546467,5.000000,0.000000,4325.256348,4293.717773,4291.666504,4306.153809,4286.410156,4288.333496,4284.230957,4295.256348,4288.846191,4294.358887,4386.153809,4430.256348,4300.384766,4359.487305,1075.000000,0.000000,13.000000,,,,0.000000,2.000000,2.000000,0.000000,2.000000,2.000000,2.000000,1.000000,2.000000,4.000000,4.000000,4.000000,4.000000,2.000000,4.000000,25.000000,,,,,,,,,,,,,,,,,,,,,,,,,,,,
1732081516.552851,1732081516.554075,6.000000,0.000000,4327.436035,4295.769043,4291.282227,4304.487305,4293.205078,4287.563965,4290.000000,4295.641113,4294.102539,4300.000000,4393.205078,4430.897461,4305.256348,4362.563965,220.000000,0.000000,13.000000,,,,0.000000,2.000000,2.000000,0.000000,2.000000,2.000000,2.000000,1.000000,2.000000,4.000000,4.000000,4.000000,4.000000,2.000000,4.000000,25.000000,,,,,,,,,,,,,,,,,,,,,,,,,,,,
1732081516.560659,1732081516.561883,7.000000,0.000000,4329.230957,4287.948730,4292.436035,4299.615234,4295.256348,4287.820313,4291.410156,4294.743652,4296.666504,4300.512695,4396.282227,4434.615234,4303.205078,4362.307617,1197.000000,0.000000,13.000000,,,,0.000000,2.000000,2.000000,0.000000,2.000000,2.000000,2.000000,1.000000,2.000000,4.000000,4.000000,4.000000,4.000000,2.000000,4.000000,25.000000,,,,,,,,,,,,,,,,,,,,,,,,,,,,
1732081516.568467,1732081516.569591,8.000000,0.000000,4327.436035,4285.512695,4291.666504,4297.436035,4299.487305,4286.410156,4287.436035,4295.641113,4293.205078,4298.077148,4392.692383,4435.384766,4299.871582,4361.025879,1347.000000,0.000000,13.000000,,,,0.000000,2.000000,2.000000,0.000000,2.000000,2.000000,2.000000,1.000000,2.000000,4.000000,4.000000,4.000000,4.000000,2.000000,4.000000,25.000000,,,,,,,,,,,,,,,,,2.000000,0.000000,0.633755,0.393250,-0.585510,0.317627,0.993285,0.104993,0.031254,-75.628159,63.775608,29.206551
1732081516.576275,1732081516.577399,9.000000,0.000000,4325.128418,4292.948730,4292.051270,4301.153809,4308.205078,4285.897461,4286.922852,4295.000000,4287.051270,4290.641113,4385.769043,4428.077148,4296.794922,4355.256348,1472.000000,0.000000,13.000000,,,,0.000000,2.000000,2.000000,0.000000,2.000000,2.000000,2.000000,1.000000,2.000000,4.000000,4.000000,4.000000,4.000000,2.000000,4.000000,25.000000,,,,,,,,,,,,,,,,,,,,,,,,,,,,
1732081516.584083,1732081516.585407,10.000000,0.000000,4326.538574,4295.641113,4293.589844,4306.666504,4299.743652,4292.307617,4291.153809,4295.512695,4288.846191,4286.794922,4383.333496,4425.384766,4293.077148,4353.461426,1356.000000,0.000000,13.000000,,,,0.000000,2.000000,2.000000,0.000000,2.000000,2.000000,2.000000,1.000000,2.000000,4.000000,4.000000,4.000000,4.000000,2.000000,4.000000,25.000000,,,,,,,,,,,,,,,,,,,,,,,,,,,,
1732081516.591892,1732081516.593215,11.000000,0.000000,4331.666504,4293.589844,4295.641113,4306.922852,4290.384766,4298.205078,4291.153809,4298.205078,4293.974121,4290.769043,4388.846191,4431.794922,4295.384766,4361.922852,1494.000000,0.000000,13.000000,,,,0.000000,2.000000,2.000000,0.000000,2.000000,2.000000,2.000000,1.000000,2.000000,4.000000,4.000000,4.000000,4.000000,2.000000,4.000000,25.000000,,,,,,,,,,,,,,,,,,,,,,,,,,,,
1732081516.599700,1732081516.601123,12.000000,0.000000,4331.282227,4295.384766,4294.358887,4302.179688,4299.102539,4296.538574,4287.820313,4297.563965,4291.922852,4289.102539,4387.563965,4432.307617,4298.589844,4362.436035,1723.000000,0.000000,13.000000,,,,0.000000,2.000000,2.000000,0.000000,2.000000,2.000000,2.000000,1.000000,2.000000,4.000000,4.000000,4.000000,4.000000,2.000000,4.000000,25.000000,,,,,,,,,,,,,,,,,3.000000,0.000000,0.633443,0.393738,-0.585022,0.318542,0.978147,0.115737,0.012697,-75.508812,63.786575,29.420639
1732081516.607508,1732081516.608931,13.000000,0.000000,4322.051270,4292.692383,4294.743652,4299.358887,4300.000000,4293.461426,4287.436035,4295.769043,4292.307617,4289.615234,4379.358887,4426.794922,4296.410156,4356.153809,1673.000000,0.000000,13.000000,,,,0.000000,2.000000,2.000000,0.000000,2.000000,2.000000,2.000000,1.000000,2.000000,4.000000,4.000000,4.000000,4.000000,2.000000,4.000000,25.000000,,,,,,,,,,,,,,,,,,,,,,,,,,,,
1732081516.615317,1732081516.616939,14.000000,0.000000,4314.102539,4283.717773,4294.102539,4295.384766,4291.410156,4296.538574,4292.820313,4296.794922,4296.025879,4297.179688,4381.794922,4429.615234,4297.820313,4360.769043,1356.000000,0.000000,13.000000,,,,0.000000,2.000000,2.000000,0.000000,2.000000,2.000000,2.000000,1.000000,2.000000,4.000000,4.000000,4.000000,4.000000,2.000000,4.000000,25.000000,1.000000,25.000000,2.000000,2.000000,0.000000,2.000000,2.000000,2.000000,1.000000,2.000000,3.000000,3.000000,4.000000,4.000000,2.000000,4.000000,,,,,,,,,,,,
1732081516.623125,1732081516.624748,15.000000,0.000000,4311.410156,4279.743652,4288.717773,4293.589844,4299.743652,4296.666504,4293.717773,4297.307617,4294.615234,4296.922852,4390.128418,4432.948730,4299.615234,4362.692383,1494.000000,0.000000,13.000000,,,,0.000000,2.000000,2.000000,0.000000,2.000000,2.000000,2.000000,1.000000,2.000000,4.000000,4.000000,4.000000,4.000000,2.000000,4.000000,25.000000,,,,,,,,,,,,,,,,,,,,,,,,,,,,
1732081516.630933,1732081516.632656,16.000000,0.000000,4309.230957,4283.589844,4287.436035,4296.538574,4307.692383,4285.641113,4290.128418,4296.794922,4292.051270,4292.692383,4394.102539,4429.102539,4298.589844,4358.717773,0.000000,0.000000,13.000000,,,,0.000000,2.000000,2.000000,0.000000,2.000000,2.000000,2.000000,1.000000,2.000000,4.000000,4.000000,4.000000,4.000000,2.000000,4.000000,25.000000,,,,,,,,,,,,,,,,,4.000000,0.000000,0.633440,0.393982,-0.584595,0.319031,0.967892,0.131364,0.005860,-75.647133,63.802124,29.345718
1732081516.638741,1732081516.640464,17.000000,0.000000,4310.000000,4287.436035,4288.846191,4299.871582,4294.871582,4283.846191,4289.102539,4295.769043,4294.358887,4295.128418,4397.563965,4427.563965,4303.717773,4363.333496,0.000000,0.000000,13.000000,,,,0.000000,2.000000,2.000000,0.000000,2.000000,2.000000,2.000000,1.000000,2.000000,4.000000,4.000000,4.000000,4.000000,2.000000,4.000000,25.000000,,,,,,,,,,,,,,,,,,,,,,,,,,,,
1732081516.646550,1732081516.648472,18.000000,0.000000,4312.948730,4287.179688,4290.000000,4298.717773,4284.102539,4294.871582,4294.230957,4298.205078,4295.512695,4294.487305,4394.871582,4429.358887,4303.974121,4362.692383,0.000000,0.000000,13.000000,,,,0.000000,2.000000,2.000000,0.000000,2.000000,2.000000,2.000000,1.000000,2.000000,4.000000,4.000000,4.000000,4.000000,2.000000,4.000000,25.000000,,,,,,,,,,,,,,,,,,,,,,,,,,,,
1732081516.654358,1732081516.656280,19.000000,0.000000,4311.282227,4285.000000,4291.153809,4296.153809,4287.436035,4298.589844,4296.794922,4300.384766,4294.230957,4291.282227,4387.948730,4423.974121,4294.358887,4352.820313,0.000000,0.000000,13.000000,,,,0.000000,2.000000,2.000000,0.000000,2.000000,2.000000,2.000000,1.000000,2.000000,4.000000,4.000000,4.000000,4.000000,2.000000,4.000000,25.000000,,,,,,,,,,,,,,,,,,,,,,,,,,,,
1732081516.662166,1732081516.664188,20.000000,0.000000,4306.025879,4281.666504,4292.436035,4291.282227,4300.000000,4295.256348,4295.641113,4300.384766,4294.358887,4295.512695,4390.000000,4418.205078,4293.589844,4353.461426,0.000000,0.000000,13.000000,,,,0.000000,2.000000,2.000000,0.000000,2.000000,2.000000,2.000000,1.000000,2.000000,4.000000,4.000000,4.000000,4.000000,2.000000,4.000000,25.000000,,,,,,,,,,,,,,,,,5.000000,0.000000,0.633484,0.394043,-0.584473,0.319092,0.979612,0.125504,0.015139,-75.859177,63.681389,29.618364
1732081516.669974,1732081516.671996,21.000000,0.000000,4308.589844,4283.589844,4292.051270,4291.410156,4306.538574,4296.666504,4292.436035,4301.922852,4294.743652,4298.974121,4394.871582,4421.794922,4298.205078,4358.974121,0.000000,0.000000,13.000000,,,,0.000000,2.000000,2.000000,0.000000,2.000000,2.000000,2.000000,1.000000,2.000000,4.000000,4.000000,4.000000,4.000000,2.000000,4.000000,25.000000,,,,,,,,,,,,,,,,,,,,,,,,,,,,
1732081516.677782,1732081516.679605,22.000000,0.000000,4313.717773,4287.692383,4293.589844,4298.333496,4296.922852,4296.410156,4294.487305,4302.820313,4294.487305,4294.615234,4391.666504,4426.794922,4294.743652,4355.897461,0.000000,0.000000,13.000000,,,,0.000000,2.000000,2.000000,0.000000,2.000000,2.000000,2.000000,1.000000,2.000000,4.000000,4.000000,4.000000,4.000000,2.000000,4.000000,25.000000,,,,,,,,,,,,,,,,,,,,,,,,,,,,
1732081516.685591,1732081516.687413,23.000000,0.000000,4311.538574,4284.487305,4292.436035,4299.102539,4285.769043,4293.077148,4296.538574,4300.641113,4294.743652,4293.717773,4389.230957,4426.922852,4293.077148,4354.230957,0.000000,0.000000,13.000000,,,,0.000000,2.000000,2.000000,0.000000,2.000000,2.000000,2.000000,1.000000,2.000000,4.000000,4.000000,4.000000,4.000000,2.000000,4.000000,25.000000,,,,,,,,,,,,,,,,,,,,,,,,,,,,
1732081516.693399,1732081516.695121,24.000000,0.000000,4304.615234,4278.974121,4290.512695,4292.307617,4291.922852,4295.384766,4296.025879,4302.563965,4298.461426,4298.333496,4390.128418,4425.769043,4294.743652,4355.384766,0.000000,0.000000,13.000000,,,,0.000000,2.000000,2.000000,0.000000,2.000000,2.000000,2.000000,1.000000,2.000000,4.000000,4.000000,4.000000,4.000000,2.000000,4.000000,25.000000,,,,,,,,,,,,,,,,,6.000000,0.000000,0.633479,0.394043,-0.584412,0.319214,0.974728,0.129410,0.021487,-75.904266,63.710258,29.645876
1732081516.701207,1732081516.702930,25.000000,0.000000,4299.871582,4278.846191,4289.743652,4287.948730,4299.358887,4296.922852,4294.615234,4308.589844,4303.333496,4301.025879,4389.487305,4425.641113,4292.307617,4351.666504,0.000000,0.000000,13.000000,,,,0.000000,2.000000,2.000000,0.000000,2.000000,2.000000,2.000000,1.000000,2.000000,4.000000,4.000000,4.000000,4.000000,2.000000,4.000000,25.000000,,,,,,,,,,,,,,,,,,,,,,,,,,,,
1732081516.709015,1732081516.710538,26.000000,0.000000,4298.974121,4280.000000,4291.025879,4287.307617,4290.512695,4295.128418,4295.256348,4307.820313,4302.692383,4302.436035,4391.666504,4431.538574,4294.615234,4349.102539,0.000000,0.000000,13.000000,,,,0.000000,2.000000,2.000000,0.000000,2.000000,2.000000,2.000000,1.000000,2.000000,4.000000,4.000000,4.000000,4.000000,2.000000,4.000000,25.000000,,,,,,,,,,,,,,,,,,,,,,,,,,,,
1732081516.716824,1732081516.718346,27.000000,0.000000,4298.333496,4277.820313,4292.692383,4288.589844,4288.846191,4295.128418,4296.410156,4305.256348,4303.846191,4307.820313,4396.153809,4437.820313,4297.307617,4350.897461,0.000000,0.000000,13.000000,,,,0.000000,2.000000,2.000000,0.000000,2.000000,2.000000,2.000000,1.000000,2.000000,4.000000,4.000000,4.000000,4.000000,2.000000,4.000000,25.000000,,,,,,,,,,,,,,,,,,,,,,,,,,,,
1732081516.724632,1732081516.726054,28.000000,0.000000,4296.666504,4276.410156,4293.205078,4287.820313,4301.666504,4296.410156,4296.410156,4306.666504,4305.384766,4306.538574,4395.128418,4434.487305,4293.461426,4352.051270,0.000000,0.000000,13.000000,,,,0.000000,2.000000,2.000000,0.000000,2.000000,2.000000,2.000000,1.000000,2.000000,4.000000,4.000000,4.000000,4.000000,2.000000,4.000000,25.000000,,,,,,,,,,,,,,,,,7.000000,0.000000,0.633456,0.394409,-0.584290,0.319031,0.969357,0.139665,0.014650,-75.875793,63.723640,29.761492
1732081516.732440,1732081516.733863,29.000000,0.000000,4295.769043,4275.641113,4291.025879,4284.871582,4302.436035,4295.641113,4298.333496,4306.538574,4301.025879,4300.512695,4390.769043,4428.205078,4290.384766,4349.743652,0.000000,0.000000,13.000000,,,,0.000000,2.000000,2.000000,0.000000,2.000000,2.000000,2.000000,1.000000,2.000000,4.000000,4.000000,4.000000,4.000000,2.000000,4.000000,25.000000,,,,,,,,,,,,,,,,,,,,,,,,,,,,
1732081516.740249,1732081516.741471,30.000000,0.000000,4297.051270,4278.077148,4291.025879,4286.282227,4289.487305,4295.897461,4299.487305,4306.025879,4298.077148,4299.871582,4388.589844,4427.563965,4291.666504,4350.256348,0.000000,0.000000,13.000000,,,,0.000000,2.000000,2.000000,0.000000,2.000000,2.000000,2.000000,1.000000,2.000000,4.000000,4.000000,4.000000,4.000000,2.000000,4.000000,25.000000,,,,,,,,,,,,,,,,,,,,,,,,,,,,
1732081516.748057,1732081516.749279,31.000000,0.000000,4301.922852,4280.384766,4294.230957,4293.333496,4285.897461,4296.794922,4300.641113,4306.922852,4301.666504,4301.794922,4387.948730,4431.282227,4295.641113,4354.358887,0.000000,0.000000,13.000000,,,,0.000000,2.000000,2.000000,0.000000,2.000000,2.000000,2.000000,1.000000,2.000000,4.000000,4.000000,4.000000,4.000000,2.000000,4.000000,25.000000,,,,,,,,,,,,,,,,,,,,,,,,,,,,
1732081516.755865,1732081516.756988,32.000000,0.000000,4304.230957,4279.358887,4295.641113,4296.153809,4301.410156,4295.384766,4299.230957,4307.179688,4304.230957,4303.077148,4389.102539,4433.846191,4297.436035,4356.666504,0.000000,0.000000,13.000000,,,,0.000000,2.000000,2.000000,0.000000,2.000000,2.000000,2.000000,1.000000,2.000000,4.000000,4.000000,4.000000,4.000000,2.000000,4.000000,25.000000,,,,,,,,,,,,,,,,,8.000000,0.000000,0.633150,0.395081,-0.584167,0.319031,0.980100,0.136247,0.016115,-76.177727,63.751152,29.743475
1732081516.763673,1732081516.764796,33.000000,0.000000,4302.948730,4281.282227,4295.128418,4298.589844,4307.179688,4295.512695,4298.717773,4306.153809,4305.769043,4304.102539,4390.641113,4431.794922,4298.846191,4356.794922,0.000000,0.000000,13.000000,,,,0.000000,2.000000,2.000000,0.000000,2.000000,2.000000,2.000000,1.000000,2.000000,4.000000,4.000000,4.000000,4.000000,2.000000,4.000000,25.000000,,,,,,,,,,,,,,,,,,,,,,,,,,,,
1732081516.771481,1732081516.772404,34.000000,0.000000,4303.333496,4284.102539,4293.077148,4304.743652,4299.871582,4296.794922,4295.897461,4308.974121,4308.589844,4302.307617,4387.563965,4428.333496,4297.563965,4355.128418,0.000000,0.000000,13.000000,,,,0.000000,2.000000,2.000000,0.000000,2.000000,2.000000,2.000000,1.000000,2.000000,4.000000,4.000000,4.000000,4.000000,2.000000,4.000000,25.000000,,,,,,,,,,,,,,,,,,,,,,,,,,,,
1732081516.779290,1732081516.780212,35.000000,0.000000,4301.922852,4281.410156,4293.333496,4305.128418,4304.615234,4294.615234,4292.436035,4312.179688,4307.563965,4299.358887,4382.179688,4427.436035,4295.641113,4352.563965,0.000000,0.000000,13.000000,,,,0.000000,2.000000,2.000000,0.000000,2.000000,2.000000,2.000000,1.000000,2.000000,4.000000,4.000000,4.000000,4.000000,2.000000,4.000000,25.000000,,,,,,,,,,,,,,,,,,,,,,,,,,,,
1732081516.787098,1732081516.787921,36.000000,0.000000,4302.051270,4278.846191,4293.974121,4301.794922,4307.563965,4290.641113,4291.410156,4311.410156,4306.794922,4302.563965,4385.769043,4427.436035,4300.512695,4353.589844,0.000000,0.000000,13.000000,,,,0.000000,2.000000,2.000000,0.000000,2.000000,2.000000,2.000000,1.000000,2.000000,4.000000,4.000000,4.000000,4.000000,2.000000,4.000000,25.000000,,,,,,,,,,,,,,,,,9.000000,0.000000,0.633150,0.395081,-0.584167,0.319031,0.969845,0.136735,0.011232,-76.527290,63.713432,29.758883
1732081516.794906,1732081516.795729,37.000000,0.000000,4302.820313,4279.743652,4293.077148,4302.820313,4294.615234,4294.230957,4297.307617,4310.128418,4310.384766,4306.666504,4392.692383,4425.384766,4304.487305,4354.230957,0.000000,0.000000,13.000000,,,,0.000000,2.000000,2.000000,0.000000,2.000000,2.000000,2.000000,1.000000,2.000000,4.000000,4.000000,4.000000,4.000000,2.000000,4.000000,25.000000,,,,,,,,,,,,,,,,,,,,,,,,,,,,
1732081516.802714,1732081516.803337,38.000000,0.000000,4298.589844,4279.487305,4290.897461,4304.102539,4290.256348,4302.436035,4299.743652,4309.743652,4308.717773,4304.743652,4389.487305,4423.461426,4301.922852,4352.948730,0.000000,0.000000,13.000000,,,,0.000000,2.000000,2.000000,0.000000,2.000000,2.000000,2.000000,1.000000,2.000000,4.000000,4.000000,4.000000,4.000000,2.000000,4.000000,25.000000,,,,,,,,,,,,,,,,,,,,,,,,,,,,
1732081516.810523,1732081516.811146,39.000000,0.000000,4293.846191,4278.717773,4295.128418,4300.384766,4301.666504,4302.179688,4296.922852,4303.333496,4301.538574,4300.000000,4382.563965,4421.794922,4298.077148,4353.461426,0.000000,0.000000,13.000000,,,,0.000000,2.000000,2.000000,0.000000,2.000000,2.000000,2.000000,1.000000,2.000000,4.000000,4.000000,4.000000,4.000000,2.000000,4.000000,25.000000,,,,,,,,,,,,,,,,,,,,,,,,,,,,
1732081516.818331,1732081516.818854,40.000000,0.000000,4294.871582,4280.384766,4295.897461,4298.077148,4299.743652,4295.641113,4295.897461,4296.025879,4301.282227,4298.717773,4383.205078,4420.769043,4301.794922,4356.538574,0.000000,0.000000,13.000000,,,,0.000000,2.000000,2.000000,0.000000,2.000000,2.000000,2.000000,1.000000,2.000000,4.000000,4.000000,4.000000,4.000000,2.000000,4.000000,25.000000,,,,,,,,,,,,,,,,,10.000000,0.000000,0.632230,0.396240,-0.584412,0.318970,0.968868,0.126480,-0.000977,-76.480438,63.876213,29.483028
1732081516.826139,1732081516.826662,41.000000,0.000000,4296.153809,4280.128418,4291.922852,4297.692383,4295.256348,4293.717773,4296.794922,4295.769043,4304.743652,4301.922852,4386.666504,4424.230957,4302.307617,4356.410156,0.000000,0.000000,13.000000,,,,0.000000,2.000000,2.000000,0.000000,2.000000,2.000000,2.000000,1.000000,2.000000,4.000000,4.000000,4.000000,4.000000,2.000000,4.000000,25.000000,,,,,,,,,,,,,,,,,,,,,,,,,,,,
1732081516.833948,1732081516.834271,42.000000,0.000000,4292.948730,4278.205078,4292.179688,4294.487305,4308.077148,4294.102539,4295.256348,4298.846191,4305.000000,4300.256348,4381.794922,4425.000000,4297.051270,4351.410156,0.000000,0.000000,13.000000,,,,0.000000,2.000000,2.000000,0.000000,2.000000,2.000000,2.000000,1.000000,2.000000,4.000000,4.000000,4.000000,4.000000,2.000000,4.000000,25.000000,,,,,,,,,,,,,,,,,,,,,,,,,,,,
1732081516.841756,1732081516.842079,43.000000,0.000000,4292.051270,4279.102539,4296.153809,4293.589844,4307.692383,4293.333496,4296.538574,4301.794922,4303.077148,4297.179688,4378.333496,4423.333496,4301.025879,4351.538574,0.000000,0.000000,13.000000,,,,0.000000,2.000000,2.000000,0.000000,2.000000,2.000000,2.000000,1.000000,2.000000,4.000000,4.000000,4.000000,4.000000,2.000000,4.000000,25.000000,,,,,,,,,,,,,,,,,,,,,,,,,,,,
1732081516.849564,1732081516.849787,44.000000,0.000000,4294.230957,4282.820313,4294.615234,4301.025879,4289.615234,4296.153809,4299.871582,4307.820313,4302.948730,4298.589844,4387.307617,4428.077148,4307.692383,4356.666504,0.000000,0.000000,13.000000,,,,0.000000,2.000000,2.000000,0.000000,2.000000,2.000000,2.000000,1.000000,2.000000,4.000000,4.000000,4.000000,4.000000,2.000000,4.000000,25.000000,,,,,,,,,,,,,,,,,11.000000,0.000000,0.631211,0.397339,-0.584534,0.319397,0.974240,0.130387,0.008790,-76.229156,63.996399,29.252918
1732081516.857372,1732081516.857595,45.000000,0.000000,4294.102539,4283.333496,4293.461426,4303.333496,4289.871582,4295.000000,4298.846191,4308.077148,4302.820313,4298.333496,4394.615234,4431.282227,4306.153809,4355.641113,0.000000,0.000000,13.000000,,,,0.000000,2.000000,2.000000,0.000000,2.000000,2.000000,2.000000,1.000000,2.000000,4.000000,4.000000,4.000000,4.000000,2.000000,4.000000,25.000000,,,,,,,,,,,,,,,,,,,,,,,,,,,,
1732081516.865181,1732081516.865603,46.000000,0.000000,4287.563965,4280.897461,4295.128418,4292.820313,4308.205078,4287.948730,4295.769043,4299.358887,4303.461426,4296.922852,4393.205078,4426.666504,4306.282227,4354.358887,0.000000,0.000000,13.000000,,,,0.000000,2.000000,2.000000,0.000000,2.000000,2.000000,2.000000,1.000000,2.000000,4.000000,4.000000,4.000000,4.000000,2.000000,4.000000,25.000000,,,,,,,,,,,,,,,,,,,,,,,,,,,,
1732081516.872989,1732081516.873411,47.000000,0.000000,4285.641113,4281.410156,4290.512695,4293.461426,4302.436035,4288.589844,4294.102539,4295.769043,4306.282227,4302.692383,4392.692383,4426.025879,4316.538574,4361.666504,0.000000,0.000000,13.000000,,,,0.000000,2.000000,2.000000,0.000000,2.000000,2.000000,2.000000,1.000000,2.000000,4.000000,4.000000,4.000000,4.000000,2.000000,4.000000,25.000000,,,,,,,,,,,,,,,,,,,,,,,,,,,,
1732081516.880797,1732081516.881120,48.000000,0.000000,4296.153809,4289.102539,4288.333496,4307.948730,4281.410156,4295.769043,4296.666504,4297.692383,4304.102539,4303.974121,4395.897461,4428.717773,4317.436035,4362.820313,0.000000,0.000000,13.000000,,,,0.000000,2.000000,2.000000,0.000000,2.000000,2.000000,2.000000,1.000000,2.000000,4.000000,4.000000,4.000000,4.000000,2.000000,4.000000,25.000000,,,,,,,,,,,,,,,,,12.000000,0.000000,0.630407,0.397888,-0.584961,0.319519,0.968380,0.108900,-0.007325,-76.145615,63.973751,29.408197
1732081516.888605,1732081516.888928,49.000000,0.000000,4298.717773,4292.436035,4292.948730,4310.769043,4286.666504,4297.692383,4296.922852,4297.948730,4299.743652,4297.179688,4393.717773,4424.615234,4308.846191,4354.230957,0.000000,0.000000,13.000000,,,,0.000000,2.000000,2.000000,0.000000,2.000000,2.000000,2.000000,1.000000,2.000000,4.000000,4.000000,4.000000,4.000000,2.000000,4.000000,25.000000,,,,,,,,,,,,,,,,,,,,,,,,,,,,
1732081516.896413,1732081516.896536,50.000000,0.000000,4289.358887,4288.974121,4296.025879,4302.820313,4304.358887,4295.256348,4298.077148,4296.410156,4299.230957,4292.820313,4385.769043,4417.692383,4308.846191,4351.922852,0.000000,0.000000,13.000000,,,,0.000000,2.000000,2.000000,0.000000,2.000000,2.000000,2.000000,1.000000,2.000000,4.000000,4.000000,4.000000,4.000000,2.000000,4.000000,25.000000,,,,,,,,,,,,,,,,,,,,,,,,,,,,
1732081516.904222,1732081516.904344,51.000000,0.000000,4286.794922,4288.461426,4292.307617,4301.922852,4299.487305,4293.077148,4298.717773,4298.077148,4300.128418,4295.897461,4387.436035,4420.641113,4317.563965,4358.589844,0.000000,0.000000,13.000000,,,,0.000000,2.000000,2.000000,0.000000,2.000000,2.000000,2.000000,1.000000,2.000000,4.000000,4.000000,4.000000,4.000000,2.000000,4.000000,25.000000,,,,,,,,,,,,,,,,,,,,,,,,,,,,
1732081516.912030,1732081516.912252,52.000000,0.000000,4293.205078,4290.000000,4292.307617,4304.358887,4282.948730,4291.922852,4298.589844,4298.846191,4300.897461,4298.846191,4398.846191,4433.077148,4325.384766,4366.922852,0.000000,0.000000,13.000000,,,,0.000000,2.000000,2.000000,0.000000,2.000000,2.000000,2.000000,1.000000,2.000000,4.000000,4.000000,4.000000,4.000000,2.000000,4.000000,25.000000,,,,,,,,,,,,,,,,,13.000000,0.000000,0.630142,0.397949,-0.585205,0.319519,0.968380,0.108900,-0.007325,-75.864616,63.915405,29.457308
1732081516.919838,1732081516.920060,53.000000,0.000000,4296.538574,4291.794922,4293.846191,4303.717773,4292.948730,4288.589844,4293.846191,4295.897461,4304.230957,4299.615234,4403.461426,4436.538574,4328.077148,4372.820313,0.000000,0.000000,13.000000,,,,0.000000,2.000000,2.000000,0.000000,2.000000,2.000000,2.000000,1.000000,2.000000,4.000000,4.000000,4.000000,4.000000,2.000000,4.000000,25.000000,,,,,,,,,,,,,,,,,,,,,,,,,,,,
1732081516.927647,1732081516.928068,54.000000,0.000000,4291.153809,4291.410156,4294.230957,4301.666504,4304.487305,4283.461426,4293.974121,4298.333496,4304.743652,4302.436035,4397.051270,4429.230957,4325.769043,4369.615234,0.000000,0.000000,13.000000,,,,0.000000,2.000000,2.000000,0.000000,2.000000,2.000000,2.000000,1.000000,2.000000,4.000000,4.000000,4.000000,4.000000,2.000000,4.000000,25.000000,,,,,,,,,,,,,,,,,,,,,,,,,,,,
1732081516.935455,1732081516.935876,55.000000,0.000000,4286.025879,4290.000000,4294.615234,4301.410156,4287.179688,4288.077148,4296.922852,4309.358887,4305.000000,4306.282227,4396.922852,4429.743652,4325.128418,4362.948730,0.000000,0.000000,13.000000,,,,0.000000,2.000000,2.000000,0.000000,2.000000,2.000000,2.000000,1.000000,2.000000,4.000000,4.000000,4.000000,4.000000,2.000000,4.000000,25.000000,,,,,,,,,,,,,,,,,,,,,,,,,,,,
1732081516.943263,1732081516.943784,56.000000,0.000000,4289.615234,4292.051270,4295.641113,4303.717773,4274.487305,4292.692383,4297.307617,4312.948730,4308.077148,4307.563965,4404.487305,4442.436035,4331.666504,4366.794922,0.000000,0.000000,13.000000,,,,0.000000,2.000000,2.000000,0.000000,2.000000,2.000000,2.000000,1.000000,2.000000,4.000000,4.000000,4.000000,4.000000,2.000000,4.000000,25.000000,,,,,,,,,,,,,,,,,14.000000,0.000000,0.629439,0.398376,-0.585571,0.319702,0.962031,0.140154,0.007813,-75.793671,63.909809,29.200418
1732081516.951071,1732081516.951592,57.000000,0.000000,4296.282227,4295.256348,4294.230957,4305.000000,4285.128418,4284.487305,4296.153809,4303.077148,4303.974121,4306.538574,4405.128418,4444.102539,4333.974121,4371.666504,0.000000,0.000000,13.000000,,,,0.000000,2.000000,2.000000,0.000000,2.000000,2.000000,2.000000,1.000000,2.000000,4.000000,4.000000,4.000000,4.000000,2.000000,4.000000,25.000000,,,,,,,,,,,,,,,,,,,,,,,,,,,,
1732081516.958880,1732081516.959600,58.000000,0.000000,4294.102539,4293.205078,4294.871582,4303.461426,4300.384766,4283.077148,4295.000000,4295.897461,4298.077148,4302.820313,4395.256348,4429.871582,4324.871582,4362.692383,0.000000,0.000000,13.000000,,,,0.000000,2.000000,2.000000,0.000000,2.000000,2.000000,2.000000,1.000000,2.000000,4.000000,4.000000,4.000000,4.000000,2.000000,4.000000,25.000000,,,,,,,,,,,,,,,,,,,,,,,,,,,,
1732081516.966688,1732081516.967409,59.000000,0.000000,4291.794922,4296.666504,4298.589844,4313.333496,4304.358887,4292.692383,4294.615234,4296.922852,4297.051270,4295.897461,4388.974121,4426.025879,4323.205078,4359.102539,0.000000,0.000000,13.000000,,,,0.000000,2.000000,2.000000,0.000000,2.000000,2.000000,2.000000,1.000000,2.000000,4.000000,4.000000,4.000000,4.000000,2.000000,4.000000,25.000000,,,,,,,,,,,,,,,,,,,,,,,,,,,,
1732081516.974496,1732081516.975317,60.000000,0.000000,4301.153809,4306.538574,4301.153809,4327.948730,4291.410156,4293.974121,4296.922852,4300.769043,4294.487305,4289.871582,4396.282227,4438.461426,4330.769043,4371.025879,0.000000,0.000000,13.000000,,,,0.000000,2.000000,2.000000,0.000000,2.000000,2.000000,2.000000,1.000000,2.000000,4.000000,4.000000,4.000000,4.000000,2.000000,4.000000,25.000000,,,,,,,,,,,,,,,,,15.000000,0.000000,0.629274,0.398499,-0.585632,0.319763,0.974728,0.116713,-0.009767,-75.997871,63.855282,29.142340
1732081516.982304,1732081516.983125,61.000000,0.000000,4310.384766,4308.846191,4302.051270,4326.922852,4283.333496,4295.128418,4301.922852,4305.641113,4293.974121,4288.205078,4399.615234,4445.769043,4323.205078,4373.461426,0.000000,0.000000,13.000000,,,,0.000000,2.000000,2.000000,0.000000,2.000000,2.000000,2.000000,1.000000,2.000000,4.000000,4.000000,4.000000,4.000000,2.000000,4.000000,25.000000,,,,,,,,,,,,,,,,,,,,,,,,,,,,
1732081516.990112,1732081516.991133,62.000000,0.000000,4311.922852,4311.153809,4302.692383,4325.512695,4294.743652,4296.153809,4302.436035,4307.436035,4298.333496,4289.358887,4400.641113,4444.743652,4316.538574,4369.871582,0.000000,0.000000,13.000000,,,,0.000000,2.000000,2.000000,0.000000,2.000000,2.000000,2.000000,1.000000,2.000000,4.000000,4.000000,4.000000,4.000000,2.000000,4.000000,25.000000,,,,,,,,,,,,,,,,,,,,,,,,,,,,
1732081516.997921,1732081516.998941,63.000000,0.000000,4312.692383,4314.871582,4303.461426,4331.282227,4293.974121,4282.820313,4300.128418,4307.692383,4299.102539,4295.512695,4411.922852,4451.666504,4334.871582,4380.000000,0.000000,0.000000,13.000000,,,,0.000000,2.000000,2.000000,0.000000,2.000000,2.000000,2.000000,1.000000,2.000000,4.000000,4.000000,4.000000,4.000000,2.000000,4.000000,25.000000,,,,,,,,,,,,,,,,,,,,,,,,,,,,
1732081517.005729,1732081517.006849,64.000000,0.000000,4312.307617,4308.077148,4301.538574,4325.256348,4272.179688,4280.641113,4298.846191,4307.051270,4301.282227,4304.358887,4416.666504,4453.974121,4345.512695,4387.051270,6.000000,0.000000,13.000000,,,,0.000000,2.000000,2.000000,0.000000,2.000000,2.000000,2.000000,1.000000,2.000000,4.000000,4.000000,4.000000,4.000000,2.000000,4.000000,25.000000,,,,,,,,,,,,,,,,,16.000000,0.000000,0.629248,0.398499,-0.585693,0.319702,0.974728,0.116713,-0.009767,-75.901611,63.994442,29.170294
1732081517.013537,1732081517.014658,65.000000,0.000000,4306.794922,4301.410156,4298.333496,4310.641113,4276.282227,4288.461426,4297.051270,4300.384766,4303.205078,4307.179688,4405.641113,4444.743652,4332.692383,4378.205078,1269.000000,0.000000,13.000000,,,,0.000000,2.000000,2.000000,0.000000,2.000000,2.000000,2.000000,1.000000,2.000000,4.000000,4.000000,4.000000,4.000000,2.000000,4.000000,25.000000,,,,,,,,,,,,,,,,,,,,,,,,,,,,
1732081517.021346,1732081517.022666,66.000000,0.000000,4302.179688,4303.589844,4296.922852,4308.077148,4295.641113,4283.077148,4291.794922,4295.512695,4298.589844,4302.820313,4398.333496,4441.666504,4325.769043,4370.897461,1207.000000,0.000000,13.000000,,,,0.000000,2.000000,2.000000,0.000000,2.000000,2.000000,2.000000,1.000000,2.000000,4.000000,4.000000,4.000000,4.000000,2.000000,4.000000,25.000000,,,,,,,,,,,,,,,,,,,,,,,,,,,,
1732081517.029154,1732081517.030474,67.000000,0.000000,4300.384766,4304.230957,4299.102539,4316.153809,4283.974121,4283.717773,4297.307617,4300.256348,4298.846191,4303.205078,4401.153809,4442.436035,4336.794922,4372.692383,1163.000000,0.000000,13.000000,,,,0.000000,2.000000,2.000000,0.000000,2.000000,2.000000,2.000000,1.000000,2.000000,4.000000,4.000000,4.000000,4.000000,2.000000,4.000000,25.000000,,,,,,,,,,,,,,,,,,,,,,,,,,,,
1732081517.036962,1732081517.038382,68.000000,0.000000,4299.487305,4305.000000,4299.230957,4321.025879,4268.333496,4297.563965,4305.000000,4302.948730,4302.436035,4307.436035,4397.820313,4437.948730,4342.563965,4370.256348,1180.000000,0.000000,13.000000,,,,0.000000,2.000000,2.000000,0.000000,2.000000,2.000000,2.000000,1.000000,2.000000,4.000000,4.000000,4.000000,4.000000,2.000000,4.000000,25.000000,,,,,,,,,,,,,,,,,17.000000,0.000000,0.628578,0.398682,-0.586121,0.320007,0.974728,0.108412,-0.016115,-75.910309,63.815498,28.939606
1732081517.044770,1732081517.046190,69.000000,0.000000,4297.692383,4305.384766,4300.128418,4320.256348,4279.615234,4304.358887,4304.743652,4307.820313,4301.153809,4302.563965,4389.615234,4434.615234,4333.205078,4358.461426,1075.000000,0.000000,13.000000,,,,0.000000,2.000000,2.000000,0.000000,2.000000,2.000000,2.000000,1.000000,2.000000,4.000000,4.000000,4.000000,4.000000,2.000000,4.000000,25.000000,,,,,,,,,,,,,,,,,,,,,,,,,,,,
1732081517.052579,1732081517.054198,70.000000,0.000000,4293.846191,4298.461426,4299.871582,4320.256348,4288.717773,4304.743652,4305.128418,4317.436035,4303.461426,4300.512695,4389.615234,4430.897461,4324.871582,4351.410156,213.000000,0.000000,13.000000,,,,0.000000,2.000000,2.000000,0.000000,2.000000,2.000000,2.000000,1.000000,2.000000,4.000000,4.000000,4.000000,4.000000,2.000000,4.000000,25.000000,,,,,,,,,,,,,,,,,,,,,,,,,,,,
1732081517.060387,1732081517.062006,71.000000,0.000000,4290.256348,4294.230957,4297.436035,4320.897461,4273.333496,4304.871582,4308.846191,4318.333496,4309.358887,4308.205078,4397.820313,4430.512695,4333.974121,4357.820313,1197.000000,0.000000,13.000000,,,,0.000000,2.000000,2.000000,0.000000,2.000000,2.000000,2.000000,1.000000,2.000000,4.000000,4.000000,4.000000,4.000000,2.000000,4.000000,25.000000,,,,,,,,,,,,,,,,,,,,,,,,,,,,
1732081517.068195,1732081517.069715,72.000000,0.000000,4288.974121,4293.846191,4295.641113,4315.512695,4275.000000,4297.563965,4301.666504,4312.179688,4309.230957,4311.410156,4400.128418,4434.615234,4342.692383,4361.794922,1334.000000,0.000000,13.000000,,,,0.000000,2.000000,2.000000,0.000000,2.000000,2.000000,2.000000,1.000000,2.000000,4.000000,4.000000,4.000000,4.000000,2.000000,4.000000,25.000000,,,,,,,,,,,,,,,,,18.000000,0.000000,0.628290,0.398254,-0.586853,0.319763,0.975217,0.129410,-0.008302,-75.837349,63.682220,28.787746
1732081517.076003,1732081517.077523,73.000000,0.000000,4292.692383,4288.589844,4296.922852,4309.358887,4288.846191,4296.922852,4296.922852,4311.153809,4309.615234,4310.256348,4395.897461,4431.410156,4335.000000,4354.743652,1464.000000,0.000000,13.000000,,,,0.000000,2.000000,2.000000,0.000000,2.000000,2.000000,2.000000,1.000000,2.000000,4.000000,4.000000,4.000000,4.000000,2.000000,4.000000,25.000000,,,,,,,,,,,,,,,,,,,,,,,,,,,,
1732081517.083811,1732081517.085131,74.000000,0.000000,4296.025879,4286.025879,4295.769043,4310.384766,4271.153809,4305.897461,4303.333496,4314.102539,4312.179688,4312.179688,4396.666504,4426.666504,4336.922852,4355.000000,1362.000000,0.000000,13.000000,,,,0.000000,2.000000,2.000000,0.000000,2.000000,2.000000,2.000000,1.000000,2.000000,4.000000,4.000000,4.000000,4.000000,2.000000,4.000000,25.000000,,,,,,,,,,,,,,,,,,,,,,,,,,,,
1732081517.091620,1732081517.092939,75.000000,0.000000,4290.384766,4285.769043,4294.615234,4311.794922,4256.410156,4304.743652,4303.205078,4312.051270,4309.871582,4313.717773,4401.025879,4435.000000,4348.333496,4363.974121,1492.000000,0.000000,13.000000,,,,0.000000,2.000000,2.000000,0.000000,2.000000,2.000000,2.000000,1.000000,2.000000,4.000000,4.000000,4.000000,4.000000,2.000000,4.000000,25.000000,,,,,,,,,,,,,,,,,,,,,,,,,,,,
1732081517.099428,1732081517.100648,76.000000,0.000000,4284.871582,4281.794922,4297.820313,4310.641113,4275.384766,4301.794922,4298.974121,4310.641113,4307.692383,4310.000000,4398.077148,4437.563965,4341.922852,4360.897461,1721.000000,0.000000,13.000000,,,,0.000000,2.000000,2.000000,0.000000,2.000000,2.000000,2.000000,1.000000,2.000000,4.000000,4.000000,4.000000,4.000000,2.000000,4.000000,25.000000,,,,,,,,,,,,,,,,,19.000000,0.000000,0.628290,0.398254,-0.586853,0.319763,0.971310,0.122085,0.001953,-75.853249,63.544266,28.739742
1732081517.107236,1732081517.108456,77.000000,0.000000,4288.846191,4282.179688,4297.948730,4310.897461,4284.358887,4307.051270,4302.692383,4315.641113,4314.743652,4310.897461,4395.256348,4429.230957,4333.974121,4355.000000,1670.000000,0.000000,13.000000,,,,0.000000,2.000000,2.000000,0.000000,2.000000,2.000000,2.000000,1.000000,2.000000,4.000000,4.000000,4.000000,4.000000,2.000000,4.000000,25.000000,,,,,,,,,,,,,,,,,,,,,,,,,,,,
1732081517.115044,1732081517.116064,78.000000,0.000000,4288.461426,4285.512695,4296.410156,4312.436035,4274.871582,4311.794922,4307.692383,4320.128418,4317.436035,4312.563965,4398.717773,4432.563965,4338.717773,4360.897461,1362.000000,0.000000,13.000000,,,,0.000000,2.000000,2.000000,0.000000,2.000000,2.000000,2.000000,1.000000,2.000000,4.000000,4.000000,4.000000,4.000000,2.000000,4.000000,25.000000,1.000000,25.000000,2.000000,2.000000,0.000000,2.000000,2.000000,2.000000,1.000000,2.000000,4.000000,3.000000,4.000000,4.000000,2.000000,4.000000,,,,,,,,,,,,
1732081517.122853,1732081517.123873,79.000000,0.000000,4279.102539,4282.179688,4298.589844,4312.436035,4287.051270,4310.641113,4305.384766,4317.692383,4308.717773,4308.333496,4396.538574,4434.102539,4336.538574,4356.025879,1492.000000,0.000000,13.000000,,,,0.000000,2.000000,2.000000,0.000000,2.000000,2.000000,2.000000,1.000000,2.000000,4.000000,4.000000,4.000000,4.000000,2.000000,4.000000,25.000000,,,,,,,,,,,,,,,,,,,,,,,,,,,,
1732081517.130661,1732081517.131581,80.000000,0.000000,4270.897461,4275.384766,4298.461426,4303.461426,4293.717773,4311.666504,4307.820313,4320.641113,4310.128418,4308.589844,4393.077148,4425.000000,4329.871582,4342.436035,1721.000000,0.000000,13.000000,,,,0.000000,2.000000,2.000000,0.000000,2.000000,2.000000,2.000000,1.000000,2.000000,4.000000,4.000000,4.000000,4.000000,2.000000,4.000000,25.000000,,,,,,,,,,,,,,,,,20.000000,0.000000,0.628259,0.398132,-0.587036,0.319641,0.984495,0.114272,-0.013185,-76.261131,63.440857,28.979191
1732081517.138469,1732081517.139389,81.000000,0.000000,4272.307617,4273.333496,4293.589844,4296.922852,4276.025879,4315.128418,4311.153809,4328.205078,4323.717773,4316.922852,4403.205078,4428.333496,4338.333496,4352.948730,1670.000000,0.000000,13.000000,,,,0.000000,2.000000,2.000000,0.000000,2.000000,2.000000,2.000000,1.000000,2.000000,4.000000,4.000000,4.000000,4.000000,2.000000,4.000000,25.000000,,,,,,,,,,,,,,,,,,,,,,,,,,,,
1732081517.146278,1732081517.146998,82.000000,0.000000,4282.692383,4278.974121,4293.461426,4304.615234,4271.153809,4312.820313,4311.410156,4324.230957,4322.051270,4320.128418,4413.333496,4440.512695,4343.974121,4370.769043,1362.000000,0.000000,13.000000,,,,0.000000,2.000000,2.000000,0.000000,2.000000,2.000000,2.000000,1.000000,2.000000,4.000000,4.000000,4.000000,4.000000,2.000000,4.000000,25.000000,,,,,,,,,,,,,,,,,,,,,,,,,,,,
1732081517.154086,1732081517.154806,83.000000,0.000000,4287.436035,4282.051270,4295.512695,4310.000000,4283.846191,4309.871582,4306.922852,4316.922852,4311.666504,4316.025879,4409.871582,4435.384766,4334.102539,4365.897461,1492.000000,0.000000,13.000000,,,,0.000000,2.000000,2.000000,0.000000,2.000000,2.000000,2.000000,1.000000,2.000000,4.000000,4.000000,4.000000,4.000000,2.000000,4.000000,25.000000,,,,,,,,,,,,,,,,,,,,,,,,,,,,
1732081517.161894,1732081517.162514,84.000000,0.000000,4278.717773,4271.922852,4294.230957,4303.077148,4281.666504,4310.641113,4306.410156,4318.461426,4319.230957,4319.102539,4405.128418,4426.153809,4328.589844,4355.000000,1721.000000,0.000000,13.000000,,,,0.000000,2.000000,2.000000,0.000000,2.000000,2.000000,2.000000,1.000000,2.000000,4.000000,4.000000,4.000000,4.000000,2.000000,4.000000,25.000000,,,,,,,,,,,,,,,,,21.000000,0.000000,0.627299,0.398254,-0.587280,0.320923,0.965450,0.111342,-0.019045,-76.283188,63.652092,28.819811
1732081517.169702,1732081517.170322,85.000000,0.000000,4276.282227,4266.922852,4291.666504,4301.282227,4271.025879,4314.102539,4308.077148,4323.589844,4329.487305,4325.384766,4404.743652,4430.128418,4332.179688,4352.948730,1670.000000,0.000000,13.000000,,,,0.000000,2.000000,2.000000,0.000000,2.000000,2.000000,2.000000,1.000000,2.000000,4.000000,4.000000,4.000000,4.000000,2.000000,4.000000,25.000000,,,,,,,,,,,,,,,,,,,,,,,,,,,,
1732081517.177510,1732081517.177931,86.000000,0.000000,4282.948730,4273.974121,4295.000000,4304.487305,4284.102539,4313.461426,4306.794922,4320.384766,4320.641113,4320.000000,4396.410156,4430.128418,4327.436035,4348.717773,1362.000000,0.000000,13.000000,,,,0.000000,2.000000,2.000000,0.000000,2.000000,2.000000,2.000000,1.000000,2.000000,4.000000,4.000000,4.000000,4.000000,2.000000,4.000000,25.000000,,,,,,,,,,,,,,,,,,,,,,,,,,,,
1732081517.185319,1732081517.185739,87.000000,0.000000,4284.230957,4277.051270,4299.230957,4304.102539,4298.589844,4310.512695,4303.589844,4310.256348,4307.820313,4309.615234,4388.461426,4427.051270,4317.692383,4347.307617,1492.000000,0.000000,13.000000,,,,0.000000,2.000000,2.000000,0.000000,2.000000,2.000000,2.000000,1.000000,2.000000,4.000000,4.000000,4.000000,4.000000,2.000000,4.000000,25.000000,,,,,,,,,,,,,,,,,,,,,,,,,,,,
1732081517.193127,1732081517.193447,88.000000,0.000000,4286.282227,4273.205078,4300.641113,4303.717773,4287.820313,4311.025879,4305.128418,4313.846191,4313.846191,4309.871582,4392.692383,4435.512695,4321.410156,4351.794922,1721.000000,0.000000,13.000000,,,,0.000000,2.000000,2.000000,0.000000,2.000000,2.000000,2.000000,1.000000,2.000000,4.000000,4.000000,4.000000,4.000000,2.000000,4.000000,25.000000,,,,,,,,,,,,,,,,,22.000000,0.000000,0.626791,0.398071,-0.587646,0.321472,0.951288,0.115737,-0.010255,-76.382713,63.601528,28.600714
1732081517.200935,1732081517.201255,89.000000,0.000000,4289.743652,4268.461426,4298.461426,4308.077148,4277.948730,4315.256348,4309.230957,4328.717773,4329.358887,4320.000000,4399.102539,4437.051270,4329.358887,4350.256348,1670.000000,0.000000,13.000000,,,,0.000000,2.000000,2.000000,0.000000,2.000000,2.000000,2.000000,1.000000,2.000000,4.000000,4.000000,4.000000,4.000000,2.000000,4.000000,25.000000,,,,,,,,,,,,,,,,,,,,,,,,,,,,
1732081517.208743,1732081517.209263,90.000000,0.000000,4286.153809,4268.974121,4297.948730,4312.820313,4291.282227,4320.000000,4308.589844,4328.077148,4322.820313,4316.410156,4393.461426,4422.948730,4320.512695,4343.333496,1362.000000,0.000000,13.000000,,,,0.000000,2.000000,2.000000,0.000000,2.000000,2.000000,2.000000,1.000000,2.000000,4.000000,4.000000,4.000000,4.000000,2.000000,4.000000,25.000000,,,,,,,,,,,,,,,,,,,,,,,,,,,,
1732081517.216552,1732081517.217072,91.000000,0.000000,4287.307617,4276.282227,4297.563965,4313.589844,4299.358887,4319.230957,4305.769043,4317.563965,4308.077148,4305.512695,4387.820313,4420.000000,4313.461426,4344.615234,1492.000000,0.000000,13.000000,,,,0.000000,2.000000,2.000000,0.000000,2.000000,2.000000,2.000000,1.000000,2.000000,4.000000,4.000000,4.000000,4.000000,2.000000,4.000000,25.000000,,,,,,,,,,,,,,,,,,,,,,,,,,,,
1732081517.224360,1732081517.224780,92.000000,0.000000,4297.436035,4281.282227,4297.179688,4313.974121,4286.538574,4314.230957,4305.256348,4316.410156,4312.179688,4311.410156,4395.256348,4432.563965,4321.794922,4351.538574,1721.000000,0.000000,13.000000,,,,0.000000,2.000000,2.000000,0.000000,2.000000,2.000000,2.000000,1.000000,2.000000,4.000000,4.000000,4.000000,4.000000,2.000000,4.000000,25.000000,,,,,,,,,,,,,,,,,23.000000,0.000000,0.626660,0.397949,-0.587769,0.321655,0.974728,0.101575,-0.002930,-76.439995,63.458904,28.633245
1732081517.232168,1732081517.232588,93.000000,0.000000,4298.974121,4278.461426,4297.307617,4312.948730,4286.538574,4311.538574,4303.077148,4317.436035,4320.384766,4318.717773,4399.230957,4436.666504,4324.230957,4349.230957,1670.000000,0.000000,13.000000,,,,0.000000,2.000000,2.000000,0.000000,2.000000,2.000000,2.000000,1.000000,2.000000,4.000000,4.000000,4.000000,4.000000,2.000000,4.000000,25.000000,,,,,,,,,,,,,,,,,,,,,,,,,,,,
1732081517.239977,1732081517.240596,94.000000,0.000000,4293.205078,4278.205078,4298.077148,4312.436035,4304.102539,4311.282227,4299.358887,4316.025879,4318.589844,4313.974121,4395.128418,4431.666504,4318.846191,4345.512695,1362.000000,0.000000,13.000000,,,,0.000000,2.000000,2.000000,0.000000,2.000000,2.000000,2.000000,1.000000,2.000000,4.000000,4.000000,4.000000,4.000000,2.000000,4.000000,25.000000,,,,,,,,,,,,,,,,,,,,,,,,,,,,
1732081517.247785,1732081517.248404,95.000000,0.000000,4296.025879,4281.922852,4301.282227,4313.974121,4306.410156,4311.025879,4298.461426,4315.897461,4318.205078,4311.538574,4396.666504,4428.589844,4320.769043,4350.769043,1492.000000,0.000000,13.000000,,,,0.000000,2.000000,2.000000,0.000000,2.000000,2.000000,2.000000,1.000000,2.000000,4.000000,4.000000,4.000000,4.000000,2.000000,4.000000,25.000000,,,,,,,,,,,,,,,,,,,,,,,,,,,,
1732081517.255593,1732081517.256113,96.000000,0.000000,4300.256348,4282.307617,4301.538574,4312.948730,4289.358887,4314.487305,4298.717773,4317.948730,4320.256348,4316.153809,4401.666504,4431.666504,4324.487305,4355.256348,1721.000000,0.000000,13.000000,,,,0.000000,2.000000,2.000000,0.000000,2.000000,2.000000,2.000000,1.000000,2.000000,4.000000,4.000000,4.000000,4.000000,2.000000,4.000000,25.000000,,,,,,,,,,,,,,,,,24.000000,0.000000,0.626445,0.397583,-0.588379,0.321411,0.973263,0.125992,-0.008790,-76.243065,63.361713,28.862928
1732081517.263401,1732081517.263921,97.000000,0.000000,4296.922852,4280.128418,4298.846191,4311.153809,4289.102539,4320.769043,4301.666504,4325.256348,4320.128418,4315.512695,4401.538574,4436.410156,4319.487305,4352.051270,1670.000000,0.000000,13.000000,,,,0.000000,2.000000,2.000000,0.000000,2.000000,2.000000,2.000000,1.000000,2.000000,4.000000,4.000000,4.000000,4.000000,2.000000,4.000000,25.000000,,,,,,,,,,,,,,,,,,,,,,,,,,,,
1732081517.271210,1732081517.271529,98.000000,0.000000,4297.436035,4285.128418,4299.358887,4316.922852,4300.512695,4318.846191,4300.512695,4327.948730,4320.128418,4315.512695,4404.102539,4437.948730,4319.230957,4352.692383,1362.000000,0.000000,13.000000,,,,0.000000,2.000000,2.000000,0.000000,2.000000,2.000000,2.000000,1.000000,2.000000,4.000000,4.000000,4.000000,4.000000,2.000000,4.000000,25.000000,,,,,,,,,,,,,,,,,,,,,,,,,,,,
1732081517.279018,1732081517.279337,99.000000,0.000000,4305.128418,4292.563965,4302.692383,4326.153809,4299.102539,4314.102539,4297.563965,4319.871582,4318.846191,4318.333496,4408.846191,4435.641113,4324.615234,4358.846191,1492.000000,0.000000,13.000000,,,,0.000000,2.000000,2.000000,0.000000,2.000000,2.000000,2.000000,1.000000,2.000000,4.000000,4.000000,4.000000,4.000000,2.000000,4.000000,25.000000,,,,,,,,,,,,,,,,,,,,,,,,,,,,
1732081517.286826,1732081517.287245,100.000000,0.000000,4305.512695,4293.077148,4299.871582,4323.974121,4307.948730,4316.794922,4297.307617,4320.000000,4320.256348,4316.666504,4407.307617,4430.512695,4323.717773,4357.307617,1721.000000,0.000000,13.000000,,,,0.000000,2.000000,2.000000,0.000000,2.000000,2.000000,2.000000,1.000000,2.000000,4.000000,4.000000,4.000000,4.000000,2.000000,4.000000,25.000000,,,,,,,,,,,,,,,,,25.000000,0.000000,0.626145,0.396790,-0.589233,0.321411,0.972287,0.105970,-0.012697,-76.136879,63.097988,29.053972
1732081517.294634,1732081517.295053,101.000000,0.000000,4301.794922,4293.717773,4298.461426,4320.256348,4314.230957,4320.128418,4299.358887,4327.436035,4322.820313,4315.384766,4405.384766,4430.000000,4322.948730,4354.358887,1670.000000,0.000000,13.000000,,,,0.000000,2.000000,2.000000,0.000000,2.000000,2.000000,2.000000,1.000000,2.000000,4.000000,4.000000,4.000000,4.000000,2.000000,4.000000,25.000000,,,,,,,,,,,,,,,,,,,,,,,,,,,,
1732081517.302442,1732081517.303061,102.000000,0.000000,4306.666504,4296.153809,4301.153809,4322.563965,4298.077148,4322.436035,4296.025879,4326.666504,4322.563965,4318.846191,4410.512695,4435.128418,4327.948730,4362.179688,1362.000000,0.000000,13.000000,,,,0.000000,2.000000,2.000000,0.000000,2.000000,2.000000,2.000000,1.000000,2.000000,4.000000,4.000000,4.000000,4.000000,2.000000,4.000000,25.000000,,,,,,,,,,,,,,,,,,,,,,,,,,,,
1732081517.310251,1732081517.310870,103.000000,0.000000,4308.333496,4293.333496,4301.025879,4319.358887,4296.153809,4323.974121,4295.897461,4325.128418,4323.333496,4321.666504,4414.358887,4438.589844,4329.615234,4369.871582,1492.000000,0.000000,13.000000,,,,0.000000,2.000000,2.000000,0.000000,2.000000,2.000000,2.000000,1.000000,2.000000,4.000000,4.000000,4.000000,4.000000,2.000000,4.000000,25.000000,,,,,,,,,,,,,,,,,,,,,,,,,,,,
1732081517.318059,1732081517.318778,104.000000,0.000000,4304.615234,4293.077148,4297.948730,4315.897461,4307.820313,4317.051270,4297.820313,4327.051270,4326.153809,4324.230957,4413.461426,4438.717773,4325.769043,4367.820313,1721.000000,0.000000,13.000000,,,,0.000000,2.000000,2.000000,0.000000,2.000000,2.000000,2.000000,1.000000,2.000000,4.000000,4.000000,4.000000,4.000000,2.000000,4.000000,25.000000,,,,,,,,,,,,,,,,,26.000000,0.000000,0.626159,0.396362,-0.589539,0.321350,0.972287,0.105970,-0.012697,-76.110878,62.794369,29.328718
1732081517.325867,1732081517.326586,105.000000,0.000000,4304.743652,4298.717773,4300.256348,4320.000000,4300.128418,4307.948730,4293.333496,4321.025879,4325.000000,4324.615234,4413.717773,4438.205078,4325.769043,4365.384766,1670.000000,0.000000,13.000000,,,,0.000000,2.000000,2.000000,0.000000,2.000000,2.000000,2.000000,1.000000,2.000000,4.000000,4.000000,4.000000,4.000000,2.000000,4.000000,25.000000,,,,,,,,,,,,,,,,,,,,,,,,,,,,
1732081517.333676,1732081517.334594,106.000000,0.000000,4306.538574,4298.205078,4302.948730,4325.000000,4303.846191,4311.282227,4291.282227,4318.589844,4321.153809,4320.256348,4413.589844,4437.051270,4326.666504,4365.512695,1362.000000,0.000000,13.000000,,,,0.000000,2.000000,2.000000,0.000000,2.000000,2.000000,2.000000,1.000000,2.000000,4.000000,4.000000,4.000000,4.000000,2.000000,4.000000,25.000000,,,,,,,,,,,,,,,,,,,,,,,,,,,,
1732081517.341484,1732081517.342402,107.000000,0.000000,4310.000000,4300.641113,4304.487305,4327.563965,4321.794922,4313.333496,4292.179688,4324.487305,4321.794922,4321.410156,4417.436035,4439.358887,4331.025879,4370.256348,1492.000000,0.000000,13.000000,,,,0.000000,2.000000,2.000000,0.000000,2.000000,2.000000,2.000000,1.000000,2.000000,4.000000,4.000000,4.000000,4.000000,2.000000,4.000000,25.000000,,,,,,,,,,,,,,,,,,,,,,,,,,,,
1732081517.349292,1732081517.350310,108.000000,0.000000,4314.487305,4307.307617,4305.512695,4328.846191,4308.077148,4308.205078,4292.436035,4323.974121,4326.025879,4328.589844,4422.563965,4445.641113,4338.589844,4377.179688,1721.000000,0.000000,13.000000,,,,0.000000,2.000000,2.000000,0.000000,2.000000,2.000000,2.000000,1.000000,2.000000,4.000000,4.000000,4.000000,4.000000,2.000000,4.000000,25.000000,,,,,,,,,,,,,,,,,27.000000,0.000000,0.625655,0.395813,-0.590210,0.321777,0.988402,0.106458,-0.010255,-76.343140,62.643440,29.234594
1732081517.357100,1732081517.358118,109.000000,0.000000,4311.922852,4303.205078,4302.436035,4326.794922,4293.974121,4314.102539,4293.846191,4327.692383,4328.717773,4323.846191,4418.589844,4443.589844,4333.589844,4372.307617,1670.000000,0.000000,13.000000,,,,0.000000,2.000000,2.000000,0.000000,2.000000,2.000000,2.000000,1.000000,2.000000,4.000000,4.000000,4.000000,4.000000,2.000000,4.000000,25.000000,,,,,,,,,,,,,,,,,,,,,,,,,,,,
1732081517.364909,1732081517.366126,110.000000,0.000000,4305.256348,4300.512695,4298.461426,4322.179688,4303.717773,4322.820313,4294.871582,4335.128418,4327.307617,4318.974121,4412.179688,4440.897461,4327.692383,4365.641113,1362.000000,0.000000,13.000000,,,,0.000000,2.000000,2.000000,0.000000,2.000000,2.000000,2.000000,1.000000,2.000000,4.000000,4.000000,4.000000,4.000000,2.000000,4.000000,25.000000,,,,,,,,,,,,,,,,,,,,,,,,,,,,
1732081517.372717,1732081517.373935,111.000000,0.000000,4307.307617,4308.205078,4300.512695,4323.589844,4313.461426,4311.794922,4288.461426,4331.153809,4326.282227,4325.256348,4412.948730,4443.974121,4330.769043,4368.974121,1492.000000,0.000000,13.000000,,,,0.000000,2.000000,2.000000,0.000000,2.000000,2.000000,2.000000,1.000000,2.000000,4.000000,4.000000,4.000000,4.000000,2.000000,4.000000,25.000000,,,,,,,,,,,,,,,,,,,,,,,,,,,,
1732081517.380525,1732081517.381843,112.000000,0.000000,4311.794922,4312.307617,4304.743652,4327.436035,4316.666504,4296.538574,4286.282227,4323.717773,4324.230957,4323.077148,4414.871582,4446.410156,4331.666504,4371.410156,1721.000000,0.000000,13.000000,,,,0.000000,2.000000,2.000000,0.000000,2.000000,2.000000,2.000000,1.000000,2.000000,4.000000,4.000000,4.000000,4.000000,2.000000,4.000000,25.000000,,,,,,,,,,,,,,,,,28.000000,0.000000,0.625281,0.395020,-0.590637,0.322693,0.984495,0.107923,0.000000,-76.594612,62.449520,29.146688
1732081517.388333,1732081517.389651,113.000000,0.000000,4315.897461,4311.538574,4303.846191,4329.743652,4313.333496,4302.948730,4286.666504,4320.384766,4319.871582,4315.641113,4411.538574,4448.717773,4332.179688,4371.025879,1670.000000,0.000000,13.000000,,,,0.000000,2.000000,2.000000,0.000000,2.000000,2.000000,2.000000,1.000000,2.000000,4.000000,4.000000,4.000000,4.000000,2.000000,4.000000,25.000000,,,,,,,,,,,,,,,,,,,,,,,,,,,,
1732081517.396141,1732081517.397659,114.000000,0.000000,4317.820313,4316.153809,4302.436035,4332.179688,4308.717773,4312.307617,4287.179688,4318.589844,4319.358887,4318.846191,4415.512695,4455.256348,4339.487305,4376.025879,1362.000000,0.000000,13.000000,,,,0.000000,2.000000,2.000000,0.000000,2.000000,2.000000,2.000000,1.000000,2.000000,4.000000,4.000000,4.000000,4.000000,2.000000,4.000000,25.000000,,,,,,,,,,,,,,,,,,,,,,,,,,,,
1732081517.403950,1732081517.405467,115.000000,0.000000,4312.051270,4317.563965,4302.436035,4330.641113,4315.512695,4309.743652,4288.589844,4320.769043,4325.000000,4323.205078,4420.769043,4457.179688,4341.282227,4375.769043,1492.000000,0.000000,13.000000,,,,0.000000,2.000000,2.000000,0.000000,2.000000,2.000000,2.000000,1.000000,2.000000,4.000000,4.000000,4.000000,4.000000,2.000000,4.000000,25.000000,,,,,,,,,,,,,,,,,,,,,,,,,,,,
1732081517.411758,1732081517.413375,116.000000,0.000000,4306.153809,4312.563965,4303.589844,4324.230957,4321.025879,4310.384766,4290.128418,4327.692383,4326.922852,4319.743652,4417.692383,4452.820313,4339.230957,4367.436035,1721.000000,0.000000,13.000000,,,,0.000000,2.000000,2.000000,0.000000,2.000000,2.000000,2.000000,1.000000,2.000000,4.000000,4.000000,4.000000,4.000000,2.000000,4.000000,25.000000,,,,,,,,,,,,,,,,,29.000000,0.000000,0.625219,0.394470,-0.591003,0.322815,0.974240,0.102552,-0.007813,-76.564972,62.442444,29.067150
1732081517.419566,1732081517.421183,117.000000,0.000000,4310.512695,4312.051270,4302.692383,4321.666504,4315.769043,4313.974121,4288.205078,4333.205078,4328.333496,4321.922852,4420.256348,4453.461426,4347.692383,4372.436035,1670.000000,0.000000,13.000000,,,,0.000000,2.000000,2.000000,0.000000,2.000000,2.000000,2.000000,1.000000,2.000000,4.000000,4.000000,4.000000,4.000000,2.000000,4.000000,25.000000,,,,,,,,,,,,,,,,,,,,,,,,,,,,
1732081517.427374,1732081517.429191,118.000000,0.000000,4312.563965,4310.128418,4301.410156,4322.692383,4323.205078,4312.051270,4288.717773,4334.615234,4332.948730,4325.384766,4421.794922,4455.384766,4349.871582,4381.410156,1362.000000,0.000000,13.000000,,,,0.000000,2.000000,2.000000,0.000000,2.000000,2.000000,2.000000,1.000000,2.000000,4.000000,4.000000,4.000000,4.000000,2.000000,4.000000,25.000000,,,,,,,,,,,,,,,,,,,,,,,,,,,,
1732081517.435183,1732081517.437000,119.000000,0.000000,4311.794922,4312.563965,4300.384766,4327.179688,4327.179688,4310.000000,4286.922852,4326.666504,4327.307617,4322.051270,4418.077148,4453.333496,4345.000000,4381.153809,1492.000000,0.000000,13.000000,,,,0.000000,2.000000,2.000000,0.000000,2.000000,2.000000,2.000000,1.000000,2.000000,4.000000,4.000000,4.000000,4.000000,2.000000,4.000000,25.000000,,,,,,,,,,,,,,,,,,,,,,,,,,,,
1732081517.442991,1732081517.444708,120.000000,0.000000,4314.871582,4314.487305,4301.282227,4329.871582,4312.948730,4310.641113,4283.974121,4324.230957,4320.384766,4327.820313,4422.563965,4452.692383,4350.384766,4378.589844,1721.000000,0.000000,13.000000,,,,0.000000,2.000000,2.000000,0.000000,2.000000,2.000000,2.000000,1.000000,2.000000,4.000000,4.000000,4.000000,4.000000,2.000000,4.000000,25.000000,,,,,,,,,,,,,,,,,30.000000,0.000000,0.625226,0.394226,-0.591125,0.322876,0.972287,0.110853,-0.020999,-76.774292,62.453381,29.086060
1732081517.450799,1732081517.452516,121.000000,0.000000,4314.230957,4304.358887,4301.282227,4327.692383,4308.717773,4310.256348,4288.077148,4338.333496,4328.974121,4337.051270,4432.692383,4454.743652,4357.179688,4378.589844,1670.000000,0.000000,13.000000,,,,0.000000,2.000000,2.000000,0.000000,2.000000,2.000000,2.000000,1.000000,2.000000,4.000000,4.000000,4.000000,4.000000,2.000000,4.000000,25.000000,,,,,,,,,,,,,,,,,,,,,,,,,,,,
