title:three3, start timestamp:1732083053.930592, stop timestamp:1732083107.682690, headset type:EPOCX, headset serial:E5020C3A, headset firmware:730, channels:67, sampling rate:eeg_128;mot_32, samples:6885      , version:2.2, 
Timestamp,OriginalTimestamp,EEG.Counter,EEG.Interpolated,EEG.AF3,EEG.F7,EEG.F3,EEG.FC5,EEG.T7,EEG.P7,EEG.O1,EEG.O2,EEG.P8,EEG.T8,EEG.FC6,EEG.F4,EEG.F8,EEG.AF4,EEG.RawCq,EEG.Battery,EEG.BatteryPercent,MarkerIndex,MarkerType,MarkerValueInt,EEG.MarkerHardware,CQ.AF3,CQ.F7,CQ.F3,CQ.FC5,CQ.T7,CQ.P7,CQ.O1,CQ.O2,CQ.P8,CQ.T8,CQ.FC6,CQ.F4,CQ.F8,CQ.AF4,CQ.Overall,EQ.SampleRateQuality,EQ.OVERALL,EQ.AF3,EQ.F7,EQ.F3,EQ.FC5,EQ.T7,EQ.P7,EQ.O1,EQ.O2,EQ.P8,EQ.T8,EQ.FC6,EQ.F4,EQ.F8,EQ.AF4,MOT.CounterMems,MOT.InterpolatedMems,MOT.Q0,MOT.Q1,MOT.Q2,MOT.Q3,MOT.AccX,MOT.AccY,MOT.AccZ,MOT.MagX,MOT.MagY,MOT.MagZ
1732083053.930592,1732083053.932233,33.000000,0.000000,4320.512695,4330.256348,4322.051270,4331.538574,4308.846191,4311.666504,4358.846191,4321.666504,4307.179688,4293.974121,4445.384766,4473.717773,4332.948730,4398.717773,0.000000,0.000000,7.000000,,,,0.000000,2.000000,2.000000,0.000000,2.000000,2.000000,2.000000,0.000000,2.000000,4.000000,4.000000,4.000000,4.000000,2.000000,4.000000,16.666666,,,,,,,,,,,,,,,,,,,,,,,,,,,,
1732083053.938400,1732083053.939842,34.000000,0.000000,4323.077148,4325.897461,4321.025879,4332.563965,4306.153809,4308.974121,4360.769043,4318.717773,4305.000000,4295.384766,4446.410156,4474.102539,4334.487305,4398.333496,0.000000,0.000000,7.000000,,,,0.000000,2.000000,2.000000,0.000000,2.000000,2.000000,2.000000,0.000000,2.000000,4.000000,4.000000,4.000000,4.000000,2.000000,4.000000,16.666666,,,,,,,,,,,,,,,,,,,,,,,,,,,,
1732083053.946208,1732083053.947650,35.000000,0.000000,4323.077148,4325.769043,4319.487305,4331.282227,4303.846191,4311.025879,4362.436035,4322.051270,4304.871582,4298.846191,4442.051270,4471.025879,4330.512695,4398.333496,0.000000,0.000000,7.000000,,,,0.000000,2.000000,2.000000,0.000000,2.000000,2.000000,2.000000,0.000000,2.000000,4.000000,4.000000,4.000000,4.000000,2.000000,4.000000,16.666666,,,,,,,,,,,,,,,,,,,,,,,,,,,,
1732083053.954017,1732083053.955358,36.000000,0.000000,4322.179688,4327.563965,4318.461426,4326.410156,4308.846191,4313.589844,4360.641113,4326.538574,4308.205078,4293.205078,4439.102539,4472.692383,4328.974121,4396.025879,0.000000,0.000000,7.000000,,,,0.000000,2.000000,2.000000,0.000000,2.000000,2.000000,2.000000,0.000000,2.000000,4.000000,4.000000,4.000000,4.000000,2.000000,4.000000,16.666666,,,,,,,,,,,,,,,,,9.000000,0.000000,0.652884,0.402222,-0.561340,0.311218,0.974728,0.164571,0.034672,-72.194023,66.250511,33.325497
1732083053.961825,1732083053.963167,37.000000,0.000000,4316.410156,4320.384766,4318.589844,4318.717773,4306.538574,4312.179688,4362.820313,4327.051270,4313.717773,4285.769043,4440.641113,4477.436035,4331.153809,4393.205078,0.000000,0.000000,7.000000,,,,0.000000,2.000000,2.000000,0.000000,2.000000,2.000000,2.000000,0.000000,2.000000,4.000000,4.000000,4.000000,4.000000,2.000000,4.000000,16.666666,,,,,,,,,,,,,,,,,,,,,,,,,,,,
1732083053.969633,1732083053.970775,38.000000,0.000000,4311.153809,4310.641113,4319.102539,4312.692383,4301.922852,4309.102539,4363.461426,4325.641113,4312.820313,4287.307617,4440.897461,4473.461426,4328.589844,4393.461426,0.000000,0.000000,7.000000,,,,0.000000,2.000000,2.000000,0.000000,2.000000,2.000000,2.000000,0.000000,2.000000,4.000000,4.000000,4.000000,4.000000,2.000000,4.000000,16.666666,,,,,,,,,,,,,,,,,,,,,,,,,,,,
1732083053.977441,1732083053.978583,39.000000,0.000000,4313.974121,4312.179688,4318.846191,4313.077148,4297.692383,4308.205078,4361.410156,4326.025879,4309.615234,4290.384766,4435.256348,4468.205078,4323.077148,4393.205078,0.000000,0.000000,7.000000,,,,0.000000,2.000000,2.000000,0.000000,2.000000,2.000000,2.000000,0.000000,2.000000,4.000000,4.000000,4.000000,4.000000,2.000000,4.000000,16.666666,,,,,,,,,,,,,,,,,,,,,,,,,,,,
1732083053.985250,1732083053.986291,40.000000,0.000000,4318.461426,4320.769043,4318.205078,4318.077148,4296.282227,4307.563965,4361.538574,4322.436035,4311.153809,4292.179688,4436.666504,4470.641113,4327.692383,4392.692383,0.000000,0.000000,7.000000,,,,0.000000,2.000000,2.000000,0.000000,2.000000,2.000000,2.000000,0.000000,2.000000,4.000000,4.000000,4.000000,4.000000,2.000000,4.000000,16.666666,,,,,,,,,,,,,,,,,10.000000,0.000000,0.652884,0.402222,-0.561340,0.311218,0.971310,0.181663,0.026859,-72.393822,66.017914,33.225319
1732083053.993058,1732083053.994100,41.000000,0.000000,4317.179688,4320.512695,4320.897461,4318.205078,4298.717773,4304.102539,4365.512695,4316.282227,4309.615234,4296.153809,4445.512695,4477.692383,4337.436035,4396.666504,0.000000,0.000000,7.000000,,,,0.000000,2.000000,2.000000,0.000000,2.000000,2.000000,2.000000,0.000000,2.000000,4.000000,4.000000,4.000000,4.000000,2.000000,4.000000,16.666666,,,,,,,,,,,,,,,,,,,,,,,,,,,,
1732083054.000866,1732083054.001708,42.000000,0.000000,4316.666504,4317.307617,4317.820313,4316.794922,4295.769043,4302.820313,4363.589844,4320.384766,4306.538574,4299.487305,4446.794922,4479.871582,4337.692383,4400.000000,0.000000,0.000000,7.000000,,,,0.000000,2.000000,2.000000,0.000000,2.000000,2.000000,2.000000,0.000000,2.000000,4.000000,4.000000,4.000000,4.000000,2.000000,4.000000,16.666666,,,,,,,,,,,,,,,,,,,,,,,,,,,,
1732083054.008675,1732083054.009516,43.000000,0.000000,4318.461426,4320.384766,4319.102539,4320.641113,4290.641113,4306.538574,4364.487305,4327.179688,4307.307617,4296.538574,4442.563965,4475.256348,4332.820313,4399.615234,0.000000,0.000000,7.000000,,,,0.000000,2.000000,2.000000,0.000000,2.000000,2.000000,2.000000,0.000000,2.000000,4.000000,4.000000,4.000000,4.000000,2.000000,4.000000,16.666666,,,,,,,,,,,,,,,,,,,,,,,,,,,,
1732083054.016483,1732083054.017225,44.000000,0.000000,4318.589844,4322.436035,4317.307617,4322.436035,4294.615234,4307.563965,4366.666504,4324.743652,4311.666504,4297.563965,4442.436035,4469.102539,4333.589844,4397.051270,0.000000,0.000000,7.000000,,,,0.000000,2.000000,2.000000,0.000000,2.000000,2.000000,2.000000,0.000000,2.000000,4.000000,4.000000,4.000000,4.000000,2.000000,4.000000,16.666666,,,,,,,,,,,,,,,,,11.000000,0.000000,0.650032,0.405029,-0.562866,0.310791,0.956660,0.154316,0.007325,-72.477333,66.014511,33.372509
1732083054.024291,1732083054.025033,45.000000,0.000000,4318.205078,4319.615234,4316.153809,4317.179688,4296.025879,4305.641113,4368.846191,4323.077148,4311.025879,4298.333496,4445.641113,4470.128418,4336.410156,4396.538574,0.000000,0.000000,7.000000,,,,0.000000,2.000000,2.000000,0.000000,2.000000,2.000000,2.000000,0.000000,2.000000,4.000000,4.000000,4.000000,4.000000,2.000000,4.000000,16.666666,,,,,,,,,,,,,,,,,,,,,,,,,,,,
1732083054.032099,1732083054.032641,46.000000,0.000000,4320.384766,4318.205078,4317.820313,4316.410156,4293.846191,4306.922852,4368.974121,4330.384766,4311.282227,4294.743652,4453.461426,4473.461426,4337.051270,4404.487305,0.000000,0.000000,7.000000,,,,0.000000,2.000000,2.000000,0.000000,2.000000,2.000000,2.000000,0.000000,2.000000,4.000000,4.000000,4.000000,4.000000,2.000000,4.000000,16.666666,,,,,,,,,,,,,,,,,,,,,,,,,,,,
1732083054.039907,1732083054.040449,47.000000,0.000000,4320.256348,4317.179688,4321.922852,4319.487305,4297.307617,4308.205078,4370.512695,4333.846191,4315.897461,4296.922852,4455.512695,4471.922852,4334.230957,4407.436035,0.000000,0.000000,7.000000,,,,0.000000,2.000000,2.000000,0.000000,2.000000,2.000000,2.000000,0.000000,2.000000,4.000000,4.000000,4.000000,4.000000,2.000000,4.000000,16.666666,,,,,,,,,,,,,,,,,,,,,,,,,,,,
1732083054.047716,1732083054.048158,48.000000,0.000000,4319.102539,4316.922852,4318.846191,4319.102539,4299.358887,4309.871582,4368.205078,4327.051270,4314.230957,4299.743652,4449.743652,4469.487305,4332.179688,4399.743652,0.000000,0.000000,7.000000,,,,0.000000,2.000000,2.000000,0.000000,2.000000,2.000000,2.000000,0.000000,2.000000,4.000000,4.000000,4.000000,4.000000,2.000000,4.000000,16.666666,,,,,,,,,,,,,,,,,12.000000,0.000000,0.647367,0.407410,-0.564453,0.310364,0.952753,0.168478,0.009767,-72.666634,65.658424,33.095066
1732083054.055524,1732083054.055966,49.000000,0.000000,4319.871582,4320.769043,4319.230957,4319.871582,4296.666504,4312.307617,4366.282227,4321.282227,4308.717773,4293.717773,4450.512695,4470.641113,4331.922852,4396.922852,0.000000,0.000000,7.000000,,,,0.000000,2.000000,2.000000,0.000000,2.000000,2.000000,2.000000,0.000000,2.000000,4.000000,4.000000,4.000000,4.000000,2.000000,4.000000,16.666666,,,,,,,,,,,,,,,,,,,,,,,,,,,,
1732083054.063332,1732083054.063574,50.000000,0.000000,4321.025879,4324.230957,4318.974121,4324.871582,4296.794922,4310.256348,4365.769043,4318.846191,4308.846191,4293.205078,4455.256348,4471.538574,4333.589844,4401.025879,0.000000,0.000000,7.000000,,,,0.000000,2.000000,2.000000,0.000000,2.000000,2.000000,2.000000,0.000000,2.000000,4.000000,4.000000,4.000000,4.000000,2.000000,4.000000,16.666666,,,,,,,,,,,,,,,,,,,,,,,,,,,,
1732083054.071140,1732083054.071383,51.000000,0.000000,4318.205078,4319.871582,4316.153809,4324.487305,4296.794922,4308.333496,4364.230957,4318.461426,4311.794922,4297.692383,4453.077148,4471.794922,4335.769043,4401.666504,0.000000,0.000000,7.000000,,,,0.000000,2.000000,2.000000,0.000000,2.000000,2.000000,2.000000,0.000000,2.000000,4.000000,4.000000,4.000000,4.000000,2.000000,4.000000,16.666666,,,,,,,,,,,,,,,,,,,,,,,,,,,,
1732083054.078949,1732083054.079091,52.000000,0.000000,4313.461426,4313.589844,4317.563965,4320.000000,4294.871582,4309.230957,4364.102539,4324.487305,4311.282227,4292.051270,4448.974121,4473.333496,4335.256348,4399.230957,0.000000,0.000000,7.000000,,,,0.000000,2.000000,2.000000,0.000000,2.000000,2.000000,2.000000,0.000000,2.000000,4.000000,4.000000,4.000000,4.000000,2.000000,4.000000,16.666666,,,,,,,,,,,,,,,,,13.000000,0.000000,0.645890,0.408386,-0.565002,0.311157,0.950311,0.160664,0.011232,-72.713310,65.596657,32.705338
1732083054.086757,1732083054.086899,53.000000,0.000000,4312.948730,4315.128418,4318.205078,4318.846191,4296.410156,4309.615234,4366.922852,4324.230957,4308.205078,4285.897461,4446.794922,4467.948730,4332.820313,4395.384766,0.000000,0.000000,7.000000,,,,0.000000,2.000000,2.000000,0.000000,2.000000,2.000000,2.000000,0.000000,2.000000,4.000000,4.000000,4.000000,4.000000,2.000000,4.000000,16.666666,,,,,,,,,,,,,,,,,,,,,,,,,,,,
1732083054.094565,1732083054.094508,54.000000,0.000000,4312.179688,4316.025879,4315.897461,4318.974121,4297.563965,4310.769043,4368.589844,4315.000000,4306.538574,4288.077148,4442.692383,4459.230957,4329.102539,4392.179688,0.000000,0.000000,7.000000,,,,0.000000,2.000000,2.000000,0.000000,2.000000,2.000000,2.000000,0.000000,2.000000,4.000000,4.000000,4.000000,4.000000,2.000000,4.000000,16.666666,,,,,,,,,,,,,,,,,,,,,,,,,,,,
1732083054.102373,1732083054.102316,55.000000,0.000000,4310.384766,4312.307617,4316.538574,4317.563965,4296.153809,4310.256348,4367.820313,4313.077148,4308.846191,4292.307617,4439.743652,4459.871582,4325.897461,4394.102539,0.000000,0.000000,7.000000,,,,0.000000,2.000000,2.000000,0.000000,2.000000,2.000000,2.000000,0.000000,2.000000,4.000000,4.000000,4.000000,4.000000,2.000000,4.000000,16.666666,,,,,,,,,,,,,,,,,,,,,,,,,,,,
1732083054.110182,1732083054.110024,56.000000,0.000000,4312.692383,4314.615234,4320.897461,4316.410156,4295.384766,4304.358887,4369.230957,4318.205078,4311.922852,4299.102539,4444.230957,4466.282227,4329.358887,4396.025879,0.000000,0.000000,7.000000,,,,0.000000,2.000000,2.000000,0.000000,2.000000,2.000000,2.000000,0.000000,2.000000,4.000000,4.000000,4.000000,4.000000,2.000000,4.000000,16.666666,,,,,,,,,,,,,,,,,14.000000,0.000000,0.645890,0.408386,-0.565002,0.311157,0.950311,0.160664,0.011232,-72.781113,65.651627,32.194656
1732083054.117990,1732083054.117832,57.000000,0.000000,4316.538574,4321.410156,4319.358887,4318.974121,4296.794922,4303.974121,4368.077148,4320.128418,4310.769043,4303.846191,4450.512695,4467.563965,4337.692383,4395.256348,0.000000,0.000000,7.000000,,,,0.000000,2.000000,2.000000,0.000000,2.000000,2.000000,2.000000,0.000000,2.000000,4.000000,4.000000,4.000000,4.000000,2.000000,4.000000,16.666666,,,,,,,,,,,,,,,,,,,,,,,,,,,,
1732083054.125798,1732083054.125441,58.000000,0.000000,4317.692383,4321.282227,4320.128418,4320.897461,4299.871582,4308.077148,4371.410156,4318.974121,4307.820313,4298.077148,4445.128418,4467.948730,4335.641113,4394.487305,0.000000,0.000000,7.000000,,,,0.000000,2.000000,2.000000,0.000000,2.000000,2.000000,2.000000,0.000000,2.000000,4.000000,4.000000,4.000000,4.000000,2.000000,4.000000,16.666666,,,,,,,,,,,,,,,,,,,,,,,,,,,,
1732083054.133607,1732083054.133249,59.000000,0.000000,4318.846191,4318.717773,4320.000000,4318.974121,4301.794922,4308.717773,4373.205078,4318.461426,4304.871582,4293.077148,4439.102539,4466.282227,4329.743652,4392.563965,0.000000,0.000000,7.000000,,,,0.000000,2.000000,2.000000,0.000000,2.000000,2.000000,2.000000,0.000000,2.000000,4.000000,4.000000,4.000000,4.000000,2.000000,4.000000,16.666666,,,,,,,,,,,,,,,,,,,,,,,,,,,,
1732083054.141415,1732083054.141157,60.000000,0.000000,4319.358887,4318.333496,4321.410156,4317.307617,4299.743652,4308.205078,4371.153809,4318.974121,4303.974121,4293.077148,4441.282227,4460.512695,4332.563965,4389.358887,0.000000,0.000000,7.000000,,,,0.000000,2.000000,2.000000,0.000000,2.000000,2.000000,2.000000,0.000000,2.000000,4.000000,4.000000,4.000000,4.000000,2.000000,4.000000,16.666666,,,,,,,,,,,,,,,,,15.000000,0.000000,0.645181,0.408752,-0.564941,0.312256,0.944451,0.146991,0.025394,-72.749367,65.651146,31.952671
1732083054.149223,1732083054.148965,61.000000,0.000000,4316.922852,4315.897461,4317.307617,4316.025879,4295.897461,4309.743652,4369.358887,4318.461426,4304.487305,4291.794922,4443.846191,4459.871582,4334.871582,4390.128418,0.000000,0.000000,7.000000,,,,0.000000,2.000000,2.000000,0.000000,2.000000,2.000000,2.000000,0.000000,2.000000,4.000000,4.000000,4.000000,4.000000,2.000000,4.000000,16.666666,,,,,,,,,,,,,,,,,,,,,,,,,,,,
1732083054.157031,1732083054.156973,62.000000,0.000000,4315.128418,4311.153809,4316.153809,4310.641113,4296.025879,4310.512695,4373.461426,4313.333496,4304.487305,4290.384766,4443.077148,4464.871582,4333.333496,4390.641113,0.000000,0.000000,7.000000,,,,0.000000,2.000000,2.000000,0.000000,2.000000,2.000000,2.000000,0.000000,2.000000,4.000000,4.000000,4.000000,4.000000,2.000000,4.000000,16.666666,,,,,,,,,,,,,,,,,,,,,,,,,,,,
1732083054.164840,1732083054.164781,63.000000,0.000000,4315.897461,4310.256348,4316.922852,4308.333496,4300.897461,4310.512695,4373.461426,4313.333496,4305.512695,4292.948730,4444.743652,4466.282227,4335.256348,4387.692383,0.000000,0.000000,7.000000,,,,0.000000,2.000000,2.000000,0.000000,2.000000,2.000000,2.000000,0.000000,2.000000,4.000000,4.000000,4.000000,4.000000,2.000000,4.000000,16.666666,,,,,,,,,,,,,,,,,,,,,,,,,,,,
1732083054.172648,1732083054.172689,64.000000,0.000000,4315.256348,4312.436035,4320.512695,4311.025879,4296.666504,4310.000000,4372.948730,4321.410156,4308.333496,4296.794922,4447.307617,4467.307617,4335.769043,4385.256348,0.000000,0.000000,7.000000,,,,0.000000,2.000000,2.000000,0.000000,2.000000,2.000000,2.000000,0.000000,2.000000,4.000000,4.000000,4.000000,4.000000,2.000000,4.000000,16.666666,,,,,,,,,,,,,,,,,16.000000,0.000000,0.644922,0.408264,-0.564880,0.313538,0.967892,0.158222,0.039067,-72.693657,65.707428,32.068329
1732083054.180456,1732083054.180498,65.000000,0.000000,4311.410156,4313.205078,4319.615234,4311.410156,4298.846191,4307.948730,4373.077148,4319.487305,4308.974121,4297.179688,4446.025879,4468.205078,4332.948730,4383.717773,1309.000000,0.000000,7.000000,,,,0.000000,2.000000,2.000000,0.000000,2.000000,2.000000,2.000000,0.000000,2.000000,4.000000,4.000000,4.000000,4.000000,2.000000,4.000000,16.666666,,,,,,,,,,,,,,,,,,,,,,,,,,,,
1732083054.188264,1732083054.188106,66.000000,0.000000,4306.666504,4311.922852,4318.717773,4310.897461,4312.692383,4306.538574,4371.282227,4311.794922,4306.282227,4295.641113,4443.846191,4463.333496,4331.153809,4379.230957,1227.000000,0.000000,7.000000,,,,0.000000,2.000000,2.000000,0.000000,2.000000,2.000000,2.000000,0.000000,2.000000,4.000000,4.000000,4.000000,4.000000,2.000000,4.000000,16.666666,,,,,,,,,,,,,,,,,,,,,,,,,,,,
1732083054.196073,1732083054.195914,67.000000,0.000000,4305.512695,4311.410156,4318.461426,4314.230957,4305.897461,4307.563965,4371.282227,4315.128418,4305.769043,4294.102539,4440.384766,4460.897461,4330.256348,4376.282227,1184.000000,0.000000,7.000000,,,,0.000000,2.000000,2.000000,0.000000,2.000000,2.000000,2.000000,0.000000,2.000000,4.000000,4.000000,4.000000,4.000000,2.000000,4.000000,16.666666,,,,,,,,,,,,,,,,,,,,,,,,,,,,
1732083054.203881,1732083054.203623,68.000000,0.000000,4305.641113,4307.563965,4317.692383,4314.615234,4286.922852,4309.871582,4375.256348,4321.538574,4307.307617,4294.615234,4441.410156,4463.589844,4331.666504,4378.589844,1197.000000,0.000000,7.000000,,,,0.000000,2.000000,2.000000,0.000000,2.000000,2.000000,2.000000,0.000000,2.000000,4.000000,4.000000,4.000000,4.000000,2.000000,4.000000,16.666666,,,,,,,,,,,,,,,,,17.000000,0.000000,0.644905,0.408020,-0.564941,0.313782,0.967892,0.158222,0.039067,-72.498528,65.858017,32.087013
1732083054.211689,1732083054.211431,69.000000,0.000000,4305.128418,4303.974121,4318.333496,4313.717773,4293.333496,4309.358887,4378.333496,4320.128418,4308.333496,4292.820313,4445.641113,4462.307617,4332.692383,4379.102539,1083.000000,0.000000,7.000000,,,,0.000000,2.000000,2.000000,0.000000,2.000000,2.000000,2.000000,0.000000,2.000000,4.000000,4.000000,4.000000,4.000000,2.000000,4.000000,16.666666,,,,,,,,,,,,,,,,,,,,,,,,,,,,
1732083054.219498,1732083054.219439,70.000000,0.000000,4307.820313,4308.846191,4318.333496,4317.436035,4307.307617,4308.974121,4375.769043,4315.897461,4308.717773,4290.641113,4446.153809,4460.641113,4333.589844,4379.102539,26.000000,0.000000,7.000000,,,,0.000000,2.000000,2.000000,0.000000,2.000000,2.000000,2.000000,0.000000,2.000000,4.000000,4.000000,4.000000,4.000000,2.000000,4.000000,16.666666,,,,,,,,,,,,,,,,,,,,,,,,,,,,
1732083054.227306,1732083054.227247,71.000000,0.000000,4310.641113,4312.436035,4317.563965,4318.461426,4301.538574,4311.282227,4375.512695,4316.282227,4309.487305,4291.538574,4445.000000,4464.743652,4335.512695,4382.307617,1187.000000,0.000000,7.000000,,,,0.000000,2.000000,2.000000,0.000000,2.000000,2.000000,2.000000,0.000000,2.000000,4.000000,4.000000,4.000000,4.000000,2.000000,4.000000,16.666666,,,,,,,,,,,,,,,,,,,,,,,,,,,,
1732083054.235114,1732083054.235155,72.000000,0.000000,4311.410156,4310.897461,4317.436035,4316.794922,4298.717773,4311.410156,4375.769043,4315.897461,4308.333496,4292.179688,4445.256348,4467.179688,4336.794922,4383.589844,1362.000000,0.000000,7.000000,,,,0.000000,2.000000,2.000000,0.000000,2.000000,2.000000,2.000000,0.000000,2.000000,4.000000,4.000000,4.000000,4.000000,2.000000,4.000000,16.666666,,,,,,,,,,,,,,,,,18.000000,0.000000,0.645239,0.406860,-0.565125,0.314270,0.967892,0.165548,0.041997,-72.878807,65.568329,31.753815
1732083054.242922,1732083054.242963,73.000000,0.000000,4315.000000,4312.563965,4321.025879,4317.563965,4302.563965,4310.512695,4376.025879,4314.230957,4306.153809,4291.153809,4447.820313,4466.153809,4336.794922,4383.461426,1501.000000,0.000000,7.000000,,,,0.000000,2.000000,2.000000,0.000000,2.000000,2.000000,2.000000,0.000000,2.000000,4.000000,4.000000,4.000000,4.000000,2.000000,4.000000,16.666666,,,,,,,,,,,,,,,,,,,,,,,,,,,,
1732083054.250731,1732083054.250971,74.000000,0.000000,4319.358887,4313.846191,4317.820313,4318.077148,4297.820313,4309.871582,4374.487305,4313.846191,4305.512695,4289.743652,4449.102539,4464.102539,4337.051270,4387.307617,1371.000000,0.000000,7.000000,,,,0.000000,2.000000,2.000000,0.000000,2.000000,2.000000,2.000000,0.000000,2.000000,4.000000,4.000000,4.000000,4.000000,2.000000,4.000000,16.666666,,,,,,,,,,,,,,,,,,,,,,,,,,,,
1732083054.258539,1732083054.258780,75.000000,0.000000,4317.692383,4310.256348,4316.410156,4317.307617,4297.436035,4307.948730,4378.077148,4316.153809,4304.615234,4290.641113,4451.153809,4465.128418,4338.589844,4390.128418,1514.000000,0.000000,7.000000,,,,0.000000,2.000000,2.000000,0.000000,2.000000,2.000000,2.000000,0.000000,2.000000,4.000000,4.000000,4.000000,4.000000,2.000000,4.000000,16.666666,,,,,,,,,,,,,,,,,,,,,,,,,,,,
1732083054.266347,1732083054.266688,76.000000,0.000000,4316.282227,4305.512695,4317.179688,4316.538574,4300.000000,4307.692383,4378.589844,4318.974121,4306.410156,4293.333496,4455.000000,4469.615234,4340.512695,4390.897461,1740.000000,0.000000,7.000000,,,,0.000000,2.000000,2.000000,0.000000,2.000000,2.000000,2.000000,0.000000,2.000000,4.000000,4.000000,4.000000,4.000000,2.000000,4.000000,16.666666,,,,,,,,,,,,,,,,,19.000000,0.000000,0.645821,0.405823,-0.565002,0.314636,0.978147,0.179709,0.025882,-72.820168,65.263680,31.762257
1732083054.274156,1732083054.274496,77.000000,0.000000,4317.948730,4302.692383,4320.769043,4312.948730,4296.794922,4307.692383,4377.436035,4316.410156,4305.897461,4292.307617,4453.846191,4471.153809,4341.794922,4393.205078,1641.000000,0.000000,7.000000,,,,0.000000,2.000000,2.000000,0.000000,2.000000,2.000000,2.000000,0.000000,2.000000,4.000000,4.000000,4.000000,4.000000,2.000000,4.000000,16.666666,,,,,,,,,,,,,,,,,,,,,,,,,,,,
1732083054.281964,1732083054.282504,78.000000,0.000000,4319.743652,4303.205078,4319.615234,4313.974121,4298.205078,4307.051270,4376.666504,4314.615234,4304.743652,4289.871582,4448.974121,4470.000000,4339.743652,4392.307617,1371.000000,0.000000,7.000000,,,,0.000000,2.000000,2.000000,0.000000,2.000000,2.000000,2.000000,0.000000,2.000000,4.000000,4.000000,4.000000,4.000000,2.000000,4.000000,16.666666,1.000000,8.333333,2.000000,2.000000,0.000000,2.000000,2.000000,2.000000,0.000000,2.000000,1.000000,4.000000,4.000000,4.000000,2.000000,4.000000,,,,,,,,,,,,
1732083054.289772,1732083054.290312,79.000000,0.000000,4317.307617,4304.871582,4320.384766,4319.871582,4302.307617,4308.461426,4379.871582,4314.871582,4305.641113,4290.512695,4448.205078,4472.692383,4338.846191,4390.512695,1514.000000,0.000000,7.000000,,,,0.000000,2.000000,2.000000,0.000000,2.000000,2.000000,2.000000,0.000000,2.000000,4.000000,4.000000,4.000000,4.000000,2.000000,4.000000,16.666666,,,,,,,,,,,,,,,,,,,,,,,,,,,,
1732083054.297580,1732083054.298220,80.000000,0.000000,4312.436035,4307.179688,4318.461426,4320.128418,4299.487305,4308.717773,4379.102539,4313.333496,4304.358887,4291.794922,4451.922852,4471.282227,4343.717773,4394.102539,1740.000000,0.000000,7.000000,,,,0.000000,2.000000,2.000000,0.000000,2.000000,2.000000,2.000000,0.000000,2.000000,4.000000,4.000000,4.000000,4.000000,2.000000,4.000000,16.666666,,,,,,,,,,,,,,,,,20.000000,0.000000,0.645470,0.405945,-0.564941,0.315308,0.983030,0.168966,0.038579,-72.827667,65.013580,31.582428
1732083054.305389,1732083054.306028,81.000000,0.000000,4311.282227,4306.410156,4318.333496,4315.256348,4296.794922,4305.641113,4377.563965,4311.794922,4300.897461,4288.077148,4449.871582,4470.769043,4344.615234,4395.384766,1641.000000,0.000000,7.000000,,,,0.000000,2.000000,2.000000,0.000000,2.000000,2.000000,2.000000,0.000000,2.000000,4.000000,4.000000,4.000000,4.000000,2.000000,4.000000,16.666666,,,,,,,,,,,,,,,,,,,,,,,,,,,,
1732083054.313197,1732083054.314036,82.000000,0.000000,4317.948730,4305.128418,4317.820313,4318.077148,4299.487305,4307.307617,4380.512695,4316.410156,4304.871582,4288.846191,4451.153809,4479.487305,4342.692383,4395.000000,1371.000000,0.000000,7.000000,,,,0.000000,2.000000,2.000000,0.000000,2.000000,2.000000,2.000000,0.000000,2.000000,4.000000,4.000000,4.000000,4.000000,2.000000,4.000000,16.666666,,,,,,,,,,,,,,,,,,,,,,,,,,,,
1732083054.321005,1732083054.321845,83.000000,0.000000,4322.563965,4306.538574,4317.692383,4323.333496,4299.743652,4310.384766,4382.692383,4321.538574,4311.666504,4297.436035,4457.820313,4486.025879,4343.589844,4398.717773,1514.000000,0.000000,7.000000,,,,0.000000,2.000000,2.000000,0.000000,2.000000,2.000000,2.000000,0.000000,2.000000,4.000000,4.000000,4.000000,4.000000,2.000000,4.000000,16.666666,,,,,,,,,,,,,,,,,,,,,,,,,,,,
1732083054.328813,1732083054.329753,84.000000,0.000000,4317.307617,4307.692383,4317.820313,4321.153809,4297.948730,4309.358887,4380.897461,4319.358887,4309.743652,4299.358887,4458.077148,4484.230957,4346.025879,4399.871582,1740.000000,0.000000,7.000000,,,,0.000000,2.000000,2.000000,0.000000,2.000000,2.000000,2.000000,0.000000,2.000000,4.000000,4.000000,4.000000,4.000000,2.000000,4.000000,16.666666,,,,,,,,,,,,,,,,,21.000000,0.000000,0.645169,0.406128,-0.564880,0.315796,0.975217,0.180686,0.040044,-72.765411,65.137665,31.218433
1732083054.336622,1732083054.337561,85.000000,0.000000,4313.205078,4306.794922,4318.974121,4319.615234,4298.974121,4307.948730,4378.846191,4318.077148,4308.974121,4296.025879,4452.948730,4484.102539,4347.563965,4397.051270,1641.000000,0.000000,7.000000,,,,0.000000,2.000000,2.000000,0.000000,2.000000,2.000000,2.000000,0.000000,2.000000,4.000000,4.000000,4.000000,4.000000,2.000000,4.000000,16.666666,,,,,,,,,,,,,,,,,,,,,,,,,,,,
1732083054.344430,1732083054.345569,86.000000,0.000000,4314.358887,4306.153809,4321.153809,4319.102539,4298.333496,4309.358887,4381.794922,4318.974121,4311.410156,4295.897461,4450.769043,4485.000000,4346.538574,4394.230957,1371.000000,0.000000,7.000000,,,,0.000000,2.000000,2.000000,0.000000,2.000000,2.000000,2.000000,0.000000,2.000000,4.000000,4.000000,4.000000,4.000000,2.000000,4.000000,16.666666,,,,,,,,,,,,,,,,,,,,,,,,,,,,
1732083054.352238,1732083054.353377,87.000000,0.000000,4315.128418,4306.282227,4316.410156,4316.794922,4298.205078,4308.077148,4382.307617,4319.230957,4310.256348,4295.512695,4451.153809,4479.743652,4343.846191,4391.153809,1514.000000,0.000000,7.000000,,,,0.000000,2.000000,2.000000,0.000000,2.000000,2.000000,2.000000,0.000000,2.000000,4.000000,4.000000,4.000000,4.000000,2.000000,4.000000,16.666666,,,,,,,,,,,,,,,,,,,,,,,,,,,,
1732083054.360046,1732083054.361085,88.000000,0.000000,4315.384766,4307.179688,4314.871582,4316.153809,4298.205078,4303.846191,4380.769043,4318.589844,4307.436035,4293.077148,4448.717773,4477.051270,4341.666504,4391.410156,1740.000000,0.000000,7.000000,,,,0.000000,2.000000,2.000000,0.000000,2.000000,2.000000,2.000000,0.000000,2.000000,4.000000,4.000000,4.000000,4.000000,2.000000,4.000000,16.666666,,,,,,,,,,,,,,,,,22.000000,0.000000,0.643432,0.406250,-0.565369,0.318298,0.966915,0.154316,0.057624,-72.984985,65.266510,31.223598
1732083054.367854,1732083054.368894,89.000000,0.000000,4318.205078,4308.205078,4315.641113,4318.589844,4297.051270,4305.128418,4379.743652,4317.563965,4310.000000,4296.282227,4449.871582,4479.358887,4346.410156,4395.256348,1641.000000,0.000000,7.000000,,,,0.000000,2.000000,2.000000,0.000000,2.000000,2.000000,2.000000,0.000000,2.000000,4.000000,4.000000,4.000000,4.000000,2.000000,4.000000,16.666666,,,,,,,,,,,,,,,,,,,,,,,,,,,,
1732083054.375663,1732083054.376502,90.000000,0.000000,4319.487305,4304.871582,4317.436035,4317.307617,4298.717773,4308.717773,4385.000000,4318.846191,4313.717773,4299.358887,4452.436035,4479.230957,4350.000000,4396.794922,1371.000000,0.000000,7.000000,,,,0.000000,2.000000,2.000000,0.000000,2.000000,2.000000,2.000000,0.000000,2.000000,4.000000,4.000000,4.000000,4.000000,2.000000,4.000000,16.666666,,,,,,,,,,,,,,,,,,,,,,,,,,,,
1732083054.383471,1732083054.384310,91.000000,0.000000,4317.692383,4302.563965,4313.589844,4315.000000,4303.333496,4309.615234,4385.384766,4323.589844,4314.358887,4293.205078,4447.563965,4473.333496,4342.436035,4393.461426,1514.000000,0.000000,7.000000,,,,0.000000,2.000000,2.000000,0.000000,2.000000,2.000000,2.000000,0.000000,2.000000,4.000000,4.000000,4.000000,4.000000,2.000000,4.000000,16.666666,,,,,,,,,,,,,,,,,,,,,,,,,,,,
1732083054.391279,1732083054.392019,92.000000,0.000000,4317.179688,4304.102539,4315.000000,4316.666504,4302.436035,4309.487305,4383.205078,4327.307617,4311.282227,4286.794922,4441.794922,4468.461426,4333.461426,4390.384766,1740.000000,0.000000,7.000000,,,,0.000000,2.000000,2.000000,0.000000,2.000000,2.000000,2.000000,0.000000,2.000000,4.000000,4.000000,4.000000,4.000000,2.000000,4.000000,16.666666,,,,,,,,,,,,,,,,,23.000000,0.000000,0.642298,0.405945,-0.566223,0.319458,0.970822,0.178244,0.034672,-73.277840,65.444206,31.296114
1732083054.399088,1732083054.399827,93.000000,0.000000,4321.538574,4307.179688,4314.871582,4320.000000,4296.794922,4306.666504,4383.205078,4324.358887,4307.436035,4293.333496,4447.692383,4470.641113,4341.410156,4397.436035,1641.000000,0.000000,7.000000,,,,0.000000,2.000000,2.000000,0.000000,2.000000,2.000000,2.000000,0.000000,2.000000,4.000000,4.000000,4.000000,4.000000,2.000000,4.000000,16.666666,,,,,,,,,,,,,,,,,,,,,,,,,,,,
1732083054.406896,1732083054.407435,94.000000,0.000000,4325.128418,4309.743652,4317.179688,4321.282227,4297.436035,4302.307617,4383.461426,4318.333496,4307.820313,4298.974121,4454.102539,4474.743652,4353.205078,4404.487305,1371.000000,0.000000,7.000000,,,,0.000000,2.000000,2.000000,0.000000,2.000000,2.000000,2.000000,0.000000,2.000000,4.000000,4.000000,4.000000,4.000000,2.000000,4.000000,16.666666,,,,,,,,,,,,,,,,,,,,,,,,,,,,
1732083054.414704,1732083054.415243,95.000000,0.000000,4326.025879,4311.922852,4318.205078,4320.769043,4300.128418,4301.410156,4380.000000,4312.436035,4309.615234,4293.077148,4448.461426,4470.512695,4347.307617,4397.307617,1514.000000,0.000000,7.000000,,,,0.000000,2.000000,2.000000,0.000000,2.000000,2.000000,2.000000,0.000000,2.000000,4.000000,4.000000,4.000000,4.000000,2.000000,4.000000,16.666666,,,,,,,,,,,,,,,,,,,,,,,,,,,,
1732083054.422512,1732083054.422952,96.000000,0.000000,4328.205078,4311.410156,4317.307617,4321.922852,4297.692383,4305.384766,4383.077148,4310.897461,4307.948730,4286.922852,4444.102539,4465.769043,4341.282227,4393.077148,1740.000000,0.000000,7.000000,,,,0.000000,2.000000,2.000000,0.000000,2.000000,2.000000,2.000000,0.000000,2.000000,4.000000,4.000000,4.000000,4.000000,2.000000,4.000000,16.666666,,,,,,,,,,,,,,,,,24.000000,0.000000,0.641663,0.405884,-0.566711,0.319946,0.967403,0.205591,0.040044,-73.355049,65.558144,31.363186
1732083054.430321,1732083054.430760,97.000000,0.000000,4330.384766,4311.794922,4315.256348,4326.153809,4300.769043,4308.589844,4383.077148,4318.077148,4308.589844,4288.846191,4446.538574,4466.922852,4347.307617,4401.282227,1641.000000,0.000000,7.000000,,,,0.000000,2.000000,2.000000,0.000000,2.000000,2.000000,2.000000,0.000000,2.000000,4.000000,4.000000,4.000000,4.000000,2.000000,4.000000,16.666666,,,,,,,,,,,,,,,,,,,,,,,,,,,,
1732083054.438129,1732083054.438368,98.000000,0.000000,4330.897461,4313.846191,4316.538574,4325.000000,4304.487305,4306.794922,4379.615234,4320.256348,4308.461426,4290.384766,4448.717773,4466.538574,4349.230957,4403.589844,1371.000000,0.000000,7.000000,,,,0.000000,2.000000,2.000000,0.000000,2.000000,2.000000,2.000000,0.000000,2.000000,4.000000,4.000000,4.000000,4.000000,2.000000,4.000000,16.666666,,,,,,,,,,,,,,,,,,,,,,,,,,,,
1732083054.445937,1732083054.446177,99.000000,0.000000,4336.538574,4315.384766,4317.948730,4321.538574,4298.333496,4301.410156,4382.563965,4313.077148,4305.641113,4290.641113,4452.692383,4466.282227,4347.692383,4404.230957,1514.000000,0.000000,7.000000,,,,0.000000,2.000000,2.000000,0.000000,2.000000,2.000000,2.000000,0.000000,2.000000,4.000000,4.000000,4.000000,4.000000,2.000000,4.000000,16.666666,,,,,,,,,,,,,,,,,,,,,,,,,,,,
1732083054.453745,1732083054.453885,100.000000,0.000000,4344.743652,4317.307617,4318.846191,4324.615234,4290.769043,4298.461426,4385.256348,4310.000000,4305.897461,4291.922852,4457.820313,4469.871582,4351.794922,4410.897461,1740.000000,0.000000,7.000000,,,,0.000000,2.000000,2.000000,0.000000,2.000000,2.000000,2.000000,0.000000,2.000000,4.000000,4.000000,4.000000,4.000000,2.000000,4.000000,16.666666,,,,,,,,,,,,,,,,,25.000000,0.000000,0.640160,0.406372,-0.567749,0.320496,0.961055,0.212917,0.015627,-73.129257,65.357094,31.294180
1732083054.461554,1732083054.461693,101.000000,0.000000,4346.282227,4313.333496,4317.563965,4325.897461,4289.230957,4300.000000,4382.563965,4312.563965,4306.025879,4288.974121,4454.102539,4472.307617,4353.717773,4413.077148,1641.000000,0.000000,7.000000,,,,0.000000,2.000000,2.000000,0.000000,2.000000,2.000000,2.000000,0.000000,2.000000,4.000000,4.000000,4.000000,4.000000,2.000000,4.000000,16.666666,,,,,,,,,,,,,,,,,,,,,,,,,,,,
1732083054.469362,1732083054.469302,102.000000,0.000000,4348.077148,4310.000000,4312.948730,4321.410156,4287.179688,4298.077148,4383.461426,4313.461426,4303.974121,4288.589844,4454.487305,4474.102539,4353.589844,4417.307617,1371.000000,0.000000,7.000000,,,,0.000000,2.000000,2.000000,0.000000,2.000000,2.000000,2.000000,0.000000,2.000000,4.000000,4.000000,4.000000,4.000000,2.000000,4.000000,16.666666,,,,,,,,,,,,,,,,,,,,,,,,,,,,
1732083054.477170,1732083054.477110,103.000000,0.000000,4358.333496,4312.179688,4316.153809,4318.717773,4282.436035,4295.000000,4388.205078,4319.487305,4309.871582,4292.051270,4463.077148,4479.230957,4356.410156,4423.589844,1514.000000,0.000000,7.000000,,,,0.000000,2.000000,2.000000,0.000000,2.000000,2.000000,2.000000,0.000000,2.000000,4.000000,4.000000,4.000000,4.000000,2.000000,4.000000,16.666666,,,,,,,,,,,,,,,,,,,,,,,,,,,,
1732083054.484979,1732083054.485018,104.000000,0.000000,4366.410156,4312.436035,4320.000000,4320.512695,4281.025879,4298.846191,4384.743652,4324.871582,4311.794922,4288.717773,4457.820313,4477.692383,4352.820313,4423.333496,1740.000000,0.000000,7.000000,,,,0.000000,2.000000,2.000000,0.000000,2.000000,2.000000,2.000000,0.000000,2.000000,4.000000,4.000000,4.000000,4.000000,2.000000,4.000000,16.666666,,,,,,,,,,,,,,,,,26.000000,0.000000,0.636120,0.409607,-0.569824,0.320740,0.944940,0.220242,0.011232,-73.268028,65.202576,31.226620
1732083054.492787,1732083054.492826,105.000000,0.000000,4366.153809,4309.615234,4323.077148,4319.743652,4282.563965,4299.230957,4382.563965,4316.794922,4301.025879,4281.282227,4444.615234,4474.358887,4347.820313,4424.871582,1641.000000,0.000000,7.000000,,,,0.000000,2.000000,2.000000,0.000000,2.000000,2.000000,2.000000,0.000000,2.000000,4.000000,4.000000,4.000000,4.000000,2.000000,4.000000,16.666666,,,,,,,,,,,,,,,,,,,,,,,,,,,,
1732083054.500595,1732083054.500834,106.000000,0.000000,4368.333496,4307.820313,4321.538574,4317.307617,4281.538574,4296.153809,4384.102539,4321.025879,4304.487305,4282.307617,4451.153809,4482.051270,4351.282227,4430.384766,1371.000000,0.000000,7.000000,,,,0.000000,2.000000,2.000000,0.000000,2.000000,2.000000,2.000000,0.000000,2.000000,4.000000,4.000000,4.000000,4.000000,2.000000,4.000000,16.666666,,,,,,,,,,,,,,,,,,,,,,,,,,,,
1732083054.508403,1732083054.508642,107.000000,0.000000,4375.769043,4309.615234,4324.230957,4318.077148,4276.282227,4298.077148,4387.692383,4337.692383,4316.025879,4288.205078,4460.128418,4490.000000,4353.205078,4430.384766,1514.000000,0.000000,7.000000,,,,0.000000,2.000000,2.000000,0.000000,2.000000,2.000000,2.000000,0.000000,2.000000,4.000000,4.000000,4.000000,4.000000,2.000000,4.000000,16.666666,,,,,,,,,,,,,,,,,,,,,,,,,,,,
1732083054.516212,1732083054.516550,108.000000,0.000000,4379.487305,4312.563965,4325.256348,4320.641113,4273.205078,4296.410156,4381.922852,4329.487305,4310.897461,4290.128418,4457.820313,4489.615234,4354.487305,4432.436035,1740.000000,0.000000,7.000000,,,,0.000000,2.000000,2.000000,0.000000,2.000000,2.000000,2.000000,0.000000,2.000000,4.000000,4.000000,4.000000,4.000000,2.000000,4.000000,16.666666,,,,,,,,,,,,,,,,,27.000000,0.000000,0.632448,0.412048,-0.571838,0.321289,0.952753,0.186058,-0.020999,-73.370438,65.144089,30.996895
1732083054.524020,1732083054.524359,109.000000,0.000000,4380.512695,4313.974121,4327.051270,4321.153809,4273.717773,4287.948730,4378.333496,4310.384766,4298.461426,4290.128418,4460.384766,4496.922852,4363.846191,4446.282227,1641.000000,0.000000,7.000000,,,,0.000000,2.000000,2.000000,0.000000,2.000000,2.000000,2.000000,0.000000,2.000000,4.000000,4.000000,4.000000,4.000000,2.000000,4.000000,16.666666,,,,,,,,,,,,,,,,,,,,,,,,,,,,
1732083054.531828,1732083054.531967,110.000000,0.000000,4387.948730,4316.922852,4325.256348,4322.692383,4272.179688,4282.436035,4380.256348,4308.717773,4295.641113,4291.922852,4464.615234,4504.358887,4370.897461,4458.974121,1371.000000,0.000000,7.000000,,,,0.000000,2.000000,2.000000,0.000000,2.000000,2.000000,2.000000,0.000000,2.000000,4.000000,4.000000,4.000000,4.000000,2.000000,4.000000,16.666666,,,,,,,,,,,,,,,,,,,,,,,,,,,,
1732083054.539636,1732083054.539775,111.000000,0.000000,4390.128418,4316.153809,4327.820313,4323.589844,4269.615234,4285.000000,4384.102539,4312.307617,4296.153809,4288.077148,4459.358887,4495.384766,4363.846191,4454.358887,1514.000000,0.000000,7.000000,,,,0.000000,2.000000,2.000000,0.000000,2.000000,2.000000,2.000000,0.000000,2.000000,4.000000,4.000000,4.000000,4.000000,2.000000,4.000000,16.666666,,,,,,,,,,,,,,,,,,,,,,,,,,,,
1732083054.547445,1732083054.547683,112.000000,0.000000,4385.256348,4311.922852,4331.282227,4320.384766,4273.077148,4290.641113,4385.128418,4310.000000,4293.461426,4282.179688,4459.487305,4489.743652,4358.846191,4447.436035,1740.000000,0.000000,7.000000,,,,0.000000,2.000000,2.000000,0.000000,2.000000,2.000000,2.000000,0.000000,2.000000,4.000000,4.000000,4.000000,4.000000,2.000000,4.000000,16.666666,,,,,,,,,,,,,,,,,28.000000,0.000000,0.631211,0.412415,-0.572632,0.321838,0.955683,0.146991,-0.022464,-73.553391,65.085045,30.839151
1732083054.555253,1732083054.555491,113.000000,0.000000,4385.256348,4311.153809,4327.692383,4318.589844,4274.358887,4286.025879,4384.487305,4308.333496,4296.025879,4286.282227,4466.153809,4492.948730,4365.256348,4455.384766,1641.000000,0.000000,7.000000,,,,0.000000,2.000000,2.000000,0.000000,2.000000,2.000000,2.000000,0.000000,2.000000,4.000000,4.000000,4.000000,4.000000,2.000000,4.000000,16.666666,,,,,,,,,,,,,,,,,,,,,,,,,,,,
1732083054.563061,1732083054.563499,114.000000,0.000000,4383.846191,4312.307617,4325.384766,4318.846191,4269.102539,4282.948730,4387.051270,4311.153809,4303.077148,4287.692383,4466.538574,4491.153809,4364.743652,4458.333496,1371.000000,0.000000,7.000000,,,,0.000000,2.000000,2.000000,0.000000,2.000000,2.000000,2.000000,0.000000,2.000000,4.000000,4.000000,4.000000,4.000000,2.000000,4.000000,16.666666,,,,,,,,,,,,,,,,,,,,,,,,,,,,
1732083054.570870,1732083054.571308,115.000000,0.000000,4377.563965,4307.051270,4324.615234,4315.897461,4267.692383,4293.846191,4388.589844,4317.692383,4303.461426,4276.153809,4461.025879,4489.871582,4354.871582,4450.512695,1514.000000,0.000000,7.000000,,,,0.000000,2.000000,2.000000,0.000000,2.000000,2.000000,2.000000,0.000000,2.000000,4.000000,4.000000,4.000000,4.000000,2.000000,4.000000,16.666666,,,,,,,,,,,,,,,,,,,,,,,,,,,,
1732083054.578678,1732083054.579216,116.000000,0.000000,4381.666504,4308.205078,4322.820313,4318.846191,4272.692383,4293.077148,4384.743652,4319.102539,4296.666504,4276.153809,4463.974121,4496.794922,4356.794922,4453.077148,1740.000000,0.000000,7.000000,,,,0.000000,2.000000,2.000000,0.000000,2.000000,2.000000,2.000000,0.000000,2.000000,4.000000,4.000000,4.000000,4.000000,2.000000,4.000000,16.666666,,,,,,,,,,,,,,,,,29.000000,0.000000,0.629025,0.412231,-0.574341,0.323303,0.950311,0.125504,-0.012209,-73.861580,64.913887,30.634712
1732083054.586486,1732083054.587024,117.000000,0.000000,4392.436035,4319.871582,4314.615234,4326.410156,4275.000000,4278.077148,4377.307617,4311.282227,4294.871582,4290.256348,4471.025879,4498.717773,4368.846191,4462.948730,1641.000000,0.000000,7.000000,,,,0.000000,2.000000,2.000000,0.000000,2.000000,2.000000,2.000000,0.000000,2.000000,4.000000,4.000000,4.000000,4.000000,2.000000,4.000000,16.666666,,,,,,,,,,,,,,,,,,,,,,,,,,,,
1732083054.594294,1732083054.595032,118.000000,0.000000,4389.230957,4320.128418,4313.846191,4323.461426,4271.666504,4278.205078,4375.128418,4308.974121,4296.282227,4284.230957,4468.205078,4497.051270,4368.589844,4461.153809,1371.000000,0.000000,7.000000,,,,0.000000,2.000000,2.000000,0.000000,2.000000,2.000000,2.000000,0.000000,2.000000,4.000000,4.000000,4.000000,4.000000,2.000000,4.000000,16.666666,,,,,,,,,,,,,,,,,,,,,,,,,,,,
1732083054.602103,1732083054.602840,119.000000,0.000000,4383.333496,4313.846191,4311.666504,4320.641113,4273.461426,4282.563965,4372.307617,4314.743652,4300.512695,4279.615234,4466.794922,4496.538574,4363.461426,4458.205078,1514.000000,0.000000,7.000000,,,,0.000000,2.000000,2.000000,0.000000,2.000000,2.000000,2.000000,0.000000,2.000000,4.000000,4.000000,4.000000,4.000000,2.000000,4.000000,16.666666,,,,,,,,,,,,,,,,,,,,,,,,,,,,
1732083054.609911,1732083054.610748,120.000000,0.000000,4387.820313,4316.794922,4311.025879,4325.512695,4280.000000,4280.128418,4373.077148,4320.128418,4310.128418,4294.487305,4475.897461,4500.384766,4369.102539,4461.794922,1740.000000,0.000000,7.000000,,,,0.000000,2.000000,2.000000,0.000000,2.000000,2.000000,2.000000,0.000000,2.000000,4.000000,4.000000,4.000000,4.000000,2.000000,4.000000,16.666666,,,,,,,,,,,,,,,,,30.000000,0.000000,0.626408,0.407715,-0.577820,0.327881,0.971798,0.078623,0.041021,-74.027878,64.391914,30.502451
1732083054.617719,1732083054.618557,121.000000,0.000000,4396.410156,4323.333496,4310.384766,4331.025879,4282.820313,4290.512695,4375.256348,4321.282227,4311.282227,4300.897461,4482.307617,4507.692383,4376.538574,4466.025879,1641.000000,0.000000,7.000000,,,,0.000000,2.000000,2.000000,0.000000,2.000000,2.000000,2.000000,0.000000,2.000000,4.000000,4.000000,4.000000,4.000000,2.000000,4.000000,16.666666,,,,,,,,,,,,,,,,,,,,,,,,,,,,
1732083054.625527,1732083054.626565,122.000000,0.000000,4398.077148,4323.205078,4315.512695,4331.538574,4281.153809,4293.589844,4374.102539,4313.589844,4304.615234,4294.230957,4478.461426,4506.794922,4377.820313,4466.025879,1371.000000,0.000000,7.000000,,,,0.000000,2.000000,2.000000,0.000000,2.000000,2.000000,2.000000,0.000000,2.000000,4.000000,4.000000,4.000000,4.000000,2.000000,4.000000,16.666666,,,,,,,,,,,,,,,,,,,,,,,,,,,,
1732083054.633336,1732083054.634373,123.000000,0.000000,4391.794922,4320.641113,4315.256348,4329.871582,4284.487305,4281.794922,4372.179688,4309.743652,4306.794922,4291.666504,4474.358887,4499.871582,4373.333496,4461.153809,1514.000000,0.000000,7.000000,,,,0.000000,2.000000,2.000000,0.000000,2.000000,2.000000,2.000000,0.000000,2.000000,4.000000,4.000000,4.000000,4.000000,2.000000,4.000000,16.666666,,,,,,,,,,,,,,,,,,,,,,,,,,,,
1732083054.641144,1732083054.642281,124.000000,0.000000,4387.179688,4321.538574,4316.666504,4325.512695,4288.846191,4281.282227,4376.922852,4312.563965,4307.948730,4292.563965,4476.025879,4500.769043,4369.743652,4459.615234,1740.000000,0.000000,7.000000,,,,0.000000,2.000000,2.000000,0.000000,2.000000,2.000000,2.000000,0.000000,2.000000,4.000000,4.000000,4.000000,4.000000,2.000000,4.000000,16.666666,,,,,,,,,,,,,,,,,31.000000,0.000000,0.625910,0.405762,-0.578796,0.329529,0.971798,0.078623,0.041021,-74.222580,63.952450,30.373652
1732083054.648952,1732083054.650089,125.000000,0.000000,4388.846191,4322.307617,4319.871582,4324.743652,4290.384766,4288.717773,4374.615234,4307.307617,4300.769043,4291.922852,4476.666504,4501.025879,4372.948730,4461.282227,1641.000000,0.000000,7.000000,,,,0.000000,2.000000,2.000000,0.000000,2.000000,2.000000,2.000000,0.000000,2.000000,4.000000,4.000000,4.000000,4.000000,2.000000,4.000000,16.666666,,,,,,,,,,,,,,,,,,,,,,,,,,,,
1732083054.656760,1732083054.658097,126.000000,0.000000,4384.871582,4320.384766,4316.922852,4327.563965,4291.538574,4290.512695,4372.436035,4304.102539,4298.205078,4282.948730,4470.641113,4493.461426,4375.256348,4455.256348,1371.000000,0.000000,7.000000,,,,0.000000,2.000000,2.000000,0.000000,2.000000,2.000000,2.000000,0.000000,2.000000,4.000000,4.000000,4.000000,4.000000,2.000000,4.000000,16.666666,,,,,,,,,,,,,,,,,,,,,,,,,,,,
1732083054.664569,1732083054.665905,127.000000,0.000000,4376.538574,4318.077148,4310.000000,4328.333496,4290.641113,4293.717773,4375.897461,4310.897461,4304.743652,4274.487305,4466.538574,4491.666504,4370.897461,4448.974121,7.000000,0.000000,7.000000,,,,0.000000,2.000000,2.000000,0.000000,2.000000,2.000000,2.000000,0.000000,2.000000,4.000000,4.000000,4.000000,4.000000,2.000000,4.000000,16.666666,,,,,,,,,,,,,,,,,,,,,,,,,,,,
1732083054.672377,1732083054.673813,0.000000,0.000000,4375.128418,4318.333496,4306.794922,4326.666504,4299.230957,4291.410156,4373.205078,4313.461426,4307.179688,4285.512695,4470.000000,4493.077148,4367.692383,4452.051270,0.000000,0.000000,7.000000,,,,0.000000,2.000000,2.000000,0.000000,2.000000,2.000000,2.000000,0.000000,2.000000,4.000000,4.000000,4.000000,4.000000,2.000000,4.000000,16.666666,,,,,,,,,,,,,,,,,0.000000,0.000000,0.625429,0.403687,-0.579895,0.331055,0.977658,0.061531,0.023440,-74.490288,63.609818,30.374325
1732083054.680185,1732083054.681622,1.000000,0.000000,4376.794922,4321.282227,4307.307617,4325.000000,4308.974121,4283.461426,4363.205078,4307.179688,4303.077148,4298.589844,4468.333496,4490.641113,4372.051270,4456.153809,1307.000000,0.000000,7.000000,,,,0.000000,2.000000,2.000000,0.000000,2.000000,2.000000,2.000000,0.000000,2.000000,4.000000,4.000000,4.000000,4.000000,2.000000,4.000000,16.666666,,,,,,,,,,,,,,,,,,,,,,,,,,,,
1732083054.687993,1732083054.689630,2.000000,0.000000,4375.512695,4322.051270,4305.256348,4326.282227,4301.922852,4289.358887,4361.538574,4308.461426,4306.282227,4298.846191,4466.922852,4492.307617,4376.794922,4455.128418,1225.000000,0.000000,7.000000,,,,0.000000,2.000000,2.000000,0.000000,2.000000,2.000000,2.000000,0.000000,2.000000,4.000000,4.000000,4.000000,4.000000,2.000000,4.000000,16.666666,,,,,,,,,,,,,,,,,,,,,,,,,,,,
1732083054.695802,1732083054.697438,3.000000,0.000000,4374.230957,4320.000000,4308.461426,4327.692383,4290.641113,4299.743652,4369.615234,4316.794922,4315.256348,4305.512695,4478.333496,4499.743652,4379.615234,4458.461426,1184.000000,0.000000,7.000000,,,,0.000000,2.000000,2.000000,0.000000,2.000000,2.000000,2.000000,0.000000,2.000000,4.000000,4.000000,4.000000,4.000000,2.000000,4.000000,16.666666,,,,,,,,,,,,,,,,,,,,,,,,,,,,
1732083054.703610,1732083054.705346,4.000000,0.000000,4378.589844,4321.410156,4308.205078,4331.025879,4296.922852,4298.846191,4368.846191,4318.205078,4317.051270,4312.436035,4484.358887,4499.230957,4381.666504,4462.820313,1202.000000,0.000000,7.000000,,,,0.000000,2.000000,2.000000,0.000000,2.000000,2.000000,2.000000,0.000000,2.000000,4.000000,4.000000,4.000000,4.000000,2.000000,4.000000,16.666666,,,,,,,,,,,,,,,,,1.000000,0.000000,0.622423,0.397888,-0.583679,0.337036,0.975217,0.057624,0.041509,-74.650467,63.285622,29.966536
1732083054.711418,1732083054.713154,5.000000,0.000000,4380.000000,4320.641113,4310.769043,4332.307617,4313.717773,4294.487305,4365.641113,4314.358887,4313.205078,4305.897461,4476.538574,4491.025879,4377.307617,4457.051270,1083.000000,0.000000,7.000000,,,,0.000000,2.000000,2.000000,0.000000,2.000000,2.000000,2.000000,0.000000,2.000000,4.000000,4.000000,4.000000,4.000000,2.000000,4.000000,16.666666,,,,,,,,,,,,,,,,,,,,,,,,,,,,
1732083054.719226,1732083054.721162,6.000000,0.000000,4371.538574,4319.230957,4309.487305,4329.102539,4314.358887,4295.256348,4368.333496,4312.307617,4313.461426,4303.846191,4468.717773,4485.641113,4370.384766,4448.717773,26.000000,0.000000,7.000000,,,,0.000000,2.000000,2.000000,0.000000,2.000000,2.000000,2.000000,0.000000,2.000000,4.000000,4.000000,4.000000,4.000000,2.000000,4.000000,16.666666,,,,,,,,,,,,,,,,,,,,,,,,,,,,
1732083054.727035,1732083054.728970,7.000000,0.000000,4362.051270,4323.974121,4310.384766,4326.025879,4298.333496,4297.051270,4372.307617,4312.436035,4312.948730,4302.307617,4467.051270,4486.153809,4368.846191,4446.410156,1187.000000,0.000000,7.000000,,,,0.000000,2.000000,2.000000,0.000000,2.000000,2.000000,2.000000,0.000000,2.000000,4.000000,4.000000,4.000000,4.000000,2.000000,4.000000,16.666666,,,,,,,,,,,,,,,,,,,,,,,,,,,,
1732083054.734843,1732083054.736679,8.000000,0.000000,4362.820313,4328.333496,4311.538574,4327.307617,4298.846191,4301.666504,4367.820313,4313.333496,4312.563965,4295.384766,4469.743652,4487.692383,4373.589844,4446.282227,1357.000000,0.000000,7.000000,,,,0.000000,2.000000,2.000000,0.000000,2.000000,2.000000,2.000000,0.000000,2.000000,4.000000,4.000000,4.000000,4.000000,2.000000,4.000000,16.666666,,,,,,,,,,,,,,,,,2.000000,0.000000,0.620010,0.396912,-0.585388,0.339661,0.953730,0.119155,-0.009767,-74.980209,62.928020,29.627893
1732083054.742651,1732083054.744487,9.000000,0.000000,4366.153809,4325.128418,4317.179688,4328.717773,4313.077148,4303.205078,4365.641113,4315.256348,4315.641113,4298.589844,4472.179688,4496.538574,4375.000000,4446.282227,1499.000000,0.000000,7.000000,,,,0.000000,2.000000,2.000000,0.000000,2.000000,2.000000,2.000000,0.000000,2.000000,4.000000,4.000000,4.000000,4.000000,2.000000,4.000000,16.666666,,,,,,,,,,,,,,,,,,,,,,,,,,,,
1732083054.750460,1732083054.752095,10.000000,0.000000,4362.307617,4323.461426,4314.358887,4328.077148,4314.230957,4300.512695,4367.179688,4313.589844,4315.897461,4308.717773,4472.179688,4504.102539,4374.102539,4444.871582,1371.000000,0.000000,7.000000,,,,0.000000,2.000000,2.000000,0.000000,2.000000,2.000000,2.000000,0.000000,2.000000,4.000000,4.000000,4.000000,4.000000,2.000000,4.000000,16.666666,,,,,,,,,,,,,,,,,,,,,,,,,,,,
1732083054.758268,1732083054.759903,11.000000,0.000000,4357.436035,4324.102539,4310.641113,4325.256348,4307.563965,4304.487305,4369.102539,4310.897461,4313.205078,4308.589844,4470.000000,4496.666504,4374.102539,4438.974121,1508.000000,0.000000,7.000000,,,,0.000000,2.000000,2.000000,0.000000,2.000000,2.000000,2.000000,0.000000,2.000000,4.000000,4.000000,4.000000,4.000000,2.000000,4.000000,16.666666,,,,,,,,,,,,,,,,,,,,,,,,,,,,
1732083054.766076,1732083054.767612,12.000000,0.000000,4356.153809,4322.820313,4312.563965,4320.512695,4310.641113,4307.820313,4369.230957,4317.051270,4317.563965,4305.128418,4467.563965,4489.230957,4371.025879,4435.256348,1733.000000,0.000000,7.000000,,,,0.000000,2.000000,2.000000,0.000000,2.000000,2.000000,2.000000,0.000000,2.000000,4.000000,4.000000,4.000000,4.000000,2.000000,4.000000,16.666666,,,,,,,,,,,,,,,,,3.000000,0.000000,0.619142,0.397705,-0.585449,0.340210,0.953730,0.119155,-0.009767,-75.110641,62.751694,29.413595
1732083054.773884,1732083054.775420,13.000000,0.000000,4354.615234,4324.743652,4315.384766,4320.384766,4313.333496,4304.487305,4374.358887,4320.000000,4320.769043,4306.025879,4465.384766,4491.666504,4369.615234,4437.436035,1638.000000,0.000000,7.000000,,,,0.000000,2.000000,2.000000,0.000000,2.000000,2.000000,2.000000,0.000000,2.000000,4.000000,4.000000,4.000000,4.000000,2.000000,4.000000,16.666666,,,,,,,,,,,,,,,,,,,,,,,,,,,,
1732083054.781693,1732083054.783028,14.000000,0.000000,4354.358887,4327.051270,4316.922852,4324.358887,4309.487305,4304.102539,4373.589844,4313.205078,4311.794922,4303.333496,4465.769043,4493.205078,4372.436035,4437.692383,1371.000000,0.000000,7.000000,,,,0.000000,2.000000,2.000000,0.000000,2.000000,2.000000,2.000000,0.000000,2.000000,4.000000,4.000000,4.000000,4.000000,2.000000,4.000000,16.666666,1.000000,8.333333,2.000000,2.000000,0.000000,2.000000,2.000000,2.000000,0.000000,2.000000,1.000000,4.000000,4.000000,4.000000,2.000000,3.000000,,,,,,,,,,,,
1732083054.789501,1732083054.790837,15.000000,0.000000,4352.179688,4322.820313,4317.307617,4321.410156,4306.410156,4302.563965,4367.692383,4310.769043,4305.897461,4300.128418,4469.615234,4494.871582,4372.948730,4439.615234,1508.000000,0.000000,7.000000,,,,0.000000,2.000000,2.000000,0.000000,2.000000,2.000000,2.000000,0.000000,2.000000,4.000000,4.000000,4.000000,4.000000,2.000000,4.000000,16.666666,,,,,,,,,,,,,,,,,,,,,,,,,,,,
1732083054.797309,1732083054.798545,16.000000,0.000000,4345.897461,4320.128418,4317.820313,4317.307617,4303.333496,4295.769043,4366.282227,4314.230957,4312.436035,4303.333496,4473.846191,4502.307617,4370.512695,4444.230957,0.000000,0.000000,7.000000,,,,0.000000,2.000000,2.000000,0.000000,2.000000,2.000000,2.000000,0.000000,2.000000,4.000000,4.000000,4.000000,4.000000,2.000000,4.000000,16.666666,,,,,,,,,,,,,,,,,4.000000,0.000000,0.615492,0.402161,-0.584473,0.343262,1.012819,0.059089,0.000000,-75.246284,62.722206,29.181679
1732083054.805117,1732083054.806353,17.000000,0.000000,4343.333496,4321.025879,4319.358887,4318.333496,4303.077148,4295.384766,4368.589844,4314.743652,4315.769043,4306.025879,4472.179688,4500.128418,4368.974121,4435.897461,0.000000,0.000000,7.000000,,,,0.000000,2.000000,2.000000,0.000000,2.000000,2.000000,2.000000,0.000000,2.000000,4.000000,4.000000,4.000000,4.000000,2.000000,4.000000,16.666666,,,,,,,,,,,,,,,,,,,,,,,,,,,,
1732083054.812926,1732083054.813962,18.000000,0.000000,4344.615234,4315.256348,4323.974121,4315.000000,4312.692383,4297.948730,4366.153809,4315.256348,4311.538574,4300.641113,4462.692383,4492.563965,4363.717773,4425.256348,0.000000,0.000000,7.000000,,,,0.000000,2.000000,2.000000,0.000000,2.000000,2.000000,2.000000,0.000000,2.000000,4.000000,4.000000,4.000000,4.000000,2.000000,4.000000,16.666666,,,,,,,,,,,,,,,,,,,,,,,,,,,,
1732083054.820734,1732083054.821770,19.000000,0.000000,4339.102539,4308.461426,4325.256348,4311.025879,4317.436035,4304.615234,4367.948730,4322.820313,4315.128418,4294.358887,4457.307617,4490.641113,4354.743652,4423.333496,0.000000,0.000000,7.000000,,,,0.000000,2.000000,2.000000,0.000000,2.000000,2.000000,2.000000,0.000000,2.000000,4.000000,4.000000,4.000000,4.000000,2.000000,4.000000,16.666666,,,,,,,,,,,,,,,,,,,,,,,,,,,,
1732083054.828542,1732083054.829478,20.000000,0.000000,4330.769043,4308.846191,4325.897461,4312.563965,4309.743652,4319.871582,4376.666504,4328.333496,4320.512695,4299.230957,4458.077148,4490.128418,4351.922852,4419.102539,0.000000,0.000000,7.000000,,,,0.000000,2.000000,2.000000,0.000000,2.000000,2.000000,2.000000,0.000000,2.000000,4.000000,4.000000,4.000000,4.000000,2.000000,4.000000,16.666666,,,,,,,,,,,,,,,,,5.000000,0.000000,0.612337,0.405640,-0.584412,0.344910,0.960566,0.108900,0.005372,-75.359489,62.476654,28.765493
1732083054.836351,1732083054.837286,21.000000,0.000000,4334.358887,4310.512695,4327.692383,4313.205078,4302.051270,4321.666504,4376.538574,4323.077148,4317.436035,4310.769043,4459.487305,4491.153809,4358.205078,4417.051270,0.000000,0.000000,7.000000,,,,0.000000,2.000000,2.000000,0.000000,2.000000,2.000000,2.000000,0.000000,2.000000,4.000000,4.000000,4.000000,4.000000,2.000000,4.000000,16.666666,,,,,,,,,,,,,,,,,,,,,,,,,,,,
1732083054.844159,1732083054.845294,22.000000,0.000000,4343.333496,4311.025879,4332.436035,4318.461426,4301.922852,4302.307617,4371.538574,4316.153809,4311.282227,4313.333496,4461.794922,4500.128418,4366.282227,4426.282227,0.000000,0.000000,7.000000,,,,0.000000,2.000000,2.000000,0.000000,2.000000,2.000000,2.000000,0.000000,2.000000,4.000000,4.000000,4.000000,4.000000,2.000000,4.000000,16.666666,,,,,,,,,,,,,,,,,,,,,,,,,,,,
1732083054.851967,1732083054.853102,23.000000,0.000000,4348.974121,4314.358887,4335.512695,4327.820313,4297.563965,4291.410156,4368.974121,4313.846191,4308.333496,4308.461426,4471.025879,4509.358887,4372.179688,4438.205078,0.000000,0.000000,7.000000,,,,0.000000,2.000000,2.000000,0.000000,2.000000,2.000000,2.000000,0.000000,2.000000,4.000000,4.000000,4.000000,4.000000,2.000000,4.000000,16.666666,,,,,,,,,,,,,,,,,,,,,,,,,,,,
1732083054.859775,1732083054.860811,24.000000,0.000000,4346.153809,4314.615234,4333.589844,4325.897461,4295.512695,4297.563965,4373.205078,4316.153809,4310.256348,4308.589844,4475.897461,4503.461426,4372.051270,4439.230957,0.000000,0.000000,7.000000,,,,0.000000,2.000000,2.000000,0.000000,2.000000,2.000000,2.000000,0.000000,2.000000,4.000000,4.000000,4.000000,4.000000,2.000000,4.000000,16.666666,,,,,,,,,,,,,,,,,6.000000,0.000000,0.612337,0.405640,-0.584412,0.344910,0.975705,0.108900,-0.000488,-75.511185,62.142757,28.608383
1732083054.867584,1732083054.868619,25.000000,0.000000,4339.358887,4309.871582,4329.743652,4317.820313,4303.077148,4305.512695,4375.256348,4317.307617,4315.384766,4313.717773,4470.000000,4492.051270,4367.051270,4429.487305,0.000000,0.000000,7.000000,,,,0.000000,2.000000,2.000000,0.000000,2.000000,2.000000,2.000000,0.000000,2.000000,4.000000,4.000000,4.000000,4.000000,2.000000,4.000000,16.666666,,,,,,,,,,,,,,,,,,,,,,,,,,,,
1732083054.875392,1732083054.876627,26.000000,0.000000,4334.230957,4305.641113,4331.153809,4317.948730,4299.102539,4311.794922,4375.897461,4317.563965,4319.615234,4313.846191,4463.589844,4486.282227,4361.922852,4418.974121,0.000000,0.000000,7.000000,,,,0.000000,2.000000,2.000000,0.000000,2.000000,2.000000,2.000000,0.000000,2.000000,4.000000,4.000000,4.000000,4.000000,2.000000,4.000000,16.666666,,,,,,,,,,,,,,,,,,,,,,,,,,,,
1732083054.883200,1732083054.884435,27.000000,0.000000,4332.948730,4308.077148,4328.717773,4319.102539,4302.563965,4314.102539,4376.666504,4325.000000,4322.692383,4308.077148,4460.641113,4480.128418,4359.102539,4419.102539,0.000000,0.000000,7.000000,,,,0.000000,2.000000,2.000000,0.000000,2.000000,2.000000,2.000000,0.000000,2.000000,4.000000,4.000000,4.000000,4.000000,2.000000,4.000000,16.666666,,,,,,,,,,,,,,,,,,,,,,,,,,,,
1732083054.891008,1732083054.892343,28.000000,0.000000,4336.922852,4315.256348,4326.794922,4319.230957,4316.794922,4309.871582,4376.922852,4329.102539,4321.153809,4304.230957,4459.102539,4477.051270,4357.692383,4420.641113,0.000000,0.000000,7.000000,,,,0.000000,2.000000,2.000000,0.000000,2.000000,2.000000,2.000000,0.000000,2.000000,4.000000,4.000000,4.000000,4.000000,2.000000,4.000000,16.666666,,,,,,,,,,,,,,,,,7.000000,0.000000,0.610348,0.408630,-0.584229,0.345215,0.982053,0.138689,-0.016115,-75.622398,61.838966,28.272789
1732083054.898817,1732083054.900152,29.000000,0.000000,4338.589844,4313.846191,4326.922852,4322.820313,4305.256348,4310.128418,4373.974121,4321.025879,4315.769043,4307.948730,4462.820313,4483.974121,4359.615234,4419.871582,0.000000,0.000000,7.000000,,,,0.000000,2.000000,2.000000,0.000000,2.000000,2.000000,2.000000,0.000000,2.000000,4.000000,4.000000,4.000000,4.000000,2.000000,4.000000,16.666666,,,,,,,,,,,,,,,,,,,,,,,,,,,,
1732083054.906625,1732083054.907760,30.000000,0.000000,4336.025879,4308.846191,4330.384766,4326.922852,4288.717773,4317.820313,4376.794922,4317.436035,4312.307617,4310.128418,4468.974121,4494.743652,4366.538574,4427.563965,0.000000,0.000000,7.000000,,,,0.000000,2.000000,2.000000,0.000000,2.000000,2.000000,2.000000,0.000000,2.000000,4.000000,4.000000,4.000000,4.000000,2.000000,4.000000,16.666666,,,,,,,,,,,,,,,,,,,,,,,,,,,,
1732083054.914433,1732083054.915568,31.000000,0.000000,4338.461426,4312.948730,4332.948730,4330.128418,4301.025879,4322.179688,4381.025879,4326.666504,4315.000000,4305.641113,4469.230957,4498.589844,4369.743652,4433.077148,0.000000,0.000000,7.000000,,,,0.000000,2.000000,2.000000,0.000000,2.000000,2.000000,2.000000,0.000000,2.000000,4.000000,4.000000,4.000000,4.000000,2.000000,4.000000,16.666666,,,,,,,,,,,,,,,,,,,,,,,,,,,,
1732083054.922241,1732083054.923476,32.000000,0.000000,4339.102539,4315.512695,4334.743652,4327.563965,4312.307617,4317.692383,4379.743652,4328.077148,4316.666504,4302.820313,4464.358887,4495.256348,4365.512695,4425.384766,0.000000,0.000000,7.000000,,,,0.000000,2.000000,2.000000,0.000000,2.000000,2.000000,2.000000,0.000000,2.000000,4.000000,4.000000,4.000000,4.000000,2.000000,4.000000,16.666666,,,,,,,,,,,,,,,,,8.000000,0.000000,0.604685,0.412476,-0.587585,0.344910,0.993774,0.092785,-0.023440,-75.774139,61.666229,28.065960
1732083054.930050,1732083054.931284,33.000000,0.000000,4329.871582,4310.256348,4333.205078,4321.794922,4303.333496,4315.128418,4378.077148,4319.230957,4315.000000,4308.205078,4459.743652,4490.512695,4363.461426,4417.692383,0.000000,0.000000,7.000000,,,,0.000000,2.000000,2.000000,0.000000,2.000000,2.000000,2.000000,0.000000,2.000000,4.000000,4.000000,4.000000,4.000000,2.000000,4.000000,16.666666,,,,,,,,,,,,,,,,,,,,,,,,,,,,
1732083054.937858,1732083054.939292,34.000000,0.000000,4324.871582,4308.846191,4334.358887,4319.358887,4300.897461,4315.384766,4378.974121,4321.410156,4314.871582,4314.230957,4456.794922,4493.717773,4362.307617,4417.436035,0.000000,0.000000,7.000000,,,,0.000000,2.000000,2.000000,0.000000,2.000000,2.000000,2.000000,0.000000,2.000000,4.000000,4.000000,4.000000,4.000000,2.000000,4.000000,16.666666,,,,,,,,,,,,,,,,,,,,,,,,,,,,
1732083054.945666,1732083054.947101,35.000000,0.000000,4330.256348,4309.615234,4333.589844,4318.077148,4299.102539,4313.077148,4377.820313,4327.948730,4317.563965,4318.333496,4455.384766,4499.743652,4360.384766,4414.102539,0.000000,0.000000,7.000000,,,,0.000000,2.000000,2.000000,0.000000,2.000000,2.000000,2.000000,0.000000,2.000000,4.000000,4.000000,4.000000,4.000000,2.000000,4.000000,16.666666,,,,,,,,,,,,,,,,,,,,,,,,,,,,
1732083054.953474,1732083054.955009,36.000000,0.000000,4329.871582,4306.922852,4329.615234,4314.743652,4300.384766,4309.743652,4375.641113,4325.000000,4316.666504,4321.025879,4456.410156,4495.384766,4361.666504,4412.307617,0.000000,0.000000,7.000000,,,,0.000000,2.000000,2.000000,0.000000,2.000000,2.000000,2.000000,0.000000,2.000000,4.000000,4.000000,4.000000,4.000000,2.000000,4.000000,16.666666,,,,,,,,,,,,,,,,,9.000000,0.000000,0.601973,0.412537,-0.590393,0.344788,0.991332,0.101575,-0.032719,-75.867050,61.497978,27.765095
1732083054.961283,1732083054.962817,37.000000,0.000000,4325.897461,4308.589844,4330.897461,4315.384766,4316.025879,4309.102539,4377.820313,4320.641113,4314.615234,4319.487305,4457.692383,4491.153809,4364.487305,4412.692383,0.000000,0.000000,7.000000,,,,0.000000,2.000000,2.000000,0.000000,2.000000,2.000000,2.000000,0.000000,2.000000,4.000000,4.000000,4.000000,4.000000,2.000000,4.000000,16.666666,,,,,,,,,,,,,,,,,,,,,,,,,,,,
1732083054.969091,1732083054.970825,38.000000,0.000000,4328.333496,4310.769043,4332.692383,4319.615234,4312.692383,4313.205078,4380.512695,4326.025879,4321.025879,4319.615234,4457.563965,4492.307617,4363.846191,4411.538574,0.000000,0.000000,7.000000,,,,0.000000,2.000000,2.000000,0.000000,2.000000,2.000000,2.000000,0.000000,2.000000,4.000000,4.000000,4.000000,4.000000,2.000000,4.000000,16.666666,,,,,,,,,,,,,,,,,,,,,,,,,,,,
1732083054.976899,1732083054.978633,39.000000,0.000000,4327.948730,4308.333496,4332.051270,4316.922852,4295.256348,4320.256348,4382.307617,4331.794922,4323.205078,4317.436035,4456.666504,4491.666504,4359.102539,4411.794922,0.000000,0.000000,7.000000,,,,0.000000,2.000000,2.000000,0.000000,2.000000,2.000000,2.000000,0.000000,2.000000,4.000000,4.000000,4.000000,4.000000,2.000000,4.000000,16.666666,,,,,,,,,,,,,,,,,,,,,,,,,,,,
1732083054.984707,1732083054.986541,40.000000,0.000000,4322.563965,4308.846191,4328.717773,4316.282227,4296.666504,4320.641113,4378.717773,4325.128418,4314.871582,4313.461426,4457.563965,4492.307617,4360.512695,4414.487305,0.000000,0.000000,7.000000,,,,0.000000,2.000000,2.000000,0.000000,2.000000,2.000000,2.000000,0.000000,2.000000,4.000000,4.000000,4.000000,4.000000,2.000000,4.000000,16.666666,,,,,,,,,,,,,,,,,10.000000,0.000000,0.601973,0.412537,-0.590393,0.344788,0.980588,0.101087,-0.060066,-76.077316,61.346695,27.356392
1732083054.992516,1732083054.994350,41.000000,0.000000,4322.948730,4314.358887,4330.384766,4324.871582,4302.307617,4313.974121,4377.436035,4318.333496,4312.436035,4314.487305,4457.820313,4497.179688,4365.769043,4415.384766,0.000000,0.000000,7.000000,,,,0.000000,2.000000,2.000000,0.000000,2.000000,2.000000,2.000000,0.000000,2.000000,4.000000,4.000000,4.000000,4.000000,2.000000,4.000000,16.666666,,,,,,,,,,,,,,,,,,,,,,,,,,,,
1732083055.000324,1732083055.002358,42.000000,0.000000,4330.000000,4319.743652,4331.666504,4332.563965,4302.436035,4314.102539,4376.025879,4318.846191,4316.538574,4311.922852,4456.025879,4497.051270,4366.922852,4413.974121,0.000000,0.000000,7.000000,,,,0.000000,2.000000,2.000000,0.000000,2.000000,2.000000,2.000000,0.000000,2.000000,4.000000,4.000000,4.000000,4.000000,2.000000,4.000000,16.666666,,,,,,,,,,,,,,,,,,,,,,,,,,,,
1732083055.008132,1732083055.010166,43.000000,0.000000,4327.692383,4317.436035,4331.410156,4326.410156,4306.666504,4320.000000,4374.871582,4319.615234,4319.230957,4306.666504,4455.512695,4490.128418,4366.282227,4409.487305,0.000000,0.000000,7.000000,,,,0.000000,2.000000,2.000000,0.000000,2.000000,2.000000,2.000000,0.000000,2.000000,4.000000,4.000000,4.000000,4.000000,2.000000,4.000000,16.666666,,,,,,,,,,,,,,,,,,,,,,,,,,,,
1732083055.015941,1732083055.018074,44.000000,0.000000,4319.743652,4310.641113,4328.461426,4318.717773,4306.410156,4321.794922,4372.563965,4321.410156,4324.358887,4313.461426,4456.666504,4486.666504,4366.025879,4405.512695,0.000000,0.000000,7.000000,,,,0.000000,2.000000,2.000000,0.000000,2.000000,2.000000,2.000000,0.000000,2.000000,4.000000,4.000000,4.000000,4.000000,2.000000,4.000000,16.666666,,,,,,,,,,,,,,,,,11.000000,0.000000,0.596449,0.411316,-0.597168,0.344177,0.952265,0.049811,-0.066414,-76.182625,61.262489,27.082012
1732083055.023749,1732083055.025882,45.000000,0.000000,4318.974121,4307.820313,4329.358887,4319.871582,4305.512695,4317.948730,4372.948730,4327.051270,4327.820313,4318.205078,4453.974121,4486.922852,4364.358887,4404.230957,0.000000,0.000000,7.000000,,,,0.000000,2.000000,2.000000,0.000000,2.000000,2.000000,2.000000,0.000000,2.000000,4.000000,4.000000,4.000000,4.000000,2.000000,4.000000,16.666666,,,,,,,,,,,,,,,,,,,,,,,,,,,,
1732083055.031557,1732083055.033890,46.000000,0.000000,4320.897461,4308.589844,4327.820313,4319.358887,4314.358887,4313.333496,4370.641113,4332.051270,4327.820313,4310.769043,4448.846191,4488.077148,4360.641113,4397.692383,0.000000,0.000000,7.000000,,,,0.000000,2.000000,2.000000,0.000000,2.000000,2.000000,2.000000,0.000000,2.000000,4.000000,4.000000,4.000000,4.000000,2.000000,4.000000,16.666666,,,,,,,,,,,,,,,,,,,,,,,,,,,,
1732083055.039365,1732083055.041698,47.000000,0.000000,4316.922852,4308.846191,4323.461426,4313.974121,4308.077148,4316.410156,4370.897461,4326.153809,4323.461426,4310.000000,4448.846191,4488.846191,4359.230957,4393.461426,0.000000,0.000000,7.000000,,,,0.000000,2.000000,2.000000,0.000000,2.000000,2.000000,2.000000,0.000000,2.000000,4.000000,4.000000,4.000000,4.000000,2.000000,4.000000,16.666666,,,,,,,,,,,,,,,,,,,,,,,,,,,,
1732083055.047174,1732083055.049606,48.000000,0.000000,4316.538574,4308.717773,4325.384766,4314.358887,4293.846191,4326.153809,4373.974121,4323.717773,4315.769043,4311.538574,4456.666504,4489.230957,4361.153809,4402.307617,0.000000,0.000000,7.000000,,,,0.000000,2.000000,2.000000,0.000000,2.000000,2.000000,2.000000,0.000000,2.000000,4.000000,4.000000,4.000000,4.000000,2.000000,4.000000,16.666666,,,,,,,,,,,,,,,,,12.000000,0.000000,0.592725,0.408691,-0.602478,0.344482,0.924429,0.065926,-0.091320,-76.247925,61.199284,26.643097
1732083055.054982,1732083055.057415,49.000000,0.000000,4321.794922,4310.512695,4331.794922,4319.871582,4300.000000,4325.000000,4375.128418,4331.922852,4317.692383,4307.563965,4461.666504,4489.230957,4364.230957,4407.307617,0.000000,0.000000,7.000000,,,,0.000000,2.000000,2.000000,0.000000,2.000000,2.000000,2.000000,0.000000,2.000000,4.000000,4.000000,4.000000,4.000000,2.000000,4.000000,16.666666,,,,,,,,,,,,,,,,,,,,,,,,,,,,
1732083055.062790,1732083055.065423,50.000000,0.000000,4319.230957,4309.230957,4333.205078,4320.512695,4312.563965,4314.230957,4375.512695,4332.820313,4324.487305,4307.436035,4458.205078,4487.563965,4364.487305,4404.358887,0.000000,0.000000,7.000000,,,,0.000000,2.000000,2.000000,0.000000,2.000000,2.000000,2.000000,0.000000,2.000000,4.000000,4.000000,4.000000,4.000000,2.000000,4.000000,16.666666,,,,,,,,,,,,,,,,,,,,,,,,,,,,
1732083055.070598,1732083055.073231,51.000000,0.000000,4314.102539,4308.974121,4330.000000,4317.692383,4309.102539,4314.871582,4373.205078,4324.615234,4319.743652,4308.461426,4457.436035,4487.179688,4361.922852,4406.922852,0.000000,0.000000,7.000000,,,,0.000000,2.000000,2.000000,0.000000,2.000000,2.000000,2.000000,0.000000,2.000000,4.000000,4.000000,4.000000,4.000000,2.000000,4.000000,16.666666,,,,,,,,,,,,,,,,,,,,,,,,,,,,
1732083055.078407,1732083055.081139,52.000000,0.000000,4318.205078,4312.051270,4331.025879,4318.846191,4301.282227,4318.333496,4369.743652,4321.922852,4313.589844,4308.717773,4462.051270,4490.512695,4364.487305,4410.641113,0.000000,0.000000,7.000000,,,,0.000000,2.000000,2.000000,0.000000,2.000000,2.000000,2.000000,0.000000,2.000000,4.000000,4.000000,4.000000,4.000000,2.000000,4.000000,16.666666,,,,,,,,,,,,,,,,,13.000000,0.000000,0.591537,0.408264,-0.603760,0.344788,0.924429,0.065926,-0.091320,-76.124153,60.926418,26.329241
1732083055.086215,1732083055.088947,53.000000,0.000000,4321.666504,4312.436035,4332.563965,4321.025879,4304.743652,4311.025879,4370.512695,4325.128418,4321.666504,4306.666504,4459.358887,4490.641113,4364.487305,4407.307617,0.000000,0.000000,7.000000,,,,0.000000,2.000000,2.000000,0.000000,2.000000,2.000000,2.000000,0.000000,2.000000,4.000000,4.000000,4.000000,4.000000,2.000000,4.000000,16.666666,,,,,,,,,,,,,,,,,,,,,,,,,,,,
1732083055.094023,1732083055.096556,54.000000,0.000000,4315.897461,4311.025879,4333.077148,4320.256348,4306.025879,4310.256348,4373.205078,4326.538574,4326.025879,4299.102539,4451.153809,4489.358887,4359.871582,4402.563965,0.000000,0.000000,7.000000,,,,0.000000,2.000000,2.000000,0.000000,2.000000,2.000000,2.000000,0.000000,2.000000,4.000000,4.000000,4.000000,4.000000,2.000000,4.000000,16.666666,,,,,,,,,,,,,,,,,,,,,,,,,,,,
1732083055.101832,1732083055.104364,55.000000,0.000000,4311.666504,4312.948730,4330.128418,4317.948730,4306.025879,4318.333496,4370.512695,4327.563965,4320.897461,4296.922852,4451.538574,4487.179688,4361.538574,4397.820313,0.000000,0.000000,7.000000,,,,0.000000,2.000000,2.000000,0.000000,2.000000,2.000000,2.000000,0.000000,2.000000,4.000000,4.000000,4.000000,4.000000,2.000000,4.000000,16.666666,,,,,,,,,,,,,,,,,,,,,,,,,,,,
1732083055.109640,1732083055.112072,56.000000,0.000000,4312.820313,4314.743652,4330.128418,4316.666504,4315.256348,4316.410156,4371.538574,4328.717773,4323.461426,4307.563965,4457.820313,4484.230957,4368.077148,4397.436035,0.000000,0.000000,7.000000,,,,0.000000,2.000000,2.000000,0.000000,2.000000,2.000000,2.000000,0.000000,2.000000,4.000000,4.000000,4.000000,4.000000,2.000000,4.000000,16.666666,,,,,,,,,,,,,,,,,14.000000,0.000000,0.589933,0.406677,-0.606567,0.344482,0.944940,0.065926,-0.095715,-76.090561,60.667068,26.068352
1732083055.117448,1732083055.119880,57.000000,0.000000,4315.000000,4313.717773,4329.358887,4317.820313,4314.230957,4314.615234,4377.051270,4336.025879,4336.025879,4316.794922,4460.128418,4486.410156,4372.436035,4401.666504,0.000000,0.000000,7.000000,,,,0.000000,2.000000,2.000000,0.000000,2.000000,2.000000,2.000000,0.000000,2.000000,4.000000,4.000000,4.000000,4.000000,2.000000,4.000000,16.666666,,,,,,,,,,,,,,,,,,,,,,,,,,,,
1732083055.125256,1732083055.127489,58.000000,0.000000,4312.692383,4310.256348,4328.461426,4318.717773,4298.205078,4320.384766,4378.461426,4346.153809,4339.871582,4319.230957,4461.538574,4489.102539,4371.410156,4402.307617,0.000000,0.000000,7.000000,,,,0.000000,2.000000,2.000000,0.000000,2.000000,2.000000,2.000000,0.000000,2.000000,4.000000,4.000000,4.000000,4.000000,2.000000,4.000000,16.666666,,,,,,,,,,,,,,,,,,,,,,,,,,,,
1732083055.133065,1732083055.135297,59.000000,0.000000,4307.692383,4309.615234,4327.179688,4318.717773,4295.128418,4321.025879,4372.436035,4335.384766,4327.948730,4319.102539,4467.948730,4488.589844,4370.897461,4406.666504,0.000000,0.000000,7.000000,,,,0.000000,2.000000,2.000000,0.000000,2.000000,2.000000,2.000000,0.000000,2.000000,4.000000,4.000000,4.000000,4.000000,2.000000,4.000000,16.666666,,,,,,,,,,,,,,,,,,,,,,,,,,,,
1732083055.140873,1732083055.143005,60.000000,0.000000,4306.794922,4311.282227,4327.692383,4318.461426,4307.948730,4319.358887,4372.692383,4325.384766,4321.153809,4316.282227,4468.846191,4488.974121,4370.897461,4408.974121,0.000000,0.000000,7.000000,,,,0.000000,2.000000,2.000000,0.000000,2.000000,2.000000,2.000000,0.000000,2.000000,4.000000,4.000000,4.000000,4.000000,2.000000,4.000000,16.666666,,,,,,,,,,,,,,,,,15.000000,0.000000,0.587031,0.404297,-0.610718,0.344910,0.966427,0.054694,-0.094250,-76.175026,60.193657,25.948698
1732083055.148681,1732083055.150813,61.000000,0.000000,4312.436035,4311.794922,4326.410156,4317.563965,4307.179688,4320.256348,4372.563965,4332.948730,4328.333496,4318.333496,4461.922852,4485.000000,4369.102539,4402.692383,0.000000,0.000000,7.000000,,,,0.000000,2.000000,2.000000,0.000000,2.000000,2.000000,2.000000,0.000000,2.000000,4.000000,4.000000,4.000000,4.000000,2.000000,4.000000,16.666666,,,,,,,,,,,,,,,,,,,,,,,,,,,,
1732083055.156489,1732083055.158422,62.000000,0.000000,4314.615234,4310.256348,4326.025879,4316.153809,4301.410156,4319.743652,4369.102539,4329.871582,4330.769043,4318.077148,4458.205078,4480.512695,4368.333496,4400.256348,0.000000,0.000000,7.000000,,,,0.000000,2.000000,2.000000,0.000000,2.000000,2.000000,2.000000,0.000000,2.000000,4.000000,4.000000,4.000000,4.000000,2.000000,4.000000,16.666666,,,,,,,,,,,,,,,,,,,,,,,,,,,,
1732083055.164298,1732083055.166230,63.000000,0.000000,4310.256348,4310.256348,4325.897461,4316.282227,4306.282227,4316.538574,4367.051270,4323.205078,4326.922852,4316.410156,4462.948730,4484.358887,4370.897461,4403.333496,0.000000,0.000000,7.000000,,,,0.000000,2.000000,2.000000,0.000000,2.000000,2.000000,2.000000,0.000000,2.000000,4.000000,4.000000,4.000000,4.000000,2.000000,4.000000,16.666666,,,,,,,,,,,,,,,,,,,,,,,,,,,,
1732083055.172106,1732083055.174138,64.000000,0.000000,4310.256348,4310.641113,4325.256348,4318.461426,4304.102539,4317.436035,4370.256348,4333.461426,4330.512695,4322.820313,4469.487305,4487.436035,4371.922852,4401.538574,0.000000,0.000000,7.000000,,,,0.000000,2.000000,2.000000,0.000000,2.000000,2.000000,2.000000,0.000000,2.000000,4.000000,4.000000,4.000000,4.000000,2.000000,4.000000,16.666666,,,,,,,,,,,,,,,,,16.000000,0.000000,0.585827,0.402527,-0.612488,0.345886,0.971310,0.034184,-0.102063,-76.413437,59.756863,25.710112
1732083055.179914,1732083055.181946,65.000000,0.000000,4313.461426,4310.897461,4327.563965,4318.717773,4306.666504,4319.102539,4369.358887,4339.230957,4332.436035,4320.512695,4471.410156,4486.025879,4370.128418,4401.538574,1310.000000,0.000000,7.000000,,,,0.000000,2.000000,2.000000,0.000000,2.000000,2.000000,2.000000,0.000000,2.000000,4.000000,4.000000,4.000000,4.000000,2.000000,4.000000,16.666666,,,,,,,,,,,,,,,,,,,,,,,,,,,,
1732083055.187722,1732083055.189954,66.000000,0.000000,4313.846191,4314.871582,4328.077148,4318.717773,4323.974121,4316.025879,4365.769043,4331.794922,4327.692383,4309.615234,4468.333496,4490.000000,4370.641113,4405.000000,1230.000000,0.000000,7.000000,,,,0.000000,2.000000,2.000000,0.000000,2.000000,2.000000,2.000000,0.000000,2.000000,4.000000,4.000000,4.000000,4.000000,2.000000,4.000000,16.666666,,,,,,,,,,,,,,,,,,,,,,,,,,,,
1732083055.195531,1732083055.197763,67.000000,0.000000,4312.179688,4317.820313,4326.538574,4323.717773,4324.615234,4317.820313,4370.641113,4334.102539,4330.128418,4313.589844,4465.641113,4494.102539,4370.769043,4402.692383,1184.000000,0.000000,7.000000,,,,0.000000,2.000000,2.000000,0.000000,2.000000,2.000000,2.000000,0.000000,2.000000,4.000000,4.000000,4.000000,4.000000,2.000000,4.000000,16.666666,,,,,,,,,,,,,,,,,,,,,,,,,,,,
1732083055.203339,1732083055.205471,68.000000,0.000000,4312.563965,4316.410156,4326.282227,4326.153809,4305.769043,4326.282227,4373.333496,4339.102539,4333.077148,4322.820313,4465.641113,4491.410156,4367.948730,4400.128418,1207.000000,0.000000,7.000000,,,,0.000000,2.000000,2.000000,0.000000,2.000000,2.000000,2.000000,0.000000,2.000000,4.000000,4.000000,4.000000,4.000000,2.000000,4.000000,16.666666,,,,,,,,,,,,,,,,,17.000000,0.000000,0.585172,0.401733,-0.613220,0.346619,0.971310,0.034184,-0.102063,-76.648216,59.494724,25.630192
1732083055.211147,1732083055.213279,69.000000,0.000000,4313.205078,4318.205078,4329.743652,4322.307617,4302.820313,4325.384766,4369.615234,4333.589844,4330.769043,4317.563965,4465.512695,4492.179688,4366.153809,4400.897461,1077.000000,0.000000,7.000000,,,,0.000000,2.000000,2.000000,0.000000,2.000000,2.000000,2.000000,0.000000,2.000000,4.000000,4.000000,4.000000,4.000000,2.000000,4.000000,16.666666,,,,,,,,,,,,,,,,,,,,,,,,,,,,
1732083055.218955,1732083055.220887,70.000000,0.000000,4313.846191,4321.282227,4328.461426,4318.333496,4313.333496,4317.179688,4366.153809,4334.230957,4333.589844,4315.128418,4468.077148,4496.794922,4370.897461,4407.563965,28.000000,0.000000,7.000000,,,,0.000000,2.000000,2.000000,0.000000,2.000000,2.000000,2.000000,0.000000,2.000000,4.000000,4.000000,4.000000,4.000000,2.000000,4.000000,16.666666,,,,,,,,,,,,,,,,,,,,,,,,,,,,
1732083055.226764,1732083055.228696,71.000000,0.000000,4314.102539,4318.974121,4327.179688,4317.307617,4310.256348,4316.282227,4370.000000,4342.051270,4338.974121,4318.077148,4468.974121,4496.153809,4371.025879,4411.410156,1177.000000,0.000000,7.000000,,,,0.000000,2.000000,2.000000,0.000000,2.000000,2.000000,2.000000,0.000000,2.000000,4.000000,4.000000,4.000000,4.000000,2.000000,4.000000,16.666666,,,,,,,,,,,,,,,,,,,,,,,,,,,,
1732083055.234572,1732083055.236404,72.000000,0.000000,4312.179688,4315.641113,4327.179688,4319.871582,4304.230957,4319.358887,4369.358887,4342.948730,4338.846191,4320.897461,4463.589844,4491.410156,4366.538574,4403.461426,1352.000000,0.000000,7.000000,,,,0.000000,2.000000,2.000000,0.000000,2.000000,2.000000,2.000000,0.000000,2.000000,4.000000,4.000000,4.000000,4.000000,2.000000,4.000000,16.666666,,,,,,,,,,,,,,,,,18.000000,0.000000,0.583298,0.396362,-0.616516,0.350098,0.967892,-0.032719,-0.088390,-77.063385,58.862392,25.573788
1732083055.242380,1732083055.244212,73.000000,0.000000,4308.717773,4316.922852,4328.333496,4320.897461,4310.000000,4317.820313,4366.922852,4334.615234,4336.666504,4322.948730,4459.615234,4490.256348,4365.897461,4397.436035,1504.000000,0.000000,7.000000,,,,0.000000,2.000000,2.000000,0.000000,2.000000,2.000000,2.000000,0.000000,2.000000,4.000000,4.000000,4.000000,4.000000,2.000000,4.000000,16.666666,,,,,,,,,,,,,,,,,,,,,,,,,,,,
1732083055.250188,1732083055.252220,74.000000,0.000000,4306.282227,4316.153809,4326.153809,4320.897461,4324.615234,4316.922852,4367.436035,4334.102539,4335.128418,4313.333496,4460.769043,4490.512695,4365.512695,4400.256348,1377.000000,0.000000,7.000000,,,,0.000000,2.000000,2.000000,0.000000,2.000000,2.000000,2.000000,0.000000,2.000000,4.000000,4.000000,4.000000,4.000000,2.000000,4.000000,16.666666,,,,,,,,,,,,,,,,,,,,,,,,,,,,
1732083055.257997,1732083055.260028,75.000000,0.000000,4308.461426,4315.384766,4326.794922,4322.436035,4323.846191,4324.230957,4368.974121,4342.820313,4336.025879,4305.256348,4461.025879,4490.128418,4363.846191,4401.410156,1518.000000,0.000000,7.000000,,,,0.000000,2.000000,2.000000,0.000000,2.000000,2.000000,2.000000,0.000000,2.000000,4.000000,4.000000,4.000000,4.000000,2.000000,4.000000,16.666666,,,,,,,,,,,,,,,,,,,,,,,,,,,,
1732083055.265805,1732083055.267937,76.000000,0.000000,4311.025879,4319.871582,4326.538574,4323.974121,4307.563965,4328.717773,4365.512695,4343.974121,4341.666504,4316.538574,4461.666504,4492.179688,4364.743652,4403.717773,1733.000000,0.000000,7.000000,,,,0.000000,2.000000,2.000000,0.000000,2.000000,2.000000,2.000000,0.000000,2.000000,4.000000,4.000000,4.000000,4.000000,2.000000,4.000000,16.666666,,,,,,,,,,,,,,,,,19.000000,0.000000,0.582883,0.393372,-0.617676,0.352112,0.981077,-0.024417,-0.069344,-77.366348,58.616871,25.278101
1732083055.273613,1732083055.275745,77.000000,0.000000,4308.333496,4319.743652,4323.974121,4319.871582,4307.563965,4322.307617,4364.358887,4339.871582,4343.333496,4324.615234,4461.922852,4491.666504,4363.846191,4406.538574,1633.000000,0.000000,7.000000,,,,0.000000,2.000000,2.000000,0.000000,2.000000,2.000000,2.000000,0.000000,2.000000,4.000000,4.000000,4.000000,4.000000,2.000000,4.000000,16.666666,,,,,,,,,,,,,,,,,,,,,,,,,,,,
1732083055.281422,1732083055.283753,78.000000,0.000000,4305.769043,4312.179688,4323.333496,4313.333496,4315.384766,4316.025879,4364.743652,4340.769043,4339.743652,4318.077148,4462.692383,4488.846191,4360.641113,4400.897461,1377.000000,0.000000,7.000000,,,,0.000000,2.000000,2.000000,0.000000,2.000000,2.000000,2.000000,0.000000,2.000000,4.000000,4.000000,4.000000,4.000000,2.000000,4.000000,16.666666,1.000000,16.666666,2.000000,2.000000,0.000000,2.000000,2.000000,2.000000,0.000000,2.000000,4.000000,4.000000,4.000000,4.000000,2.000000,3.000000,,,,,,,,,,,,
1732083055.289230,1732083055.291561,79.000000,0.000000,4303.846191,4309.230957,4325.769043,4313.205078,4309.102539,4319.102539,4365.256348,4341.410156,4339.615234,4317.436035,4466.153809,4489.102539,4363.461426,4396.025879,1518.000000,0.000000,7.000000,,,,0.000000,2.000000,2.000000,0.000000,2.000000,2.000000,2.000000,0.000000,2.000000,4.000000,4.000000,4.000000,4.000000,2.000000,4.000000,16.666666,,,,,,,,,,,,,,,,,,,,,,,,,,,,
1732083055.297038,1732083055.299469,80.000000,0.000000,4303.461426,4313.077148,4324.615234,4315.128418,4315.641113,4321.538574,4362.051270,4333.717773,4338.589844,4322.051270,4464.615234,4487.179688,4366.153809,4396.794922,1733.000000,0.000000,7.000000,,,,0.000000,2.000000,2.000000,0.000000,2.000000,2.000000,2.000000,0.000000,2.000000,4.000000,4.000000,4.000000,4.000000,2.000000,4.000000,16.666666,,,,,,,,,,,,,,,,,20.000000,0.000000,0.582862,0.391785,-0.618286,0.352844,0.987914,-0.022952,-0.067879,-77.233406,58.151333,24.971930
1732083055.304846,1732083055.307277,81.000000,0.000000,4307.948730,4315.769043,4321.153809,4315.384766,4332.692383,4317.179688,4359.102539,4332.179688,4335.512695,4318.461426,4458.461426,4482.820313,4362.563965,4398.717773,1633.000000,0.000000,7.000000,,,,0.000000,2.000000,2.000000,0.000000,2.000000,2.000000,2.000000,0.000000,2.000000,4.000000,4.000000,4.000000,4.000000,2.000000,4.000000,16.666666,,,,,,,,,,,,,,,,,,,,,,,,,,,,
1732083055.312655,1732083055.314886,82.000000,0.000000,4313.205078,4317.307617,4324.615234,4321.025879,4321.538574,4318.205078,4359.871582,4340.512695,4336.794922,4318.333496,4461.666504,4485.512695,4364.871582,4404.102539,1377.000000,0.000000,7.000000,,,,0.000000,2.000000,2.000000,0.000000,2.000000,2.000000,2.000000,0.000000,2.000000,4.000000,4.000000,4.000000,4.000000,2.000000,4.000000,16.666666,,,,,,,,,,,,,,,,,,,,,,,,,,,,
1732083055.320463,1732083055.322694,83.000000,0.000000,4315.000000,4320.000000,4327.820313,4327.179688,4306.025879,4322.820313,4361.410156,4340.256348,4339.743652,4326.538574,4468.205078,4491.153809,4370.256348,4406.538574,1518.000000,0.000000,7.000000,,,,0.000000,2.000000,2.000000,0.000000,2.000000,2.000000,2.000000,0.000000,2.000000,4.000000,4.000000,4.000000,4.000000,2.000000,4.000000,16.666666,,,,,,,,,,,,,,,,,,,,,,,,,,,,
1732083055.328271,1732083055.330402,84.000000,0.000000,4316.025879,4320.512695,4326.538574,4323.205078,4313.077148,4321.922852,4363.589844,4336.153809,4338.717773,4325.769043,4468.205078,4494.871582,4370.769043,4405.128418,1733.000000,0.000000,7.000000,,,,0.000000,2.000000,2.000000,0.000000,2.000000,2.000000,2.000000,0.000000,2.000000,4.000000,4.000000,4.000000,4.000000,2.000000,4.000000,16.666666,,,,,,,,,,,,,,,,,21.000000,0.000000,0.583175,0.387451,-0.620300,0.353577,1.002075,-0.000488,-0.068856,-77.505722,57.900913,24.533930
1732083055.336079,1732083055.338210,85.000000,0.000000,4314.615234,4316.410156,4323.077148,4317.307617,4318.846191,4319.871582,4364.743652,4336.410156,4336.538574,4314.487305,4466.410156,4497.179688,4367.051270,4408.589844,1633.000000,0.000000,7.000000,,,,0.000000,2.000000,2.000000,0.000000,2.000000,2.000000,2.000000,0.000000,2.000000,4.000000,4.000000,4.000000,4.000000,2.000000,4.000000,16.666666,,,,,,,,,,,,,,,,,,,,,,,,,,,,
1732083055.343888,1732083055.346218,86.000000,0.000000,4308.333496,4312.948730,4326.794922,4318.461426,4314.615234,4319.743652,4365.641113,4336.282227,4334.358887,4313.846191,4467.051270,4498.205078,4366.922852,4411.666504,1377.000000,0.000000,7.000000,,,,0.000000,2.000000,2.000000,0.000000,2.000000,2.000000,2.000000,0.000000,2.000000,4.000000,4.000000,4.000000,4.000000,2.000000,4.000000,16.666666,,,,,,,,,,,,,,,,,,,,,,,,,,,,
1732083055.351696,1732083055.354027,87.000000,0.000000,4307.563965,4315.512695,4328.077148,4323.077148,4311.282227,4318.974121,4362.948730,4333.974121,4334.871582,4323.974121,4468.974121,4496.025879,4372.692383,4408.974121,1518.000000,0.000000,7.000000,,,,0.000000,2.000000,2.000000,0.000000,2.000000,2.000000,2.000000,0.000000,2.000000,4.000000,4.000000,4.000000,4.000000,2.000000,4.000000,16.666666,,,,,,,,,,,,,,,,,,,,,,,,,,,,
1732083055.359504,1732083055.361935,88.000000,0.000000,4310.384766,4316.666504,4325.897461,4319.230957,4317.307617,4317.948730,4361.666504,4333.846191,4336.282227,4322.436035,4465.000000,4489.871582,4370.256348,4404.615234,1733.000000,0.000000,7.000000,,,,0.000000,2.000000,2.000000,0.000000,2.000000,2.000000,2.000000,0.000000,2.000000,4.000000,4.000000,4.000000,4.000000,2.000000,4.000000,16.666666,,,,,,,,,,,,,,,,,22.000000,0.000000,0.583221,0.384460,-0.622253,0.353333,0.972775,-0.002442,-0.064949,-77.752968,57.666405,24.547483
1732083055.367313,1732083055.369743,89.000000,0.000000,4307.692383,4313.589844,4325.000000,4313.717773,4323.461426,4319.615234,4360.897461,4340.384766,4335.256348,4317.051270,4455.769043,4487.948730,4360.000000,4400.897461,1633.000000,0.000000,7.000000,,,,0.000000,2.000000,2.000000,0.000000,2.000000,2.000000,2.000000,0.000000,2.000000,4.000000,4.000000,4.000000,4.000000,2.000000,4.000000,16.666666,,,,,,,,,,,,,,,,,,,,,,,,,,,,
1732083055.375121,1732083055.377751,90.000000,0.000000,4306.282227,4317.436035,4327.051270,4317.179688,4314.743652,4319.230957,4362.051270,4343.846191,4335.897461,4322.307617,4459.743652,4492.436035,4364.358887,4403.077148,1377.000000,0.000000,7.000000,,,,0.000000,2.000000,2.000000,0.000000,2.000000,2.000000,2.000000,0.000000,2.000000,4.000000,4.000000,4.000000,4.000000,2.000000,4.000000,16.666666,,,,,,,,,,,,,,,,,,,,,,,,,,,,
1732083055.382929,1732083055.385559,91.000000,0.000000,4312.307617,4325.769043,4326.538574,4323.717773,4302.948730,4318.077148,4361.410156,4337.179688,4336.666504,4327.563965,4472.051270,4493.205078,4375.641113,4410.000000,1518.000000,0.000000,7.000000,,,,0.000000,2.000000,2.000000,0.000000,2.000000,2.000000,2.000000,0.000000,2.000000,4.000000,4.000000,4.000000,4.000000,2.000000,4.000000,16.666666,,,,,,,,,,,,,,,,,,,,,,,,,,,,
1732083055.390737,1732083055.393467,92.000000,0.000000,4313.333496,4323.333496,4326.282227,4322.692383,4308.461426,4320.641113,4362.051270,4334.487305,4330.128418,4322.948730,4470.512695,4487.948730,4370.769043,4409.487305,1733.000000,0.000000,7.000000,,,,0.000000,2.000000,2.000000,0.000000,2.000000,2.000000,2.000000,0.000000,2.000000,4.000000,4.000000,4.000000,4.000000,2.000000,4.000000,16.666666,,,,,,,,,,,,,,,,,23.000000,0.000000,0.583406,0.383484,-0.622925,0.352905,0.976682,0.000977,-0.067391,-78.081573,57.493122,24.533461
1732083055.398546,1732083055.401275,93.000000,0.000000,4306.538574,4315.641113,4326.538574,4318.077148,4319.102539,4320.000000,4361.410156,4343.589844,4329.102539,4316.794922,4464.358887,4486.282227,4362.179688,4400.641113,1633.000000,0.000000,7.000000,,,,0.000000,2.000000,2.000000,0.000000,2.000000,2.000000,2.000000,0.000000,2.000000,4.000000,4.000000,4.000000,4.000000,2.000000,4.000000,16.666666,,,,,,,,,,,,,,,,,,,,,,,,,,,,
1732083055.406354,1732083055.409283,94.000000,0.000000,4303.717773,4315.769043,4327.179688,4315.641113,4316.794922,4319.615234,4361.794922,4346.666504,4335.128418,4319.487305,4466.410156,4492.948730,4362.051270,4399.743652,1377.000000,0.000000,7.000000,,,,0.000000,2.000000,2.000000,0.000000,2.000000,2.000000,2.000000,0.000000,2.000000,4.000000,4.000000,4.000000,4.000000,2.000000,4.000000,16.666666,,,,,,,,,,,,,,,,,,,,,,,,,,,,
1732083055.414162,1732083055.417092,95.000000,0.000000,4309.487305,4320.512695,4327.307617,4314.230957,4308.974121,4320.769043,4361.538574,4341.538574,4333.589844,4322.948730,4463.846191,4494.230957,4361.794922,4404.358887,1518.000000,0.000000,7.000000,,,,0.000000,2.000000,2.000000,0.000000,2.000000,2.000000,2.000000,0.000000,2.000000,4.000000,4.000000,4.000000,4.000000,2.000000,4.000000,16.666666,,,,,,,,,,,,,,,,,,,,,,,,,,,,
1732083055.421970,1732083055.424800,96.000000,0.000000,4314.615234,4323.077148,4327.179688,4314.871582,4315.897461,4317.051270,4360.000000,4338.589844,4327.179688,4314.358887,4458.205078,4484.615234,4364.230957,4401.794922,1733.000000,0.000000,7.000000,,,,0.000000,2.000000,2.000000,0.000000,2.000000,2.000000,2.000000,0.000000,2.000000,4.000000,4.000000,4.000000,4.000000,2.000000,4.000000,16.666666,,,,,,,,,,,,,,,,,24.000000,0.000000,0.583460,0.383118,-0.623169,0.352783,0.987914,-0.005860,-0.066903,-78.099411,57.194427,24.802103
1732083055.429779,1732083055.432608,97.000000,0.000000,4314.487305,4321.153809,4325.128418,4312.948730,4328.205078,4312.692383,4357.692383,4334.358887,4327.179688,4308.205078,4462.948730,4481.410156,4366.282227,4402.179688,1633.000000,0.000000,7.000000,,,,0.000000,2.000000,2.000000,0.000000,2.000000,2.000000,2.000000,0.000000,2.000000,4.000000,4.000000,4.000000,4.000000,2.000000,4.000000,16.666666,,,,,,,,,,,,,,,,,,,,,,,,,,,,
1732083055.437587,1732083055.440217,98.000000,0.000000,4312.563965,4318.077148,4325.769043,4310.512695,4316.153809,4315.384766,4358.717773,4334.743652,4333.461426,4319.102539,4470.897461,4490.256348,4365.128418,4407.948730,1377.000000,0.000000,7.000000,,,,0.000000,2.000000,2.000000,0.000000,2.000000,2.000000,2.000000,0.000000,2.000000,4.000000,4.000000,4.000000,4.000000,2.000000,4.000000,16.666666,,,,,,,,,,,,,,,,,,,,,,,,,,,,
1732083055.445395,1732083055.448025,99.000000,0.000000,4311.025879,4318.461426,4328.461426,4312.307617,4296.025879,4319.615234,4362.436035,4341.666504,4336.794922,4326.025879,4470.512695,4496.410156,4366.282227,4407.051270,1518.000000,0.000000,7.000000,,,,0.000000,2.000000,2.000000,0.000000,2.000000,2.000000,2.000000,0.000000,2.000000,4.000000,4.000000,4.000000,4.000000,2.000000,4.000000,16.666666,,,,,,,,,,,,,,,,,,,,,,,,,,,,
1732083055.453204,1732083055.455733,100.000000,0.000000,4312.179688,4318.717773,4326.410156,4314.743652,4303.974121,4319.615234,4362.436035,4344.102539,4333.205078,4318.077148,4471.025879,4494.102539,4366.153809,4401.794922,1733.000000,0.000000,7.000000,,,,0.000000,2.000000,2.000000,0.000000,2.000000,2.000000,2.000000,0.000000,2.000000,4.000000,4.000000,4.000000,4.000000,2.000000,4.000000,16.666666,,,,,,,,,,,,,,,,,25.000000,0.000000,0.583540,0.381958,-0.623840,0.352722,0.973263,0.007813,-0.073739,-78.183853,57.002487,24.736370
1732083055.461012,1732083055.463541,101.000000,0.000000,4312.436035,4315.384766,4324.615234,4313.205078,4315.897461,4319.487305,4363.077148,4347.436035,4331.153809,4315.384766,4475.256348,4492.948730,4362.692383,4403.717773,1633.000000,0.000000,7.000000,,,,0.000000,2.000000,2.000000,0.000000,2.000000,2.000000,2.000000,0.000000,2.000000,4.000000,4.000000,4.000000,4.000000,2.000000,4.000000,16.666666,,,,,,,,,,,,,,,,,,,,,,,,,,,,
1732083055.468820,1732083055.471150,102.000000,0.000000,4309.615234,4314.615234,4324.743652,4310.897461,4311.153809,4319.871582,4362.179688,4351.153809,4336.410156,4321.153809,4475.256348,4494.743652,4364.743652,4406.794922,1377.000000,0.000000,7.000000,,,,0.000000,2.000000,2.000000,0.000000,2.000000,2.000000,2.000000,0.000000,2.000000,4.000000,4.000000,4.000000,4.000000,2.000000,4.000000,16.666666,,,,,,,,,,,,,,,,,,,,,,,,,,,,
1732083055.476628,1732083055.478958,103.000000,0.000000,4306.922852,4315.128418,4325.769043,4310.256348,4306.538574,4320.128418,4361.666504,4345.769043,4336.410156,4317.436035,4472.948730,4494.871582,4369.487305,4404.615234,1518.000000,0.000000,7.000000,,,,0.000000,2.000000,2.000000,0.000000,2.000000,2.000000,2.000000,0.000000,2.000000,4.000000,4.000000,4.000000,4.000000,2.000000,4.000000,16.666666,,,,,,,,,,,,,,,,,,,,,,,,,,,,
1732083055.484437,1732083055.486666,104.000000,0.000000,4307.179688,4313.333496,4325.128418,4311.282227,4312.563965,4319.487305,4359.230957,4338.461426,4330.256348,4315.256348,4474.230957,4493.974121,4368.205078,4402.948730,1733.000000,0.000000,7.000000,,,,0.000000,2.000000,2.000000,0.000000,2.000000,2.000000,2.000000,0.000000,2.000000,4.000000,4.000000,4.000000,4.000000,2.000000,4.000000,16.666666,,,,,,,,,,,,,,,,,26.000000,0.000000,0.583572,0.381470,-0.623901,0.353088,0.970822,-0.002930,-0.067879,-78.268921,56.813683,24.699793
1732083055.492245,1732083055.494474,105.000000,0.000000,4307.051270,4312.820313,4326.922852,4309.102539,4322.179688,4318.589844,4360.128418,4338.846191,4330.641113,4321.153809,4471.538574,4489.743652,4359.358887,4401.922852,1633.000000,0.000000,7.000000,,,,0.000000,2.000000,2.000000,0.000000,2.000000,2.000000,2.000000,0.000000,2.000000,4.000000,4.000000,4.000000,4.000000,2.000000,4.000000,16.666666,,,,,,,,,,,,,,,,,,,,,,,,,,,,
1732083055.500053,1732083055.502482,106.000000,0.000000,4304.743652,4315.000000,4325.128418,4307.692383,4314.230957,4318.589844,4359.358887,4342.051270,4333.589844,4317.179688,4467.436035,4484.230957,4356.922852,4404.743652,1377.000000,0.000000,7.000000,,,,0.000000,2.000000,2.000000,0.000000,2.000000,2.000000,2.000000,0.000000,2.000000,4.000000,4.000000,4.000000,4.000000,2.000000,4.000000,16.666666,,,,,,,,,,,,,,,,,,,,,,,,,,,,
1732083055.507861,1732083055.510291,107.000000,0.000000,4302.948730,4316.025879,4326.794922,4312.563965,4297.692383,4320.000000,4359.487305,4342.436035,4331.666504,4306.538574,4469.615234,4484.230957,4366.025879,4405.384766,1518.000000,0.000000,7.000000,,,,0.000000,2.000000,2.000000,0.000000,2.000000,2.000000,2.000000,0.000000,2.000000,4.000000,4.000000,4.000000,4.000000,2.000000,4.000000,16.666666,,,,,,,,,,,,,,,,,,,,,,,,,,,,
1732083055.515669,1732083055.517999,108.000000,0.000000,4303.333496,4316.153809,4331.666504,4316.794922,4306.538574,4322.820313,4361.153809,4342.948730,4331.410156,4310.769043,4472.051270,4490.256348,4369.358887,4401.666504,1733.000000,0.000000,7.000000,,,,0.000000,2.000000,2.000000,0.000000,2.000000,2.000000,2.000000,0.000000,2.000000,4.000000,4.000000,4.000000,4.000000,2.000000,4.000000,16.666666,,,,,,,,,,,,,,,,,27.000000,0.000000,0.583572,0.381470,-0.623901,0.353088,0.975217,-0.010255,-0.074716,-78.292824,56.660748,24.820166
1732083055.523478,1732083055.525807,109.000000,0.000000,4305.128418,4318.974121,4330.769043,4317.436035,4321.666504,4324.615234,4362.948730,4344.743652,4331.538574,4319.871582,4472.179688,4493.461426,4364.743652,4400.000000,1633.000000,0.000000,7.000000,,,,0.000000,2.000000,2.000000,0.000000,2.000000,2.000000,2.000000,0.000000,2.000000,4.000000,4.000000,4.000000,4.000000,2.000000,4.000000,16.666666,,,,,,,,,,,,,,,,,,,,,,,,,,,,
1732083055.531286,1732083055.533416,110.000000,0.000000,4305.000000,4320.128418,4327.692383,4318.077148,4315.512695,4325.128418,4360.769043,4344.615234,4328.846191,4314.487305,4473.077148,4485.512695,4366.410156,4398.974121,1377.000000,0.000000,7.000000,,,,0.000000,2.000000,2.000000,0.000000,2.000000,2.000000,2.000000,0.000000,2.000000,4.000000,4.000000,4.000000,4.000000,2.000000,4.000000,16.666666,,,,,,,,,,,,,,,,,,,,,,,,,,,,
1732083055.539094,1732083055.541224,111.000000,0.000000,4300.384766,4317.051270,4328.333496,4315.512695,4314.102539,4322.820313,4359.871582,4341.666504,4327.692383,4310.000000,4470.641113,4481.282227,4368.589844,4399.230957,1518.000000,0.000000,7.000000,,,,0.000000,2.000000,2.000000,0.000000,2.000000,2.000000,2.000000,0.000000,2.000000,4.000000,4.000000,4.000000,4.000000,2.000000,4.000000,16.666666,,,,,,,,,,,,,,,,,,,,,,,,,,,,
1732083055.546903,1732083055.548932,112.000000,0.000000,4300.256348,4315.256348,4327.307617,4314.102539,4321.666504,4319.358887,4359.487305,4338.974121,4329.358887,4314.487305,4465.897461,4484.487305,4366.282227,4400.384766,1733.000000,0.000000,7.000000,,,,0.000000,2.000000,2.000000,0.000000,2.000000,2.000000,2.000000,0.000000,2.000000,4.000000,4.000000,4.000000,4.000000,2.000000,4.000000,16.666666,,,,,,,,,,,,,,,,,28.000000,0.000000,0.583698,0.379883,-0.624268,0.353943,0.982053,-0.014162,-0.065438,-78.263855,56.255207,24.789335
1732083055.554711,1732083055.556740,113.000000,0.000000,4303.589844,4314.487305,4327.563965,4315.769043,4314.487305,4317.563965,4358.077148,4340.256348,4330.256348,4315.384766,4461.666504,4483.717773,4365.256348,4398.974121,1633.000000,0.000000,7.000000,,,,0.000000,2.000000,2.000000,0.000000,2.000000,2.000000,2.000000,0.000000,2.000000,4.000000,4.000000,4.000000,4.000000,2.000000,4.000000,16.666666,,,,,,,,,,,,,,,,,,,,,,,,,,,,
1732083055.562519,1732083055.564349,114.000000,0.000000,4305.641113,4314.230957,4328.717773,4315.769043,4318.077148,4317.692383,4358.717773,4341.410156,4326.410156,4313.205078,4463.077148,4476.666504,4364.743652,4398.846191,1377.000000,0.000000,7.000000,,,,0.000000,2.000000,2.000000,0.000000,2.000000,2.000000,2.000000,0.000000,2.000000,4.000000,4.000000,4.000000,4.000000,2.000000,4.000000,16.666666,,,,,,,,,,,,,,,,,,,,,,,,,,,,
1732083055.570327,1732083055.572157,115.000000,0.000000,4307.563965,4312.948730,4322.692383,4314.230957,4327.820313,4318.205078,4359.871582,4339.230957,4323.461426,4316.282227,4472.179688,4475.256348,4368.077148,4408.589844,1518.000000,0.000000,7.000000,,,,0.000000,2.000000,2.000000,0.000000,2.000000,2.000000,2.000000,0.000000,2.000000,4.000000,4.000000,4.000000,4.000000,2.000000,4.000000,16.666666,,,,,,,,,,,,,,,,,,,,,,,,,,,,
1732083055.578136,1732083055.579865,116.000000,0.000000,4308.461426,4313.589844,4319.615234,4315.512695,4312.051270,4318.974121,4362.051270,4338.974121,4327.436035,4315.641113,4475.384766,4485.256348,4372.179688,4411.410156,1733.000000,0.000000,7.000000,,,,0.000000,2.000000,2.000000,0.000000,2.000000,2.000000,2.000000,0.000000,2.000000,4.000000,4.000000,4.000000,4.000000,2.000000,4.000000,16.666666,,,,,,,,,,,,,,,,,29.000000,0.000000,0.583823,0.378662,-0.624512,0.354614,0.990355,-0.029300,-0.053229,-78.183723,55.966717,24.784361
1732083055.585944,1732083055.587673,117.000000,0.000000,4309.487305,4317.436035,4325.256348,4316.153809,4299.615234,4317.563965,4360.512695,4343.077148,4333.461426,4311.538574,4467.692383,4487.307617,4366.538574,4403.846191,1633.000000,0.000000,7.000000,,,,0.000000,2.000000,2.000000,0.000000,2.000000,2.000000,2.000000,0.000000,2.000000,4.000000,4.000000,4.000000,4.000000,2.000000,4.000000,16.666666,,,,,,,,,,,,,,,,,,,,,,,,,,,,
1732083055.593752,1732083055.595681,118.000000,0.000000,4309.743652,4316.794922,4328.974121,4314.615234,4311.153809,4315.384766,4358.333496,4342.948730,4332.051270,4313.077148,4462.948730,4477.563965,4360.384766,4398.589844,1377.000000,0.000000,7.000000,,,,0.000000,2.000000,2.000000,0.000000,2.000000,2.000000,2.000000,0.000000,2.000000,4.000000,4.000000,4.000000,4.000000,2.000000,4.000000,16.666666,,,,,,,,,,,,,,,,,,,,,,,,,,,,
1732083055.601560,1732083055.603490,119.000000,0.000000,4307.948730,4313.077148,4326.794922,4316.025879,4314.230957,4321.153809,4355.384766,4336.410156,4326.666504,4316.025879,4464.871582,4472.692383,4363.846191,4401.025879,1518.000000,0.000000,7.000000,,,,0.000000,2.000000,2.000000,0.000000,2.000000,2.000000,2.000000,0.000000,2.000000,4.000000,4.000000,4.000000,4.000000,2.000000,4.000000,16.666666,,,,,,,,,,,,,,,,,,,,,,,,,,,,
1732083055.609369,1732083055.611398,120.000000,0.000000,4303.077148,4312.820313,4324.871582,4313.974121,4315.000000,4326.025879,4357.307617,4336.025879,4325.256348,4311.410156,4461.025879,4476.153809,4366.025879,4400.384766,1733.000000,0.000000,7.000000,,,,0.000000,2.000000,2.000000,0.000000,2.000000,2.000000,2.000000,0.000000,2.000000,4.000000,4.000000,4.000000,4.000000,2.000000,4.000000,16.666666,,,,,,,,,,,,,,,,,30.000000,0.000000,0.584216,0.377563,-0.624878,0.354492,0.977658,-0.006348,-0.079111,-78.265480,55.921375,24.675333
1732083055.617177,1732083055.619206,121.000000,0.000000,4300.769043,4311.538574,4323.077148,4309.743652,4327.563965,4318.846191,4356.153809,4341.025879,4327.563965,4306.153809,4454.230957,4476.410156,4354.871582,4391.153809,1633.000000,0.000000,7.000000,,,,0.000000,2.000000,2.000000,0.000000,2.000000,2.000000,2.000000,0.000000,2.000000,4.000000,4.000000,4.000000,4.000000,2.000000,4.000000,16.666666,,,,,,,,,,,,,,,,,,,,,,,,,,,,
1732083055.624985,1732083055.626814,122.000000,0.000000,4299.615234,4304.871582,4326.538574,4309.487305,4314.102539,4314.615234,4355.641113,4342.948730,4331.025879,4311.538574,4455.897461,4471.666504,4348.333496,4387.436035,1377.000000,0.000000,7.000000,,,,0.000000,2.000000,2.000000,0.000000,2.000000,2.000000,2.000000,0.000000,2.000000,4.000000,4.000000,4.000000,4.000000,2.000000,4.000000,16.666666,,,,,,,,,,,,,,,,,,,,,,,,,,,,
1732083055.632794,1732083055.634623,123.000000,0.000000,4299.358887,4305.897461,4327.948730,4312.563965,4296.922852,4322.692383,4358.333496,4342.051270,4333.589844,4318.461426,4462.820313,4473.589844,4358.717773,4393.589844,1518.000000,0.000000,7.000000,,,,0.000000,2.000000,2.000000,0.000000,2.000000,2.000000,2.000000,0.000000,2.000000,4.000000,4.000000,4.000000,4.000000,2.000000,4.000000,16.666666,,,,,,,,,,,,,,,,,,,,,,,,,,,,
1732083055.640602,1732083055.642331,124.000000,0.000000,4301.922852,4312.436035,4326.538574,4315.769043,4312.179688,4327.179688,4361.410156,4341.538574,4332.692383,4320.000000,4466.410156,4477.179688,4364.487305,4398.846191,1733.000000,0.000000,7.000000,,,,0.000000,2.000000,2.000000,0.000000,2.000000,2.000000,2.000000,0.000000,2.000000,4.000000,4.000000,4.000000,4.000000,2.000000,4.000000,16.666666,,,,,,,,,,,,,,,,,31.000000,0.000000,0.584312,0.377502,-0.624756,0.354614,0.977658,-0.006348,-0.079111,-78.278374,55.714645,24.293686
1732083055.648410,1732083055.650139,125.000000,0.000000,4302.692383,4313.205078,4326.794922,4317.307617,4323.589844,4319.871582,4358.205078,4340.769043,4328.077148,4320.512695,4468.461426,4478.205078,4362.692383,4400.384766,1633.000000,0.000000,7.000000,,,,0.000000,2.000000,2.000000,0.000000,2.000000,2.000000,2.000000,0.000000,2.000000,4.000000,4.000000,4.000000,4.000000,2.000000,4.000000,16.666666,,,,,,,,,,,,,,,,,,,,,,,,,,,,
1732083055.656218,1732083055.657748,126.000000,0.000000,4302.692383,4313.205078,4327.948730,4316.666504,4319.358887,4315.641113,4355.641113,4341.666504,4325.897461,4314.230957,4467.820313,4477.948730,4364.615234,4401.666504,1377.000000,0.000000,7.000000,,,,0.000000,2.000000,2.000000,0.000000,2.000000,2.000000,2.000000,0.000000,2.000000,4.000000,4.000000,4.000000,4.000000,2.000000,4.000000,16.666666,,,,,,,,,,,,,,,,,,,,,,,,,,,,
1732083055.664027,1732083055.665556,127.000000,0.000000,4304.230957,4312.563965,4325.000000,4316.153809,4314.871582,4322.051270,4356.153809,4340.256348,4327.563965,4305.897461,4463.974121,4477.179688,4363.205078,4398.589844,7.000000,0.000000,7.000000,,,,0.000000,2.000000,2.000000,0.000000,2.000000,2.000000,2.000000,0.000000,2.000000,4.000000,4.000000,4.000000,4.000000,2.000000,4.000000,16.666666,,,,,,,,,,,,,,,,,,,,,,,,,,,,
1732083055.671835,1732083055.673464,0.000000,0.000000,4302.692383,4309.871582,4323.077148,4315.641113,4318.205078,4327.436035,4357.051270,4335.897461,4327.307617,4308.077148,4460.897461,4475.897461,4357.820313,4392.820313,0.000000,0.000000,7.000000,,,,0.000000,2.000000,2.000000,0.000000,2.000000,2.000000,2.000000,0.000000,2.000000,4.000000,4.000000,4.000000,4.000000,2.000000,4.000000,16.666666,,,,,,,,,,,,,,,,,0.000000,0.000000,0.584715,0.376892,-0.624817,0.354492,0.978635,0.002930,-0.045904,-78.555481,55.818863,24.429552
1732083055.679643,1732083055.681272,1.000000,0.000000,4301.410156,4311.282227,4323.333496,4314.230957,4325.512695,4323.461426,4355.128418,4337.051270,4326.794922,4315.512695,4457.436035,4474.487305,4358.333496,4392.820313,1310.000000,0.000000,7.000000,,,,0.000000,2.000000,2.000000,0.000000,2.000000,2.000000,2.000000,0.000000,2.000000,4.000000,4.000000,4.000000,4.000000,2.000000,4.000000,16.666666,,,,,,,,,,,,,,,,,,,,,,,,,,,,
1732083055.687451,1732083055.689280,2.000000,0.000000,4304.230957,4316.025879,4322.179688,4315.641113,4319.487305,4322.307617,4353.846191,4339.358887,4328.589844,4315.897461,4457.179688,4473.846191,4358.333496,4393.333496,1234.000000,0.000000,7.000000,,,,0.000000,2.000000,2.000000,0.000000,2.000000,2.000000,2.000000,0.000000,2.000000,4.000000,4.000000,4.000000,4.000000,2.000000,4.000000,16.666666,,,,,,,,,,,,,,,,,,,,,,,,,,,,
1732083055.695260,1732083055.697088,3.000000,0.000000,4302.948730,4314.487305,4322.179688,4316.410156,4304.230957,4327.692383,4357.051270,4341.410156,4329.102539,4313.205078,4459.230957,4474.102539,4358.461426,4391.794922,1184.000000,0.000000,7.000000,,,,0.000000,2.000000,2.000000,0.000000,2.000000,2.000000,2.000000,0.000000,2.000000,4.000000,4.000000,4.000000,4.000000,2.000000,4.000000,16.666666,,,,,,,,,,,,,,,,,,,,,,,,,,,,
1732083055.703068,1732083055.704996,4.000000,0.000000,4295.000000,4310.512695,4322.563965,4311.666504,4309.358887,4328.461426,4357.307617,4346.153809,4331.025879,4313.333496,4458.717773,4475.512695,4360.128418,4388.717773,1180.000000,0.000000,7.000000,,,,0.000000,2.000000,2.000000,0.000000,2.000000,2.000000,2.000000,0.000000,2.000000,4.000000,4.000000,4.000000,4.000000,2.000000,4.000000,16.666666,,,,,,,,,,,,,,,,,1.000000,0.000000,0.585131,0.376648,-0.624817,0.354065,0.979123,-0.001465,-0.061531,-78.469940,55.801613,24.492937
1732083055.710876,1732083055.712805,5.000000,0.000000,4288.589844,4309.487305,4323.717773,4307.948730,4320.128418,4326.666504,4355.641113,4345.256348,4331.153809,4312.692383,4455.897461,4475.128418,4355.256348,4385.641113,1078.000000,0.000000,7.000000,,,,0.000000,2.000000,2.000000,0.000000,2.000000,2.000000,2.000000,0.000000,2.000000,4.000000,4.000000,4.000000,4.000000,2.000000,4.000000,16.666666,,,,,,,,,,,,,,,,,,,,,,,,,,,,
1732083055.718685,1732083055.720813,6.000000,0.000000,4289.102539,4308.717773,4325.641113,4309.102539,4310.384766,4324.871582,4355.641113,4337.692383,4326.794922,4315.897461,4458.846191,4471.282227,4357.179688,4385.769043,33.000000,0.000000,7.000000,,,,0.000000,2.000000,2.000000,0.000000,2.000000,2.000000,2.000000,0.000000,2.000000,4.000000,4.000000,4.000000,4.000000,2.000000,4.000000,16.666666,,,,,,,,,,,,,,,,,,,,,,,,,,,,
1732083055.726493,1732083055.728621,7.000000,0.000000,4291.666504,4309.358887,4325.769043,4309.615234,4315.641113,4318.974121,4357.563965,4339.358887,4325.641113,4315.256348,4460.256348,4468.717773,4363.333496,4386.153809,1167.000000,0.000000,7.000000,,,,0.000000,2.000000,2.000000,0.000000,2.000000,2.000000,2.000000,0.000000,2.000000,4.000000,4.000000,4.000000,4.000000,2.000000,4.000000,16.666666,,,,,,,,,,,,,,,,,,,,,,,,,,,,
1732083055.734301,1732083055.736329,8.000000,0.000000,4294.615234,4310.769043,4324.102539,4309.743652,4329.743652,4314.358887,4353.205078,4340.769043,4327.051270,4309.487305,4457.692383,4469.487305,4358.589844,4387.692383,1354.000000,0.000000,7.000000,,,,0.000000,2.000000,2.000000,0.000000,2.000000,2.000000,2.000000,0.000000,2.000000,4.000000,4.000000,4.000000,4.000000,2.000000,4.000000,16.666666,,,,,,,,,,,,,,,,,2.000000,0.000000,0.585244,0.376587,-0.624817,0.353943,0.966915,0.005860,-0.057136,-78.640656,55.609306,24.549278
1732083055.742109,1732083055.744137,9.000000,0.000000,4298.205078,4311.153809,4324.743652,4312.436035,4312.563965,4318.846191,4354.743652,4337.563965,4326.666504,4307.692383,4461.153809,4473.205078,4357.692383,4394.743652,1509.000000,0.000000,7.000000,,,,0.000000,2.000000,2.000000,0.000000,2.000000,2.000000,2.000000,0.000000,2.000000,4.000000,4.000000,4.000000,4.000000,2.000000,4.000000,16.666666,,,,,,,,,,,,,,,,,,,,,,,,,,,,
1732083055.749918,1732083055.752145,10.000000,0.000000,4304.230957,4314.871582,4323.205078,4318.974121,4299.615234,4323.461426,4359.487305,4344.487305,4330.000000,4313.717773,4464.615234,4479.358887,4361.153809,4395.641113,1377.000000,0.000000,7.000000,,,,0.000000,2.000000,2.000000,0.000000,2.000000,2.000000,2.000000,0.000000,2.000000,4.000000,4.000000,4.000000,4.000000,2.000000,4.000000,16.666666,,,,,,,,,,,,,,,,,,,,,,,,,,,,
1732083055.757726,1732083055.759954,11.000000,0.000000,4302.948730,4317.179688,4324.871582,4320.256348,4319.615234,4324.230957,4359.871582,4346.410156,4333.333496,4318.461426,4459.743652,4480.000000,4354.230957,4385.897461,1518.000000,0.000000,7.000000,,,,0.000000,2.000000,2.000000,0.000000,2.000000,2.000000,2.000000,0.000000,2.000000,4.000000,4.000000,4.000000,4.000000,2.000000,4.000000,16.666666,,,,,,,,,,,,,,,,,,,,,,,,,,,,
1732083055.765534,1732083055.767862,12.000000,0.000000,4295.641113,4313.333496,4325.256348,4312.563965,4325.641113,4324.102539,4355.769043,4340.769043,4328.717773,4313.077148,4457.307617,4479.230957,4354.230957,4385.512695,1741.000000,0.000000,7.000000,,,,0.000000,2.000000,2.000000,0.000000,2.000000,2.000000,2.000000,0.000000,2.000000,4.000000,4.000000,4.000000,4.000000,2.000000,4.000000,16.666666,,,,,,,,,,,,,,,,,3.000000,0.000000,0.585603,0.376404,-0.624695,0.353760,0.982053,-0.002930,-0.053717,-78.613930,55.715206,24.793249
1732083055.773342,1732083055.775670,13.000000,0.000000,4295.641113,4310.641113,4322.307617,4308.205078,4307.563965,4318.333496,4354.230957,4343.717773,4323.077148,4306.666504,4462.692383,4485.384766,4362.692383,4390.641113,1639.000000,0.000000,7.000000,,,,0.000000,2.000000,2.000000,0.000000,2.000000,2.000000,2.000000,0.000000,2.000000,4.000000,4.000000,4.000000,4.000000,2.000000,4.000000,16.666666,,,,,,,,,,,,,,,,,,,,,,,,,,,,
1732083055.781151,1732083055.783678,14.000000,0.000000,4297.820313,4313.205078,4321.282227,4313.205078,4318.717773,4313.846191,4354.871582,4342.179688,4321.025879,4306.025879,4460.641113,4490.384766,4357.307617,4386.922852,1377.000000,0.000000,7.000000,,,,0.000000,2.000000,2.000000,0.000000,2.000000,2.000000,2.000000,0.000000,2.000000,4.000000,4.000000,4.000000,4.000000,2.000000,4.000000,16.666666,1.000000,16.666666,2.000000,2.000000,0.000000,2.000000,2.000000,2.000000,0.000000,2.000000,4.000000,4.000000,4.000000,4.000000,2.000000,4.000000,,,,,,,,,,,,
1732083055.788959,1732083055.791486,15.000000,0.000000,4297.692383,4314.102539,4324.615234,4317.563965,4328.717773,4317.948730,4356.794922,4333.077148,4320.512695,4309.871582,4456.025879,4488.077148,4352.179688,4389.743652,1518.000000,0.000000,7.000000,,,,0.000000,2.000000,2.000000,0.000000,2.000000,2.000000,2.000000,0.000000,2.000000,4.000000,4.000000,4.000000,4.000000,2.000000,4.000000,16.666666,,,,,,,,,,,,,,,,,,,,,,,,,,,,
1732083055.796767,1732083055.799394,16.000000,0.000000,4300.897461,4312.051270,4324.615234,4316.922852,4303.846191,4321.538574,4356.794922,4336.922852,4322.179688,4314.230957,4458.974121,4487.563965,4362.563965,4399.615234,0.000000,0.000000,7.000000,,,,0.000000,2.000000,2.000000,0.000000,2.000000,2.000000,2.000000,0.000000,2.000000,4.000000,4.000000,4.000000,4.000000,2.000000,4.000000,16.666666,,,,,,,,,,,,,,,,,4.000000,0.000000,0.586081,0.375977,-0.624573,0.353638,0.994262,-0.003418,-0.052741,-78.463951,55.579315,25.065865
1732083055.804575,1732083055.807202,17.000000,0.000000,4302.948730,4310.256348,4325.512695,4315.256348,4297.948730,4319.102539,4354.230957,4343.333496,4323.077148,4311.922852,4461.282227,4491.666504,4365.128418,4397.563965,0.000000,0.000000,7.000000,,,,0.000000,2.000000,2.000000,0.000000,2.000000,2.000000,2.000000,0.000000,2.000000,4.000000,4.000000,4.000000,4.000000,2.000000,4.000000,16.666666,,,,,,,,,,,,,,,,,,,,,,,,,,,,
1732083055.812384,1732083055.815210,18.000000,0.000000,4299.358887,4309.615234,4327.051270,4316.538574,4313.205078,4318.077148,4354.615234,4339.743652,4324.487305,4309.230957,4461.666504,4491.666504,4358.205078,4392.820313,0.000000,0.000000,7.000000,,,,0.000000,2.000000,2.000000,0.000000,2.000000,2.000000,2.000000,0.000000,2.000000,4.000000,4.000000,4.000000,4.000000,2.000000,4.000000,16.666666,,,,,,,,,,,,,,,,,,,,,,,,,,,,
1732083055.820192,1732083055.823019,19.000000,0.000000,4301.410156,4311.666504,4322.563965,4318.205078,4316.282227,4320.000000,4355.000000,4338.846191,4326.666504,4312.692383,4464.230957,4488.846191,4362.307617,4396.025879,0.000000,0.000000,7.000000,,,,0.000000,2.000000,2.000000,0.000000,2.000000,2.000000,2.000000,0.000000,2.000000,4.000000,4.000000,4.000000,4.000000,2.000000,4.000000,16.666666,,,,,,,,,,,,,,,,,,,,,,,,,,,,
1732083055.828000,1732083055.830927,20.000000,0.000000,4301.666504,4310.897461,4322.948730,4315.128418,4322.692383,4319.871582,4356.025879,4347.179688,4329.487305,4317.948730,4463.077148,4488.974121,4368.717773,4391.538574,0.000000,0.000000,7.000000,,,,0.000000,2.000000,2.000000,0.000000,2.000000,2.000000,2.000000,0.000000,2.000000,4.000000,4.000000,4.000000,4.000000,2.000000,4.000000,16.666666,,,,,,,,,,,,,,,,,5.000000,0.000000,0.586081,0.375977,-0.624573,0.353638,0.984984,-0.003907,-0.052741,-78.402466,55.634247,25.076685
1732083055.835808,1732083055.838735,21.000000,0.000000,4294.615234,4307.179688,4326.666504,4310.384766,4322.051270,4320.512695,4356.666504,4352.820313,4329.230957,4313.846191,4458.846191,4485.897461,4365.384766,4382.820313,0.000000,0.000000,7.000000,,,,0.000000,2.000000,2.000000,0.000000,2.000000,2.000000,2.000000,0.000000,2.000000,4.000000,4.000000,4.000000,4.000000,2.000000,4.000000,16.666666,,,,,,,,,,,,,,,,,,,,,,,,,,,,
1732083055.843617,1732083055.846343,22.000000,0.000000,4294.615234,4309.102539,4324.871582,4313.974121,4300.256348,4320.769043,4356.282227,4344.102539,4322.692383,4304.358887,4461.153809,4478.461426,4362.307617,4384.615234,0.000000,0.000000,7.000000,,,,0.000000,2.000000,2.000000,0.000000,2.000000,2.000000,2.000000,0.000000,2.000000,4.000000,4.000000,4.000000,4.000000,2.000000,4.000000,16.666666,,,,,,,,,,,,,,,,,,,,,,,,,,,,
1732083055.851425,1732083055.854152,23.000000,0.000000,4297.820313,4311.922852,4321.282227,4318.974121,4299.487305,4318.717773,4353.205078,4336.025879,4319.615234,4304.487305,4465.000000,4474.743652,4363.846191,4390.897461,0.000000,0.000000,7.000000,,,,0.000000,2.000000,2.000000,0.000000,2.000000,2.000000,2.000000,0.000000,2.000000,4.000000,4.000000,4.000000,4.000000,2.000000,4.000000,16.666666,,,,,,,,,,,,,,,,,,,,,,,,,,,,
1732083055.859233,1732083055.861860,24.000000,0.000000,4295.641113,4309.102539,4323.717773,4317.307617,4313.589844,4319.102539,4355.897461,4342.307617,4325.897461,4312.948730,4462.948730,4478.589844,4360.641113,4388.589844,0.000000,0.000000,7.000000,,,,0.000000,2.000000,2.000000,0.000000,2.000000,2.000000,2.000000,0.000000,2.000000,4.000000,4.000000,4.000000,4.000000,2.000000,4.000000,16.666666,,,,,,,,,,,,,,,,,6.000000,0.000000,0.586162,0.375793,-0.624573,0.353699,0.971798,-0.010255,-0.052741,-78.484329,55.577072,24.967113
1732083055.867041,1732083055.869668,25.000000,0.000000,4298.846191,4306.794922,4325.897461,4316.025879,4307.692383,4322.563965,4357.692383,4345.256348,4331.282227,4316.410156,4462.051270,4483.077148,4360.769043,4386.153809,0.000000,0.000000,7.000000,,,,0.000000,2.000000,2.000000,0.000000,2.000000,2.000000,2.000000,0.000000,2.000000,4.000000,4.000000,4.000000,4.000000,2.000000,4.000000,16.666666,,,,,,,,,,,,,,,,,,,,,,,,,,,,
1732083055.874850,1732083055.877276,26.000000,0.000000,4303.974121,4306.794922,4326.282227,4314.743652,4311.922852,4320.512695,4356.025879,4342.948730,4327.948730,4310.128418,4463.846191,4488.205078,4365.128418,4391.025879,0.000000,0.000000,7.000000,,,,0.000000,2.000000,2.000000,0.000000,2.000000,2.000000,2.000000,0.000000,2.000000,4.000000,4.000000,4.000000,4.000000,2.000000,4.000000,16.666666,,,,,,,,,,,,,,,,,,,,,,,,,,,,
1732083055.882658,1732083055.885085,27.000000,0.000000,4298.461426,4304.102539,4324.230957,4312.692383,4321.922852,4316.538574,4352.692383,4347.307617,4328.589844,4310.256348,4463.333496,4492.307617,4360.000000,4392.820313,0.000000,0.000000,7.000000,,,,0.000000,2.000000,2.000000,0.000000,2.000000,2.000000,2.000000,0.000000,2.000000,4.000000,4.000000,4.000000,4.000000,2.000000,4.000000,16.666666,,,,,,,,,,,,,,,,,,,,,,,,,,,,
1732083055.890466,1732083055.892793,28.000000,0.000000,4293.205078,4302.307617,4324.487305,4312.563965,4305.512695,4319.102539,4353.974121,4345.641113,4331.538574,4315.128418,4459.743652,4487.692383,4354.871582,4388.205078,0.000000,0.000000,7.000000,,,,0.000000,2.000000,2.000000,0.000000,2.000000,2.000000,2.000000,0.000000,2.000000,4.000000,4.000000,4.000000,4.000000,2.000000,4.000000,16.666666,,,,,,,,,,,,,,,,,7.000000,0.000000,0.586340,0.375427,-0.624695,0.353577,0.991332,-0.003418,-0.067879,-78.495644,55.364094,24.965029
1732083055.898275,1732083055.900601,29.000000,0.000000,4297.948730,4303.461426,4323.717773,4315.384766,4293.846191,4320.641113,4354.102539,4338.589844,4327.563965,4312.307617,4460.384766,4483.974121,4361.922852,4388.461426,0.000000,0.000000,7.000000,,,,0.000000,2.000000,2.000000,0.000000,2.000000,2.000000,2.000000,0.000000,2.000000,4.000000,4.000000,4.000000,4.000000,2.000000,4.000000,16.666666,,,,,,,,,,,,,,,,,,,,,,,,,,,,
1732083055.906083,1732083055.908210,30.000000,0.000000,4299.102539,4302.948730,4323.846191,4315.128418,4307.051270,4319.102539,4354.358887,4342.051270,4324.487305,4308.205078,4461.025879,4486.922852,4365.000000,4392.051270,0.000000,0.000000,7.000000,,,,0.000000,2.000000,2.000000,0.000000,2.000000,2.000000,2.000000,0.000000,2.000000,4.000000,4.000000,4.000000,4.000000,2.000000,4.000000,16.666666,,,,,,,,,,,,,,,,,,,,,,,,,,,,
1732083055.913891,1732083055.916018,31.000000,0.000000,4297.563965,4303.461426,4324.615234,4313.461426,4312.820313,4320.641113,4354.615234,4347.563965,4327.948730,4310.256348,4460.512695,4488.333496,4359.358887,4392.307617,0.000000,0.000000,7.000000,,,,0.000000,2.000000,2.000000,0.000000,2.000000,2.000000,2.000000,0.000000,2.000000,4.000000,4.000000,4.000000,4.000000,2.000000,4.000000,16.666666,,,,,,,,,,,,,,,,,,,,,,,,,,,,
1732083055.921699,1732083055.923726,32.000000,0.000000,4302.307617,4300.897461,4325.128418,4313.717773,4306.794922,4324.358887,4354.743652,4349.615234,4330.128418,4312.820313,4462.692383,4488.589844,4363.205078,4394.102539,0.000000,0.000000,7.000000,,,,0.000000,2.000000,2.000000,0.000000,2.000000,2.000000,2.000000,0.000000,2.000000,4.000000,4.000000,4.000000,4.000000,2.000000,4.000000,16.666666,,,,,,,,,,,,,,,,,8.000000,0.000000,0.586552,0.375122,-0.624817,0.353333,0.978635,-0.005372,-0.055183,-78.453133,55.409916,25.048340
1732083055.929508,1732083055.931534,33.000000,0.000000,4304.615234,4296.153809,4324.743652,4312.820313,4304.743652,4326.282227,4355.512695,4351.538574,4329.230957,4314.230957,4467.051270,4486.922852,4370.897461,4398.974121,0.000000,0.000000,7.000000,,,,0.000000,2.000000,2.000000,0.000000,2.000000,2.000000,2.000000,0.000000,2.000000,4.000000,4.000000,4.000000,4.000000,2.000000,4.000000,16.666666,,,,,,,,,,,,,,,,,,,,,,,,,,,,
1732083055.937316,1732083055.939143,34.000000,0.000000,4298.589844,4298.333496,4323.974121,4312.179688,4309.358887,4323.077148,4356.025879,4348.589844,4330.897461,4316.922852,4467.948730,4478.974121,4366.666504,4399.230957,0.000000,0.000000,7.000000,,,,0.000000,2.000000,2.000000,0.000000,2.000000,2.000000,2.000000,0.000000,2.000000,4.000000,4.000000,4.000000,4.000000,2.000000,4.000000,16.666666,,,,,,,,,,,,,,,,,,,,,,,,,,,,
1732083055.945124,1732083055.946951,35.000000,0.000000,4295.641113,4302.051270,4325.769043,4313.077148,4318.461426,4316.922852,4354.871582,4342.051270,4330.641113,4312.948730,4463.846191,4472.179688,4357.179688,4390.769043,0.000000,0.000000,7.000000,,,,0.000000,2.000000,2.000000,0.000000,2.000000,2.000000,2.000000,0.000000,2.000000,4.000000,4.000000,4.000000,4.000000,2.000000,4.000000,16.666666,,,,,,,,,,,,,,,,,,,,,,,,,,,,
1732083055.952932,1732083055.954659,36.000000,0.000000,4298.333496,4299.743652,4326.922852,4312.563965,4310.256348,4316.538574,4353.333496,4340.769043,4329.358887,4310.769043,4460.000000,4476.282227,4357.692383,4388.974121,0.000000,0.000000,7.000000,,,,0.000000,2.000000,2.000000,0.000000,2.000000,2.000000,2.000000,0.000000,2.000000,4.000000,4.000000,4.000000,4.000000,2.000000,4.000000,16.666666,,,,,,,,,,,,,,,,,9.000000,0.000000,0.586563,0.375061,-0.624878,0.353271,0.978635,-0.005372,-0.055183,-78.462036,55.395367,25.102489
1732083055.960741,1732083055.962467,37.000000,0.000000,4300.769043,4300.000000,4324.743652,4313.077148,4292.307617,4322.307617,4357.563965,4345.128418,4331.153809,4316.410156,4465.512695,4481.666504,4361.153809,4396.794922,0.000000,0.000000,7.000000,,,,0.000000,2.000000,2.000000,0.000000,2.000000,2.000000,2.000000,0.000000,2.000000,4.000000,4.000000,4.000000,4.000000,2.000000,4.000000,16.666666,,,,,,,,,,,,,,,,,,,,,,,,,,,,
