title:1five, start timestamp:1732157838.067083, stop timestamp:1732157902.875534, headset type:EPOCX, headset serial:E5020C3A, headset firmware:730, channels:67, sampling rate:eeg_128;mot_32, samples:8301      , version:2.2, 
Timestamp,OriginalTimestamp,EEG.Counter,EEG.Interpolated,EEG.AF3,EEG.F7,EEG.F3,EEG.FC5,EEG.T7,EEG.P7,EEG.O1,EEG.O2,EEG.P8,EEG.T8,EEG.FC6,EEG.F4,EEG.F8,EEG.AF4,EEG.RawCq,EEG.Battery,EEG.BatteryPercent,MarkerIndex,MarkerType,MarkerValueInt,EEG.MarkerHardware,CQ.AF3,CQ.F7,CQ.F3,CQ.FC5,CQ.T7,CQ.P7,CQ.O1,CQ.O2,CQ.P8,CQ.T8,CQ.FC6,CQ.F4,CQ.F8,CQ.AF4,CQ.Overall,EQ.SampleRateQuality,EQ.OVERALL,EQ.AF3,EQ.F7,EQ.F3,EQ.FC5,EQ.T7,EQ.P7,EQ.O1,EQ.O2,EQ.P8,EQ.T8,EQ.FC6,EQ.F4,EQ.F8,EQ.AF4,MOT.CounterMems,MOT.InterpolatedMems,MOT.Q0,MOT.Q1,MOT.Q2,MOT.Q3,MOT.AccX,MOT.AccY,MOT.AccZ,MOT.MagX,MOT.MagY,MOT.MagZ
1732157838.067083,1732157838.071224,33.000000,0.000000,4280.128418,4250.512695,4314.871582,4292.436035,4273.333496,4281.794922,4336.666504,4400.897461,4293.077148,4280.897461,4470.128418,4504.358887,4342.692383,4405.641113,0.000000,1.000000,22.000000,,,,0.000000,2.000000,2.000000,0.000000,4.000000,2.000000,2.000000,0.000000,0.000000,4.000000,4.000000,4.000000,4.000000,4.000000,4.000000,0.000000,,,,,,,,,,,,,,,,,,,,,,,,,,,,
1732157838.074892,1732157838.078832,34.000000,0.000000,4280.000000,4249.487305,4314.102539,4284.230957,4255.512695,4280.641113,4336.282227,4399.743652,4294.743652,4279.615234,4474.743652,4501.025879,4343.974121,4405.769043,0.000000,1.000000,22.000000,,,,0.000000,2.000000,2.000000,0.000000,4.000000,2.000000,2.000000,0.000000,0.000000,4.000000,4.000000,4.000000,4.000000,4.000000,4.000000,0.000000,,,,,,,,,,,,,,,,,,,,,,,,,,,,
1732157838.082700,1732157838.086640,35.000000,0.000000,4277.692383,4249.743652,4311.794922,4281.025879,4265.000000,4281.538574,4336.538574,4402.948730,4304.358887,4280.000000,4470.384766,4501.666504,4346.153809,4395.769043,0.000000,1.000000,22.000000,,,,0.000000,2.000000,2.000000,0.000000,4.000000,2.000000,2.000000,0.000000,0.000000,4.000000,4.000000,4.000000,4.000000,4.000000,4.000000,0.000000,,,,,,,,,,,,,,,,,,,,,,,,,,,,
1732157838.090508,1732157838.094349,36.000000,0.000000,4276.153809,4248.717773,4311.153809,4282.307617,4269.743652,4280.897461,4336.922852,4401.666504,4300.641113,4287.563965,4472.307617,4505.769043,4355.128418,4398.205078,0.000000,1.000000,22.000000,,,,0.000000,2.000000,2.000000,0.000000,4.000000,2.000000,2.000000,0.000000,0.000000,4.000000,4.000000,4.000000,4.000000,4.000000,4.000000,0.000000,,,,,,,,,,,,,,,,,9.000000,0.000000,0.513191,0.486694,-0.551025,0.442871,0.958125,0.000000,-0.082041,-35.233929,45.957108,31.057503
1732157838.098317,1732157838.102157,37.000000,0.000000,4279.871582,4250.897461,4310.897461,4286.282227,4263.077148,4273.589844,4335.128418,4401.922852,4292.948730,4297.179688,4478.974121,4508.717773,4364.358887,4411.922852,0.000000,1.000000,22.000000,,,,0.000000,2.000000,2.000000,0.000000,4.000000,2.000000,2.000000,0.000000,0.000000,4.000000,4.000000,4.000000,4.000000,4.000000,4.000000,0.000000,,,,,,,,,,,,,,,,,,,,,,,,,,,,
1732157838.106125,1732157838.109765,38.000000,0.000000,4282.307617,4258.974121,4309.871582,4291.666504,4264.358887,4266.922852,4333.333496,4405.512695,4301.666504,4298.205078,4478.205078,4508.589844,4367.692383,4414.358887,0.000000,1.000000,22.000000,,,,0.000000,2.000000,2.000000,0.000000,4.000000,2.000000,2.000000,0.000000,0.000000,4.000000,4.000000,4.000000,4.000000,4.000000,4.000000,0.000000,,,,,,,,,,,,,,,,,,,,,,,,,,,,
1732157838.113933,1732157838.117574,39.000000,0.000000,4280.897461,4266.538574,4310.769043,4287.563965,4265.641113,4269.743652,4333.974121,4401.794922,4303.717773,4287.692383,4474.230957,4510.256348,4368.205078,4410.769043,0.000000,1.000000,22.000000,,,,0.000000,2.000000,2.000000,0.000000,4.000000,2.000000,2.000000,0.000000,0.000000,4.000000,4.000000,4.000000,4.000000,4.000000,4.000000,0.000000,,,,,,,,,,,,,,,,,,,,,,,,,,,,
1732157838.121741,1732157838.125282,40.000000,0.000000,4279.230957,4266.410156,4310.769043,4280.256348,4265.256348,4271.025879,4334.615234,4396.025879,4286.153809,4279.615234,4472.051270,4509.230957,4367.307617,4412.436035,0.000000,1.000000,22.000000,,,,0.000000,2.000000,2.000000,0.000000,4.000000,2.000000,2.000000,0.000000,0.000000,4.000000,4.000000,4.000000,4.000000,4.000000,4.000000,0.000000,,,,,,,,,,,,,,,,,10.000000,0.000000,0.513397,0.486877,-0.550720,0.442810,0.958125,0.000000,-0.082041,-35.111149,46.146923,30.903244
1732157838.129549,1732157838.133090,41.000000,0.000000,4275.897461,4263.461426,4311.153809,4280.000000,4268.461426,4268.205078,4334.871582,4400.641113,4284.743652,4287.436035,4472.820313,4510.641113,4367.436035,4409.743652,0.000000,1.000000,22.000000,,,,0.000000,2.000000,2.000000,0.000000,4.000000,2.000000,2.000000,0.000000,0.000000,4.000000,4.000000,4.000000,4.000000,4.000000,4.000000,0.000000,,,,,,,,,,,,,,,,,,,,,,,,,,,,
1732157838.137358,1732157838.140698,42.000000,0.000000,4275.128418,4266.794922,4311.025879,4281.410156,4262.948730,4273.717773,4335.256348,4404.743652,4300.256348,4298.333496,4474.487305,4514.615234,4372.692383,4403.846191,0.000000,1.000000,22.000000,,,,0.000000,2.000000,2.000000,0.000000,4.000000,2.000000,2.000000,0.000000,0.000000,4.000000,4.000000,4.000000,4.000000,4.000000,4.000000,0.000000,,,,,,,,,,,,,,,,,,,,,,,,,,,,
1732157838.145166,1732157838.148507,43.000000,0.000000,4276.282227,4274.102539,4311.025879,4280.128418,4260.256348,4276.153809,4334.871582,4401.282227,4297.948730,4295.256348,4475.384766,4510.512695,4379.871582,4404.487305,0.000000,1.000000,22.000000,,,,0.000000,2.000000,2.000000,0.000000,4.000000,2.000000,2.000000,0.000000,0.000000,4.000000,4.000000,4.000000,4.000000,4.000000,4.000000,0.000000,,,,,,,,,,,,,,,,,,,,,,,,,,,,
1732157838.152974,1732157838.156415,44.000000,0.000000,4275.000000,4277.948730,4311.538574,4276.538574,4274.615234,4265.512695,4334.358887,4399.743652,4285.641113,4287.563965,4476.410156,4504.487305,4382.820313,4405.897461,0.000000,1.000000,22.000000,,,,0.000000,2.000000,2.000000,0.000000,4.000000,2.000000,2.000000,0.000000,0.000000,4.000000,4.000000,4.000000,4.000000,4.000000,4.000000,0.000000,,,,,,,,,,,,,,,,,11.000000,0.000000,0.514682,0.487732,-0.549500,0.441895,0.965450,0.047857,-0.078623,-35.121696,45.865673,30.921627
1732157838.160782,1732157838.164223,45.000000,0.000000,4274.743652,4278.717773,4311.153809,4276.025879,4274.358887,4263.589844,4335.512695,4401.153809,4292.692383,4291.282227,4472.820313,4503.205078,4380.769043,4403.589844,0.000000,1.000000,22.000000,,,,0.000000,2.000000,2.000000,0.000000,4.000000,2.000000,2.000000,0.000000,0.000000,4.000000,4.000000,4.000000,4.000000,4.000000,4.000000,0.000000,,,,,,,,,,,,,,,,,,,,,,,,,,,,
1732157838.168591,1732157838.172231,46.000000,0.000000,4279.230957,4282.692383,4309.358887,4284.102539,4250.641113,4272.307617,4336.025879,4400.641113,4298.846191,4295.769043,4463.846191,4503.846191,4374.230957,4401.666504,0.000000,1.000000,22.000000,,,,0.000000,2.000000,2.000000,0.000000,4.000000,2.000000,2.000000,0.000000,0.000000,4.000000,4.000000,4.000000,4.000000,4.000000,4.000000,0.000000,,,,,,,,,,,,,,,,,,,,,,,,,,,,
1732157838.176399,1732157838.180039,47.000000,0.000000,4280.641113,4290.769043,4311.538574,4291.025879,4240.384766,4268.589844,4335.641113,4399.487305,4284.487305,4290.897461,4459.102539,4505.128418,4370.256348,4402.436035,0.000000,1.000000,22.000000,,,,0.000000,2.000000,2.000000,0.000000,4.000000,2.000000,2.000000,0.000000,0.000000,4.000000,4.000000,4.000000,4.000000,4.000000,4.000000,0.000000,,,,,,,,,,,,,,,,,,,,,,,,,,,,
1732157838.184207,1732157838.187748,48.000000,0.000000,4277.692383,4294.871582,4313.077148,4286.153809,4253.333496,4264.230957,4335.384766,4400.641113,4281.282227,4288.846191,4464.743652,4506.282227,4376.666504,4404.358887,0.000000,1.000000,22.000000,,,,0.000000,2.000000,2.000000,0.000000,4.000000,2.000000,2.000000,0.000000,0.000000,4.000000,4.000000,4.000000,4.000000,4.000000,4.000000,0.000000,,,,,,,,,,,,,,,,,12.000000,0.000000,0.516427,0.490295,-0.547241,0.439819,0.979612,0.067391,-0.074228,-35.120243,45.889530,30.951519
1732157838.192016,1732157838.195556,49.000000,0.000000,4278.974121,4293.846191,4309.230957,4278.205078,4257.436035,4273.974121,4334.358887,4402.692383,4300.128418,4295.256348,4472.051270,4506.025879,4381.025879,4402.563965,0.000000,1.000000,22.000000,,,,0.000000,2.000000,2.000000,0.000000,4.000000,2.000000,2.000000,0.000000,0.000000,4.000000,4.000000,4.000000,4.000000,4.000000,4.000000,0.000000,,,,,,,,,,,,,,,,,,,,,,,,,,,,
1732157838.199824,1732157838.203164,50.000000,0.000000,4280.897461,4296.922852,4308.077148,4281.025879,4251.538574,4275.512695,4333.717773,4403.846191,4306.794922,4292.692383,4471.025879,4506.922852,4376.025879,4399.487305,0.000000,1.000000,22.000000,,,,0.000000,2.000000,2.000000,0.000000,4.000000,2.000000,2.000000,0.000000,0.000000,4.000000,4.000000,4.000000,4.000000,4.000000,4.000000,0.000000,,,,,,,,,,,,,,,,,,,,,,,,,,,,
1732157838.207632,1732157838.210972,51.000000,0.000000,4280.512695,4306.666504,4311.153809,4287.820313,4251.794922,4265.641113,4334.615234,4402.948730,4290.000000,4282.436035,4465.512695,4507.948730,4372.820313,4401.666504,0.000000,1.000000,22.000000,,,,0.000000,2.000000,2.000000,0.000000,4.000000,2.000000,2.000000,0.000000,0.000000,4.000000,4.000000,4.000000,4.000000,4.000000,4.000000,0.000000,,,,,,,,,,,,,,,,,,,,,,,,,,,,
1732157838.215440,1732157838.218681,52.000000,0.000000,4281.538574,4311.025879,4312.179688,4286.410156,4252.307617,4263.974121,4334.487305,4401.153809,4285.897461,4281.922852,4461.410156,4505.256348,4375.384766,4401.282227,0.000000,1.000000,22.000000,,,,0.000000,2.000000,2.000000,0.000000,4.000000,2.000000,2.000000,0.000000,0.000000,4.000000,4.000000,4.000000,4.000000,4.000000,4.000000,0.000000,,,,,,,,,,,,,,,,,13.000000,0.000000,0.516670,0.491577,-0.546204,0.439392,0.962520,0.042974,-0.082530,-35.005730,45.912186,30.944063
1732157838.223248,1732157838.226489,53.000000,0.000000,4281.282227,4310.769043,4311.794922,4287.436035,4253.077148,4270.384766,4334.743652,4399.358887,4295.641113,4288.717773,4461.025879,4504.615234,4378.333496,4396.410156,0.000000,1.000000,22.000000,,,,0.000000,2.000000,2.000000,0.000000,4.000000,2.000000,2.000000,0.000000,0.000000,4.000000,4.000000,4.000000,4.000000,4.000000,4.000000,0.000000,,,,,,,,,,,,,,,,,,,,,,,,,,,,
1732157838.231057,1732157838.234097,54.000000,0.000000,4279.871582,4315.384766,4310.000000,4295.128418,4261.666504,4271.025879,4335.384766,4399.230957,4290.256348,4292.563965,4466.922852,4510.256348,4379.102539,4401.410156,0.000000,1.000000,22.000000,,,,0.000000,2.000000,2.000000,0.000000,4.000000,2.000000,2.000000,0.000000,0.000000,4.000000,4.000000,4.000000,4.000000,4.000000,4.000000,0.000000,,,,,,,,,,,,,,,,,,,,,,,,,,,,
1732157838.238865,1732157838.241905,55.000000,0.000000,4282.948730,4323.077148,4306.538574,4297.179688,4264.871582,4265.769043,4333.846191,4399.487305,4280.641113,4294.102539,4475.000000,4513.589844,4380.641113,4411.922852,0.000000,1.000000,22.000000,,,,0.000000,2.000000,2.000000,0.000000,4.000000,2.000000,2.000000,0.000000,0.000000,4.000000,4.000000,4.000000,4.000000,4.000000,4.000000,0.000000,,,,,,,,,,,,,,,,,,,,,,,,,,,,
1732157838.246673,1732157838.249814,56.000000,0.000000,4286.538574,4324.487305,4307.820313,4294.358887,4249.615234,4263.846191,4332.563965,4399.487305,4285.769043,4292.051270,4474.358887,4514.358887,4383.333496,4415.384766,0.000000,1.000000,22.000000,,,,0.000000,2.000000,2.000000,0.000000,4.000000,2.000000,2.000000,0.000000,0.000000,4.000000,4.000000,4.000000,4.000000,4.000000,4.000000,0.000000,,,,,,,,,,,,,,,,,14.000000,0.000000,0.516555,0.492065,-0.546021,0.439209,0.969845,0.027835,-0.079600,-34.909641,45.865536,30.986359
1732157838.254481,1732157838.257622,57.000000,0.000000,4283.461426,4323.077148,4306.922852,4292.948730,4258.077148,4268.589844,4334.615234,4400.512695,4292.436035,4284.615234,4465.000000,4513.589844,4376.922852,4408.974121,0.000000,1.000000,22.000000,,,,0.000000,2.000000,2.000000,0.000000,4.000000,2.000000,2.000000,0.000000,0.000000,4.000000,4.000000,4.000000,4.000000,4.000000,4.000000,0.000000,,,,,,,,,,,,,,,,,,,,,,,,,,,,
1732157838.262290,1732157838.265630,58.000000,0.000000,4280.641113,4323.589844,4301.922852,4292.948730,4282.948730,4271.794922,4335.256348,4399.743652,4284.230957,4279.358887,4459.358887,4509.358887,4366.025879,4401.794922,0.000000,1.000000,22.000000,,,,0.000000,2.000000,2.000000,0.000000,4.000000,2.000000,2.000000,0.000000,0.000000,4.000000,4.000000,4.000000,4.000000,4.000000,4.000000,0.000000,,,,,,,,,,,,,,,,,,,,,,,,,,,,
1732157838.270098,1732157838.273438,59.000000,0.000000,4285.128418,4322.307617,4299.358887,4294.871582,4264.871582,4273.846191,4330.641113,4396.794922,4280.897461,4284.615234,4465.384766,4507.820313,4370.000000,4406.025879,0.000000,1.000000,22.000000,,,,0.000000,2.000000,2.000000,0.000000,4.000000,2.000000,2.000000,0.000000,0.000000,4.000000,4.000000,4.000000,4.000000,4.000000,4.000000,0.000000,,,,,,,,,,,,,,,,,,,,,,,,,,,,
1732157838.277906,1732157838.281346,60.000000,0.000000,4288.717773,4319.743652,4301.538574,4297.436035,4240.641113,4278.461426,4327.948730,4398.461426,4298.205078,4297.051270,4472.948730,4510.000000,4375.897461,4413.333496,0.000000,1.000000,22.000000,,,,0.000000,2.000000,2.000000,0.000000,4.000000,2.000000,2.000000,0.000000,0.000000,4.000000,4.000000,4.000000,4.000000,4.000000,4.000000,0.000000,,,,,,,,,,,,,,,,,15.000000,0.000000,0.516297,0.492432,-0.546082,0.439026,0.942010,0.019534,-0.094250,-35.006809,45.889420,31.082283
1732157838.285715,1732157838.289154,61.000000,0.000000,4285.128418,4319.102539,4300.641113,4294.358887,4255.897461,4277.948730,4326.153809,4402.436035,4308.333496,4299.487305,4467.436035,4507.051270,4367.563965,4412.051270,0.000000,1.000000,22.000000,,,,0.000000,2.000000,2.000000,0.000000,4.000000,2.000000,2.000000,0.000000,0.000000,4.000000,4.000000,4.000000,4.000000,4.000000,4.000000,0.000000,,,,,,,,,,,,,,,,,,,,,,,,,,,,
1732157838.293523,1732157838.296763,62.000000,0.000000,4279.871582,4319.487305,4298.846191,4294.102539,4270.128418,4276.666504,4326.282227,4400.256348,4296.410156,4292.179688,4460.641113,4501.282227,4362.692383,4409.230957,0.000000,1.000000,22.000000,,,,0.000000,2.000000,2.000000,0.000000,4.000000,2.000000,2.000000,0.000000,0.000000,4.000000,4.000000,4.000000,4.000000,4.000000,4.000000,0.000000,,,,,,,,,,,,,,,,,,,,,,,,,,,,
1732157838.301331,1732157838.304571,63.000000,0.000000,4285.769043,4320.128418,4301.666504,4298.077148,4262.051270,4280.128418,4329.743652,4396.153809,4286.025879,4291.025879,4471.025879,4504.487305,4368.974121,4411.538574,0.000000,1.000000,22.000000,,,,0.000000,2.000000,2.000000,0.000000,4.000000,2.000000,2.000000,0.000000,0.000000,4.000000,4.000000,4.000000,4.000000,4.000000,4.000000,0.000000,,,,,,,,,,,,,,,,,,,,,,,,,,,,
1732157838.309139,1732157838.312279,64.000000,0.000000,4292.563965,4316.794922,4305.512695,4298.717773,4264.230957,4281.922852,4332.820313,4397.948730,4294.743652,4292.820313,4475.769043,4509.230957,4369.102539,4412.307617,0.000000,1.000000,22.000000,,,,0.000000,2.000000,2.000000,0.000000,4.000000,2.000000,2.000000,0.000000,0.000000,4.000000,4.000000,4.000000,4.000000,4.000000,4.000000,0.000000,,,,,,,,,,,,,,,,,16.000000,0.000000,0.516018,0.491028,-0.547852,0.438721,0.982542,0.009767,-0.085948,-35.037182,45.765430,31.104982
1732157838.316947,1732157838.320087,65.000000,0.000000,4286.282227,4313.589844,4308.589844,4296.922852,4268.077148,4280.384766,4333.077148,4401.538574,4301.922852,4287.179688,4462.692383,4505.641113,4360.641113,4411.282227,1603.000000,1.000000,22.000000,,,,0.000000,2.000000,2.000000,0.000000,4.000000,2.000000,2.000000,0.000000,0.000000,4.000000,4.000000,4.000000,4.000000,4.000000,4.000000,0.000000,,,,,,,,,,,,,,,,,,,,,,,,,,,,
1732157838.324756,1732157838.328095,66.000000,0.000000,4285.897461,4316.922852,4312.436035,4296.922852,4263.717773,4274.615234,4332.820313,4401.282227,4288.205078,4280.384766,4460.384766,4507.436035,4358.846191,4413.205078,1361.000000,1.000000,22.000000,,,,0.000000,2.000000,2.000000,0.000000,4.000000,2.000000,2.000000,0.000000,0.000000,4.000000,4.000000,4.000000,4.000000,4.000000,4.000000,0.000000,,,,,,,,,,,,,,,,,,,,,,,,,,,,
1732157838.332564,1732157838.335904,67.000000,0.000000,4292.820313,4318.461426,4316.538574,4297.692383,4264.487305,4269.230957,4335.000000,4398.461426,4279.743652,4281.922852,4474.102539,4518.205078,4366.538574,4414.871582,1419.000000,1.000000,22.000000,,,,0.000000,2.000000,2.000000,0.000000,4.000000,2.000000,2.000000,0.000000,0.000000,4.000000,4.000000,4.000000,4.000000,4.000000,4.000000,0.000000,,,,,,,,,,,,,,,,,,,,,,,,,,,,
1732157838.340372,1732157838.343812,68.000000,0.000000,4288.846191,4313.974121,4316.794922,4295.769043,4267.307617,4274.615234,4336.153809,4398.589844,4289.871582,4282.692383,4472.563965,4519.487305,4365.897461,4412.307617,1434.000000,1.000000,22.000000,,,,0.000000,2.000000,2.000000,0.000000,4.000000,2.000000,2.000000,0.000000,0.000000,4.000000,4.000000,4.000000,4.000000,4.000000,4.000000,0.000000,,,,,,,,,,,,,,,,,17.000000,0.000000,0.516046,0.490234,-0.548584,0.438660,0.971798,0.003907,-0.079111,-34.956783,45.679996,31.183369
1732157838.348180,1732157838.351620,69.000000,0.000000,4285.512695,4314.358887,4316.025879,4293.333496,4268.333496,4276.025879,4334.871582,4400.897461,4293.205078,4281.025879,4461.025879,4511.922852,4357.948730,4411.922852,1209.000000,1.000000,22.000000,,,,0.000000,2.000000,2.000000,0.000000,4.000000,2.000000,2.000000,0.000000,0.000000,4.000000,4.000000,4.000000,4.000000,4.000000,4.000000,0.000000,,,,,,,,,,,,,,,,,,,,,,,,,,,,
1732157838.355989,1732157838.359628,70.000000,0.000000,4295.512695,4320.512695,4316.410156,4296.025879,4262.563965,4263.974121,4334.358887,4401.410156,4288.333496,4286.410156,4466.410156,4512.307617,4361.410156,4415.769043,0.000000,1.000000,22.000000,,,,0.000000,2.000000,2.000000,0.000000,4.000000,2.000000,2.000000,0.000000,0.000000,4.000000,4.000000,4.000000,4.000000,4.000000,4.000000,0.000000,,,,,,,,,,,,,,,,,,,,,,,,,,,,
1732157838.363797,1732157838.367436,71.000000,0.000000,4299.230957,4318.077148,4321.153809,4299.871582,4260.384766,4260.256348,4335.897461,4399.871582,4292.563965,4289.615234,4476.282227,4514.615234,4369.358887,4417.948730,0.000000,1.000000,22.000000,,,,0.000000,2.000000,2.000000,0.000000,4.000000,2.000000,2.000000,0.000000,0.000000,4.000000,4.000000,4.000000,4.000000,4.000000,4.000000,0.000000,,,,,,,,,,,,,,,,,,,,,,,,,,,,
1732157838.371605,1732157838.375344,72.000000,0.000000,4295.128418,4313.333496,4325.769043,4300.384766,4274.615234,4266.666504,4335.384766,4398.205078,4295.000000,4283.589844,4473.589844,4511.538574,4367.948730,4421.410156,1528.000000,1.000000,22.000000,,,,0.000000,2.000000,2.000000,0.000000,4.000000,2.000000,2.000000,0.000000,0.000000,4.000000,4.000000,4.000000,4.000000,4.000000,4.000000,0.000000,,,,,,,,,,,,,,,,,18.000000,0.000000,0.516241,0.488770,-0.549561,0.438843,0.950311,0.014650,-0.083995,-35.059994,45.487465,31.211863
1732157838.379413,1732157838.383153,73.000000,0.000000,4300.000000,4314.743652,4324.615234,4299.487305,4280.000000,4265.641113,4333.333496,4402.692383,4293.846191,4281.153809,4469.487305,4514.615234,4365.128418,4427.436035,1681.000000,1.000000,22.000000,,,,0.000000,2.000000,2.000000,0.000000,4.000000,2.000000,2.000000,0.000000,0.000000,4.000000,4.000000,4.000000,4.000000,4.000000,4.000000,0.000000,,,,,,,,,,,,,,,,,,,,,,,,,,,,
1732157838.387222,1732157838.391161,74.000000,0.000000,4306.922852,4311.794922,4321.922852,4306.410156,4264.487305,4263.974121,4334.743652,4406.666504,4295.000000,4283.589844,4472.948730,4520.128418,4365.384766,4429.871582,1524.000000,1.000000,22.000000,,,,0.000000,2.000000,2.000000,0.000000,4.000000,2.000000,2.000000,0.000000,0.000000,4.000000,4.000000,4.000000,4.000000,4.000000,4.000000,0.000000,,,,,,,,,,,,,,,,,,,,,,,,,,,,
1732157838.395030,1732157838.398969,75.000000,0.000000,4310.641113,4308.974121,4321.282227,4313.077148,4257.051270,4267.307617,4336.025879,4401.538574,4287.563965,4282.436035,4479.615234,4525.897461,4367.436035,4431.025879,1559.000000,1.000000,22.000000,,,,0.000000,2.000000,2.000000,0.000000,4.000000,2.000000,2.000000,0.000000,0.000000,4.000000,4.000000,4.000000,4.000000,4.000000,4.000000,0.000000,,,,,,,,,,,,,,,,,,,,,,,,,,,,
1732157838.402838,1732157838.406877,76.000000,0.000000,4313.589844,4316.794922,4318.846191,4316.153809,4265.384766,4265.384766,4335.000000,4397.179688,4283.461426,4281.282227,4479.230957,4531.666504,4367.563965,4431.794922,1688.000000,1.000000,22.000000,,,,0.000000,2.000000,2.000000,0.000000,4.000000,2.000000,2.000000,0.000000,0.000000,4.000000,4.000000,4.000000,4.000000,4.000000,4.000000,0.000000,,,,,,,,,,,,,,,,,19.000000,0.000000,0.517201,0.487671,-0.549438,0.439087,0.992797,0.034672,-0.089366,-35.036930,45.624847,31.053276
1732157838.410646,1732157838.414685,77.000000,0.000000,4313.461426,4320.897461,4320.256348,4322.436035,4267.563965,4262.307617,4335.384766,4402.307617,4293.205078,4281.794922,4478.461426,4533.333496,4368.461426,4431.025879,1611.000000,1.000000,22.000000,,,,0.000000,2.000000,2.000000,0.000000,4.000000,2.000000,2.000000,0.000000,0.000000,4.000000,4.000000,4.000000,4.000000,4.000000,4.000000,0.000000,,,,,,,,,,,,,,,,,,,,,,,,,,,,
1732157838.418455,1732157838.422393,78.000000,0.000000,4312.820313,4313.589844,4322.563965,4322.563965,4264.102539,4264.743652,4336.538574,4404.102539,4296.922852,4283.205078,4487.692383,4532.179688,4378.717773,4432.051270,1524.000000,1.000000,22.000000,,,,0.000000,2.000000,2.000000,0.000000,4.000000,2.000000,2.000000,0.000000,0.000000,4.000000,4.000000,4.000000,4.000000,4.000000,4.000000,0.000000,1.000000,0.000000,2.000000,2.000000,0.000000,4.000000,2.000000,2.000000,0.000000,0.000000,4.000000,4.000000,4.000000,4.000000,4.000000,4.000000,,,,,,,,,,,,
1732157838.426263,1732157838.430202,79.000000,0.000000,4315.641113,4312.563965,4314.487305,4313.717773,4266.025879,4268.333496,4335.128418,4400.000000,4294.487305,4288.205078,4493.461426,4527.179688,4383.974121,4434.615234,1559.000000,1.000000,22.000000,,,,0.000000,2.000000,2.000000,0.000000,4.000000,2.000000,2.000000,0.000000,0.000000,4.000000,4.000000,4.000000,4.000000,4.000000,4.000000,0.000000,,,,,,,,,,,,,,,,,,,,,,,,,,,,
1732157838.434071,1732157838.437910,80.000000,0.000000,4317.179688,4318.077148,4323.333496,4310.769043,4264.743652,4264.871582,4338.077148,4406.025879,4291.794922,4286.282227,4481.922852,4524.743652,4371.922852,4431.922852,1688.000000,1.000000,22.000000,,,,0.000000,2.000000,2.000000,0.000000,4.000000,2.000000,2.000000,0.000000,0.000000,4.000000,4.000000,4.000000,4.000000,4.000000,4.000000,0.000000,,,,,,,,,,,,,,,,,20.000000,0.000000,0.516979,0.487122,-0.549255,0.440186,0.975217,0.017580,-0.085948,-35.041580,45.617794,31.023153
1732157838.441879,1732157838.445718,81.000000,0.000000,4306.922852,4318.846191,4340.256348,4311.538574,4266.153809,4261.922852,4343.461426,4412.179688,4289.230957,4273.589844,4465.384766,4518.717773,4363.077148,4422.820313,1611.000000,1.000000,22.000000,,,,0.000000,2.000000,2.000000,0.000000,4.000000,2.000000,2.000000,0.000000,0.000000,4.000000,4.000000,4.000000,4.000000,4.000000,4.000000,0.000000,,,,,,,,,,,,,,,,,,,,,,,,,,,,
1732157838.449688,1732157838.453327,82.000000,0.000000,4295.769043,4321.922852,4331.025879,4305.897461,4275.512695,4272.179688,4340.641113,4406.538574,4299.743652,4275.641113,4460.769043,4507.948730,4365.384766,4413.077148,1524.000000,1.000000,22.000000,,,,0.000000,2.000000,2.000000,0.000000,4.000000,2.000000,2.000000,0.000000,0.000000,4.000000,4.000000,4.000000,4.000000,4.000000,4.000000,0.000000,,,,,,,,,,,,,,,,,,,,,,,,,,,,
1732157838.457496,1732157838.461135,83.000000,0.000000,4295.769043,4341.025879,4313.974121,4306.282227,4283.717773,4284.487305,4335.897461,4400.128418,4304.743652,4282.179688,4460.256348,4502.820313,4363.717773,4409.102539,1559.000000,1.000000,22.000000,,,,0.000000,2.000000,2.000000,0.000000,4.000000,2.000000,2.000000,0.000000,0.000000,4.000000,4.000000,4.000000,4.000000,4.000000,4.000000,0.000000,,,,,,,,,,,,,,,,,,,,,,,,,,,,
1732157838.465304,1732157838.468843,84.000000,0.000000,4298.205078,4370.769043,4317.436035,4311.282227,4281.794922,4277.179688,4337.820313,4400.128418,4287.820313,4271.922852,4460.897461,4506.282227,4364.358887,4410.256348,1688.000000,1.000000,22.000000,,,,0.000000,2.000000,2.000000,0.000000,4.000000,2.000000,2.000000,0.000000,0.000000,4.000000,4.000000,4.000000,4.000000,4.000000,4.000000,0.000000,,,,,,,,,,,,,,,,,21.000000,0.000000,0.516831,0.486755,-0.549377,0.440613,0.990355,0.002930,-0.080576,-35.223679,45.278744,31.082087
1732157838.473112,1732157838.476651,85.000000,0.000000,4297.179688,4401.794922,4323.077148,4309.358887,4276.282227,4261.538574,4338.333496,4402.179688,4283.589844,4266.025879,4465.512695,4507.692383,4367.563965,4412.307617,1611.000000,1.000000,22.000000,,,,0.000000,2.000000,2.000000,0.000000,4.000000,2.000000,2.000000,0.000000,0.000000,4.000000,4.000000,4.000000,4.000000,4.000000,4.000000,0.000000,,,,,,,,,,,,,,,,,,,,,,,,,,,,
1732157838.480921,1732157838.484260,86.000000,0.000000,4296.922852,4427.563965,4318.589844,4309.871582,4278.717773,4265.384766,4334.615234,4405.128418,4293.077148,4270.128418,4465.512695,4505.641113,4361.666504,4415.128418,1524.000000,1.000000,22.000000,,,,0.000000,2.000000,2.000000,0.000000,4.000000,2.000000,2.000000,0.000000,0.000000,4.000000,4.000000,4.000000,4.000000,4.000000,4.000000,0.000000,,,,,,,,,,,,,,,,,,,,,,,,,,,,
1732157838.488729,1732157838.492068,87.000000,0.000000,4298.205078,4444.358887,4319.358887,4313.205078,4276.922852,4267.307617,4334.230957,4405.256348,4285.000000,4264.358887,4463.461426,4508.974121,4359.487305,4417.179688,1559.000000,1.000000,22.000000,,,,0.000000,2.000000,2.000000,0.000000,4.000000,2.000000,2.000000,0.000000,0.000000,4.000000,4.000000,4.000000,4.000000,4.000000,4.000000,0.000000,,,,,,,,,,,,,,,,,,,,,,,,,,,,
1732157838.496537,1732157838.499776,88.000000,0.000000,4296.794922,4452.436035,4321.410156,4310.897461,4266.922852,4252.563965,4335.128418,4401.025879,4275.769043,4261.538574,4463.077148,4509.358887,4364.487305,4415.128418,1688.000000,1.000000,22.000000,,,,0.000000,2.000000,2.000000,0.000000,4.000000,2.000000,2.000000,0.000000,0.000000,4.000000,4.000000,4.000000,4.000000,4.000000,4.000000,0.000000,,,,,,,,,,,,,,,,,22.000000,0.000000,0.516741,0.486145,-0.549316,0.441467,0.968380,-0.007325,-0.085460,-35.439514,45.427448,31.148157
1732157838.504345,1732157838.507584,89.000000,0.000000,4293.589844,4452.692383,4317.436035,4306.410156,4266.538574,4251.922852,4335.000000,4400.000000,4288.077148,4272.307617,4462.563965,4507.179688,4362.436035,4413.077148,1611.000000,1.000000,22.000000,,,,0.000000,2.000000,2.000000,0.000000,4.000000,2.000000,2.000000,0.000000,0.000000,4.000000,4.000000,4.000000,4.000000,4.000000,4.000000,0.000000,,,,,,,,,,,,,,,,,,,,,,,,,,,,
1732157838.512154,1732157838.515193,90.000000,0.000000,4293.205078,4451.025879,4317.948730,4307.051270,4274.487305,4259.871582,4334.487305,4403.717773,4296.410156,4272.307617,4460.641113,4505.641113,4352.820313,4412.820313,1524.000000,1.000000,22.000000,,,,0.000000,2.000000,2.000000,0.000000,4.000000,2.000000,2.000000,0.000000,0.000000,4.000000,4.000000,4.000000,4.000000,4.000000,4.000000,0.000000,,,,,,,,,,,,,,,,,,,,,,,,,,,,
1732157838.519962,1732157838.523001,91.000000,0.000000,4295.769043,4452.051270,4321.666504,4311.794922,4275.641113,4255.897461,4334.102539,4404.743652,4293.589844,4263.846191,4459.102539,4502.563965,4349.615234,4412.179688,1559.000000,1.000000,22.000000,,,,0.000000,2.000000,2.000000,0.000000,4.000000,2.000000,2.000000,0.000000,0.000000,4.000000,4.000000,4.000000,4.000000,4.000000,4.000000,0.000000,,,,,,,,,,,,,,,,,,,,,,,,,,,,
1732157838.527770,1732157838.530709,92.000000,0.000000,4297.051270,4449.487305,4320.512695,4313.974121,4274.615234,4257.051270,4335.512695,4401.538574,4294.615234,4266.666504,4457.820313,4501.282227,4353.077148,4412.179688,1688.000000,1.000000,22.000000,,,,0.000000,2.000000,2.000000,0.000000,4.000000,2.000000,2.000000,0.000000,0.000000,4.000000,4.000000,4.000000,4.000000,4.000000,4.000000,0.000000,,,,,,,,,,,,,,,,,23.000000,0.000000,0.517177,0.485474,-0.549500,0.441467,0.999145,0.020510,-0.081065,-35.614338,45.597900,31.285007
1732157838.535578,1732157838.538518,93.000000,0.000000,4293.717773,4439.358887,4315.256348,4311.666504,4279.230957,4265.512695,4334.615234,4399.230957,4292.563965,4266.922852,4455.641113,4503.846191,4352.051270,4409.230957,1611.000000,1.000000,22.000000,,,,0.000000,2.000000,2.000000,0.000000,4.000000,2.000000,2.000000,0.000000,0.000000,4.000000,4.000000,4.000000,4.000000,4.000000,4.000000,0.000000,,,,,,,,,,,,,,,,,,,,,,,,,,,,
1732157838.543387,1732157838.546126,94.000000,0.000000,4291.025879,4429.743652,4315.256348,4309.487305,4278.846191,4263.589844,4331.922852,4401.025879,4290.128418,4262.179688,4453.974121,4506.410156,4347.948730,4404.615234,1524.000000,1.000000,22.000000,,,,0.000000,2.000000,2.000000,0.000000,4.000000,2.000000,2.000000,0.000000,0.000000,4.000000,4.000000,4.000000,4.000000,4.000000,4.000000,0.000000,,,,,,,,,,,,,,,,,,,,,,,,,,,,
1732157838.551195,1732157838.553934,95.000000,0.000000,4291.922852,4422.692383,4317.051270,4306.794922,4274.743652,4262.051270,4333.589844,4402.692383,4297.948730,4268.846191,4457.051270,4506.666504,4350.128418,4406.025879,1559.000000,1.000000,22.000000,,,,0.000000,2.000000,2.000000,0.000000,4.000000,2.000000,2.000000,0.000000,0.000000,4.000000,4.000000,4.000000,4.000000,4.000000,4.000000,0.000000,,,,,,,,,,,,,,,,,,,,,,,,,,,,
1732157838.559003,1732157838.561642,96.000000,0.000000,4294.743652,4418.333496,4316.922852,4310.897461,4276.153809,4266.153809,4336.153809,4400.641113,4304.743652,4281.666504,4465.769043,4507.692383,4355.384766,4413.846191,1688.000000,1.000000,22.000000,,,,0.000000,2.000000,2.000000,0.000000,4.000000,2.000000,2.000000,0.000000,0.000000,4.000000,4.000000,4.000000,4.000000,4.000000,4.000000,0.000000,,,,,,,,,,,,,,,,,24.000000,0.000000,0.517296,0.485168,-0.549805,0.441284,0.972287,0.016115,-0.072274,-35.444283,45.589298,31.615856
1732157838.566811,1732157838.569451,97.000000,0.000000,4296.922852,4417.436035,4318.589844,4320.128418,4280.256348,4264.358887,4334.358887,4400.512695,4297.948730,4273.589844,4459.358887,4507.179688,4348.205078,4413.846191,1611.000000,1.000000,22.000000,,,,0.000000,2.000000,2.000000,0.000000,4.000000,2.000000,2.000000,0.000000,0.000000,4.000000,4.000000,4.000000,4.000000,4.000000,4.000000,0.000000,,,,,,,,,,,,,,,,,,,,,,,,,,,,
1732157838.574620,1732157838.577459,98.000000,0.000000,4296.538574,4406.025879,4318.717773,4317.436035,4280.128418,4268.333496,4332.820313,4402.179688,4296.922852,4259.230957,4445.769043,4501.666504,4338.077148,4404.230957,1524.000000,1.000000,22.000000,,,,0.000000,2.000000,2.000000,0.000000,4.000000,2.000000,2.000000,0.000000,0.000000,4.000000,4.000000,4.000000,4.000000,4.000000,4.000000,0.000000,,,,,,,,,,,,,,,,,,,,,,,,,,,,
1732157838.582428,1732157838.585267,99.000000,0.000000,4296.410156,4378.077148,4319.487305,4309.743652,4279.871582,4276.025879,4333.846191,4402.051270,4303.333496,4268.846191,4455.000000,4502.051270,4342.563965,4404.487305,1559.000000,1.000000,22.000000,,,,0.000000,2.000000,2.000000,0.000000,4.000000,2.000000,2.000000,0.000000,0.000000,4.000000,4.000000,4.000000,4.000000,4.000000,4.000000,0.000000,,,,,,,,,,,,,,,,,,,,,,,,,,,,
1732157838.590236,1732157838.593175,100.000000,0.000000,4297.436035,4353.589844,4318.717773,4313.717773,4286.794922,4279.871582,4334.358887,4400.128418,4298.461426,4277.692383,4467.051270,4507.948730,4347.051270,4413.589844,1688.000000,1.000000,22.000000,,,,0.000000,2.000000,2.000000,0.000000,4.000000,2.000000,2.000000,0.000000,0.000000,4.000000,4.000000,4.000000,4.000000,4.000000,4.000000,0.000000,,,,,,,,,,,,,,,,,25.000000,0.000000,0.517110,0.485046,-0.549744,0.441711,0.967403,0.000000,-0.078135,-35.361534,45.662334,31.558844
1732157838.598044,1732157838.600983,101.000000,0.000000,4297.948730,4343.205078,4317.436035,4322.179688,4297.692383,4282.436035,4334.358887,4399.743652,4293.974121,4265.769043,4456.153809,4508.461426,4338.589844,4414.871582,1611.000000,1.000000,22.000000,,,,0.000000,2.000000,2.000000,0.000000,4.000000,2.000000,2.000000,0.000000,0.000000,4.000000,4.000000,4.000000,4.000000,4.000000,4.000000,0.000000,,,,,,,,,,,,,,,,,,,,,,,,,,,,
1732157838.605852,1732157838.608592,102.000000,0.000000,4297.692383,4336.794922,4318.717773,4321.538574,4302.051270,4282.948730,4334.743652,4401.410156,4304.102539,4267.948730,4449.102539,4504.487305,4331.153809,4410.128418,1524.000000,1.000000,22.000000,,,,0.000000,2.000000,2.000000,0.000000,4.000000,2.000000,2.000000,0.000000,0.000000,4.000000,4.000000,4.000000,4.000000,4.000000,4.000000,0.000000,,,,,,,,,,,,,,,,,,,,,,,,,,,,
1732157838.613661,1732157838.616400,103.000000,0.000000,4294.487305,4323.461426,4320.000000,4315.256348,4298.589844,4281.538574,4335.512695,4401.410156,4308.846191,4279.230957,4457.692383,4504.871582,4334.102539,4409.743652,1559.000000,1.000000,22.000000,,,,0.000000,2.000000,2.000000,0.000000,4.000000,2.000000,2.000000,0.000000,0.000000,4.000000,4.000000,4.000000,4.000000,4.000000,4.000000,0.000000,,,,,,,,,,,,,,,,,,,,,,,,,,,,
1732157838.621469,1732157838.624108,104.000000,0.000000,4291.666504,4298.077148,4320.769043,4309.615234,4297.436035,4281.153809,4336.410156,4399.487305,4301.922852,4272.179688,4460.641113,4509.487305,4338.461426,4412.436035,1688.000000,1.000000,22.000000,,,,0.000000,2.000000,2.000000,0.000000,4.000000,2.000000,2.000000,0.000000,0.000000,4.000000,4.000000,4.000000,4.000000,4.000000,4.000000,0.000000,,,,,,,,,,,,,,,,,26.000000,0.000000,0.517784,0.484253,-0.549072,0.442627,0.981077,0.010743,-0.070321,-35.379509,45.678158,31.385996
1732157838.629277,1732157838.631916,105.000000,0.000000,4292.820313,4278.461426,4320.641113,4309.358887,4301.794922,4281.794922,4335.384766,4399.487305,4303.846191,4266.282227,4456.538574,4512.051270,4337.179688,4412.820313,1611.000000,1.000000,22.000000,,,,0.000000,2.000000,2.000000,0.000000,4.000000,2.000000,2.000000,0.000000,0.000000,4.000000,4.000000,4.000000,4.000000,4.000000,4.000000,0.000000,,,,,,,,,,,,,,,,,,,,,,,,,,,,
1732157838.637086,1732157838.639525,106.000000,0.000000,4295.769043,4276.538574,4319.102539,4312.820313,4305.897461,4280.384766,4334.487305,4401.410156,4313.077148,4276.025879,4458.717773,4511.794922,4338.846191,4413.589844,1524.000000,1.000000,22.000000,,,,0.000000,2.000000,2.000000,0.000000,4.000000,2.000000,2.000000,0.000000,0.000000,4.000000,4.000000,4.000000,4.000000,4.000000,4.000000,0.000000,,,,,,,,,,,,,,,,,,,,,,,,,,,,
1732157838.644894,1732157838.647333,107.000000,0.000000,4296.666504,4271.666504,4316.794922,4312.436035,4306.410156,4280.512695,4334.871582,4400.897461,4316.922852,4282.307617,4463.461426,4513.461426,4343.333496,4411.538574,1559.000000,1.000000,22.000000,,,,0.000000,2.000000,2.000000,0.000000,4.000000,2.000000,2.000000,0.000000,0.000000,4.000000,4.000000,4.000000,4.000000,4.000000,4.000000,0.000000,,,,,,,,,,,,,,,,,,,,,,,,,,,,
1732157838.652702,1732157838.655241,108.000000,0.000000,4295.512695,4253.333496,4316.538574,4310.641113,4307.307617,4285.384766,4334.871582,4398.846191,4315.128418,4278.589844,4460.641113,4510.128418,4337.436035,4408.717773,1688.000000,1.000000,22.000000,,,,0.000000,2.000000,2.000000,0.000000,4.000000,2.000000,2.000000,0.000000,0.000000,4.000000,4.000000,4.000000,4.000000,4.000000,4.000000,0.000000,,,,,,,,,,,,,,,,,27.000000,0.000000,0.517813,0.483704,-0.548889,0.443420,0.981565,-0.002930,-0.074716,-35.310738,45.740974,31.379324
1732157838.660510,1732157838.663049,109.000000,0.000000,4294.102539,4243.974121,4315.769043,4310.897461,4312.307617,4287.179688,4334.615234,4399.230957,4312.179688,4277.179688,4457.307617,4509.102539,4330.384766,4410.512695,1611.000000,1.000000,22.000000,,,,0.000000,2.000000,2.000000,0.000000,4.000000,2.000000,2.000000,0.000000,0.000000,4.000000,4.000000,4.000000,4.000000,4.000000,4.000000,0.000000,,,,,,,,,,,,,,,,,,,,,,,,,,,,
1732157838.668318,1732157838.671057,110.000000,0.000000,4295.256348,4251.666504,4314.871582,4313.333496,4309.871582,4282.948730,4334.743652,4401.025879,4311.538574,4281.794922,4460.128418,4515.641113,4339.615234,4414.230957,1524.000000,1.000000,22.000000,,,,0.000000,2.000000,2.000000,0.000000,4.000000,2.000000,2.000000,0.000000,0.000000,4.000000,4.000000,4.000000,4.000000,4.000000,4.000000,0.000000,,,,,,,,,,,,,,,,,,,,,,,,,,,,
1732157838.676127,1732157838.678865,111.000000,0.000000,4298.205078,4247.307617,4315.512695,4315.384766,4310.256348,4281.410156,4334.743652,4399.871582,4310.128418,4281.666504,4461.025879,4514.102539,4342.307617,4414.230957,1559.000000,1.000000,22.000000,,,,0.000000,2.000000,2.000000,0.000000,4.000000,2.000000,2.000000,0.000000,0.000000,4.000000,4.000000,4.000000,4.000000,4.000000,4.000000,0.000000,,,,,,,,,,,,,,,,,,,,,,,,,,,,
1732157838.683935,1732157838.686774,112.000000,0.000000,4298.974121,4234.358887,4316.410156,4311.794922,4328.974121,4287.179688,4334.615234,4399.743652,4309.230957,4277.051270,4457.948730,4505.897461,4329.743652,4412.820313,1688.000000,1.000000,22.000000,,,,0.000000,2.000000,2.000000,0.000000,4.000000,2.000000,2.000000,0.000000,0.000000,4.000000,4.000000,4.000000,4.000000,4.000000,4.000000,0.000000,,,,,,,,,,,,,,,,,28.000000,0.000000,0.517850,0.483093,-0.549194,0.443665,0.981565,-0.002930,-0.074716,-35.315029,45.821854,31.655586
1732157838.691743,1732157838.694582,113.000000,0.000000,4297.692383,4237.307617,4315.641113,4308.461426,4331.153809,4291.282227,4335.128418,4401.410156,4316.153809,4285.128418,4458.974121,4506.666504,4326.666504,4414.487305,1611.000000,1.000000,22.000000,,,,0.000000,2.000000,2.000000,0.000000,4.000000,2.000000,2.000000,0.000000,0.000000,4.000000,4.000000,4.000000,4.000000,4.000000,4.000000,0.000000,,,,,,,,,,,,,,,,,,,,,,,,,,,,
1732157838.699551,1732157838.702190,114.000000,0.000000,4296.410156,4223.461426,4315.256348,4310.384766,4310.897461,4291.410156,4335.769043,4399.615234,4316.794922,4296.025879,4460.641113,4509.102539,4331.025879,4412.948730,1524.000000,1.000000,22.000000,,,,0.000000,2.000000,2.000000,0.000000,4.000000,2.000000,2.000000,0.000000,0.000000,4.000000,4.000000,4.000000,4.000000,4.000000,4.000000,0.000000,,,,,,,,,,,,,,,,,,,,,,,,,,,,
1732157838.707360,1732157838.709998,115.000000,0.000000,4299.102539,4180.256348,4315.641113,4311.922852,4310.256348,4294.743652,4335.897461,4399.487305,4314.358887,4296.282227,4462.563965,4509.358887,4334.743652,4412.692383,1559.000000,1.000000,22.000000,,,,0.000000,2.000000,2.000000,0.000000,4.000000,2.000000,2.000000,0.000000,0.000000,4.000000,4.000000,4.000000,4.000000,4.000000,4.000000,0.000000,,,,,,,,,,,,,,,,,,,,,,,,,,,,
1732157838.715168,1732157838.717707,116.000000,0.000000,4305.769043,4158.077148,4316.538574,4312.051270,4321.410156,4295.897461,4336.153809,4401.922852,4323.717773,4299.615234,4472.436035,4518.461426,4341.538574,4424.102539,1688.000000,1.000000,22.000000,,,,0.000000,2.000000,2.000000,0.000000,4.000000,2.000000,2.000000,0.000000,0.000000,4.000000,4.000000,4.000000,4.000000,4.000000,4.000000,0.000000,,,,,,,,,,,,,,,,,29.000000,0.000000,0.517921,0.480774,-0.549927,0.445190,0.973263,-0.004395,-0.072274,-35.343506,45.820702,31.499357
1732157838.722976,1732157838.725515,117.000000,0.000000,4309.871582,4166.666504,4316.666504,4315.769043,4318.461426,4293.333496,4336.794922,4401.282227,4323.461426,4302.563965,4478.589844,4525.256348,4340.256348,4432.820313,1611.000000,1.000000,22.000000,,,,0.000000,2.000000,2.000000,0.000000,4.000000,2.000000,2.000000,0.000000,0.000000,4.000000,4.000000,4.000000,4.000000,4.000000,4.000000,0.000000,,,,,,,,,,,,,,,,,,,,,,,,,,,,
1732157838.730785,1732157838.733523,118.000000,0.000000,4310.384766,4168.461426,4317.563965,4320.641113,4319.102539,4293.205078,4336.794922,4400.128418,4307.692383,4295.641113,4468.589844,4521.666504,4329.871582,4423.077148,1524.000000,1.000000,22.000000,,,,0.000000,2.000000,2.000000,0.000000,4.000000,2.000000,2.000000,0.000000,0.000000,4.000000,4.000000,4.000000,4.000000,4.000000,4.000000,0.000000,,,,,,,,,,,,,,,,,,,,,,,,,,,,
1732157838.738593,1732157838.741331,119.000000,0.000000,4311.410156,4164.615234,4317.436035,4319.871582,4329.358887,4297.820313,4336.282227,4401.666504,4308.333496,4292.563965,4461.282227,4521.922852,4326.153809,4412.948730,1559.000000,1.000000,22.000000,,,,0.000000,2.000000,2.000000,0.000000,4.000000,2.000000,2.000000,0.000000,0.000000,4.000000,4.000000,4.000000,4.000000,4.000000,4.000000,0.000000,,,,,,,,,,,,,,,,,,,,,,,,,,,,
1732157838.746401,1732157838.749239,120.000000,0.000000,4313.846191,4165.128418,4315.897461,4317.563965,4328.333496,4297.820313,4335.641113,4402.051270,4317.820313,4293.846191,4468.077148,4522.179688,4325.897461,4420.384766,1688.000000,1.000000,22.000000,,,,0.000000,2.000000,2.000000,0.000000,4.000000,2.000000,2.000000,0.000000,0.000000,4.000000,4.000000,4.000000,4.000000,4.000000,4.000000,0.000000,,,,,,,,,,,,,,,,,30.000000,0.000000,0.518923,0.479492,-0.549805,0.445557,0.985960,-0.001465,-0.053229,-35.179909,45.644768,31.556147
1732157838.754209,1732157838.757047,121.000000,0.000000,4311.666504,4155.897461,4315.384766,4313.846191,4316.794922,4294.487305,4335.769043,4399.871582,4318.077148,4303.589844,4475.897461,4523.205078,4325.769043,4429.743652,1611.000000,1.000000,22.000000,,,,0.000000,2.000000,2.000000,0.000000,4.000000,2.000000,2.000000,0.000000,0.000000,4.000000,4.000000,4.000000,4.000000,4.000000,4.000000,0.000000,,,,,,,,,,,,,,,,,,,,,,,,,,,,
1732157838.762017,1732157838.765055,122.000000,0.000000,4310.384766,4152.307617,4313.717773,4310.512695,4318.333496,4295.128418,4336.025879,4400.128418,4318.333496,4312.436035,4475.769043,4524.871582,4328.846191,4429.102539,1524.000000,1.000000,22.000000,,,,0.000000,2.000000,2.000000,0.000000,4.000000,2.000000,2.000000,0.000000,0.000000,4.000000,4.000000,4.000000,4.000000,4.000000,4.000000,0.000000,,,,,,,,,,,,,,,,,,,,,,,,,,,,
1732157838.769826,1732157838.772864,123.000000,0.000000,4316.282227,4164.871582,4311.794922,4314.487305,4334.102539,4292.563965,4334.615234,4401.794922,4313.461426,4300.769043,4473.333496,4519.871582,4327.307617,4428.077148,1559.000000,1.000000,22.000000,,,,0.000000,2.000000,2.000000,0.000000,4.000000,2.000000,2.000000,0.000000,0.000000,4.000000,4.000000,4.000000,4.000000,4.000000,4.000000,0.000000,,,,,,,,,,,,,,,,,,,,,,,,,,,,
1732157838.777634,1732157838.780772,124.000000,0.000000,4318.717773,4169.487305,4314.230957,4317.563965,4330.384766,4291.025879,4336.922852,4402.563965,4312.051270,4299.102539,4478.717773,4521.025879,4326.410156,4430.897461,1688.000000,1.000000,22.000000,,,,0.000000,2.000000,2.000000,0.000000,4.000000,2.000000,2.000000,0.000000,0.000000,4.000000,4.000000,4.000000,4.000000,4.000000,4.000000,0.000000,,,,,,,,,,,,,,,,,31.000000,0.000000,0.519765,0.478760,-0.549500,0.445740,0.987425,0.007325,-0.041021,-35.209057,45.890594,31.493813
1732157838.785442,1732157838.788580,125.000000,0.000000,4313.077148,4163.717773,4317.820313,4312.820313,4306.922852,4297.436035,4338.846191,4402.307617,4321.025879,4312.820313,4481.922852,4529.615234,4328.077148,4430.512695,1611.000000,1.000000,22.000000,,,,0.000000,2.000000,2.000000,0.000000,4.000000,2.000000,2.000000,0.000000,0.000000,4.000000,4.000000,4.000000,4.000000,4.000000,4.000000,0.000000,,,,,,,,,,,,,,,,,,,,,,,,,,,,
1732157838.793250,1732157838.796588,126.000000,0.000000,4311.025879,4165.769043,4317.051270,4313.205078,4303.333496,4297.692383,4336.153809,4402.179688,4319.871582,4308.717773,4477.436035,4527.948730,4325.641113,4429.487305,1524.000000,1.000000,22.000000,,,,0.000000,2.000000,2.000000,0.000000,4.000000,2.000000,2.000000,0.000000,0.000000,4.000000,4.000000,4.000000,4.000000,4.000000,4.000000,0.000000,,,,,,,,,,,,,,,,,,,,,,,,,,,,
1732157838.801059,1732157838.804396,127.000000,0.000000,4315.512695,4171.794922,4316.410156,4321.025879,4311.922852,4293.974121,4337.179688,4402.563965,4310.769043,4294.871582,4476.666504,4516.666504,4320.128418,4428.205078,22.000000,1.000000,22.000000,,,,0.000000,2.000000,2.000000,0.000000,4.000000,2.000000,2.000000,0.000000,0.000000,4.000000,4.000000,4.000000,4.000000,4.000000,4.000000,0.000000,,,,,,,,,,,,,,,,,,,,,,,,,,,,
1732157838.808867,1732157838.812304,0.000000,0.000000,4313.846191,4170.256348,4315.256348,4318.974121,4312.436035,4302.820313,4339.743652,4402.820313,4309.871582,4287.307617,4470.769043,4508.461426,4309.615234,4418.846191,0.000000,1.000000,22.000000,,,,0.000000,2.000000,2.000000,0.000000,4.000000,2.000000,2.000000,0.000000,0.000000,4.000000,4.000000,4.000000,4.000000,4.000000,4.000000,0.000000,,,,,,,,,,,,,,,,,0.000000,0.000000,0.520078,0.478516,-0.549316,0.445862,0.991820,0.011232,-0.058601,-35.391003,46.006382,31.431654
1732157838.816675,1732157838.820113,1.000000,0.000000,4308.333496,4167.051270,4312.563965,4306.922852,4312.307617,4308.077148,4336.282227,4402.820313,4312.563965,4288.333496,4460.384766,4504.102539,4300.897461,4410.641113,1603.000000,1.000000,22.000000,,,,0.000000,2.000000,2.000000,0.000000,4.000000,2.000000,2.000000,0.000000,0.000000,4.000000,4.000000,4.000000,4.000000,4.000000,4.000000,0.000000,,,,,,,,,,,,,,,,,,,,,,,,,,,,
1732157838.824484,1732157838.828121,2.000000,0.000000,4308.589844,4168.846191,4311.410156,4307.307617,4312.307617,4298.846191,4334.230957,4402.307617,4315.000000,4297.051270,4464.230957,4507.563965,4305.384766,4413.589844,1361.000000,1.000000,22.000000,,,,0.000000,2.000000,2.000000,0.000000,4.000000,2.000000,2.000000,0.000000,0.000000,4.000000,4.000000,4.000000,4.000000,4.000000,4.000000,0.000000,,,,,,,,,,,,,,,,,,,,,,,,,,,,
1732157838.832292,1732157838.835929,3.000000,0.000000,4312.179688,4171.153809,4313.589844,4317.436035,4310.384766,4296.025879,4337.692383,4402.820313,4322.563965,4303.717773,4473.205078,4516.538574,4313.077148,4417.436035,1429.000000,1.000000,22.000000,,,,0.000000,2.000000,2.000000,0.000000,4.000000,2.000000,2.000000,0.000000,0.000000,4.000000,4.000000,4.000000,4.000000,4.000000,4.000000,0.000000,,,,,,,,,,,,,,,,,,,,,,,,,,,,
1732157838.840100,1732157838.843737,4.000000,0.000000,4312.948730,4173.717773,4315.512695,4316.794922,4311.794922,4297.563965,4337.563965,4400.128418,4320.384766,4292.692383,4470.000000,4513.077148,4311.922852,4414.230957,1422.000000,1.000000,22.000000,,,,0.000000,2.000000,2.000000,0.000000,4.000000,2.000000,2.000000,0.000000,0.000000,4.000000,4.000000,4.000000,4.000000,4.000000,4.000000,0.000000,,,,,,,,,,,,,,,,,1.000000,0.000000,0.521134,0.477844,-0.548950,0.445801,0.964473,0.018557,-0.042486,-35.323380,45.948505,31.516306
1732157838.847908,1732157838.851545,5.000000,0.000000,4311.410156,4176.666504,4314.871582,4311.794922,4314.102539,4295.512695,4335.384766,4400.769043,4309.487305,4281.410156,4467.692383,4505.128418,4310.641113,4412.948730,1220.000000,1.000000,22.000000,,,,0.000000,2.000000,2.000000,0.000000,4.000000,2.000000,2.000000,0.000000,0.000000,4.000000,4.000000,4.000000,4.000000,4.000000,4.000000,0.000000,,,,,,,,,,,,,,,,,,,,,,,,,,,,
1732157838.855716,1732157838.859154,6.000000,0.000000,4310.769043,4172.692383,4311.282227,4310.000000,4306.666504,4296.794922,4336.153809,4405.897461,4313.205078,4290.641113,4468.589844,4506.410156,4311.153809,4413.461426,0.000000,1.000000,22.000000,,,,0.000000,2.000000,2.000000,0.000000,4.000000,2.000000,2.000000,0.000000,0.000000,4.000000,4.000000,4.000000,4.000000,4.000000,4.000000,0.000000,,,,,,,,,,,,,,,,,,,,,,,,,,,,
1732157838.863525,1732157838.866962,7.000000,0.000000,4308.974121,4167.051270,4311.153809,4304.358887,4304.487305,4296.538574,4336.025879,4402.948730,4318.077148,4296.538574,4463.205078,4505.897461,4309.102539,4411.153809,0.000000,1.000000,22.000000,,,,0.000000,2.000000,2.000000,0.000000,4.000000,2.000000,2.000000,0.000000,0.000000,4.000000,4.000000,4.000000,4.000000,4.000000,4.000000,0.000000,,,,,,,,,,,,,,,,,,,,,,,,,,,,
1732157838.871333,1732157838.874670,8.000000,0.000000,4308.333496,4176.282227,4313.077148,4303.974121,4322.563965,4289.230957,4335.897461,4396.282227,4305.384766,4284.743652,4464.358887,4502.307617,4311.282227,4413.333496,1533.000000,1.000000,22.000000,,,,0.000000,2.000000,2.000000,0.000000,4.000000,2.000000,2.000000,0.000000,0.000000,4.000000,4.000000,4.000000,4.000000,4.000000,4.000000,0.000000,,,,,,,,,,,,,,,,,2.000000,0.000000,0.521828,0.477905,-0.548584,0.445374,0.972287,0.028812,-0.039556,-35.290272,45.543289,31.598207
1732157838.879141,1732157838.882478,9.000000,0.000000,4306.794922,4182.051270,4313.205078,4308.461426,4322.820313,4290.641113,4335.512695,4398.589844,4301.666504,4284.487305,4468.974121,4505.769043,4313.717773,4416.794922,1700.000000,1.000000,22.000000,,,,0.000000,2.000000,2.000000,0.000000,4.000000,2.000000,2.000000,0.000000,0.000000,4.000000,4.000000,4.000000,4.000000,4.000000,4.000000,0.000000,,,,,,,,,,,,,,,,,,,,,,,,,,,,
1732157838.886949,1732157838.890087,10.000000,0.000000,4305.512695,4175.641113,4314.743652,4307.820313,4296.922852,4299.230957,4335.384766,4403.461426,4314.487305,4298.077148,4468.589844,4505.000000,4311.025879,4414.615234,1553.000000,1.000000,22.000000,,,,0.000000,2.000000,2.000000,0.000000,4.000000,2.000000,2.000000,0.000000,0.000000,4.000000,4.000000,4.000000,4.000000,4.000000,4.000000,0.000000,,,,,,,,,,,,,,,,,,,,,,,,,,,,
1732157838.894758,1732157838.897895,11.000000,0.000000,4308.205078,4178.077148,4315.769043,4307.820313,4292.436035,4299.743652,4335.641113,4401.538574,4312.436035,4289.871582,4469.615234,4498.846191,4309.743652,4411.794922,1569.000000,1.000000,22.000000,,,,0.000000,2.000000,2.000000,0.000000,4.000000,2.000000,2.000000,0.000000,0.000000,4.000000,4.000000,4.000000,4.000000,4.000000,4.000000,0.000000,,,,,,,,,,,,,,,,,,,,,,,,,,,,
1732157838.902566,1732157838.905703,12.000000,0.000000,4309.230957,4185.384766,4314.230957,4308.461426,4307.307617,4296.025879,4335.897461,4401.153809,4304.871582,4280.000000,4473.205078,4504.358887,4310.641113,4413.333496,1698.000000,1.000000,22.000000,,,,0.000000,2.000000,2.000000,0.000000,4.000000,2.000000,2.000000,0.000000,0.000000,4.000000,4.000000,4.000000,4.000000,4.000000,4.000000,0.000000,,,,,,,,,,,,,,,,,3.000000,0.000000,0.521828,0.477905,-0.548584,0.445374,0.970333,0.026859,-0.053717,-35.203453,45.545063,31.724548
1732157838.910374,1732157838.913511,13.000000,0.000000,4307.948730,4183.077148,4312.051270,4305.128418,4304.358887,4296.666504,4335.256348,4402.820313,4313.077148,4295.000000,4476.282227,4510.256348,4311.922852,4414.871582,1623.000000,1.000000,22.000000,,,,0.000000,2.000000,2.000000,0.000000,4.000000,2.000000,2.000000,0.000000,0.000000,4.000000,4.000000,4.000000,4.000000,4.000000,4.000000,0.000000,,,,,,,,,,,,,,,,,,,,,,,,,,,,
1732157838.918182,1732157838.921120,14.000000,0.000000,4308.205078,4182.307617,4312.692383,4305.384766,4299.871582,4298.333496,4334.615234,4401.666504,4314.358887,4296.410156,4470.897461,4503.717773,4310.512695,4412.692383,1553.000000,1.000000,22.000000,,,,0.000000,2.000000,2.000000,0.000000,4.000000,2.000000,2.000000,0.000000,0.000000,4.000000,4.000000,4.000000,4.000000,4.000000,4.000000,0.000000,1.000000,0.000000,2.000000,2.000000,0.000000,4.000000,2.000000,2.000000,0.000000,0.000000,4.000000,4.000000,4.000000,4.000000,4.000000,4.000000,,,,,,,,,,,,
1732157838.925991,1732157838.928928,15.000000,0.000000,4308.333496,4183.846191,4313.846191,4301.282227,4306.282227,4297.436035,4335.769043,4401.538574,4306.794922,4287.563965,4466.794922,4505.512695,4308.717773,4412.692383,1569.000000,1.000000,22.000000,,,,0.000000,2.000000,2.000000,0.000000,4.000000,2.000000,2.000000,0.000000,0.000000,4.000000,4.000000,4.000000,4.000000,4.000000,4.000000,0.000000,,,,,,,,,,,,,,,,,,,,,,,,,,,,
1732157838.933799,1732157838.936636,16.000000,0.000000,4308.846191,4183.589844,4312.307617,4296.538574,4300.641113,4296.922852,4336.666504,4401.666504,4308.974121,4293.461426,4473.589844,4517.563965,4312.179688,4415.512695,0.000000,1.000000,22.000000,,,,0.000000,2.000000,2.000000,0.000000,4.000000,2.000000,2.000000,0.000000,0.000000,4.000000,4.000000,4.000000,4.000000,4.000000,4.000000,0.000000,,,,,,,,,,,,,,,,,4.000000,0.000000,0.522673,0.478027,-0.548218,0.444702,0.985472,0.022464,-0.052741,-35.123131,45.584835,31.763552
1732157838.941607,1732157838.944444,17.000000,0.000000,4311.282227,4187.307617,4311.794922,4302.563965,4294.230957,4296.922852,4335.384766,4401.666504,4313.717773,4299.230957,4478.077148,4512.948730,4315.384766,4416.410156,0.000000,1.000000,22.000000,,,,0.000000,2.000000,2.000000,0.000000,4.000000,2.000000,2.000000,0.000000,0.000000,4.000000,4.000000,4.000000,4.000000,4.000000,4.000000,0.000000,,,,,,,,,,,,,,,,,,,,,,,,,,,,
1732157838.949415,1732157838.952053,18.000000,0.000000,4310.512695,4186.794922,4312.820313,4304.615234,4310.384766,4295.384766,4334.615234,4400.897461,4307.563965,4291.410156,4471.410156,4495.000000,4312.563965,4413.077148,0.000000,1.000000,22.000000,,,,0.000000,2.000000,2.000000,0.000000,4.000000,2.000000,2.000000,0.000000,0.000000,4.000000,4.000000,4.000000,4.000000,4.000000,4.000000,0.000000,,,,,,,,,,,,,,,,,,,,,,,,,,,,
1732157838.957224,1732157838.959861,19.000000,0.000000,4307.820313,4188.205078,4312.307617,4303.846191,4318.461426,4295.512695,4335.128418,4399.487305,4297.179688,4281.794922,4468.461426,4490.769043,4309.102539,4411.282227,0.000000,1.000000,22.000000,,,,0.000000,2.000000,2.000000,0.000000,4.000000,2.000000,2.000000,0.000000,0.000000,4.000000,4.000000,4.000000,4.000000,4.000000,4.000000,0.000000,,,,,,,,,,,,,,,,,,,,,,,,,,,,
1732157838.965032,1732157838.967569,20.000000,0.000000,4311.794922,4198.333496,4312.820313,4310.000000,4292.692383,4298.461426,4335.128418,4402.307617,4296.922852,4285.641113,4473.846191,4501.922852,4311.666504,4414.615234,0.000000,1.000000,22.000000,,,,0.000000,2.000000,2.000000,0.000000,4.000000,2.000000,2.000000,0.000000,0.000000,4.000000,4.000000,4.000000,4.000000,4.000000,4.000000,0.000000,,,,,,,,,,,,,,,,,5.000000,0.000000,0.522592,0.477722,-0.548462,0.444824,0.997192,0.022464,-0.050787,-34.944736,45.582050,31.790144
1732157838.972840,1732157838.975378,21.000000,0.000000,4318.077148,4202.051270,4313.461426,4311.538574,4273.846191,4298.077148,4334.743652,4408.461426,4307.948730,4295.641113,4474.615234,4508.205078,4315.897461,4420.512695,0.000000,1.000000,22.000000,,,,0.000000,2.000000,2.000000,0.000000,4.000000,2.000000,2.000000,0.000000,0.000000,4.000000,4.000000,4.000000,4.000000,4.000000,4.000000,0.000000,,,,,,,,,,,,,,,,,,,,,,,,,,,,
1732157838.980648,1732157838.982986,22.000000,0.000000,4316.794922,4199.487305,4312.436035,4307.051270,4286.153809,4296.922852,4335.000000,4407.436035,4312.307617,4295.897461,4472.692383,4505.128418,4318.205078,4425.000000,0.000000,1.000000,22.000000,,,,0.000000,2.000000,2.000000,0.000000,4.000000,2.000000,2.000000,0.000000,0.000000,4.000000,4.000000,4.000000,4.000000,4.000000,4.000000,0.000000,,,,,,,,,,,,,,,,,,,,,,,,,,,,
1732157838.988457,1732157838.990794,23.000000,0.000000,4314.871582,4200.897461,4310.897461,4307.563965,4292.563965,4298.974121,4335.000000,4400.384766,4303.205078,4292.179688,4471.922852,4504.358887,4321.666504,4427.436035,0.000000,1.000000,22.000000,,,,0.000000,2.000000,2.000000,0.000000,4.000000,2.000000,2.000000,0.000000,0.000000,4.000000,4.000000,4.000000,4.000000,4.000000,4.000000,0.000000,,,,,,,,,,,,,,,,,,,,,,,,,,,,
1732157838.996265,1732157838.998702,24.000000,0.000000,4323.461426,4200.512695,4311.282227,4307.307617,4282.692383,4297.820313,4334.743652,4399.102539,4294.487305,4294.487305,4472.307617,4506.794922,4325.000000,4430.384766,0.000000,1.000000,22.000000,,,,0.000000,2.000000,2.000000,0.000000,4.000000,2.000000,2.000000,0.000000,0.000000,4.000000,4.000000,4.000000,4.000000,4.000000,4.000000,0.000000,,,,,,,,,,,,,,,,,6.000000,0.000000,0.522001,0.477356,-0.549194,0.445007,0.977658,-0.000488,-0.045904,-35.010235,45.668125,31.700016
1732157839.004073,1732157839.006511,25.000000,0.000000,4328.461426,4201.410156,4313.974121,4307.820313,4286.666504,4294.230957,4335.512695,4400.769043,4293.461426,4294.102539,4472.179688,4502.948730,4326.794922,4434.615234,0.000000,1.000000,22.000000,,,,0.000000,2.000000,2.000000,0.000000,4.000000,2.000000,2.000000,0.000000,0.000000,4.000000,4.000000,4.000000,4.000000,4.000000,4.000000,0.000000,,,,,,,,,,,,,,,,,,,,,,,,,,,,
1732157839.011881,1732157839.014119,26.000000,0.000000,4322.948730,4210.897461,4315.256348,4312.179688,4295.897461,4294.230957,4336.410156,4400.256348,4293.974121,4291.794922,4474.487305,4498.974121,4330.641113,4439.871582,0.000000,1.000000,22.000000,,,,0.000000,2.000000,2.000000,0.000000,4.000000,2.000000,2.000000,0.000000,0.000000,4.000000,4.000000,4.000000,4.000000,4.000000,4.000000,0.000000,,,,,,,,,,,,,,,,,,,,,,,,,,,,
1732157839.019690,1732157839.021927,27.000000,0.000000,4325.384766,4215.897461,4311.153809,4311.538574,4288.589844,4292.692383,4335.897461,4401.153809,4296.282227,4297.948730,4477.820313,4498.589844,4338.589844,4443.717773,0.000000,1.000000,22.000000,,,,0.000000,2.000000,2.000000,0.000000,4.000000,2.000000,2.000000,0.000000,0.000000,4.000000,4.000000,4.000000,4.000000,4.000000,4.000000,0.000000,,,,,,,,,,,,,,,,,,,,,,,,,,,,
1732157839.027498,1732157839.029835,28.000000,0.000000,4335.256348,4215.512695,4311.666504,4308.333496,4280.000000,4290.256348,4336.410156,4401.282227,4298.846191,4301.666504,4478.846191,4498.846191,4342.948730,4444.230957,0.000000,1.000000,22.000000,,,,0.000000,2.000000,2.000000,0.000000,4.000000,2.000000,2.000000,0.000000,0.000000,4.000000,4.000000,4.000000,4.000000,4.000000,4.000000,0.000000,,,,,,,,,,,,,,,,,7.000000,0.000000,0.521844,0.477234,-0.549500,0.444946,0.977658,-0.000488,-0.045904,-34.976624,45.667850,31.757013
1732157839.035306,1732157839.037643,29.000000,0.000000,4339.615234,4217.179688,4316.282227,4309.487305,4280.897461,4295.384766,4336.282227,4399.487305,4292.948730,4296.666504,4482.692383,4503.205078,4345.256348,4448.333496,0.000000,1.000000,22.000000,,,,0.000000,2.000000,2.000000,0.000000,4.000000,2.000000,2.000000,0.000000,0.000000,4.000000,4.000000,4.000000,4.000000,4.000000,4.000000,0.000000,,,,,,,,,,,,,,,,,,,,,,,,,,,,
1732157839.043114,1732157839.045651,30.000000,0.000000,4343.461426,4218.205078,4313.077148,4313.333496,4283.461426,4292.307617,4334.358887,4399.743652,4284.358887,4292.948730,4488.333496,4508.205078,4348.974121,4455.641113,0.000000,1.000000,22.000000,,,,0.000000,2.000000,2.000000,0.000000,4.000000,2.000000,2.000000,0.000000,0.000000,4.000000,4.000000,4.000000,4.000000,4.000000,4.000000,0.000000,,,,,,,,,,,,,,,,,,,,,,,,,,,,
1732157839.050923,1732157839.053460,31.000000,0.000000,4351.153809,4223.077148,4308.589844,4313.461426,4280.897461,4281.282227,4334.487305,4401.153809,4286.025879,4294.743652,4489.102539,4508.205078,4352.820313,4459.102539,0.000000,1.000000,22.000000,,,,0.000000,2.000000,2.000000,0.000000,4.000000,2.000000,2.000000,0.000000,0.000000,4.000000,4.000000,4.000000,4.000000,4.000000,4.000000,0.000000,,,,,,,,,,,,,,,,,,,,,,,,,,,,
1732157839.058731,1732157839.061368,32.000000,0.000000,4351.025879,4226.282227,4311.025879,4311.538574,4280.512695,4281.794922,4336.025879,4402.436035,4295.769043,4298.846191,4487.692383,4505.769043,4356.794922,4460.769043,0.000000,1.000000,22.000000,,,,0.000000,2.000000,2.000000,0.000000,4.000000,2.000000,2.000000,0.000000,0.000000,4.000000,4.000000,4.000000,4.000000,4.000000,4.000000,0.000000,,,,,,,,,,,,,,,,,8.000000,0.000000,0.521226,0.477112,-0.550537,0.444519,0.963497,-0.006348,-0.055183,-35.149399,45.724293,31.879847
1732157839.066539,1732157839.069176,33.000000,0.000000,4346.410156,4221.153809,4311.410156,4311.410156,4280.897461,4287.692383,4335.384766,4401.922852,4296.666504,4296.922852,4487.948730,4507.051270,4356.410156,4462.948730,0.000000,1.000000,22.000000,,,,0.000000,2.000000,2.000000,0.000000,4.000000,2.000000,2.000000,0.000000,0.000000,4.000000,4.000000,4.000000,4.000000,4.000000,4.000000,0.000000,,,,,,,,,,,,,,,,,,,,,,,,,,,,
1732157839.074347,1732157839.077184,34.000000,0.000000,4347.820313,4222.948730,4310.384766,4310.256348,4280.384766,4283.974121,4334.615234,4399.615234,4282.820313,4285.256348,4488.205078,4505.769043,4353.333496,4461.153809,0.000000,1.000000,22.000000,,,,0.000000,2.000000,2.000000,0.000000,4.000000,2.000000,2.000000,0.000000,0.000000,4.000000,4.000000,4.000000,4.000000,4.000000,4.000000,0.000000,,,,,,,,,,,,,,,,,,,,,,,,,,,,
1732157839.082156,1732157839.084992,35.000000,0.000000,4350.897461,4233.461426,4311.025879,4310.128418,4280.641113,4277.436035,4334.615234,4400.000000,4273.974121,4279.230957,4485.641113,4506.538574,4356.922852,4463.717773,0.000000,1.000000,22.000000,,,,0.000000,2.000000,2.000000,0.000000,4.000000,2.000000,2.000000,0.000000,0.000000,4.000000,4.000000,4.000000,4.000000,4.000000,4.000000,0.000000,,,,,,,,,,,,,,,,,,,,,,,,,,,,
1732157839.089964,1732157839.092900,36.000000,0.000000,4354.743652,4233.589844,4308.077148,4314.102539,4279.102539,4279.615234,4334.871582,4400.769043,4282.820313,4289.615234,4489.615234,4517.307617,4364.102539,4472.948730,0.000000,1.000000,22.000000,,,,0.000000,2.000000,2.000000,0.000000,4.000000,2.000000,2.000000,0.000000,0.000000,4.000000,4.000000,4.000000,4.000000,4.000000,4.000000,0.000000,,,,,,,,,,,,,,,,,9.000000,0.000000,0.521124,0.477112,-0.550781,0.444336,0.964962,-0.017092,-0.068368,-35.051014,45.563343,31.802675
1732157839.097772,1732157839.100709,37.000000,0.000000,4358.333496,4229.615234,4310.641113,4315.256348,4276.410156,4283.077148,4335.769043,4400.769043,4294.102539,4298.974121,4500.384766,4525.512695,4366.922852,4477.692383,0.000000,1.000000,22.000000,,,,0.000000,2.000000,2.000000,0.000000,4.000000,2.000000,2.000000,0.000000,0.000000,4.000000,4.000000,4.000000,4.000000,4.000000,4.000000,0.000000,,,,,,,,,,,,,,,,,,,,,,,,,,,,
1732157839.105580,1732157839.108717,38.000000,0.000000,4358.589844,4232.692383,4315.256348,4310.128418,4274.487305,4281.025879,4335.000000,4400.256348,4295.897461,4298.205078,4506.922852,4520.512695,4370.256348,4477.563965,0.000000,1.000000,22.000000,,,,0.000000,2.000000,2.000000,0.000000,4.000000,2.000000,2.000000,0.000000,0.000000,4.000000,4.000000,4.000000,4.000000,4.000000,4.000000,0.000000,,,,,,,,,,,,,,,,,,,,,,,,,,,,
1732157839.113389,1732157839.116525,39.000000,0.000000,4356.666504,4232.307617,4313.205078,4307.563965,4273.461426,4277.307617,4333.846191,4400.384766,4295.897461,4295.512695,4504.487305,4513.589844,4369.487305,4476.666504,0.000000,1.000000,22.000000,,,,0.000000,2.000000,2.000000,0.000000,4.000000,2.000000,2.000000,0.000000,0.000000,4.000000,4.000000,4.000000,4.000000,4.000000,4.000000,0.000000,,,,,,,,,,,,,,,,,,,,,,,,,,,,
1732157839.121197,1732157839.124233,40.000000,0.000000,4356.410156,4229.358887,4309.102539,4310.128418,4266.666504,4277.948730,4335.512695,4401.282227,4290.769043,4293.974121,4500.384766,4511.410156,4365.512695,4474.230957,0.000000,1.000000,22.000000,,,,0.000000,2.000000,2.000000,0.000000,4.000000,2.000000,2.000000,0.000000,0.000000,4.000000,4.000000,4.000000,4.000000,4.000000,4.000000,0.000000,,,,,,,,,,,,,,,,,10.000000,0.000000,0.520978,0.477173,-0.550964,0.444214,0.964962,-0.017092,-0.068368,-34.902988,45.509640,31.838501
1732157839.129005,1732157839.132041,41.000000,0.000000,4357.436035,4232.948730,4312.820313,4308.589844,4263.717773,4278.205078,4336.410156,4403.461426,4283.333496,4293.974121,4499.743652,4511.922852,4369.358887,4472.051270,0.000000,1.000000,22.000000,,,,0.000000,2.000000,2.000000,0.000000,4.000000,2.000000,2.000000,0.000000,0.000000,4.000000,4.000000,4.000000,4.000000,4.000000,4.000000,0.000000,,,,,,,,,,,,,,,,,,,,,,,,,,,,
1732157839.136813,1732157839.140049,42.000000,0.000000,4358.461426,4235.384766,4315.256348,4305.384766,4278.974121,4268.077148,4334.871582,4403.205078,4282.948730,4295.384766,4497.948730,4513.461426,4371.025879,4473.077148,0.000000,1.000000,22.000000,,,,0.000000,2.000000,2.000000,0.000000,4.000000,2.000000,2.000000,0.000000,0.000000,4.000000,4.000000,4.000000,4.000000,4.000000,4.000000,0.000000,,,,,,,,,,,,,,,,,,,,,,,,,,,,
1732157839.144621,1732157839.147857,43.000000,0.000000,4356.538574,4233.333496,4313.717773,4308.077148,4281.922852,4263.333496,4334.615234,4400.641113,4280.769043,4294.230957,4494.743652,4515.897461,4366.282227,4473.461426,0.000000,1.000000,22.000000,,,,0.000000,2.000000,2.000000,0.000000,4.000000,2.000000,2.000000,0.000000,0.000000,4.000000,4.000000,4.000000,4.000000,4.000000,4.000000,0.000000,,,,,,,,,,,,,,,,,,,,,,,,,,,,
1732157839.152430,1732157839.155766,44.000000,0.000000,4350.256348,4234.358887,4314.230957,4312.307617,4260.897461,4273.077148,4335.000000,4400.512695,4280.641113,4294.358887,4494.487305,4514.615234,4365.256348,4471.794922,0.000000,1.000000,22.000000,,,,0.000000,2.000000,2.000000,0.000000,4.000000,2.000000,2.000000,0.000000,0.000000,4.000000,4.000000,4.000000,4.000000,4.000000,4.000000,0.000000,,,,,,,,,,,,,,,,,11.000000,0.000000,0.520170,0.478210,-0.551025,0.443970,0.982053,0.020999,-0.073739,-34.746418,45.554474,31.659185
1732157839.160238,1732157839.163574,45.000000,0.000000,4349.358887,4241.922852,4315.384766,4310.769043,4252.820313,4280.384766,4334.871582,4401.153809,4290.256348,4294.358887,4496.666504,4515.641113,4368.077148,4473.205078,0.000000,1.000000,22.000000,,,,0.000000,2.000000,2.000000,0.000000,4.000000,2.000000,2.000000,0.000000,0.000000,4.000000,4.000000,4.000000,4.000000,4.000000,4.000000,0.000000,,,,,,,,,,,,,,,,,,,,,,,,,,,,
1732157839.168046,1732157839.171582,46.000000,0.000000,4353.077148,4247.307617,4314.487305,4312.820313,4265.512695,4279.230957,4335.769043,4402.436035,4292.436035,4295.512695,4496.538574,4518.717773,4367.051270,4474.230957,0.000000,1.000000,22.000000,,,,0.000000,2.000000,2.000000,0.000000,4.000000,2.000000,2.000000,0.000000,0.000000,4.000000,4.000000,4.000000,4.000000,4.000000,4.000000,0.000000,,,,,,,,,,,,,,,,,,,,,,,,,,,,
1732157839.175855,1732157839.179390,47.000000,0.000000,4353.589844,4248.461426,4315.000000,4322.051270,4269.615234,4278.205078,4336.025879,4402.692383,4280.769043,4294.102539,4491.153809,4514.487305,4366.538574,4467.692383,0.000000,1.000000,22.000000,,,,0.000000,2.000000,2.000000,0.000000,4.000000,2.000000,2.000000,0.000000,0.000000,4.000000,4.000000,4.000000,4.000000,4.000000,4.000000,0.000000,,,,,,,,,,,,,,,,,,,,,,,,,,,,
1732157839.183663,1732157839.187298,48.000000,0.000000,4351.410156,4249.743652,4317.179688,4322.948730,4261.410156,4275.384766,4335.000000,4399.743652,4277.051270,4287.051270,4488.974121,4506.794922,4366.794922,4460.512695,0.000000,1.000000,22.000000,,,,0.000000,2.000000,2.000000,0.000000,4.000000,2.000000,2.000000,0.000000,0.000000,4.000000,4.000000,4.000000,4.000000,4.000000,4.000000,0.000000,,,,,,,,,,,,,,,,,12.000000,0.000000,0.519910,0.478577,-0.550903,0.444031,0.966427,0.002442,-0.074228,-34.586266,45.557457,31.430607
1732157839.191471,1732157839.195106,49.000000,0.000000,4350.641113,4249.102539,4315.128418,4314.487305,4268.333496,4265.512695,4334.487305,4398.974121,4282.307617,4286.025879,4490.128418,4506.025879,4364.487305,4460.128418,0.000000,1.000000,22.000000,,,,0.000000,2.000000,2.000000,0.000000,4.000000,2.000000,2.000000,0.000000,0.000000,4.000000,4.000000,4.000000,4.000000,4.000000,4.000000,0.000000,,,,,,,,,,,,,,,,,,,,,,,,,,,,
1732157839.199279,1732157839.203114,50.000000,0.000000,4352.051270,4247.820313,4313.589844,4310.769043,4284.487305,4263.589844,4334.615234,4401.666504,4283.333496,4290.128418,4491.538574,4511.922852,4365.128418,4461.538574,0.000000,1.000000,22.000000,,,,0.000000,2.000000,2.000000,0.000000,4.000000,2.000000,2.000000,0.000000,0.000000,4.000000,4.000000,4.000000,4.000000,4.000000,4.000000,0.000000,,,,,,,,,,,,,,,,,,,,,,,,,,,,
1732157839.207088,1732157839.210923,51.000000,0.000000,4349.487305,4246.153809,4315.897461,4310.512695,4274.615234,4274.102539,4334.871582,4401.538574,4280.512695,4283.333496,4491.666504,4513.589844,4367.307617,4460.128418,0.000000,1.000000,22.000000,,,,0.000000,2.000000,2.000000,0.000000,4.000000,2.000000,2.000000,0.000000,0.000000,4.000000,4.000000,4.000000,4.000000,4.000000,4.000000,0.000000,,,,,,,,,,,,,,,,,,,,,,,,,,,,
1732157839.214896,1732157839.218831,52.000000,0.000000,4342.436035,4244.487305,4315.128418,4308.077148,4251.153809,4276.666504,4334.871582,4398.846191,4280.641113,4278.077148,4490.128418,4512.179688,4366.410156,4459.102539,0.000000,1.000000,22.000000,,,,0.000000,2.000000,2.000000,0.000000,4.000000,2.000000,2.000000,0.000000,0.000000,4.000000,4.000000,4.000000,4.000000,4.000000,4.000000,0.000000,,,,,,,,,,,,,,,,,13.000000,0.000000,0.519879,0.478638,-0.550781,0.444153,0.991820,0.022464,-0.076670,-34.633209,45.831543,31.538792
1732157839.222704,1732157839.226639,53.000000,0.000000,4340.256348,4245.641113,4310.897461,4305.000000,4253.205078,4266.666504,4334.615234,4399.102539,4286.282227,4287.436035,4491.282227,4512.051270,4365.128418,4458.846191,0.000000,1.000000,22.000000,,,,0.000000,2.000000,2.000000,0.000000,4.000000,2.000000,2.000000,0.000000,0.000000,4.000000,4.000000,4.000000,4.000000,4.000000,4.000000,0.000000,,,,,,,,,,,,,,,,,,,,,,,,,,,,
1732157839.230512,1732157839.234247,54.000000,0.000000,4342.820313,4246.922852,4312.820313,4303.205078,4266.282227,4263.461426,4333.717773,4398.846191,4290.256348,4290.769043,4493.461426,4514.102539,4366.153809,4458.205078,0.000000,1.000000,22.000000,,,,0.000000,2.000000,2.000000,0.000000,4.000000,2.000000,2.000000,0.000000,0.000000,4.000000,4.000000,4.000000,4.000000,4.000000,4.000000,0.000000,,,,,,,,,,,,,,,,,,,,,,,,,,,,
1732157839.238320,1732157839.242055,55.000000,0.000000,4339.487305,4246.282227,4316.153809,4304.743652,4264.230957,4269.871582,4335.384766,4397.436035,4291.666504,4287.179688,4491.025879,4512.820313,4367.307617,4457.692383,0.000000,1.000000,22.000000,,,,0.000000,2.000000,2.000000,0.000000,4.000000,2.000000,2.000000,0.000000,0.000000,4.000000,4.000000,4.000000,4.000000,4.000000,4.000000,0.000000,,,,,,,,,,,,,,,,,,,,,,,,,,,,
1732157839.246129,1732157839.249764,56.000000,0.000000,4336.922852,4245.897461,4315.512695,4304.487305,4262.692383,4270.128418,4337.179688,4399.743652,4295.000000,4292.179688,4489.487305,4512.820313,4366.666504,4457.692383,0.000000,1.000000,22.000000,,,,0.000000,2.000000,2.000000,0.000000,4.000000,2.000000,2.000000,0.000000,0.000000,4.000000,4.000000,4.000000,4.000000,4.000000,4.000000,0.000000,,,,,,,,,,,,,,,,,14.000000,0.000000,0.519725,0.478760,-0.550476,0.444580,0.983518,-0.008790,-0.067879,-34.892899,45.926884,31.499754
1732157839.253937,1732157839.257572,57.000000,0.000000,4340.641113,4246.794922,4315.384766,4301.410156,4266.153809,4265.256348,4332.179688,4402.692383,4293.974121,4298.205078,4491.538574,4518.077148,4367.436035,4457.692383,0.000000,1.000000,22.000000,,,,0.000000,2.000000,2.000000,0.000000,4.000000,2.000000,2.000000,0.000000,0.000000,4.000000,4.000000,4.000000,4.000000,4.000000,4.000000,0.000000,,,,,,,,,,,,,,,,,,,,,,,,,,,,
1732157839.261745,1732157839.265180,58.000000,0.000000,4338.461426,4246.922852,4313.205078,4300.641113,4264.487305,4263.333496,4328.717773,4402.051270,4290.000000,4294.230957,4490.769043,4515.512695,4365.641113,4453.717773,0.000000,1.000000,22.000000,,,,0.000000,2.000000,2.000000,0.000000,4.000000,2.000000,2.000000,0.000000,0.000000,4.000000,4.000000,4.000000,4.000000,4.000000,4.000000,0.000000,,,,,,,,,,,,,,,,,,,,,,,,,,,,
1732157839.269554,1732157839.272989,59.000000,0.000000,4333.077148,4246.922852,4311.410156,4304.743652,4265.128418,4265.256348,4333.846191,4399.743652,4289.102539,4284.743652,4486.666504,4508.333496,4360.897461,4448.333496,0.000000,1.000000,22.000000,,,,0.000000,2.000000,2.000000,0.000000,4.000000,2.000000,2.000000,0.000000,0.000000,4.000000,4.000000,4.000000,4.000000,4.000000,4.000000,0.000000,,,,,,,,,,,,,,,,,,,,,,,,,,,,
1732157839.277362,1732157839.280697,60.000000,0.000000,4334.615234,4248.846191,4312.563965,4307.307617,4267.692383,4274.358887,4337.692383,4398.717773,4287.820313,4282.179688,4486.666504,4507.179688,4362.307617,4446.538574,0.000000,1.000000,22.000000,,,,0.000000,2.000000,2.000000,0.000000,4.000000,2.000000,2.000000,0.000000,0.000000,4.000000,4.000000,4.000000,4.000000,4.000000,4.000000,0.000000,,,,,,,,,,,,,,,,,15.000000,0.000000,0.519805,0.478088,-0.550293,0.445435,0.970333,0.006837,-0.059089,-34.839916,45.819107,31.506468
1732157839.285170,1732157839.288505,61.000000,0.000000,4335.384766,4251.153809,4311.794922,4303.846191,4266.794922,4281.153809,4335.128418,4399.487305,4287.563965,4287.307617,4488.846191,4509.487305,4367.051270,4445.512695,0.000000,1.000000,22.000000,,,,0.000000,2.000000,2.000000,0.000000,4.000000,2.000000,2.000000,0.000000,0.000000,4.000000,4.000000,4.000000,4.000000,4.000000,4.000000,0.000000,,,,,,,,,,,,,,,,,,,,,,,,,,,,
1732157839.292978,1732157839.296114,62.000000,0.000000,4327.307617,4248.846191,4309.615234,4300.128418,4267.948730,4278.205078,4334.487305,4400.641113,4291.922852,4290.384766,4488.589844,4507.820313,4366.153809,4444.487305,0.000000,1.000000,22.000000,,,,0.000000,2.000000,2.000000,0.000000,4.000000,2.000000,2.000000,0.000000,0.000000,4.000000,4.000000,4.000000,4.000000,4.000000,4.000000,0.000000,,,,,,,,,,,,,,,,,,,,,,,,,,,,
1732157839.300787,1732157839.303922,63.000000,0.000000,4326.410156,4245.769043,4313.589844,4302.692383,4270.512695,4277.051270,4336.794922,4400.384766,4294.102539,4290.897461,4488.077148,4505.641113,4365.641113,4445.128418,0.000000,1.000000,22.000000,,,,0.000000,2.000000,2.000000,0.000000,4.000000,2.000000,2.000000,0.000000,0.000000,4.000000,4.000000,4.000000,4.000000,4.000000,4.000000,0.000000,,,,,,,,,,,,,,,,,,,,,,,,,,,,
1732157839.308595,1732157839.311630,64.000000,0.000000,4332.820313,4247.948730,4316.282227,4308.333496,4266.153809,4279.615234,4336.153809,4400.000000,4289.230957,4289.871582,4487.948730,4506.538574,4367.436035,4447.051270,0.000000,1.000000,22.000000,,,,0.000000,2.000000,2.000000,0.000000,4.000000,2.000000,2.000000,0.000000,0.000000,4.000000,4.000000,4.000000,4.000000,4.000000,4.000000,0.000000,,,,,,,,,,,,,,,,,16.000000,0.000000,0.520098,0.477722,-0.549988,0.445862,0.968868,0.011232,-0.062508,-35.001999,45.938477,31.448572
1732157839.316403,1732157839.319438,65.000000,0.000000,4329.615234,4247.051270,4312.436035,4301.666504,4270.384766,4272.948730,4335.000000,4400.897461,4283.589844,4284.102539,4488.077148,4511.410156,4365.256348,4447.307617,1601.000000,1.000000,22.000000,,,,0.000000,2.000000,2.000000,0.000000,4.000000,2.000000,2.000000,0.000000,0.000000,4.000000,4.000000,4.000000,4.000000,4.000000,4.000000,0.000000,,,,,,,,,,,,,,,,,,,,,,,,,,,,
1732157839.324211,1732157839.327047,66.000000,0.000000,4323.846191,4244.230957,4310.641113,4293.846191,4283.589844,4262.692383,4334.743652,4401.666504,4289.743652,4284.615234,4488.589844,4515.641113,4364.230957,4445.641113,1361.000000,1.000000,22.000000,,,,0.000000,2.000000,2.000000,0.000000,4.000000,2.000000,2.000000,0.000000,0.000000,4.000000,4.000000,4.000000,4.000000,4.000000,4.000000,0.000000,,,,,,,,,,,,,,,,,,,,,,,,,,,,
1732157839.332019,1732157839.334855,67.000000,0.000000,4326.410156,4248.333496,4311.666504,4300.897461,4275.769043,4265.641113,4334.871582,4402.051270,4301.538574,4296.666504,4490.000000,4514.871582,4364.871582,4445.512695,1427.000000,1.000000,22.000000,,,,0.000000,2.000000,2.000000,0.000000,4.000000,2.000000,2.000000,0.000000,0.000000,4.000000,4.000000,4.000000,4.000000,4.000000,4.000000,0.000000,,,,,,,,,,,,,,,,,,,,,,,,,,,,
1732157839.339828,1732157839.342563,68.000000,0.000000,4329.871582,4251.282227,4310.256348,4306.025879,4259.358887,4274.358887,4334.871582,4400.641113,4299.615234,4298.846191,4491.922852,4514.743652,4361.538574,4446.794922,1429.000000,1.000000,22.000000,,,,0.000000,2.000000,2.000000,0.000000,4.000000,2.000000,2.000000,0.000000,0.000000,4.000000,4.000000,4.000000,4.000000,4.000000,4.000000,0.000000,,,,,,,,,,,,,,,,,17.000000,0.000000,0.520042,0.477722,-0.549744,0.446228,0.967892,0.009278,-0.070809,-34.863285,45.885166,31.560011
1732157839.347636,1732157839.350371,69.000000,0.000000,4326.282227,4247.948730,4313.589844,4300.897461,4260.769043,4278.717773,4334.871582,4399.871582,4293.333496,4288.461426,4488.077148,4515.641113,4356.025879,4444.743652,1205.000000,1.000000,22.000000,,,,0.000000,2.000000,2.000000,0.000000,4.000000,2.000000,2.000000,0.000000,0.000000,4.000000,4.000000,4.000000,4.000000,4.000000,4.000000,0.000000,,,,,,,,,,,,,,,,,,,,,,,,,,,,
1732157839.355444,1732157839.357980,70.000000,0.000000,4325.128418,4246.538574,4317.436035,4299.743652,4273.589844,4277.948730,4334.487305,4400.000000,4296.666504,4286.410156,4484.102539,4512.692383,4356.922852,4441.794922,0.000000,1.000000,22.000000,,,,0.000000,2.000000,2.000000,0.000000,4.000000,2.000000,2.000000,0.000000,0.000000,4.000000,4.000000,4.000000,4.000000,4.000000,4.000000,0.000000,,,,,,,,,,,,,,,,,,,,,,,,,,,,
1732157839.363253,1732157839.365788,71.000000,0.000000,4328.205078,4250.384766,4316.025879,4306.666504,4282.307617,4268.717773,4334.487305,4400.512695,4290.512695,4288.589844,4487.563965,4509.615234,4364.743652,4445.256348,0.000000,1.000000,22.000000,,,,0.000000,2.000000,2.000000,0.000000,4.000000,2.000000,2.000000,0.000000,0.000000,4.000000,4.000000,4.000000,4.000000,4.000000,4.000000,0.000000,,,,,,,,,,,,,,,,,,,,,,,,,,,,
1732157839.371061,1732157839.373496,72.000000,0.000000,4328.461426,4252.563965,4313.589844,4307.051270,4276.153809,4266.025879,4333.717773,4401.282227,4279.358887,4281.794922,4490.384766,4509.871582,4367.051270,4448.974121,1531.000000,1.000000,22.000000,,,,0.000000,2.000000,2.000000,0.000000,4.000000,2.000000,2.000000,0.000000,0.000000,4.000000,4.000000,4.000000,4.000000,4.000000,4.000000,0.000000,,,,,,,,,,,,,,,,,18.000000,0.000000,0.520589,0.477600,-0.549133,0.446472,0.974240,0.034184,-0.049811,-34.917595,45.986984,31.520275
1732157839.378869,1732157839.381305,73.000000,0.000000,4327.436035,4248.589844,4315.256348,4299.230957,4260.897461,4277.179688,4332.948730,4401.282227,4286.666504,4278.461426,4487.179688,4510.256348,4360.256348,4445.897461,1695.000000,1.000000,22.000000,,,,0.000000,2.000000,2.000000,0.000000,4.000000,2.000000,2.000000,0.000000,0.000000,4.000000,4.000000,4.000000,4.000000,4.000000,4.000000,0.000000,,,,,,,,,,,,,,,,,,,,,,,,,,,,
1732157839.386677,1732157839.388913,74.000000,0.000000,4326.153809,4251.538574,4314.743652,4300.128418,4258.974121,4282.820313,4334.871582,4401.025879,4298.461426,4283.205078,4485.769043,4510.000000,4357.307617,4444.743652,1549.000000,1.000000,22.000000,,,,0.000000,2.000000,2.000000,0.000000,4.000000,2.000000,2.000000,0.000000,0.000000,4.000000,4.000000,4.000000,4.000000,4.000000,4.000000,0.000000,,,,,,,,,,,,,,,,,,,,,,,,,,,,
1732157839.394486,1732157839.396721,75.000000,0.000000,4325.000000,4258.589844,4313.974121,4305.512695,4267.692383,4278.846191,4337.051270,4401.666504,4295.897461,4282.948730,4482.307617,4506.666504,4357.563965,4442.820313,1564.000000,1.000000,22.000000,,,,0.000000,2.000000,2.000000,0.000000,4.000000,2.000000,2.000000,0.000000,0.000000,4.000000,4.000000,4.000000,4.000000,4.000000,4.000000,0.000000,,,,,,,,,,,,,,,,,,,,,,,,,,,,
1732157839.402294,1732157839.404629,76.000000,0.000000,4323.846191,4255.641113,4315.641113,4301.538574,4266.410156,4277.436035,4336.282227,4401.922852,4292.692383,4277.436035,4474.615234,4504.615234,4351.538574,4433.461426,1698.000000,1.000000,22.000000,,,,0.000000,2.000000,2.000000,0.000000,4.000000,2.000000,2.000000,0.000000,0.000000,4.000000,4.000000,4.000000,4.000000,4.000000,4.000000,0.000000,,,,,,,,,,,,,,,,,19.000000,0.000000,0.521421,0.477905,-0.547729,0.446899,0.978635,0.029300,-0.059089,-35.011585,45.952789,31.404757
1732157839.410102,1732157839.412437,77.000000,0.000000,4323.205078,4254.358887,4313.974121,4300.769043,4265.512695,4277.820313,4335.384766,4401.410156,4300.128418,4281.922852,4479.615234,4504.871582,4349.871582,4433.461426,1616.000000,1.000000,22.000000,,,,0.000000,2.000000,2.000000,0.000000,4.000000,2.000000,2.000000,0.000000,0.000000,4.000000,4.000000,4.000000,4.000000,4.000000,4.000000,0.000000,,,,,,,,,,,,,,,,,,,,,,,,,,,,
1732157839.417910,1732157839.420046,78.000000,0.000000,4327.563965,4263.333496,4313.077148,4309.230957,4266.538574,4277.563965,4335.512695,4401.922852,4304.871582,4290.256348,4488.205078,4508.205078,4357.307617,4443.589844,1549.000000,1.000000,22.000000,,,,0.000000,2.000000,2.000000,0.000000,4.000000,2.000000,2.000000,0.000000,0.000000,4.000000,4.000000,4.000000,4.000000,4.000000,4.000000,0.000000,1.000000,0.000000,2.000000,1.000000,0.000000,4.000000,2.000000,2.000000,0.000000,0.000000,4.000000,4.000000,4.000000,4.000000,4.000000,4.000000,,,,,,,,,,,,
1732157839.425718,1732157839.427854,79.000000,0.000000,4331.666504,4267.563965,4315.128418,4312.692383,4269.487305,4275.897461,4335.128418,4401.538574,4297.948730,4289.358887,4485.256348,4509.487305,4358.974121,4442.436035,1564.000000,1.000000,22.000000,,,,0.000000,2.000000,2.000000,0.000000,4.000000,2.000000,2.000000,0.000000,0.000000,4.000000,4.000000,4.000000,4.000000,4.000000,4.000000,0.000000,,,,,,,,,,,,,,,,,,,,,,,,,,,,
1732157839.433527,1732157839.435562,80.000000,0.000000,4328.333496,4263.974121,4318.077148,4308.077148,4285.384766,4268.846191,4334.615234,4400.000000,4287.692383,4280.000000,4477.179688,4503.589844,4353.077148,4435.000000,1698.000000,1.000000,22.000000,,,,0.000000,2.000000,2.000000,0.000000,4.000000,2.000000,2.000000,0.000000,0.000000,4.000000,4.000000,4.000000,4.000000,4.000000,4.000000,0.000000,,,,,,,,,,,,,,,,,20.000000,0.000000,0.521589,0.478027,-0.547363,0.447021,0.978635,0.029300,-0.059089,-35.139385,45.768429,31.346186
1732157839.441335,1732157839.443371,81.000000,0.000000,4324.743652,4265.128418,4317.563965,4309.102539,4290.769043,4271.538574,4334.615234,4400.128418,4288.717773,4276.922852,4475.512695,4501.666504,4348.974121,4433.974121,1616.000000,1.000000,22.000000,,,,0.000000,2.000000,2.000000,0.000000,4.000000,2.000000,2.000000,0.000000,0.000000,4.000000,4.000000,4.000000,4.000000,4.000000,4.000000,0.000000,,,,,,,,,,,,,,,,,,,,,,,,,,,,
1732157839.449143,1732157839.451379,82.000000,0.000000,4326.153809,4267.563965,4315.769043,4310.256348,4273.846191,4282.307617,4335.000000,4401.153809,4296.153809,4284.487305,4482.179688,4507.436035,4350.641113,4435.641113,1549.000000,1.000000,22.000000,,,,0.000000,2.000000,2.000000,0.000000,4.000000,2.000000,2.000000,0.000000,0.000000,4.000000,4.000000,4.000000,4.000000,4.000000,4.000000,0.000000,,,,,,,,,,,,,,,,,,,,,,,,,,,,
1732157839.456952,1732157839.459187,83.000000,0.000000,4325.769043,4265.512695,4315.641113,4307.948730,4259.102539,4283.846191,4336.025879,4402.051270,4297.179688,4293.461426,4489.102539,4510.641113,4356.794922,4440.384766,1564.000000,1.000000,22.000000,,,,0.000000,2.000000,2.000000,0.000000,4.000000,2.000000,2.000000,0.000000,0.000000,4.000000,4.000000,4.000000,4.000000,4.000000,4.000000,0.000000,,,,,,,,,,,,,,,,,,,,,,,,,,,,
1732157839.464760,1732157839.467095,84.000000,0.000000,4325.769043,4264.487305,4315.128418,4309.743652,4265.641113,4279.487305,4335.641113,4401.922852,4296.538574,4295.769043,4492.179688,4508.717773,4358.333496,4446.538574,1698.000000,1.000000,22.000000,,,,0.000000,2.000000,2.000000,0.000000,4.000000,2.000000,2.000000,0.000000,0.000000,4.000000,4.000000,4.000000,4.000000,4.000000,4.000000,0.000000,,,,,,,,,,,,,,,,,21.000000,0.000000,0.521800,0.478210,-0.546753,0.447327,0.976193,0.018069,-0.059089,-35.109566,45.574093,31.528744
1732157839.472568,1732157839.474903,85.000000,0.000000,4330.128418,4265.512695,4314.102539,4309.230957,4280.512695,4276.666504,4334.615234,4400.256348,4296.538574,4288.077148,4487.563965,4509.487305,4353.077148,4441.538574,1616.000000,1.000000,22.000000,,,,0.000000,2.000000,2.000000,0.000000,4.000000,2.000000,2.000000,0.000000,0.000000,4.000000,4.000000,4.000000,4.000000,4.000000,4.000000,0.000000,,,,,,,,,,,,,,,,,,,,,,,,,,,,
1732157839.480376,1732157839.482911,86.000000,0.000000,4328.717773,4264.487305,4314.743652,4303.589844,4277.692383,4278.077148,4334.743652,4401.282227,4292.820313,4279.358887,4478.333496,4509.871582,4348.589844,4433.846191,1549.000000,1.000000,22.000000,,,,0.000000,2.000000,2.000000,0.000000,4.000000,2.000000,2.000000,0.000000,0.000000,4.000000,4.000000,4.000000,4.000000,4.000000,4.000000,0.000000,,,,,,,,,,,,,,,,,,,,,,,,,,,,
1732157839.488184,1732157839.490719,87.000000,0.000000,4324.871582,4260.769043,4314.615234,4303.077148,4263.333496,4281.922852,4335.256348,4402.436035,4295.512695,4286.666504,4478.333496,4500.000000,4349.743652,4435.769043,1564.000000,1.000000,22.000000,,,,0.000000,2.000000,2.000000,0.000000,4.000000,2.000000,2.000000,0.000000,0.000000,4.000000,4.000000,4.000000,4.000000,4.000000,4.000000,0.000000,,,,,,,,,,,,,,,,,,,,,,,,,,,,
1732157839.495993,1732157839.498627,88.000000,0.000000,4323.205078,4262.820313,4315.641113,4306.282227,4262.820313,4283.333496,4336.282227,4400.897461,4303.461426,4297.179688,4485.256348,4495.641113,4352.179688,4436.153809,1698.000000,1.000000,22.000000,,,,0.000000,2.000000,2.000000,0.000000,4.000000,2.000000,2.000000,0.000000,0.000000,4.000000,4.000000,4.000000,4.000000,4.000000,4.000000,0.000000,,,,,,,,,,,,,,,,,22.000000,0.000000,0.522031,0.478210,-0.546082,0.447876,0.990844,0.019045,-0.050299,-35.085415,45.533348,31.709949
1732157839.503801,1732157839.506436,89.000000,0.000000,4318.846191,4265.897461,4318.333496,4302.948730,4274.743652,4280.384766,4336.666504,4399.743652,4298.717773,4289.102539,4479.487305,4502.051270,4347.563965,4431.666504,1616.000000,1.000000,22.000000,,,,0.000000,2.000000,2.000000,0.000000,4.000000,2.000000,2.000000,0.000000,0.000000,4.000000,4.000000,4.000000,4.000000,4.000000,4.000000,0.000000,,,,,,,,,,,,,,,,,,,,,,,,,,,,
1732157839.511609,1732157839.514444,90.000000,0.000000,4312.563965,4262.436035,4316.794922,4295.769043,4278.461426,4280.256348,4335.512695,4400.512695,4295.384766,4277.051270,4467.692383,4500.641113,4341.025879,4429.871582,1549.000000,1.000000,22.000000,,,,0.000000,2.000000,2.000000,0.000000,4.000000,2.000000,2.000000,0.000000,0.000000,4.000000,4.000000,4.000000,4.000000,4.000000,4.000000,0.000000,,,,,,,,,,,,,,,,,,,,,,,,,,,,
1732157839.519417,1732157839.522252,91.000000,0.000000,4309.615234,4260.384766,4314.743652,4299.230957,4277.051270,4284.871582,4334.102539,4401.538574,4303.461426,4281.794922,4470.384766,4490.000000,4343.589844,4428.461426,1564.000000,1.000000,22.000000,,,,0.000000,2.000000,2.000000,0.000000,4.000000,2.000000,2.000000,0.000000,0.000000,4.000000,4.000000,4.000000,4.000000,4.000000,4.000000,0.000000,,,,,,,,,,,,,,,,,,,,,,,,,,,,
1732157839.527226,1732157839.530160,92.000000,0.000000,4315.897461,4263.333496,4317.307617,4307.051270,4274.743652,4287.948730,4335.000000,4401.282227,4303.846191,4288.974121,4477.436035,4495.000000,4351.153809,4428.717773,1698.000000,1.000000,22.000000,,,,0.000000,2.000000,2.000000,0.000000,4.000000,2.000000,2.000000,0.000000,0.000000,4.000000,4.000000,4.000000,4.000000,4.000000,4.000000,0.000000,,,,,,,,,,,,,,,,,23.000000,0.000000,0.521522,0.478149,-0.546021,0.448608,0.969845,0.018069,-0.043462,-34.955853,45.590347,31.796726
1732157839.535034,1732157839.537968,93.000000,0.000000,4321.794922,4265.769043,4316.794922,4304.743652,4283.461426,4282.563965,4336.666504,4401.410156,4295.384766,4285.000000,4476.538574,4503.333496,4348.846191,4430.641113,1616.000000,1.000000,22.000000,,,,0.000000,2.000000,2.000000,0.000000,4.000000,2.000000,2.000000,0.000000,0.000000,4.000000,4.000000,4.000000,4.000000,4.000000,4.000000,0.000000,,,,,,,,,,,,,,,,,,,,,,,,,,,,
1732157839.542842,1732157839.545976,94.000000,0.000000,4315.769043,4264.743652,4314.358887,4299.102539,4297.820313,4276.666504,4335.512695,4400.897461,4294.102539,4278.205078,4472.692383,4496.410156,4338.974121,4423.974121,1549.000000,1.000000,22.000000,,,,0.000000,2.000000,2.000000,0.000000,4.000000,2.000000,2.000000,0.000000,0.000000,4.000000,4.000000,4.000000,4.000000,4.000000,4.000000,0.000000,,,,,,,,,,,,,,,,,,,,,,,,,,,,
1732157839.550650,1732157839.553784,95.000000,0.000000,4307.563965,4263.461426,4317.051270,4299.230957,4280.769043,4280.384766,4335.384766,4401.153809,4300.641113,4281.922852,4471.666504,4494.230957,4337.563965,4417.563965,1564.000000,1.000000,22.000000,,,,0.000000,2.000000,2.000000,0.000000,4.000000,2.000000,2.000000,0.000000,0.000000,4.000000,4.000000,4.000000,4.000000,4.000000,4.000000,0.000000,,,,,,,,,,,,,,,,,,,,,,,,,,,,
1732157839.558459,1732157839.561693,96.000000,0.000000,4308.077148,4262.820313,4317.307617,4301.922852,4258.717773,4284.102539,4338.589844,4401.666504,4307.692383,4290.256348,4473.461426,4502.179688,4341.282227,4424.615234,1698.000000,1.000000,22.000000,,,,0.000000,2.000000,2.000000,0.000000,4.000000,2.000000,2.000000,0.000000,0.000000,4.000000,4.000000,4.000000,4.000000,4.000000,4.000000,0.000000,,,,,,,,,,,,,,,,,24.000000,0.000000,0.521368,0.478088,-0.546021,0.448853,0.967892,0.028324,-0.042974,-34.647575,45.731514,31.708681
1732157839.566267,1732157839.569501,97.000000,0.000000,4311.025879,4263.717773,4314.358887,4301.282227,4268.589844,4281.410156,4338.846191,4401.538574,4310.256348,4292.563965,4474.102539,4504.358887,4342.307617,4429.487305,1616.000000,1.000000,22.000000,,,,0.000000,2.000000,2.000000,0.000000,4.000000,2.000000,2.000000,0.000000,0.000000,4.000000,4.000000,4.000000,4.000000,4.000000,4.000000,0.000000,,,,,,,,,,,,,,,,,,,,,,,,,,,,
1732157839.574075,1732157839.577209,98.000000,0.000000,4311.410156,4269.358887,4314.487305,4304.743652,4276.538574,4280.000000,4335.256348,4401.410156,4305.128418,4291.794922,4474.743652,4500.384766,4346.282227,4428.589844,1549.000000,1.000000,22.000000,,,,0.000000,2.000000,2.000000,0.000000,4.000000,2.000000,2.000000,0.000000,0.000000,4.000000,4.000000,4.000000,4.000000,4.000000,4.000000,0.000000,,,,,,,,,,,,,,,,,,,,,,,,,,,,
1732157839.581883,1732157839.585017,99.000000,0.000000,4312.051270,4272.563965,4314.871582,4309.230957,4278.077148,4279.871582,4334.358887,4398.717773,4297.051270,4286.794922,4472.948730,4494.871582,4349.358887,4428.205078,1564.000000,1.000000,22.000000,,,,0.000000,2.000000,2.000000,0.000000,4.000000,2.000000,2.000000,0.000000,0.000000,4.000000,4.000000,4.000000,4.000000,4.000000,4.000000,0.000000,,,,,,,,,,,,,,,,,,,,,,,,,,,,
1732157839.589692,1732157839.592726,100.000000,0.000000,4309.358887,4267.051270,4312.692383,4305.000000,4293.846191,4280.000000,4336.666504,4396.922852,4294.743652,4277.820313,4468.974121,4491.922852,4342.179688,4424.358887,1698.000000,1.000000,22.000000,,,,0.000000,2.000000,2.000000,0.000000,4.000000,2.000000,2.000000,0.000000,0.000000,4.000000,4.000000,4.000000,4.000000,4.000000,4.000000,0.000000,,,,,,,,,,,,,,,,,25.000000,0.000000,0.520997,0.478271,-0.545410,0.449829,0.977170,0.016604,-0.042974,-34.909534,45.712524,31.762365
1732157839.597500,1732157839.600534,101.000000,0.000000,4308.205078,4262.179688,4313.333496,4302.948730,4285.641113,4282.307617,4336.025879,4399.358887,4301.153809,4283.205078,4471.410156,4499.615234,4338.333496,4422.948730,1616.000000,1.000000,22.000000,,,,0.000000,2.000000,2.000000,0.000000,4.000000,2.000000,2.000000,0.000000,0.000000,4.000000,4.000000,4.000000,4.000000,4.000000,4.000000,0.000000,,,,,,,,,,,,,,,,,,,,,,,,,,,,
1732157839.605308,1732157839.608142,102.000000,0.000000,4311.410156,4267.563965,4315.000000,4307.179688,4261.666504,4283.974121,4335.000000,4401.025879,4304.102539,4294.743652,4477.179688,4504.615234,4348.717773,4427.820313,1549.000000,1.000000,22.000000,,,,0.000000,2.000000,2.000000,0.000000,4.000000,2.000000,2.000000,0.000000,0.000000,4.000000,4.000000,4.000000,4.000000,4.000000,4.000000,0.000000,,,,,,,,,,,,,,,,,,,,,,,,,,,,
1732157839.613116,1732157839.615950,103.000000,0.000000,4311.538574,4272.307617,4314.102539,4310.000000,4268.974121,4283.461426,4336.410156,4399.102539,4297.051270,4291.025879,4476.153809,4498.333496,4352.051270,4427.820313,1564.000000,1.000000,22.000000,,,,0.000000,2.000000,2.000000,0.000000,4.000000,2.000000,2.000000,0.000000,0.000000,4.000000,4.000000,4.000000,4.000000,4.000000,4.000000,0.000000,,,,,,,,,,,,,,,,,,,,,,,,,,,,
1732157839.620925,1732157839.623659,104.000000,0.000000,4308.717773,4268.205078,4315.128418,4306.794922,4281.282227,4282.307617,4337.179688,4399.230957,4295.000000,4284.102539,4473.717773,4495.128418,4343.205078,4424.102539,1698.000000,1.000000,22.000000,,,,0.000000,2.000000,2.000000,0.000000,4.000000,2.000000,2.000000,0.000000,0.000000,4.000000,4.000000,4.000000,4.000000,4.000000,4.000000,0.000000,,,,,,,,,,,,,,,,,26.000000,0.000000,0.520604,0.478394,-0.544922,0.450745,0.981077,-0.001953,-0.041021,-35.045055,45.610477,31.709183
1732157839.628733,1732157839.631467,105.000000,0.000000,4306.922852,4265.000000,4318.461426,4301.025879,4277.307617,4281.025879,4336.153809,4400.769043,4299.615234,4287.051270,4475.384766,4500.769043,4344.487305,4425.769043,1616.000000,1.000000,22.000000,,,,0.000000,2.000000,2.000000,0.000000,4.000000,2.000000,2.000000,0.000000,0.000000,4.000000,4.000000,4.000000,4.000000,4.000000,4.000000,0.000000,,,,,,,,,,,,,,,,,,,,,,,,,,,,
1732157839.636541,1732157839.639075,106.000000,0.000000,4306.794922,4265.512695,4317.179688,4295.512695,4276.410156,4279.487305,4335.512695,4399.615234,4298.205078,4289.615234,4477.051270,4501.153809,4351.794922,4427.307617,1549.000000,1.000000,22.000000,,,,0.000000,2.000000,2.000000,0.000000,4.000000,2.000000,2.000000,0.000000,0.000000,4.000000,4.000000,4.000000,4.000000,4.000000,4.000000,0.000000,,,,,,,,,,,,,,,,,,,,,,,,,,,,
1732157839.644349,1732157839.646884,107.000000,0.000000,4307.179688,4266.153809,4315.512695,4292.820313,4271.794922,4278.077148,4335.384766,4398.974121,4295.384766,4287.563965,4477.179688,4496.282227,4351.282227,4428.333496,1564.000000,1.000000,22.000000,,,,0.000000,2.000000,2.000000,0.000000,4.000000,2.000000,2.000000,0.000000,0.000000,4.000000,4.000000,4.000000,4.000000,4.000000,4.000000,0.000000,,,,,,,,,,,,,,,,,,,,,,,,,,,,
1732157839.652158,1732157839.654592,108.000000,0.000000,4308.205078,4265.641113,4318.333496,4294.230957,4264.871582,4278.717773,4335.641113,4399.615234,4298.589844,4284.615234,4476.922852,4498.589844,4348.333496,4427.307617,1698.000000,1.000000,22.000000,,,,0.000000,2.000000,2.000000,0.000000,4.000000,2.000000,2.000000,0.000000,0.000000,4.000000,4.000000,4.000000,4.000000,4.000000,4.000000,0.000000,,,,,,,,,,,,,,,,,27.000000,0.000000,0.520477,0.478210,-0.544800,0.451233,0.987914,-0.002930,-0.036626,-34.943165,45.647823,31.671104
1732157839.659966,1732157839.662400,109.000000,0.000000,4307.820313,4264.743652,4318.589844,4297.692383,4285.512695,4278.589844,4336.794922,4400.128418,4299.230957,4281.282227,4475.641113,4503.077148,4346.538574,4422.307617,1616.000000,1.000000,22.000000,,,,0.000000,2.000000,2.000000,0.000000,4.000000,2.000000,2.000000,0.000000,0.000000,4.000000,4.000000,4.000000,4.000000,4.000000,4.000000,0.000000,,,,,,,,,,,,,,,,,,,,,,,,,,,,
1732157839.667774,1732157839.670008,110.000000,0.000000,4306.922852,4265.384766,4314.230957,4302.820313,4298.205078,4281.538574,4336.025879,4401.410156,4295.128418,4278.717773,4473.333496,4498.461426,4342.436035,4422.563965,1549.000000,1.000000,22.000000,,,,0.000000,2.000000,2.000000,0.000000,4.000000,2.000000,2.000000,0.000000,0.000000,4.000000,4.000000,4.000000,4.000000,4.000000,4.000000,0.000000,,,,,,,,,,,,,,,,,,,,,,,,,,,,
1732157839.675582,1732157839.677817,111.000000,0.000000,4309.102539,4269.230957,4312.692383,4309.230957,4269.358887,4286.538574,4336.538574,4401.666504,4294.487305,4278.846191,4472.436035,4495.384766,4341.794922,4424.871582,1564.000000,1.000000,22.000000,,,,0.000000,2.000000,2.000000,0.000000,4.000000,2.000000,2.000000,0.000000,0.000000,4.000000,4.000000,4.000000,4.000000,4.000000,4.000000,0.000000,,,,,,,,,,,,,,,,,,,,,,,,,,,,
1732157839.683391,1732157839.685525,112.000000,0.000000,4309.487305,4271.282227,4315.256348,4313.974121,4261.666504,4284.230957,4337.948730,4401.538574,4297.051270,4280.384766,4472.948730,4504.871582,4344.743652,4421.538574,1698.000000,1.000000,22.000000,,,,0.000000,2.000000,2.000000,0.000000,4.000000,2.000000,2.000000,0.000000,0.000000,4.000000,4.000000,4.000000,4.000000,4.000000,4.000000,0.000000,,,,,,,,,,,,,,,,,28.000000,0.000000,0.520195,0.477722,-0.544739,0.452148,0.979612,-0.003418,-0.048834,-35.175629,45.746403,31.828594
1732157839.691199,1732157839.693333,113.000000,0.000000,4303.717773,4266.282227,4315.000000,4310.256348,4289.871582,4278.461426,4334.487305,4400.641113,4296.410156,4280.769043,4467.051270,4505.769043,4342.692383,4416.794922,1616.000000,1.000000,22.000000,,,,0.000000,2.000000,2.000000,0.000000,4.000000,2.000000,2.000000,0.000000,0.000000,4.000000,4.000000,4.000000,4.000000,4.000000,4.000000,0.000000,,,,,,,,,,,,,,,,,,,,,,,,,,,,
1732157839.699007,1732157839.700942,114.000000,0.000000,4301.282227,4264.358887,4315.256348,4302.563965,4286.025879,4280.897461,4332.051270,4398.077148,4294.230957,4279.615234,4463.461426,4496.666504,4340.641113,4420.641113,1549.000000,1.000000,22.000000,,,,0.000000,2.000000,2.000000,0.000000,4.000000,2.000000,2.000000,0.000000,0.000000,4.000000,4.000000,4.000000,4.000000,4.000000,4.000000,0.000000,,,,,,,,,,,,,,,,,,,,,,,,,,,,
1732157839.706815,1732157839.708750,115.000000,0.000000,4304.743652,4268.974121,4316.153809,4302.179688,4261.666504,4283.461426,4334.871582,4397.179688,4295.000000,4284.743652,4469.871582,4497.179688,4341.794922,4425.641113,1564.000000,1.000000,22.000000,,,,0.000000,2.000000,2.000000,0.000000,4.000000,2.000000,2.000000,0.000000,0.000000,4.000000,4.000000,4.000000,4.000000,4.000000,4.000000,0.000000,,,,,,,,,,,,,,,,,,,,,,,,,,,,
1732157839.714624,1732157839.716658,116.000000,0.000000,4304.615234,4270.512695,4315.897461,4302.179688,4263.077148,4281.922852,4336.666504,4399.230957,4302.948730,4295.641113,4475.769043,4505.897461,4342.051270,4423.461426,1698.000000,1.000000,22.000000,,,,0.000000,2.000000,2.000000,0.000000,4.000000,2.000000,2.000000,0.000000,0.000000,4.000000,4.000000,4.000000,4.000000,4.000000,4.000000,0.000000,,,,,,,,,,,,,,,,,29.000000,0.000000,0.519872,0.476685,-0.544739,0.453613,0.975705,-0.011232,-0.036137,-35.103928,45.696251,31.787828
1732157839.722432,1732157839.724466,117.000000,0.000000,4303.205078,4269.102539,4313.205078,4298.333496,4274.615234,4286.153809,4335.641113,4400.256348,4308.846191,4298.717773,4475.000000,4505.384766,4346.282227,4417.820313,1616.000000,1.000000,22.000000,,,,0.000000,2.000000,2.000000,0.000000,4.000000,2.000000,2.000000,0.000000,0.000000,4.000000,4.000000,4.000000,4.000000,4.000000,4.000000,0.000000,,,,,,,,,,,,,,,,,,,,,,,,,,,,
1732157839.730240,1732157839.732075,118.000000,0.000000,4301.922852,4268.717773,4311.410156,4297.051270,4288.077148,4287.692383,4336.025879,4399.487305,4301.153809,4288.205078,4472.948730,4496.025879,4348.974121,4413.974121,1549.000000,1.000000,22.000000,,,,0.000000,2.000000,2.000000,0.000000,4.000000,2.000000,2.000000,0.000000,0.000000,4.000000,4.000000,4.000000,4.000000,4.000000,4.000000,0.000000,,,,,,,,,,,,,,,,,,,,,,,,,,,,
1732157839.738048,1732157839.739883,119.000000,0.000000,4300.000000,4267.820313,4312.179688,4300.256348,4293.589844,4284.743652,4336.410156,4399.230957,4293.846191,4281.410156,4472.436035,4492.820313,4342.948730,4419.743652,1564.000000,1.000000,22.000000,,,,0.000000,2.000000,2.000000,0.000000,4.000000,2.000000,2.000000,0.000000,0.000000,4.000000,4.000000,4.000000,4.000000,4.000000,4.000000,0.000000,,,,,,,,,,,,,,,,,,,,,,,,,,,,
1732157839.745857,1732157839.747791,120.000000,0.000000,4303.846191,4265.256348,4313.717773,4302.563965,4270.641113,4285.384766,4335.384766,4399.230957,4295.641113,4284.230957,4472.820313,4500.641113,4339.615234,4427.820313,1698.000000,1.000000,22.000000,,,,0.000000,2.000000,2.000000,0.000000,4.000000,2.000000,2.000000,0.000000,0.000000,4.000000,4.000000,4.000000,4.000000,4.000000,4.000000,0.000000,,,,,,,,,,,,,,,,,30.000000,0.000000,0.520113,0.475769,-0.545105,0.453857,0.979123,-0.015627,-0.047857,-34.959179,45.747299,31.643141
1732157839.753665,1732157839.755599,121.000000,0.000000,4311.282227,4267.436035,4315.384766,4303.846191,4257.820313,4285.384766,4335.000000,4400.128418,4296.794922,4286.666504,4476.025879,4509.871582,4347.820313,4430.769043,1616.000000,1.000000,22.000000,,,,0.000000,2.000000,2.000000,0.000000,4.000000,2.000000,2.000000,0.000000,0.000000,4.000000,4.000000,4.000000,4.000000,4.000000,4.000000,0.000000,,,,,,,,,,,,,,,,,,,,,,,,,,,,
1732157839.761473,1732157839.763207,122.000000,0.000000,4312.563965,4274.487305,4315.384766,4305.128418,4275.256348,4282.436035,4335.128418,4400.512695,4296.410156,4286.025879,4477.051270,4503.205078,4350.641113,4429.615234,1549.000000,1.000000,22.000000,,,,0.000000,2.000000,2.000000,0.000000,4.000000,2.000000,2.000000,0.000000,0.000000,4.000000,4.000000,4.000000,4.000000,4.000000,4.000000,0.000000,,,,,,,,,,,,,,,,,,,,,,,,,,,,
1732157839.769281,1732157839.771016,123.000000,0.000000,4310.256348,4277.051270,4316.025879,4306.025879,4284.487305,4280.512695,4334.871582,4399.358887,4297.563965,4284.487305,4473.205078,4489.743652,4343.333496,4427.179688,1564.000000,1.000000,22.000000,,,,0.000000,2.000000,2.000000,0.000000,4.000000,2.000000,2.000000,0.000000,0.000000,4.000000,4.000000,4.000000,4.000000,4.000000,4.000000,0.000000,,,,,,,,,,,,,,,,,,,,,,,,,,,,
1732157839.777089,1732157839.778724,124.000000,0.000000,4310.000000,4276.153809,4316.922852,4309.871582,4279.743652,4280.256348,4333.461426,4400.769043,4294.871582,4280.000000,4471.153809,4491.410156,4341.666504,4426.922852,1698.000000,1.000000,22.000000,,,,0.000000,2.000000,2.000000,0.000000,4.000000,2.000000,2.000000,0.000000,0.000000,4.000000,4.000000,4.000000,4.000000,4.000000,4.000000,0.000000,,,,,,,,,,,,,,,,,31.000000,0.000000,0.519900,0.475769,-0.545105,0.454102,0.980100,-0.007325,-0.049811,-35.125271,45.890312,31.394278
1732157839.784898,1732157839.786532,125.000000,0.000000,4312.563965,4279.230957,4316.025879,4312.820313,4277.436035,4283.589844,4334.102539,4402.179688,4299.102539,4280.512695,4473.589844,4503.846191,4344.102539,4428.205078,1616.000000,1.000000,22.000000,,,,0.000000,2.000000,2.000000,0.000000,4.000000,2.000000,2.000000,0.000000,0.000000,4.000000,4.000000,4.000000,4.000000,4.000000,4.000000,0.000000,,,,,,,,,,,,,,,,,,,,,,,,,,,,
1732157839.792706,1732157839.794540,126.000000,0.000000,4310.641113,4280.512695,4313.333496,4308.205078,4288.333496,4286.794922,4336.025879,4401.025879,4308.461426,4286.282227,4474.615234,4503.205078,4343.333496,4422.692383,1549.000000,1.000000,22.000000,,,,0.000000,2.000000,2.000000,0.000000,4.000000,2.000000,2.000000,0.000000,0.000000,4.000000,4.000000,4.000000,4.000000,4.000000,4.000000,0.000000,,,,,,,,,,,,,,,,,,,,,,,,,,,,
1732157839.800514,1732157839.802348,127.000000,0.000000,4300.256348,4272.692383,4313.077148,4300.256348,4301.282227,4282.820313,4335.512695,4400.641113,4304.230957,4283.461426,4470.897461,4493.589844,4341.666504,4414.102539,22.000000,1.000000,22.000000,,,,0.000000,2.000000,2.000000,0.000000,4.000000,2.000000,2.000000,0.000000,0.000000,4.000000,4.000000,4.000000,4.000000,4.000000,4.000000,0.000000,,,,,,,,,,,,,,,,,,,,,,,,,,,,
1732157839.808323,1732157839.810257,0.000000,0.000000,4296.666504,4270.897461,4313.205078,4300.641113,4285.769043,4280.256348,4334.487305,4401.153809,4295.512695,4281.410156,4470.000000,4492.820313,4340.769043,4416.025879,0.000000,1.000000,22.000000,,,,0.000000,2.000000,2.000000,0.000000,4.000000,2.000000,2.000000,0.000000,0.000000,4.000000,4.000000,4.000000,4.000000,4.000000,4.000000,0.000000,,,,,,,,,,,,,,,,,0.000000,0.000000,0.519641,0.475586,-0.545105,0.454590,0.985960,-0.012697,-0.042974,-35.099800,45.957817,31.374365
1732157839.816131,1732157839.818065,1.000000,0.000000,4302.436035,4278.974121,4313.077148,4305.000000,4263.589844,4281.922852,4334.743652,4400.128418,4295.128418,4289.871582,4473.077148,4499.487305,4343.333496,4420.384766,1599.000000,1.000000,22.000000,,,,0.000000,2.000000,2.000000,0.000000,4.000000,2.000000,2.000000,0.000000,0.000000,4.000000,4.000000,4.000000,4.000000,4.000000,4.000000,0.000000,,,,,,,,,,,,,,,,,,,,,,,,,,,,
1732157839.823939,1732157839.826073,2.000000,0.000000,4305.384766,4280.128418,4313.077148,4304.743652,4266.410156,4281.025879,4335.000000,4399.743652,4299.871582,4296.794922,4476.794922,4500.384766,4350.384766,4417.692383,1361.000000,1.000000,22.000000,,,,0.000000,2.000000,2.000000,0.000000,4.000000,2.000000,2.000000,0.000000,0.000000,4.000000,4.000000,4.000000,4.000000,4.000000,4.000000,0.000000,,,,,,,,,,,,,,,,,,,,,,,,,,,,
1732157839.831747,1732157839.833881,3.000000,0.000000,4302.948730,4274.871582,4314.487305,4301.538574,4282.307617,4281.282227,4335.000000,4401.153809,4301.410156,4296.153809,4478.205078,4493.846191,4350.128418,4415.256348,1422.000000,1.000000,22.000000,,,,0.000000,2.000000,2.000000,0.000000,4.000000,2.000000,2.000000,0.000000,0.000000,4.000000,4.000000,4.000000,4.000000,4.000000,4.000000,0.000000,,,,,,,,,,,,,,,,,,,,,,,,,,,,
1732157839.839556,1732157839.841789,4.000000,0.000000,4299.358887,4275.512695,4314.102539,4297.820313,4292.179688,4282.307617,4335.769043,4401.025879,4300.512695,4292.692383,4475.512695,4489.615234,4343.461426,4414.487305,1427.000000,1.000000,22.000000,,,,0.000000,2.000000,2.000000,0.000000,4.000000,2.000000,2.000000,0.000000,0.000000,4.000000,4.000000,4.000000,4.000000,4.000000,4.000000,0.000000,,,,,,,,,,,,,,,,,1.000000,0.000000,0.519555,0.475342,-0.545349,0.454651,0.973263,-0.009278,-0.041997,-35.099171,45.780834,31.376568
1732157839.847364,1732157839.849597,5.000000,0.000000,4296.538574,4278.461426,4313.077148,4298.461426,4286.794922,4281.794922,4336.410156,4399.871582,4301.666504,4291.153809,4472.948730,4489.487305,4342.563965,4412.436035,1210.000000,1.000000,22.000000,,,,0.000000,2.000000,2.000000,0.000000,4.000000,2.000000,2.000000,0.000000,0.000000,4.000000,4.000000,4.000000,4.000000,4.000000,4.000000,0.000000,,,,,,,,,,,,,,,,,,,,,,,,,,,,
1732157839.855172,1732157839.857605,6.000000,0.000000,4297.948730,4278.077148,4311.410156,4304.102539,4272.948730,4283.717773,4335.256348,4400.384766,4302.051270,4291.922852,4473.717773,4489.871582,4342.948730,4412.563965,0.000000,1.000000,22.000000,,,,0.000000,2.000000,2.000000,0.000000,4.000000,2.000000,2.000000,0.000000,0.000000,4.000000,4.000000,4.000000,4.000000,4.000000,4.000000,0.000000,,,,,,,,,,,,,,,,,,,,,,,,,,,,
1732157839.862980,1732157839.865413,7.000000,0.000000,4299.230957,4278.077148,4310.641113,4306.410156,4271.025879,4285.512695,4334.487305,4401.153809,4301.666504,4292.692383,4475.769043,4491.666504,4341.153809,4415.000000,0.000000,1.000000,22.000000,,,,0.000000,2.000000,2.000000,0.000000,4.000000,2.000000,2.000000,0.000000,0.000000,4.000000,4.000000,4.000000,4.000000,4.000000,4.000000,0.000000,,,,,,,,,,,,,,,,,,,,,,,,,,,,
1732157839.870788,1732157839.873322,8.000000,0.000000,4296.666504,4278.717773,4312.051270,4305.769043,4288.589844,4283.974121,4335.128418,4400.512695,4298.077148,4291.666504,4475.641113,4493.205078,4341.538574,4414.871582,1531.000000,1.000000,22.000000,,,,0.000000,2.000000,2.000000,0.000000,4.000000,2.000000,2.000000,0.000000,0.000000,4.000000,4.000000,4.000000,4.000000,4.000000,4.000000,0.000000,,,,,,,,,,,,,,,,,2.000000,0.000000,0.519384,0.475342,-0.545410,0.454773,0.973263,-0.009278,-0.041997,-34.985329,45.695808,31.431686
1732157839.878597,1732157839.881130,9.000000,0.000000,4300.128418,4279.102539,4312.436035,4304.743652,4298.589844,4280.769043,4335.384766,4400.641113,4295.512695,4292.436035,4474.358887,4490.641113,4342.692383,4412.692383,1688.000000,1.000000,22.000000,,,,0.000000,2.000000,2.000000,0.000000,4.000000,2.000000,2.000000,0.000000,0.000000,4.000000,4.000000,4.000000,4.000000,4.000000,4.000000,0.000000,,,,,,,,,,,,,,,,,,,,,,,,,,,,
1732157839.886405,1732157839.889138,10.000000,0.000000,4304.743652,4279.230957,4314.487305,4304.358887,4286.025879,4281.410156,4333.717773,4400.897461,4304.487305,4294.871582,4473.974121,4492.820313,4341.794922,4416.410156,1546.000000,1.000000,22.000000,,,,0.000000,2.000000,2.000000,0.000000,4.000000,2.000000,2.000000,0.000000,0.000000,4.000000,4.000000,4.000000,4.000000,4.000000,4.000000,0.000000,,,,,,,,,,,,,,,,,,,,,,,,,,,,
1732157839.894213,1732157839.896946,11.000000,0.000000,4304.743652,4280.000000,4317.436035,4305.256348,4270.769043,4285.000000,4333.461426,4400.769043,4315.512695,4294.743652,4475.128418,4501.666504,4342.820313,4423.846191,1564.000000,1.000000,22.000000,,,,0.000000,2.000000,2.000000,0.000000,4.000000,2.000000,2.000000,0.000000,0.000000,4.000000,4.000000,4.000000,4.000000,4.000000,4.000000,0.000000,,,,,,,,,,,,,,,,,,,,,,,,,,,,
1732157839.902022,1732157839.904854,12.000000,0.000000,4304.615234,4278.846191,4316.538574,4304.743652,4273.333496,4284.487305,4336.153809,4402.820313,4307.307617,4288.205078,4475.000000,4500.897461,4343.077148,4421.794922,1698.000000,1.000000,22.000000,,,,0.000000,2.000000,2.000000,0.000000,4.000000,2.000000,2.000000,0.000000,0.000000,4.000000,4.000000,4.000000,4.000000,4.000000,4.000000,0.000000,,,,,,,,,,,,,,,,,3.000000,0.000000,0.519277,0.475342,-0.545410,0.454895,0.990355,-0.009278,-0.050299,-35.326450,45.726936,31.473000
1732157839.909830,1732157839.912662,13.000000,0.000000,4301.922852,4278.333496,4313.077148,4304.102539,4282.948730,4281.282227,4336.153809,4402.179688,4295.384766,4280.000000,4473.077148,4494.487305,4340.512695,4413.461426,1616.000000,1.000000,22.000000,,,,0.000000,2.000000,2.000000,0.000000,4.000000,2.000000,2.000000,0.000000,0.000000,4.000000,4.000000,4.000000,4.000000,4.000000,4.000000,0.000000,,,,,,,,,,,,,,,,,,,,,,,,,,,,
1732157839.917638,1732157839.920670,14.000000,0.000000,4299.743652,4280.769043,4311.794922,4307.692383,4281.153809,4281.666504,4334.871582,4398.717773,4298.077148,4282.179688,4473.717773,4497.692383,4340.256348,4416.282227,1546.000000,1.000000,22.000000,,,,0.000000,2.000000,2.000000,0.000000,4.000000,2.000000,2.000000,0.000000,0.000000,4.000000,4.000000,4.000000,4.000000,4.000000,4.000000,0.000000,1.000000,0.000000,2.000000,1.000000,0.000000,4.000000,2.000000,2.000000,0.000000,0.000000,4.000000,4.000000,4.000000,4.000000,4.000000,4.000000,,,,,,,,,,,,
1732157839.925446,1732157839.928479,15.000000,0.000000,4300.512695,4280.769043,4312.563965,4307.820313,4281.410156,4281.666504,4335.641113,4399.615234,4297.820313,4287.692383,4475.000000,4500.384766,4342.436035,4422.307617,1564.000000,1.000000,22.000000,,,,0.000000,2.000000,2.000000,0.000000,4.000000,2.000000,2.000000,0.000000,0.000000,4.000000,4.000000,4.000000,4.000000,4.000000,4.000000,0.000000,,,,,,,,,,,,,,,,,,,,,,,,,,,,
1732157839.933255,1732157839.936387,16.000000,0.000000,4299.230957,4278.717773,4314.230957,4301.282227,4280.384766,4280.256348,4335.384766,4402.051270,4292.307617,4285.641113,4473.461426,4493.589844,4344.102539,4415.769043,0.000000,1.000000,22.000000,,,,0.000000,2.000000,2.000000,0.000000,4.000000,2.000000,2.000000,0.000000,0.000000,4.000000,4.000000,4.000000,4.000000,4.000000,4.000000,0.000000,,,,,,,,,,,,,,,,,4.000000,0.000000,0.518763,0.475342,-0.545593,0.455261,0.985472,-0.000977,-0.032719,-35.151093,45.317154,31.346464
1732157839.941063,1732157839.944195,17.000000,0.000000,4295.769043,4278.333496,4313.589844,4302.179688,4284.743652,4284.871582,4333.461426,4401.922852,4293.717773,4282.948730,4471.153809,4489.743652,4343.589844,4411.153809,0.000000,1.000000,22.000000,,,,0.000000,2.000000,2.000000,0.000000,4.000000,2.000000,2.000000,0.000000,0.000000,4.000000,4.000000,4.000000,4.000000,4.000000,4.000000,0.000000,,,,,,,,,,,,,,,,,,,,,,,,,,,,
1732157839.948871,1732157839.952203,18.000000,0.000000,4296.153809,4276.922852,4312.179688,4303.205078,4304.743652,4285.000000,4334.487305,4400.769043,4294.230957,4283.846191,4471.153809,4489.230957,4343.333496,4414.871582,0.000000,1.000000,22.000000,,,,0.000000,2.000000,2.000000,0.000000,4.000000,2.000000,2.000000,0.000000,0.000000,4.000000,4.000000,4.000000,4.000000,4.000000,4.000000,0.000000,,,,,,,,,,,,,,,,,,,,,,,,,,,,
1732157839.956679,1732157839.960011,19.000000,0.000000,4297.692383,4274.743652,4311.922852,4297.051270,4299.102539,4282.436035,4336.282227,4399.743652,4292.820313,4282.436035,4471.666504,4491.025879,4343.333496,4415.512695,0.000000,1.000000,22.000000,,,,0.000000,2.000000,2.000000,0.000000,4.000000,2.000000,2.000000,0.000000,0.000000,4.000000,4.000000,4.000000,4.000000,4.000000,4.000000,0.000000,,,,,,,,,,,,,,,,,,,,,,,,,,,,
1732157839.964487,1732157839.967719,20.000000,0.000000,4296.025879,4274.358887,4311.410156,4294.743652,4268.461426,4285.512695,4335.641113,4403.333496,4301.794922,4283.205078,4472.692383,4498.974121,4343.589844,4412.692383,0.000000,1.000000,22.000000,,,,0.000000,2.000000,2.000000,0.000000,4.000000,2.000000,2.000000,0.000000,0.000000,4.000000,4.000000,4.000000,4.000000,4.000000,4.000000,0.000000,,,,,,,,,,,,,,,,,5.000000,0.000000,0.518753,0.475342,-0.545654,0.455200,0.985472,-0.000977,-0.032719,-35.030716,45.090229,31.455635
1732157839.972296,1732157839.975528,21.000000,0.000000,4297.179688,4275.384766,4309.743652,4297.563965,4263.974121,4285.128418,4335.384766,4405.384766,4310.000000,4288.461426,4475.384766,4500.897461,4346.410156,4414.487305,0.000000,1.000000,22.000000,,,,0.000000,2.000000,2.000000,0.000000,4.000000,2.000000,2.000000,0.000000,0.000000,4.000000,4.000000,4.000000,4.000000,4.000000,4.000000,0.000000,,,,,,,,,,,,,,,,,,,,,,,,,,,,
1732157839.980104,1732157839.983136,22.000000,0.000000,4297.563965,4276.153809,4310.769043,4296.922852,4278.205078,4279.743652,4335.512695,4399.743652,4301.410156,4287.563965,4476.538574,4496.153809,4345.128418,4418.461426,0.000000,1.000000,22.000000,,,,0.000000,2.000000,2.000000,0.000000,4.000000,2.000000,2.000000,0.000000,0.000000,4.000000,4.000000,4.000000,4.000000,4.000000,4.000000,0.000000,,,,,,,,,,,,,,,,,,,,,,,,,,,,
1732157839.987912,1732157839.990944,23.000000,0.000000,4296.666504,4277.436035,4311.922852,4296.025879,4280.256348,4280.384766,4334.487305,4398.589844,4295.897461,4284.487305,4475.641113,4497.820313,4342.436035,4420.256348,0.000000,1.000000,22.000000,,,,0.000000,2.000000,2.000000,0.000000,4.000000,2.000000,2.000000,0.000000,0.000000,4.000000,4.000000,4.000000,4.000000,4.000000,4.000000,0.000000,,,,,,,,,,,,,,,,,,,,,,,,,,,,
1732157839.995721,1732157839.998653,24.000000,0.000000,4299.230957,4279.102539,4310.897461,4303.205078,4278.589844,4283.589844,4334.743652,4402.692383,4303.333496,4285.128418,4475.897461,4501.410156,4344.615234,4420.769043,0.000000,1.000000,22.000000,,,,0.000000,2.000000,2.000000,0.000000,4.000000,2.000000,2.000000,0.000000,0.000000,4.000000,4.000000,4.000000,4.000000,4.000000,4.000000,0.000000,,,,,,,,,,,,,,,,,6.000000,0.000000,0.518467,0.475525,-0.545715,0.455261,0.974240,0.005372,-0.043462,-35.309879,45.231419,31.590731
1732157840.003529,1732157840.006461,25.000000,0.000000,4300.641113,4281.538574,4311.922852,4312.051270,4277.692383,4281.282227,4336.153809,4401.794922,4302.948730,4284.230957,4476.282227,4499.871582,4346.922852,4420.512695,0.000000,1.000000,22.000000,,,,0.000000,2.000000,2.000000,0.000000,4.000000,2.000000,2.000000,0.000000,0.000000,4.000000,4.000000,4.000000,4.000000,4.000000,4.000000,0.000000,,,,,,,,,,,,,,,,,,,,,,,,,,,,
1732157840.011337,1732157840.014069,26.000000,0.000000,4298.974121,4280.256348,4314.358887,4310.128418,4285.769043,4280.384766,4335.384766,4399.358887,4293.589844,4280.128418,4474.487305,4499.743652,4343.589844,4420.000000,0.000000,1.000000,22.000000,,,,0.000000,2.000000,2.000000,0.000000,4.000000,2.000000,2.000000,0.000000,0.000000,4.000000,4.000000,4.000000,4.000000,4.000000,4.000000,0.000000,,,,,,,,,,,,,,,,,,,,,,,,,,,,
1732157840.019145,1732157840.021877,27.000000,0.000000,4297.436035,4276.794922,4315.769043,4302.051270,4300.256348,4281.025879,4333.205078,4400.384766,4292.307617,4277.563965,4472.563965,4496.922852,4340.512695,4416.153809,0.000000,1.000000,22.000000,,,,0.000000,2.000000,2.000000,0.000000,4.000000,2.000000,2.000000,0.000000,0.000000,4.000000,4.000000,4.000000,4.000000,4.000000,4.000000,0.000000,,,,,,,,,,,,,,,,,,,,,,,,,,,,
1732157840.026954,1732157840.029586,28.000000,0.000000,4296.922852,4277.948730,4316.153809,4304.615234,4285.769043,4282.179688,4334.102539,4399.230957,4295.128418,4280.000000,4472.820313,4494.230957,4341.666504,4416.666504,0.000000,1.000000,22.000000,,,,0.000000,2.000000,2.000000,0.000000,4.000000,2.000000,2.000000,0.000000,0.000000,4.000000,4.000000,4.000000,4.000000,4.000000,4.000000,0.000000,,,,,,,,,,,,,,,,,7.000000,0.000000,0.518390,0.475586,-0.545837,0.455139,0.982053,-0.001465,-0.055183,-35.381004,45.459114,31.685160
1732157840.034762,1732157840.037394,29.000000,0.000000,4296.153809,4279.358887,4314.871582,4309.358887,4264.487305,4282.820313,4335.128418,4398.077148,4296.794922,4284.358887,4475.256348,4499.871582,4345.641113,4420.512695,0.000000,1.000000,22.000000,,,,0.000000,2.000000,2.000000,0.000000,4.000000,2.000000,2.000000,0.000000,0.000000,4.000000,4.000000,4.000000,4.000000,4.000000,4.000000,0.000000,,,,,,,,,,,,,,,,,,,,,,,,,,,,
1732157840.042570,1732157840.045002,30.000000,0.000000,4296.538574,4277.436035,4314.487305,4303.974121,4272.948730,4282.436035,4334.871582,4398.974121,4301.282227,4288.205078,4477.948730,4504.230957,4346.922852,4417.307617,0.000000,1.000000,22.000000,,,,0.000000,2.000000,2.000000,0.000000,4.000000,2.000000,2.000000,0.000000,0.000000,4.000000,4.000000,4.000000,4.000000,4.000000,4.000000,0.000000,,,,,,,,,,,,,,,,,,,,,,,,,,,,
1732157840.050378,1732157840.052810,31.000000,0.000000,4294.615234,4275.769043,4314.487305,4298.205078,4278.333496,4281.794922,4336.410156,4399.487305,4304.615234,4291.282227,4478.461426,4498.974121,4344.615234,4415.641113,0.000000,1.000000,22.000000,,,,0.000000,2.000000,2.000000,0.000000,4.000000,2.000000,2.000000,0.000000,0.000000,4.000000,4.000000,4.000000,4.000000,4.000000,4.000000,0.000000,,,,,,,,,,,,,,,,,,,,,,,,,,,,
1732157840.058186,1732157840.060519,32.000000,0.000000,4291.410156,4275.769043,4313.333496,4295.128418,4272.820313,4277.692383,4336.153809,4399.871582,4302.820313,4295.256348,4477.179688,4493.589844,4344.871582,4417.563965,0.000000,1.000000,22.000000,,,,0.000000,2.000000,2.000000,0.000000,4.000000,2.000000,2.000000,0.000000,0.000000,4.000000,4.000000,4.000000,4.000000,4.000000,4.000000,0.000000,,,,,,,,,,,,,,,,,8.000000,0.000000,0.518154,0.475586,-0.545959,0.455261,0.979123,-0.021975,-0.067391,-35.348614,45.555218,31.809978
1732157840.065995,1732157840.068327,33.000000,0.000000,4293.846191,4275.769043,4313.974121,4296.794922,4274.358887,4276.153809,4334.102539,4400.384766,4298.461426,4291.538574,4477.051270,4499.743652,4346.282227,4415.897461,0.000000,1.000000,22.000000,,,,0.000000,2.000000,2.000000,0.000000,4.000000,2.000000,2.000000,0.000000,0.000000,4.000000,4.000000,4.000000,4.000000,4.000000,4.000000,0.000000,,,,,,,,,,,,,,,,,,,,,,,,,,,,
1732157840.073803,1732157840.076335,34.000000,0.000000,4297.179688,4277.307617,4315.128418,4304.871582,4276.538574,4279.743652,4334.615234,4401.410156,4295.512695,4281.282227,4475.641113,4505.128418,4343.333496,4414.615234,0.000000,1.000000,22.000000,,,,0.000000,2.000000,2.000000,0.000000,4.000000,2.000000,2.000000,0.000000,0.000000,4.000000,4.000000,4.000000,4.000000,4.000000,4.000000,0.000000,,,,,,,,,,,,,,,,,,,,,,,,,,,,
1732157840.081611,1732157840.084143,35.000000,0.000000,4296.410156,4279.615234,4315.897461,4304.358887,4291.025879,4282.179688,4334.615234,4402.179688,4297.820313,4278.461426,4472.051270,4499.615234,4341.153809,4415.641113,0.000000,1.000000,22.000000,,,,0.000000,2.000000,2.000000,0.000000,4.000000,2.000000,2.000000,0.000000,0.000000,4.000000,4.000000,4.000000,4.000000,4.000000,4.000000,0.000000,,,,,,,,,,,,,,,,,,,,,,,,,,,,
1732157840.089419,1732157840.091852,36.000000,0.000000,4294.358887,4277.307617,4314.230957,4297.179688,4297.307617,4279.743652,4333.846191,4400.384766,4301.153809,4284.615234,4471.794922,4493.846191,4342.179688,4413.333496,0.000000,1.000000,22.000000,,,,0.000000,2.000000,2.000000,0.000000,4.000000,2.000000,2.000000,0.000000,0.000000,4.000000,4.000000,4.000000,4.000000,4.000000,4.000000,0.000000,,,,,,,,,,,,,,,,,9.000000,0.000000,0.518154,0.475586,-0.545959,0.455261,0.976193,-0.003907,-0.038579,-35.142376,45.663059,31.821083
1732157840.097228,1732157840.099660,37.000000,0.000000,4294.102539,4278.205078,4314.487305,4299.615234,4271.794922,4281.153809,4335.384766,4399.743652,4299.358887,4285.512695,4473.333496,4497.948730,4339.871582,4412.692383,0.000000,1.000000,22.000000,,,,0.000000,2.000000,2.000000,0.000000,4.000000,2.000000,2.000000,0.000000,0.000000,4.000000,4.000000,4.000000,4.000000,4.000000,4.000000,0.000000,,,,,,,,,,,,,,,,,,,,,,,,,,,,
