title:2five, start timestamp:1732157908.185339, stop timestamp:1732157959.626078, headset type:EPOCX, headset serial:E5020C3A, headset firmware:730, channels:67, sampling rate:eeg_128;mot_32, samples:6589      , version:2.2, 
Timestamp,OriginalTimestamp,EEG.Counter,EEG.Interpolated,EEG.AF3,EEG.F7,EEG.F3,EEG.FC5,EEG.T7,EEG.P7,EEG.O1,EEG.O2,EEG.P8,EEG.T8,EEG.FC6,EEG.F4,EEG.F8,EEG.AF4,EEG.RawCq,EEG.Battery,EEG.BatteryPercent,MarkerIndex,MarkerType,MarkerValueInt,EEG.MarkerHardware,CQ.AF3,CQ.F7,CQ.F3,CQ.FC5,CQ.T7,CQ.P7,CQ.O1,CQ.O2,CQ.P8,CQ.T8,CQ.FC6,CQ.F4,CQ.F8,CQ.AF4,CQ.Overall,EQ.SampleRateQuality,EQ.OVERALL,EQ.AF3,EQ.F7,EQ.F3,EQ.FC5,EQ.T7,EQ.P7,EQ.O1,EQ.O2,EQ.P8,EQ.T8,EQ.FC6,EQ.F4,EQ.F8,EQ.AF4,MOT.CounterMems,MOT.InterpolatedMems,MOT.Q0,MOT.Q1,MOT.Q2,MOT.Q3,MOT.AccX,MOT.AccY,MOT.AccZ,MOT.MagX,MOT.MagY,MOT.MagZ
1732157908.185339,1732157908.189037,53.000000,0.000000,4289.743652,4263.589844,4316.282227,4290.384766,4282.179688,4296.794922,4334.871582,4400.769043,4311.410156,4294.615234,4490.128418,4495.897461,4359.102539,4411.794922,0.000000,1.000000,22.000000,,,,0.000000,2.000000,2.000000,0.000000,4.000000,2.000000,2.000000,0.000000,0.000000,4.000000,4.000000,4.000000,4.000000,4.000000,4.000000,0.000000,,,,,,,,,,,,,,,,,,,,,,,,,,,,
1732157908.193147,1732157908.196645,54.000000,0.000000,4296.666504,4268.974121,4316.025879,4296.666504,4287.948730,4289.358887,4334.871582,4400.128418,4311.153809,4300.384766,4497.692383,4505.641113,4365.641113,4415.641113,0.000000,1.000000,22.000000,,,,0.000000,2.000000,2.000000,0.000000,4.000000,2.000000,2.000000,0.000000,0.000000,4.000000,4.000000,4.000000,4.000000,4.000000,4.000000,0.000000,,,,,,,,,,,,,,,,,,,,,,,,,,,,
1732157908.200955,1732157908.204453,55.000000,0.000000,4295.128418,4269.102539,4315.256348,4293.077148,4281.666504,4280.256348,4334.871582,4399.743652,4309.743652,4307.307617,4507.820313,4506.666504,4365.641113,4414.743652,0.000000,1.000000,22.000000,,,,0.000000,2.000000,2.000000,0.000000,4.000000,2.000000,2.000000,0.000000,0.000000,4.000000,4.000000,4.000000,4.000000,4.000000,4.000000,0.000000,,,,,,,,,,,,,,,,,,,,,,,,,,,,
1732157908.208763,1732157908.212361,56.000000,0.000000,4293.974121,4268.846191,4314.102539,4290.512695,4279.871582,4280.384766,4334.871582,4399.743652,4309.743652,4304.871582,4505.000000,4502.692383,4365.769043,4417.179688,0.000000,1.000000,22.000000,,,,0.000000,2.000000,2.000000,0.000000,4.000000,2.000000,2.000000,0.000000,0.000000,4.000000,4.000000,4.000000,4.000000,4.000000,4.000000,0.000000,,,,,,,,,,,,,,,,,14.000000,0.000000,0.525086,0.496826,-0.523926,0.450500,0.965938,0.037114,-0.040044,-35.047436,45.760529,31.859936
1732157908.216572,1732157908.220170,57.000000,0.000000,4293.846191,4272.179688,4317.563965,4294.743652,4283.846191,4281.410156,4334.871582,4398.589844,4309.743652,4304.230957,4501.538574,4506.538574,4363.974121,4422.179688,0.000000,1.000000,22.000000,,,,0.000000,2.000000,2.000000,0.000000,4.000000,2.000000,2.000000,0.000000,0.000000,4.000000,4.000000,4.000000,4.000000,4.000000,4.000000,0.000000,,,,,,,,,,,,,,,,,,,,,,,,,,,,
1732157908.224380,1732157908.228178,58.000000,0.000000,4292.820313,4271.922852,4317.948730,4295.897461,4278.205078,4282.179688,4334.871582,4401.410156,4307.820313,4305.000000,4503.846191,4509.871582,4361.153809,4420.641113,0.000000,1.000000,22.000000,,,,0.000000,2.000000,2.000000,0.000000,4.000000,2.000000,2.000000,0.000000,0.000000,4.000000,4.000000,4.000000,4.000000,4.000000,4.000000,0.000000,,,,,,,,,,,,,,,,,,,,,,,,,,,,
1732157908.232188,1732157908.235986,59.000000,0.000000,4294.358887,4269.102539,4313.717773,4290.769043,4278.589844,4282.948730,4334.871582,4405.128418,4308.846191,4302.307617,4504.871582,4507.051270,4364.743652,4421.025879,0.000000,1.000000,22.000000,,,,0.000000,2.000000,2.000000,0.000000,4.000000,2.000000,2.000000,0.000000,0.000000,4.000000,4.000000,4.000000,4.000000,4.000000,4.000000,0.000000,,,,,,,,,,,,,,,,,,,,,,,,,,,,
1732157908.239996,1732157908.243894,60.000000,0.000000,4294.358887,4272.307617,4313.333496,4287.820313,4297.563965,4272.563965,4334.871582,4400.128418,4311.538574,4304.871582,4503.589844,4507.051270,4366.025879,4427.179688,0.000000,1.000000,22.000000,,,,0.000000,2.000000,2.000000,0.000000,4.000000,2.000000,2.000000,0.000000,0.000000,4.000000,4.000000,4.000000,4.000000,4.000000,4.000000,0.000000,,,,,,,,,,,,,,,,,15.000000,0.000000,0.525086,0.496826,-0.523926,0.450500,0.965938,0.037114,-0.040044,-35.033424,45.769360,31.951548
1732157908.247805,1732157908.251702,61.000000,0.000000,4296.794922,4278.846191,4315.256348,4293.461426,4292.436035,4270.384766,4334.871582,4396.153809,4311.922852,4306.410156,4501.794922,4511.794922,4362.820313,4428.333496,0.000000,1.000000,22.000000,,,,0.000000,2.000000,2.000000,0.000000,4.000000,2.000000,2.000000,0.000000,0.000000,4.000000,4.000000,4.000000,4.000000,4.000000,4.000000,0.000000,,,,,,,,,,,,,,,,,,,,,,,,,,,,
1732157908.255613,1732157908.259710,62.000000,0.000000,4302.948730,4280.769043,4314.743652,4298.205078,4262.820313,4282.820313,4334.871582,4400.384766,4311.410156,4305.000000,4510.128418,4520.000000,4374.230957,4432.051270,0.000000,1.000000,22.000000,,,,0.000000,2.000000,2.000000,0.000000,4.000000,2.000000,2.000000,0.000000,0.000000,4.000000,4.000000,4.000000,4.000000,4.000000,4.000000,0.000000,,,,,,,,,,,,,,,,,,,,,,,,,,,,
1732157908.263421,1732157908.267518,63.000000,0.000000,4305.769043,4279.487305,4316.410156,4299.358887,4258.205078,4280.769043,4334.871582,4401.538574,4310.512695,4303.077148,4518.717773,4527.051270,4384.743652,4440.897461,0.000000,1.000000,22.000000,,,,0.000000,2.000000,2.000000,0.000000,4.000000,2.000000,2.000000,0.000000,0.000000,4.000000,4.000000,4.000000,4.000000,4.000000,4.000000,0.000000,,,,,,,,,,,,,,,,,,,,,,,,,,,,
1732157908.271229,1732157908.275426,64.000000,0.000000,4308.077148,4285.512695,4320.000000,4306.794922,4270.769043,4270.000000,4334.871582,4399.615234,4311.282227,4301.794922,4517.563965,4528.333496,4376.153809,4443.333496,0.000000,1.000000,22.000000,,,,0.000000,2.000000,2.000000,0.000000,4.000000,2.000000,2.000000,0.000000,0.000000,4.000000,4.000000,4.000000,4.000000,4.000000,4.000000,0.000000,,,,,,,,,,,,,,,,,16.000000,0.000000,0.525540,0.497192,-0.523438,0.450134,0.977658,0.085948,-0.040532,-34.605408,45.884850,31.817421
1732157908.279038,1732157908.283235,65.000000,0.000000,4310.512695,4293.077148,4319.358887,4310.897461,4266.666504,4277.692383,4334.871582,4401.794922,4311.025879,4306.025879,4518.333496,4529.230957,4377.179688,4443.333496,1601.000000,1.000000,22.000000,,,,0.000000,2.000000,2.000000,0.000000,4.000000,2.000000,2.000000,0.000000,0.000000,4.000000,4.000000,4.000000,4.000000,4.000000,4.000000,0.000000,,,,,,,,,,,,,,,,,,,,,,,,,,,,
1732157908.286846,1732157908.290843,66.000000,0.000000,4307.436035,4288.333496,4317.436035,4302.436035,4260.769043,4284.358887,4334.871582,4402.179688,4300.384766,4304.102539,4512.436035,4524.487305,4385.000000,4439.358887,1362.000000,1.000000,22.000000,,,,0.000000,2.000000,2.000000,0.000000,4.000000,2.000000,2.000000,0.000000,0.000000,4.000000,4.000000,4.000000,4.000000,4.000000,4.000000,0.000000,,,,,,,,,,,,,,,,,,,,,,,,,,,,
1732157908.294654,1732157908.298651,67.000000,0.000000,4300.256348,4285.128418,4314.102539,4292.563965,4266.025879,4269.871582,4335.000000,4401.282227,4293.077148,4293.589844,4493.717773,4515.769043,4373.717773,4427.948730,1412.000000,1.000000,22.000000,,,,0.000000,2.000000,2.000000,0.000000,4.000000,2.000000,2.000000,0.000000,0.000000,4.000000,4.000000,4.000000,4.000000,4.000000,4.000000,0.000000,,,,,,,,,,,,,,,,,,,,,,,,,,,,
1732157908.302462,1732157908.306559,68.000000,0.000000,4298.461426,4292.051270,4312.948730,4291.282227,4266.282227,4263.717773,4334.743652,4402.179688,4302.692383,4290.512695,4491.410156,4516.025879,4371.153809,4425.384766,1426.000000,1.000000,22.000000,,,,0.000000,2.000000,2.000000,0.000000,4.000000,2.000000,2.000000,0.000000,0.000000,4.000000,4.000000,4.000000,4.000000,4.000000,4.000000,0.000000,,,,,,,,,,,,,,,,,17.000000,0.000000,0.525998,0.498962,-0.521973,0.449341,0.968380,0.080576,-0.040532,-34.542046,45.916729,31.767111
1732157908.310271,1732157908.314368,69.000000,0.000000,4299.230957,4299.358887,4313.974121,4291.025879,4262.179688,4273.717773,4335.000000,4401.153809,4306.410156,4296.153809,4508.077148,4520.512695,4391.794922,4431.282227,1217.000000,1.000000,22.000000,,,,0.000000,2.000000,2.000000,0.000000,4.000000,2.000000,2.000000,0.000000,0.000000,4.000000,4.000000,4.000000,4.000000,4.000000,4.000000,0.000000,,,,,,,,,,,,,,,,,,,,,,,,,,,,
1732157908.318079,1732157908.321976,70.000000,0.000000,4297.692383,4302.948730,4309.615234,4287.563965,4260.641113,4281.153809,4335.000000,4401.794922,4298.205078,4295.641113,4506.922852,4517.051270,4398.717773,4432.563965,0.000000,1.000000,22.000000,,,,0.000000,2.000000,2.000000,0.000000,4.000000,2.000000,2.000000,0.000000,0.000000,4.000000,4.000000,4.000000,4.000000,4.000000,4.000000,0.000000,,,,,,,,,,,,,,,,,,,,,,,,,,,,
1732157908.325887,1732157908.329784,71.000000,0.000000,4296.922852,4308.205078,4307.692383,4289.743652,4259.615234,4279.102539,4334.487305,4403.846191,4299.615234,4292.436035,4496.410156,4512.051270,4391.410156,4428.717773,0.000000,1.000000,22.000000,,,,0.000000,2.000000,2.000000,0.000000,4.000000,2.000000,2.000000,0.000000,0.000000,4.000000,4.000000,4.000000,4.000000,4.000000,4.000000,0.000000,,,,,,,,,,,,,,,,,,,,,,,,,,,,
1732157908.333695,1732157908.337692,72.000000,0.000000,4296.538574,4309.487305,4311.153809,4293.205078,4253.974121,4273.333496,4334.487305,4402.307617,4308.589844,4296.153809,4501.025879,4517.179688,4398.461426,4428.846191,1531.000000,1.000000,22.000000,,,,0.000000,2.000000,2.000000,0.000000,4.000000,2.000000,2.000000,0.000000,0.000000,4.000000,4.000000,4.000000,4.000000,4.000000,4.000000,0.000000,,,,,,,,,,,,,,,,,18.000000,0.000000,0.525768,0.499451,-0.521790,0.449280,0.968380,0.080576,-0.040532,-34.432392,45.870884,31.621361
1732157908.341504,1732157908.345501,73.000000,0.000000,4298.077148,4312.307617,4310.641113,4292.820313,4249.871582,4265.512695,4335.128418,4400.128418,4303.333496,4298.333496,4511.025879,4524.871582,4409.487305,4435.769043,1686.000000,1.000000,22.000000,,,,0.000000,2.000000,2.000000,0.000000,4.000000,2.000000,2.000000,0.000000,0.000000,4.000000,4.000000,4.000000,4.000000,4.000000,4.000000,0.000000,,,,,,,,,,,,,,,,,,,,,,,,,,,,
1732157908.349312,1732157908.353509,74.000000,0.000000,4302.051270,4319.871582,4310.000000,4294.358887,4253.077148,4264.358887,4334.487305,4400.384766,4293.205078,4296.410156,4508.077148,4523.717773,4407.563965,4439.487305,1529.000000,1.000000,22.000000,,,,0.000000,2.000000,2.000000,0.000000,4.000000,2.000000,2.000000,0.000000,0.000000,4.000000,4.000000,4.000000,4.000000,4.000000,4.000000,0.000000,,,,,,,,,,,,,,,,,,,,,,,,,,,,
1732157908.357120,1732157908.361317,75.000000,0.000000,4303.974121,4318.846191,4310.512695,4295.128418,4259.871582,4276.153809,4334.743652,4400.897461,4302.948730,4294.230957,4496.794922,4515.384766,4398.461426,4431.794922,1566.000000,1.000000,22.000000,,,,0.000000,2.000000,2.000000,0.000000,4.000000,2.000000,2.000000,0.000000,0.000000,4.000000,4.000000,4.000000,4.000000,4.000000,4.000000,0.000000,,,,,,,,,,,,,,,,,,,,,,,,,,,,
1732157908.364928,1732157908.369025,76.000000,0.000000,4298.333496,4310.769043,4308.077148,4291.538574,4262.179688,4281.794922,4334.871582,4401.282227,4312.948730,4296.538574,4492.307617,4507.948730,4389.102539,4426.282227,1701.000000,1.000000,22.000000,,,,0.000000,2.000000,2.000000,0.000000,4.000000,2.000000,2.000000,0.000000,0.000000,4.000000,4.000000,4.000000,4.000000,4.000000,4.000000,0.000000,,,,,,,,,,,,,,,,,19.000000,0.000000,0.524263,0.500366,-0.522217,0.449524,0.970822,0.047369,-0.054694,-34.698570,46.148746,31.629969
1732157908.372737,1732157908.376833,77.000000,0.000000,4293.077148,4314.487305,4304.102539,4291.794922,4265.512695,4279.487305,4329.102539,4401.153809,4298.461426,4295.128418,4490.384766,4507.051270,4383.077148,4427.051270,1613.000000,1.000000,22.000000,,,,0.000000,2.000000,2.000000,0.000000,4.000000,2.000000,2.000000,0.000000,0.000000,4.000000,4.000000,4.000000,4.000000,4.000000,4.000000,0.000000,,,,,,,,,,,,,,,,,,,,,,,,,,,,
1732157908.380545,1732157908.384442,78.000000,0.000000,4298.846191,4324.871582,4305.384766,4297.820313,4264.615234,4279.487305,4327.179688,4399.871582,4288.846191,4291.666504,4488.205078,4507.563965,4387.436035,4429.358887,1529.000000,1.000000,22.000000,,,,0.000000,2.000000,2.000000,0.000000,4.000000,2.000000,2.000000,0.000000,0.000000,4.000000,4.000000,4.000000,4.000000,4.000000,4.000000,0.000000,1.000000,0.000000,2.000000,2.000000,0.000000,4.000000,2.000000,2.000000,0.000000,0.000000,4.000000,4.000000,4.000000,4.000000,4.000000,4.000000,,,,,,,,,,,,
1732157908.388353,1732157908.392250,79.000000,0.000000,4303.077148,4318.717773,4305.384766,4294.871582,4256.794922,4279.358887,4333.717773,4400.641113,4304.871582,4296.794922,4490.641113,4507.307617,4390.897461,4432.563965,1566.000000,1.000000,22.000000,,,,0.000000,2.000000,2.000000,0.000000,4.000000,2.000000,2.000000,0.000000,0.000000,4.000000,4.000000,4.000000,4.000000,4.000000,4.000000,0.000000,,,,,,,,,,,,,,,,,,,,,,,,,,,,
1732157908.396161,1732157908.399958,80.000000,0.000000,4301.410156,4310.897461,4306.410156,4289.615234,4255.384766,4277.692383,4335.769043,4399.615234,4313.589844,4297.692383,4493.333496,4508.461426,4386.794922,4432.179688,1701.000000,1.000000,22.000000,,,,0.000000,2.000000,2.000000,0.000000,4.000000,2.000000,2.000000,0.000000,0.000000,4.000000,4.000000,4.000000,4.000000,4.000000,4.000000,0.000000,,,,,,,,,,,,,,,,,20.000000,0.000000,0.522967,0.498901,-0.524963,0.449463,0.943963,0.022952,-0.061043,-34.640842,46.157154,31.633608
1732157908.403970,1732157908.407766,81.000000,0.000000,4305.769043,4321.538574,4309.743652,4293.461426,4261.025879,4281.538574,4332.179688,4398.333496,4308.717773,4295.897461,4492.436035,4512.436035,4391.153809,4432.692383,1613.000000,1.000000,22.000000,,,,0.000000,2.000000,2.000000,0.000000,4.000000,2.000000,2.000000,0.000000,0.000000,4.000000,4.000000,4.000000,4.000000,4.000000,4.000000,0.000000,,,,,,,,,,,,,,,,,,,,,,,,,,,,
1732157908.411778,1732157908.415375,82.000000,0.000000,4311.153809,4328.717773,4312.307617,4296.922852,4262.692383,4281.153809,4334.102539,4399.871582,4311.153809,4295.256348,4492.820313,4518.461426,4395.384766,4437.179688,1529.000000,1.000000,22.000000,,,,0.000000,2.000000,2.000000,0.000000,4.000000,2.000000,2.000000,0.000000,0.000000,4.000000,4.000000,4.000000,4.000000,4.000000,4.000000,0.000000,,,,,,,,,,,,,,,,,,,,,,,,,,,,
1732157908.419586,1732157908.423183,83.000000,0.000000,4310.128418,4322.307617,4313.077148,4295.769043,4258.333496,4270.897461,4335.384766,4399.230957,4310.128418,4291.282227,4495.384766,4521.794922,4389.743652,4435.384766,1566.000000,1.000000,22.000000,,,,0.000000,2.000000,2.000000,0.000000,4.000000,2.000000,2.000000,0.000000,0.000000,4.000000,4.000000,4.000000,4.000000,4.000000,4.000000,0.000000,,,,,,,,,,,,,,,,,,,,,,,,,,,,
1732157908.427394,1732157908.430891,84.000000,0.000000,4310.000000,4320.512695,4312.820313,4297.307617,4259.743652,4270.128418,4331.794922,4398.589844,4301.794922,4287.820313,4491.282227,4515.256348,4389.230957,4431.410156,1701.000000,1.000000,22.000000,,,,0.000000,2.000000,2.000000,0.000000,4.000000,2.000000,2.000000,0.000000,0.000000,4.000000,4.000000,4.000000,4.000000,4.000000,4.000000,0.000000,,,,,,,,,,,,,,,,,21.000000,0.000000,0.522908,0.497620,-0.526184,0.449524,0.974728,0.043462,-0.051764,-34.854080,46.170628,31.376554
1732157908.435202,1732157908.438700,85.000000,0.000000,4311.794922,4323.717773,4315.000000,4298.846191,4265.769043,4280.256348,4332.820313,4402.179688,4300.641113,4287.563965,4487.563965,4508.461426,4392.179688,4436.922852,1613.000000,1.000000,22.000000,,,,0.000000,2.000000,2.000000,0.000000,4.000000,2.000000,2.000000,0.000000,0.000000,4.000000,4.000000,4.000000,4.000000,4.000000,4.000000,0.000000,,,,,,,,,,,,,,,,,,,,,,,,,,,,
1732157908.443011,1732157908.446308,86.000000,0.000000,4310.641113,4320.000000,4316.538574,4294.615234,4265.769043,4281.666504,4335.384766,4402.948730,4307.436035,4281.410156,4490.384766,4508.461426,4391.794922,4443.717773,1529.000000,1.000000,22.000000,,,,0.000000,2.000000,2.000000,0.000000,4.000000,2.000000,2.000000,0.000000,0.000000,4.000000,4.000000,4.000000,4.000000,4.000000,4.000000,0.000000,,,,,,,,,,,,,,,,,,,,,,,,,,,,
1732157908.450819,1732157908.454116,87.000000,0.000000,4311.666504,4321.538574,4316.794922,4295.512695,4262.692383,4270.512695,4334.230957,4399.102539,4305.000000,4274.871582,4488.589844,4507.179688,4393.717773,4443.205078,1566.000000,1.000000,22.000000,,,,0.000000,2.000000,2.000000,0.000000,4.000000,2.000000,2.000000,0.000000,0.000000,4.000000,4.000000,4.000000,4.000000,4.000000,4.000000,0.000000,,,,,,,,,,,,,,,,,,,,,,,,,,,,
1732157908.458627,1732157908.462024,88.000000,0.000000,4313.333496,4324.871582,4315.769043,4299.102539,4262.820313,4266.538574,4334.102539,4397.820313,4293.589844,4275.769043,4483.974121,4502.436035,4398.077148,4441.666504,1701.000000,1.000000,22.000000,,,,0.000000,2.000000,2.000000,0.000000,4.000000,2.000000,2.000000,0.000000,0.000000,4.000000,4.000000,4.000000,4.000000,4.000000,4.000000,0.000000,,,,,,,,,,,,,,,,,22.000000,0.000000,0.523039,0.496826,-0.526855,0.449463,0.960078,0.045904,-0.057624,-34.565140,46.106541,31.463343
1732157908.466436,1732157908.469832,89.000000,0.000000,4314.487305,4318.077148,4315.384766,4292.820313,4261.538574,4270.641113,4334.871582,4400.641113,4291.025879,4273.974121,4488.205078,4503.461426,4399.230957,4446.794922,1613.000000,1.000000,22.000000,,,,0.000000,2.000000,2.000000,0.000000,4.000000,2.000000,2.000000,0.000000,0.000000,4.000000,4.000000,4.000000,4.000000,4.000000,4.000000,0.000000,,,,,,,,,,,,,,,,,,,,,,,,,,,,
1732157908.474244,1732157908.477840,90.000000,0.000000,4318.717773,4318.205078,4316.282227,4291.794922,4253.077148,4269.487305,4334.615234,4402.436035,4296.666504,4272.948730,4490.000000,4507.179688,4397.948730,4456.666504,1529.000000,1.000000,22.000000,,,,0.000000,2.000000,2.000000,0.000000,4.000000,2.000000,2.000000,0.000000,0.000000,4.000000,4.000000,4.000000,4.000000,4.000000,4.000000,0.000000,,,,,,,,,,,,,,,,,,,,,,,,,,,,
1732157908.482052,1732157908.485649,91.000000,0.000000,4324.230957,4324.358887,4317.179688,4297.436035,4247.820313,4264.615234,4335.769043,4401.538574,4298.205078,4275.512695,4488.205078,4507.820313,4400.897461,4461.153809,1566.000000,1.000000,22.000000,,,,0.000000,2.000000,2.000000,0.000000,4.000000,2.000000,2.000000,0.000000,0.000000,4.000000,4.000000,4.000000,4.000000,4.000000,4.000000,0.000000,,,,,,,,,,,,,,,,,,,,,,,,,,,,
1732157908.489860,1732157908.493357,92.000000,0.000000,4330.641113,4321.025879,4316.025879,4295.769043,4248.077148,4261.666504,4334.102539,4400.256348,4295.769043,4276.794922,4498.846191,4514.358887,4411.794922,4460.384766,1701.000000,1.000000,22.000000,,,,0.000000,2.000000,2.000000,0.000000,4.000000,2.000000,2.000000,0.000000,0.000000,4.000000,4.000000,4.000000,4.000000,4.000000,4.000000,0.000000,,,,,,,,,,,,,,,,,23.000000,0.000000,0.523810,0.494873,-0.527771,0.449646,0.983030,0.067391,-0.055183,-34.526096,46.182964,31.316975
1732157908.497669,1732157908.501165,93.000000,0.000000,4334.358887,4316.922852,4317.820313,4292.820313,4247.051270,4262.436035,4330.512695,4401.794922,4295.512695,4277.051270,4507.563965,4521.538574,4415.897461,4465.641113,1613.000000,1.000000,22.000000,,,,0.000000,2.000000,2.000000,0.000000,4.000000,2.000000,2.000000,0.000000,0.000000,4.000000,4.000000,4.000000,4.000000,4.000000,4.000000,0.000000,,,,,,,,,,,,,,,,,,,,,,,,,,,,
1732157908.505477,1732157908.508774,94.000000,0.000000,4336.410156,4318.461426,4320.256348,4295.769043,4246.794922,4263.846191,4332.179688,4402.692383,4296.410156,4277.820313,4502.948730,4521.282227,4407.179688,4471.282227,1529.000000,1.000000,22.000000,,,,0.000000,2.000000,2.000000,0.000000,4.000000,2.000000,2.000000,0.000000,0.000000,4.000000,4.000000,4.000000,4.000000,4.000000,4.000000,0.000000,,,,,,,,,,,,,,,,,,,,,,,,,,,,
1732157908.513285,1732157908.516582,95.000000,0.000000,4345.128418,4322.692383,4320.128418,4298.974121,4247.563965,4259.102539,4335.000000,4401.153809,4293.846191,4277.820313,4502.820313,4525.000000,4408.846191,4473.589844,1566.000000,1.000000,22.000000,,,,0.000000,2.000000,2.000000,0.000000,4.000000,2.000000,2.000000,0.000000,0.000000,4.000000,4.000000,4.000000,4.000000,4.000000,4.000000,0.000000,,,,,,,,,,,,,,,,,,,,,,,,,,,,
1732157908.521093,1732157908.524290,96.000000,0.000000,4353.333496,4327.948730,4320.641113,4304.487305,4246.538574,4248.846191,4334.743652,4401.025879,4289.487305,4274.230957,4507.179688,4531.794922,4415.769043,4481.666504,1701.000000,1.000000,22.000000,,,,0.000000,2.000000,2.000000,0.000000,4.000000,2.000000,2.000000,0.000000,0.000000,4.000000,4.000000,4.000000,4.000000,4.000000,4.000000,0.000000,,,,,,,,,,,,,,,,,24.000000,0.000000,0.524101,0.494446,-0.527466,0.450134,0.979612,0.074228,-0.039556,-34.332806,46.258202,31.070084
1732157908.528901,1732157908.532098,97.000000,0.000000,4352.179688,4328.333496,4322.820313,4308.974121,4246.538574,4246.922852,4334.230957,4400.769043,4291.282227,4275.769043,4506.538574,4533.717773,4412.179688,4489.743652,1613.000000,1.000000,22.000000,,,,0.000000,2.000000,2.000000,0.000000,4.000000,2.000000,2.000000,0.000000,0.000000,4.000000,4.000000,4.000000,4.000000,4.000000,4.000000,0.000000,,,,,,,,,,,,,,,,,,,,,,,,,,,,
1732157908.536710,1732157908.539707,98.000000,0.000000,4354.102539,4324.358887,4322.563965,4304.615234,4248.974121,4251.666504,4334.358887,4400.512695,4297.820313,4281.794922,4507.307617,4537.179688,4411.538574,4491.025879,1529.000000,1.000000,22.000000,,,,0.000000,2.000000,2.000000,0.000000,4.000000,2.000000,2.000000,0.000000,0.000000,4.000000,4.000000,4.000000,4.000000,4.000000,4.000000,0.000000,,,,,,,,,,,,,,,,,,,,,,,,,,,,
1732157908.544518,1732157908.547515,99.000000,0.000000,4359.615234,4328.974121,4319.487305,4306.538574,4249.358887,4250.769043,4334.615234,4402.692383,4298.846191,4282.820313,4515.384766,4542.179688,4412.436035,4490.769043,1566.000000,1.000000,22.000000,,,,0.000000,2.000000,2.000000,0.000000,4.000000,2.000000,2.000000,0.000000,0.000000,4.000000,4.000000,4.000000,4.000000,4.000000,4.000000,0.000000,,,,,,,,,,,,,,,,,,,,,,,,,,,,
1732157908.552326,1732157908.555423,100.000000,0.000000,4357.948730,4330.641113,4319.358887,4313.461426,4247.948730,4247.179688,4336.153809,4402.948730,4295.128418,4280.128418,4519.743652,4538.205078,4404.230957,4491.025879,1701.000000,1.000000,22.000000,,,,0.000000,2.000000,2.000000,0.000000,4.000000,2.000000,2.000000,0.000000,0.000000,4.000000,4.000000,4.000000,4.000000,4.000000,4.000000,0.000000,,,,,,,,,,,,,,,,,25.000000,0.000000,0.524249,0.494263,-0.527283,0.450378,0.967892,0.062996,-0.041021,-34.469570,46.070808,30.991768
1732157908.560135,1732157908.563231,101.000000,0.000000,4354.102539,4324.615234,4320.000000,4311.025879,4253.589844,4249.743652,4335.769043,4401.794922,4294.230957,4282.692383,4516.153809,4537.948730,4401.666504,4492.436035,1613.000000,1.000000,22.000000,,,,0.000000,2.000000,2.000000,0.000000,4.000000,2.000000,2.000000,0.000000,0.000000,4.000000,4.000000,4.000000,4.000000,4.000000,4.000000,0.000000,,,,,,,,,,,,,,,,,,,,,,,,,,,,
1732157908.567943,1732157908.571239,102.000000,0.000000,4352.563965,4322.436035,4321.666504,4310.256348,4264.358887,4254.743652,4334.358887,4400.512695,4296.282227,4284.102539,4510.384766,4540.641113,4398.717773,4490.384766,1529.000000,1.000000,22.000000,,,,0.000000,2.000000,2.000000,0.000000,4.000000,2.000000,2.000000,0.000000,0.000000,4.000000,4.000000,4.000000,4.000000,4.000000,4.000000,0.000000,,,,,,,,,,,,,,,,,,,,,,,,,,,,
1732157908.575751,1732157908.579047,103.000000,0.000000,4352.948730,4323.974121,4322.820313,4315.128418,4268.077148,4252.692383,4335.128418,4399.487305,4294.102539,4278.077148,4507.436035,4529.615234,4384.871582,4482.692383,1566.000000,1.000000,22.000000,,,,0.000000,2.000000,2.000000,0.000000,4.000000,2.000000,2.000000,0.000000,0.000000,4.000000,4.000000,4.000000,4.000000,4.000000,4.000000,0.000000,,,,,,,,,,,,,,,,,,,,,,,,,,,,
1732157908.583559,1732157908.586956,104.000000,0.000000,4357.948730,4327.563965,4324.230957,4321.666504,4266.922852,4247.692383,4334.615234,4403.461426,4292.307617,4276.922852,4508.589844,4525.897461,4380.897461,4483.846191,1701.000000,1.000000,22.000000,,,,0.000000,2.000000,2.000000,0.000000,4.000000,2.000000,2.000000,0.000000,0.000000,4.000000,4.000000,4.000000,4.000000,4.000000,4.000000,0.000000,,,,,,,,,,,,,,,,,26.000000,0.000000,0.524253,0.493896,-0.527100,0.450989,0.990844,0.051276,-0.040532,-34.538685,45.835690,31.024998
1732157908.591368,1732157908.594764,105.000000,0.000000,4358.974121,4329.102539,4325.128418,4323.717773,4266.666504,4252.436035,4334.871582,4405.512695,4303.205078,4282.179688,4510.000000,4536.666504,4385.641113,4489.743652,1613.000000,1.000000,22.000000,,,,0.000000,2.000000,2.000000,0.000000,4.000000,2.000000,2.000000,0.000000,0.000000,4.000000,4.000000,4.000000,4.000000,4.000000,4.000000,0.000000,,,,,,,,,,,,,,,,,,,,,,,,,,,,
1732157908.599176,1732157908.602372,106.000000,0.000000,4351.025879,4323.333496,4325.641113,4316.282227,4266.922852,4263.461426,4336.410156,4401.282227,4312.436035,4281.282227,4506.922852,4536.922852,4379.102539,4477.436035,1529.000000,1.000000,22.000000,,,,0.000000,2.000000,2.000000,0.000000,4.000000,2.000000,2.000000,0.000000,0.000000,4.000000,4.000000,4.000000,4.000000,4.000000,4.000000,0.000000,,,,,,,,,,,,,,,,,,,,,,,,,,,,
1732157908.606984,1732157908.610180,107.000000,0.000000,4353.077148,4322.051270,4327.051270,4316.410156,4265.641113,4262.692383,4335.641113,4401.282227,4304.102539,4276.410156,4503.205078,4528.974121,4374.743652,4471.410156,1566.000000,1.000000,22.000000,,,,0.000000,2.000000,2.000000,0.000000,4.000000,2.000000,2.000000,0.000000,0.000000,4.000000,4.000000,4.000000,4.000000,4.000000,4.000000,0.000000,,,,,,,,,,,,,,,,,,,,,,,,,,,,
1732157908.614792,1732157908.617889,108.000000,0.000000,4363.205078,4326.538574,4326.666504,4324.102539,4264.871582,4251.282227,4335.000000,4403.589844,4291.666504,4281.025879,4507.051270,4533.077148,4381.794922,4489.102539,1701.000000,1.000000,22.000000,,,,0.000000,2.000000,2.000000,0.000000,4.000000,2.000000,2.000000,0.000000,0.000000,4.000000,4.000000,4.000000,4.000000,4.000000,4.000000,0.000000,,,,,,,,,,,,,,,,,27.000000,0.000000,0.522462,0.492065,-0.528809,0.453064,0.981565,0.001953,-0.036137,-34.523003,45.895241,30.993582
1732157908.622600,1732157908.625697,109.000000,0.000000,4362.948730,4326.666504,4326.922852,4321.538574,4267.692383,4248.846191,4335.641113,4401.922852,4288.589844,4283.205078,4508.974121,4541.025879,4383.846191,4496.666504,1613.000000,1.000000,22.000000,,,,0.000000,2.000000,2.000000,0.000000,4.000000,2.000000,2.000000,0.000000,0.000000,4.000000,4.000000,4.000000,4.000000,4.000000,4.000000,0.000000,,,,,,,,,,,,,,,,,,,,,,,,,,,,
1732157908.630409,1732157908.633705,110.000000,0.000000,4357.563965,4325.384766,4328.846191,4317.307617,4270.000000,4257.692383,4335.000000,4404.871582,4287.307617,4280.000000,4504.871582,4539.743652,4377.820313,4486.922852,1529.000000,1.000000,22.000000,,,,0.000000,2.000000,2.000000,0.000000,4.000000,2.000000,2.000000,0.000000,0.000000,4.000000,4.000000,4.000000,4.000000,4.000000,4.000000,0.000000,,,,,,,,,,,,,,,,,,,,,,,,,,,,
1732157908.638217,1732157908.641513,111.000000,0.000000,4358.205078,4320.000000,4328.846191,4323.333496,4267.051270,4265.000000,4334.102539,4408.846191,4287.948730,4288.974121,4505.256348,4539.487305,4373.589844,4485.128418,1566.000000,1.000000,22.000000,,,,0.000000,2.000000,2.000000,0.000000,4.000000,2.000000,2.000000,0.000000,0.000000,4.000000,4.000000,4.000000,4.000000,4.000000,4.000000,0.000000,,,,,,,,,,,,,,,,,,,,,,,,,,,,
1732157908.646025,1732157908.649421,112.000000,0.000000,4362.436035,4310.769043,4326.153809,4322.179688,4274.615234,4258.974121,4335.641113,4404.102539,4280.256348,4292.692383,4507.179688,4539.487305,4374.871582,4489.230957,1701.000000,1.000000,22.000000,,,,0.000000,2.000000,2.000000,0.000000,4.000000,2.000000,2.000000,0.000000,0.000000,4.000000,4.000000,4.000000,4.000000,4.000000,4.000000,0.000000,,,,,,,,,,,,,,,,,28.000000,0.000000,0.521629,0.490479,-0.530579,0.453674,0.967892,0.004883,-0.045904,-34.745300,45.916813,31.041468
1732157908.653834,1732157908.657229,113.000000,0.000000,4365.512695,4314.743652,4326.153809,4318.846191,4291.025879,4249.358887,4335.641113,4400.641113,4266.282227,4277.948730,4505.000000,4536.666504,4376.538574,4490.128418,1613.000000,1.000000,22.000000,,,,0.000000,2.000000,2.000000,0.000000,4.000000,2.000000,2.000000,0.000000,0.000000,4.000000,4.000000,4.000000,4.000000,4.000000,4.000000,0.000000,,,,,,,,,,,,,,,,,,,,,,,,,,,,
1732157908.661642,1732157908.665237,114.000000,0.000000,4364.230957,4317.051270,4326.666504,4322.307617,4282.692383,4254.358887,4333.589844,4403.461426,4270.384766,4279.102539,4503.974121,4541.410156,4370.641113,4489.743652,1529.000000,1.000000,22.000000,,,,0.000000,2.000000,2.000000,0.000000,4.000000,2.000000,2.000000,0.000000,0.000000,4.000000,4.000000,4.000000,4.000000,4.000000,4.000000,0.000000,,,,,,,,,,,,,,,,,,,,,,,,,,,,
1732157908.669450,1732157908.673046,115.000000,0.000000,4358.205078,4301.410156,4326.538574,4320.000000,4264.487305,4265.641113,4333.333496,4405.384766,4277.692383,4297.563965,4507.307617,4551.153809,4366.666504,4490.128418,1566.000000,1.000000,22.000000,,,,0.000000,2.000000,2.000000,0.000000,4.000000,2.000000,2.000000,0.000000,0.000000,4.000000,4.000000,4.000000,4.000000,4.000000,4.000000,0.000000,,,,,,,,,,,,,,,,,,,,,,,,,,,,
1732157908.677258,1732157908.680954,116.000000,0.000000,4358.205078,4297.179688,4325.512695,4321.025879,4272.051270,4266.410156,4334.487305,4404.230957,4265.897461,4289.230957,4505.256348,4546.410156,4368.077148,4491.794922,1701.000000,1.000000,22.000000,,,,0.000000,2.000000,2.000000,0.000000,4.000000,2.000000,2.000000,0.000000,0.000000,4.000000,4.000000,4.000000,4.000000,4.000000,4.000000,0.000000,,,,,,,,,,,,,,,,,29.000000,0.000000,0.521697,0.489868,-0.531128,0.453613,0.964473,0.015627,-0.047857,-34.952026,45.710953,31.318588
1732157908.685067,1732157908.688762,117.000000,0.000000,4357.179688,4300.000000,4325.256348,4322.692383,4282.051270,4261.153809,4335.256348,4401.794922,4260.769043,4276.666504,4504.102539,4535.641113,4367.307617,4489.102539,1613.000000,1.000000,22.000000,,,,0.000000,2.000000,2.000000,0.000000,4.000000,2.000000,2.000000,0.000000,0.000000,4.000000,4.000000,4.000000,4.000000,4.000000,4.000000,0.000000,,,,,,,,,,,,,,,,,,,,,,,,,,,,
1732157908.692875,1732157908.696770,118.000000,0.000000,4349.358887,4284.871582,4325.256348,4314.743652,4277.692383,4265.128418,4335.641113,4400.897461,4275.128418,4293.077148,4504.230957,4536.538574,4364.871582,4479.743652,1529.000000,1.000000,22.000000,,,,0.000000,2.000000,2.000000,0.000000,4.000000,2.000000,2.000000,0.000000,0.000000,4.000000,4.000000,4.000000,4.000000,4.000000,4.000000,0.000000,,,,,,,,,,,,,,,,,,,,,,,,,,,,
1732157908.700683,1732157908.704578,119.000000,0.000000,4348.846191,4276.025879,4325.512695,4312.436035,4279.230957,4269.230957,4335.897461,4402.436035,4277.948730,4300.641113,4496.794922,4539.615234,4363.717773,4475.641113,1566.000000,1.000000,22.000000,,,,0.000000,2.000000,2.000000,0.000000,4.000000,2.000000,2.000000,0.000000,0.000000,4.000000,4.000000,4.000000,4.000000,4.000000,4.000000,0.000000,,,,,,,,,,,,,,,,,,,,,,,,,,,,
1732157908.708491,1732157908.712486,120.000000,0.000000,4352.307617,4283.974121,4326.282227,4318.205078,4282.051270,4263.974121,4335.897461,4402.051270,4263.974121,4284.487305,4495.000000,4538.205078,4358.077148,4477.307617,1701.000000,1.000000,22.000000,,,,0.000000,2.000000,2.000000,0.000000,4.000000,2.000000,2.000000,0.000000,0.000000,4.000000,4.000000,4.000000,4.000000,4.000000,4.000000,0.000000,,,,,,,,,,,,,,,,,30.000000,0.000000,0.521738,0.488953,-0.531982,0.453552,0.988402,0.010255,-0.049322,-34.987808,45.480869,31.289724
1732157908.716299,1732157908.720295,121.000000,0.000000,4350.641113,4282.179688,4327.436035,4320.512695,4282.436035,4265.641113,4335.897461,4401.025879,4261.538574,4277.948730,4500.000000,4539.487305,4349.230957,4475.128418,1613.000000,1.000000,22.000000,,,,0.000000,2.000000,2.000000,0.000000,4.000000,2.000000,2.000000,0.000000,0.000000,4.000000,4.000000,4.000000,4.000000,4.000000,4.000000,0.000000,,,,,,,,,,,,,,,,,,,,,,,,,,,,
1732157908.724108,1732157908.727903,122.000000,0.000000,4350.384766,4275.256348,4325.769043,4318.717773,4289.615234,4275.128418,4335.897461,4399.871582,4269.871582,4287.948730,4498.205078,4543.974121,4346.922852,4473.846191,1529.000000,1.000000,22.000000,,,,0.000000,2.000000,2.000000,0.000000,4.000000,2.000000,2.000000,0.000000,0.000000,4.000000,4.000000,4.000000,4.000000,4.000000,4.000000,0.000000,,,,,,,,,,,,,,,,,,,,,,,,,,,,
1732157908.731916,1732157908.735711,123.000000,0.000000,4349.871582,4277.051270,4326.666504,4317.307617,4290.256348,4276.410156,4336.025879,4400.000000,4271.794922,4288.717773,4490.897461,4543.717773,4346.025879,4472.948730,1566.000000,1.000000,22.000000,,,,0.000000,2.000000,2.000000,0.000000,4.000000,2.000000,2.000000,0.000000,0.000000,4.000000,4.000000,4.000000,4.000000,4.000000,4.000000,0.000000,,,,,,,,,,,,,,,,,,,,,,,,,,,,
1732157908.739724,1732157908.743419,124.000000,0.000000,4343.846191,4272.179688,4323.333496,4316.538574,4288.846191,4274.615234,4335.897461,4401.922852,4271.410156,4280.897461,4489.230957,4532.692383,4340.897461,4464.615234,1701.000000,1.000000,22.000000,,,,0.000000,2.000000,2.000000,0.000000,4.000000,2.000000,2.000000,0.000000,0.000000,4.000000,4.000000,4.000000,4.000000,4.000000,4.000000,0.000000,,,,,,,,,,,,,,,,,31.000000,0.000000,0.520818,0.487305,-0.533508,0.454590,0.974728,0.020022,-0.048346,-34.883457,45.461170,31.183010
1732157908.747532,1732157908.751228,125.000000,0.000000,4340.512695,4261.666504,4316.538574,4315.769043,4292.307617,4280.897461,4335.769043,4401.153809,4277.179688,4281.922852,4491.794922,4525.512695,4336.538574,4458.077148,1613.000000,1.000000,22.000000,,,,0.000000,2.000000,2.000000,0.000000,4.000000,2.000000,2.000000,0.000000,0.000000,4.000000,4.000000,4.000000,4.000000,4.000000,4.000000,0.000000,,,,,,,,,,,,,,,,,,,,,,,,,,,,
1732157908.755341,1732157908.758836,126.000000,0.000000,4342.436035,4258.461426,4333.077148,4311.538574,4290.256348,4281.282227,4336.153809,4403.461426,4272.436035,4282.692383,4487.179688,4530.256348,4331.538574,4460.384766,1529.000000,1.000000,22.000000,,,,0.000000,2.000000,2.000000,0.000000,4.000000,2.000000,2.000000,0.000000,0.000000,4.000000,4.000000,4.000000,4.000000,4.000000,4.000000,0.000000,,,,,,,,,,,,,,,,,,,,,,,,,,,,
1732157908.763149,1732157908.766644,127.000000,0.000000,4342.948730,4261.666504,4351.025879,4312.179688,4288.846191,4276.922852,4337.179688,4407.948730,4259.487305,4273.205078,4477.692383,4527.820313,4323.461426,4460.256348,22.000000,1.000000,22.000000,,,,0.000000,2.000000,2.000000,0.000000,4.000000,2.000000,2.000000,0.000000,0.000000,4.000000,4.000000,4.000000,4.000000,4.000000,4.000000,0.000000,,,,,,,,,,,,,,,,,,,,,,,,,,,,
1732157908.770957,1732157908.774353,0.000000,0.000000,4341.794922,4262.307617,4332.948730,4318.974121,4295.000000,4281.282227,4336.025879,4404.615234,4264.230957,4275.128418,4478.077148,4520.128418,4325.384766,4456.922852,0.000000,1.000000,22.000000,,,,0.000000,2.000000,2.000000,0.000000,4.000000,2.000000,2.000000,0.000000,0.000000,4.000000,4.000000,4.000000,4.000000,4.000000,4.000000,0.000000,,,,,,,,,,,,,,,,,0.000000,0.000000,0.520305,0.486938,-0.533875,0.455139,0.974728,0.020022,-0.048346,-34.930599,45.456882,31.106571
1732157908.778766,1732157908.782161,1.000000,0.000000,4340.512695,4261.538574,4311.153809,4319.615234,4296.282227,4280.897461,4333.077148,4397.948730,4279.743652,4291.666504,4490.897461,4521.538574,4338.846191,4457.948730,1611.000000,1.000000,22.000000,,,,0.000000,2.000000,2.000000,0.000000,4.000000,2.000000,2.000000,0.000000,0.000000,4.000000,4.000000,4.000000,4.000000,4.000000,4.000000,0.000000,,,,,,,,,,,,,,,,,,,,,,,,,,,,
1732157908.786574,1732157908.789769,2.000000,0.000000,4336.666504,4260.769043,4318.333496,4314.102539,4294.615234,4279.615234,4333.461426,4400.128418,4280.641113,4293.589844,4493.333496,4523.717773,4337.692383,4454.358887,1362.000000,1.000000,22.000000,,,,0.000000,2.000000,2.000000,0.000000,4.000000,2.000000,2.000000,0.000000,0.000000,4.000000,4.000000,4.000000,4.000000,4.000000,4.000000,0.000000,,,,,,,,,,,,,,,,,,,,,,,,,,,,
1732157908.794382,1732157908.797577,3.000000,0.000000,4328.974121,4253.717773,4324.487305,4311.538574,4296.922852,4290.641113,4336.025879,4403.589844,4278.589844,4286.794922,4483.333496,4520.384766,4325.641113,4446.922852,1436.000000,1.000000,22.000000,,,,0.000000,2.000000,2.000000,0.000000,4.000000,2.000000,2.000000,0.000000,0.000000,4.000000,4.000000,4.000000,4.000000,4.000000,4.000000,0.000000,,,,,,,,,,,,,,,,,,,,,,,,,,,,
1732157908.802190,1732157908.805286,4.000000,0.000000,4323.974121,4244.871582,4319.743652,4309.358887,4295.000000,4292.179688,4335.128418,4400.897461,4281.538574,4286.538574,4480.897461,4521.282227,4323.717773,4443.333496,1426.000000,1.000000,22.000000,,,,0.000000,2.000000,2.000000,0.000000,4.000000,2.000000,2.000000,0.000000,0.000000,4.000000,4.000000,4.000000,4.000000,4.000000,4.000000,0.000000,,,,,,,,,,,,,,,,,1.000000,0.000000,0.519743,0.486633,-0.534180,0.455750,0.964962,-0.008790,-0.057624,-34.890453,45.401741,31.092989
1732157908.809998,1732157908.813094,5.000000,0.000000,4328.077148,4247.692383,4320.897461,4311.538574,4294.102539,4283.333496,4333.077148,4398.589844,4280.000000,4282.307617,4485.897461,4523.333496,4329.487305,4444.871582,1217.000000,1.000000,22.000000,,,,0.000000,2.000000,2.000000,0.000000,4.000000,2.000000,2.000000,0.000000,0.000000,4.000000,4.000000,4.000000,4.000000,4.000000,4.000000,0.000000,,,,,,,,,,,,,,,,,,,,,,,,,,,,
1732157908.817807,1732157908.820702,6.000000,0.000000,4334.743652,4259.358887,4322.820313,4319.487305,4297.307617,4287.563965,4333.974121,4400.384766,4278.589844,4279.743652,4486.153809,4522.563965,4328.717773,4452.307617,0.000000,1.000000,22.000000,,,,0.000000,2.000000,2.000000,0.000000,4.000000,2.000000,2.000000,0.000000,0.000000,4.000000,4.000000,4.000000,4.000000,4.000000,4.000000,0.000000,,,,,,,,,,,,,,,,,,,,,,,,,,,,
1732157908.825615,1732157908.828511,7.000000,0.000000,4336.666504,4260.128418,4322.692383,4320.000000,4297.563965,4291.153809,4335.256348,4402.563965,4281.282227,4290.384766,4485.256348,4522.307617,4325.641113,4453.846191,0.000000,1.000000,22.000000,,,,0.000000,2.000000,2.000000,0.000000,4.000000,2.000000,2.000000,0.000000,0.000000,4.000000,4.000000,4.000000,4.000000,4.000000,4.000000,0.000000,,,,,,,,,,,,,,,,,,,,,,,,,,,,
1732157908.833423,1732157908.836219,8.000000,0.000000,4333.974121,4251.794922,4323.333496,4312.948730,4295.769043,4282.948730,4334.743652,4401.410156,4282.179688,4296.538574,4485.512695,4522.179688,4327.692383,4447.563965,1539.000000,1.000000,22.000000,,,,0.000000,2.000000,2.000000,0.000000,4.000000,2.000000,2.000000,0.000000,0.000000,4.000000,4.000000,4.000000,4.000000,4.000000,4.000000,0.000000,,,,,,,,,,,,,,,,,2.000000,0.000000,0.518110,0.484619,-0.536133,0.457458,0.979612,-0.008302,-0.045904,-34.959599,45.275410,31.216988
1732157908.841231,1732157908.844027,9.000000,0.000000,4328.717773,4248.846191,4323.077148,4310.769043,4295.512695,4282.692383,4334.615234,4401.538574,4281.666504,4293.205078,4482.563965,4522.563965,4323.846191,4443.846191,1698.000000,1.000000,22.000000,,,,0.000000,2.000000,2.000000,0.000000,4.000000,2.000000,2.000000,0.000000,0.000000,4.000000,4.000000,4.000000,4.000000,4.000000,4.000000,0.000000,,,,,,,,,,,,,,,,,,,,,,,,,,,,
1732157908.849040,1732157908.851636,10.000000,0.000000,4325.512695,4251.282227,4321.282227,4313.077148,4296.025879,4290.641113,4334.871582,4407.051270,4283.077148,4292.051270,4476.922852,4522.051270,4314.615234,4445.897461,1558.000000,1.000000,22.000000,,,,0.000000,2.000000,2.000000,0.000000,4.000000,2.000000,2.000000,0.000000,0.000000,4.000000,4.000000,4.000000,4.000000,4.000000,4.000000,0.000000,,,,,,,,,,,,,,,,,,,,,,,,,,,,
1732157908.856848,1732157908.859444,11.000000,0.000000,4326.538574,4251.025879,4319.358887,4313.333496,4296.410156,4293.974121,4334.615234,4409.871582,4282.692383,4293.205078,4474.743652,4521.282227,4312.179688,4439.230957,1566.000000,1.000000,22.000000,,,,0.000000,2.000000,2.000000,0.000000,4.000000,2.000000,2.000000,0.000000,0.000000,4.000000,4.000000,4.000000,4.000000,4.000000,4.000000,0.000000,,,,,,,,,,,,,,,,,,,,,,,,,,,,
1732157908.864656,1732157908.867152,12.000000,0.000000,4326.282227,4248.333496,4321.538574,4313.589844,4296.538574,4289.487305,4334.871582,4409.102539,4281.922852,4292.820313,4474.102539,4521.282227,4313.333496,4428.846191,1701.000000,1.000000,22.000000,,,,0.000000,2.000000,2.000000,0.000000,4.000000,2.000000,2.000000,0.000000,0.000000,4.000000,4.000000,4.000000,4.000000,4.000000,4.000000,0.000000,,,,,,,,,,,,,,,,,3.000000,0.000000,0.517330,0.482971,-0.537537,0.458435,0.984495,-0.002442,-0.048834,-35.113941,45.244751,31.135759
1732157908.872465,1732157908.874960,13.000000,0.000000,4325.128418,4251.153809,4321.282227,4315.384766,4297.563965,4284.230957,4334.358887,4405.384766,4282.820313,4293.846191,4477.179688,4522.051270,4316.025879,4433.846191,1608.000000,1.000000,22.000000,,,,0.000000,2.000000,2.000000,0.000000,4.000000,2.000000,2.000000,0.000000,0.000000,4.000000,4.000000,4.000000,4.000000,4.000000,4.000000,0.000000,,,,,,,,,,,,,,,,,,,,,,,,,,,,
1732157908.880273,1732157908.882968,14.000000,0.000000,4327.179688,4253.077148,4317.692383,4314.358887,4299.487305,4284.615234,4333.333496,4399.743652,4278.974121,4295.641113,4481.410156,4522.179688,4322.563965,4443.717773,1558.000000,1.000000,22.000000,,,,0.000000,2.000000,2.000000,0.000000,4.000000,2.000000,2.000000,0.000000,0.000000,4.000000,4.000000,4.000000,4.000000,4.000000,4.000000,0.000000,1.000000,0.000000,2.000000,2.000000,0.000000,4.000000,2.000000,2.000000,0.000000,0.000000,4.000000,4.000000,4.000000,4.000000,4.000000,4.000000,,,,,,,,,,,,
1732157908.888081,1732157908.890776,15.000000,0.000000,4326.666504,4254.487305,4317.820313,4313.846191,4301.794922,4284.871582,4333.333496,4398.974121,4274.871582,4294.230957,4478.461426,4518.205078,4324.230957,4442.948730,1566.000000,1.000000,22.000000,,,,0.000000,2.000000,2.000000,0.000000,4.000000,2.000000,2.000000,0.000000,0.000000,4.000000,4.000000,4.000000,4.000000,4.000000,4.000000,0.000000,,,,,,,,,,,,,,,,,,,,,,,,,,,,
1732157908.895889,1732157908.898485,16.000000,0.000000,4324.102539,4255.769043,4321.153809,4315.000000,4301.666504,4281.922852,4334.743652,4401.666504,4280.384766,4297.820313,4476.794922,4516.282227,4318.589844,4434.743652,0.000000,1.000000,22.000000,,,,0.000000,2.000000,2.000000,0.000000,4.000000,2.000000,2.000000,0.000000,0.000000,4.000000,4.000000,4.000000,4.000000,4.000000,4.000000,0.000000,,,,,,,,,,,,,,,,,4.000000,0.000000,0.517080,0.482483,-0.537903,0.458801,0.984495,-0.002442,-0.048834,-35.123959,45.039913,31.268299
1732157908.903697,1732157908.906293,17.000000,0.000000,4324.230957,4254.230957,4321.538574,4316.025879,4304.871582,4281.666504,4336.025879,4400.384766,4283.461426,4296.922852,4477.179688,4520.769043,4316.538574,4430.384766,0.000000,1.000000,22.000000,,,,0.000000,2.000000,2.000000,0.000000,4.000000,2.000000,2.000000,0.000000,0.000000,4.000000,4.000000,4.000000,4.000000,4.000000,4.000000,0.000000,,,,,,,,,,,,,,,,,,,,,,,,,,,,
1732157908.911506,1732157908.913901,18.000000,0.000000,4325.384766,4251.794922,4318.205078,4315.000000,4303.589844,4283.205078,4335.641113,4399.102539,4276.922852,4287.051270,4474.615234,4522.307617,4318.205078,4435.769043,0.000000,1.000000,22.000000,,,,0.000000,2.000000,2.000000,0.000000,4.000000,2.000000,2.000000,0.000000,0.000000,4.000000,4.000000,4.000000,4.000000,4.000000,4.000000,0.000000,,,,,,,,,,,,,,,,,,,,,,,,,,,,
1732157908.919314,1732157908.921710,19.000000,0.000000,4326.025879,4250.769043,4319.743652,4312.051270,4293.589844,4282.820313,4334.871582,4402.179688,4275.897461,4288.077148,4477.051270,4520.512695,4318.589844,4442.179688,0.000000,1.000000,22.000000,,,,0.000000,2.000000,2.000000,0.000000,4.000000,2.000000,2.000000,0.000000,0.000000,4.000000,4.000000,4.000000,4.000000,4.000000,4.000000,0.000000,,,,,,,,,,,,,,,,,,,,,,,,,,,,
1732157908.927122,1732157908.929418,20.000000,0.000000,4325.256348,4254.743652,4323.205078,4311.666504,4303.205078,4285.256348,4335.897461,4401.538574,4279.615234,4294.102539,4477.563965,4521.794922,4320.512695,4439.487305,0.000000,1.000000,22.000000,,,,0.000000,2.000000,2.000000,0.000000,4.000000,2.000000,2.000000,0.000000,0.000000,4.000000,4.000000,4.000000,4.000000,4.000000,4.000000,0.000000,,,,,,,,,,,,,,,,,5.000000,0.000000,0.516438,0.482056,-0.538330,0.459473,0.973752,-0.006837,-0.046881,-35.255409,45.062328,31.182322
1732157908.934930,1732157908.937226,21.000000,0.000000,4327.179688,4262.051270,4322.436035,4316.922852,4322.563965,4278.461426,4335.897461,4399.487305,4277.179688,4291.410156,4476.282227,4524.358887,4324.230957,4435.897461,0.000000,1.000000,22.000000,,,,0.000000,2.000000,2.000000,0.000000,4.000000,2.000000,2.000000,0.000000,0.000000,4.000000,4.000000,4.000000,4.000000,4.000000,4.000000,0.000000,,,,,,,,,,,,,,,,,,,,,,,,,,,,
1732157908.942739,1732157908.945234,22.000000,0.000000,4331.922852,4265.897461,4318.077148,4323.077148,4309.358887,4271.666504,4334.230957,4399.102539,4276.025879,4291.025879,4484.615234,4525.256348,4325.897461,4440.512695,0.000000,1.000000,22.000000,,,,0.000000,2.000000,2.000000,0.000000,4.000000,2.000000,2.000000,0.000000,0.000000,4.000000,4.000000,4.000000,4.000000,4.000000,4.000000,0.000000,,,,,,,,,,,,,,,,,,,,,,,,,,,,
1732157908.950547,1732157908.953042,23.000000,0.000000,4331.410156,4260.769043,4318.333496,4320.256348,4282.563965,4279.487305,4334.615234,4398.717773,4279.487305,4298.461426,4489.487305,4525.769043,4326.922852,4438.589844,0.000000,1.000000,22.000000,,,,0.000000,2.000000,2.000000,0.000000,4.000000,2.000000,2.000000,0.000000,0.000000,4.000000,4.000000,4.000000,4.000000,4.000000,4.000000,0.000000,,,,,,,,,,,,,,,,,,,,,,,,,,,,
1732157908.958355,1732157908.960950,24.000000,0.000000,4325.897461,4258.333496,4321.025879,4314.743652,4284.102539,4285.512695,4336.025879,4399.615234,4279.358887,4297.820313,4481.025879,4522.051270,4326.153809,4430.000000,0.000000,1.000000,22.000000,,,,0.000000,2.000000,2.000000,0.000000,4.000000,2.000000,2.000000,0.000000,0.000000,4.000000,4.000000,4.000000,4.000000,4.000000,4.000000,0.000000,,,,,,,,,,,,,,,,,6.000000,0.000000,0.516454,0.482117,-0.538208,0.459534,0.987914,-0.000977,-0.039556,-35.368546,45.117153,31.169348
1732157908.966164,1732157908.968759,25.000000,0.000000,4323.974121,4261.410156,4321.153809,4318.333496,4294.743652,4281.666504,4335.641113,4402.307617,4275.512695,4285.641113,4474.102539,4517.820313,4320.256348,4427.051270,0.000000,1.000000,22.000000,,,,0.000000,2.000000,2.000000,0.000000,4.000000,2.000000,2.000000,0.000000,0.000000,4.000000,4.000000,4.000000,4.000000,4.000000,4.000000,0.000000,,,,,,,,,,,,,,,,,,,,,,,,,,,,
1732157908.973972,1732157908.976767,26.000000,0.000000,4325.128418,4261.025879,4320.512695,4322.179688,4291.922852,4280.256348,4335.769043,4401.666504,4274.871582,4280.641113,4475.128418,4518.717773,4316.410156,4426.410156,0.000000,1.000000,22.000000,,,,0.000000,2.000000,2.000000,0.000000,4.000000,2.000000,2.000000,0.000000,0.000000,4.000000,4.000000,4.000000,4.000000,4.000000,4.000000,0.000000,,,,,,,,,,,,,,,,,,,,,,,,,,,,
1732157908.981780,1732157908.984575,27.000000,0.000000,4325.256348,4261.794922,4320.641113,4322.179688,4288.717773,4281.666504,4335.000000,4398.205078,4276.666504,4286.666504,4477.436035,4524.871582,4319.358887,4426.410156,0.000000,1.000000,22.000000,,,,0.000000,2.000000,2.000000,0.000000,4.000000,2.000000,2.000000,0.000000,0.000000,4.000000,4.000000,4.000000,4.000000,4.000000,4.000000,0.000000,,,,,,,,,,,,,,,,,,,,,,,,,,,,
1732157908.989588,1732157908.992483,28.000000,0.000000,4325.256348,4264.230957,4321.153809,4322.820313,4291.025879,4280.128418,4332.948730,4399.358887,4280.128418,4293.461426,4478.589844,4529.615234,4320.128418,4426.666504,0.000000,1.000000,22.000000,,,,0.000000,2.000000,2.000000,0.000000,4.000000,2.000000,2.000000,0.000000,0.000000,4.000000,4.000000,4.000000,4.000000,4.000000,4.000000,0.000000,,,,,,,,,,,,,,,,,7.000000,0.000000,0.516454,0.482117,-0.538208,0.459534,0.982542,0.007813,-0.035161,-35.370190,45.266560,31.143839
1732157908.997396,1732157909.000291,29.000000,0.000000,4319.871582,4263.717773,4321.922852,4318.205078,4292.948730,4280.256348,4334.487305,4401.794922,4280.128418,4293.333496,4477.820313,4524.102539,4317.692383,4420.897461,0.000000,1.000000,22.000000,,,,0.000000,2.000000,2.000000,0.000000,4.000000,2.000000,2.000000,0.000000,0.000000,4.000000,4.000000,4.000000,4.000000,4.000000,4.000000,0.000000,,,,,,,,,,,,,,,,,,,,,,,,,,,,
1732157909.005205,1732157909.007900,30.000000,0.000000,4313.077148,4261.410156,4319.615234,4312.692383,4291.666504,4281.282227,4336.666504,4400.384766,4281.410156,4292.563965,4476.025879,4518.846191,4318.205078,4418.077148,0.000000,1.000000,22.000000,,,,0.000000,2.000000,2.000000,0.000000,4.000000,2.000000,2.000000,0.000000,0.000000,4.000000,4.000000,4.000000,4.000000,4.000000,4.000000,0.000000,,,,,,,,,,,,,,,,,,,,,,,,,,,,
1732157909.013013,1732157909.015708,31.000000,0.000000,4315.897461,4262.563965,4317.692383,4314.102539,4291.153809,4281.666504,4335.641113,4399.487305,4287.436035,4295.641113,4477.179688,4523.205078,4318.461426,4421.538574,0.000000,1.000000,22.000000,,,,0.000000,2.000000,2.000000,0.000000,4.000000,2.000000,2.000000,0.000000,0.000000,4.000000,4.000000,4.000000,4.000000,4.000000,4.000000,0.000000,,,,,,,,,,,,,,,,,,,,,,,,,,,,
1732157909.020821,1732157909.023616,32.000000,0.000000,4320.256348,4264.487305,4317.820313,4316.538574,4293.589844,4281.666504,4334.487305,4401.538574,4286.025879,4295.000000,4475.769043,4525.384766,4317.179688,4419.615234,0.000000,1.000000,22.000000,,,,0.000000,2.000000,2.000000,0.000000,4.000000,2.000000,2.000000,0.000000,0.000000,4.000000,4.000000,4.000000,4.000000,4.000000,4.000000,0.000000,,,,,,,,,,,,,,,,,8.000000,0.000000,0.516511,0.482056,-0.538208,0.459534,0.986449,0.010255,-0.038579,-35.334854,45.359249,31.334843
1732157909.028629,1732157909.031424,33.000000,0.000000,4319.487305,4264.102539,4318.717773,4314.230957,4292.820313,4281.410156,4335.256348,4400.512695,4280.641113,4294.102539,4474.358887,4522.307617,4321.282227,4417.051270,0.000000,1.000000,22.000000,,,,0.000000,2.000000,2.000000,0.000000,4.000000,2.000000,2.000000,0.000000,0.000000,4.000000,4.000000,4.000000,4.000000,4.000000,4.000000,0.000000,,,,,,,,,,,,,,,,,,,,,,,,,,,,
1732157909.036438,1732157909.039432,34.000000,0.000000,4318.077148,4262.436035,4318.717773,4313.589844,4287.307617,4282.051270,4336.666504,4398.333496,4279.871582,4294.871582,4475.897461,4522.820313,4326.153809,4423.461426,0.000000,1.000000,22.000000,,,,0.000000,2.000000,2.000000,0.000000,4.000000,2.000000,2.000000,0.000000,0.000000,4.000000,4.000000,4.000000,4.000000,4.000000,4.000000,0.000000,,,,,,,,,,,,,,,,,,,,,,,,,,,,
1732157909.044246,1732157909.047240,35.000000,0.000000,4318.077148,4262.436035,4318.589844,4314.615234,4287.051270,4281.153809,4336.025879,4400.256348,4277.179688,4292.948730,4477.563965,4523.717773,4327.820313,4427.307617,0.000000,1.000000,22.000000,,,,0.000000,2.000000,2.000000,0.000000,4.000000,2.000000,2.000000,0.000000,0.000000,4.000000,4.000000,4.000000,4.000000,4.000000,4.000000,0.000000,,,,,,,,,,,,,,,,,,,,,,,,,,,,
1732157909.052054,1732157909.055148,36.000000,0.000000,4320.897461,4264.102539,4319.487305,4312.948730,4294.230957,4280.641113,4334.230957,4402.307617,4273.205078,4290.769043,4477.948730,4524.102539,4328.589844,4426.538574,0.000000,1.000000,22.000000,,,,0.000000,2.000000,2.000000,0.000000,4.000000,2.000000,2.000000,0.000000,0.000000,4.000000,4.000000,4.000000,4.000000,4.000000,4.000000,0.000000,,,,,,,,,,,,,,,,,9.000000,0.000000,0.516401,0.482300,-0.538147,0.459473,0.967892,0.014650,-0.044927,-35.462898,45.362659,31.431223
1732157909.059863,1732157909.062957,37.000000,0.000000,4326.922852,4265.000000,4318.846191,4312.948730,4295.128418,4281.538574,4334.615234,4400.000000,4275.897461,4291.922852,4475.897461,4525.897461,4328.589844,4429.230957,0.000000,1.000000,22.000000,,,,0.000000,2.000000,2.000000,0.000000,4.000000,2.000000,2.000000,0.000000,0.000000,4.000000,4.000000,4.000000,4.000000,4.000000,4.000000,0.000000,,,,,,,,,,,,,,,,,,,,,,,,,,,,
1732157909.067671,1732157909.070965,38.000000,0.000000,4324.358887,4263.461426,4318.205078,4311.794922,4287.051270,4283.077148,4336.410156,4397.436035,4281.922852,4293.717773,4472.948730,4523.461426,4326.666504,4430.000000,0.000000,1.000000,22.000000,,,,0.000000,2.000000,2.000000,0.000000,4.000000,2.000000,2.000000,0.000000,0.000000,4.000000,4.000000,4.000000,4.000000,4.000000,4.000000,0.000000,,,,,,,,,,,,,,,,,,,,,,,,,,,,
1732157909.075479,1732157909.078773,39.000000,0.000000,4317.436035,4261.025879,4319.743652,4307.948730,4283.846191,4280.769043,4335.000000,4399.615234,4280.897461,4292.820313,4476.282227,4522.179688,4326.282227,4427.307617,0.000000,1.000000,22.000000,,,,0.000000,2.000000,2.000000,0.000000,4.000000,2.000000,2.000000,0.000000,0.000000,4.000000,4.000000,4.000000,4.000000,4.000000,4.000000,0.000000,,,,,,,,,,,,,,,,,,,,,,,,,,,,
1732157909.083287,1732157909.086681,40.000000,0.000000,4321.282227,4261.538574,4321.666504,4308.589844,4289.871582,4279.487305,4333.205078,4402.307617,4280.897461,4295.256348,4482.436035,4524.230957,4327.307617,4429.358887,0.000000,1.000000,22.000000,,,,0.000000,2.000000,2.000000,0.000000,4.000000,2.000000,2.000000,0.000000,0.000000,4.000000,4.000000,4.000000,4.000000,4.000000,4.000000,0.000000,,,,,,,,,,,,,,,,,10.000000,0.000000,0.515854,0.482788,-0.538025,0.459717,0.971310,0.015139,-0.041021,-35.713280,45.448753,31.305956
1732157909.091095,1732157909.094489,41.000000,0.000000,4326.922852,4264.743652,4320.384766,4315.512695,4294.615234,4283.717773,4334.487305,4401.538574,4286.025879,4297.820313,4480.256348,4523.846191,4327.179688,4431.410156,0.000000,1.000000,22.000000,,,,0.000000,2.000000,2.000000,0.000000,4.000000,2.000000,2.000000,0.000000,0.000000,4.000000,4.000000,4.000000,4.000000,4.000000,4.000000,0.000000,,,,,,,,,,,,,,,,,,,,,,,,,,,,
1732157909.098904,1732157909.102098,42.000000,0.000000,4326.410156,4265.641113,4318.461426,4318.461426,4290.769043,4289.230957,4335.256348,4400.769043,4285.128418,4294.871582,4473.846191,4522.948730,4325.897461,4429.358887,0.000000,1.000000,22.000000,,,,0.000000,2.000000,2.000000,0.000000,4.000000,2.000000,2.000000,0.000000,0.000000,4.000000,4.000000,4.000000,4.000000,4.000000,4.000000,0.000000,,,,,,,,,,,,,,,,,,,,,,,,,,,,
1732157909.106712,1732157909.109906,43.000000,0.000000,4323.461426,4264.102539,4317.948730,4312.948730,4295.256348,4287.436035,4334.230957,4401.025879,4279.615234,4294.358887,4473.974121,4518.589844,4328.461426,4429.230957,0.000000,1.000000,22.000000,,,,0.000000,2.000000,2.000000,0.000000,4.000000,2.000000,2.000000,0.000000,0.000000,4.000000,4.000000,4.000000,4.000000,4.000000,4.000000,0.000000,,,,,,,,,,,,,,,,,,,,,,,,,,,,
1732157909.114520,1732157909.117814,44.000000,0.000000,4321.153809,4264.102539,4317.692383,4310.128418,4304.743652,4281.538574,4335.000000,4401.410156,4285.641113,4298.077148,4478.589844,4516.153809,4335.128418,4430.641113,0.000000,1.000000,22.000000,,,,0.000000,2.000000,2.000000,0.000000,4.000000,2.000000,2.000000,0.000000,0.000000,4.000000,4.000000,4.000000,4.000000,4.000000,4.000000,0.000000,,,,,,,,,,,,,,,,,11.000000,0.000000,0.515854,0.482788,-0.538025,0.459717,0.976193,0.000488,-0.044439,-35.841091,45.443489,31.309492
1732157909.122328,1732157909.125622,45.000000,0.000000,4320.641113,4264.487305,4316.025879,4315.128418,4293.333496,4286.410156,4336.153809,4401.794922,4297.051270,4298.717773,4478.974121,4516.282227,4334.615234,4428.461426,0.000000,1.000000,22.000000,,,,0.000000,2.000000,2.000000,0.000000,4.000000,2.000000,2.000000,0.000000,0.000000,4.000000,4.000000,4.000000,4.000000,4.000000,4.000000,0.000000,,,,,,,,,,,,,,,,,,,,,,,,,,,,
1732157909.130137,1732157909.133230,46.000000,0.000000,4318.077148,4265.128418,4316.794922,4320.384766,4281.282227,4295.128418,4334.871582,4400.256348,4298.461426,4294.871582,4476.282227,4514.743652,4326.410156,4422.563965,0.000000,1.000000,22.000000,,,,0.000000,2.000000,2.000000,0.000000,4.000000,2.000000,2.000000,0.000000,0.000000,4.000000,4.000000,4.000000,4.000000,4.000000,4.000000,0.000000,,,,,,,,,,,,,,,,,,,,,,,,,,,,
1732157909.137945,1732157909.141039,47.000000,0.000000,4312.179688,4265.897461,4321.025879,4317.692383,4284.871582,4295.128418,4333.589844,4398.333496,4292.563965,4296.410156,4475.128418,4511.922852,4324.487305,4416.922852,0.000000,1.000000,22.000000,,,,0.000000,2.000000,2.000000,0.000000,4.000000,2.000000,2.000000,0.000000,0.000000,4.000000,4.000000,4.000000,4.000000,4.000000,4.000000,0.000000,,,,,,,,,,,,,,,,,,,,,,,,,,,,
1732157909.145753,1732157909.148747,48.000000,0.000000,4309.615234,4265.128418,4321.025879,4311.666504,4291.153809,4292.436035,4334.102539,4400.384766,4286.025879,4294.358887,4474.358887,4514.230957,4328.077148,4413.974121,0.000000,1.000000,22.000000,,,,0.000000,2.000000,2.000000,0.000000,4.000000,2.000000,2.000000,0.000000,0.000000,4.000000,4.000000,4.000000,4.000000,4.000000,4.000000,0.000000,,,,,,,,,,,,,,,,,12.000000,0.000000,0.514883,0.482971,-0.538269,0.460327,0.989867,0.013674,-0.053717,-35.654617,45.495892,31.280687
1732157909.153561,1732157909.156555,49.000000,0.000000,4310.000000,4264.615234,4316.922852,4310.128418,4298.333496,4293.717773,4333.846191,4402.051270,4278.717773,4280.256348,4472.051270,4513.974121,4325.512695,4413.333496,0.000000,1.000000,22.000000,,,,0.000000,2.000000,2.000000,0.000000,4.000000,2.000000,2.000000,0.000000,0.000000,4.000000,4.000000,4.000000,4.000000,4.000000,4.000000,0.000000,,,,,,,,,,,,,,,,,,,,,,,,,,,,
1732157909.161370,1732157909.164164,50.000000,0.000000,4308.717773,4264.871582,4316.538574,4311.410156,4299.230957,4294.615234,4333.077148,4400.384766,4281.153809,4277.948730,4471.922852,4513.077148,4323.846191,4413.077148,0.000000,1.000000,22.000000,,,,0.000000,2.000000,2.000000,0.000000,4.000000,2.000000,2.000000,0.000000,0.000000,4.000000,4.000000,4.000000,4.000000,4.000000,4.000000,0.000000,,,,,,,,,,,,,,,,,,,,,,,,,,,,
1732157909.169178,1732157909.171972,51.000000,0.000000,4308.077148,4263.717773,4318.974121,4310.769043,4283.589844,4294.743652,4333.846191,4400.769043,4291.794922,4291.922852,4473.589844,4514.743652,4327.692383,4411.538574,0.000000,1.000000,22.000000,,,,0.000000,2.000000,2.000000,0.000000,4.000000,2.000000,2.000000,0.000000,0.000000,4.000000,4.000000,4.000000,4.000000,4.000000,4.000000,0.000000,,,,,,,,,,,,,,,,,,,,,,,,,,,,
1732157909.176986,1732157909.179680,52.000000,0.000000,4308.333496,4261.666504,4315.641113,4307.307617,4274.615234,4293.717773,4334.230957,4401.794922,4295.000000,4294.487305,4471.410156,4508.846191,4326.538574,4410.769043,0.000000,1.000000,22.000000,,,,0.000000,2.000000,2.000000,0.000000,4.000000,2.000000,2.000000,0.000000,0.000000,4.000000,4.000000,4.000000,4.000000,4.000000,4.000000,0.000000,,,,,,,,,,,,,,,,,13.000000,0.000000,0.513637,0.483093,-0.538513,0.461304,0.982053,-0.005372,-0.048834,-35.391907,45.718342,31.260691
1732157909.184794,1732157909.187488,53.000000,0.000000,4308.974121,4261.922852,4315.512695,4303.974121,4281.666504,4287.436035,4333.717773,4400.641113,4293.717773,4288.589844,4470.384766,4508.846191,4325.512695,4412.692383,0.000000,1.000000,22.000000,,,,0.000000,2.000000,2.000000,0.000000,4.000000,2.000000,2.000000,0.000000,0.000000,4.000000,4.000000,4.000000,4.000000,4.000000,4.000000,0.000000,,,,,,,,,,,,,,,,,,,,,,,,,,,,
1732157909.192603,1732157909.195097,54.000000,0.000000,4311.538574,4264.102539,4317.820313,4307.307617,4286.025879,4284.102539,4333.846191,4400.897461,4296.153809,4292.563965,4472.948730,4520.512695,4328.589844,4415.512695,0.000000,1.000000,22.000000,,,,0.000000,2.000000,2.000000,0.000000,4.000000,2.000000,2.000000,0.000000,0.000000,4.000000,4.000000,4.000000,4.000000,4.000000,4.000000,0.000000,,,,,,,,,,,,,,,,,,,,,,,,,,,,
1732157909.200411,1732157909.202905,55.000000,0.000000,4311.282227,4263.717773,4317.563965,4311.025879,4286.794922,4286.410156,4333.974121,4402.307617,4298.077148,4296.538574,4473.717773,4523.461426,4329.102539,4415.384766,0.000000,1.000000,22.000000,,,,0.000000,2.000000,2.000000,0.000000,4.000000,2.000000,2.000000,0.000000,0.000000,4.000000,4.000000,4.000000,4.000000,4.000000,4.000000,0.000000,,,,,,,,,,,,,,,,,,,,,,,,,,,,
1732157909.208219,1732157909.210613,56.000000,0.000000,4307.948730,4263.333496,4316.794922,4308.717773,4288.077148,4292.436035,4333.846191,4401.410156,4295.897461,4294.102539,4474.615234,4513.974121,4326.922852,4413.205078,0.000000,1.000000,22.000000,,,,0.000000,2.000000,2.000000,0.000000,4.000000,2.000000,2.000000,0.000000,0.000000,4.000000,4.000000,4.000000,4.000000,4.000000,4.000000,0.000000,,,,,,,,,,,,,,,,,14.000000,0.000000,0.513171,0.483093,-0.538696,0.461609,0.982053,-0.005372,-0.048834,-35.320778,45.765190,31.257826
1732157909.216027,1732157909.218422,57.000000,0.000000,4306.538574,4263.077148,4316.410156,4307.692383,4298.974121,4292.179688,4333.846191,4398.205078,4295.641113,4293.077148,4472.820313,4507.563965,4326.538574,4411.153809,0.000000,1.000000,22.000000,,,,0.000000,2.000000,2.000000,0.000000,4.000000,2.000000,2.000000,0.000000,0.000000,4.000000,4.000000,4.000000,4.000000,4.000000,4.000000,0.000000,,,,,,,,,,,,,,,,,,,,,,,,,,,,
1732157909.223836,1732157909.226030,58.000000,0.000000,4309.358887,4265.128418,4317.436035,4310.769043,4309.743652,4285.897461,4334.871582,4396.538574,4296.794922,4291.666504,4466.410156,4507.051270,4327.051270,4410.512695,0.000000,1.000000,22.000000,,,,0.000000,2.000000,2.000000,0.000000,4.000000,2.000000,2.000000,0.000000,0.000000,4.000000,4.000000,4.000000,4.000000,4.000000,4.000000,0.000000,,,,,,,,,,,,,,,,,,,,,,,,,,,,
1732157909.231644,1732157909.233838,59.000000,0.000000,4312.563965,4269.743652,4318.846191,4312.948730,4292.692383,4287.692383,4335.897461,4399.230957,4287.820313,4286.282227,4466.282227,4505.384766,4326.282227,4411.794922,0.000000,1.000000,22.000000,,,,0.000000,2.000000,2.000000,0.000000,4.000000,2.000000,2.000000,0.000000,0.000000,4.000000,4.000000,4.000000,4.000000,4.000000,4.000000,0.000000,,,,,,,,,,,,,,,,,,,,,,,,,,,,
1732157909.239452,1732157909.241546,60.000000,0.000000,4312.051270,4271.282227,4317.692383,4312.051270,4275.769043,4296.666504,4336.025879,4402.692383,4280.769043,4281.666504,4472.820313,4506.153809,4325.256348,4411.153809,0.000000,1.000000,22.000000,,,,0.000000,2.000000,2.000000,0.000000,4.000000,2.000000,2.000000,0.000000,0.000000,4.000000,4.000000,4.000000,4.000000,4.000000,4.000000,0.000000,,,,,,,,,,,,,,,,,15.000000,0.000000,0.512385,0.483032,-0.538818,0.462402,0.971798,-0.014650,-0.038091,-35.346497,45.519802,31.350506
1732157909.247260,1732157909.249355,61.000000,0.000000,4311.282227,4267.563965,4316.025879,4310.769043,4287.820313,4298.846191,4335.769043,4401.922852,4288.333496,4282.563965,4471.922852,4507.563965,4325.769043,4408.974121,0.000000,1.000000,22.000000,,,,0.000000,2.000000,2.000000,0.000000,4.000000,2.000000,2.000000,0.000000,0.000000,4.000000,4.000000,4.000000,4.000000,4.000000,4.000000,0.000000,,,,,,,,,,,,,,,,,,,,,,,,,,,,
1732157909.255069,1732157909.256963,62.000000,0.000000,4310.769043,4265.128418,4318.333496,4310.769043,4297.436035,4295.128418,4335.897461,4400.512695,4297.179688,4288.589844,4467.307617,4507.820313,4330.256348,4410.384766,0.000000,1.000000,22.000000,,,,0.000000,2.000000,2.000000,0.000000,4.000000,2.000000,2.000000,0.000000,0.000000,4.000000,4.000000,4.000000,4.000000,4.000000,4.000000,0.000000,,,,,,,,,,,,,,,,,,,,,,,,,,,,
1732157909.262877,1732157909.264771,63.000000,0.000000,4306.794922,4267.179688,4316.025879,4310.256348,4294.487305,4294.615234,4335.897461,4401.153809,4294.230957,4291.282227,4469.615234,4504.871582,4331.666504,4412.692383,0.000000,1.000000,22.000000,,,,0.000000,2.000000,2.000000,0.000000,4.000000,2.000000,2.000000,0.000000,0.000000,4.000000,4.000000,4.000000,4.000000,4.000000,4.000000,0.000000,,,,,,,,,,,,,,,,,,,,,,,,,,,,
1732157909.270685,1732157909.272480,64.000000,0.000000,4307.051270,4266.410156,4311.538574,4309.615234,4291.025879,4298.077148,4335.897461,4400.128418,4293.589844,4292.948730,4474.358887,4506.410156,4329.871582,4413.333496,0.000000,1.000000,22.000000,,,,0.000000,2.000000,2.000000,0.000000,4.000000,2.000000,2.000000,0.000000,0.000000,4.000000,4.000000,4.000000,4.000000,4.000000,4.000000,0.000000,,,,,,,,,,,,,,,,,16.000000,0.000000,0.511191,0.482300,-0.539612,0.463562,0.976682,-0.013674,-0.042486,-35.375664,45.357708,31.600576
1732157909.278493,1732157909.280288,65.000000,0.000000,4310.128418,4263.077148,4315.897461,4308.717773,4293.461426,4298.974121,4335.897461,4399.102539,4301.922852,4295.384766,4475.897461,4510.256348,4329.230957,4412.948730,1609.000000,1.000000,22.000000,,,,0.000000,2.000000,2.000000,0.000000,4.000000,2.000000,2.000000,0.000000,0.000000,4.000000,4.000000,4.000000,4.000000,4.000000,4.000000,0.000000,,,,,,,,,,,,,,,,,,,,,,,,,,,,
1732157909.286301,1732157909.287896,66.000000,0.000000,4307.948730,4264.871582,4320.641113,4306.153809,4305.641113,4289.230957,4335.512695,4400.769043,4299.487305,4289.487305,4474.102539,4508.461426,4328.589844,4411.410156,1362.000000,1.000000,22.000000,,,,0.000000,2.000000,2.000000,0.000000,4.000000,2.000000,2.000000,0.000000,0.000000,4.000000,4.000000,4.000000,4.000000,4.000000,4.000000,0.000000,,,,,,,,,,,,,,,,,,,,,,,,,,,,
1732157909.294110,1732157909.295704,67.000000,0.000000,4307.948730,4265.512695,4317.179688,4305.384766,4302.563965,4285.256348,4336.025879,4400.000000,4291.922852,4283.974121,4473.205078,4504.102539,4332.179688,4412.436035,1434.000000,1.000000,22.000000,,,,0.000000,2.000000,2.000000,0.000000,4.000000,2.000000,2.000000,0.000000,0.000000,4.000000,4.000000,4.000000,4.000000,4.000000,4.000000,0.000000,,,,,,,,,,,,,,,,,,,,,,,,,,,,
1732157909.301918,1732157909.303413,68.000000,0.000000,4312.051270,4266.282227,4317.436035,4307.051270,4281.538574,4296.794922,4336.025879,4398.205078,4294.487305,4291.666504,4475.384766,4504.743652,4337.563965,4416.794922,1427.000000,1.000000,22.000000,,,,0.000000,2.000000,2.000000,0.000000,4.000000,2.000000,2.000000,0.000000,0.000000,4.000000,4.000000,4.000000,4.000000,4.000000,4.000000,0.000000,,,,,,,,,,,,,,,,,17.000000,0.000000,0.510425,0.482056,-0.539978,0.464233,0.977170,-0.029789,-0.042974,-35.382618,45.293076,31.653133
1732157909.309726,1732157909.311221,69.000000,0.000000,4311.666504,4273.077148,4319.871582,4311.025879,4277.179688,4299.487305,4334.230957,4399.615234,4296.666504,4296.410156,4476.153809,4508.205078,4336.153809,4416.666504,1204.000000,1.000000,22.000000,,,,0.000000,2.000000,2.000000,0.000000,4.000000,2.000000,2.000000,0.000000,0.000000,4.000000,4.000000,4.000000,4.000000,4.000000,4.000000,0.000000,,,,,,,,,,,,,,,,,,,,,,,,,,,,
1732157909.317535,1732157909.318829,70.000000,0.000000,4308.077148,4275.512695,4316.538574,4310.000000,4288.717773,4291.794922,4334.230957,4400.128418,4294.102539,4287.307617,4475.128418,4507.692383,4332.563965,4413.461426,0.000000,1.000000,22.000000,,,,0.000000,2.000000,2.000000,0.000000,4.000000,2.000000,2.000000,0.000000,0.000000,4.000000,4.000000,4.000000,4.000000,4.000000,4.000000,0.000000,,,,,,,,,,,,,,,,,,,,,,,,,,,,
1732157909.325343,1732157909.326638,71.000000,0.000000,4306.410156,4268.589844,4315.000000,4300.641113,4289.615234,4295.000000,4336.282227,4398.461426,4295.000000,4280.769043,4474.358887,4505.641113,4336.025879,4414.615234,0.000000,1.000000,22.000000,,,,0.000000,2.000000,2.000000,0.000000,4.000000,2.000000,2.000000,0.000000,0.000000,4.000000,4.000000,4.000000,4.000000,4.000000,4.000000,0.000000,,,,,,,,,,,,,,,,,,,,,,,,,,,,
1732157909.333151,1732157909.334346,72.000000,0.000000,4304.615234,4264.871582,4316.153809,4295.641113,4286.666504,4293.974121,4336.410156,4399.871582,4294.743652,4281.538574,4473.077148,4509.871582,4335.000000,4415.256348,1536.000000,1.000000,22.000000,,,,0.000000,2.000000,2.000000,0.000000,4.000000,2.000000,2.000000,0.000000,0.000000,4.000000,4.000000,4.000000,4.000000,4.000000,4.000000,0.000000,,,,,,,,,,,,,,,,,18.000000,0.000000,0.510020,0.481995,-0.540100,0.464600,0.977170,-0.029789,-0.042974,-35.254921,45.379059,31.609037
1732157909.340959,1732157909.342154,73.000000,0.000000,4306.538574,4269.743652,4315.512695,4295.897461,4288.461426,4281.538574,4335.256348,4400.769043,4291.025879,4283.461426,4471.538574,4514.871582,4329.102539,4413.717773,1691.000000,1.000000,22.000000,,,,0.000000,2.000000,2.000000,0.000000,4.000000,2.000000,2.000000,0.000000,0.000000,4.000000,4.000000,4.000000,4.000000,4.000000,4.000000,0.000000,,,,,,,,,,,,,,,,,,,,,,,,,,,,
1732157909.348768,1732157909.350162,74.000000,0.000000,4311.538574,4275.641113,4317.307617,4297.436035,4281.794922,4281.666504,4336.153809,4398.846191,4293.974121,4286.922852,4474.230957,4516.922852,4331.025879,4416.410156,1556.000000,1.000000,22.000000,,,,0.000000,2.000000,2.000000,0.000000,4.000000,2.000000,2.000000,0.000000,0.000000,4.000000,4.000000,4.000000,4.000000,4.000000,4.000000,0.000000,,,,,,,,,,,,,,,,,,,,,,,,,,,,
1732157909.356576,1732157909.357970,75.000000,0.000000,4312.692383,4275.897461,4319.615234,4302.436035,4290.128418,4285.897461,4335.000000,4398.974121,4296.922852,4288.974121,4477.436035,4515.897461,4335.641113,4421.153809,1566.000000,1.000000,22.000000,,,,0.000000,2.000000,2.000000,0.000000,4.000000,2.000000,2.000000,0.000000,0.000000,4.000000,4.000000,4.000000,4.000000,4.000000,4.000000,0.000000,,,,,,,,,,,,,,,,,,,,,,,,,,,,
1732157909.364384,1732157909.365878,76.000000,0.000000,4310.256348,4269.230957,4318.333496,4306.153809,4309.102539,4281.538574,4333.333496,4400.256348,4293.589844,4287.948730,4476.025879,4515.897461,4336.410156,4420.512695,1701.000000,1.000000,22.000000,,,,0.000000,2.000000,2.000000,0.000000,4.000000,2.000000,2.000000,0.000000,0.000000,4.000000,4.000000,4.000000,4.000000,4.000000,4.000000,0.000000,,,,,,,,,,,,,,,,,19.000000,0.000000,0.509309,0.480591,-0.541809,0.464844,0.976193,-0.018069,-0.057624,-35.128155,45.228703,31.713322
1732157909.372192,1732157909.373687,77.000000,0.000000,4303.589844,4267.179688,4317.307617,4304.871582,4298.205078,4285.128418,4335.256348,4400.641113,4294.871582,4283.974121,4472.436035,4515.128418,4333.205078,4415.128418,1614.000000,1.000000,22.000000,,,,0.000000,2.000000,2.000000,0.000000,4.000000,2.000000,2.000000,0.000000,0.000000,4.000000,4.000000,4.000000,4.000000,4.000000,4.000000,0.000000,,,,,,,,,,,,,,,,,,,,,,,,,,,,
1732157909.380000,1732157909.381695,78.000000,0.000000,4297.692383,4269.487305,4319.743652,4306.153809,4274.487305,4296.282227,4336.282227,4400.256348,4296.153809,4281.538574,4471.410156,4511.794922,4327.436035,4412.948730,1556.000000,1.000000,22.000000,,,,0.000000,2.000000,2.000000,0.000000,4.000000,2.000000,2.000000,0.000000,0.000000,4.000000,4.000000,4.000000,4.000000,4.000000,4.000000,0.000000,1.000000,0.000000,2.000000,1.000000,0.000000,4.000000,2.000000,2.000000,0.000000,0.000000,4.000000,4.000000,4.000000,4.000000,4.000000,4.000000,,,,,,,,,,,,
1732157909.387809,1732157909.389503,79.000000,0.000000,4297.307617,4270.256348,4317.436035,4309.615234,4277.692383,4294.615234,4334.743652,4399.743652,4296.666504,4286.025879,4472.051270,4508.077148,4326.666504,4412.051270,1566.000000,1.000000,22.000000,,,,0.000000,2.000000,2.000000,0.000000,4.000000,2.000000,2.000000,0.000000,0.000000,4.000000,4.000000,4.000000,4.000000,4.000000,4.000000,0.000000,,,,,,,,,,,,,,,,,,,,,,,,,,,,
1732157909.395617,1732157909.397411,80.000000,0.000000,4297.948730,4271.538574,4314.230957,4306.666504,4289.487305,4293.077148,4335.000000,4399.230957,4303.974121,4290.000000,4472.179688,4505.641113,4331.666504,4407.051270,1701.000000,1.000000,22.000000,,,,0.000000,2.000000,2.000000,0.000000,4.000000,2.000000,2.000000,0.000000,0.000000,4.000000,4.000000,4.000000,4.000000,4.000000,4.000000,0.000000,,,,,,,,,,,,,,,,,20.000000,0.000000,0.509018,0.480103,-0.542358,0.465027,0.976193,-0.021487,-0.050787,-34.975471,45.056915,31.931124
1732157909.403425,1732157909.405219,81.000000,0.000000,4299.743652,4270.897461,4316.666504,4307.307617,4284.230957,4295.641113,4334.871582,4400.000000,4306.153809,4284.102539,4472.051270,4506.282227,4331.538574,4404.615234,1614.000000,1.000000,22.000000,,,,0.000000,2.000000,2.000000,0.000000,4.000000,2.000000,2.000000,0.000000,0.000000,4.000000,4.000000,4.000000,4.000000,4.000000,4.000000,0.000000,,,,,,,,,,,,,,,,,,,,,,,,,,,,
1732157909.411234,1732157909.412828,82.000000,0.000000,4303.333496,4270.641113,4318.205078,4310.384766,4279.102539,4288.589844,4332.692383,4399.230957,4297.179688,4280.384766,4470.769043,4511.025879,4325.384766,4409.743652,1556.000000,1.000000,22.000000,,,,0.000000,2.000000,2.000000,0.000000,4.000000,2.000000,2.000000,0.000000,0.000000,4.000000,4.000000,4.000000,4.000000,4.000000,4.000000,0.000000,,,,,,,,,,,,,,,,,,,,,,,,,,,,
1732157909.419042,1732157909.420636,83.000000,0.000000,4300.256348,4276.410156,4317.692383,4307.948730,4289.230957,4282.051270,4333.333496,4396.794922,4290.512695,4282.692383,4470.000000,4513.333496,4326.666504,4412.692383,1566.000000,1.000000,22.000000,,,,0.000000,2.000000,2.000000,0.000000,4.000000,2.000000,2.000000,0.000000,0.000000,4.000000,4.000000,4.000000,4.000000,4.000000,4.000000,0.000000,,,,,,,,,,,,,,,,,,,,,,,,,,,,
1732157909.426850,1732157909.428544,84.000000,0.000000,4295.512695,4278.077148,4317.307617,4304.230957,4303.077148,4279.743652,4336.282227,4397.436035,4290.384766,4281.153809,4472.692383,4510.512695,4332.948730,4410.641113,1701.000000,1.000000,22.000000,,,,0.000000,2.000000,2.000000,0.000000,4.000000,2.000000,2.000000,0.000000,0.000000,4.000000,4.000000,4.000000,4.000000,4.000000,4.000000,0.000000,,,,,,,,,,,,,,,,,21.000000,0.000000,0.508988,0.479858,-0.542603,0.465027,0.987425,-0.013185,-0.042974,-35.296799,44.951103,31.880877
1732157909.434658,1732157909.436352,85.000000,0.000000,4302.051270,4271.282227,4318.589844,4303.717773,4296.282227,4282.436035,4337.179688,4399.871582,4292.563965,4279.615234,4475.384766,4516.153809,4336.794922,4411.410156,1614.000000,1.000000,22.000000,,,,0.000000,2.000000,2.000000,0.000000,4.000000,2.000000,2.000000,0.000000,0.000000,4.000000,4.000000,4.000000,4.000000,4.000000,4.000000,0.000000,,,,,,,,,,,,,,,,,,,,,,,,,,,,
1732157909.442467,1732157909.444360,86.000000,0.000000,4305.256348,4271.666504,4318.589844,4306.922852,4275.128418,4290.769043,4336.153809,4399.102539,4294.615234,4282.436035,4473.461426,4520.769043,4334.487305,4413.333496,1556.000000,1.000000,22.000000,,,,0.000000,2.000000,2.000000,0.000000,4.000000,2.000000,2.000000,0.000000,0.000000,4.000000,4.000000,4.000000,4.000000,4.000000,4.000000,0.000000,,,,,,,,,,,,,,,,,,,,,,,,,,,,
1732157909.450275,1732157909.452168,87.000000,0.000000,4298.974121,4276.922852,4319.743652,4307.307617,4275.641113,4291.666504,4335.384766,4397.307617,4289.102539,4281.922852,4470.769043,4515.384766,4328.589844,4412.307617,1566.000000,1.000000,22.000000,,,,0.000000,2.000000,2.000000,0.000000,4.000000,2.000000,2.000000,0.000000,0.000000,4.000000,4.000000,4.000000,4.000000,4.000000,4.000000,0.000000,,,,,,,,,,,,,,,,,,,,,,,,,,,,
1732157909.458083,1732157909.460076,88.000000,0.000000,4298.205078,4276.666504,4318.205078,4307.307617,4284.743652,4284.102539,4336.153809,4398.461426,4282.820313,4278.205078,4471.153809,4518.589844,4328.077148,4414.102539,1701.000000,1.000000,22.000000,,,,0.000000,2.000000,2.000000,0.000000,4.000000,2.000000,2.000000,0.000000,0.000000,4.000000,4.000000,4.000000,4.000000,4.000000,4.000000,0.000000,,,,,,,,,,,,,,,,,22.000000,0.000000,0.508948,0.479614,-0.542908,0.464966,0.979123,-0.020022,-0.054206,-35.525406,45.213726,31.871843
1732157909.465891,1732157909.467885,89.000000,0.000000,4300.641113,4276.666504,4315.000000,4308.846191,4282.563965,4284.743652,4336.538574,4399.871582,4290.512695,4278.205078,4471.153809,4524.871582,4332.820313,4418.333496,1614.000000,1.000000,22.000000,,,,0.000000,2.000000,2.000000,0.000000,4.000000,2.000000,2.000000,0.000000,0.000000,4.000000,4.000000,4.000000,4.000000,4.000000,4.000000,0.000000,,,,,,,,,,,,,,,,,,,,,,,,,,,,
1732157909.473700,1732157909.475893,90.000000,0.000000,4297.692383,4276.538574,4317.179688,4307.820313,4284.487305,4294.102539,4335.897461,4399.358887,4297.820313,4280.256348,4470.641113,4521.666504,4335.897461,4419.102539,1556.000000,1.000000,22.000000,,,,0.000000,2.000000,2.000000,0.000000,4.000000,2.000000,2.000000,0.000000,0.000000,4.000000,4.000000,4.000000,4.000000,4.000000,4.000000,0.000000,,,,,,,,,,,,,,,,,,,,,,,,,,,,
1732157909.481508,1732157909.483701,91.000000,0.000000,4297.948730,4271.794922,4319.615234,4305.384766,4284.358887,4292.307617,4335.512695,4400.512695,4297.692383,4282.436035,4472.307617,4521.538574,4335.000000,4416.922852,1566.000000,1.000000,22.000000,,,,0.000000,2.000000,2.000000,0.000000,4.000000,2.000000,2.000000,0.000000,0.000000,4.000000,4.000000,4.000000,4.000000,4.000000,4.000000,0.000000,,,,,,,,,,,,,,,,,,,,,,,,,,,,
1732157909.489316,1732157909.491609,92.000000,0.000000,4301.666504,4267.692383,4316.153809,4303.333496,4281.282227,4284.230957,4335.897461,4401.666504,4296.794922,4282.563965,4473.333496,4523.717773,4332.948730,4415.256348,1701.000000,1.000000,22.000000,,,,0.000000,2.000000,2.000000,0.000000,4.000000,2.000000,2.000000,0.000000,0.000000,4.000000,4.000000,4.000000,4.000000,4.000000,4.000000,0.000000,,,,,,,,,,,,,,,,,23.000000,0.000000,0.509035,0.479492,-0.543091,0.464783,0.975705,-0.018557,-0.047857,-35.667248,45.311451,31.946194
1732157909.497124,1732157909.499417,93.000000,0.000000,4298.077148,4266.794922,4314.230957,4299.487305,4294.615234,4279.615234,4335.769043,4399.615234,4295.897461,4280.897461,4471.538574,4520.256348,4333.205078,4415.000000,1614.000000,1.000000,22.000000,,,,0.000000,2.000000,2.000000,0.000000,4.000000,2.000000,2.000000,0.000000,0.000000,4.000000,4.000000,4.000000,4.000000,4.000000,4.000000,0.000000,,,,,,,,,,,,,,,,,,,,,,,,,,,,
1732157909.504933,1732157909.507425,94.000000,0.000000,4293.974121,4268.205078,4318.461426,4295.769043,4295.256348,4282.179688,4335.512695,4399.487305,4299.102539,4285.256348,4473.205078,4521.538574,4335.000000,4412.436035,1556.000000,1.000000,22.000000,,,,0.000000,2.000000,2.000000,0.000000,4.000000,2.000000,2.000000,0.000000,0.000000,4.000000,4.000000,4.000000,4.000000,4.000000,4.000000,0.000000,,,,,,,,,,,,,,,,,,,,,,,,,,,,
1732157909.512741,1732157909.515233,95.000000,0.000000,4294.358887,4271.538574,4320.000000,4296.794922,4273.717773,4288.077148,4335.000000,4400.384766,4303.974121,4288.846191,4476.153809,4518.974121,4332.692383,4405.256348,1566.000000,1.000000,22.000000,,,,0.000000,2.000000,2.000000,0.000000,4.000000,2.000000,2.000000,0.000000,0.000000,4.000000,4.000000,4.000000,4.000000,4.000000,4.000000,0.000000,,,,,,,,,,,,,,,,,,,,,,,,,,,,
1732157909.520549,1732157909.523141,96.000000,0.000000,4291.410156,4271.538574,4316.538574,4300.000000,4268.205078,4290.128418,4334.615234,4397.820313,4299.230957,4283.077148,4468.077148,4507.436035,4325.256348,4396.922852,1701.000000,1.000000,22.000000,,,,0.000000,2.000000,2.000000,0.000000,4.000000,2.000000,2.000000,0.000000,0.000000,4.000000,4.000000,4.000000,4.000000,4.000000,4.000000,0.000000,,,,,,,,,,,,,,,,,24.000000,0.000000,0.508964,0.479370,-0.543213,0.464844,0.980588,-0.029789,-0.052252,-35.923801,45.365608,31.984749
1732157909.528357,1732157909.530950,97.000000,0.000000,4288.974121,4269.743652,4315.384766,4298.589844,4280.512695,4291.922852,4334.743652,4396.282227,4295.641113,4279.230957,4462.051270,4503.589844,4324.615234,4395.128418,1614.000000,1.000000,22.000000,,,,0.000000,2.000000,2.000000,0.000000,4.000000,2.000000,2.000000,0.000000,0.000000,4.000000,4.000000,4.000000,4.000000,4.000000,4.000000,0.000000,,,,,,,,,,,,,,,,,,,,,,,,,,,,
1732157909.536166,1732157909.538558,98.000000,0.000000,4293.974121,4272.051270,4317.820313,4297.820313,4283.333496,4290.256348,4335.256348,4399.871582,4303.846191,4283.333496,4469.487305,4511.794922,4332.436035,4399.743652,1556.000000,1.000000,22.000000,,,,0.000000,2.000000,2.000000,0.000000,4.000000,2.000000,2.000000,0.000000,0.000000,4.000000,4.000000,4.000000,4.000000,4.000000,4.000000,0.000000,,,,,,,,,,,,,,,,,,,,,,,,,,,,
1732157909.543974,1732157909.546366,99.000000,0.000000,4298.974121,4277.179688,4317.948730,4304.358887,4278.461426,4283.333496,4335.897461,4400.384766,4305.128418,4284.102539,4473.077148,4514.487305,4336.153809,4401.922852,1566.000000,1.000000,22.000000,,,,0.000000,2.000000,2.000000,0.000000,4.000000,2.000000,2.000000,0.000000,0.000000,4.000000,4.000000,4.000000,4.000000,4.000000,4.000000,0.000000,,,,,,,,,,,,,,,,,,,,,,,,,,,,
1732157909.551782,1732157909.554274,100.000000,0.000000,4296.538574,4278.717773,4316.410156,4307.307617,4278.974121,4280.000000,4336.025879,4397.179688,4295.128418,4279.615234,4471.025879,4508.205078,4333.205078,4399.615234,1701.000000,1.000000,22.000000,,,,0.000000,2.000000,2.000000,0.000000,4.000000,2.000000,2.000000,0.000000,0.000000,4.000000,4.000000,4.000000,4.000000,4.000000,4.000000,0.000000,,,,,,,,,,,,,,,,,25.000000,0.000000,0.508899,0.479370,-0.543274,0.464844,0.962520,-0.029789,-0.053717,-35.789948,45.526142,31.770981
1732157909.559590,1732157909.562083,101.000000,0.000000,4293.846191,4280.512695,4315.897461,4305.897461,4285.897461,4285.512695,4335.641113,4397.179688,4293.077148,4278.333496,4470.769043,4504.871582,4333.077148,4397.563965,1614.000000,1.000000,22.000000,,,,0.000000,2.000000,2.000000,0.000000,4.000000,2.000000,2.000000,0.000000,0.000000,4.000000,4.000000,4.000000,4.000000,4.000000,4.000000,0.000000,,,,,,,,,,,,,,,,,,,,,,,,,,,,
1732157909.567399,1732157909.569691,102.000000,0.000000,4293.461426,4280.128418,4316.410156,4306.794922,4287.436035,4287.563965,4336.025879,4398.333496,4296.282227,4278.589844,4464.871582,4507.307617,4333.077148,4397.307617,1556.000000,1.000000,22.000000,,,,0.000000,2.000000,2.000000,0.000000,4.000000,2.000000,2.000000,0.000000,0.000000,4.000000,4.000000,4.000000,4.000000,4.000000,4.000000,0.000000,,,,,,,,,,,,,,,,,,,,,,,,,,,,
1732157909.575207,1732157909.577499,103.000000,0.000000,4292.692383,4277.179688,4316.282227,4305.769043,4278.333496,4281.794922,4336.666504,4398.717773,4297.051270,4280.641113,4462.948730,4508.846191,4331.666504,4398.205078,1566.000000,1.000000,22.000000,,,,0.000000,2.000000,2.000000,0.000000,4.000000,2.000000,2.000000,0.000000,0.000000,4.000000,4.000000,4.000000,4.000000,4.000000,4.000000,0.000000,,,,,,,,,,,,,,,,,,,,,,,,,,,,
1732157909.583015,1732157909.585208,104.000000,0.000000,4293.846191,4277.307617,4316.282227,4301.922852,4284.102539,4280.256348,4336.153809,4400.000000,4296.153809,4280.384766,4469.230957,4508.461426,4333.077148,4398.333496,1701.000000,1.000000,22.000000,,,,0.000000,2.000000,2.000000,0.000000,4.000000,2.000000,2.000000,0.000000,0.000000,4.000000,4.000000,4.000000,4.000000,4.000000,4.000000,0.000000,,,,,,,,,,,,,,,,,26.000000,0.000000,0.508624,0.479553,-0.543213,0.465027,0.975705,-0.017580,-0.052741,-35.628189,45.506176,31.556162
1732157909.590823,1732157909.593016,105.000000,0.000000,4296.282227,4276.794922,4315.897461,4305.897461,4303.077148,4281.922852,4334.615234,4400.256348,4296.153809,4278.589844,4466.922852,4511.025879,4334.102539,4397.051270,1614.000000,1.000000,22.000000,,,,0.000000,2.000000,2.000000,0.000000,4.000000,2.000000,2.000000,0.000000,0.000000,4.000000,4.000000,4.000000,4.000000,4.000000,4.000000,0.000000,,,,,,,,,,,,,,,,,,,,,,,,,,,,
1732157909.598632,1732157909.600624,106.000000,0.000000,4289.230957,4276.666504,4316.153809,4309.102539,4289.871582,4282.051270,4334.615234,4399.871582,4296.922852,4280.769043,4465.128418,4510.512695,4333.461426,4397.948730,1556.000000,1.000000,22.000000,,,,0.000000,2.000000,2.000000,0.000000,4.000000,2.000000,2.000000,0.000000,0.000000,4.000000,4.000000,4.000000,4.000000,4.000000,4.000000,0.000000,,,,,,,,,,,,,,,,,,,,,,,,,,,,
1732157909.606440,1732157909.608432,107.000000,0.000000,4281.153809,4276.410156,4317.179688,4301.922852,4261.410156,4282.436035,4336.153809,4399.871582,4296.025879,4281.922852,4472.436035,4506.282227,4333.077148,4399.615234,1566.000000,1.000000,22.000000,,,,0.000000,2.000000,2.000000,0.000000,4.000000,2.000000,2.000000,0.000000,0.000000,4.000000,4.000000,4.000000,4.000000,4.000000,4.000000,0.000000,,,,,,,,,,,,,,,,,,,,,,,,,,,,
1732157909.614248,1732157909.616141,108.000000,0.000000,4288.461426,4278.205078,4317.179688,4299.487305,4267.436035,4282.179688,4336.410156,4400.512695,4298.205078,4282.692383,4472.948730,4511.666504,4334.358887,4399.487305,1701.000000,1.000000,22.000000,,,,0.000000,2.000000,2.000000,0.000000,4.000000,2.000000,2.000000,0.000000,0.000000,4.000000,4.000000,4.000000,4.000000,4.000000,4.000000,0.000000,,,,,,,,,,,,,,,,,27.000000,0.000000,0.508730,0.479431,-0.543274,0.464966,0.982542,-0.024417,-0.057624,-35.603832,45.215004,31.557158
1732157909.622056,1732157909.623949,109.000000,0.000000,4297.436035,4279.102539,4317.563965,4303.461426,4287.179688,4282.051270,4335.128418,4399.487305,4306.410156,4287.051270,4470.641113,4519.487305,4336.410156,4400.512695,1614.000000,1.000000,22.000000,,,,0.000000,2.000000,2.000000,0.000000,4.000000,2.000000,2.000000,0.000000,0.000000,4.000000,4.000000,4.000000,4.000000,4.000000,4.000000,0.000000,,,,,,,,,,,,,,,,,,,,,,,,,,,,
1732157909.629865,1732157909.631557,110.000000,0.000000,4293.333496,4276.538574,4314.743652,4303.846191,4280.000000,4286.794922,4334.743652,4398.846191,4307.563965,4286.153809,4473.846191,4513.205078,4337.563965,4400.769043,1556.000000,1.000000,22.000000,,,,0.000000,2.000000,2.000000,0.000000,4.000000,2.000000,2.000000,0.000000,0.000000,4.000000,4.000000,4.000000,4.000000,4.000000,4.000000,0.000000,,,,,,,,,,,,,,,,,,,,,,,,,,,,
1732157909.637673,1732157909.639365,111.000000,0.000000,4287.436035,4278.846191,4311.794922,4304.358887,4278.846191,4286.410156,4335.128418,4399.230957,4296.410156,4276.794922,4469.102539,4504.358887,4336.538574,4397.307617,1566.000000,1.000000,22.000000,,,,0.000000,2.000000,2.000000,0.000000,4.000000,2.000000,2.000000,0.000000,0.000000,4.000000,4.000000,4.000000,4.000000,4.000000,4.000000,0.000000,,,,,,,,,,,,,,,,,,,,,,,,,,,,
1732157909.645481,1732157909.647074,112.000000,0.000000,4291.153809,4279.871582,4314.871582,4307.307617,4302.563965,4280.897461,4335.000000,4399.487305,4290.384766,4273.461426,4459.615234,4505.256348,4330.641113,4395.128418,1701.000000,1.000000,22.000000,,,,0.000000,2.000000,2.000000,0.000000,4.000000,2.000000,2.000000,0.000000,0.000000,4.000000,4.000000,4.000000,4.000000,4.000000,4.000000,0.000000,,,,,,,,,,,,,,,,,28.000000,0.000000,0.508730,0.479431,-0.543274,0.464966,0.974240,-0.013674,-0.050787,-35.404106,45.069153,31.392963
1732157909.653289,1732157909.654882,113.000000,0.000000,4294.358887,4275.641113,4319.487305,4303.461426,4296.538574,4282.436035,4334.871582,4398.974121,4294.487305,4278.589844,4462.051270,4506.410156,4325.897461,4396.410156,1614.000000,1.000000,22.000000,,,,0.000000,2.000000,2.000000,0.000000,4.000000,2.000000,2.000000,0.000000,0.000000,4.000000,4.000000,4.000000,4.000000,4.000000,4.000000,0.000000,,,,,,,,,,,,,,,,,,,,,,,,,,,,
1732157909.661098,1732157909.662490,114.000000,0.000000,4289.358887,4273.333496,4318.333496,4296.282227,4262.820313,4283.846191,4335.000000,4399.487305,4297.692383,4282.179688,4468.846191,4506.922852,4332.307617,4396.538574,1556.000000,1.000000,22.000000,,,,0.000000,2.000000,2.000000,0.000000,4.000000,2.000000,2.000000,0.000000,0.000000,4.000000,4.000000,4.000000,4.000000,4.000000,4.000000,0.000000,,,,,,,,,,,,,,,,,,,,,,,,,,,,
1732157909.668906,1732157909.670299,115.000000,0.000000,4280.000000,4271.410156,4317.436035,4293.974121,4261.410156,4286.282227,4335.000000,4401.153809,4298.717773,4282.179688,4466.410156,4506.153809,4336.538574,4388.974121,1566.000000,1.000000,22.000000,,,,0.000000,2.000000,2.000000,0.000000,4.000000,2.000000,2.000000,0.000000,0.000000,4.000000,4.000000,4.000000,4.000000,4.000000,4.000000,0.000000,,,,,,,,,,,,,,,,,,,,,,,,,,,,
1732157909.676714,1732157909.678007,116.000000,0.000000,4277.051270,4271.153809,4315.769043,4296.538574,4284.358887,4292.307617,4335.000000,4399.358887,4297.051270,4281.282227,4460.512695,4501.282227,4328.461426,4379.743652,1701.000000,1.000000,22.000000,,,,0.000000,2.000000,2.000000,0.000000,4.000000,2.000000,2.000000,0.000000,0.000000,4.000000,4.000000,4.000000,4.000000,4.000000,4.000000,0.000000,,,,,,,,,,,,,,,,,29.000000,0.000000,0.508724,0.479309,-0.543335,0.465027,0.992309,-0.029300,-0.048346,-35.780659,45.199348,31.358301
1732157909.684522,1732157909.685815,117.000000,0.000000,4284.743652,4277.948730,4314.487305,4300.000000,4281.282227,4290.641113,4335.000000,4399.743652,4296.025879,4283.077148,4462.179688,4501.282227,4329.615234,4386.153809,1614.000000,1.000000,22.000000,,,,0.000000,2.000000,2.000000,0.000000,4.000000,2.000000,2.000000,0.000000,0.000000,4.000000,4.000000,4.000000,4.000000,4.000000,4.000000,0.000000,,,,,,,,,,,,,,,,,,,,,,,,,,,,
1732157909.692330,1732157909.693823,118.000000,0.000000,4288.974121,4281.025879,4315.769043,4299.743652,4274.487305,4282.692383,4335.000000,4402.179688,4297.051270,4284.102539,4463.846191,4501.794922,4337.436035,4398.461426,1556.000000,1.000000,22.000000,,,,0.000000,2.000000,2.000000,0.000000,4.000000,2.000000,2.000000,0.000000,0.000000,4.000000,4.000000,4.000000,4.000000,4.000000,4.000000,0.000000,,,,,,,,,,,,,,,,,,,,,,,,,,,,
1732157909.700139,1732157909.701631,119.000000,0.000000,4283.333496,4273.974121,4317.307617,4296.025879,4294.871582,4283.333496,4335.000000,4399.871582,4295.512695,4280.256348,4460.512695,4498.333496,4333.974121,4398.333496,1566.000000,1.000000,22.000000,,,,0.000000,2.000000,2.000000,0.000000,4.000000,2.000000,2.000000,0.000000,0.000000,4.000000,4.000000,4.000000,4.000000,4.000000,4.000000,0.000000,,,,,,,,,,,,,,,,,,,,,,,,,,,,
1732157909.707947,1732157909.709539,120.000000,0.000000,4279.487305,4275.512695,4315.641113,4295.512695,4295.256348,4289.230957,4335.000000,4397.563965,4293.717773,4280.641113,4460.512695,4499.230957,4332.436035,4393.333496,1701.000000,1.000000,22.000000,,,,0.000000,2.000000,2.000000,0.000000,4.000000,2.000000,2.000000,0.000000,0.000000,4.000000,4.000000,4.000000,4.000000,4.000000,4.000000,0.000000,,,,,,,,,,,,,,,,,30.000000,0.000000,0.508402,0.479492,-0.543213,0.465332,0.979123,-0.034672,-0.052252,-35.914001,45.186470,31.228558
1732157909.715755,1732157909.717348,121.000000,0.000000,4281.922852,4277.563965,4314.230957,4298.333496,4268.974121,4295.512695,4335.000000,4399.487305,4297.051270,4286.666504,4462.179688,4503.717773,4333.333496,4391.410156,1614.000000,1.000000,22.000000,,,,0.000000,2.000000,2.000000,0.000000,4.000000,2.000000,2.000000,0.000000,0.000000,4.000000,4.000000,4.000000,4.000000,4.000000,4.000000,0.000000,,,,,,,,,,,,,,,,,,,,,,,,,,,,
1732157909.723564,1732157909.725356,122.000000,0.000000,4280.641113,4267.563965,4315.128418,4296.922852,4263.717773,4296.538574,4335.000000,4399.871582,4298.077148,4285.897461,4459.871582,4499.230957,4331.282227,4387.307617,1556.000000,1.000000,22.000000,,,,0.000000,2.000000,2.000000,0.000000,4.000000,2.000000,2.000000,0.000000,0.000000,4.000000,4.000000,4.000000,4.000000,4.000000,4.000000,0.000000,,,,,,,,,,,,,,,,,,,,,,,,,,,,
1732157909.731372,1732157909.733164,123.000000,0.000000,4276.794922,4264.358887,4315.384766,4292.820313,4278.974121,4285.256348,4335.000000,4398.846191,4295.769043,4279.743652,4459.743652,4495.769043,4332.563965,4385.512695,1566.000000,1.000000,22.000000,,,,0.000000,2.000000,2.000000,0.000000,4.000000,2.000000,2.000000,0.000000,0.000000,4.000000,4.000000,4.000000,4.000000,4.000000,4.000000,0.000000,,,,,,,,,,,,,,,,,,,,,,,,,,,,
1732157909.739180,1732157909.741072,124.000000,0.000000,4282.179688,4267.563965,4313.846191,4292.436035,4279.230957,4281.025879,4334.871582,4399.871582,4302.307617,4285.256348,4463.077148,4497.692383,4335.384766,4391.410156,1701.000000,1.000000,22.000000,,,,0.000000,2.000000,2.000000,0.000000,4.000000,2.000000,2.000000,0.000000,0.000000,4.000000,4.000000,4.000000,4.000000,4.000000,4.000000,0.000000,,,,,,,,,,,,,,,,,31.000000,0.000000,0.508235,0.479492,-0.543213,0.465515,0.971310,-0.028812,-0.056159,-35.828674,45.139374,31.186798
1732157909.746988,1732157909.748880,125.000000,0.000000,4288.717773,4264.871582,4314.743652,4299.230957,4270.128418,4289.358887,4335.000000,4400.128418,4308.717773,4294.487305,4463.333496,4497.948730,4337.563965,4398.333496,1614.000000,1.000000,22.000000,,,,0.000000,2.000000,2.000000,0.000000,4.000000,2.000000,2.000000,0.000000,0.000000,4.000000,4.000000,4.000000,4.000000,4.000000,4.000000,0.000000,,,,,,,,,,,,,,,,,,,,,,,,,,,,
1732157909.754797,1732157909.756888,126.000000,0.000000,4288.077148,4268.846191,4316.794922,4302.307617,4286.410156,4286.538574,4334.871582,4400.128418,4301.282227,4287.948730,4461.922852,4495.128418,4338.974121,4396.538574,1556.000000,1.000000,22.000000,,,,0.000000,2.000000,2.000000,0.000000,4.000000,2.000000,2.000000,0.000000,0.000000,4.000000,4.000000,4.000000,4.000000,4.000000,4.000000,0.000000,,,,,,,,,,,,,,,,,,,,,,,,,,,,
1732157909.762605,1732157909.764696,127.000000,0.000000,4286.922852,4273.974121,4315.769043,4296.410156,4302.692383,4278.717773,4334.487305,4401.282227,4292.820313,4277.436035,4460.512695,4494.615234,4334.230957,4388.974121,22.000000,1.000000,22.000000,,,,0.000000,2.000000,2.000000,0.000000,4.000000,2.000000,2.000000,0.000000,0.000000,4.000000,4.000000,4.000000,4.000000,4.000000,4.000000,0.000000,,,,,,,,,,,,,,,,,,,,,,,,,,,,
1732157909.770413,1732157909.772605,0.000000,0.000000,4287.948730,4271.025879,4317.179688,4296.794922,4282.563965,4286.282227,4335.897461,4401.538574,4296.282227,4283.333496,4460.897461,4497.948730,4331.922852,4389.358887,0.000000,1.000000,22.000000,,,,0.000000,2.000000,2.000000,0.000000,4.000000,2.000000,2.000000,0.000000,0.000000,4.000000,4.000000,4.000000,4.000000,4.000000,4.000000,0.000000,,,,,,,,,,,,,,,,,0.000000,0.000000,0.508387,0.479370,-0.543335,0.465332,0.971310,-0.028812,-0.056159,-35.702892,45.049561,31.531305
1732157909.778221,1732157909.780413,1.000000,0.000000,4288.077148,4270.641113,4317.563965,4305.512695,4258.333496,4294.102539,4336.794922,4401.538574,4298.717773,4289.358887,4464.615234,4500.000000,4340.641113,4396.282227,1604.000000,1.000000,22.000000,,,,0.000000,2.000000,2.000000,0.000000,4.000000,2.000000,2.000000,0.000000,0.000000,4.000000,4.000000,4.000000,4.000000,4.000000,4.000000,0.000000,,,,,,,,,,,,,,,,,,,,,,,,,,,,
1732157909.786029,1732157909.788421,2.000000,0.000000,4287.436035,4273.077148,4312.051270,4304.615234,4265.512695,4289.615234,4334.230957,4401.538574,4295.897461,4285.641113,4467.948730,4502.051270,4343.461426,4397.436035,1362.000000,1.000000,22.000000,,,,0.000000,2.000000,2.000000,0.000000,4.000000,2.000000,2.000000,0.000000,0.000000,4.000000,4.000000,4.000000,4.000000,4.000000,4.000000,0.000000,,,,,,,,,,,,,,,,,,,,,,,,,,,,
1732157909.793838,1732157909.796229,3.000000,0.000000,4289.358887,4272.179688,4312.436035,4295.256348,4280.512695,4290.512695,4333.077148,4401.153809,4298.846191,4286.922852,4464.487305,4502.051270,4339.871582,4395.384766,1426.000000,1.000000,22.000000,,,,0.000000,2.000000,2.000000,0.000000,4.000000,2.000000,2.000000,0.000000,0.000000,4.000000,4.000000,4.000000,4.000000,4.000000,4.000000,0.000000,,,,,,,,,,,,,,,,,,,,,,,,,,,,
1732157909.801646,1732157909.804137,4.000000,0.000000,4288.205078,4272.948730,4319.358887,4295.256348,4279.230957,4289.615234,4335.512695,4399.743652,4303.974121,4289.230957,4464.487305,4501.410156,4341.410156,4395.641113,1421.000000,1.000000,22.000000,,,,0.000000,2.000000,2.000000,0.000000,4.000000,2.000000,2.000000,0.000000,0.000000,4.000000,4.000000,4.000000,4.000000,4.000000,4.000000,0.000000,,,,,,,,,,,,,,,,,1.000000,0.000000,0.508524,0.479126,-0.543579,0.465149,0.983030,-0.029789,-0.052252,-35.821011,45.231812,31.468691
1732157909.809454,1732157909.811945,5.000000,0.000000,4283.205078,4273.333496,4316.922852,4301.922852,4273.974121,4282.948730,4336.153809,4397.948730,4305.897461,4289.487305,4472.307617,4505.256348,4343.461426,4395.641113,1207.000000,1.000000,22.000000,,,,0.000000,2.000000,2.000000,0.000000,4.000000,2.000000,2.000000,0.000000,0.000000,4.000000,4.000000,4.000000,4.000000,4.000000,4.000000,0.000000,,,,,,,,,,,,,,,,,,,,,,,,,,,,
1732157909.817263,1732157909.819953,6.000000,0.000000,4280.384766,4269.358887,4311.153809,4301.538574,4281.153809,4284.615234,4334.871582,4399.102539,4302.820313,4290.128418,4470.897461,4507.820313,4342.179688,4395.641113,0.000000,1.000000,22.000000,,,,0.000000,2.000000,2.000000,0.000000,4.000000,2.000000,2.000000,0.000000,0.000000,4.000000,4.000000,4.000000,4.000000,4.000000,4.000000,0.000000,,,,,,,,,,,,,,,,,,,,,,,,,,,,
1732157909.825071,1732157909.827761,7.000000,0.000000,4281.025879,4270.000000,4312.179688,4296.153809,4296.153809,4290.256348,4335.512695,4400.897461,4298.333496,4285.641113,4462.563965,4507.307617,4336.794922,4397.051270,0.000000,1.000000,22.000000,,,,0.000000,2.000000,2.000000,0.000000,4.000000,2.000000,2.000000,0.000000,0.000000,4.000000,4.000000,4.000000,4.000000,4.000000,4.000000,0.000000,,,,,,,,,,,,,,,,,,,,,,,,,,,,
1732157909.832879,1732157909.835670,8.000000,0.000000,4281.922852,4276.025879,4314.358887,4298.589844,4290.128418,4287.948730,4336.153809,4400.641113,4296.025879,4279.871582,4464.487305,4506.794922,4333.461426,4397.563965,1536.000000,1.000000,22.000000,,,,0.000000,2.000000,2.000000,0.000000,4.000000,2.000000,2.000000,0.000000,0.000000,4.000000,4.000000,4.000000,4.000000,4.000000,4.000000,0.000000,,,,,,,,,,,,,,,,,2.000000,0.000000,0.508466,0.479187,-0.543579,0.465149,0.979123,-0.022952,-0.049811,-35.705017,45.087765,31.596306
1732157909.840687,1732157909.843478,9.000000,0.000000,4282.436035,4281.153809,4312.307617,4309.615234,4270.000000,4289.358887,4335.641113,4401.538574,4296.922852,4281.410156,4470.256348,4508.077148,4336.666504,4398.333496,1691.000000,1.000000,22.000000,,,,0.000000,2.000000,2.000000,0.000000,4.000000,2.000000,2.000000,0.000000,0.000000,4.000000,4.000000,4.000000,4.000000,4.000000,4.000000,0.000000,,,,,,,,,,,,,,,,,,,,,,,,,,,,
1732157909.848496,1732157909.851486,10.000000,0.000000,4282.692383,4279.487305,4311.025879,4311.538574,4275.384766,4297.051270,4336.153809,4402.563965,4298.205078,4283.589844,4466.025879,4505.641113,4337.307617,4397.692383,1554.000000,1.000000,22.000000,,,,0.000000,2.000000,2.000000,0.000000,4.000000,2.000000,2.000000,0.000000,0.000000,4.000000,4.000000,4.000000,4.000000,4.000000,4.000000,0.000000,,,,,,,,,,,,,,,,,,,,,,,,,,,,
1732157909.856304,1732157909.859294,11.000000,0.000000,4281.153809,4270.384766,4313.717773,4302.820313,4286.282227,4296.538574,4336.410156,4400.769043,4298.974121,4281.153809,4459.102539,4505.641113,4332.948730,4392.436035,1566.000000,1.000000,22.000000,,,,0.000000,2.000000,2.000000,0.000000,4.000000,2.000000,2.000000,0.000000,0.000000,4.000000,4.000000,4.000000,4.000000,4.000000,4.000000,0.000000,,,,,,,,,,,,,,,,,,,,,,,,,,,,
1732157909.864112,1732157909.867002,12.000000,0.000000,4280.128418,4266.922852,4315.000000,4298.461426,4280.000000,4294.487305,4335.769043,4400.769043,4301.282227,4282.436035,4460.128418,4507.948730,4333.333496,4388.589844,1701.000000,1.000000,22.000000,,,,0.000000,2.000000,2.000000,0.000000,4.000000,2.000000,2.000000,0.000000,0.000000,4.000000,4.000000,4.000000,4.000000,4.000000,4.000000,0.000000,,,,,,,,,,,,,,,,,3.000000,0.000000,0.508505,0.479126,-0.543701,0.465027,0.974240,-0.024905,-0.063484,-35.491066,45.104424,31.696342
1732157909.871920,1732157909.874811,13.000000,0.000000,4281.410156,4268.333496,4312.948730,4302.307617,4281.282227,4296.153809,4335.641113,4403.077148,4299.871582,4287.179688,4461.025879,4502.692383,4336.153809,4386.410156,1613.000000,1.000000,22.000000,,,,0.000000,2.000000,2.000000,0.000000,4.000000,2.000000,2.000000,0.000000,0.000000,4.000000,4.000000,4.000000,4.000000,4.000000,4.000000,0.000000,,,,,,,,,,,,,,,,,,,,,,,,,,,,
1732157909.879728,1732157909.882419,14.000000,0.000000,4281.025879,4270.128418,4313.846191,4302.179688,4282.436035,4293.205078,4335.641113,4400.897461,4296.282227,4291.282227,4459.743652,4496.025879,4333.974121,4384.230957,1554.000000,1.000000,22.000000,,,,0.000000,2.000000,2.000000,0.000000,4.000000,2.000000,2.000000,0.000000,0.000000,4.000000,4.000000,4.000000,4.000000,4.000000,4.000000,0.000000,1.000000,0.000000,2.000000,1.000000,0.000000,4.000000,2.000000,2.000000,0.000000,0.000000,4.000000,4.000000,4.000000,4.000000,4.000000,4.000000,,,,,,,,,,,,
1732157909.887537,1732157909.890227,15.000000,0.000000,4279.102539,4270.000000,4317.563965,4299.615234,4279.358887,4284.743652,4335.769043,4398.461426,4298.717773,4287.563965,4461.282227,4495.256348,4333.846191,4388.205078,1566.000000,1.000000,22.000000,,,,0.000000,2.000000,2.000000,0.000000,4.000000,2.000000,2.000000,0.000000,0.000000,4.000000,4.000000,4.000000,4.000000,4.000000,4.000000,0.000000,,,,,,,,,,,,,,,,,,,,,,,,,,,,
1732157909.895345,1732157909.897935,16.000000,0.000000,4276.794922,4265.256348,4316.153809,4298.333496,4292.179688,4278.589844,4336.410156,4399.871582,4297.820313,4278.974121,4461.538574,4495.512695,4335.128418,4395.384766,0.000000,1.000000,22.000000,,,,0.000000,2.000000,2.000000,0.000000,4.000000,2.000000,2.000000,0.000000,0.000000,4.000000,4.000000,4.000000,4.000000,4.000000,4.000000,0.000000,,,,,,,,,,,,,,,,,4.000000,0.000000,0.508592,0.479004,-0.543884,0.464844,0.969845,-0.029300,-0.052252,-35.714428,44.894585,31.912371
1732157909.903153,1732157909.905744,17.000000,0.000000,4276.282227,4265.512695,4314.102539,4299.230957,4295.512695,4285.769043,4336.025879,4401.153809,4295.641113,4280.769043,4460.641113,4497.820313,4332.307617,4395.256348,0.000000,1.000000,22.000000,,,,0.000000,2.000000,2.000000,0.000000,4.000000,2.000000,2.000000,0.000000,0.000000,4.000000,4.000000,4.000000,4.000000,4.000000,4.000000,0.000000,,,,,,,,,,,,,,,,,,,,,,,,,,,,
1732157909.910962,1732157909.913352,18.000000,0.000000,4278.461426,4272.563965,4312.948730,4303.205078,4275.897461,4291.794922,4335.512695,4400.128418,4306.922852,4291.282227,4467.563965,4506.153809,4334.102539,4391.282227,0.000000,1.000000,22.000000,,,,0.000000,2.000000,2.000000,0.000000,4.000000,2.000000,2.000000,0.000000,0.000000,4.000000,4.000000,4.000000,4.000000,4.000000,4.000000,0.000000,,,,,,,,,,,,,,,,,,,,,,,,,,,,
1732157909.918770,1732157909.921160,19.000000,0.000000,4278.461426,4274.358887,4312.051270,4306.538574,4269.230957,4286.282227,4335.897461,4400.384766,4312.307617,4296.794922,4472.692383,4507.436035,4338.717773,4389.487305,0.000000,1.000000,22.000000,,,,0.000000,2.000000,2.000000,0.000000,4.000000,2.000000,2.000000,0.000000,0.000000,4.000000,4.000000,4.000000,4.000000,4.000000,4.000000,0.000000,,,,,,,,,,,,,,,,,,,,,,,,,,,,
1732157909.926578,1732157909.928869,20.000000,0.000000,4276.282227,4271.153809,4312.820313,4306.538574,4276.025879,4284.487305,4335.641113,4399.743652,4299.743652,4291.282227,4466.282227,4498.589844,4337.307617,4387.307617,0.000000,1.000000,22.000000,,,,0.000000,2.000000,2.000000,0.000000,4.000000,2.000000,2.000000,0.000000,0.000000,4.000000,4.000000,4.000000,4.000000,4.000000,4.000000,0.000000,,,,,,,,,,,,,,,,,5.000000,0.000000,0.508632,0.478882,-0.544006,0.464783,0.985472,-0.017580,-0.047857,-35.627022,45.067947,31.710686
1732157909.934386,1732157909.936677,21.000000,0.000000,4277.436035,4272.948730,4313.589844,4304.102539,4277.948730,4288.589844,4334.743652,4397.692383,4294.615234,4284.102539,4462.179688,4498.461426,4334.230957,4387.179688,0.000000,1.000000,22.000000,,,,0.000000,2.000000,2.000000,0.000000,4.000000,2.000000,2.000000,0.000000,0.000000,4.000000,4.000000,4.000000,4.000000,4.000000,4.000000,0.000000,,,,,,,,,,,,,,,,,,,,,,,,,,,,
1732157909.942195,1732157909.944285,22.000000,0.000000,4279.615234,4274.230957,4311.025879,4302.563965,4290.897461,4286.025879,4334.358887,4397.820313,4299.358887,4281.025879,4462.820313,4498.974121,4333.333496,4383.846191,0.000000,1.000000,22.000000,,,,0.000000,2.000000,2.000000,0.000000,4.000000,2.000000,2.000000,0.000000,0.000000,4.000000,4.000000,4.000000,4.000000,4.000000,4.000000,0.000000,,,,,,,,,,,,,,,,,,,,,,,,,,,,
1732157909.950003,1732157909.952093,23.000000,0.000000,4278.077148,4269.230957,4311.282227,4301.410156,4297.948730,4283.974121,4335.000000,4399.615234,4294.615234,4280.512695,4458.589844,4495.384766,4332.692383,4381.153809,0.000000,1.000000,22.000000,,,,0.000000,2.000000,2.000000,0.000000,4.000000,2.000000,2.000000,0.000000,0.000000,4.000000,4.000000,4.000000,4.000000,4.000000,4.000000,0.000000,,,,,,,,,,,,,,,,,,,,,,,,,,,,
1732157909.957811,1732157909.959802,24.000000,0.000000,4278.717773,4270.641113,4315.128418,4304.102539,4277.820313,4294.487305,4334.871582,4400.000000,4294.230957,4284.358887,4463.333496,4502.179688,4334.743652,4390.384766,0.000000,1.000000,22.000000,,,,0.000000,2.000000,2.000000,0.000000,4.000000,2.000000,2.000000,0.000000,0.000000,4.000000,4.000000,4.000000,4.000000,4.000000,4.000000,0.000000,,,,,,,,,,,,,,,,,6.000000,0.000000,0.508632,0.478882,-0.544006,0.464783,0.981565,-0.028324,-0.038091,-35.676220,45.133369,31.742323
1732157909.965619,1732157909.967610,25.000000,0.000000,4283.205078,4276.282227,4316.538574,4308.461426,4267.179688,4294.871582,4333.846191,4399.615234,4304.230957,4292.307617,4473.333496,4510.256348,4336.410156,4398.461426,0.000000,1.000000,22.000000,,,,0.000000,2.000000,2.000000,0.000000,4.000000,2.000000,2.000000,0.000000,0.000000,4.000000,4.000000,4.000000,4.000000,4.000000,4.000000,0.000000,,,,,,,,,,,,,,,,,,,,,,,,,,,,
1732157909.973427,1732157909.975218,26.000000,0.000000,4283.846191,4276.922852,4316.153809,4309.487305,4278.077148,4282.563965,4336.282227,4400.384766,4303.846191,4294.487305,4470.128418,4507.563965,4333.205078,4395.256348,0.000000,1.000000,22.000000,,,,0.000000,2.000000,2.000000,0.000000,4.000000,2.000000,2.000000,0.000000,0.000000,4.000000,4.000000,4.000000,4.000000,4.000000,4.000000,0.000000,,,,,,,,,,,,,,,,,,,,,,,,,,,,
1732157909.981236,1732157909.983027,27.000000,0.000000,4282.307617,4278.077148,4316.025879,4309.102539,4280.897461,4279.102539,4341.025879,4401.410156,4296.282227,4285.769043,4465.128418,4505.512695,4332.563965,4395.128418,0.000000,1.000000,22.000000,,,,0.000000,2.000000,2.000000,0.000000,4.000000,2.000000,2.000000,0.000000,0.000000,4.000000,4.000000,4.000000,4.000000,4.000000,4.000000,0.000000,,,,,,,,,,,,,,,,,,,,,,,,,,,,
1732157909.989044,1732157909.990735,28.000000,0.000000,4282.820313,4278.461426,4316.410156,4307.820313,4273.205078,4282.436035,4342.692383,4400.256348,4293.974121,4285.384766,4467.179688,4511.922852,4337.436035,4401.410156,0.000000,1.000000,22.000000,,,,0.000000,2.000000,2.000000,0.000000,4.000000,2.000000,2.000000,0.000000,0.000000,4.000000,4.000000,4.000000,4.000000,4.000000,4.000000,0.000000,,,,,,,,,,,,,,,,,7.000000,0.000000,0.508463,0.478943,-0.544006,0.464905,0.982542,-0.030765,-0.044927,-35.991070,44.949696,31.822948
1732157909.996852,1732157909.998543,29.000000,0.000000,4283.077148,4273.205078,4316.025879,4302.563965,4281.025879,4282.051270,4341.153809,4399.487305,4295.256348,4290.641113,4465.128418,4510.641113,4336.025879,4399.487305,0.000000,1.000000,22.000000,,,,0.000000,2.000000,2.000000,0.000000,4.000000,2.000000,2.000000,0.000000,0.000000,4.000000,4.000000,4.000000,4.000000,4.000000,4.000000,0.000000,,,,,,,,,,,,,,,,,,,,,,,,,,,,
1732157910.004660,1732157910.006151,30.000000,0.000000,4281.794922,4271.922852,4314.102539,4295.256348,4290.769043,4280.000000,4340.641113,4401.025879,4293.974121,4285.384766,4460.256348,4504.230957,4333.846191,4396.153809,0.000000,1.000000,22.000000,,,,0.000000,2.000000,2.000000,0.000000,4.000000,2.000000,2.000000,0.000000,0.000000,4.000000,4.000000,4.000000,4.000000,4.000000,4.000000,0.000000,,,,,,,,,,,,,,,,,,,,,,,,,,,,
1732157910.012469,1732157910.013960,31.000000,0.000000,4282.179688,4276.282227,4311.538574,4300.128418,4277.051270,4283.333496,4341.153809,4401.153809,4292.948730,4284.358887,4466.666504,4508.846191,4338.974121,4398.717773,0.000000,1.000000,22.000000,,,,0.000000,2.000000,2.000000,0.000000,4.000000,2.000000,2.000000,0.000000,0.000000,4.000000,4.000000,4.000000,4.000000,4.000000,4.000000,0.000000,,,,,,,,,,,,,,,,,,,,,,,,,,,,
1732157910.020277,1732157910.021668,32.000000,0.000000,4283.077148,4271.922852,4312.563965,4304.358887,4263.974121,4286.025879,4341.666504,4400.128418,4294.871582,4296.025879,4473.589844,4515.769043,4339.615234,4400.128418,0.000000,1.000000,22.000000,,,,0.000000,2.000000,2.000000,0.000000,4.000000,2.000000,2.000000,0.000000,0.000000,4.000000,4.000000,4.000000,4.000000,4.000000,4.000000,0.000000,,,,,,,,,,,,,,,,,8.000000,0.000000,0.508197,0.479126,-0.543884,0.465149,0.982542,-0.018069,-0.066414,-35.904434,45.085922,31.539921
1732157910.028085,1732157910.029476,33.000000,0.000000,4281.538574,4269.871582,4315.128418,4298.461426,4269.743652,4285.897461,4342.051270,4401.153809,4295.512695,4296.410156,4468.589844,4511.025879,4333.974121,4395.641113,0.000000,1.000000,22.000000,,,,0.000000,2.000000,2.000000,0.000000,4.000000,2.000000,2.000000,0.000000,0.000000,4.000000,4.000000,4.000000,4.000000,4.000000,4.000000,0.000000,,,,,,,,,,,,,,,,,,,,,,,,,,,,
1732157910.035894,1732157910.037085,34.000000,0.000000,4278.333496,4272.179688,4313.589844,4295.641113,4277.820313,4287.820313,4341.666504,4401.794922,4295.512695,4284.230957,4461.282227,4504.102539,4334.102539,4390.256348,0.000000,1.000000,22.000000,,,,0.000000,2.000000,2.000000,0.000000,4.000000,2.000000,2.000000,0.000000,0.000000,4.000000,4.000000,4.000000,4.000000,4.000000,4.000000,0.000000,,,,,,,,,,,,,,,,,,,,,,,,,,,,
1732157910.043702,1732157910.044893,35.000000,0.000000,4276.410156,4264.230957,4312.692383,4296.153809,4290.512695,4290.641113,4341.922852,4400.128418,4294.102539,4283.205078,4459.102539,4505.384766,4335.256348,4388.461426,0.000000,1.000000,22.000000,,,,0.000000,2.000000,2.000000,0.000000,4.000000,2.000000,2.000000,0.000000,0.000000,4.000000,4.000000,4.000000,4.000000,4.000000,4.000000,0.000000,,,,,,,,,,,,,,,,,,,,,,,,,,,,
1732157910.051510,1732157910.052801,36.000000,0.000000,4277.563965,4262.692383,4315.641113,4296.153809,4293.717773,4288.846191,4341.922852,4401.282227,4293.589844,4291.666504,4466.282227,4507.307617,4334.358887,4386.794922,0.000000,1.000000,22.000000,,,,0.000000,2.000000,2.000000,0.000000,4.000000,2.000000,2.000000,0.000000,0.000000,4.000000,4.000000,4.000000,4.000000,4.000000,4.000000,0.000000,,,,,,,,,,,,,,,,,9.000000,0.000000,0.508286,0.478943,-0.544067,0.465027,0.981077,-0.027347,-0.052252,-35.920925,45.196262,31.310669
1732157910.059318,1732157910.060609,37.000000,0.000000,4279.487305,4273.974121,4314.871582,4299.871582,4271.410156,4285.256348,4341.794922,4401.153809,4295.000000,4296.410156,4472.307617,4506.282227,4338.589844,4385.256348,0.000000,1.000000,22.000000,,,,0.000000,2.000000,2.000000,0.000000,4.000000,2.000000,2.000000,0.000000,0.000000,4.000000,4.000000,4.000000,4.000000,4.000000,4.000000,0.000000,,,,,,,,,,,,,,,,,,,,,,,,,,,,
1732157910.067126,1732157910.068617,38.000000,0.000000,4279.871582,4274.230957,4311.794922,4301.666504,4261.153809,4285.384766,4341.922852,4397.692383,4296.794922,4297.051270,4468.205078,4508.461426,4342.820313,4388.333496,0.000000,1.000000,22.000000,,,,0.000000,2.000000,2.000000,0.000000,4.000000,2.000000,2.000000,0.000000,0.000000,4.000000,4.000000,4.000000,4.000000,4.000000,4.000000,0.000000,,,,,,,,,,,,,,,,,,,,,,,,,,,,
1732157910.074935,1732157910.076425,39.000000,0.000000,4279.487305,4269.615234,4312.563965,4298.077148,4278.974121,4285.256348,4341.794922,4397.179688,4295.384766,4295.256348,4465.769043,4510.769043,4341.153809,4396.538574,0.000000,1.000000,22.000000,,,,0.000000,2.000000,2.000000,0.000000,4.000000,2.000000,2.000000,0.000000,0.000000,4.000000,4.000000,4.000000,4.000000,4.000000,4.000000,0.000000,,,,,,,,,,,,,,,,,,,,,,,,,,,,
1732157910.082743,1732157910.084134,40.000000,0.000000,4280.769043,4276.538574,4313.589844,4297.563965,4283.717773,4283.974121,4341.922852,4400.256348,4293.333496,4292.820313,4473.205078,4509.358887,4341.794922,4396.410156,0.000000,1.000000,22.000000,,,,0.000000,2.000000,2.000000,0.000000,4.000000,2.000000,2.000000,0.000000,0.000000,4.000000,4.000000,4.000000,4.000000,4.000000,4.000000,0.000000,,,,,,,,,,,,,,,,,10.000000,0.000000,0.508238,0.479004,-0.544006,0.465088,0.981077,-0.027347,-0.052252,-35.777615,45.158974,31.251642
1732157910.090551,1732157910.091942,41.000000,0.000000,4281.153809,4281.794922,4311.794922,4301.410156,4273.205078,4285.769043,4342.307617,4400.512695,4296.410156,4292.563965,4474.230957,4505.897461,4343.589844,4390.128418,0.000000,1.000000,22.000000,,,,0.000000,2.000000,2.000000,0.000000,4.000000,2.000000,2.000000,0.000000,0.000000,4.000000,4.000000,4.000000,4.000000,4.000000,4.000000,0.000000,,,,,,,,,,,,,,,,,,,,,,,,,,,,
1732157910.098359,1732157910.099950,42.000000,0.000000,4279.615234,4278.717773,4312.179688,4301.922852,4282.948730,4285.512695,4342.051270,4400.000000,4291.410156,4290.897461,4464.102539,4503.461426,4339.743652,4391.282227,0.000000,1.000000,22.000000,,,,0.000000,2.000000,2.000000,0.000000,4.000000,2.000000,2.000000,0.000000,0.000000,4.000000,4.000000,4.000000,4.000000,4.000000,4.000000,0.000000,,,,,,,,,,,,,,,,,,,,,,,,,,,,
1732157910.106168,1732157910.107758,43.000000,0.000000,4278.589844,4277.563965,4314.230957,4298.974121,4300.512695,4281.282227,4341.410156,4401.666504,4281.410156,4287.692383,4460.256348,4506.025879,4337.820313,4396.666504,0.000000,1.000000,22.000000,,,,0.000000,2.000000,2.000000,0.000000,4.000000,2.000000,2.000000,0.000000,0.000000,4.000000,4.000000,4.000000,4.000000,4.000000,4.000000,0.000000,,,,,,,,,,,,,,,,,,,,,,,,,,,,
1732157910.113976,1732157910.115666,44.000000,0.000000,4279.358887,4279.615234,4314.743652,4299.358887,4288.077148,4286.025879,4342.820313,4401.282227,4280.512695,4291.282227,4466.922852,4507.436035,4339.102539,4397.563965,0.000000,1.000000,22.000000,,,,0.000000,2.000000,2.000000,0.000000,4.000000,2.000000,2.000000,0.000000,0.000000,4.000000,4.000000,4.000000,4.000000,4.000000,4.000000,0.000000,,,,,,,,,,,,,,,,,11.000000,0.000000,0.508182,0.479004,-0.544006,0.465149,0.986937,-0.024417,-0.050299,-35.649868,45.315434,31.392164
1732157910.121784,1732157910.123474,45.000000,0.000000,4281.922852,4280.128418,4312.820313,4304.615234,4261.666504,4295.256348,4341.666504,4400.000000,4283.333496,4296.794922,4474.230957,4506.666504,4339.358887,4396.666504,0.000000,1.000000,22.000000,,,,0.000000,2.000000,2.000000,0.000000,4.000000,2.000000,2.000000,0.000000,0.000000,4.000000,4.000000,4.000000,4.000000,4.000000,4.000000,0.000000,,,,,,,,,,,,,,,,,,,,,,,,,,,,
1732157910.129593,1732157910.131482,46.000000,0.000000,4282.563965,4281.282227,4314.358887,4303.717773,4268.461426,4290.512695,4335.512695,4400.384766,4285.256348,4295.897461,4471.922852,4507.563965,4339.615234,4396.922852,0.000000,1.000000,22.000000,,,,0.000000,2.000000,2.000000,0.000000,4.000000,2.000000,2.000000,0.000000,0.000000,4.000000,4.000000,4.000000,4.000000,4.000000,4.000000,0.000000,,,,,,,,,,,,,,,,,,,,,,,,,,,,
1732157910.137401,1732157910.139291,47.000000,0.000000,4280.128418,4279.487305,4317.051270,4298.333496,4286.666504,4282.179688,4333.589844,4400.769043,4290.128418,4293.589844,4466.282227,4508.974121,4340.384766,4397.563965,0.000000,1.000000,22.000000,,,,0.000000,2.000000,2.000000,0.000000,4.000000,2.000000,2.000000,0.000000,0.000000,4.000000,4.000000,4.000000,4.000000,4.000000,4.000000,0.000000,,,,,,,,,,,,,,,,,,,,,,,,,,,,
1732157910.145209,1732157910.147199,48.000000,0.000000,4280.384766,4277.436035,4315.256348,4300.128418,4276.025879,4283.974121,4336.666504,4401.025879,4289.743652,4296.282227,4471.410156,4507.820313,4343.461426,4398.974121,0.000000,1.000000,22.000000,,,,0.000000,2.000000,2.000000,0.000000,4.000000,2.000000,2.000000,0.000000,0.000000,4.000000,4.000000,4.000000,4.000000,4.000000,4.000000,0.000000,,,,,,,,,,,,,,,,,12.000000,0.000000,0.508431,0.478699,-0.544250,0.464905,0.980100,-0.034672,-0.049811,-35.413059,45.192169,31.455986
1732157910.153017,1732157910.155007,49.000000,0.000000,4282.436035,4279.871582,4315.512695,4300.128418,4278.717773,4285.256348,4336.666504,4400.256348,4281.538574,4295.256348,4473.333496,4505.512695,4342.820313,4397.948730,0.000000,1.000000,22.000000,,,,0.000000,2.000000,2.000000,0.000000,4.000000,2.000000,2.000000,0.000000,0.000000,4.000000,4.000000,4.000000,4.000000,4.000000,4.000000,0.000000,,,,,,,,,,,,,,,,,,,,,,,,,,,,
1732157910.160825,1732157910.163015,50.000000,0.000000,4282.179688,4280.897461,4316.410156,4295.897461,4299.358887,4287.436035,4335.000000,4399.102539,4280.641113,4290.512695,4462.948730,4506.794922,4336.538574,4396.410156,0.000000,1.000000,22.000000,,,,0.000000,2.000000,2.000000,0.000000,4.000000,2.000000,2.000000,0.000000,0.000000,4.000000,4.000000,4.000000,4.000000,4.000000,4.000000,0.000000,,,,,,,,,,,,,,,,,,,,,,,,,,,,
1732157910.168634,1732157910.170823,51.000000,0.000000,4278.717773,4272.179688,4312.820313,4294.615234,4285.000000,4295.641113,4335.128418,4399.358887,4283.846191,4289.358887,4459.230957,4505.000000,4333.077148,4395.384766,0.000000,1.000000,22.000000,,,,0.000000,2.000000,2.000000,0.000000,4.000000,2.000000,2.000000,0.000000,0.000000,4.000000,4.000000,4.000000,4.000000,4.000000,4.000000,0.000000,,,,,,,,,,,,,,,,,,,,,,,,,,,,
1732157910.176442,1732157910.178731,52.000000,0.000000,4270.897461,4262.436035,4309.615234,4293.974121,4263.205078,4298.717773,4335.384766,4401.025879,4281.922852,4290.384766,4463.333496,4497.307617,4334.871582,4387.820313,0.000000,1.000000,22.000000,,,,0.000000,2.000000,2.000000,0.000000,4.000000,2.000000,2.000000,0.000000,0.000000,4.000000,4.000000,4.000000,4.000000,4.000000,4.000000,0.000000,,,,,,,,,,,,,,,,,13.000000,0.000000,0.508328,0.478760,-0.544189,0.465027,0.980100,-0.034672,-0.049811,-35.342911,45.108990,31.332682
1732157910.184250,1732157910.186539,53.000000,0.000000,4265.897461,4265.384766,4310.897461,4293.077148,4273.717773,4295.897461,4335.128418,4401.282227,4281.794922,4292.051270,4460.897461,4495.897461,4333.846191,4383.333496,0.000000,1.000000,22.000000,,,,0.000000,2.000000,2.000000,0.000000,4.000000,2.000000,2.000000,0.000000,0.000000,4.000000,4.000000,4.000000,4.000000,4.000000,4.000000,0.000000,,,,,,,,,,,,,,,,,,,,,,,,,,,,
1732157910.192058,1732157910.194547,54.000000,0.000000,4272.179688,4273.205078,4311.922852,4293.717773,4284.871582,4294.615234,4336.282227,4400.128418,4282.820313,4293.333496,4460.384766,4497.948730,4335.000000,4391.410156,0.000000,1.000000,22.000000,,,,0.000000,2.000000,2.000000,0.000000,4.000000,2.000000,2.000000,0.000000,0.000000,4.000000,4.000000,4.000000,4.000000,4.000000,4.000000,0.000000,,,,,,,,,,,,,,,,,,,,,,,,,,,,
1732157910.199867,1732157910.202356,55.000000,0.000000,4280.769043,4278.205078,4313.461426,4295.897461,4276.666504,4290.128418,4336.153809,4399.230957,4280.000000,4295.256348,4468.461426,4499.871582,4343.077148,4399.871582,0.000000,1.000000,22.000000,,,,0.000000,2.000000,2.000000,0.000000,4.000000,2.000000,2.000000,0.000000,0.000000,4.000000,4.000000,4.000000,4.000000,4.000000,4.000000,0.000000,,,,,,,,,,,,,,,,,,,,,,,,,,,,
1732157910.207675,1732157910.210264,56.000000,0.000000,4280.641113,4280.769043,4315.384766,4296.922852,4278.205078,4281.025879,4335.384766,4399.871582,4280.641113,4295.128418,4473.461426,4503.589844,4345.384766,4400.256348,0.000000,1.000000,22.000000,,,,0.000000,2.000000,2.000000,0.000000,4.000000,2.000000,2.000000,0.000000,0.000000,4.000000,4.000000,4.000000,4.000000,4.000000,4.000000,0.000000,,,,,,,,,,,,,,,,,14.000000,0.000000,0.508013,0.479065,-0.544006,0.465271,0.981077,-0.020999,-0.051276,-35.309425,45.088284,31.016138
1732157910.215483,1732157910.218072,57.000000,0.000000,4277.820313,4276.666504,4316.666504,4295.384766,4283.589844,4279.487305,4338.717773,4400.897461,4286.666504,4294.615234,4473.077148,4507.820313,4342.307617,4399.358887,0.000000,1.000000,22.000000,,,,0.000000,2.000000,2.000000,0.000000,4.000000,2.000000,2.000000,0.000000,0.000000,4.000000,4.000000,4.000000,4.000000,4.000000,4.000000,0.000000,,,,,,,,,,,,,,,,,,,,,,,,,,,,
