title:3five, start timestamp:1732157964.342270, stop timestamp:1732158008.255858, headset type:EPOCX, headset serial:E5020C3A, headset firmware:730, channels:67, sampling rate:eeg_128;mot_32, samples:5625      , version:2.2, 
Timestamp,OriginalTimestamp,EEG.Counter,EEG.Interpolated,EEG.AF3,EEG.F7,EEG.F3,EEG.FC5,EEG.T7,EEG.P7,EEG.O1,EEG.O2,EEG.P8,EEG.T8,EEG.FC6,EEG.F4,EEG.F8,EEG.AF4,EEG.RawCq,EEG.Battery,EEG.BatteryPercent,MarkerIndex,MarkerType,MarkerValueInt,EEG.MarkerHardware,CQ.AF3,CQ.F7,CQ.F3,CQ.FC5,CQ.T7,CQ.P7,CQ.O1,CQ.O2,CQ.P8,CQ.T8,CQ.FC6,CQ.F4,CQ.F8,CQ.AF4,CQ.Overall,EQ.SampleRateQuality,EQ.OVERALL,EQ.AF3,EQ.F7,EQ.F3,EQ.FC5,EQ.T7,EQ.P7,EQ.O1,EQ.O2,EQ.P8,EQ.T8,EQ.FC6,EQ.F4,EQ.F8,EQ.AF4,MOT.CounterMems,MOT.InterpolatedMems,MOT.Q0,MOT.Q1,MOT.Q2,MOT.Q3,MOT.AccX,MOT.AccY,MOT.AccZ,MOT.MagX,MOT.MagY,MOT.MagZ
1732157964.342270,1732157964.346072,77.000000,0.000000,4297.563965,4265.769043,4313.846191,4295.256348,4260.256348,4284.615234,4335.384766,4401.153809,4309.615234,4294.487305,4502.948730,4524.230957,4354.871582,4434.743652,1608.000000,1.000000,22.000000,,,,0.000000,2.000000,2.000000,0.000000,4.000000,2.000000,2.000000,0.000000,0.000000,4.000000,4.000000,4.000000,4.000000,4.000000,4.000000,0.000000,,,,,,,,,,,,,,,,,,,,,,,,,,,,
1732157964.350078,1732157964.353680,78.000000,0.000000,4297.307617,4267.436035,4309.230957,4293.846191,4262.563965,4289.871582,4334.230957,4398.974121,4308.333496,4293.717773,4497.051270,4522.692383,4357.563965,4436.282227,1554.000000,1.000000,22.000000,,,,0.000000,2.000000,2.000000,0.000000,4.000000,2.000000,2.000000,0.000000,0.000000,4.000000,4.000000,4.000000,4.000000,4.000000,4.000000,0.000000,1.000000,0.000000,2.000000,2.000000,0.000000,4.000000,2.000000,2.000000,0.000000,0.000000,4.000000,4.000000,4.000000,4.000000,4.000000,4.000000,,,,,,,,,,,,
1732157964.357886,1732157964.361488,79.000000,0.000000,4295.641113,4272.436035,4307.948730,4297.820313,4259.871582,4293.205078,4336.153809,4396.922852,4308.846191,4285.512695,4491.282227,4523.461426,4352.563965,4432.692383,1566.000000,1.000000,22.000000,,,,0.000000,2.000000,2.000000,0.000000,4.000000,2.000000,2.000000,0.000000,0.000000,4.000000,4.000000,4.000000,4.000000,4.000000,4.000000,0.000000,,,,,,,,,,,,,,,,,,,,,,,,,,,,
1732157964.365694,1732157964.369196,80.000000,0.000000,4296.538574,4277.692383,4311.153809,4297.692383,4263.717773,4292.563965,4336.538574,4400.641113,4311.282227,4280.641113,4493.589844,4522.051270,4347.948730,4431.410156,1696.000000,1.000000,22.000000,,,,0.000000,2.000000,2.000000,0.000000,4.000000,2.000000,2.000000,0.000000,0.000000,4.000000,4.000000,4.000000,4.000000,4.000000,4.000000,0.000000,,,,,,,,,,,,,,,,,20.000000,0.000000,0.547908,0.501282,-0.513184,0.430298,0.957148,0.112318,-0.018069,-33.779724,46.062416,32.044445
1732157964.373503,1732157964.377005,81.000000,0.000000,4296.410156,4280.128418,4310.512695,4293.974121,4266.153809,4293.461426,4335.769043,4403.846191,4312.563965,4282.948730,4494.871582,4521.666504,4354.615234,4433.333496,1608.000000,1.000000,22.000000,,,,0.000000,2.000000,2.000000,0.000000,4.000000,2.000000,2.000000,0.000000,0.000000,4.000000,4.000000,4.000000,4.000000,4.000000,4.000000,0.000000,,,,,,,,,,,,,,,,,,,,,,,,,,,,
1732157964.381311,1732157964.384613,82.000000,0.000000,4291.153809,4278.333496,4308.205078,4293.717773,4263.589844,4289.615234,4336.410156,4401.666504,4311.410156,4282.948730,4492.948730,4523.333496,4360.769043,4432.179688,1554.000000,1.000000,22.000000,,,,0.000000,2.000000,2.000000,0.000000,4.000000,2.000000,2.000000,0.000000,0.000000,4.000000,4.000000,4.000000,4.000000,4.000000,4.000000,0.000000,,,,,,,,,,,,,,,,,,,,,,,,,,,,
1732157964.389119,1732157964.392421,83.000000,0.000000,4287.948730,4279.487305,4309.743652,4296.153809,4253.717773,4281.538574,4336.025879,4402.820313,4309.487305,4274.487305,4491.794922,4516.922852,4354.102539,4430.512695,1566.000000,1.000000,22.000000,,,,0.000000,2.000000,2.000000,0.000000,4.000000,2.000000,2.000000,0.000000,0.000000,4.000000,4.000000,4.000000,4.000000,4.000000,4.000000,0.000000,,,,,,,,,,,,,,,,,,,,,,,,,,,,
1732157964.396927,1732157964.400329,84.000000,0.000000,4290.769043,4285.128418,4309.743652,4295.641113,4248.974121,4281.025879,4335.897461,4406.538574,4309.102539,4267.948730,4489.743652,4509.358887,4348.717773,4427.436035,1696.000000,1.000000,22.000000,,,,0.000000,2.000000,2.000000,0.000000,4.000000,2.000000,2.000000,0.000000,0.000000,4.000000,4.000000,4.000000,4.000000,4.000000,4.000000,0.000000,,,,,,,,,,,,,,,,,21.000000,0.000000,0.549642,0.501221,-0.512512,0.428955,0.962520,0.139177,-0.009767,-33.729912,46.203892,32.085999
1732157964.404736,1732157964.408138,85.000000,0.000000,4293.846191,4290.384766,4309.743652,4296.153809,4260.641113,4283.205078,4336.922852,4403.846191,4307.692383,4274.102539,4489.743652,4511.794922,4353.846191,4427.179688,1608.000000,1.000000,22.000000,,,,0.000000,2.000000,2.000000,0.000000,4.000000,2.000000,2.000000,0.000000,0.000000,4.000000,4.000000,4.000000,4.000000,4.000000,4.000000,0.000000,,,,,,,,,,,,,,,,,,,,,,,,,,,,
1732157964.412544,1732157964.416146,86.000000,0.000000,4294.871582,4291.538574,4311.282227,4299.743652,4268.589844,4281.153809,4335.128418,4397.692383,4305.000000,4279.358887,4493.589844,4518.589844,4361.794922,4430.000000,1554.000000,1.000000,22.000000,,,,0.000000,2.000000,2.000000,0.000000,4.000000,2.000000,2.000000,0.000000,0.000000,4.000000,4.000000,4.000000,4.000000,4.000000,4.000000,0.000000,,,,,,,,,,,,,,,,,,,,,,,,,,,,
1732157964.420352,1732157964.423954,87.000000,0.000000,4294.230957,4289.615234,4310.897461,4297.307617,4255.897461,4279.615234,4333.205078,4398.077148,4302.692383,4271.666504,4496.666504,4521.666504,4364.487305,4430.256348,1566.000000,1.000000,22.000000,,,,0.000000,2.000000,2.000000,0.000000,4.000000,2.000000,2.000000,0.000000,0.000000,4.000000,4.000000,4.000000,4.000000,4.000000,4.000000,0.000000,,,,,,,,,,,,,,,,,,,,,,,,,,,,
1732157964.428161,1732157964.431862,88.000000,0.000000,4292.820313,4292.307617,4311.922852,4293.589844,4247.307617,4280.512695,4334.358887,4401.538574,4297.820313,4262.307617,4492.436035,4524.230957,4360.897461,4428.461426,1696.000000,1.000000,22.000000,,,,0.000000,2.000000,2.000000,0.000000,4.000000,2.000000,2.000000,0.000000,0.000000,4.000000,4.000000,4.000000,4.000000,4.000000,4.000000,0.000000,,,,,,,,,,,,,,,,,22.000000,0.000000,0.551105,0.502380,-0.510925,0.427612,0.964962,0.182639,-0.028812,-33.822895,46.318485,32.202991
1732157964.435969,1732157964.439670,89.000000,0.000000,4295.256348,4294.743652,4310.641113,4296.282227,4257.179688,4280.897461,4335.000000,4401.666504,4297.820313,4263.333496,4490.641113,4525.128418,4359.743652,4428.461426,1608.000000,1.000000,22.000000,,,,0.000000,2.000000,2.000000,0.000000,4.000000,2.000000,2.000000,0.000000,0.000000,4.000000,4.000000,4.000000,4.000000,4.000000,4.000000,0.000000,,,,,,,,,,,,,,,,,,,,,,,,,,,,
1732157964.443777,1732157964.447279,90.000000,0.000000,4299.230957,4293.974121,4307.820313,4298.333496,4264.230957,4280.641113,4333.461426,4401.153809,4307.692383,4270.256348,4500.256348,4528.589844,4362.563965,4429.487305,1554.000000,1.000000,22.000000,,,,0.000000,2.000000,2.000000,0.000000,4.000000,2.000000,2.000000,0.000000,0.000000,4.000000,4.000000,4.000000,4.000000,4.000000,4.000000,0.000000,,,,,,,,,,,,,,,,,,,,,,,,,,,,
1732157964.451585,1732157964.455087,91.000000,0.000000,4297.436035,4293.589844,4306.538574,4297.563965,4260.128418,4279.871582,4333.461426,4402.179688,4313.333496,4275.256348,4502.820313,4533.589844,4362.179688,4428.717773,1566.000000,1.000000,22.000000,,,,0.000000,2.000000,2.000000,0.000000,4.000000,2.000000,2.000000,0.000000,0.000000,4.000000,4.000000,4.000000,4.000000,4.000000,4.000000,0.000000,,,,,,,,,,,,,,,,,,,,,,,,,,,,
1732157964.459393,1732157964.462795,92.000000,0.000000,4297.436035,4293.846191,4305.256348,4296.538574,4258.461426,4280.128418,4333.974121,4400.897461,4313.077148,4277.948730,4498.461426,4528.717773,4361.794922,4428.461426,1696.000000,1.000000,22.000000,,,,0.000000,2.000000,2.000000,0.000000,4.000000,2.000000,2.000000,0.000000,0.000000,4.000000,4.000000,4.000000,4.000000,4.000000,4.000000,0.000000,,,,,,,,,,,,,,,,,23.000000,0.000000,0.550964,0.502991,-0.510681,0.427368,0.970822,0.149432,-0.015139,-34.011543,46.337975,32.116089
1732157964.467202,1732157964.470603,93.000000,0.000000,4301.922852,4296.666504,4303.589844,4297.820313,4262.051270,4281.922852,4335.512695,4397.179688,4312.820313,4280.384766,4500.256348,4523.461426,4367.307617,4430.512695,1608.000000,1.000000,22.000000,,,,0.000000,2.000000,2.000000,0.000000,4.000000,2.000000,2.000000,0.000000,0.000000,4.000000,4.000000,4.000000,4.000000,4.000000,4.000000,0.000000,,,,,,,,,,,,,,,,,,,,,,,,,,,,
1732157964.475010,1732157964.478611,94.000000,0.000000,4301.538574,4299.487305,4301.153809,4301.794922,4261.794922,4281.922852,4334.487305,4398.333496,4303.974121,4275.384766,4498.461426,4524.615234,4366.153809,4430.512695,1554.000000,1.000000,22.000000,,,,0.000000,2.000000,2.000000,0.000000,4.000000,2.000000,2.000000,0.000000,0.000000,4.000000,4.000000,4.000000,4.000000,4.000000,4.000000,0.000000,,,,,,,,,,,,,,,,,,,,,,,,,,,,
1732157964.482818,1732157964.486419,95.000000,0.000000,4296.666504,4298.717773,4297.051270,4301.922852,4261.153809,4279.743652,4330.641113,4398.205078,4293.589844,4266.282227,4489.487305,4524.358887,4358.333496,4428.717773,1566.000000,1.000000,22.000000,,,,0.000000,2.000000,2.000000,0.000000,4.000000,2.000000,2.000000,0.000000,0.000000,4.000000,4.000000,4.000000,4.000000,4.000000,4.000000,0.000000,,,,,,,,,,,,,,,,,,,,,,,,,,,,
1732157964.490626,1732157964.494328,96.000000,0.000000,4295.384766,4295.384766,4293.846191,4297.948730,4262.820313,4279.487305,4331.282227,4393.205078,4298.461426,4270.512695,4489.487305,4522.179688,4359.871582,4428.589844,1696.000000,1.000000,22.000000,,,,0.000000,2.000000,2.000000,0.000000,4.000000,2.000000,2.000000,0.000000,0.000000,4.000000,4.000000,4.000000,4.000000,4.000000,4.000000,0.000000,,,,,,,,,,,,,,,,,24.000000,0.000000,0.550315,0.503784,-0.510803,0.427124,0.961055,0.142107,-0.023440,-34.059349,46.380424,32.282368
1732157964.498435,1732157964.502136,97.000000,0.000000,4297.563965,4295.256348,4293.974121,4295.128418,4262.692383,4280.897461,4332.307617,4394.230957,4308.333496,4281.282227,4494.615234,4521.922852,4365.512695,4428.974121,1608.000000,1.000000,22.000000,,,,0.000000,2.000000,2.000000,0.000000,4.000000,2.000000,2.000000,0.000000,0.000000,4.000000,4.000000,4.000000,4.000000,4.000000,4.000000,0.000000,,,,,,,,,,,,,,,,,,,,,,,,,,,,
1732157964.506243,1732157964.510144,98.000000,0.000000,4298.974121,4301.025879,4289.615234,4297.820313,4262.436035,4282.051270,4327.436035,4397.307617,4311.153809,4282.051270,4494.358887,4522.179688,4366.153809,4426.410156,1554.000000,1.000000,22.000000,,,,0.000000,2.000000,2.000000,0.000000,4.000000,2.000000,2.000000,0.000000,0.000000,4.000000,4.000000,4.000000,4.000000,4.000000,4.000000,0.000000,,,,,,,,,,,,,,,,,,,,,,,,,,,,
1732157964.514051,1732157964.517952,99.000000,0.000000,4297.563965,4303.205078,4286.922852,4301.025879,4263.077148,4281.794922,4326.538574,4394.102539,4311.153809,4280.000000,4494.487305,4523.589844,4362.692383,4422.563965,1566.000000,1.000000,22.000000,,,,0.000000,2.000000,2.000000,0.000000,4.000000,2.000000,2.000000,0.000000,0.000000,4.000000,4.000000,4.000000,4.000000,4.000000,4.000000,0.000000,,,,,,,,,,,,,,,,,,,,,,,,,,,,
1732157964.521860,1732157964.525860,100.000000,0.000000,4294.358887,4297.179688,4289.102539,4299.102539,4263.333496,4280.512695,4329.743652,4392.563965,4309.358887,4281.153809,4493.589844,4518.974121,4358.717773,4418.589844,1696.000000,1.000000,22.000000,,,,0.000000,2.000000,2.000000,0.000000,4.000000,2.000000,2.000000,0.000000,0.000000,4.000000,4.000000,4.000000,4.000000,4.000000,4.000000,0.000000,,,,,,,,,,,,,,,,,25.000000,0.000000,0.547684,0.502625,-0.513794,0.428284,0.951288,0.085460,-0.045416,-33.918076,46.306477,32.245384
1732157964.529668,1732157964.533668,101.000000,0.000000,4292.948730,4293.846191,4291.410156,4296.922852,4263.717773,4279.871582,4326.794922,4397.692383,4308.589844,4279.102539,4490.256348,4510.897461,4356.025879,4415.256348,1608.000000,1.000000,22.000000,,,,0.000000,2.000000,2.000000,0.000000,4.000000,2.000000,2.000000,0.000000,0.000000,4.000000,4.000000,4.000000,4.000000,4.000000,4.000000,0.000000,,,,,,,,,,,,,,,,,,,,,,,,,,,,
1732157964.537476,1732157964.541676,102.000000,0.000000,4293.974121,4296.666504,4294.358887,4298.205078,4265.256348,4280.000000,4326.410156,4399.615234,4310.641113,4276.794922,4489.615234,4510.641113,4357.307617,4413.846191,1554.000000,1.000000,22.000000,,,,0.000000,2.000000,2.000000,0.000000,4.000000,2.000000,2.000000,0.000000,0.000000,4.000000,4.000000,4.000000,4.000000,4.000000,4.000000,0.000000,,,,,,,,,,,,,,,,,,,,,,,,,,,,
1732157964.545284,1732157964.549485,103.000000,0.000000,4293.846191,4296.282227,4297.179688,4297.436035,4263.717773,4278.974121,4330.256348,4396.153809,4310.384766,4279.358887,4490.769043,4514.871582,4357.051270,4411.794922,1566.000000,1.000000,22.000000,,,,0.000000,2.000000,2.000000,0.000000,4.000000,2.000000,2.000000,0.000000,0.000000,4.000000,4.000000,4.000000,4.000000,4.000000,4.000000,0.000000,,,,,,,,,,,,,,,,,,,,,,,,,,,,
1732157964.553092,1732157964.557293,104.000000,0.000000,4292.051270,4294.358887,4297.948730,4295.000000,4261.410156,4278.846191,4330.769043,4396.666504,4311.025879,4281.794922,4490.128418,4516.025879,4350.512695,4410.641113,1696.000000,1.000000,22.000000,,,,0.000000,2.000000,2.000000,0.000000,4.000000,2.000000,2.000000,0.000000,0.000000,4.000000,4.000000,4.000000,4.000000,4.000000,4.000000,0.000000,,,,,,,,,,,,,,,,,26.000000,0.000000,0.546717,0.500977,-0.515869,0.428955,0.960566,0.080088,-0.039556,-34.036972,46.363247,32.248760
1732157964.560901,1732157964.565101,105.000000,0.000000,4292.179688,4296.794922,4302.820313,4299.487305,4262.692383,4279.871582,4330.384766,4399.358887,4312.307617,4276.922852,4487.563965,4516.538574,4348.205078,4414.102539,1608.000000,1.000000,22.000000,,,,0.000000,2.000000,2.000000,0.000000,4.000000,2.000000,2.000000,0.000000,0.000000,4.000000,4.000000,4.000000,4.000000,4.000000,4.000000,0.000000,,,,,,,,,,,,,,,,,,,,,,,,,,,,
1732157964.568709,1732157964.572709,106.000000,0.000000,4294.743652,4298.461426,4308.974121,4300.384766,4265.769043,4279.871582,4332.436035,4398.974121,4307.820313,4271.410156,4486.538574,4517.948730,4351.282227,4413.717773,1554.000000,1.000000,22.000000,,,,0.000000,2.000000,2.000000,0.000000,4.000000,2.000000,2.000000,0.000000,0.000000,4.000000,4.000000,4.000000,4.000000,4.000000,4.000000,0.000000,,,,,,,,,,,,,,,,,,,,,,,,,,,,
1732157964.576517,1732157964.580518,107.000000,0.000000,4295.641113,4295.512695,4306.538574,4293.589844,4261.282227,4278.461426,4334.615234,4397.307617,4302.563965,4275.000000,4488.589844,4518.461426,4351.153809,4412.307617,1566.000000,1.000000,22.000000,,,,0.000000,2.000000,2.000000,0.000000,4.000000,2.000000,2.000000,0.000000,0.000000,4.000000,4.000000,4.000000,4.000000,4.000000,4.000000,0.000000,,,,,,,,,,,,,,,,,,,,,,,,,,,,
1732157964.584325,1732157964.588226,108.000000,0.000000,4295.897461,4295.128418,4307.692383,4293.461426,4256.153809,4277.692383,4334.615234,4398.077148,4304.743652,4276.794922,4492.179688,4522.563965,4352.563965,4419.487305,1696.000000,1.000000,22.000000,,,,0.000000,2.000000,2.000000,0.000000,4.000000,2.000000,2.000000,0.000000,0.000000,4.000000,4.000000,4.000000,4.000000,4.000000,4.000000,0.000000,,,,,,,,,,,,,,,,,27.000000,0.000000,0.546399,0.499939,-0.516907,0.429321,0.960566,0.080088,-0.039556,-34.156616,46.515896,32.169830
1732157964.592134,1732157964.596034,109.000000,0.000000,4297.563965,4300.256348,4314.871582,4296.025879,4258.589844,4277.820313,4335.128418,4399.102539,4304.230957,4268.717773,4491.153809,4525.897461,4355.769043,4426.922852,1608.000000,1.000000,22.000000,,,,0.000000,2.000000,2.000000,0.000000,4.000000,2.000000,2.000000,0.000000,0.000000,4.000000,4.000000,4.000000,4.000000,4.000000,4.000000,0.000000,,,,,,,,,,,,,,,,,,,,,,,,,,,,
1732157964.599942,1732157964.603643,110.000000,0.000000,4298.461426,4305.000000,4313.333496,4296.666504,4258.205078,4277.820313,4334.487305,4399.487305,4300.769043,4262.948730,4487.307617,4523.717773,4354.743652,4420.897461,1554.000000,1.000000,22.000000,,,,0.000000,2.000000,2.000000,0.000000,4.000000,2.000000,2.000000,0.000000,0.000000,4.000000,4.000000,4.000000,4.000000,4.000000,4.000000,0.000000,,,,,,,,,,,,,,,,,,,,,,,,,,,,
1732157964.607750,1732157964.611451,111.000000,0.000000,4297.436035,4307.563965,4310.512695,4298.461426,4255.384766,4278.077148,4334.358887,4399.615234,4307.436035,4268.589844,4489.615234,4523.974121,4356.794922,4414.487305,1566.000000,1.000000,22.000000,,,,0.000000,2.000000,2.000000,0.000000,4.000000,2.000000,2.000000,0.000000,0.000000,4.000000,4.000000,4.000000,4.000000,4.000000,4.000000,0.000000,,,,,,,,,,,,,,,,,,,,,,,,,,,,
1732157964.615559,1732157964.619159,112.000000,0.000000,4297.179688,4310.512695,4314.743652,4300.000000,4259.743652,4278.461426,4335.256348,4399.487305,4306.282227,4266.410156,4487.563965,4524.615234,4357.051270,4418.333496,1696.000000,1.000000,22.000000,,,,0.000000,2.000000,2.000000,0.000000,4.000000,2.000000,2.000000,0.000000,0.000000,4.000000,4.000000,4.000000,4.000000,4.000000,4.000000,0.000000,,,,,,,,,,,,,,,,,28.000000,0.000000,0.546638,0.495728,-0.520142,0.429993,0.989867,0.104993,-0.027835,-34.036858,46.622875,32.277561
1732157964.623367,1732157964.626967,113.000000,0.000000,4297.948730,4315.000000,4316.538574,4299.102539,4264.615234,4278.717773,4335.641113,4401.153809,4292.692383,4252.307617,4476.538574,4522.307617,4348.461426,4422.179688,1608.000000,1.000000,22.000000,,,,0.000000,2.000000,2.000000,0.000000,4.000000,2.000000,2.000000,0.000000,0.000000,4.000000,4.000000,4.000000,4.000000,4.000000,4.000000,0.000000,,,,,,,,,,,,,,,,,,,,,,,,,,,,
1732157964.631175,1732157964.634576,114.000000,0.000000,4298.461426,4319.230957,4318.077148,4298.589844,4261.282227,4275.641113,4335.512695,4404.615234,4294.487305,4254.358887,4476.025879,4523.205078,4347.179688,4421.153809,1554.000000,1.000000,22.000000,,,,0.000000,2.000000,2.000000,0.000000,4.000000,2.000000,2.000000,0.000000,0.000000,4.000000,4.000000,4.000000,4.000000,4.000000,4.000000,0.000000,,,,,,,,,,,,,,,,,,,,,,,,,,,,
1732157964.638983,1732157964.642384,115.000000,0.000000,4297.948730,4320.000000,4321.922852,4302.307617,4261.282227,4269.743652,4335.641113,4402.820313,4302.820313,4265.512695,4480.512695,4522.307617,4352.820313,4416.922852,1566.000000,1.000000,22.000000,,,,0.000000,2.000000,2.000000,0.000000,4.000000,2.000000,2.000000,0.000000,0.000000,4.000000,4.000000,4.000000,4.000000,4.000000,4.000000,0.000000,,,,,,,,,,,,,,,,,,,,,,,,,,,,
1732157964.646791,1732157964.650092,116.000000,0.000000,4297.179688,4320.384766,4322.692383,4303.974121,4261.153809,4265.897461,4336.922852,4397.948730,4299.102539,4263.717773,4476.922852,4516.538574,4350.897461,4412.436035,1696.000000,1.000000,22.000000,,,,0.000000,2.000000,2.000000,0.000000,4.000000,2.000000,2.000000,0.000000,0.000000,4.000000,4.000000,4.000000,4.000000,4.000000,4.000000,0.000000,,,,,,,,,,,,,,,,,29.000000,0.000000,0.546776,0.494568,-0.521301,0.429749,0.984495,0.142107,-0.040532,-33.946522,46.561195,32.186493
1732157964.654600,1732157964.657900,117.000000,0.000000,4297.563965,4320.769043,4321.025879,4300.384766,4256.153809,4266.282227,4336.666504,4398.589844,4294.871582,4260.641113,4476.794922,4518.846191,4347.563965,4414.230957,1608.000000,1.000000,22.000000,,,,0.000000,2.000000,2.000000,0.000000,4.000000,2.000000,2.000000,0.000000,0.000000,4.000000,4.000000,4.000000,4.000000,4.000000,4.000000,0.000000,,,,,,,,,,,,,,,,,,,,,,,,,,,,
1732157964.662408,1732157964.665509,118.000000,0.000000,4298.717773,4318.846191,4321.666504,4294.487305,4254.230957,4272.436035,4336.282227,4404.743652,4297.563965,4266.538574,4480.512695,4527.820313,4350.512695,4418.589844,1554.000000,1.000000,22.000000,,,,0.000000,2.000000,2.000000,0.000000,4.000000,2.000000,2.000000,0.000000,0.000000,4.000000,4.000000,4.000000,4.000000,4.000000,4.000000,0.000000,,,,,,,,,,,,,,,,,,,,,,,,,,,,
1732157964.670216,1732157964.673317,119.000000,0.000000,4300.897461,4322.948730,4321.538574,4295.897461,4254.358887,4277.692383,4336.282227,4404.358887,4301.153809,4266.025879,4478.974121,4528.974121,4350.384766,4419.230957,1566.000000,1.000000,22.000000,,,,0.000000,2.000000,2.000000,0.000000,4.000000,2.000000,2.000000,0.000000,0.000000,4.000000,4.000000,4.000000,4.000000,4.000000,4.000000,0.000000,,,,,,,,,,,,,,,,,,,,,,,,,,,,
1732157964.678024,1732157964.681025,120.000000,0.000000,4304.102539,4330.641113,4322.307617,4304.615234,4253.717773,4272.563965,4336.153809,4399.487305,4302.307617,4260.128418,4478.717773,4524.487305,4348.717773,4419.487305,1696.000000,1.000000,22.000000,,,,0.000000,2.000000,2.000000,0.000000,4.000000,2.000000,2.000000,0.000000,0.000000,4.000000,4.000000,4.000000,4.000000,4.000000,4.000000,0.000000,,,,,,,,,,,,,,,,,30.000000,0.000000,0.546505,0.494568,-0.521484,0.429871,0.954218,0.135759,-0.035161,-33.866684,46.322903,32.477726
1732157964.685833,1732157964.688834,121.000000,0.000000,4306.025879,4329.102539,4322.051270,4303.974121,4252.051270,4263.205078,4336.538574,4401.025879,4297.436035,4262.436035,4479.743652,4523.846191,4350.512695,4422.051270,1608.000000,1.000000,22.000000,,,,0.000000,2.000000,2.000000,0.000000,4.000000,2.000000,2.000000,0.000000,0.000000,4.000000,4.000000,4.000000,4.000000,4.000000,4.000000,0.000000,,,,,,,,,,,,,,,,,,,,,,,,,,,,
1732157964.693641,1732157964.696442,122.000000,0.000000,4302.307617,4323.589844,4320.128418,4297.051270,4250.128418,4264.358887,4336.794922,4403.717773,4292.051270,4264.615234,4475.641113,4522.948730,4348.974121,4419.102539,1554.000000,1.000000,22.000000,,,,0.000000,2.000000,2.000000,0.000000,4.000000,2.000000,2.000000,0.000000,0.000000,4.000000,4.000000,4.000000,4.000000,4.000000,4.000000,0.000000,,,,,,,,,,,,,,,,,,,,,,,,,,,,
1732157964.701449,1732157964.704250,123.000000,0.000000,4296.922852,4322.948730,4320.897461,4296.538574,4250.384766,4268.974121,4335.512695,4400.256348,4292.948730,4256.153809,4472.820313,4521.025879,4342.051270,4412.307617,1566.000000,1.000000,22.000000,,,,0.000000,2.000000,2.000000,0.000000,4.000000,2.000000,2.000000,0.000000,0.000000,4.000000,4.000000,4.000000,4.000000,4.000000,4.000000,0.000000,,,,,,,,,,,,,,,,,,,,,,,,,,,,
1732157964.709257,1732157964.711958,124.000000,0.000000,4299.230957,4321.282227,4321.410156,4297.051270,4254.230957,4266.410156,4336.410156,4398.461426,4292.820313,4248.461426,4473.589844,4521.282227,4339.358887,4412.179688,1696.000000,1.000000,22.000000,,,,0.000000,2.000000,2.000000,0.000000,4.000000,2.000000,2.000000,0.000000,0.000000,4.000000,4.000000,4.000000,4.000000,4.000000,4.000000,0.000000,,,,,,,,,,,,,,,,,31.000000,0.000000,0.546117,0.494690,-0.521423,0.430298,0.972775,0.113783,-0.026370,-34.018681,46.388218,32.196957
1732157964.717066,1732157964.719767,125.000000,0.000000,4304.230957,4320.384766,4322.820313,4293.974121,4253.717773,4265.641113,4340.384766,4402.307617,4292.692383,4256.538574,4474.743652,4522.820313,4346.538574,4420.769043,1608.000000,1.000000,22.000000,,,,0.000000,2.000000,2.000000,0.000000,4.000000,2.000000,2.000000,0.000000,0.000000,4.000000,4.000000,4.000000,4.000000,4.000000,4.000000,0.000000,,,,,,,,,,,,,,,,,,,,,,,,,,,,
1732157964.724874,1732157964.727775,126.000000,0.000000,4304.358887,4323.333496,4326.410156,4296.922852,4248.846191,4268.205078,4341.282227,4402.563965,4293.205078,4259.102539,4473.717773,4522.307617,4349.487305,4427.179688,1554.000000,1.000000,22.000000,,,,0.000000,2.000000,2.000000,0.000000,4.000000,2.000000,2.000000,0.000000,0.000000,4.000000,4.000000,4.000000,4.000000,4.000000,4.000000,0.000000,,,,,,,,,,,,,,,,,,,,,,,,,,,,
1732157964.732682,1732157964.735583,127.000000,0.000000,4304.230957,4325.641113,4329.615234,4299.487305,4250.512695,4267.179688,4338.846191,4401.666504,4293.461426,4247.563965,4473.333496,4521.666504,4346.025879,4426.282227,22.000000,1.000000,22.000000,,,,0.000000,2.000000,2.000000,0.000000,4.000000,2.000000,2.000000,0.000000,0.000000,4.000000,4.000000,4.000000,4.000000,4.000000,4.000000,0.000000,,,,,,,,,,,,,,,,,,,,,,,,,,,,
1732157964.740490,1732157964.743291,0.000000,0.000000,4310.128418,4329.615234,4328.333496,4299.487305,4251.025879,4263.205078,4338.974121,4403.717773,4296.153809,4247.692383,4478.461426,4526.538574,4355.000000,4427.820313,0.000000,1.000000,22.000000,,,,0.000000,2.000000,2.000000,0.000000,4.000000,2.000000,2.000000,0.000000,0.000000,4.000000,4.000000,4.000000,4.000000,4.000000,4.000000,0.000000,,,,,,,,,,,,,,,,,0.000000,0.000000,0.544267,0.493652,-0.522522,0.432495,0.991820,0.099133,-0.041021,-33.800129,46.252789,32.161201
1732157964.748299,1732157964.751099,1.000000,0.000000,4316.538574,4330.897461,4325.128418,4303.333496,4250.384766,4264.230957,4340.897461,4403.077148,4287.820313,4251.922852,4479.871582,4527.051270,4366.410156,4436.538574,1601.000000,1.000000,22.000000,,,,0.000000,2.000000,2.000000,0.000000,4.000000,2.000000,2.000000,0.000000,0.000000,4.000000,4.000000,4.000000,4.000000,4.000000,4.000000,0.000000,,,,,,,,,,,,,,,,,,,,,,,,,,,,
1732157964.756107,1732157964.758708,2.000000,0.000000,4319.743652,4328.717773,4323.846191,4299.871582,4250.512695,4266.794922,4340.384766,4401.666504,4283.205078,4245.256348,4479.871582,4523.077148,4365.000000,4441.410156,1361.000000,1.000000,22.000000,,,,0.000000,2.000000,2.000000,0.000000,4.000000,2.000000,2.000000,0.000000,0.000000,4.000000,4.000000,4.000000,4.000000,4.000000,4.000000,0.000000,,,,,,,,,,,,,,,,,,,,,,,,,,,,
1732157964.763915,1732157964.766516,3.000000,0.000000,4321.666504,4332.692383,4323.461426,4297.051270,4242.563965,4258.589844,4339.615234,4402.436035,4291.794922,4244.871582,4488.333496,4528.589844,4370.000000,4444.230957,1417.000000,1.000000,22.000000,,,,0.000000,2.000000,2.000000,0.000000,4.000000,2.000000,2.000000,0.000000,0.000000,4.000000,4.000000,4.000000,4.000000,4.000000,4.000000,0.000000,,,,,,,,,,,,,,,,,,,,,,,,,,,,
1732157964.771723,1732157964.774224,4.000000,0.000000,4326.282227,4337.436035,4321.025879,4303.717773,4233.846191,4249.487305,4341.025879,4399.615234,4289.743652,4251.794922,4494.743652,4533.717773,4388.974121,4453.974121,1422.000000,1.000000,22.000000,,,,0.000000,2.000000,2.000000,0.000000,4.000000,2.000000,2.000000,0.000000,0.000000,4.000000,4.000000,4.000000,4.000000,4.000000,4.000000,0.000000,,,,,,,,,,,,,,,,,1.000000,0.000000,0.542790,0.492859,-0.523743,0.433777,0.978635,0.088878,-0.035161,-33.704773,46.286427,32.108906
1732157964.779532,1732157964.782033,5.000000,0.000000,4333.589844,4335.512695,4320.128418,4300.769043,4237.307617,4250.641113,4339.230957,4399.615234,4285.000000,4250.256348,4494.743652,4532.692383,4397.948730,4462.563965,1219.000000,1.000000,22.000000,,,,0.000000,2.000000,2.000000,0.000000,4.000000,2.000000,2.000000,0.000000,0.000000,4.000000,4.000000,4.000000,4.000000,4.000000,4.000000,0.000000,,,,,,,,,,,,,,,,,,,,,,,,,,,,
1732157964.787340,1732157964.790041,6.000000,0.000000,4337.563965,4334.102539,4323.205078,4292.948730,4238.589844,4252.307617,4335.512695,4402.179688,4295.512695,4248.974121,4493.589844,4530.769043,4398.717773,4460.512695,0.000000,1.000000,22.000000,,,,0.000000,2.000000,2.000000,0.000000,4.000000,2.000000,2.000000,0.000000,0.000000,4.000000,4.000000,4.000000,4.000000,4.000000,4.000000,0.000000,,,,,,,,,,,,,,,,,,,,,,,,,,,,
1732157964.795148,1732157964.797849,7.000000,0.000000,4340.256348,4340.512695,4324.743652,4299.102539,4229.871582,4248.333496,4335.256348,4400.384766,4298.846191,4256.025879,4494.230957,4531.282227,4404.102539,4458.461426,0.000000,1.000000,22.000000,,,,0.000000,2.000000,2.000000,0.000000,4.000000,2.000000,2.000000,0.000000,0.000000,4.000000,4.000000,4.000000,4.000000,4.000000,4.000000,0.000000,,,,,,,,,,,,,,,,,,,,,,,,,,,,
1732157964.802956,1732157964.805557,8.000000,0.000000,4347.307617,4341.153809,4325.384766,4301.410156,4228.461426,4246.666504,4336.794922,4402.563965,4291.282227,4263.333496,4500.641113,4534.487305,4414.230957,4467.820313,1551.000000,1.000000,22.000000,,,,0.000000,2.000000,2.000000,0.000000,4.000000,2.000000,2.000000,0.000000,0.000000,4.000000,4.000000,4.000000,4.000000,4.000000,4.000000,0.000000,,,,,,,,,,,,,,,,,2.000000,0.000000,0.542790,0.492859,-0.523743,0.433777,0.965450,0.081553,-0.046881,-33.777531,46.238670,31.871548
1732157964.810765,1732157964.813365,9.000000,0.000000,4349.871582,4338.846191,4328.077148,4295.000000,4233.205078,4248.974121,4336.538574,4407.436035,4296.410156,4265.384766,4509.615234,4542.307617,4425.000000,4475.512695,1700.000000,1.000000,22.000000,,,,0.000000,2.000000,2.000000,0.000000,4.000000,2.000000,2.000000,0.000000,0.000000,4.000000,4.000000,4.000000,4.000000,4.000000,4.000000,0.000000,,,,,,,,,,,,,,,,,,,,,,,,,,,,
1732157964.818573,1732157964.821373,10.000000,0.000000,4347.563965,4344.102539,4327.820313,4296.153809,4230.769043,4251.410156,4336.666504,4404.102539,4294.487305,4264.102539,4507.436035,4543.077148,4432.179688,4472.563965,1549.000000,1.000000,22.000000,,,,0.000000,2.000000,2.000000,0.000000,4.000000,2.000000,2.000000,0.000000,0.000000,4.000000,4.000000,4.000000,4.000000,4.000000,4.000000,0.000000,,,,,,,,,,,,,,,,,,,,,,,,,,,,
1732157964.826381,1732157964.829181,11.000000,0.000000,4351.153809,4344.871582,4324.102539,4295.641113,4226.025879,4247.051270,4336.794922,4402.051270,4281.666504,4264.743652,4504.871582,4541.922852,4436.153809,4476.282227,1566.000000,1.000000,22.000000,,,,0.000000,2.000000,2.000000,0.000000,4.000000,2.000000,2.000000,0.000000,0.000000,4.000000,4.000000,4.000000,4.000000,4.000000,4.000000,0.000000,,,,,,,,,,,,,,,,,,,,,,,,,,,,
1732157964.834189,1732157964.837090,12.000000,0.000000,4359.615234,4348.589844,4324.615234,4297.051270,4223.974121,4234.102539,4335.897461,4405.897461,4281.538574,4265.512695,4512.948730,4553.205078,4444.487305,4488.077148,1688.000000,1.000000,22.000000,,,,0.000000,2.000000,2.000000,0.000000,4.000000,2.000000,2.000000,0.000000,0.000000,4.000000,4.000000,4.000000,4.000000,4.000000,4.000000,0.000000,,,,,,,,,,,,,,,,,3.000000,0.000000,0.539996,0.491150,-0.526001,0.436462,0.960566,0.059089,-0.027835,-33.676468,46.273323,31.902620
1732157964.841998,1732157964.844898,13.000000,0.000000,4362.692383,4370.897461,4324.871582,4304.743652,4219.871582,4229.487305,4335.256348,4402.051270,4280.512695,4262.820313,4520.769043,4555.897461,4455.128418,4493.717773,1601.000000,1.000000,22.000000,,,,0.000000,2.000000,2.000000,0.000000,4.000000,2.000000,2.000000,0.000000,0.000000,4.000000,4.000000,4.000000,4.000000,4.000000,4.000000,0.000000,,,,,,,,,,,,,,,,,,,,,,,,,,,,
1732157964.849806,1732157964.852506,14.000000,0.000000,4367.563965,4375.641113,4323.077148,4305.128418,4214.358887,4237.179688,4334.615234,4399.743652,4278.333496,4263.589844,4526.538574,4555.512695,4460.128418,4501.538574,1549.000000,1.000000,22.000000,,,,0.000000,2.000000,2.000000,0.000000,4.000000,2.000000,2.000000,0.000000,0.000000,4.000000,4.000000,4.000000,4.000000,4.000000,4.000000,0.000000,1.000000,0.000000,2.000000,2.000000,0.000000,4.000000,2.000000,2.000000,0.000000,0.000000,4.000000,4.000000,4.000000,4.000000,4.000000,4.000000,,,,,,,,,,,,
1732157964.857614,1732157964.860314,15.000000,0.000000,4375.384766,4383.461426,4324.102539,4312.692383,4216.666504,4235.256348,4335.256348,4405.897461,4282.307617,4266.922852,4519.230957,4571.025879,4456.538574,4513.333496,1566.000000,1.000000,22.000000,,,,0.000000,2.000000,2.000000,0.000000,4.000000,2.000000,2.000000,0.000000,0.000000,4.000000,4.000000,4.000000,4.000000,4.000000,4.000000,0.000000,,,,,,,,,,,,,,,,,,,,,,,,,,,,
1732157964.865422,1732157964.868023,16.000000,0.000000,4372.307617,4460.641113,4324.358887,4321.794922,4214.487305,4219.230957,4336.666504,4406.282227,4275.000000,4262.692383,4507.820313,4575.512695,4457.436035,4511.282227,0.000000,1.000000,22.000000,,,,0.000000,2.000000,2.000000,0.000000,4.000000,2.000000,2.000000,0.000000,0.000000,4.000000,4.000000,4.000000,4.000000,4.000000,4.000000,0.000000,,,,,,,,,,,,,,,,,4.000000,0.000000,0.538418,0.488770,-0.527649,0.439087,0.986937,0.046392,-0.037114,-33.812939,46.216393,31.829456
1732157964.873231,1732157964.875831,17.000000,0.000000,4364.871582,4546.282227,4322.307617,4305.384766,4201.282227,4210.897461,4335.000000,4403.205078,4260.769043,4258.077148,4515.641113,4558.333496,4472.563965,4507.179688,0.000000,1.000000,22.000000,,,,0.000000,2.000000,2.000000,0.000000,4.000000,2.000000,2.000000,0.000000,0.000000,4.000000,4.000000,4.000000,4.000000,4.000000,4.000000,0.000000,,,,,,,,,,,,,,,,,,,,,,,,,,,,
1732157964.881039,1732157964.883839,18.000000,0.000000,4364.871582,4554.230957,4322.051270,4289.487305,4194.358887,4215.769043,4333.333496,4404.102539,4267.179688,4267.179688,4525.769043,4551.538574,4479.487305,4510.641113,0.000000,1.000000,22.000000,,,,0.000000,2.000000,2.000000,0.000000,4.000000,2.000000,2.000000,0.000000,0.000000,4.000000,4.000000,4.000000,4.000000,4.000000,4.000000,0.000000,,,,,,,,,,,,,,,,,,,,,,,,,,,,
1732157964.888847,1732157964.891647,19.000000,0.000000,4361.410156,4534.358887,4321.410156,4296.538574,4198.077148,4219.615234,4333.846191,4403.077148,4277.307617,4279.615234,4521.153809,4553.717773,4467.179688,4502.948730,0.000000,1.000000,22.000000,,,,0.000000,2.000000,2.000000,0.000000,4.000000,2.000000,2.000000,0.000000,0.000000,4.000000,4.000000,4.000000,4.000000,4.000000,4.000000,0.000000,,,,,,,,,,,,,,,,,,,,,,,,,,,,
1732157964.896655,1732157964.899555,20.000000,0.000000,4351.538574,4539.615234,4320.641113,4294.743652,4205.769043,4215.769043,4335.128418,4400.000000,4268.974121,4281.153809,4513.077148,4541.282227,4459.102539,4487.051270,0.000000,1.000000,22.000000,,,,0.000000,2.000000,2.000000,0.000000,4.000000,2.000000,2.000000,0.000000,0.000000,4.000000,4.000000,4.000000,4.000000,4.000000,4.000000,0.000000,,,,,,,,,,,,,,,,,5.000000,0.000000,0.535055,0.486511,-0.529785,0.443115,0.976193,0.026370,-0.046392,-34.133480,46.080276,31.913527
1732157964.904464,1732157964.907363,21.000000,0.000000,4352.948730,4550.897461,4321.282227,4287.948730,4213.717773,4215.256348,4334.743652,4401.153809,4262.436035,4280.384766,4516.794922,4536.153809,4461.538574,4486.410156,0.000000,1.000000,22.000000,,,,0.000000,2.000000,2.000000,0.000000,4.000000,2.000000,2.000000,0.000000,0.000000,4.000000,4.000000,4.000000,4.000000,4.000000,4.000000,0.000000,,,,,,,,,,,,,,,,,,,,,,,,,,,,
1732157964.912272,1732157964.915371,22.000000,0.000000,4355.641113,4554.358887,4321.282227,4298.333496,4212.307617,4223.461426,4331.025879,4403.717773,4263.205078,4281.666504,4523.205078,4543.333496,4458.461426,4488.205078,0.000000,1.000000,22.000000,,,,0.000000,2.000000,2.000000,0.000000,4.000000,2.000000,2.000000,0.000000,0.000000,4.000000,4.000000,4.000000,4.000000,4.000000,4.000000,0.000000,,,,,,,,,,,,,,,,,,,,,,,,,,,,
1732157964.920080,1732157964.923180,23.000000,0.000000,4346.282227,4553.077148,4321.666504,4302.179688,4220.897461,4231.153809,4329.102539,4401.922852,4266.922852,4286.025879,4525.512695,4536.410156,4446.410156,4478.846191,0.000000,1.000000,22.000000,,,,0.000000,2.000000,2.000000,0.000000,4.000000,2.000000,2.000000,0.000000,0.000000,4.000000,4.000000,4.000000,4.000000,4.000000,4.000000,0.000000,,,,,,,,,,,,,,,,,,,,,,,,,,,,
1732157964.927888,1732157964.931088,24.000000,0.000000,4342.436035,4557.563965,4323.589844,4295.897461,4244.487305,4231.410156,4333.589844,4400.128418,4275.384766,4294.615234,4523.846191,4526.538574,4444.230957,4473.461426,0.000000,1.000000,22.000000,,,,0.000000,2.000000,2.000000,0.000000,4.000000,2.000000,2.000000,0.000000,0.000000,4.000000,4.000000,4.000000,4.000000,4.000000,4.000000,0.000000,,,,,,,,,,,,,,,,,6.000000,0.000000,0.533767,0.485535,-0.530701,0.444641,0.976193,0.026370,-0.046392,-34.139786,45.875027,31.898289
1732157964.935696,1732157964.938896,25.000000,0.000000,4345.512695,4570.897461,4325.000000,4296.410156,4235.897461,4229.102539,4335.769043,4400.000000,4279.230957,4298.461426,4524.871582,4531.538574,4449.102539,4475.897461,0.000000,1.000000,22.000000,,,,0.000000,2.000000,2.000000,0.000000,4.000000,2.000000,2.000000,0.000000,0.000000,4.000000,4.000000,4.000000,4.000000,4.000000,4.000000,0.000000,,,,,,,,,,,,,,,,,,,,,,,,,,,,
1732157964.943505,1732157964.946804,26.000000,0.000000,4340.769043,4571.794922,4323.846191,4298.333496,4210.384766,4231.410156,4329.230957,4399.358887,4275.128418,4290.256348,4527.563965,4534.102539,4441.922852,4474.615234,0.000000,1.000000,22.000000,,,,0.000000,2.000000,2.000000,0.000000,4.000000,2.000000,2.000000,0.000000,0.000000,4.000000,4.000000,4.000000,4.000000,4.000000,4.000000,0.000000,,,,,,,,,,,,,,,,,,,,,,,,,,,,
1732157964.951313,1732157964.954612,27.000000,0.000000,4334.358887,4561.410156,4322.692383,4296.282227,4222.307617,4233.589844,4328.461426,4398.717773,4270.256348,4279.487305,4522.436035,4522.563965,4426.410156,4471.666504,0.000000,1.000000,22.000000,,,,0.000000,2.000000,2.000000,0.000000,4.000000,2.000000,2.000000,0.000000,0.000000,4.000000,4.000000,4.000000,4.000000,4.000000,4.000000,0.000000,,,,,,,,,,,,,,,,,,,,,,,,,,,,
1732157964.959121,1732157964.962321,28.000000,0.000000,4333.589844,4556.025879,4325.384766,4293.461426,4239.871582,4231.794922,4335.384766,4401.794922,4272.692383,4280.512695,4522.051270,4520.128418,4426.282227,4472.948730,0.000000,1.000000,22.000000,,,,0.000000,2.000000,2.000000,0.000000,4.000000,2.000000,2.000000,0.000000,0.000000,4.000000,4.000000,4.000000,4.000000,4.000000,4.000000,0.000000,,,,,,,,,,,,,,,,,7.000000,0.000000,0.528511,0.482056,-0.534180,0.450500,0.965450,0.010255,-0.035161,-34.231560,45.878769,31.910948
1732157964.966930,1732157964.970129,29.000000,0.000000,4333.846191,4555.512695,4321.538574,4297.820313,4233.205078,4232.563965,4334.871582,4403.077148,4281.794922,4293.717773,4526.282227,4532.307617,4430.769043,4473.974121,0.000000,1.000000,22.000000,,,,0.000000,2.000000,2.000000,0.000000,4.000000,2.000000,2.000000,0.000000,0.000000,4.000000,4.000000,4.000000,4.000000,4.000000,4.000000,0.000000,,,,,,,,,,,,,,,,,,,,,,,,,,,,
1732157964.974738,1732157964.977737,30.000000,0.000000,4334.615234,4549.743652,4323.077148,4298.974121,4235.128418,4236.282227,4331.922852,4400.512695,4286.666504,4296.538574,4526.794922,4533.717773,4421.153809,4470.512695,0.000000,1.000000,22.000000,,,,0.000000,2.000000,2.000000,0.000000,4.000000,2.000000,2.000000,0.000000,0.000000,4.000000,4.000000,4.000000,4.000000,4.000000,4.000000,0.000000,,,,,,,,,,,,,,,,,,,,,,,,,,,,
1732157964.982546,1732157964.985545,31.000000,0.000000,4335.769043,4540.256348,4353.461426,4288.589844,4246.538574,4235.384766,4338.205078,4406.153809,4281.025879,4281.666504,4517.692383,4530.128418,4411.025879,4467.436035,0.000000,1.000000,22.000000,,,,0.000000,2.000000,2.000000,0.000000,4.000000,2.000000,2.000000,0.000000,0.000000,4.000000,4.000000,4.000000,4.000000,4.000000,4.000000,0.000000,,,,,,,,,,,,,,,,,,,,,,,,,,,,
1732157964.990354,1732157964.993254,32.000000,0.000000,4335.000000,4540.641113,4366.410156,4285.256348,4247.692383,4235.769043,4342.179688,4412.692383,4276.410156,4277.563965,4507.436035,4532.948730,4410.769043,4465.641113,0.000000,1.000000,22.000000,,,,0.000000,2.000000,2.000000,0.000000,4.000000,2.000000,2.000000,0.000000,0.000000,4.000000,4.000000,4.000000,4.000000,4.000000,4.000000,0.000000,,,,,,,,,,,,,,,,,8.000000,0.000000,0.527525,0.481201,-0.534790,0.451843,0.974728,-0.012697,-0.027835,-34.230896,45.723473,31.926201
1732157964.998163,1732157965.001062,33.000000,0.000000,4334.487305,4548.077148,4332.948730,4299.487305,4249.487305,4245.769043,4334.487305,4405.897461,4282.563965,4288.589844,4512.436035,4530.256348,4412.436035,4461.153809,0.000000,1.000000,22.000000,,,,0.000000,2.000000,2.000000,0.000000,4.000000,2.000000,2.000000,0.000000,0.000000,4.000000,4.000000,4.000000,4.000000,4.000000,4.000000,0.000000,,,,,,,,,,,,,,,,,,,,,,,,,,,,
1732157965.005971,1732157965.008670,34.000000,0.000000,4333.846191,4551.794922,4310.641113,4311.794922,4251.410156,4249.615234,4328.077148,4398.333496,4286.922852,4286.922852,4520.641113,4521.025879,4410.000000,4460.641113,0.000000,1.000000,22.000000,,,,0.000000,2.000000,2.000000,0.000000,4.000000,2.000000,2.000000,0.000000,0.000000,4.000000,4.000000,4.000000,4.000000,4.000000,4.000000,0.000000,,,,,,,,,,,,,,,,,,,,,,,,,,,,
1732157965.013779,1732157965.016479,35.000000,0.000000,4335.512695,4551.282227,4321.025879,4308.846191,4251.666504,4236.538574,4326.794922,4398.846191,4282.307617,4277.948730,4522.692383,4524.871582,4407.307617,4472.307617,0.000000,1.000000,22.000000,,,,0.000000,2.000000,2.000000,0.000000,4.000000,2.000000,2.000000,0.000000,0.000000,4.000000,4.000000,4.000000,4.000000,4.000000,4.000000,0.000000,,,,,,,,,,,,,,,,,,,,,,,,,,,,
1732157965.021587,1732157965.024187,36.000000,0.000000,4335.512695,4542.948730,4322.820313,4300.769043,4251.538574,4230.512695,4326.666504,4400.256348,4283.077148,4284.358887,4525.641113,4533.461426,4405.128418,4472.948730,0.000000,1.000000,22.000000,,,,0.000000,2.000000,2.000000,0.000000,4.000000,2.000000,2.000000,0.000000,0.000000,4.000000,4.000000,4.000000,4.000000,4.000000,4.000000,0.000000,,,,,,,,,,,,,,,,,9.000000,0.000000,0.526457,0.480408,-0.535522,0.453064,0.974728,-0.012697,-0.027835,-34.170361,45.812679,31.931889
1732157965.029395,1732157965.031995,37.000000,0.000000,4330.000000,4531.538574,4311.794922,4300.128418,4248.461426,4241.794922,4328.333496,4399.615234,4285.512695,4288.333496,4524.358887,4525.897461,4396.282227,4456.922852,0.000000,1.000000,22.000000,,,,0.000000,2.000000,2.000000,0.000000,4.000000,2.000000,2.000000,0.000000,0.000000,4.000000,4.000000,4.000000,4.000000,4.000000,4.000000,0.000000,,,,,,,,,,,,,,,,,,,,,,,,,,,,
1732157965.037204,1732157965.039604,38.000000,0.000000,4326.538574,4530.769043,4314.871582,4308.846191,4251.282227,4248.333496,4329.615234,4400.128418,4281.282227,4279.102539,4515.897461,4512.436035,4385.769043,4452.820313,0.000000,1.000000,22.000000,,,,0.000000,2.000000,2.000000,0.000000,4.000000,2.000000,2.000000,0.000000,0.000000,4.000000,4.000000,4.000000,4.000000,4.000000,4.000000,0.000000,,,,,,,,,,,,,,,,,,,,,,,,,,,,
1732157965.045012,1732157965.047412,39.000000,0.000000,4326.538574,4529.102539,4321.410156,4307.948730,4259.743652,4244.487305,4326.794922,4400.128418,4286.922852,4281.538574,4517.179688,4509.615234,4382.563965,4455.897461,0.000000,1.000000,22.000000,,,,0.000000,2.000000,2.000000,0.000000,4.000000,2.000000,2.000000,0.000000,0.000000,4.000000,4.000000,4.000000,4.000000,4.000000,4.000000,0.000000,,,,,,,,,,,,,,,,,,,,,,,,,,,,
1732157965.052820,1732157965.055120,40.000000,0.000000,4324.487305,4518.974121,4319.743652,4295.384766,4259.102539,4245.000000,4329.615234,4400.512695,4301.282227,4292.820313,4526.666504,4518.461426,4377.692383,4450.128418,0.000000,1.000000,22.000000,,,,0.000000,2.000000,2.000000,0.000000,4.000000,2.000000,2.000000,0.000000,0.000000,4.000000,4.000000,4.000000,4.000000,4.000000,4.000000,0.000000,,,,,,,,,,,,,,,,,10.000000,0.000000,0.523295,0.476807,-0.538513,0.456970,0.989379,-0.024417,-0.023440,-34.324657,45.718269,31.886497
1732157965.060629,1732157965.062928,41.000000,0.000000,4323.077148,4516.922852,4317.820313,4294.743652,4259.615234,4250.769043,4332.307617,4400.256348,4295.000000,4284.230957,4523.974121,4522.307617,4365.256348,4445.000000,0.000000,1.000000,22.000000,,,,0.000000,2.000000,2.000000,0.000000,4.000000,2.000000,2.000000,0.000000,0.000000,4.000000,4.000000,4.000000,4.000000,4.000000,4.000000,0.000000,,,,,,,,,,,,,,,,,,,,,,,,,,,,
1732157965.068437,1732157965.070537,42.000000,0.000000,4326.410156,4517.051270,4321.794922,4303.333496,4266.410156,4249.871582,4327.820313,4399.487305,4285.512695,4274.871582,4522.307617,4519.487305,4363.589844,4447.436035,0.000000,1.000000,22.000000,,,,0.000000,2.000000,2.000000,0.000000,4.000000,2.000000,2.000000,0.000000,0.000000,4.000000,4.000000,4.000000,4.000000,4.000000,4.000000,0.000000,,,,,,,,,,,,,,,,,,,,,,,,,,,,
1732157965.076245,1732157965.078345,43.000000,0.000000,4327.563965,4509.230957,4323.205078,4308.846191,4261.025879,4248.333496,4328.717773,4401.538574,4294.871582,4286.538574,4525.384766,4521.666504,4366.666504,4447.436035,0.000000,1.000000,22.000000,,,,0.000000,2.000000,2.000000,0.000000,4.000000,2.000000,2.000000,0.000000,0.000000,4.000000,4.000000,4.000000,4.000000,4.000000,4.000000,0.000000,,,,,,,,,,,,,,,,,,,,,,,,,,,,
1732157965.084053,1732157965.086053,44.000000,0.000000,4320.256348,4503.461426,4321.153809,4306.666504,4262.179688,4251.794922,4334.358887,4402.948730,4290.000000,4281.282227,4520.769043,4521.410156,4356.282227,4442.820313,0.000000,1.000000,22.000000,,,,0.000000,2.000000,2.000000,0.000000,4.000000,2.000000,2.000000,0.000000,0.000000,4.000000,4.000000,4.000000,4.000000,4.000000,4.000000,0.000000,,,,,,,,,,,,,,,,,11.000000,0.000000,0.522388,0.475098,-0.539917,0.458130,0.996704,-0.010743,-0.023929,-34.449638,45.641796,31.849730
1732157965.091862,1732157965.093861,45.000000,0.000000,4319.230957,4506.922852,4323.205078,4306.410156,4281.666504,4250.256348,4330.384766,4400.769043,4280.769043,4267.563965,4524.102539,4521.025879,4351.282227,4443.077148,0.000000,1.000000,22.000000,,,,0.000000,2.000000,2.000000,0.000000,4.000000,2.000000,2.000000,0.000000,0.000000,4.000000,4.000000,4.000000,4.000000,4.000000,4.000000,0.000000,,,,,,,,,,,,,,,,,,,,,,,,,,,,
1732157965.099670,1732157965.101470,46.000000,0.000000,4327.179688,4509.871582,4324.230957,4316.538574,4278.461426,4246.282227,4322.307617,4402.307617,4297.436035,4281.025879,4530.512695,4526.025879,4359.743652,4451.153809,0.000000,1.000000,22.000000,,,,0.000000,2.000000,2.000000,0.000000,4.000000,2.000000,2.000000,0.000000,0.000000,4.000000,4.000000,4.000000,4.000000,4.000000,4.000000,0.000000,,,,,,,,,,,,,,,,,,,,,,,,,,,,
1732157965.107478,1732157965.109278,47.000000,0.000000,4331.025879,4507.307617,4323.717773,4323.974121,4257.563965,4248.333496,4323.846191,4405.897461,4303.974121,4290.256348,4530.641113,4528.717773,4361.666504,4460.897461,0.000000,1.000000,22.000000,,,,0.000000,2.000000,2.000000,0.000000,4.000000,2.000000,2.000000,0.000000,0.000000,4.000000,4.000000,4.000000,4.000000,4.000000,4.000000,0.000000,,,,,,,,,,,,,,,,,,,,,,,,,,,,
1732157965.115286,1732157965.116986,48.000000,0.000000,4328.333496,4503.461426,4324.615234,4323.974121,4259.230957,4250.512695,4328.589844,4403.974121,4291.538574,4277.307617,4530.256348,4532.307617,4358.333496,4463.589844,0.000000,1.000000,22.000000,,,,0.000000,2.000000,2.000000,0.000000,4.000000,2.000000,2.000000,0.000000,0.000000,4.000000,4.000000,4.000000,4.000000,4.000000,4.000000,0.000000,,,,,,,,,,,,,,,,,12.000000,0.000000,0.522108,0.474426,-0.540466,0.458496,0.994262,-0.021487,-0.031742,-34.300877,45.741524,31.973280
1732157965.123094,1732157965.124795,49.000000,0.000000,4326.794922,4504.102539,4322.436035,4331.282227,4266.538574,4248.974121,4329.230957,4400.641113,4296.538574,4279.743652,4527.179688,4533.333496,4355.512695,4457.692383,0.000000,1.000000,22.000000,,,,0.000000,2.000000,2.000000,0.000000,4.000000,2.000000,2.000000,0.000000,0.000000,4.000000,4.000000,4.000000,4.000000,4.000000,4.000000,0.000000,,,,,,,,,,,,,,,,,,,,,,,,,,,,
1732157965.130903,1732157965.132403,50.000000,0.000000,4330.128418,4508.717773,4322.179688,4336.025879,4267.307617,4250.128418,4327.179688,4403.717773,4304.615234,4290.897461,4520.256348,4523.717773,4351.025879,4451.410156,0.000000,1.000000,22.000000,,,,0.000000,2.000000,2.000000,0.000000,4.000000,2.000000,2.000000,0.000000,0.000000,4.000000,4.000000,4.000000,4.000000,4.000000,4.000000,0.000000,,,,,,,,,,,,,,,,,,,,,,,,,,,,
1732157965.138711,1732157965.140211,51.000000,0.000000,4332.563965,4501.922852,4323.974121,4325.641113,4285.641113,4252.051270,4326.538574,4403.717773,4294.487305,4282.436035,4514.743652,4518.717773,4346.282227,4450.384766,0.000000,1.000000,22.000000,,,,0.000000,2.000000,2.000000,0.000000,4.000000,2.000000,2.000000,0.000000,0.000000,4.000000,4.000000,4.000000,4.000000,4.000000,4.000000,0.000000,,,,,,,,,,,,,,,,,,,,,,,,,,,,
1732157965.146519,1732157965.148119,52.000000,0.000000,4329.358887,4489.615234,4321.922852,4322.051270,4291.922852,4250.384766,4327.948730,4399.230957,4292.051270,4276.666504,4510.512695,4522.179688,4343.717773,4450.128418,0.000000,1.000000,22.000000,,,,0.000000,2.000000,2.000000,0.000000,4.000000,2.000000,2.000000,0.000000,0.000000,4.000000,4.000000,4.000000,4.000000,4.000000,4.000000,0.000000,,,,,,,,,,,,,,,,,13.000000,0.000000,0.521308,0.472778,-0.541748,0.459595,0.992309,-0.011720,-0.022952,-34.592041,45.252300,31.915024
1732157965.154328,1732157965.155927,53.000000,0.000000,4324.871582,4495.512695,4321.025879,4340.384766,4266.282227,4252.051270,4327.820313,4399.871582,4296.025879,4280.384766,4505.384766,4520.512695,4344.615234,4444.615234,0.000000,1.000000,22.000000,,,,0.000000,2.000000,2.000000,0.000000,4.000000,2.000000,2.000000,0.000000,0.000000,4.000000,4.000000,4.000000,4.000000,4.000000,4.000000,0.000000,,,,,,,,,,,,,,,,,,,,,,,,,,,,
1732157965.162136,1732157965.163536,54.000000,0.000000,4326.538574,4502.820313,4324.230957,4345.897461,4258.589844,4258.461426,4326.922852,4402.820313,4291.794922,4280.897461,4505.897461,4518.205078,4347.563965,4442.692383,0.000000,1.000000,22.000000,,,,0.000000,2.000000,2.000000,0.000000,4.000000,2.000000,2.000000,0.000000,0.000000,4.000000,4.000000,4.000000,4.000000,4.000000,4.000000,0.000000,,,,,,,,,,,,,,,,,,,,,,,,,,,,
1732157965.169944,1732157965.171344,55.000000,0.000000,4328.846191,4488.974121,4323.589844,4332.051270,4274.871582,4260.769043,4327.307617,4400.897461,4290.769043,4279.871582,4506.666504,4521.666504,4350.897461,4451.666504,0.000000,1.000000,22.000000,,,,0.000000,2.000000,2.000000,0.000000,4.000000,2.000000,2.000000,0.000000,0.000000,4.000000,4.000000,4.000000,4.000000,4.000000,4.000000,0.000000,,,,,,,,,,,,,,,,,,,,,,,,,,,,
1732157965.177752,1732157965.179052,56.000000,0.000000,4326.922852,4474.743652,4319.358887,4339.487305,4272.820313,4252.563965,4326.153809,4400.256348,4295.000000,4280.512695,4506.538574,4528.589844,4354.102539,4460.897461,0.000000,1.000000,22.000000,,,,0.000000,2.000000,2.000000,0.000000,4.000000,2.000000,2.000000,0.000000,0.000000,4.000000,4.000000,4.000000,4.000000,4.000000,4.000000,0.000000,,,,,,,,,,,,,,,,,14.000000,0.000000,0.520194,0.472107,-0.542419,0.460754,0.985472,-0.006837,-0.034672,-34.694553,45.181030,31.892836
1732157965.185561,1732157965.186861,57.000000,0.000000,4325.000000,4476.025879,4319.743652,4360.384766,4263.717773,4247.307617,4325.000000,4404.358887,4297.179688,4287.051270,4510.641113,4535.256348,4352.692383,4460.641113,0.000000,1.000000,22.000000,,,,0.000000,2.000000,2.000000,0.000000,4.000000,2.000000,2.000000,0.000000,0.000000,4.000000,4.000000,4.000000,4.000000,4.000000,4.000000,0.000000,,,,,,,,,,,,,,,,,,,,,,,,,,,,
1732157965.193369,1732157965.194869,58.000000,0.000000,4324.230957,4475.769043,4322.948730,4365.512695,4273.461426,4256.410156,4327.948730,4406.794922,4298.461426,4296.282227,4506.282227,4532.179688,4348.333496,4455.641113,0.000000,1.000000,22.000000,,,,0.000000,2.000000,2.000000,0.000000,4.000000,2.000000,2.000000,0.000000,0.000000,4.000000,4.000000,4.000000,4.000000,4.000000,4.000000,0.000000,,,,,,,,,,,,,,,,,,,,,,,,,,,,
1732157965.201177,1732157965.202677,59.000000,0.000000,4325.897461,4471.282227,4324.871582,4368.846191,4282.051270,4264.487305,4330.641113,4403.333496,4298.205078,4295.128418,4496.538574,4524.615234,4346.153809,4452.820313,0.000000,1.000000,22.000000,,,,0.000000,2.000000,2.000000,0.000000,4.000000,2.000000,2.000000,0.000000,0.000000,4.000000,4.000000,4.000000,4.000000,4.000000,4.000000,0.000000,,,,,,,,,,,,,,,,,,,,,,,,,,,,
1732157965.208985,1732157965.210585,60.000000,0.000000,4326.025879,4462.692383,4325.256348,4367.948730,4281.025879,4264.230957,4329.102539,4400.769043,4298.461426,4288.205078,4489.743652,4522.179688,4346.282227,4449.230957,0.000000,1.000000,22.000000,,,,0.000000,2.000000,2.000000,0.000000,4.000000,2.000000,2.000000,0.000000,0.000000,4.000000,4.000000,4.000000,4.000000,4.000000,4.000000,0.000000,,,,,,,,,,,,,,,,,15.000000,0.000000,0.519542,0.472229,-0.542419,0.461365,0.973263,-0.003907,-0.034672,-34.674255,45.289967,31.738197
1732157965.216793,1732157965.218393,61.000000,0.000000,4324.230957,4452.692383,4323.333496,4354.358887,4280.641113,4263.461426,4327.179688,4403.974121,4297.179688,4291.282227,4490.384766,4526.410156,4347.436035,4451.153809,0.000000,1.000000,22.000000,,,,0.000000,2.000000,2.000000,0.000000,4.000000,2.000000,2.000000,0.000000,0.000000,4.000000,4.000000,4.000000,4.000000,4.000000,4.000000,0.000000,,,,,,,,,,,,,,,,,,,,,,,,,,,,
1732157965.224602,1732157965.226401,62.000000,0.000000,4329.102539,4458.717773,4321.538574,4365.897461,4280.384766,4263.205078,4327.563965,4406.666504,4297.436035,4297.692383,4494.871582,4536.410156,4352.307617,4455.512695,0.000000,1.000000,22.000000,,,,0.000000,2.000000,2.000000,0.000000,4.000000,2.000000,2.000000,0.000000,0.000000,4.000000,4.000000,4.000000,4.000000,4.000000,4.000000,0.000000,,,,,,,,,,,,,,,,,,,,,,,,,,,,
1732157965.232410,1732157965.234209,63.000000,0.000000,4332.692383,4464.487305,4322.820313,4390.897461,4281.666504,4262.436035,4329.487305,4403.974121,4297.692383,4293.205078,4489.102539,4539.871582,4351.922852,4448.846191,0.000000,1.000000,22.000000,,,,0.000000,2.000000,2.000000,0.000000,4.000000,2.000000,2.000000,0.000000,0.000000,4.000000,4.000000,4.000000,4.000000,4.000000,4.000000,0.000000,,,,,,,,,,,,,,,,,,,,,,,,,,,,
1732157965.240218,1732157965.242117,64.000000,0.000000,4328.717773,4449.743652,4322.563965,4379.230957,4281.410156,4262.436035,4328.846191,4399.871582,4287.051270,4281.666504,4478.205078,4530.512695,4345.512695,4442.436035,0.000000,1.000000,22.000000,,,,0.000000,2.000000,2.000000,0.000000,4.000000,2.000000,2.000000,0.000000,0.000000,4.000000,4.000000,4.000000,4.000000,4.000000,4.000000,0.000000,,,,,,,,,,,,,,,,,16.000000,0.000000,0.519205,0.472290,-0.542480,0.461609,0.974240,-0.020022,-0.035161,-34.867813,45.388206,32.047939
1732157965.248026,1732157965.249926,65.000000,0.000000,4323.077148,4438.333496,4322.436035,4366.794922,4280.256348,4261.666504,4324.743652,4397.436035,4277.563965,4274.615234,4473.461426,4523.333496,4342.051270,4444.487305,1584.000000,1.000000,22.000000,,,,0.000000,2.000000,2.000000,0.000000,4.000000,2.000000,2.000000,0.000000,0.000000,4.000000,4.000000,4.000000,4.000000,4.000000,4.000000,0.000000,,,,,,,,,,,,,,,,,,,,,,,,,,,,
1732157965.255835,1732157965.257534,66.000000,0.000000,4318.077148,4425.769043,4321.922852,4378.974121,4286.282227,4261.282227,4326.666504,4399.230957,4287.820313,4283.974121,4472.563965,4521.282227,4341.922852,4443.077148,1359.000000,1.000000,22.000000,,,,0.000000,2.000000,2.000000,0.000000,4.000000,2.000000,2.000000,0.000000,0.000000,4.000000,4.000000,4.000000,4.000000,4.000000,4.000000,0.000000,,,,,,,,,,,,,,,,,,,,,,,,,,,,
1732157965.263643,1732157965.265342,67.000000,0.000000,4316.282227,4391.922852,4320.641113,4383.077148,4294.871582,4264.230957,4330.897461,4402.563965,4299.102539,4295.128418,4472.051270,4523.461426,4343.077148,4437.692383,1399.000000,1.000000,22.000000,,,,0.000000,2.000000,2.000000,0.000000,4.000000,2.000000,2.000000,0.000000,0.000000,4.000000,4.000000,4.000000,4.000000,4.000000,4.000000,0.000000,,,,,,,,,,,,,,,,,,,,,,,,,,,,
1732157965.271451,1732157965.273250,68.000000,0.000000,4321.794922,4367.179688,4322.051270,4377.436035,4292.948730,4266.538574,4328.589844,4401.666504,4295.897461,4290.256348,4472.051270,4528.717773,4341.025879,4442.436035,1436.000000,1.000000,22.000000,,,,0.000000,2.000000,2.000000,0.000000,4.000000,2.000000,2.000000,0.000000,0.000000,4.000000,4.000000,4.000000,4.000000,4.000000,4.000000,0.000000,,,,,,,,,,,,,,,,,17.000000,0.000000,0.518994,0.471863,-0.542847,0.461853,0.983030,-0.020999,-0.027835,-34.894596,45.401115,32.215496
1732157965.279260,1732157965.281059,69.000000,0.000000,4321.666504,4363.077148,4323.589844,4370.512695,4290.641113,4272.948730,4329.743652,4399.487305,4298.589844,4288.077148,4471.282227,4529.358887,4340.384766,4445.641113,1217.000000,1.000000,22.000000,,,,0.000000,2.000000,2.000000,0.000000,4.000000,2.000000,2.000000,0.000000,0.000000,4.000000,4.000000,4.000000,4.000000,4.000000,4.000000,0.000000,,,,,,,,,,,,,,,,,,,,,,,,,,,,
1732157965.287068,1732157965.289067,70.000000,0.000000,4314.358887,4347.436035,4323.589844,4363.077148,4298.077148,4283.205078,4336.666504,4401.538574,4312.179688,4297.179688,4469.615234,4526.282227,4342.436035,4438.589844,0.000000,1.000000,22.000000,,,,0.000000,2.000000,2.000000,0.000000,4.000000,2.000000,2.000000,0.000000,0.000000,4.000000,4.000000,4.000000,4.000000,4.000000,4.000000,0.000000,,,,,,,,,,,,,,,,,,,,,,,,,,,,
1732157965.294876,1732157965.296875,71.000000,0.000000,4317.436035,4329.615234,4323.589844,4366.025879,4295.641113,4282.563965,4333.461426,4404.615234,4314.487305,4299.743652,4471.410156,4528.333496,4340.641113,4437.051270,0.000000,1.000000,22.000000,,,,0.000000,2.000000,2.000000,0.000000,4.000000,2.000000,2.000000,0.000000,0.000000,4.000000,4.000000,4.000000,4.000000,4.000000,4.000000,0.000000,,,,,,,,,,,,,,,,,,,,,,,,,,,,
1732157965.302684,1732157965.304783,72.000000,0.000000,4328.589844,4331.410156,4323.333496,4371.410156,4294.743652,4275.128418,4327.179688,4403.461426,4304.615234,4297.820313,4475.256348,4535.897461,4344.615234,4445.641113,1538.000000,1.000000,22.000000,,,,0.000000,2.000000,2.000000,0.000000,4.000000,2.000000,2.000000,0.000000,0.000000,4.000000,4.000000,4.000000,4.000000,4.000000,4.000000,0.000000,,,,,,,,,,,,,,,,,18.000000,0.000000,0.518478,0.471619,-0.543396,0.462036,0.992309,-0.025394,-0.032230,-35.149624,45.344902,32.301220
1732157965.310492,1732157965.312591,73.000000,0.000000,4330.128418,4330.000000,4322.948730,4367.179688,4309.743652,4275.769043,4332.179688,4401.153809,4296.538574,4296.282227,4476.666504,4541.538574,4350.512695,4448.974121,1686.000000,1.000000,22.000000,,,,0.000000,2.000000,2.000000,0.000000,4.000000,2.000000,2.000000,0.000000,0.000000,4.000000,4.000000,4.000000,4.000000,4.000000,4.000000,0.000000,,,,,,,,,,,,,,,,,,,,,,,,,,,,
1732157965.318301,1732157965.320599,74.000000,0.000000,4321.025879,4317.436035,4324.102539,4365.769043,4310.256348,4280.897461,4335.641113,4400.897461,4295.897461,4286.538574,4468.333496,4534.871582,4342.563965,4441.025879,1549.000000,1.000000,22.000000,,,,0.000000,2.000000,2.000000,0.000000,4.000000,2.000000,2.000000,0.000000,0.000000,4.000000,4.000000,4.000000,4.000000,4.000000,4.000000,0.000000,,,,,,,,,,,,,,,,,,,,,,,,,,,,
1732157965.326109,1732157965.328407,75.000000,0.000000,4316.922852,4308.846191,4322.051270,4365.512695,4290.897461,4281.282227,4333.974121,4401.666504,4304.743652,4287.948730,4463.589844,4527.563965,4337.820313,4436.794922,1569.000000,1.000000,22.000000,,,,0.000000,2.000000,2.000000,0.000000,4.000000,2.000000,2.000000,0.000000,0.000000,4.000000,4.000000,4.000000,4.000000,4.000000,4.000000,0.000000,,,,,,,,,,,,,,,,,,,,,,,,,,,,
1732157965.333917,1732157965.336315,76.000000,0.000000,4320.641113,4304.230957,4321.538574,4358.205078,4287.436035,4281.153809,4334.743652,4402.436035,4310.897461,4301.666504,4471.282227,4530.128418,4347.820313,4436.922852,1701.000000,1.000000,22.000000,,,,0.000000,2.000000,2.000000,0.000000,4.000000,2.000000,2.000000,0.000000,0.000000,4.000000,4.000000,4.000000,4.000000,4.000000,4.000000,0.000000,,,,,,,,,,,,,,,,,19.000000,0.000000,0.518257,0.471802,-0.543396,0.462097,0.992309,-0.025394,-0.032230,-35.261192,45.374371,32.237320
1732157965.341725,1732157965.344124,77.000000,0.000000,4322.820313,4299.743652,4323.974121,4357.307617,4302.948730,4284.743652,4334.743652,4400.641113,4300.384766,4290.641113,4468.333496,4528.205078,4342.436035,4432.307617,1608.000000,1.000000,22.000000,,,,0.000000,2.000000,2.000000,0.000000,4.000000,2.000000,2.000000,0.000000,0.000000,4.000000,4.000000,4.000000,4.000000,4.000000,4.000000,0.000000,,,,,,,,,,,,,,,,,,,,,,,,,,,,
1732157965.349534,1732157965.352132,78.000000,0.000000,4316.282227,4290.384766,4324.230957,4355.256348,4307.820313,4288.077148,4333.846191,4402.179688,4293.205078,4274.230957,4457.692383,4524.487305,4327.436035,4428.717773,1549.000000,1.000000,22.000000,,,,0.000000,2.000000,2.000000,0.000000,4.000000,2.000000,2.000000,0.000000,0.000000,4.000000,4.000000,4.000000,4.000000,4.000000,4.000000,0.000000,1.000000,0.000000,2.000000,2.000000,0.000000,4.000000,2.000000,2.000000,0.000000,0.000000,4.000000,3.000000,4.000000,4.000000,4.000000,4.000000,,,,,,,,,,,,
1732157965.357342,1732157965.359940,79.000000,0.000000,4312.051270,4280.256348,4323.205078,4342.307617,4303.846191,4288.461426,4334.743652,4404.358887,4305.128418,4289.487305,4464.358887,4529.871582,4333.717773,4431.153809,1569.000000,1.000000,22.000000,,,,0.000000,2.000000,2.000000,0.000000,4.000000,2.000000,2.000000,0.000000,0.000000,4.000000,4.000000,4.000000,4.000000,4.000000,4.000000,0.000000,,,,,,,,,,,,,,,,,,,,,,,,,,,,
1732157965.365150,1732157965.367648,80.000000,0.000000,4313.205078,4271.410156,4324.102539,4336.025879,4303.333496,4290.384766,4332.820313,4402.692383,4316.410156,4304.615234,4470.128418,4533.717773,4337.820313,4432.948730,1701.000000,1.000000,22.000000,,,,0.000000,2.000000,2.000000,0.000000,4.000000,2.000000,2.000000,0.000000,0.000000,4.000000,4.000000,4.000000,4.000000,4.000000,4.000000,0.000000,,,,,,,,,,,,,,,,,20.000000,0.000000,0.517908,0.471985,-0.543518,0.462158,0.978147,-0.009767,-0.041509,-35.066566,45.391575,32.320564
1732157965.372959,1732157965.375456,81.000000,0.000000,4310.769043,4257.820313,4323.846191,4339.743652,4305.000000,4296.666504,4330.769043,4403.589844,4315.256348,4296.794922,4460.256348,4534.615234,4324.615234,4429.230957,1608.000000,1.000000,22.000000,,,,0.000000,2.000000,2.000000,0.000000,4.000000,2.000000,2.000000,0.000000,0.000000,4.000000,4.000000,4.000000,4.000000,4.000000,4.000000,0.000000,,,,,,,,,,,,,,,,,,,,,,,,,,,,
1732157965.380767,1732157965.383364,82.000000,0.000000,4313.333496,4248.974121,4322.307617,4336.282227,4316.282227,4297.051270,4333.974121,4404.871582,4308.333496,4292.051270,4460.128418,4539.230957,4323.846191,4428.205078,1549.000000,1.000000,22.000000,,,,0.000000,2.000000,2.000000,0.000000,4.000000,2.000000,2.000000,0.000000,0.000000,4.000000,4.000000,4.000000,4.000000,4.000000,4.000000,0.000000,,,,,,,,,,,,,,,,,,,,,,,,,,,,
1732157965.388575,1732157965.391173,83.000000,0.000000,4319.358887,4246.666504,4321.025879,4327.307617,4323.589844,4292.692383,4334.615234,4402.179688,4305.256348,4293.077148,4465.512695,4536.922852,4326.282227,4431.282227,1569.000000,1.000000,22.000000,,,,0.000000,2.000000,2.000000,0.000000,4.000000,2.000000,2.000000,0.000000,0.000000,4.000000,4.000000,4.000000,4.000000,4.000000,4.000000,0.000000,,,,,,,,,,,,,,,,,,,,,,,,,,,,
1732157965.396383,1732157965.398881,84.000000,0.000000,4315.512695,4236.282227,4319.487305,4325.000000,4310.384766,4298.077148,4332.563965,4401.025879,4307.179688,4289.487305,4459.102539,4525.000000,4313.589844,4428.333496,1701.000000,1.000000,22.000000,,,,0.000000,2.000000,2.000000,0.000000,4.000000,2.000000,2.000000,0.000000,0.000000,4.000000,4.000000,4.000000,4.000000,4.000000,4.000000,0.000000,,,,,,,,,,,,,,,,,21.000000,0.000000,0.516597,0.472229,-0.544189,0.462585,0.969845,-0.004395,-0.043951,-34.925587,45.255508,32.204659
1732157965.404191,1732157965.406689,85.000000,0.000000,4308.077148,4221.282227,4320.512695,4327.692383,4300.000000,4307.307617,4333.846191,4402.307617,4304.615234,4291.153809,4455.769043,4519.358887,4307.179688,4418.974121,1608.000000,1.000000,22.000000,,,,0.000000,2.000000,2.000000,0.000000,4.000000,2.000000,2.000000,0.000000,0.000000,4.000000,4.000000,4.000000,4.000000,4.000000,4.000000,0.000000,,,,,,,,,,,,,,,,,,,,,,,,,,,,
1732157965.412000,1732157965.414298,86.000000,0.000000,4310.897461,4214.743652,4323.461426,4325.000000,4307.692383,4302.692383,4333.974121,4400.512695,4296.410156,4294.743652,4461.666504,4523.974121,4314.230957,4416.666504,1549.000000,1.000000,22.000000,,,,0.000000,2.000000,2.000000,0.000000,4.000000,2.000000,2.000000,0.000000,0.000000,4.000000,4.000000,4.000000,4.000000,4.000000,4.000000,0.000000,,,,,,,,,,,,,,,,,,,,,,,,,,,,
1732157965.419808,1732157965.422106,87.000000,0.000000,4313.717773,4212.563965,4322.692383,4319.358887,4312.820313,4298.077148,4332.820313,4402.307617,4301.282227,4291.282227,4462.051270,4528.846191,4313.333496,4418.846191,1569.000000,1.000000,22.000000,,,,0.000000,2.000000,2.000000,0.000000,4.000000,2.000000,2.000000,0.000000,0.000000,4.000000,4.000000,4.000000,4.000000,4.000000,4.000000,0.000000,,,,,,,,,,,,,,,,,,,,,,,,,,,,
1732157965.427616,1732157965.429814,88.000000,0.000000,4309.230957,4202.179688,4317.820313,4319.871582,4312.051270,4306.922852,4334.871582,4406.922852,4318.333496,4297.436035,4460.641113,4528.333496,4310.128418,4416.922852,1701.000000,1.000000,22.000000,,,,0.000000,2.000000,2.000000,0.000000,4.000000,2.000000,2.000000,0.000000,0.000000,4.000000,4.000000,4.000000,4.000000,4.000000,4.000000,0.000000,,,,,,,,,,,,,,,,,22.000000,0.000000,0.515975,0.472290,-0.544312,0.463074,0.962520,-0.027347,-0.038091,-34.898060,45.006962,32.242439
1732157965.435424,1732157965.437622,89.000000,0.000000,4310.384766,4186.794922,4314.615234,4320.384766,4317.436035,4306.666504,4335.128418,4404.358887,4321.025879,4309.230957,4468.589844,4535.128418,4316.025879,4420.641113,1608.000000,1.000000,22.000000,,,,0.000000,2.000000,2.000000,0.000000,4.000000,2.000000,2.000000,0.000000,0.000000,4.000000,4.000000,4.000000,4.000000,4.000000,4.000000,0.000000,,,,,,,,,,,,,,,,,,,,,,,,,,,,
1732157965.443233,1732157965.445231,90.000000,0.000000,4316.666504,4193.077148,4317.179688,4320.128418,4317.051270,4294.358887,4333.333496,4399.358887,4313.077148,4305.384766,4473.846191,4541.538574,4320.512695,4429.358887,1549.000000,1.000000,22.000000,,,,0.000000,2.000000,2.000000,0.000000,4.000000,2.000000,2.000000,0.000000,0.000000,4.000000,4.000000,4.000000,4.000000,4.000000,4.000000,0.000000,,,,,,,,,,,,,,,,,,,,,,,,,,,,
1732157965.451041,1732157965.453039,91.000000,0.000000,4320.769043,4185.512695,4320.128418,4325.512695,4318.846191,4292.948730,4334.615234,4398.589844,4313.077148,4300.641113,4472.820313,4537.051270,4321.153809,4432.051270,1569.000000,1.000000,22.000000,,,,0.000000,2.000000,2.000000,0.000000,4.000000,2.000000,2.000000,0.000000,0.000000,4.000000,4.000000,4.000000,4.000000,4.000000,4.000000,0.000000,,,,,,,,,,,,,,,,,,,,,,,,,,,,
1732157965.458849,1732157965.460747,92.000000,0.000000,4318.205078,4102.436035,4321.153809,4328.846191,4338.077148,4305.897461,4335.000000,4402.179688,4320.512695,4310.256348,4475.256348,4538.077148,4320.641113,4430.512695,1701.000000,1.000000,22.000000,,,,0.000000,2.000000,2.000000,0.000000,4.000000,2.000000,2.000000,0.000000,0.000000,4.000000,4.000000,4.000000,4.000000,4.000000,4.000000,0.000000,,,,,,,,,,,,,,,,,23.000000,0.000000,0.515950,0.472046,-0.544495,0.463135,0.984984,-0.034672,-0.043462,-35.139095,45.132305,32.196377
1732157965.466658,1732157965.468555,93.000000,0.000000,4311.922852,4011.923096,4322.307617,4321.153809,4349.230957,4320.128418,4333.077148,4403.846191,4322.563965,4315.897461,4471.794922,4538.205078,4315.384766,4428.589844,1608.000000,1.000000,22.000000,,,,0.000000,2.000000,2.000000,0.000000,4.000000,2.000000,2.000000,0.000000,0.000000,4.000000,4.000000,4.000000,4.000000,4.000000,4.000000,0.000000,,,,,,,,,,,,,,,,,,,,,,,,,,,,
1732157965.474466,1732157965.476164,94.000000,0.000000,4308.461426,4002.820557,4321.025879,4315.000000,4360.128418,4328.333496,4333.077148,4401.282227,4316.794922,4308.846191,4460.897461,4526.282227,4307.179688,4424.102539,1549.000000,1.000000,22.000000,,,,0.000000,2.000000,2.000000,0.000000,4.000000,2.000000,2.000000,0.000000,0.000000,4.000000,4.000000,4.000000,4.000000,4.000000,4.000000,0.000000,,,,,,,,,,,,,,,,,,,,,,,,,,,,
1732157965.482274,1732157965.483972,95.000000,0.000000,4311.922852,4025.384521,4319.487305,4319.230957,4368.589844,4328.333496,4334.871582,4401.666504,4313.974121,4305.897461,4463.846191,4526.538574,4307.179688,4425.384766,1569.000000,1.000000,22.000000,,,,0.000000,2.000000,2.000000,0.000000,4.000000,2.000000,2.000000,0.000000,0.000000,4.000000,4.000000,4.000000,4.000000,4.000000,4.000000,0.000000,,,,,,,,,,,,,,,,,,,,,,,,,,,,
1732157965.490082,1732157965.491680,96.000000,0.000000,4313.461426,4023.461426,4319.230957,4322.692383,4347.692383,4328.974121,4335.769043,4402.948730,4317.051270,4312.436035,4476.025879,4540.128418,4312.820313,4432.051270,1701.000000,1.000000,22.000000,,,,0.000000,2.000000,2.000000,0.000000,4.000000,2.000000,2.000000,0.000000,0.000000,4.000000,4.000000,4.000000,4.000000,4.000000,4.000000,0.000000,,,,,,,,,,,,,,,,,24.000000,0.000000,0.515568,0.471741,-0.544861,0.463440,0.984984,-0.023929,-0.041509,-35.021000,45.135502,32.110729
1732157965.497890,1732157965.499489,97.000000,0.000000,4311.538574,4025.641113,4318.333496,4318.461426,4325.000000,4328.717773,4335.897461,4401.794922,4324.102539,4320.256348,4477.307617,4542.179688,4312.563965,4430.769043,1608.000000,1.000000,22.000000,,,,0.000000,2.000000,2.000000,0.000000,4.000000,2.000000,2.000000,0.000000,0.000000,4.000000,4.000000,4.000000,4.000000,4.000000,4.000000,0.000000,,,,,,,,,,,,,,,,,,,,,,,,,,,,
1732157965.505699,1732157965.507097,98.000000,0.000000,4316.153809,4034.615479,4318.461426,4312.436035,4332.436035,4318.333496,4335.641113,4401.794922,4328.333496,4321.153809,4475.384766,4538.717773,4310.897461,4427.820313,1549.000000,1.000000,22.000000,,,,0.000000,2.000000,2.000000,0.000000,4.000000,2.000000,2.000000,0.000000,0.000000,4.000000,4.000000,4.000000,4.000000,4.000000,4.000000,0.000000,,,,,,,,,,,,,,,,,,,,,,,,,,,,
1732157965.513507,1732157965.514905,99.000000,0.000000,4319.102539,4037.179443,4320.769043,4313.846191,4340.641113,4309.102539,4334.615234,4403.974121,4326.794922,4316.282227,4477.948730,4545.256348,4312.307617,4434.230957,1569.000000,1.000000,22.000000,,,,0.000000,2.000000,2.000000,0.000000,4.000000,2.000000,2.000000,0.000000,0.000000,4.000000,4.000000,4.000000,4.000000,4.000000,4.000000,0.000000,,,,,,,,,,,,,,,,,,,,,,,,,,,,
1732157965.521315,1732157965.522614,100.000000,0.000000,4313.846191,4037.564209,4320.769043,4308.589844,4329.871582,4312.051270,4334.487305,4403.205078,4325.769043,4322.179688,4480.128418,4551.153809,4314.743652,4438.974121,1701.000000,1.000000,22.000000,,,,0.000000,2.000000,2.000000,0.000000,4.000000,2.000000,2.000000,0.000000,0.000000,4.000000,4.000000,4.000000,4.000000,4.000000,4.000000,0.000000,,,,,,,,,,,,,,,,,25.000000,0.000000,0.515280,0.471375,-0.544983,0.463989,0.966915,-0.020999,-0.037602,-34.992008,45.154755,31.891359
1732157965.529123,1732157965.530422,101.000000,0.000000,4310.000000,4035.256348,4319.358887,4297.307617,4337.948730,4315.769043,4335.128418,4401.282227,4326.410156,4326.922852,4479.358887,4544.871582,4314.615234,4431.794922,1608.000000,1.000000,22.000000,,,,0.000000,2.000000,2.000000,0.000000,4.000000,2.000000,2.000000,0.000000,0.000000,4.000000,4.000000,4.000000,4.000000,4.000000,4.000000,0.000000,,,,,,,,,,,,,,,,,,,,,,,,,,,,
1732157965.536932,1732157965.538430,102.000000,0.000000,4308.846191,4039.615479,4319.102539,4303.205078,4354.743652,4313.717773,4335.384766,4401.153809,4327.563965,4316.538574,4475.384766,4535.256348,4310.512695,4423.974121,1549.000000,1.000000,22.000000,,,,0.000000,2.000000,2.000000,0.000000,4.000000,2.000000,2.000000,0.000000,0.000000,4.000000,4.000000,4.000000,4.000000,4.000000,4.000000,0.000000,,,,,,,,,,,,,,,,,,,,,,,,,,,,
1732157965.544740,1732157965.546238,103.000000,0.000000,4306.666504,4049.230713,4319.487305,4316.794922,4344.102539,4315.769043,4335.641113,4401.282227,4326.025879,4309.487305,4473.333496,4533.717773,4307.948730,4425.384766,1569.000000,1.000000,22.000000,,,,0.000000,2.000000,2.000000,0.000000,4.000000,2.000000,2.000000,0.000000,0.000000,4.000000,4.000000,4.000000,4.000000,4.000000,4.000000,0.000000,,,,,,,,,,,,,,,,,,,,,,,,,,,,
1732157965.552548,1732157965.554146,104.000000,0.000000,4309.358887,4052.307617,4320.769043,4318.333496,4326.282227,4321.666504,4336.666504,4401.794922,4322.948730,4315.000000,4475.897461,4537.436035,4311.410156,4429.102539,1701.000000,1.000000,22.000000,,,,0.000000,2.000000,2.000000,0.000000,4.000000,2.000000,2.000000,0.000000,0.000000,4.000000,4.000000,4.000000,4.000000,4.000000,4.000000,0.000000,,,,,,,,,,,,,,,,,26.000000,0.000000,0.515331,0.471008,-0.545044,0.464233,0.980588,-0.024905,-0.037114,-34.996861,45.012020,31.977001
1732157965.560357,1732157965.561954,105.000000,0.000000,4312.563965,4054.615479,4320.897461,4315.512695,4326.153809,4317.563965,4336.538574,4401.666504,4319.230957,4314.743652,4475.641113,4538.205078,4313.333496,4429.871582,1608.000000,1.000000,22.000000,,,,0.000000,2.000000,2.000000,0.000000,4.000000,2.000000,2.000000,0.000000,0.000000,4.000000,4.000000,4.000000,4.000000,4.000000,4.000000,0.000000,,,,,,,,,,,,,,,,,,,,,,,,,,,,
1732157965.568165,1732157965.569962,106.000000,0.000000,4312.563965,4061.794922,4320.000000,4315.641113,4340.641113,4306.410156,4334.615234,4402.692383,4315.512695,4309.743652,4471.794922,4538.846191,4309.102539,4426.922852,1549.000000,1.000000,22.000000,,,,0.000000,2.000000,2.000000,0.000000,4.000000,2.000000,2.000000,0.000000,0.000000,4.000000,4.000000,4.000000,4.000000,4.000000,4.000000,0.000000,,,,,,,,,,,,,,,,,,,,,,,,,,,,
1732157965.575973,1732157965.577771,107.000000,0.000000,4311.922852,4060.512939,4319.358887,4311.410156,4339.230957,4307.948730,4334.358887,4405.256348,4323.717773,4315.000000,4471.922852,4538.077148,4309.615234,4420.128418,1569.000000,1.000000,22.000000,,,,0.000000,2.000000,2.000000,0.000000,4.000000,2.000000,2.000000,0.000000,0.000000,4.000000,4.000000,4.000000,4.000000,4.000000,4.000000,0.000000,,,,,,,,,,,,,,,,,,,,,,,,,,,,
1732157965.583781,1732157965.585679,108.000000,0.000000,4303.974121,4057.564209,4319.230957,4309.230957,4320.128418,4316.410156,4335.384766,4404.230957,4329.358887,4321.410156,4474.230957,4537.051270,4315.000000,4418.077148,1701.000000,1.000000,22.000000,,,,0.000000,2.000000,2.000000,0.000000,4.000000,2.000000,2.000000,0.000000,0.000000,4.000000,4.000000,4.000000,4.000000,4.000000,4.000000,0.000000,,,,,,,,,,,,,,,,,27.000000,0.000000,0.515106,0.470581,-0.545105,0.464844,0.980588,-0.028812,-0.039556,-34.839123,45.009735,31.949703
1732157965.591589,1732157965.593487,109.000000,0.000000,4298.974121,4069.230713,4318.974121,4310.512695,4310.000000,4315.769043,4336.410156,4400.641113,4319.743652,4319.358887,4474.358887,4537.179688,4315.512695,4420.384766,1608.000000,1.000000,22.000000,,,,0.000000,2.000000,2.000000,0.000000,4.000000,2.000000,2.000000,0.000000,0.000000,4.000000,4.000000,4.000000,4.000000,4.000000,4.000000,0.000000,,,,,,,,,,,,,,,,,,,,,,,,,,,,
1732157965.599398,1732157965.601095,110.000000,0.000000,4306.922852,4075.769287,4320.512695,4310.384766,4318.717773,4316.025879,4336.538574,4400.769043,4319.871582,4315.384766,4472.692383,4533.077148,4312.436035,4417.563965,1549.000000,1.000000,22.000000,,,,0.000000,2.000000,2.000000,0.000000,4.000000,2.000000,2.000000,0.000000,0.000000,4.000000,4.000000,4.000000,4.000000,4.000000,4.000000,0.000000,,,,,,,,,,,,,,,,,,,,,,,,,,,,
1732157965.607206,1732157965.608903,111.000000,0.000000,4307.820313,4067.307617,4321.282227,4309.743652,4327.563965,4319.871582,4335.512695,4403.461426,4323.589844,4312.563965,4471.666504,4525.897461,4310.897461,4412.051270,1569.000000,1.000000,22.000000,,,,0.000000,2.000000,2.000000,0.000000,4.000000,2.000000,2.000000,0.000000,0.000000,4.000000,4.000000,4.000000,4.000000,4.000000,4.000000,0.000000,,,,,,,,,,,,,,,,,,,,,,,,,,,,
1732157965.615014,1732157965.616812,112.000000,0.000000,4296.666504,4066.281982,4319.615234,4303.717773,4322.307617,4321.794922,4335.897461,4403.077148,4316.538574,4312.692383,4472.051270,4523.974121,4312.051270,4415.769043,1701.000000,1.000000,22.000000,,,,0.000000,2.000000,2.000000,0.000000,4.000000,2.000000,2.000000,0.000000,0.000000,4.000000,4.000000,4.000000,4.000000,4.000000,4.000000,0.000000,,,,,,,,,,,,,,,,,28.000000,0.000000,0.514823,0.470398,-0.545166,0.465271,0.970822,-0.024417,-0.027835,-34.916359,45.162884,31.700926
1732157965.622822,1732157965.624620,113.000000,0.000000,4294.871582,4074.102539,4316.282227,4298.461426,4330.641113,4320.641113,4336.410156,4402.051270,4312.051270,4314.487305,4472.436035,4522.948730,4314.230957,4419.487305,1608.000000,1.000000,22.000000,,,,0.000000,2.000000,2.000000,0.000000,4.000000,2.000000,2.000000,0.000000,0.000000,4.000000,4.000000,4.000000,4.000000,4.000000,4.000000,0.000000,,,,,,,,,,,,,,,,,,,,,,,,,,,,
1732157965.630631,1732157965.632628,114.000000,0.000000,4300.128418,4075.384521,4317.307617,4301.794922,4344.358887,4318.333496,4334.615234,4403.077148,4315.256348,4313.846191,4472.179688,4524.230957,4313.589844,4415.384766,1549.000000,1.000000,22.000000,,,,0.000000,2.000000,2.000000,0.000000,4.000000,2.000000,2.000000,0.000000,0.000000,4.000000,4.000000,4.000000,4.000000,4.000000,4.000000,0.000000,,,,,,,,,,,,,,,,,,,,,,,,,,,,
1732157965.638439,1732157965.640436,115.000000,0.000000,4297.820313,4077.179443,4321.025879,4308.589844,4330.897461,4320.897461,4336.153809,4402.563965,4315.512695,4311.922852,4472.436035,4527.436035,4312.051270,4414.615234,1569.000000,1.000000,22.000000,,,,0.000000,2.000000,2.000000,0.000000,4.000000,2.000000,2.000000,0.000000,0.000000,4.000000,4.000000,4.000000,4.000000,4.000000,4.000000,0.000000,,,,,,,,,,,,,,,,,,,,,,,,,,,,
1732157965.646247,1732157965.648344,116.000000,0.000000,4296.666504,4082.820557,4320.512695,4308.461426,4312.051270,4325.000000,4340.512695,4401.922852,4320.128418,4313.846191,4472.820313,4529.358887,4311.538574,4418.846191,1701.000000,1.000000,22.000000,,,,0.000000,2.000000,2.000000,0.000000,4.000000,2.000000,2.000000,0.000000,0.000000,4.000000,4.000000,4.000000,4.000000,4.000000,4.000000,0.000000,,,,,,,,,,,,,,,,,29.000000,0.000000,0.514489,0.470825,-0.544800,0.465637,0.969357,-0.016115,-0.031742,-34.897251,45.326939,31.476084
1732157965.654055,1732157965.656152,117.000000,0.000000,4302.051270,4084.358887,4318.589844,4307.948730,4316.410156,4321.025879,4340.641113,4402.307617,4321.282227,4312.692383,4471.538574,4527.820313,4313.205078,4418.333496,1608.000000,1.000000,22.000000,,,,0.000000,2.000000,2.000000,0.000000,4.000000,2.000000,2.000000,0.000000,0.000000,4.000000,4.000000,4.000000,4.000000,4.000000,4.000000,0.000000,,,,,,,,,,,,,,,,,,,,,,,,,,,,
1732157965.661864,1732157965.664160,118.000000,0.000000,4305.641113,4084.615479,4319.358887,4308.846191,4327.307617,4317.051270,4337.563965,4401.922852,4312.051270,4308.077148,4472.179688,4526.794922,4318.717773,4414.743652,1549.000000,1.000000,22.000000,,,,0.000000,2.000000,2.000000,0.000000,4.000000,2.000000,2.000000,0.000000,0.000000,4.000000,4.000000,4.000000,4.000000,4.000000,4.000000,0.000000,,,,,,,,,,,,,,,,,,,,,,,,,,,,
1732157965.669672,1732157965.671969,119.000000,0.000000,4301.922852,4086.153809,4322.436035,4302.692383,4320.641113,4318.974121,4335.128418,4401.794922,4314.615234,4310.256348,4473.333496,4529.102539,4318.846191,4413.333496,1569.000000,1.000000,22.000000,,,,0.000000,2.000000,2.000000,0.000000,4.000000,2.000000,2.000000,0.000000,0.000000,4.000000,4.000000,4.000000,4.000000,4.000000,4.000000,0.000000,,,,,,,,,,,,,,,,,,,,,,,,,,,,
1732157965.677480,1732157965.679877,120.000000,0.000000,4295.384766,4083.333252,4320.512695,4295.641113,4322.436035,4319.871582,4335.384766,4402.563965,4321.153809,4313.205078,4468.589844,4528.717773,4312.307617,4405.769043,1701.000000,1.000000,22.000000,,,,0.000000,2.000000,2.000000,0.000000,4.000000,2.000000,2.000000,0.000000,0.000000,4.000000,4.000000,4.000000,4.000000,4.000000,4.000000,0.000000,,,,,,,,,,,,,,,,,30.000000,0.000000,0.514442,0.470886,-0.544739,0.465698,0.972287,-0.013185,-0.035161,-34.821774,45.074818,31.575628
1732157965.685288,1732157965.687685,121.000000,0.000000,4292.948730,4083.718018,4313.717773,4295.384766,4339.487305,4319.358887,4335.256348,4403.205078,4317.820313,4309.230957,4465.000000,4518.974121,4314.743652,4398.077148,1608.000000,1.000000,22.000000,,,,0.000000,2.000000,2.000000,0.000000,4.000000,2.000000,2.000000,0.000000,0.000000,4.000000,4.000000,4.000000,4.000000,4.000000,4.000000,0.000000,,,,,,,,,,,,,,,,,,,,,,,,,,,,
1732157965.693097,1732157965.695693,122.000000,0.000000,4293.333496,4089.102539,4314.102539,4295.641113,4334.358887,4315.641113,4334.871582,4402.563965,4320.128418,4313.333496,4472.179688,4510.512695,4325.000000,4403.717773,1549.000000,1.000000,22.000000,,,,0.000000,2.000000,2.000000,0.000000,4.000000,2.000000,2.000000,0.000000,0.000000,4.000000,4.000000,4.000000,4.000000,4.000000,4.000000,0.000000,,,,,,,,,,,,,,,,,,,,,,,,,,,,
1732157965.700905,1732157965.703501,123.000000,0.000000,4293.589844,4092.948730,4322.692383,4294.358887,4312.051270,4316.025879,4337.948730,4402.948730,4327.948730,4321.666504,4480.256348,4516.538574,4329.230957,4413.077148,1569.000000,1.000000,22.000000,,,,0.000000,2.000000,2.000000,0.000000,4.000000,2.000000,2.000000,0.000000,0.000000,4.000000,4.000000,4.000000,4.000000,4.000000,4.000000,0.000000,,,,,,,,,,,,,,,,,,,,,,,,,,,,
1732157965.708713,1732157965.711409,124.000000,0.000000,4293.846191,4098.205078,4323.205078,4297.436035,4308.974121,4322.820313,4340.897461,4405.128418,4323.333496,4315.897461,4478.589844,4523.461426,4328.205078,4412.563965,1701.000000,1.000000,22.000000,,,,0.000000,2.000000,2.000000,0.000000,4.000000,2.000000,2.000000,0.000000,0.000000,4.000000,4.000000,4.000000,4.000000,4.000000,4.000000,0.000000,,,,,,,,,,,,,,,,,31.000000,0.000000,0.514649,0.470459,-0.544861,0.465759,0.976193,-0.023440,-0.033207,-35.177303,45.040604,31.701258
1732157965.716521,1732157965.719217,125.000000,0.000000,4295.384766,4104.358887,4318.077148,4299.615234,4322.307617,4319.871582,4339.230957,4405.256348,4313.333496,4308.974121,4475.769043,4520.897461,4327.179688,4410.128418,1608.000000,1.000000,22.000000,,,,0.000000,2.000000,2.000000,0.000000,4.000000,2.000000,2.000000,0.000000,0.000000,4.000000,4.000000,4.000000,4.000000,4.000000,4.000000,0.000000,,,,,,,,,,,,,,,,,,,,,,,,,,,,
1732157965.724330,1732157965.726826,126.000000,0.000000,4296.153809,4106.666504,4315.000000,4300.000000,4316.410156,4310.512695,4338.846191,4400.000000,4322.179688,4317.820313,4478.717773,4522.948730,4326.282227,4416.153809,1549.000000,1.000000,22.000000,,,,0.000000,2.000000,2.000000,0.000000,4.000000,2.000000,2.000000,0.000000,0.000000,4.000000,4.000000,4.000000,4.000000,4.000000,4.000000,0.000000,,,,,,,,,,,,,,,,,,,,,,,,,,,,
1732157965.732138,1732157965.734634,127.000000,0.000000,4294.743652,4106.282227,4314.102539,4298.461426,4314.102539,4313.205078,4338.846191,4399.743652,4328.461426,4322.307617,4479.487305,4526.410156,4327.436035,4418.974121,22.000000,1.000000,22.000000,,,,0.000000,2.000000,2.000000,0.000000,4.000000,2.000000,2.000000,0.000000,0.000000,4.000000,4.000000,4.000000,4.000000,4.000000,4.000000,0.000000,,,,,,,,,,,,,,,,,,,,,,,,,,,,
1732157965.739946,1732157965.742342,0.000000,0.000000,4292.563965,4106.410156,4314.230957,4294.615234,4334.230957,4316.025879,4335.256348,4405.128418,4317.179688,4315.128418,4475.769043,4522.948730,4327.948730,4413.846191,0.000000,1.000000,22.000000,,,,0.000000,2.000000,2.000000,0.000000,4.000000,2.000000,2.000000,0.000000,0.000000,4.000000,4.000000,4.000000,4.000000,4.000000,4.000000,0.000000,,,,,,,,,,,,,,,,,0.000000,0.000000,0.514725,0.470093,-0.545105,0.465759,0.982542,-0.035649,-0.031254,-35.371948,45.054554,31.758020
1732157965.747754,1732157965.750150,1.000000,0.000000,4292.948730,4111.794922,4315.128418,4295.641113,4325.000000,4305.769043,4334.102539,4404.358887,4312.948730,4311.282227,4474.102539,4520.128418,4325.256348,4411.410156,1594.000000,1.000000,22.000000,,,,0.000000,2.000000,2.000000,0.000000,4.000000,2.000000,2.000000,0.000000,0.000000,4.000000,4.000000,4.000000,4.000000,4.000000,4.000000,0.000000,,,,,,,,,,,,,,,,,,,,,,,,,,,,
1732157965.755563,1732157965.757759,2.000000,0.000000,4295.000000,4119.102539,4315.512695,4296.538574,4295.512695,4305.897461,4335.769043,4403.717773,4319.871582,4310.769043,4476.666504,4522.692383,4326.153809,4413.717773,1359.000000,1.000000,22.000000,,,,0.000000,2.000000,2.000000,0.000000,4.000000,2.000000,2.000000,0.000000,0.000000,4.000000,4.000000,4.000000,4.000000,4.000000,4.000000,0.000000,,,,,,,,,,,,,,,,,,,,,,,,,,,,
1732157965.763371,1732157965.765567,3.000000,0.000000,4294.487305,4121.410156,4317.436035,4294.102539,4299.871582,4316.794922,4335.897461,4406.538574,4318.974121,4315.128418,4478.461426,4523.077148,4332.051270,4415.512695,1441.000000,1.000000,22.000000,,,,0.000000,2.000000,2.000000,0.000000,4.000000,2.000000,2.000000,0.000000,0.000000,4.000000,4.000000,4.000000,4.000000,4.000000,4.000000,0.000000,,,,,,,,,,,,,,,,,,,,,,,,,,,,
1732157965.771179,1732157965.773275,4.000000,0.000000,4292.948730,4120.256348,4318.974121,4294.743652,4314.102539,4319.487305,4335.641113,4402.948730,4318.333496,4320.128418,4478.077148,4522.051270,4335.512695,4414.230957,1422.000000,1.000000,22.000000,,,,0.000000,2.000000,2.000000,0.000000,4.000000,2.000000,2.000000,0.000000,0.000000,4.000000,4.000000,4.000000,4.000000,4.000000,4.000000,0.000000,,,,,,,,,,,,,,,,,1.000000,0.000000,0.514781,0.470032,-0.545105,0.465759,0.982542,-0.035649,-0.031254,-35.142944,45.202522,31.835663
1732157965.778987,1732157965.781084,5.000000,0.000000,4294.102539,4120.000000,4316.922852,4296.153809,4310.897461,4313.589844,4335.641113,4398.974121,4319.487305,4314.743652,4475.000000,4520.641113,4332.307617,4413.461426,1207.000000,1.000000,22.000000,,,,0.000000,2.000000,2.000000,0.000000,4.000000,2.000000,2.000000,0.000000,0.000000,4.000000,4.000000,4.000000,4.000000,4.000000,4.000000,0.000000,,,,,,,,,,,,,,,,,,,,,,,,,,,,
1732157965.786796,1732157965.788692,6.000000,0.000000,4296.794922,4124.102539,4315.128418,4295.512695,4321.794922,4306.538574,4335.128418,4402.051270,4313.589844,4307.436035,4475.000000,4520.384766,4331.153809,4417.307617,0.000000,1.000000,22.000000,,,,0.000000,2.000000,2.000000,0.000000,4.000000,2.000000,2.000000,0.000000,0.000000,4.000000,4.000000,4.000000,4.000000,4.000000,4.000000,0.000000,,,,,,,,,,,,,,,,,,,,,,,,,,,,
1732157965.794604,1732157965.796500,7.000000,0.000000,4297.692383,4133.333496,4314.230957,4298.846191,4325.256348,4305.384766,4333.974121,4402.948730,4313.205078,4310.641113,4478.717773,4521.282227,4335.128418,4421.410156,0.000000,1.000000,22.000000,,,,0.000000,2.000000,2.000000,0.000000,4.000000,2.000000,2.000000,0.000000,0.000000,4.000000,4.000000,4.000000,4.000000,4.000000,4.000000,0.000000,,,,,,,,,,,,,,,,,,,,,,,,,,,,
1732157965.802412,1732157965.804209,8.000000,0.000000,4296.410156,4137.563965,4313.589844,4300.384766,4297.948730,4309.102539,4336.282227,4402.692383,4320.256348,4313.717773,4476.794922,4520.897461,4335.897461,4419.358887,1533.000000,1.000000,22.000000,,,,0.000000,2.000000,2.000000,0.000000,4.000000,2.000000,2.000000,0.000000,0.000000,4.000000,4.000000,4.000000,4.000000,4.000000,4.000000,0.000000,,,,,,,,,,,,,,,,,2.000000,0.000000,0.514725,0.470032,-0.545105,0.465820,0.963985,-0.032719,-0.031742,-35.300785,45.055710,31.601887
1732157965.810220,1732157965.812017,9.000000,0.000000,4293.205078,4133.461426,4313.205078,4296.025879,4290.000000,4312.179688,4338.846191,4404.230957,4322.692383,4311.538574,4474.102539,4521.410156,4333.846191,4414.102539,1683.000000,1.000000,22.000000,,,,0.000000,2.000000,2.000000,0.000000,4.000000,2.000000,2.000000,0.000000,0.000000,4.000000,4.000000,4.000000,4.000000,4.000000,4.000000,0.000000,,,,,,,,,,,,,,,,,,,,,,,,,,,,
1732157965.818029,1732157965.819625,10.000000,0.000000,4295.641113,4134.487305,4314.487305,4295.000000,4306.538574,4309.102539,4337.948730,4404.102539,4322.563965,4312.179688,4478.205078,4523.589844,4332.436035,4414.230957,1549.000000,1.000000,22.000000,,,,0.000000,2.000000,2.000000,0.000000,4.000000,2.000000,2.000000,0.000000,0.000000,4.000000,4.000000,4.000000,4.000000,4.000000,4.000000,0.000000,,,,,,,,,,,,,,,,,,,,,,,,,,,,
1732157965.825837,1732157965.827433,11.000000,0.000000,4297.692383,4139.230957,4316.282227,4297.179688,4307.563965,4308.333496,4337.692383,4405.641113,4320.000000,4312.563965,4473.974121,4520.384766,4329.230957,4415.000000,1569.000000,1.000000,22.000000,,,,0.000000,2.000000,2.000000,0.000000,4.000000,2.000000,2.000000,0.000000,0.000000,4.000000,4.000000,4.000000,4.000000,4.000000,4.000000,0.000000,,,,,,,,,,,,,,,,,,,,,,,,,,,,
1732157965.833645,1732157965.835142,12.000000,0.000000,4286.922852,4137.948730,4315.897461,4295.128418,4301.538574,4311.666504,4338.589844,4404.615234,4318.333496,4310.897461,4461.794922,4503.077148,4326.794922,4406.282227,1701.000000,1.000000,22.000000,,,,0.000000,2.000000,2.000000,0.000000,4.000000,2.000000,2.000000,0.000000,0.000000,4.000000,4.000000,4.000000,4.000000,4.000000,4.000000,0.000000,,,,,,,,,,,,,,,,,3.000000,0.000000,0.514494,0.470215,-0.544800,0.466248,0.992309,-0.013674,-0.030277,-35.305302,45.236794,31.575861
1732157965.841453,1732157965.842950,13.000000,0.000000,4280.256348,4141.666504,4312.692383,4292.563965,4308.717773,4311.282227,4334.487305,4400.769043,4319.358887,4309.487305,4459.487305,4490.256348,4328.077148,4398.461426,1603.000000,1.000000,22.000000,,,,0.000000,2.000000,2.000000,0.000000,4.000000,2.000000,2.000000,0.000000,0.000000,4.000000,4.000000,4.000000,4.000000,4.000000,4.000000,0.000000,,,,,,,,,,,,,,,,,,,,,,,,,,,,
1732157965.849262,1732157965.850558,14.000000,0.000000,4286.794922,4152.436035,4312.692383,4294.230957,4309.102539,4312.179688,4333.846191,4403.589844,4316.666504,4310.769043,4464.102539,4497.563965,4328.589844,4404.743652,1549.000000,1.000000,22.000000,,,,0.000000,2.000000,2.000000,0.000000,4.000000,2.000000,2.000000,0.000000,0.000000,4.000000,4.000000,4.000000,4.000000,4.000000,4.000000,0.000000,1.000000,0.000000,2.000000,1.000000,0.000000,4.000000,2.000000,2.000000,0.000000,0.000000,4.000000,4.000000,4.000000,4.000000,3.000000,4.000000,,,,,,,,,,,,
1732157965.857070,1732157965.858367,15.000000,0.000000,4287.692383,4155.641113,4314.358887,4295.641113,4310.256348,4311.922852,4340.000000,4407.563965,4311.410156,4310.897461,4461.538574,4500.384766,4326.538574,4407.563965,1569.000000,1.000000,22.000000,,,,0.000000,2.000000,2.000000,0.000000,4.000000,2.000000,2.000000,0.000000,0.000000,4.000000,4.000000,4.000000,4.000000,4.000000,4.000000,0.000000,,,,,,,,,,,,,,,,,,,,,,,,,,,,
1732157965.864878,1732157965.866075,16.000000,0.000000,4277.948730,4152.436035,4315.000000,4294.358887,4319.743652,4309.871582,4339.230957,4403.333496,4313.205078,4305.128418,4458.333496,4492.436035,4325.256348,4396.666504,0.000000,1.000000,22.000000,,,,0.000000,2.000000,2.000000,0.000000,4.000000,2.000000,2.000000,0.000000,0.000000,4.000000,4.000000,4.000000,4.000000,4.000000,4.000000,0.000000,,,,,,,,,,,,,,,,,4.000000,0.000000,0.514337,0.470337,-0.544739,0.466370,0.992309,-0.013674,-0.030277,-35.430630,45.496803,31.518114
1732157965.872686,1732157965.873883,17.000000,0.000000,4277.948730,4154.871582,4315.000000,4294.615234,4309.615234,4308.846191,4333.717773,4400.384766,4314.230957,4304.230957,4465.384766,4497.563965,4325.256348,4397.307617,0.000000,1.000000,22.000000,,,,0.000000,2.000000,2.000000,0.000000,4.000000,2.000000,2.000000,0.000000,0.000000,4.000000,4.000000,4.000000,4.000000,4.000000,4.000000,0.000000,,,,,,,,,,,,,,,,,,,,,,,,,,,,
1732157965.880495,1732157965.881491,18.000000,0.000000,4288.461426,4158.077148,4316.410156,4295.769043,4288.461426,4309.358887,4335.128418,4403.205078,4312.436035,4310.256348,4469.102539,4509.871582,4325.384766,4410.769043,0.000000,1.000000,22.000000,,,,0.000000,2.000000,2.000000,0.000000,4.000000,2.000000,2.000000,0.000000,0.000000,4.000000,4.000000,4.000000,4.000000,4.000000,4.000000,0.000000,,,,,,,,,,,,,,,,,,,,,,,,,,,,
1732157965.888303,1732157965.889300,19.000000,0.000000,4288.589844,4155.769043,4317.051270,4292.692383,4288.717773,4310.512695,4337.563965,4402.179688,4314.615234,4312.307617,4466.794922,4509.230957,4324.743652,4412.820313,0.000000,1.000000,22.000000,,,,0.000000,2.000000,2.000000,0.000000,4.000000,2.000000,2.000000,0.000000,0.000000,4.000000,4.000000,4.000000,4.000000,4.000000,4.000000,0.000000,,,,,,,,,,,,,,,,,,,,,,,,,,,,
1732157965.896111,1732157965.897208,20.000000,0.000000,4283.205078,4160.128418,4316.538574,4291.410156,4300.897461,4308.333496,4334.743652,4401.538574,4316.410156,4309.487305,4467.948730,4507.179688,4326.410156,4409.615234,0.000000,1.000000,22.000000,,,,0.000000,2.000000,2.000000,0.000000,4.000000,2.000000,2.000000,0.000000,0.000000,4.000000,4.000000,4.000000,4.000000,4.000000,4.000000,0.000000,,,,,,,,,,,,,,,,,5.000000,0.000000,0.513837,0.470520,-0.544739,0.466736,0.984495,-0.018069,-0.031742,-35.412144,45.307411,31.388006
1732157965.903919,1732157965.905016,21.000000,0.000000,4287.692383,4169.871582,4315.897461,4295.641113,4297.307617,4306.794922,4335.897461,4402.051270,4319.230957,4312.692383,4469.871582,4509.743652,4328.846191,4410.641113,0.000000,1.000000,22.000000,,,,0.000000,2.000000,2.000000,0.000000,4.000000,2.000000,2.000000,0.000000,0.000000,4.000000,4.000000,4.000000,4.000000,4.000000,4.000000,0.000000,,,,,,,,,,,,,,,,,,,,,,,,,,,,
1732157965.911728,1732157965.913024,22.000000,0.000000,4295.769043,4174.102539,4315.512695,4298.461426,4294.102539,4308.846191,4338.461426,4401.666504,4322.563965,4316.666504,4464.615234,4508.461426,4327.051270,4406.922852,0.000000,1.000000,22.000000,,,,0.000000,2.000000,2.000000,0.000000,4.000000,2.000000,2.000000,0.000000,0.000000,4.000000,4.000000,4.000000,4.000000,4.000000,4.000000,0.000000,,,,,,,,,,,,,,,,,,,,,,,,,,,,
1732157965.919536,1732157965.920832,23.000000,0.000000,4291.922852,4173.077148,4316.025879,4295.641113,4310.000000,4309.102539,4337.179688,4402.051270,4317.051270,4307.307617,4459.487305,4503.589844,4325.000000,4401.153809,0.000000,1.000000,22.000000,,,,0.000000,2.000000,2.000000,0.000000,4.000000,2.000000,2.000000,0.000000,0.000000,4.000000,4.000000,4.000000,4.000000,4.000000,4.000000,0.000000,,,,,,,,,,,,,,,,,,,,,,,,,,,,
1732157965.927344,1732157965.928541,24.000000,0.000000,4287.563965,4171.282227,4313.974121,4293.077148,4314.615234,4306.794922,4337.179688,4401.025879,4307.307617,4295.641113,4460.256348,4502.051270,4326.410156,4401.410156,0.000000,1.000000,22.000000,,,,0.000000,2.000000,2.000000,0.000000,4.000000,2.000000,2.000000,0.000000,0.000000,4.000000,4.000000,4.000000,4.000000,4.000000,4.000000,0.000000,,,,,,,,,,,,,,,,,6.000000,0.000000,0.513318,0.470581,-0.544861,0.467102,0.965938,-0.036626,-0.028324,-35.472168,45.437336,31.499285
1732157965.935152,1732157965.936349,25.000000,0.000000,4290.000000,4175.128418,4312.692383,4296.282227,4291.410156,4305.641113,4339.871582,4398.077148,4306.025879,4298.717773,4459.102539,4502.563965,4326.794922,4404.871582,0.000000,1.000000,22.000000,,,,0.000000,2.000000,2.000000,0.000000,4.000000,2.000000,2.000000,0.000000,0.000000,4.000000,4.000000,4.000000,4.000000,4.000000,4.000000,0.000000,,,,,,,,,,,,,,,,,,,,,,,,,,,,
1732157965.942961,1732157965.944357,26.000000,0.000000,4287.948730,4173.846191,4314.743652,4296.794922,4274.615234,4303.974121,4339.871582,4397.948730,4310.897461,4309.358887,4458.589844,4498.846191,4325.384766,4405.769043,0.000000,1.000000,22.000000,,,,0.000000,2.000000,2.000000,0.000000,4.000000,2.000000,2.000000,0.000000,0.000000,4.000000,4.000000,4.000000,4.000000,4.000000,4.000000,0.000000,,,,,,,,,,,,,,,,,,,,,,,,,,,,
1732157965.950769,1732157965.952165,27.000000,0.000000,4286.666504,4156.666504,4314.615234,4293.846191,4289.358887,4305.128418,4337.436035,4402.051270,4313.205078,4312.436035,4459.615234,4497.563965,4325.641113,4403.333496,0.000000,1.000000,22.000000,,,,0.000000,2.000000,2.000000,0.000000,4.000000,2.000000,2.000000,0.000000,0.000000,4.000000,4.000000,4.000000,4.000000,4.000000,4.000000,0.000000,,,,,,,,,,,,,,,,,,,,,,,,,,,,
1732157965.958577,1732157965.960073,28.000000,0.000000,4291.410156,4138.589844,4312.307617,4298.846191,4306.282227,4310.897461,4337.563965,4402.436035,4311.410156,4311.922852,4462.307617,4503.461426,4326.025879,4404.230957,0.000000,1.000000,22.000000,,,,0.000000,2.000000,2.000000,0.000000,4.000000,2.000000,2.000000,0.000000,0.000000,4.000000,4.000000,4.000000,4.000000,4.000000,4.000000,0.000000,,,,,,,,,,,,,,,,,7.000000,0.000000,0.512911,0.470581,-0.544983,0.467407,0.987425,-0.031742,-0.022464,-35.580791,45.279240,31.734421
1732157965.966385,1732157965.967881,29.000000,0.000000,4295.128418,4128.461426,4312.692383,4304.358887,4302.820313,4309.230957,4336.922852,4400.897461,4310.897461,4313.717773,4466.025879,4507.692383,4325.512695,4411.410156,0.000000,1.000000,22.000000,,,,0.000000,2.000000,2.000000,0.000000,4.000000,2.000000,2.000000,0.000000,0.000000,4.000000,4.000000,4.000000,4.000000,4.000000,4.000000,0.000000,,,,,,,,,,,,,,,,,,,,,,,,,,,,
1732157965.974194,1732157965.975889,30.000000,0.000000,4295.256348,4121.282227,4313.461426,4300.000000,4297.179688,4305.384766,4337.179688,4401.922852,4317.179688,4315.769043,4466.538574,4509.102539,4326.794922,4416.282227,0.000000,1.000000,22.000000,,,,0.000000,2.000000,2.000000,0.000000,4.000000,2.000000,2.000000,0.000000,0.000000,4.000000,4.000000,4.000000,4.000000,4.000000,4.000000,0.000000,,,,,,,,,,,,,,,,,,,,,,,,,,,,
1732157965.982002,1732157965.983697,31.000000,0.000000,4293.846191,4115.128418,4313.974121,4294.230957,4311.794922,4308.589844,4340.384766,4403.974121,4317.692383,4313.461426,4463.461426,4510.000000,4327.051270,4414.102539,0.000000,1.000000,22.000000,,,,0.000000,2.000000,2.000000,0.000000,4.000000,2.000000,2.000000,0.000000,0.000000,4.000000,4.000000,4.000000,4.000000,4.000000,4.000000,0.000000,,,,,,,,,,,,,,,,,,,,,,,,,,,,
1732157965.989810,1732157965.991606,32.000000,0.000000,4294.230957,4113.589844,4314.358887,4294.743652,4326.025879,4309.871582,4341.538574,4401.794922,4310.512695,4309.102539,4460.128418,4506.922852,4326.410156,4410.769043,0.000000,1.000000,22.000000,,,,0.000000,2.000000,2.000000,0.000000,4.000000,2.000000,2.000000,0.000000,0.000000,4.000000,4.000000,4.000000,4.000000,4.000000,4.000000,0.000000,,,,,,,,,,,,,,,,,8.000000,0.000000,0.512911,0.470581,-0.544983,0.467407,0.981077,-0.038091,-0.028812,-35.518772,45.076187,31.774881
1732157965.997618,1732157965.999414,33.000000,0.000000,4295.128418,4115.641113,4313.077148,4296.666504,4305.641113,4309.743652,4337.948730,4398.717773,4315.384766,4314.358887,4467.692383,4506.410156,4330.256348,4411.282227,0.000000,1.000000,22.000000,,,,0.000000,2.000000,2.000000,0.000000,4.000000,2.000000,2.000000,0.000000,0.000000,4.000000,4.000000,4.000000,4.000000,4.000000,4.000000,0.000000,,,,,,,,,,,,,,,,,,,,,,,,,,,,
1732157966.005427,1732157966.007422,34.000000,0.000000,4296.538574,4121.794922,4312.820313,4297.692383,4283.461426,4311.282227,4334.487305,4400.897461,4322.692383,4319.615234,4474.230957,4510.384766,4336.410156,4414.102539,0.000000,1.000000,22.000000,,,,0.000000,2.000000,2.000000,0.000000,4.000000,2.000000,2.000000,0.000000,0.000000,4.000000,4.000000,4.000000,4.000000,4.000000,4.000000,0.000000,,,,,,,,,,,,,,,,,,,,,,,,,,,,
1732157966.013235,1732157966.015230,35.000000,0.000000,4295.512695,4124.358887,4314.615234,4296.282227,4303.589844,4308.333496,4335.769043,4404.871582,4315.000000,4311.538574,4464.487305,4507.563965,4333.974121,4415.128418,0.000000,1.000000,22.000000,,,,0.000000,2.000000,2.000000,0.000000,4.000000,2.000000,2.000000,0.000000,0.000000,4.000000,4.000000,4.000000,4.000000,4.000000,4.000000,0.000000,,,,,,,,,,,,,,,,,,,,,,,,,,,,
1732157966.021043,1732157966.023138,36.000000,0.000000,4291.025879,4120.641113,4314.615234,4297.307617,4314.487305,4306.922852,4336.666504,4403.333496,4307.820313,4305.256348,4455.256348,4504.615234,4326.282227,4412.307617,0.000000,1.000000,22.000000,,,,0.000000,2.000000,2.000000,0.000000,4.000000,2.000000,2.000000,0.000000,0.000000,4.000000,4.000000,4.000000,4.000000,4.000000,4.000000,0.000000,,,,,,,,,,,,,,,,,9.000000,0.000000,0.512800,0.470581,-0.544983,0.467529,0.978147,-0.043462,-0.039556,-35.351871,45.023376,31.849319
1732157966.028851,1732157966.030946,37.000000,0.000000,4291.025879,4127.436035,4313.333496,4300.769043,4293.333496,4310.512695,4336.538574,4399.230957,4311.538574,4309.871582,4460.256348,4506.282227,4326.538574,4412.307617,0.000000,1.000000,22.000000,,,,0.000000,2.000000,2.000000,0.000000,4.000000,2.000000,2.000000,0.000000,0.000000,4.000000,4.000000,4.000000,4.000000,4.000000,4.000000,0.000000,,,,,,,,,,,,,,,,,,,,,,,,,,,,
1732157966.036660,1732157966.038954,38.000000,0.000000,4291.538574,4136.282227,4313.333496,4299.102539,4287.563965,4309.615234,4336.282227,4401.794922,4311.025879,4312.436035,4462.692383,4507.563965,4335.256348,4416.282227,0.000000,1.000000,22.000000,,,,0.000000,2.000000,2.000000,0.000000,4.000000,2.000000,2.000000,0.000000,0.000000,4.000000,4.000000,4.000000,4.000000,4.000000,4.000000,0.000000,,,,,,,,,,,,,,,,,,,,,,,,,,,,
1732157966.044468,1732157966.046763,39.000000,0.000000,4284.615234,4133.077148,4313.461426,4291.538574,4292.820313,4310.384766,4336.282227,4405.641113,4309.487305,4309.102539,4462.948730,4506.922852,4338.589844,4416.538574,0.000000,1.000000,22.000000,,,,0.000000,2.000000,2.000000,0.000000,4.000000,2.000000,2.000000,0.000000,0.000000,4.000000,4.000000,4.000000,4.000000,4.000000,4.000000,0.000000,,,,,,,,,,,,,,,,,,,,,,,,,,,,
1732157966.052276,1732157966.054671,40.000000,0.000000,4281.025879,4129.871582,4315.256348,4286.282227,4298.077148,4307.692383,4336.794922,4405.769043,4315.000000,4310.384766,4467.820313,4507.307617,4335.128418,4414.743652,0.000000,1.000000,22.000000,,,,0.000000,2.000000,2.000000,0.000000,4.000000,2.000000,2.000000,0.000000,0.000000,4.000000,4.000000,4.000000,4.000000,4.000000,4.000000,0.000000,,,,,,,,,,,,,,,,,10.000000,0.000000,0.512931,0.470276,-0.545227,0.467407,0.986937,-0.023440,-0.034184,-35.408352,45.002270,31.737949
1732157966.060084,1732157966.062479,41.000000,0.000000,4285.384766,4136.538574,4314.743652,4288.589844,4306.153809,4299.358887,4336.282227,4405.000000,4322.307617,4315.256348,4468.077148,4509.102539,4336.410156,4415.256348,0.000000,1.000000,22.000000,,,,0.000000,2.000000,2.000000,0.000000,4.000000,2.000000,2.000000,0.000000,0.000000,4.000000,4.000000,4.000000,4.000000,4.000000,4.000000,0.000000,,,,,,,,,,,,,,,,,,,,,,,,,,,,
1732157966.067893,1732157966.070487,42.000000,0.000000,4284.102539,4142.436035,4310.897461,4294.743652,4296.538574,4304.615234,4336.538574,4404.871582,4328.333496,4320.384766,4470.000000,4504.230957,4342.436035,4415.000000,0.000000,1.000000,22.000000,,,,0.000000,2.000000,2.000000,0.000000,4.000000,2.000000,2.000000,0.000000,0.000000,4.000000,4.000000,4.000000,4.000000,4.000000,4.000000,0.000000,,,,,,,,,,,,,,,,,,,,,,,,,,,,
1732157966.075701,1732157966.078295,43.000000,0.000000,4279.743652,4139.743652,4310.256348,4293.846191,4274.102539,4311.922852,4338.205078,4403.461426,4324.615234,4320.000000,4472.692383,4495.256348,4342.563965,4412.820313,0.000000,1.000000,22.000000,,,,0.000000,2.000000,2.000000,0.000000,4.000000,2.000000,2.000000,0.000000,0.000000,4.000000,4.000000,4.000000,4.000000,4.000000,4.000000,0.000000,,,,,,,,,,,,,,,,,,,,,,,,,,,,
1732157966.083509,1732157966.086203,44.000000,0.000000,4282.051270,4142.948730,4313.589844,4289.230957,4275.897461,4304.102539,4340.384766,4403.589844,4313.717773,4314.358887,4465.256348,4495.641113,4337.948730,4412.179688,0.000000,1.000000,22.000000,,,,0.000000,2.000000,2.000000,0.000000,4.000000,2.000000,2.000000,0.000000,0.000000,4.000000,4.000000,4.000000,4.000000,4.000000,4.000000,0.000000,,,,,,,,,,,,,,,,,11.000000,0.000000,0.512782,0.470459,-0.545105,0.467529,0.989379,-0.020022,-0.039556,-35.284096,44.901836,31.686071
1732157966.091317,1732157966.094011,45.000000,0.000000,4282.436035,4150.128418,4314.102539,4290.384766,4295.256348,4304.871582,4342.436035,4406.025879,4312.820313,4310.128418,4458.461426,4502.820313,4333.333496,4412.692383,0.000000,1.000000,22.000000,,,,0.000000,2.000000,2.000000,0.000000,4.000000,2.000000,2.000000,0.000000,0.000000,4.000000,4.000000,4.000000,4.000000,4.000000,4.000000,0.000000,,,,,,,,,,,,,,,,,,,,,,,,,,,,
1732157966.099126,1732157966.101919,46.000000,0.000000,4279.615234,4150.897461,4313.205078,4291.025879,4294.358887,4313.589844,4343.461426,4403.717773,4319.230957,4309.615234,4459.743652,4503.974121,4331.410156,4412.436035,0.000000,1.000000,22.000000,,,,0.000000,2.000000,2.000000,0.000000,4.000000,2.000000,2.000000,0.000000,0.000000,4.000000,4.000000,4.000000,4.000000,4.000000,4.000000,0.000000,,,,,,,,,,,,,,,,,,,,,,,,,,,,
1732157966.106934,1732157966.109728,47.000000,0.000000,4281.025879,4155.000000,4312.563965,4290.512695,4280.897461,4304.358887,4340.641113,4402.692383,4319.358887,4315.641113,4460.897461,4499.230957,4337.436035,4413.205078,0.000000,1.000000,22.000000,,,,0.000000,2.000000,2.000000,0.000000,4.000000,2.000000,2.000000,0.000000,0.000000,4.000000,4.000000,4.000000,4.000000,4.000000,4.000000,0.000000,,,,,,,,,,,,,,,,,,,,,,,,,,,,
1732157966.114742,1732157966.117636,48.000000,0.000000,4282.820313,4166.794922,4311.410156,4292.563965,4289.871582,4295.256348,4335.769043,4405.897461,4315.384766,4317.820313,4461.282227,4498.974121,4344.487305,4412.563965,0.000000,1.000000,22.000000,,,,0.000000,2.000000,2.000000,0.000000,4.000000,2.000000,2.000000,0.000000,0.000000,4.000000,4.000000,4.000000,4.000000,4.000000,4.000000,0.000000,,,,,,,,,,,,,,,,,12.000000,0.000000,0.512605,0.470520,-0.545166,0.467590,0.979612,-0.012697,-0.042486,-35.293453,44.730488,31.587385
1732157966.122550,1732157966.125444,49.000000,0.000000,4282.179688,4170.769043,4312.307617,4293.974121,4308.205078,4297.179688,4336.282227,4403.077148,4312.307617,4313.974121,4463.846191,4497.179688,4342.692383,4411.794922,0.000000,1.000000,22.000000,,,,0.000000,2.000000,2.000000,0.000000,4.000000,2.000000,2.000000,0.000000,0.000000,4.000000,4.000000,4.000000,4.000000,4.000000,4.000000,0.000000,,,,,,,,,,,,,,,,,,,,,,,,,,,,
1732157966.130359,1732157966.133052,50.000000,0.000000,4281.153809,4165.897461,4312.563965,4291.794922,4294.102539,4296.666504,4340.384766,4400.000000,4311.922852,4315.641113,4464.743652,4497.563965,4341.153809,4413.589844,0.000000,1.000000,22.000000,,,,0.000000,2.000000,2.000000,0.000000,4.000000,2.000000,2.000000,0.000000,0.000000,4.000000,4.000000,4.000000,4.000000,4.000000,4.000000,0.000000,,,,,,,,,,,,,,,,,,,,,,,,,,,,
1732157966.138167,1732157966.140861,51.000000,0.000000,4281.410156,4172.948730,4311.025879,4289.743652,4269.743652,4299.230957,4341.666504,4403.077148,4313.461426,4318.205078,4464.102539,4498.846191,4341.794922,4415.512695,0.000000,1.000000,22.000000,,,,0.000000,2.000000,2.000000,0.000000,4.000000,2.000000,2.000000,0.000000,0.000000,4.000000,4.000000,4.000000,4.000000,4.000000,4.000000,0.000000,,,,,,,,,,,,,,,,,,,,,,,,,,,,
1732157966.145975,1732157966.148569,52.000000,0.000000,4281.922852,4184.358887,4313.077148,4293.077148,4277.692383,4303.333496,4338.461426,4403.717773,4310.128418,4312.692383,4461.794922,4498.333496,4338.077148,4414.615234,0.000000,1.000000,22.000000,,,,0.000000,2.000000,2.000000,0.000000,4.000000,2.000000,2.000000,0.000000,0.000000,4.000000,4.000000,4.000000,4.000000,4.000000,4.000000,0.000000,,,,,,,,,,,,,,,,,13.000000,0.000000,0.511993,0.470520,-0.545532,0.467834,0.979123,-0.020510,-0.036137,-35.484364,44.741695,31.827448
1732157966.153783,1732157966.156377,53.000000,0.000000,4282.307617,4187.948730,4315.384766,4297.692383,4282.948730,4299.230957,4335.256348,4401.794922,4305.897461,4308.717773,4460.512695,4498.846191,4334.743652,4413.717773,0.000000,1.000000,22.000000,,,,0.000000,2.000000,2.000000,0.000000,4.000000,2.000000,2.000000,0.000000,0.000000,4.000000,4.000000,4.000000,4.000000,4.000000,4.000000,0.000000,,,,,,,,,,,,,,,,,,,,,,,,,,,,
1732157966.161592,1732157966.163986,54.000000,0.000000,4281.666504,4193.846191,4313.077148,4298.333496,4276.410156,4295.512695,4335.128418,4403.974121,4308.974121,4311.153809,4460.128418,4495.769043,4335.897461,4412.692383,0.000000,1.000000,22.000000,,,,0.000000,2.000000,2.000000,0.000000,4.000000,2.000000,2.000000,0.000000,0.000000,4.000000,4.000000,4.000000,4.000000,4.000000,4.000000,0.000000,,,,,,,,,,,,,,,,,,,,,,,,,,,,
1732157966.169400,1732157966.171794,55.000000,0.000000,4279.487305,4200.769043,4312.820313,4294.743652,4292.051270,4296.538574,4335.641113,4404.615234,4314.487305,4310.641113,4456.538574,4490.641113,4334.743652,4410.000000,0.000000,1.000000,22.000000,,,,0.000000,2.000000,2.000000,0.000000,4.000000,2.000000,2.000000,0.000000,0.000000,4.000000,4.000000,4.000000,4.000000,4.000000,4.000000,0.000000,,,,,,,,,,,,,,,,,,,,,,,,,,,,
1732157966.177208,1732157966.179502,56.000000,0.000000,4279.743652,4200.897461,4315.128418,4295.512695,4298.846191,4296.794922,4338.077148,4403.974121,4311.410156,4307.051270,4454.871582,4492.820313,4333.846191,4408.717773,0.000000,1.000000,22.000000,,,,0.000000,2.000000,2.000000,0.000000,4.000000,2.000000,2.000000,0.000000,0.000000,4.000000,4.000000,4.000000,4.000000,4.000000,4.000000,0.000000,,,,,,,,,,,,,,,,,14.000000,0.000000,0.511751,0.470581,-0.545654,0.467896,0.984007,-0.027835,-0.044927,-35.537334,44.767441,31.931900
1732157966.185016,1732157966.187310,57.000000,0.000000,4283.205078,4200.897461,4313.205078,4298.846191,4276.153809,4297.436035,4341.025879,4403.077148,4302.307617,4305.256348,4458.589844,4496.794922,4336.410156,4412.436035,0.000000,1.000000,22.000000,,,,0.000000,2.000000,2.000000,0.000000,4.000000,2.000000,2.000000,0.000000,0.000000,4.000000,4.000000,4.000000,4.000000,4.000000,4.000000,0.000000,,,,,,,,,,,,,,,,,,,,,,,,,,,,
1732157966.192824,1732157966.194919,58.000000,0.000000,4283.077148,4207.820313,4311.666504,4298.717773,4270.256348,4298.461426,4340.512695,4400.641113,4296.153809,4303.717773,4460.641113,4493.846191,4337.179688,4412.948730,0.000000,1.000000,22.000000,,,,0.000000,2.000000,2.000000,0.000000,4.000000,2.000000,2.000000,0.000000,0.000000,4.000000,4.000000,4.000000,4.000000,4.000000,4.000000,0.000000,,,,,,,,,,,,,,,,,,,,,,,,,,,,
1732157966.200633,1732157966.202727,59.000000,0.000000,4282.179688,4213.461426,4313.205078,4296.666504,4285.512695,4297.179688,4339.358887,4403.205078,4296.538574,4304.102539,4459.230957,4496.794922,4334.615234,4411.410156,0.000000,1.000000,22.000000,,,,0.000000,2.000000,2.000000,0.000000,4.000000,2.000000,2.000000,0.000000,0.000000,4.000000,4.000000,4.000000,4.000000,4.000000,4.000000,0.000000,,,,,,,,,,,,,,,,,,,,,,,,,,,,
1732157966.208441,1732157966.210435,60.000000,0.000000,4284.487305,4214.871582,4312.563965,4297.051270,4281.538574,4295.641113,4342.563965,4405.384766,4299.871582,4303.974121,4459.615234,4502.563965,4334.487305,4414.102539,0.000000,1.000000,22.000000,,,,0.000000,2.000000,2.000000,0.000000,4.000000,2.000000,2.000000,0.000000,0.000000,4.000000,4.000000,4.000000,4.000000,4.000000,4.000000,0.000000,,,,,,,,,,,,,,,,,15.000000,0.000000,0.511527,0.470581,-0.545654,0.468140,0.980100,-0.031254,-0.038579,-35.371906,44.653294,31.659840
1732157966.216249,1732157966.218243,61.000000,0.000000,4283.205078,4213.333496,4311.666504,4297.563965,4278.205078,4296.153809,4342.307617,4402.179688,4302.051270,4301.282227,4457.436035,4496.025879,4333.589844,4410.641113,0.000000,1.000000,22.000000,,,,0.000000,2.000000,2.000000,0.000000,4.000000,2.000000,2.000000,0.000000,0.000000,4.000000,4.000000,4.000000,4.000000,4.000000,4.000000,0.000000,,,,,,,,,,,,,,,,,,,,,,,,,,,,
1732157966.224058,1732157966.225852,62.000000,0.000000,4279.487305,4211.922852,4313.461426,4295.000000,4297.820313,4294.230957,4335.897461,4404.230957,4303.333496,4300.512695,4452.307617,4489.487305,4329.743652,4401.025879,0.000000,1.000000,22.000000,,,,0.000000,2.000000,2.000000,0.000000,4.000000,2.000000,2.000000,0.000000,0.000000,4.000000,4.000000,4.000000,4.000000,4.000000,4.000000,0.000000,,,,,,,,,,,,,,,,,,,,,,,,,,,,
1732157966.231866,1732157966.233660,63.000000,0.000000,4281.538574,4213.974121,4314.487305,4294.230957,4292.051270,4291.153809,4334.615234,4405.769043,4303.205078,4305.641113,4455.384766,4496.282227,4331.922852,4406.794922,0.000000,1.000000,22.000000,,,,0.000000,2.000000,2.000000,0.000000,4.000000,2.000000,2.000000,0.000000,0.000000,4.000000,4.000000,4.000000,4.000000,4.000000,4.000000,0.000000,,,,,,,,,,,,,,,,,,,,,,,,,,,,
1732157966.239674,1732157966.241568,64.000000,0.000000,4285.769043,4215.897461,4311.410156,4295.384766,4264.102539,4291.410156,4337.307617,4401.794922,4305.128418,4310.512695,4462.948730,4508.205078,4340.256348,4419.743652,0.000000,1.000000,22.000000,,,,0.000000,2.000000,2.000000,0.000000,4.000000,2.000000,2.000000,0.000000,0.000000,4.000000,4.000000,4.000000,4.000000,4.000000,4.000000,0.000000,,,,,,,,,,,,,,,,,16.000000,0.000000,0.511192,0.470520,-0.545654,0.468567,0.983518,-0.036137,-0.043462,-35.406246,44.840836,31.774469
1732157966.247482,1732157966.249376,65.000000,0.000000,4285.128418,4217.179688,4311.282227,4295.128418,4262.948730,4289.230957,4336.538574,4404.487305,4303.846191,4309.615234,4461.666504,4508.077148,4341.025879,4416.922852,1599.000000,1.000000,22.000000,,,,0.000000,2.000000,2.000000,0.000000,4.000000,2.000000,2.000000,0.000000,0.000000,4.000000,4.000000,4.000000,4.000000,4.000000,4.000000,0.000000,,,,,,,,,,,,,,,,,,,,,,,,,,,,
1732157966.255291,1732157966.256985,66.000000,0.000000,4281.410156,4218.077148,4314.743652,4294.615234,4278.077148,4288.205078,4334.743652,4408.589844,4298.077148,4308.974121,4458.589844,4504.102539,4337.179688,4412.692383,1361.000000,1.000000,22.000000,,,,0.000000,2.000000,2.000000,0.000000,4.000000,2.000000,2.000000,0.000000,0.000000,4.000000,4.000000,4.000000,4.000000,4.000000,4.000000,0.000000,,,,,,,,,,,,,,,,,,,,,,,,,,,,
1732157966.263099,1732157966.264793,67.000000,0.000000,4281.538574,4218.589844,4315.128418,4296.794922,4280.384766,4292.307617,4335.384766,4405.128418,4298.077148,4310.256348,4460.512695,4507.307617,4336.025879,4416.282227,1439.000000,1.000000,22.000000,,,,0.000000,2.000000,2.000000,0.000000,4.000000,2.000000,2.000000,0.000000,0.000000,4.000000,4.000000,4.000000,4.000000,4.000000,4.000000,0.000000,,,,,,,,,,,,,,,,,,,,,,,,,,,,
1732157966.270907,1732157966.272701,68.000000,0.000000,4278.333496,4217.051270,4312.820313,4294.871582,4277.436035,4293.077148,4335.769043,4401.410156,4297.692383,4304.743652,4458.205078,4504.358887,4335.000000,4407.563965,1422.000000,1.000000,22.000000,,,,0.000000,2.000000,2.000000,0.000000,4.000000,2.000000,2.000000,0.000000,0.000000,4.000000,4.000000,4.000000,4.000000,4.000000,4.000000,0.000000,,,,,,,,,,,,,,,,,17.000000,0.000000,0.511130,0.469727,-0.546448,0.468506,0.969357,-0.028324,-0.044439,-35.317390,44.942741,32.017319
1732157966.278715,1732157966.280509,69.000000,0.000000,4268.846191,4217.948730,4311.153809,4285.256348,4274.102539,4287.692383,4335.384766,4400.897461,4293.077148,4301.794922,4454.358887,4491.538574,4335.512695,4399.487305,1207.000000,1.000000,22.000000,,,,0.000000,2.000000,2.000000,0.000000,4.000000,2.000000,2.000000,0.000000,0.000000,4.000000,4.000000,4.000000,4.000000,4.000000,4.000000,0.000000,,,,,,,,,,,,,,,,,,,,,,,,,,,,
1732157966.286523,1732157966.288118,70.000000,0.000000,4268.589844,4219.743652,4310.769043,4280.000000,4282.051270,4288.974121,4335.512695,4403.974121,4292.563965,4306.922852,4456.538574,4488.077148,4337.179688,4405.384766,0.000000,1.000000,22.000000,,,,0.000000,2.000000,2.000000,0.000000,4.000000,2.000000,2.000000,0.000000,0.000000,4.000000,4.000000,4.000000,4.000000,4.000000,4.000000,0.000000,,,,,,,,,,,,,,,,,,,,,,,,,,,,
1732157966.294332,1732157966.295926,71.000000,0.000000,4276.922852,4217.948730,4310.897461,4286.666504,4295.641113,4293.461426,4335.512695,4406.538574,4296.922852,4308.589844,4459.230957,4492.051270,4333.717773,4407.948730,0.000000,1.000000,22.000000,,,,0.000000,2.000000,2.000000,0.000000,4.000000,2.000000,2.000000,0.000000,0.000000,4.000000,4.000000,4.000000,4.000000,4.000000,4.000000,0.000000,,,,,,,,,,,,,,,,,,,,,,,,,,,,
1732157966.302140,1732157966.303634,72.000000,0.000000,4277.563965,4222.563965,4313.205078,4294.743652,4283.461426,4293.205078,4335.384766,4405.128418,4295.641113,4305.641113,4458.589844,4491.025879,4332.692383,4405.128418,1533.000000,1.000000,22.000000,,,,0.000000,2.000000,2.000000,0.000000,4.000000,2.000000,2.000000,0.000000,0.000000,4.000000,4.000000,4.000000,4.000000,4.000000,4.000000,0.000000,,,,,,,,,,,,,,,,,18.000000,0.000000,0.511233,0.469604,-0.546509,0.468445,0.984007,-0.037602,-0.043951,-35.275421,44.930286,31.989029
1732157966.309948,1732157966.311442,73.000000,0.000000,4275.512695,4232.563965,4314.615234,4296.666504,4269.230957,4293.589844,4335.128418,4403.974121,4292.436035,4307.563965,4458.205078,4491.410156,4341.025879,4409.871582,1683.000000,1.000000,22.000000,,,,0.000000,2.000000,2.000000,0.000000,4.000000,2.000000,2.000000,0.000000,0.000000,4.000000,4.000000,4.000000,4.000000,4.000000,4.000000,0.000000,,,,,,,,,,,,,,,,,,,,,,,,,,,,
1732157966.317757,1732157966.319450,74.000000,0.000000,4279.743652,4235.256348,4313.717773,4295.897461,4274.743652,4297.051270,4335.769043,4406.666504,4296.666504,4313.333496,4459.358887,4492.948730,4345.000000,4415.512695,1549.000000,1.000000,22.000000,,,,0.000000,2.000000,2.000000,0.000000,4.000000,2.000000,2.000000,0.000000,0.000000,4.000000,4.000000,4.000000,4.000000,4.000000,4.000000,0.000000,,,,,,,,,,,,,,,,,,,,,,,,,,,,
1732157966.325565,1732157966.327259,75.000000,0.000000,4280.256348,4232.051270,4311.410156,4294.871582,4284.102539,4295.256348,4335.384766,4406.794922,4298.077148,4310.256348,4459.487305,4491.794922,4341.794922,4413.461426,1569.000000,1.000000,22.000000,,,,0.000000,2.000000,2.000000,0.000000,4.000000,2.000000,2.000000,0.000000,0.000000,4.000000,4.000000,4.000000,4.000000,4.000000,4.000000,0.000000,,,,,,,,,,,,,,,,,,,,,,,,,,,,
1732157966.333373,1732157966.335167,76.000000,0.000000,4278.589844,4232.820313,4311.666504,4294.230957,4287.436035,4287.051270,4334.871582,4405.384766,4293.717773,4302.307617,4459.358887,4499.230957,4342.436035,4413.974121,1701.000000,1.000000,22.000000,,,,0.000000,2.000000,2.000000,0.000000,4.000000,2.000000,2.000000,0.000000,0.000000,4.000000,4.000000,4.000000,4.000000,4.000000,4.000000,0.000000,,,,,,,,,,,,,,,,,19.000000,0.000000,0.511326,0.469482,-0.546631,0.468323,0.974728,-0.025394,-0.036626,-35.191425,45.228535,31.927780
1732157966.341181,1732157966.342975,77.000000,0.000000,4281.025879,4233.461426,4313.461426,4294.871582,4276.538574,4288.717773,4337.307617,4405.769043,4294.358887,4303.717773,4459.230957,4503.846191,4345.897461,4418.717773,1603.000000,1.000000,22.000000,,,,0.000000,2.000000,2.000000,0.000000,4.000000,2.000000,2.000000,0.000000,0.000000,4.000000,4.000000,4.000000,4.000000,4.000000,4.000000,0.000000,,,,,,,,,,,,,,,,,,,,,,,,,,,,
1732157966.348990,1732157966.350983,78.000000,0.000000,4279.358887,4232.692383,4311.410156,4293.077148,4260.769043,4298.846191,4341.025879,4404.487305,4298.461426,4310.256348,4459.102539,4495.384766,4345.897461,4415.897461,1549.000000,1.000000,22.000000,,,,0.000000,2.000000,2.000000,0.000000,4.000000,2.000000,2.000000,0.000000,0.000000,4.000000,4.000000,4.000000,4.000000,4.000000,4.000000,0.000000,1.000000,0.000000,2.000000,1.000000,0.000000,4.000000,2.000000,2.000000,0.000000,0.000000,4.000000,4.000000,4.000000,4.000000,4.000000,4.000000,,,,,,,,,,,,
1732157966.356798,1732157966.358791,79.000000,0.000000,4275.128418,4233.077148,4309.102539,4292.820313,4265.384766,4296.410156,4340.769043,4405.000000,4296.922852,4309.487305,4459.487305,4487.692383,4344.230957,4412.051270,1569.000000,1.000000,22.000000,,,,0.000000,2.000000,2.000000,0.000000,4.000000,2.000000,2.000000,0.000000,0.000000,4.000000,4.000000,4.000000,4.000000,4.000000,4.000000,0.000000,,,,,,,,,,,,,,,,,,,,,,,,,,,,
1732157966.364606,1732157966.366699,80.000000,0.000000,4277.307617,4235.000000,4312.307617,4296.666504,4274.615234,4285.769043,4338.974121,4406.794922,4293.333496,4301.922852,4458.589844,4490.512695,4345.897461,4419.487305,1701.000000,1.000000,22.000000,,,,0.000000,2.000000,2.000000,0.000000,4.000000,2.000000,2.000000,0.000000,0.000000,4.000000,4.000000,4.000000,4.000000,4.000000,4.000000,0.000000,,,,,,,,,,,,,,,,,20.000000,0.000000,0.511186,0.469604,-0.546448,0.468567,0.979123,-0.036137,-0.038579,-35.316719,45.105110,31.684835
1732157966.372414,1732157966.374507,81.000000,0.000000,4281.410156,4242.948730,4315.000000,4297.692383,4277.436035,4282.563965,4339.743652,4402.051270,4292.820313,4300.256348,4456.410156,4491.538574,4345.384766,4424.871582,1603.000000,1.000000,22.000000,,,,0.000000,2.000000,2.000000,0.000000,4.000000,2.000000,2.000000,0.000000,0.000000,4.000000,4.000000,4.000000,4.000000,4.000000,4.000000,0.000000,,,,,,,,,,,,,,,,,,,,,,,,,,,,
