title:4five, start timestamp:1732158049.671091, stop timestamp:1732158087.744117, headset type:EPOCX, headset serial:E5020C3A, headset firmware:730, channels:67, sampling rate:eeg_128;mot_32, samples:4877      , version:2.2, 
Timestamp,OriginalTimestamp,EEG.Counter,EEG.Interpolated,EEG.AF3,EEG.F7,EEG.F3,EEG.FC5,EEG.T7,EEG.P7,EEG.O1,EEG.O2,EEG.P8,EEG.T8,EEG.FC6,EEG.F4,EEG.F8,EEG.AF4,EEG.RawCq,EEG.Battery,EEG.BatteryPercent,MarkerIndex,MarkerType,MarkerValueInt,EEG.MarkerHardware,CQ.AF3,CQ.F7,CQ.F3,CQ.FC5,CQ.T7,CQ.P7,CQ.O1,CQ.O2,CQ.P8,CQ.T8,CQ.FC6,CQ.F4,CQ.F8,CQ.AF4,CQ.Overall,EQ.SampleRateQuality,EQ.OVERALL,EQ.AF3,EQ.F7,EQ.F3,EQ.FC5,EQ.T7,EQ.P7,EQ.O1,EQ.O2,EQ.P8,EQ.T8,EQ.FC6,EQ.F4,EQ.F8,EQ.AF4,MOT.CounterMems,MOT.InterpolatedMems,MOT.Q0,MOT.Q1,MOT.Q2,MOT.Q3,MOT.AccX,MOT.AccY,MOT.AccZ,MOT.MagX,MOT.MagY,MOT.MagZ
1732158049.671091,1732158049.673774,125.000000,0.000000,4296.025879,4263.333496,4310.512695,4277.563965,4264.487305,4280.641113,4337.179688,4402.179688,4295.128418,4297.563965,4495.769043,4516.922852,4370.512695,4431.025879,1603.000000,1.000000,22.000000,,,,0.000000,2.000000,2.000000,0.000000,4.000000,2.000000,2.000000,0.000000,0.000000,4.000000,4.000000,4.000000,4.000000,4.000000,4.000000,0.000000,,,,,,,,,,,,,,,,,,,,,,,,,,,,
1732158049.678899,1732158049.681782,126.000000,0.000000,4287.051270,4260.128418,4310.641113,4275.641113,4264.743652,4278.717773,4336.794922,4398.589844,4293.974121,4298.333496,4492.948730,4513.589844,4366.538574,4426.794922,1553.000000,1.000000,22.000000,,,,0.000000,2.000000,2.000000,0.000000,4.000000,2.000000,2.000000,0.000000,0.000000,4.000000,4.000000,4.000000,4.000000,4.000000,4.000000,0.000000,,,,,,,,,,,,,,,,,,,,,,,,,,,,
1732158049.686708,1732158049.689590,127.000000,0.000000,4283.974121,4259.743652,4310.000000,4276.538574,4265.512695,4280.000000,4337.820313,4399.102539,4294.615234,4299.871582,4488.333496,4511.666504,4358.205078,4420.128418,22.000000,1.000000,22.000000,,,,0.000000,2.000000,2.000000,0.000000,4.000000,2.000000,2.000000,0.000000,0.000000,4.000000,4.000000,4.000000,4.000000,4.000000,4.000000,0.000000,,,,,,,,,,,,,,,,,,,,,,,,,,,,
1732158049.694516,1732158049.697299,0.000000,0.000000,4287.692383,4263.077148,4310.256348,4279.102539,4265.384766,4280.512695,4336.282227,4402.563965,4295.512695,4297.436035,4489.487305,4513.333496,4360.000000,4420.512695,0.000000,1.000000,22.000000,,,,0.000000,2.000000,2.000000,0.000000,4.000000,2.000000,2.000000,0.000000,0.000000,4.000000,4.000000,4.000000,4.000000,4.000000,4.000000,0.000000,,,,,,,,,,,,,,,,,0.000000,0.000000,0.519977,0.494263,-0.519165,0.464539,0.975217,0.053229,-0.018557,-34.364632,45.472210,31.401758
1732158049.702324,1732158049.705107,1.000000,0.000000,4288.589844,4263.077148,4308.974121,4276.922852,4263.333496,4278.974121,4334.358887,4400.000000,4296.794922,4296.282227,4490.128418,4509.615234,4362.563965,4421.410156,1604.000000,1.000000,22.000000,,,,0.000000,2.000000,2.000000,0.000000,4.000000,2.000000,2.000000,0.000000,0.000000,4.000000,4.000000,4.000000,4.000000,4.000000,4.000000,0.000000,,,,,,,,,,,,,,,,,,,,,,,,,,,,
1732158049.710132,1732158049.712715,2.000000,0.000000,4286.666504,4260.769043,4309.871582,4275.384766,4264.743652,4279.102539,4334.487305,4398.461426,4297.179688,4298.205078,4487.948730,4505.256348,4359.230957,4416.794922,1364.000000,1.000000,22.000000,,,,0.000000,2.000000,2.000000,0.000000,4.000000,2.000000,2.000000,0.000000,0.000000,4.000000,4.000000,4.000000,4.000000,4.000000,4.000000,0.000000,,,,,,,,,,,,,,,,,,,,,,,,,,,,
1732158049.717940,1732158049.720523,3.000000,0.000000,4286.794922,4261.282227,4311.666504,4278.846191,4266.794922,4280.256348,4334.743652,4403.077148,4296.153809,4298.589844,4488.846191,4504.615234,4361.666504,4413.589844,1416.000000,1.000000,22.000000,,,,0.000000,2.000000,2.000000,0.000000,4.000000,2.000000,2.000000,0.000000,0.000000,4.000000,4.000000,4.000000,4.000000,4.000000,4.000000,0.000000,,,,,,,,,,,,,,,,,,,,,,,,,,,,
1732158049.725749,1732158049.728232,4.000000,0.000000,4284.230957,4262.051270,4310.897461,4277.051270,4264.871582,4280.384766,4334.743652,4402.948730,4293.717773,4296.538574,4490.000000,4503.077148,4366.922852,4412.948730,1429.000000,1.000000,22.000000,,,,0.000000,2.000000,2.000000,0.000000,4.000000,2.000000,2.000000,0.000000,0.000000,4.000000,4.000000,4.000000,4.000000,4.000000,4.000000,0.000000,,,,,,,,,,,,,,,,,1.000000,0.000000,0.520323,0.494263,-0.518982,0.464355,0.975217,0.053229,-0.018557,-34.322018,45.502491,31.272091
1732158049.733557,1732158049.736040,5.000000,0.000000,4280.897461,4262.179688,4309.102539,4275.897461,4265.384766,4281.410156,4334.615234,4397.948730,4291.538574,4295.897461,4487.948730,4501.922852,4366.153809,4412.820313,1214.000000,1.000000,22.000000,,,,0.000000,2.000000,2.000000,0.000000,4.000000,2.000000,2.000000,0.000000,0.000000,4.000000,4.000000,4.000000,4.000000,4.000000,4.000000,0.000000,,,,,,,,,,,,,,,,,,,,,,,,,,,,
1732158049.741365,1732158049.743648,6.000000,0.000000,4281.666504,4262.436035,4308.974121,4279.230957,4267.051270,4282.307617,4335.000000,4398.589844,4295.000000,4295.769043,4486.153809,4498.846191,4364.487305,4412.051270,0.000000,1.000000,22.000000,,,,0.000000,2.000000,2.000000,0.000000,4.000000,2.000000,2.000000,0.000000,0.000000,4.000000,4.000000,4.000000,4.000000,4.000000,4.000000,0.000000,,,,,,,,,,,,,,,,,,,,,,,,,,,,
1732158049.749174,1732158049.751457,7.000000,0.000000,4281.025879,4262.436035,4309.102539,4279.871582,4262.563965,4282.692383,4335.000000,4399.615234,4293.077148,4294.487305,4487.820313,4499.102539,4365.769043,4412.051270,0.000000,1.000000,22.000000,,,,0.000000,2.000000,2.000000,0.000000,4.000000,2.000000,2.000000,0.000000,0.000000,4.000000,4.000000,4.000000,4.000000,4.000000,4.000000,0.000000,,,,,,,,,,,,,,,,,,,,,,,,,,,,
1732158049.756982,1732158049.759165,8.000000,0.000000,4280.512695,4264.358887,4306.666504,4278.077148,4272.563965,4281.794922,4334.615234,4397.820313,4284.102539,4293.846191,4488.589844,4505.897461,4365.641113,4415.641113,1541.000000,1.000000,22.000000,,,,0.000000,2.000000,2.000000,0.000000,4.000000,2.000000,2.000000,0.000000,0.000000,4.000000,4.000000,4.000000,4.000000,4.000000,4.000000,0.000000,,,,,,,,,,,,,,,,,2.000000,0.000000,0.520675,0.494385,-0.518677,0.464172,0.975705,0.068368,-0.018069,-34.320835,45.510349,31.317060
1732158049.764790,1732158049.766973,9.000000,0.000000,4281.922852,4264.871582,4306.794922,4278.205078,4288.846191,4279.487305,4335.000000,4397.692383,4287.307617,4295.641113,4487.436035,4508.077148,4365.256348,4417.692383,1695.000000,1.000000,22.000000,,,,0.000000,2.000000,2.000000,0.000000,4.000000,2.000000,2.000000,0.000000,0.000000,4.000000,4.000000,4.000000,4.000000,4.000000,4.000000,0.000000,,,,,,,,,,,,,,,,,,,,,,,,,,,,
1732158049.772598,1732158049.774581,10.000000,0.000000,4282.179688,4262.692383,4307.436035,4279.487305,4277.051270,4283.589844,4336.282227,4398.846191,4296.794922,4298.077148,4488.717773,4505.384766,4365.897461,4415.897461,1548.000000,1.000000,22.000000,,,,0.000000,2.000000,2.000000,0.000000,4.000000,2.000000,2.000000,0.000000,0.000000,4.000000,4.000000,4.000000,4.000000,4.000000,4.000000,0.000000,,,,,,,,,,,,,,,,,,,,,,,,,,,,
1732158049.780407,1732158049.782390,11.000000,0.000000,4281.153809,4262.563965,4308.717773,4279.743652,4255.384766,4286.794922,4335.641113,4397.692383,4293.974121,4296.410156,4487.307617,4500.641113,4364.615234,4414.230957,1561.000000,1.000000,22.000000,,,,0.000000,2.000000,2.000000,0.000000,4.000000,2.000000,2.000000,0.000000,0.000000,4.000000,4.000000,4.000000,4.000000,4.000000,4.000000,0.000000,,,,,,,,,,,,,,,,,,,,,,,,,,,,
1732158049.788215,1732158049.790098,12.000000,0.000000,4278.077148,4265.897461,4306.153809,4280.641113,4265.256348,4287.563965,4335.769043,4396.794922,4294.615234,4294.230957,4481.025879,4493.461426,4359.871582,4412.948730,1706.000000,1.000000,22.000000,,,,0.000000,2.000000,2.000000,0.000000,4.000000,2.000000,2.000000,0.000000,0.000000,4.000000,4.000000,4.000000,4.000000,4.000000,4.000000,0.000000,,,,,,,,,,,,,,,,,3.000000,0.000000,0.521433,0.496338,-0.517029,0.463074,0.972287,0.071786,-0.039556,-34.563210,45.715050,31.425152
1732158049.796023,1732158049.797906,13.000000,0.000000,4275.512695,4265.128418,4300.128418,4281.666504,4279.871582,4292.692383,4334.871582,4398.717773,4302.051270,4295.641113,4476.794922,4487.563965,4357.051270,4410.897461,1603.000000,1.000000,22.000000,,,,0.000000,2.000000,2.000000,0.000000,4.000000,2.000000,2.000000,0.000000,0.000000,4.000000,4.000000,4.000000,4.000000,4.000000,4.000000,0.000000,,,,,,,,,,,,,,,,,,,,,,,,,,,,
1732158049.803831,1732158049.805515,14.000000,0.000000,4277.436035,4265.512695,4295.256348,4281.666504,4272.307617,4290.769043,4330.384766,4396.794922,4297.307617,4292.820313,4476.922852,4483.717773,4359.743652,4411.025879,1548.000000,1.000000,22.000000,,,,0.000000,2.000000,2.000000,0.000000,4.000000,2.000000,2.000000,0.000000,0.000000,4.000000,4.000000,4.000000,4.000000,4.000000,4.000000,0.000000,1.000000,0.000000,2.000000,2.000000,0.000000,4.000000,2.000000,2.000000,0.000000,0.000000,4.000000,4.000000,4.000000,4.000000,3.000000,4.000000,,,,,,,,,,,,
1732158049.811639,1732158049.813323,15.000000,0.000000,4280.512695,4273.974121,4294.487305,4281.666504,4270.000000,4281.922852,4327.563965,4392.179688,4291.025879,4289.230957,4480.769043,4481.922852,4359.230957,4412.307617,1561.000000,1.000000,22.000000,,,,0.000000,2.000000,2.000000,0.000000,4.000000,2.000000,2.000000,0.000000,0.000000,4.000000,4.000000,4.000000,4.000000,4.000000,4.000000,0.000000,,,,,,,,,,,,,,,,,,,,,,,,,,,,
1732158049.819448,1732158049.821031,16.000000,0.000000,4280.256348,4278.461426,4294.102539,4287.820313,4278.974121,4281.794922,4326.282227,4392.436035,4294.743652,4292.563965,4486.794922,4485.897461,4357.307617,4411.922852,0.000000,1.000000,22.000000,,,,0.000000,2.000000,2.000000,0.000000,4.000000,2.000000,2.000000,0.000000,0.000000,4.000000,4.000000,4.000000,4.000000,4.000000,4.000000,0.000000,,,,,,,,,,,,,,,,,4.000000,0.000000,0.519837,0.498352,-0.516479,0.463318,0.951776,0.030277,-0.040532,-34.872868,45.862526,31.241039
1732158049.827256,1732158049.828839,17.000000,0.000000,4281.153809,4276.410156,4288.974121,4292.051270,4280.256348,4283.974121,4324.615234,4395.512695,4295.641113,4294.230957,4489.358887,4490.769043,4362.051270,4413.205078,0.000000,1.000000,22.000000,,,,0.000000,2.000000,2.000000,0.000000,4.000000,2.000000,2.000000,0.000000,0.000000,4.000000,4.000000,4.000000,4.000000,4.000000,4.000000,0.000000,,,,,,,,,,,,,,,,,,,,,,,,,,,,
1732158049.835064,1732158049.836847,18.000000,0.000000,4283.205078,4276.666504,4286.282227,4288.589844,4277.948730,4283.589844,4322.692383,4393.846191,4294.230957,4290.769043,4487.051270,4493.974121,4366.153809,4414.358887,0.000000,1.000000,22.000000,,,,0.000000,2.000000,2.000000,0.000000,4.000000,2.000000,2.000000,0.000000,0.000000,4.000000,4.000000,4.000000,4.000000,4.000000,4.000000,0.000000,,,,,,,,,,,,,,,,,,,,,,,,,,,,
1732158049.842873,1732158049.844656,19.000000,0.000000,4283.974121,4277.948730,4286.922852,4286.794922,4278.846191,4287.692383,4320.512695,4391.666504,4296.282227,4291.922852,4486.794922,4499.230957,4365.000000,4412.179688,0.000000,1.000000,22.000000,,,,0.000000,2.000000,2.000000,0.000000,4.000000,2.000000,2.000000,0.000000,0.000000,4.000000,4.000000,4.000000,4.000000,4.000000,4.000000,0.000000,,,,,,,,,,,,,,,,,,,,,,,,,,,,
1732158049.850681,1732158049.852364,20.000000,0.000000,4285.512695,4276.025879,4286.282227,4288.589844,4276.794922,4286.410156,4320.000000,4393.077148,4296.794922,4295.000000,4488.589844,4502.179688,4365.384766,4415.384766,0.000000,1.000000,22.000000,,,,0.000000,2.000000,2.000000,0.000000,4.000000,2.000000,2.000000,0.000000,0.000000,4.000000,4.000000,4.000000,4.000000,4.000000,4.000000,0.000000,,,,,,,,,,,,,,,,,5.000000,0.000000,0.518922,0.498718,-0.516663,0.463745,0.951776,0.030277,-0.040532,-34.960354,46.078644,31.163576
1732158049.858489,1732158049.860172,21.000000,0.000000,4289.358887,4276.282227,4284.358887,4289.615234,4272.692383,4279.871582,4321.025879,4391.410156,4294.230957,4292.820313,4488.333496,4503.717773,4366.025879,4423.333496,0.000000,1.000000,22.000000,,,,0.000000,2.000000,2.000000,0.000000,4.000000,2.000000,2.000000,0.000000,0.000000,4.000000,4.000000,4.000000,4.000000,4.000000,4.000000,0.000000,,,,,,,,,,,,,,,,,,,,,,,,,,,,
1732158049.866297,1732158049.867780,22.000000,0.000000,4296.282227,4278.205078,4285.769043,4288.589844,4269.871582,4281.025879,4320.384766,4391.153809,4293.333496,4291.538574,4488.974121,4507.436035,4365.641113,4428.333496,0.000000,1.000000,22.000000,,,,0.000000,2.000000,2.000000,0.000000,4.000000,2.000000,2.000000,0.000000,0.000000,4.000000,4.000000,4.000000,4.000000,4.000000,4.000000,0.000000,,,,,,,,,,,,,,,,,,,,,,,,,,,,
1732158049.874106,1732158049.875589,23.000000,0.000000,4295.641113,4274.358887,4286.282227,4285.000000,4265.769043,4283.205078,4319.102539,4392.179688,4293.077148,4294.102539,4489.358887,4503.077148,4366.025879,4427.563965,0.000000,1.000000,22.000000,,,,0.000000,2.000000,2.000000,0.000000,4.000000,2.000000,2.000000,0.000000,0.000000,4.000000,4.000000,4.000000,4.000000,4.000000,4.000000,0.000000,,,,,,,,,,,,,,,,,,,,,,,,,,,,
1732158049.881914,1732158049.883497,24.000000,0.000000,4284.871582,4271.666504,4288.846191,4279.871582,4267.692383,4279.230957,4320.384766,4393.846191,4293.333496,4294.487305,4485.512695,4493.846191,4362.692383,4421.538574,0.000000,1.000000,22.000000,,,,0.000000,2.000000,2.000000,0.000000,4.000000,2.000000,2.000000,0.000000,0.000000,4.000000,4.000000,4.000000,4.000000,4.000000,4.000000,0.000000,,,,,,,,,,,,,,,,,6.000000,0.000000,0.515777,0.497070,-0.519470,0.465881,0.963008,0.001953,-0.037114,-34.904552,46.152035,31.165831
1732158049.889722,1732158049.891305,25.000000,0.000000,4281.410156,4277.051270,4297.179688,4283.974121,4276.025879,4278.974121,4322.307617,4395.000000,4295.128418,4292.692383,4479.102539,4493.846191,4357.692383,4416.153809,0.000000,1.000000,22.000000,,,,0.000000,2.000000,2.000000,0.000000,4.000000,2.000000,2.000000,0.000000,0.000000,4.000000,4.000000,4.000000,4.000000,4.000000,4.000000,0.000000,,,,,,,,,,,,,,,,,,,,,,,,,,,,
1732158049.897530,1732158049.898913,26.000000,0.000000,4284.871582,4277.307617,4298.077148,4290.512695,4279.358887,4284.102539,4325.769043,4392.948730,4295.384766,4292.948730,4477.051270,4495.128418,4355.256348,4416.666504,0.000000,1.000000,22.000000,,,,0.000000,2.000000,2.000000,0.000000,4.000000,2.000000,2.000000,0.000000,0.000000,4.000000,4.000000,4.000000,4.000000,4.000000,4.000000,0.000000,,,,,,,,,,,,,,,,,,,,,,,,,,,,
1732158049.905338,1732158049.906722,27.000000,0.000000,4284.871582,4271.282227,4293.333496,4290.641113,4277.692383,4284.358887,4328.846191,4396.025879,4295.512695,4295.000000,4478.846191,4493.717773,4353.333496,4418.717773,0.000000,1.000000,22.000000,,,,0.000000,2.000000,2.000000,0.000000,4.000000,2.000000,2.000000,0.000000,0.000000,4.000000,4.000000,4.000000,4.000000,4.000000,4.000000,0.000000,,,,,,,,,,,,,,,,,,,,,,,,,,,,
1732158049.913147,1732158049.914630,28.000000,0.000000,4283.717773,4273.461426,4297.692383,4289.871582,4279.230957,4281.153809,4328.333496,4400.769043,4296.153809,4293.461426,4479.487305,4492.692383,4349.871582,4416.025879,0.000000,1.000000,22.000000,,,,0.000000,2.000000,2.000000,0.000000,4.000000,2.000000,2.000000,0.000000,0.000000,4.000000,4.000000,4.000000,4.000000,4.000000,4.000000,0.000000,,,,,,,,,,,,,,,,,7.000000,0.000000,0.515312,0.494324,-0.522217,0.466248,0.960566,0.005860,-0.036137,-34.859356,45.974815,31.364323
1732158049.920955,1732158049.922438,29.000000,0.000000,4282.820313,4278.974121,4306.538574,4288.461426,4282.307617,4281.025879,4328.333496,4398.333496,4297.051270,4290.641113,4476.666504,4489.615234,4346.410156,4412.948730,0.000000,1.000000,22.000000,,,,0.000000,2.000000,2.000000,0.000000,4.000000,2.000000,2.000000,0.000000,0.000000,4.000000,4.000000,4.000000,4.000000,4.000000,4.000000,0.000000,,,,,,,,,,,,,,,,,,,,,,,,,,,,
1732158049.928763,1732158049.930446,30.000000,0.000000,4279.487305,4276.153809,4307.563965,4288.589844,4280.897461,4282.820313,4332.436035,4396.794922,4296.153809,4293.717773,4475.641113,4490.128418,4343.589844,4412.563965,0.000000,1.000000,22.000000,,,,0.000000,2.000000,2.000000,0.000000,4.000000,2.000000,2.000000,0.000000,0.000000,4.000000,4.000000,4.000000,4.000000,4.000000,4.000000,0.000000,,,,,,,,,,,,,,,,,,,,,,,,,,,,
1732158049.936571,1732158049.938254,31.000000,0.000000,4281.410156,4270.897461,4309.615234,4287.563965,4276.666504,4281.538574,4337.948730,4402.692383,4296.025879,4298.205078,4483.205078,4501.025879,4343.846191,4413.846191,0.000000,1.000000,22.000000,,,,0.000000,2.000000,2.000000,0.000000,4.000000,2.000000,2.000000,0.000000,0.000000,4.000000,4.000000,4.000000,4.000000,4.000000,4.000000,0.000000,,,,,,,,,,,,,,,,,,,,,,,,,,,,
1732158049.944380,1732158049.946162,32.000000,0.000000,4281.794922,4263.717773,4313.974121,4280.128418,4277.436035,4281.922852,4339.487305,4402.051270,4301.922852,4297.436035,4490.256348,4510.512695,4343.461426,4414.871582,0.000000,1.000000,22.000000,,,,0.000000,2.000000,2.000000,0.000000,4.000000,2.000000,2.000000,0.000000,0.000000,4.000000,4.000000,4.000000,4.000000,4.000000,4.000000,0.000000,,,,,,,,,,,,,,,,,8.000000,0.000000,0.515711,0.492859,-0.523315,0.466125,0.987425,0.030765,-0.036137,-35.006077,46.029602,31.441767
1732158049.952188,1732158049.953970,33.000000,0.000000,4276.025879,4260.897461,4316.153809,4277.563965,4278.333496,4284.102539,4338.589844,4399.230957,4304.743652,4296.282227,4486.538574,4510.000000,4339.230957,4416.538574,0.000000,1.000000,22.000000,,,,0.000000,2.000000,2.000000,0.000000,4.000000,2.000000,2.000000,0.000000,0.000000,4.000000,4.000000,4.000000,4.000000,4.000000,4.000000,0.000000,,,,,,,,,,,,,,,,,,,,,,,,,,,,
1732158049.959996,1732158049.961978,34.000000,0.000000,4284.487305,4272.307617,4319.102539,4289.102539,4272.692383,4280.128418,4338.461426,4399.358887,4297.307617,4297.820313,4482.179688,4509.230957,4340.641113,4422.051270,0.000000,1.000000,22.000000,,,,0.000000,2.000000,2.000000,0.000000,4.000000,2.000000,2.000000,0.000000,0.000000,4.000000,4.000000,4.000000,4.000000,4.000000,4.000000,0.000000,,,,,,,,,,,,,,,,,,,,,,,,,,,,
1732158049.967805,1732158049.969787,35.000000,0.000000,4297.948730,4286.025879,4322.436035,4298.717773,4270.000000,4275.641113,4338.974121,4399.487305,4293.333496,4292.051270,4479.871582,4508.846191,4337.563965,4421.922852,0.000000,1.000000,22.000000,,,,0.000000,2.000000,2.000000,0.000000,4.000000,2.000000,2.000000,0.000000,0.000000,4.000000,4.000000,4.000000,4.000000,4.000000,4.000000,0.000000,,,,,,,,,,,,,,,,,,,,,,,,,,,,
1732158049.975613,1732158049.977695,36.000000,0.000000,4298.717773,4292.948730,4320.128418,4298.461426,4275.641113,4278.077148,4338.974121,4399.743652,4295.641113,4282.307617,4474.743652,4500.897461,4325.897461,4414.487305,0.000000,1.000000,22.000000,,,,0.000000,2.000000,2.000000,0.000000,4.000000,2.000000,2.000000,0.000000,0.000000,4.000000,4.000000,4.000000,4.000000,4.000000,4.000000,0.000000,,,,,,,,,,,,,,,,,9.000000,0.000000,0.515711,0.492859,-0.523315,0.466125,0.987425,0.030765,-0.036137,-35.004925,45.953976,31.579498
1732158049.983421,1732158049.985503,37.000000,0.000000,4297.051270,4298.205078,4318.589844,4302.820313,4278.461426,4278.974121,4336.666504,4398.974121,4287.692383,4278.717773,4472.820313,4491.538574,4325.384766,4410.384766,0.000000,1.000000,22.000000,,,,0.000000,2.000000,2.000000,0.000000,4.000000,2.000000,2.000000,0.000000,0.000000,4.000000,4.000000,4.000000,4.000000,4.000000,4.000000,0.000000,,,,,,,,,,,,,,,,,,,,,,,,,,,,
1732158049.991229,1732158049.993511,38.000000,0.000000,4300.256348,4300.512695,4321.666504,4306.922852,4277.563965,4274.871582,4333.717773,4398.717773,4278.333496,4278.333496,4473.589844,4488.717773,4328.205078,4411.666504,0.000000,1.000000,22.000000,,,,0.000000,2.000000,2.000000,0.000000,4.000000,2.000000,2.000000,0.000000,0.000000,4.000000,4.000000,4.000000,4.000000,4.000000,4.000000,0.000000,,,,,,,,,,,,,,,,,,,,,,,,,,,,
1732158049.999038,1732158050.001319,39.000000,0.000000,4298.205078,4298.205078,4324.102539,4301.153809,4275.641113,4275.128418,4334.743652,4400.769043,4287.820313,4278.333496,4471.794922,4494.102539,4318.333496,4413.205078,0.000000,1.000000,22.000000,,,,0.000000,2.000000,2.000000,0.000000,4.000000,2.000000,2.000000,0.000000,0.000000,4.000000,4.000000,4.000000,4.000000,4.000000,4.000000,0.000000,,,,,,,,,,,,,,,,,,,,,,,,,,,,
1732158050.006846,1732158050.009227,40.000000,0.000000,4297.051270,4296.282227,4324.358887,4298.717773,4269.871582,4278.846191,4336.538574,4401.538574,4300.000000,4281.794922,4471.282227,4503.205078,4310.128418,4416.153809,0.000000,1.000000,22.000000,,,,0.000000,2.000000,2.000000,0.000000,4.000000,2.000000,2.000000,0.000000,0.000000,4.000000,4.000000,4.000000,4.000000,4.000000,4.000000,0.000000,,,,,,,,,,,,,,,,,10.000000,0.000000,0.516400,0.492310,-0.522827,0.466492,0.985472,0.033696,-0.011720,-35.078987,46.026054,31.616060
1732158050.014654,1732158050.017036,41.000000,0.000000,4301.794922,4295.897461,4325.897461,4302.436035,4264.871582,4277.948730,4335.897461,4400.256348,4291.666504,4278.974121,4472.051270,4510.128418,4312.948730,4420.256348,0.000000,1.000000,22.000000,,,,0.000000,2.000000,2.000000,0.000000,4.000000,2.000000,2.000000,0.000000,0.000000,4.000000,4.000000,4.000000,4.000000,4.000000,4.000000,0.000000,,,,,,,,,,,,,,,,,,,,,,,,,,,,
1732158050.022462,1732158050.025044,42.000000,0.000000,4304.358887,4293.333496,4326.153809,4301.666504,4265.641113,4277.563965,4335.512695,4401.025879,4279.615234,4268.974121,4471.282227,4512.820313,4311.282227,4418.717773,0.000000,1.000000,22.000000,,,,0.000000,2.000000,2.000000,0.000000,4.000000,2.000000,2.000000,0.000000,0.000000,4.000000,4.000000,4.000000,4.000000,4.000000,4.000000,0.000000,,,,,,,,,,,,,,,,,,,,,,,,,,,,
1732158050.030270,1732158050.032852,43.000000,0.000000,4306.282227,4294.230957,4325.000000,4301.538574,4270.641113,4279.487305,4336.794922,4403.333496,4285.384766,4270.384766,4470.769043,4511.666504,4307.179688,4413.333496,0.000000,1.000000,22.000000,,,,0.000000,2.000000,2.000000,0.000000,4.000000,2.000000,2.000000,0.000000,0.000000,4.000000,4.000000,4.000000,4.000000,4.000000,4.000000,0.000000,,,,,,,,,,,,,,,,,,,,,,,,,,,,
1732158050.038079,1732158050.040760,44.000000,0.000000,4306.153809,4296.538574,4324.743652,4306.025879,4274.487305,4279.358887,4336.794922,4402.948730,4295.641113,4280.256348,4470.641113,4509.102539,4308.077148,4411.282227,0.000000,1.000000,22.000000,,,,0.000000,2.000000,2.000000,0.000000,4.000000,2.000000,2.000000,0.000000,0.000000,4.000000,4.000000,4.000000,4.000000,4.000000,4.000000,0.000000,,,,,,,,,,,,,,,,,11.000000,0.000000,0.516158,0.492676,-0.522339,0.466919,1.000122,0.038579,-0.017580,-35.245647,45.767769,31.370676
1732158050.045887,1732158050.048568,45.000000,0.000000,4298.333496,4295.000000,4323.974121,4303.333496,4277.692383,4279.487305,4336.025879,4400.897461,4294.871582,4282.820313,4471.666504,4506.153809,4310.769043,4412.307617,0.000000,1.000000,22.000000,,,,0.000000,2.000000,2.000000,0.000000,4.000000,2.000000,2.000000,0.000000,0.000000,4.000000,4.000000,4.000000,4.000000,4.000000,4.000000,0.000000,,,,,,,,,,,,,,,,,,,,,,,,,,,,
1732158050.053695,1732158050.056576,46.000000,0.000000,4294.871582,4291.538574,4324.358887,4298.461426,4280.641113,4280.769043,4337.692383,4404.102539,4292.692383,4280.000000,4474.743652,4504.615234,4312.051270,4415.512695,0.000000,1.000000,22.000000,,,,0.000000,2.000000,2.000000,0.000000,4.000000,2.000000,2.000000,0.000000,0.000000,4.000000,4.000000,4.000000,4.000000,4.000000,4.000000,0.000000,,,,,,,,,,,,,,,,,,,,,,,,,,,,
1732158050.061504,1732158050.064384,47.000000,0.000000,4303.974121,4292.948730,4325.769043,4305.769043,4283.589844,4281.282227,4340.256348,4409.102539,4298.717773,4280.256348,4476.153809,4509.487305,4311.666504,4420.256348,0.000000,1.000000,22.000000,,,,0.000000,2.000000,2.000000,0.000000,4.000000,2.000000,2.000000,0.000000,0.000000,4.000000,4.000000,4.000000,4.000000,4.000000,4.000000,0.000000,,,,,,,,,,,,,,,,,,,,,,,,,,,,
1732158050.069312,1732158050.072292,48.000000,0.000000,4308.846191,4296.538574,4325.512695,4311.794922,4283.846191,4278.974121,4340.384766,4403.974121,4292.436035,4278.333496,4473.589844,4513.974121,4312.436035,4420.384766,0.000000,1.000000,22.000000,,,,0.000000,2.000000,2.000000,0.000000,4.000000,2.000000,2.000000,0.000000,0.000000,4.000000,4.000000,4.000000,4.000000,4.000000,4.000000,0.000000,,,,,,,,,,,,,,,,,12.000000,0.000000,0.516158,0.492676,-0.522339,0.466919,0.974240,0.021487,-0.014650,-35.185642,45.633560,31.216913
1732158050.077120,1732158050.080101,49.000000,0.000000,4307.948730,4297.307617,4324.102539,4308.589844,4279.871582,4277.051270,4339.230957,4401.410156,4280.384766,4268.974121,4471.025879,4512.179688,4313.333496,4418.461426,0.000000,1.000000,22.000000,,,,0.000000,2.000000,2.000000,0.000000,4.000000,2.000000,2.000000,0.000000,0.000000,4.000000,4.000000,4.000000,4.000000,4.000000,4.000000,0.000000,,,,,,,,,,,,,,,,,,,,,,,,,,,,
1732158050.084928,1732158050.087709,50.000000,0.000000,4310.128418,4297.436035,4325.128418,4309.102539,4278.333496,4280.128418,4339.102539,4408.333496,4285.769043,4262.436035,4472.436035,4514.487305,4311.794922,4424.615234,0.000000,1.000000,22.000000,,,,0.000000,2.000000,2.000000,0.000000,4.000000,2.000000,2.000000,0.000000,0.000000,4.000000,4.000000,4.000000,4.000000,4.000000,4.000000,0.000000,,,,,,,,,,,,,,,,,,,,,,,,,,,,
1732158050.092737,1732158050.095517,51.000000,0.000000,4312.179688,4295.897461,4324.615234,4308.589844,4274.871582,4283.846191,4339.871582,4406.410156,4296.282227,4267.179688,4473.717773,4520.769043,4310.128418,4428.077148,0.000000,1.000000,22.000000,,,,0.000000,2.000000,2.000000,0.000000,4.000000,2.000000,2.000000,0.000000,0.000000,4.000000,4.000000,4.000000,4.000000,4.000000,4.000000,0.000000,,,,,,,,,,,,,,,,,,,,,,,,,,,,
1732158050.100545,1732158050.103425,52.000000,0.000000,4315.128418,4294.230957,4322.820313,4302.948730,4268.846191,4281.794922,4341.538574,4399.615234,4296.025879,4278.846191,4474.102539,4522.307617,4316.282227,4427.307617,0.000000,1.000000,22.000000,,,,0.000000,2.000000,2.000000,0.000000,4.000000,2.000000,2.000000,0.000000,0.000000,4.000000,4.000000,4.000000,4.000000,4.000000,4.000000,0.000000,,,,,,,,,,,,,,,,,13.000000,0.000000,0.514900,0.493103,-0.522522,0.467651,0.970822,0.019045,-0.026859,-34.972034,45.689850,31.177366
1732158050.108353,1732158050.111234,53.000000,0.000000,4320.128418,4294.871582,4323.717773,4305.256348,4270.000000,4276.666504,4341.922852,4400.512695,4294.102539,4282.820313,4478.333496,4523.974121,4324.487305,4434.487305,0.000000,1.000000,22.000000,,,,0.000000,2.000000,2.000000,0.000000,4.000000,2.000000,2.000000,0.000000,0.000000,4.000000,4.000000,4.000000,4.000000,4.000000,4.000000,0.000000,,,,,,,,,,,,,,,,,,,,,,,,,,,,
1732158050.116161,1732158050.118842,54.000000,0.000000,4320.128418,4293.846191,4324.358887,4310.512695,4273.461426,4275.897461,4340.897461,4402.436035,4296.410156,4279.358887,4481.282227,4527.436035,4321.282227,4438.077148,0.000000,1.000000,22.000000,,,,0.000000,2.000000,2.000000,0.000000,4.000000,2.000000,2.000000,0.000000,0.000000,4.000000,4.000000,4.000000,4.000000,4.000000,4.000000,0.000000,,,,,,,,,,,,,,,,,,,,,,,,,,,,
1732158050.123969,1732158050.126650,55.000000,0.000000,4313.974121,4291.538574,4324.102539,4306.538574,4273.461426,4277.307617,4342.563965,4401.794922,4293.461426,4278.974121,4476.410156,4525.897461,4314.743652,4430.897461,0.000000,1.000000,22.000000,,,,0.000000,2.000000,2.000000,0.000000,4.000000,2.000000,2.000000,0.000000,0.000000,4.000000,4.000000,4.000000,4.000000,4.000000,4.000000,0.000000,,,,,,,,,,,,,,,,,,,,,,,,,,,,
1732158050.131778,1732158050.134358,56.000000,0.000000,4311.922852,4292.436035,4323.846191,4304.487305,4274.743652,4278.974121,4341.025879,4402.436035,4291.794922,4277.563965,4471.538574,4522.948730,4314.102539,4427.948730,0.000000,1.000000,22.000000,,,,0.000000,2.000000,2.000000,0.000000,4.000000,2.000000,2.000000,0.000000,0.000000,4.000000,4.000000,4.000000,4.000000,4.000000,4.000000,0.000000,,,,,,,,,,,,,,,,,14.000000,0.000000,0.514391,0.493103,-0.523132,0.467529,0.976682,0.025394,-0.033207,-34.940681,45.863781,31.092001
1732158050.139586,1732158050.142167,57.000000,0.000000,4311.922852,4295.128418,4322.820313,4308.205078,4281.282227,4280.000000,4335.128418,4401.410156,4293.717773,4269.487305,4473.974121,4523.333496,4318.205078,4429.358887,0.000000,1.000000,22.000000,,,,0.000000,2.000000,2.000000,0.000000,4.000000,2.000000,2.000000,0.000000,0.000000,4.000000,4.000000,4.000000,4.000000,4.000000,4.000000,0.000000,,,,,,,,,,,,,,,,,,,,,,,,,,,,
1732158050.147394,1732158050.149775,58.000000,0.000000,4310.000000,4295.897461,4321.410156,4309.358887,4278.974121,4276.666504,4333.333496,4401.666504,4289.487305,4262.307617,4476.794922,4522.692383,4321.538574,4427.436035,0.000000,1.000000,22.000000,,,,0.000000,2.000000,2.000000,0.000000,4.000000,2.000000,2.000000,0.000000,0.000000,4.000000,4.000000,4.000000,4.000000,4.000000,4.000000,0.000000,,,,,,,,,,,,,,,,,,,,,,,,,,,,
1732158050.155203,1732158050.157583,59.000000,0.000000,4308.974121,4297.307617,4321.794922,4310.384766,4270.769043,4274.615234,4334.871582,4403.846191,4287.563965,4263.077148,4473.717773,4520.769043,4320.897461,4422.563965,0.000000,1.000000,22.000000,,,,0.000000,2.000000,2.000000,0.000000,4.000000,2.000000,2.000000,0.000000,0.000000,4.000000,4.000000,4.000000,4.000000,4.000000,4.000000,0.000000,,,,,,,,,,,,,,,,,,,,,,,,,,,,
1732158050.163011,1732158050.165491,60.000000,0.000000,4308.589844,4297.051270,4323.333496,4308.846191,4270.769043,4276.922852,4333.846191,4404.230957,4292.436035,4265.512695,4470.897461,4515.897461,4318.846191,4415.384766,0.000000,1.000000,22.000000,,,,0.000000,2.000000,2.000000,0.000000,4.000000,2.000000,2.000000,0.000000,0.000000,4.000000,4.000000,4.000000,4.000000,4.000000,4.000000,0.000000,,,,,,,,,,,,,,,,,15.000000,0.000000,0.513386,0.492859,-0.523804,0.468140,0.984984,0.036137,-0.039556,-34.943619,45.879662,31.181187
1732158050.170819,1732158050.173300,61.000000,0.000000,4310.000000,4295.512695,4321.153809,4305.000000,4271.025879,4280.128418,4333.205078,4403.461426,4295.897461,4266.538574,4474.358887,4511.282227,4325.769043,4416.282227,0.000000,1.000000,22.000000,,,,0.000000,2.000000,2.000000,0.000000,4.000000,2.000000,2.000000,0.000000,0.000000,4.000000,4.000000,4.000000,4.000000,4.000000,4.000000,0.000000,,,,,,,,,,,,,,,,,,,,,,,,,,,,
1732158050.178627,1732158050.181308,62.000000,0.000000,4312.307617,4296.922852,4316.794922,4307.051270,4266.538574,4277.436035,4334.871582,4405.000000,4294.487305,4270.512695,4477.692383,4510.000000,4338.333496,4425.641113,0.000000,1.000000,22.000000,,,,0.000000,2.000000,2.000000,0.000000,4.000000,2.000000,2.000000,0.000000,0.000000,4.000000,4.000000,4.000000,4.000000,4.000000,4.000000,0.000000,,,,,,,,,,,,,,,,,,,,,,,,,,,,
1732158050.186436,1732158050.189116,63.000000,0.000000,4312.307617,4297.051270,4317.436035,4305.000000,4263.333496,4272.307617,4335.128418,4405.769043,4295.256348,4274.615234,4478.077148,4507.051270,4341.666504,4427.563965,0.000000,1.000000,22.000000,,,,0.000000,2.000000,2.000000,0.000000,4.000000,2.000000,2.000000,0.000000,0.000000,4.000000,4.000000,4.000000,4.000000,4.000000,4.000000,0.000000,,,,,,,,,,,,,,,,,,,,,,,,,,,,
1732158050.194244,1732158050.196824,64.000000,0.000000,4313.333496,4294.615234,4321.922852,4297.179688,4263.589844,4269.743652,4334.615234,4403.333496,4297.307617,4274.871582,4483.205078,4506.282227,4346.410156,4429.487305,0.000000,1.000000,22.000000,,,,0.000000,2.000000,2.000000,0.000000,4.000000,2.000000,2.000000,0.000000,0.000000,4.000000,4.000000,4.000000,4.000000,4.000000,4.000000,0.000000,,,,,,,,,,,,,,,,,16.000000,0.000000,0.513386,0.492859,-0.523804,0.468140,0.984984,0.036137,-0.039556,-34.841000,45.712524,31.418428
1732158050.202052,1732158050.204632,65.000000,0.000000,4318.589844,4295.897461,4323.077148,4300.384766,4262.563965,4267.179688,4334.871582,4404.743652,4293.717773,4274.487305,4489.102539,4514.743652,4358.846191,4440.256348,1601.000000,1.000000,22.000000,,,,0.000000,2.000000,2.000000,0.000000,4.000000,2.000000,2.000000,0.000000,0.000000,4.000000,4.000000,4.000000,4.000000,4.000000,4.000000,0.000000,,,,,,,,,,,,,,,,,,,,,,,,,,,,
1732158050.209860,1732158050.212241,66.000000,0.000000,4325.384766,4298.205078,4319.615234,4308.333496,4259.615234,4265.128418,4334.871582,4409.358887,4293.589844,4277.179688,4488.846191,4521.538574,4367.179688,4448.974121,1364.000000,1.000000,22.000000,,,,0.000000,2.000000,2.000000,0.000000,4.000000,2.000000,2.000000,0.000000,0.000000,4.000000,4.000000,4.000000,4.000000,4.000000,4.000000,0.000000,,,,,,,,,,,,,,,,,,,,,,,,,,,,
1732158050.217668,1732158050.220049,67.000000,0.000000,4332.820313,4297.179688,4320.384766,4305.128418,4255.256348,4263.589844,4334.871582,4407.948730,4297.436035,4279.230957,4495.641113,4523.205078,4372.436035,4458.974121,1417.000000,1.000000,22.000000,,,,0.000000,2.000000,2.000000,0.000000,4.000000,2.000000,2.000000,0.000000,0.000000,4.000000,4.000000,4.000000,4.000000,4.000000,4.000000,0.000000,,,,,,,,,,,,,,,,,,,,,,,,,,,,
1732158050.225477,1732158050.227757,68.000000,0.000000,4341.538574,4295.512695,4320.769043,4301.282227,4248.589844,4261.025879,4334.871582,4402.563965,4288.333496,4277.692383,4508.974121,4528.846191,4384.487305,4475.000000,1426.000000,1.000000,22.000000,,,,0.000000,2.000000,2.000000,0.000000,4.000000,2.000000,2.000000,0.000000,0.000000,4.000000,4.000000,4.000000,4.000000,4.000000,4.000000,0.000000,,,,,,,,,,,,,,,,,17.000000,0.000000,0.511513,0.492126,-0.524902,0.469727,0.981565,0.010255,-0.044439,-34.999542,45.502144,31.360594
1732158050.233285,1732158050.235565,69.000000,0.000000,4343.077148,4294.871582,4316.794922,4300.769043,4248.077148,4259.358887,4334.743652,4403.461426,4277.692383,4277.692383,4511.153809,4536.025879,4395.384766,4479.615234,1214.000000,1.000000,22.000000,,,,0.000000,2.000000,2.000000,0.000000,4.000000,2.000000,2.000000,0.000000,0.000000,4.000000,4.000000,4.000000,4.000000,4.000000,4.000000,0.000000,,,,,,,,,,,,,,,,,,,,,,,,,,,,
1732158050.241093,1732158050.243174,70.000000,0.000000,4340.000000,4293.333496,4313.589844,4296.794922,4249.230957,4261.922852,4334.743652,4405.128418,4287.307617,4280.000000,4511.282227,4532.436035,4397.948730,4475.641113,0.000000,1.000000,22.000000,,,,0.000000,2.000000,2.000000,0.000000,4.000000,2.000000,2.000000,0.000000,0.000000,4.000000,4.000000,4.000000,4.000000,4.000000,4.000000,0.000000,,,,,,,,,,,,,,,,,,,,,,,,,,,,
1732158050.248901,1732158050.250982,71.000000,0.000000,4342.948730,4287.436035,4312.820313,4292.436035,4247.436035,4265.000000,4334.871582,4401.666504,4300.641113,4284.743652,4521.025879,4529.615234,4407.051270,4479.230957,0.000000,1.000000,22.000000,,,,0.000000,2.000000,2.000000,0.000000,4.000000,2.000000,2.000000,0.000000,0.000000,4.000000,4.000000,4.000000,4.000000,4.000000,4.000000,0.000000,,,,,,,,,,,,,,,,,,,,,,,,,,,,
1732158050.256710,1732158050.258890,72.000000,0.000000,4342.307617,4283.205078,4313.589844,4286.025879,4247.307617,4263.589844,4334.871582,4401.666504,4297.436035,4291.538574,4523.974121,4532.307617,4417.948730,4482.179688,1534.000000,1.000000,22.000000,,,,0.000000,2.000000,2.000000,0.000000,4.000000,2.000000,2.000000,0.000000,0.000000,4.000000,4.000000,4.000000,4.000000,4.000000,4.000000,0.000000,,,,,,,,,,,,,,,,,18.000000,0.000000,0.510225,0.491821,-0.525513,0.470764,0.976193,-0.007325,-0.045904,-35.174629,45.238403,31.268747
1732158050.264518,1732158050.266698,73.000000,0.000000,4333.717773,4278.461426,4312.820313,4281.538574,4245.897461,4262.563965,4334.743652,4402.563965,4292.051270,4288.077148,4518.846191,4530.128418,4415.128418,4478.077148,1690.000000,1.000000,22.000000,,,,0.000000,2.000000,2.000000,0.000000,4.000000,2.000000,2.000000,0.000000,0.000000,4.000000,4.000000,4.000000,4.000000,4.000000,4.000000,0.000000,,,,,,,,,,,,,,,,,,,,,,,,,,,,
1732158050.272326,1732158050.274706,74.000000,0.000000,4330.897461,4270.000000,4312.436035,4279.230957,4243.333496,4263.333496,4335.641113,4402.820313,4296.922852,4280.384766,4520.128418,4528.077148,4413.717773,4474.102539,1546.000000,1.000000,22.000000,,,,0.000000,2.000000,2.000000,0.000000,4.000000,2.000000,2.000000,0.000000,0.000000,4.000000,4.000000,4.000000,4.000000,4.000000,4.000000,0.000000,,,,,,,,,,,,,,,,,,,,,,,,,,,,
1732158050.280135,1732158050.282515,75.000000,0.000000,4336.025879,4267.563965,4311.922852,4276.410156,4242.692383,4265.256348,4336.922852,4403.205078,4298.333496,4286.666504,4522.948730,4532.051270,4425.000000,4478.461426,1564.000000,1.000000,22.000000,,,,0.000000,2.000000,2.000000,0.000000,4.000000,2.000000,2.000000,0.000000,0.000000,4.000000,4.000000,4.000000,4.000000,4.000000,4.000000,0.000000,,,,,,,,,,,,,,,,,,,,,,,,,,,,
1732158050.287943,1732158050.290423,76.000000,0.000000,4334.230957,4269.487305,4314.230957,4275.641113,4247.051270,4266.410156,4336.922852,4403.333496,4294.743652,4296.282227,4522.051270,4537.051270,4431.410156,4484.102539,1706.000000,1.000000,22.000000,,,,0.000000,2.000000,2.000000,0.000000,4.000000,2.000000,2.000000,0.000000,0.000000,4.000000,4.000000,4.000000,4.000000,4.000000,4.000000,0.000000,,,,,,,,,,,,,,,,,19.000000,0.000000,0.509586,0.491638,-0.525757,0.471375,0.976193,-0.007325,-0.045904,-35.078117,45.196442,31.242685
1732158050.295751,1732158050.298231,77.000000,0.000000,4327.692383,4266.794922,4314.230957,4275.128418,4247.179688,4263.717773,4335.384766,4402.436035,4297.948730,4294.230957,4523.974121,4537.563965,4428.333496,4485.641113,1599.000000,1.000000,22.000000,,,,0.000000,2.000000,2.000000,0.000000,4.000000,2.000000,2.000000,0.000000,0.000000,4.000000,4.000000,4.000000,4.000000,4.000000,4.000000,0.000000,,,,,,,,,,,,,,,,,,,,,,,,,,,,
1732158050.303559,1732158050.306239,78.000000,0.000000,4326.410156,4264.230957,4310.256348,4270.000000,4235.256348,4262.436035,4334.230957,4402.051270,4304.102539,4296.538574,4527.563965,4538.717773,4435.128418,4486.410156,1546.000000,1.000000,22.000000,,,,0.000000,2.000000,2.000000,0.000000,4.000000,2.000000,2.000000,0.000000,0.000000,4.000000,4.000000,4.000000,4.000000,4.000000,4.000000,0.000000,1.000000,0.000000,2.000000,2.000000,0.000000,4.000000,2.000000,2.000000,0.000000,0.000000,4.000000,4.000000,4.000000,4.000000,4.000000,4.000000,,,,,,,,,,,,
1732158050.311368,1732158050.314047,79.000000,0.000000,4327.563965,4267.051270,4310.512695,4263.589844,4237.820313,4261.025879,4334.230957,4402.948730,4299.743652,4298.077148,4527.820313,4539.615234,4440.641113,4485.641113,1564.000000,1.000000,22.000000,,,,0.000000,2.000000,2.000000,0.000000,4.000000,2.000000,2.000000,0.000000,0.000000,4.000000,4.000000,4.000000,4.000000,4.000000,4.000000,0.000000,,,,,,,,,,,,,,,,,,,,,,,,,,,,
1732158050.319176,1732158050.321755,80.000000,0.000000,4326.922852,4266.410156,4312.820313,4265.384766,4252.692383,4257.948730,4333.974121,4400.897461,4291.282227,4284.102539,4523.461426,4535.641113,4429.743652,4478.717773,1706.000000,1.000000,22.000000,,,,0.000000,2.000000,2.000000,0.000000,4.000000,2.000000,2.000000,0.000000,0.000000,4.000000,4.000000,4.000000,4.000000,4.000000,4.000000,0.000000,,,,,,,,,,,,,,,,,20.000000,0.000000,0.507737,0.490234,-0.527100,0.473328,0.983030,-0.021975,-0.037114,-34.841606,45.200783,31.129908
1732158050.326984,1732158050.329564,81.000000,0.000000,4323.077148,4264.487305,4310.256348,4268.589844,4244.615234,4260.897461,4334.358887,4400.641113,4299.102539,4282.307617,4521.794922,4534.230957,4425.256348,4473.461426,1599.000000,1.000000,22.000000,,,,0.000000,2.000000,2.000000,0.000000,4.000000,2.000000,2.000000,0.000000,0.000000,4.000000,4.000000,4.000000,4.000000,4.000000,4.000000,0.000000,,,,,,,,,,,,,,,,,,,,,,,,,,,,
1732158050.334792,1732158050.337572,82.000000,0.000000,4319.487305,4266.153809,4309.358887,4269.615234,4224.743652,4266.410156,4336.025879,4406.410156,4307.563965,4295.769043,4523.717773,4535.897461,4438.077148,4480.384766,1546.000000,1.000000,22.000000,,,,0.000000,2.000000,2.000000,0.000000,4.000000,2.000000,2.000000,0.000000,0.000000,4.000000,4.000000,4.000000,4.000000,4.000000,4.000000,0.000000,,,,,,,,,,,,,,,,,,,,,,,,,,,,
1732158050.342600,1732158050.345380,83.000000,0.000000,4321.538574,4266.538574,4313.974121,4268.846191,4229.102539,4261.410156,4336.538574,4410.384766,4300.512695,4295.384766,4526.794922,4536.666504,4445.000000,4487.820313,1564.000000,1.000000,22.000000,,,,0.000000,2.000000,2.000000,0.000000,4.000000,2.000000,2.000000,0.000000,0.000000,4.000000,4.000000,4.000000,4.000000,4.000000,4.000000,0.000000,,,,,,,,,,,,,,,,,,,,,,,,,,,,
1732158050.350409,1732158050.353288,84.000000,0.000000,4326.282227,4266.282227,4316.794922,4266.538574,4238.846191,4253.974121,4335.256348,4406.410156,4295.128418,4289.871582,4532.563965,4539.230957,4441.922852,4488.205078,1706.000000,1.000000,22.000000,,,,0.000000,2.000000,2.000000,0.000000,4.000000,2.000000,2.000000,0.000000,0.000000,4.000000,4.000000,4.000000,4.000000,4.000000,4.000000,0.000000,,,,,,,,,,,,,,,,,21.000000,0.000000,0.507560,0.488953,-0.528076,0.473755,0.983030,-0.024905,-0.046392,-34.633369,45.187634,31.105227
1732158050.358217,1732158050.361096,85.000000,0.000000,4327.179688,4265.897461,4315.384766,4271.922852,4231.282227,4258.077148,4334.487305,4400.641113,4297.563965,4295.897461,4537.436035,4544.487305,4443.717773,4488.717773,1599.000000,1.000000,22.000000,,,,0.000000,2.000000,2.000000,0.000000,4.000000,2.000000,2.000000,0.000000,0.000000,4.000000,4.000000,4.000000,4.000000,4.000000,4.000000,0.000000,,,,,,,,,,,,,,,,,,,,,,,,,,,,
1732158050.366025,1732158050.369104,86.000000,0.000000,4328.846191,4269.615234,4314.487305,4277.692383,4236.666504,4257.436035,4334.615234,4402.820313,4299.230957,4297.307617,4538.333496,4547.436035,4447.692383,4491.025879,1546.000000,1.000000,22.000000,,,,0.000000,2.000000,2.000000,0.000000,4.000000,2.000000,2.000000,0.000000,0.000000,4.000000,4.000000,4.000000,4.000000,4.000000,4.000000,0.000000,,,,,,,,,,,,,,,,,,,,,,,,,,,,
1732158050.373834,1732158050.376912,87.000000,0.000000,4335.512695,4275.128418,4314.230957,4277.051270,4253.589844,4249.615234,4335.512695,4405.641113,4302.563965,4291.922852,4538.077148,4547.820313,4448.589844,4494.871582,1564.000000,1.000000,22.000000,,,,0.000000,2.000000,2.000000,0.000000,4.000000,2.000000,2.000000,0.000000,0.000000,4.000000,4.000000,4.000000,4.000000,4.000000,4.000000,0.000000,,,,,,,,,,,,,,,,,,,,,,,,,,,,
1732158050.381642,1732158050.384821,88.000000,0.000000,4336.666504,4278.589844,4313.077148,4276.922852,4249.358887,4250.384766,4336.538574,4403.333496,4303.717773,4297.692383,4537.051270,4550.641113,4448.077148,4495.512695,1706.000000,1.000000,22.000000,,,,0.000000,2.000000,2.000000,0.000000,4.000000,2.000000,2.000000,0.000000,0.000000,4.000000,4.000000,4.000000,4.000000,4.000000,4.000000,0.000000,,,,,,,,,,,,,,,,,22.000000,0.000000,0.507534,0.488281,-0.528503,0.473999,0.990355,-0.023929,-0.038579,-34.671360,45.056984,31.116899
1732158050.389450,1732158050.392629,89.000000,0.000000,4330.512695,4280.128418,4313.461426,4279.871582,4230.128418,4255.512695,4335.769043,4400.384766,4298.717773,4304.487305,4535.641113,4548.974121,4446.025879,4492.051270,1599.000000,1.000000,22.000000,,,,0.000000,2.000000,2.000000,0.000000,4.000000,2.000000,2.000000,0.000000,0.000000,4.000000,4.000000,4.000000,4.000000,4.000000,4.000000,0.000000,,,,,,,,,,,,,,,,,,,,,,,,,,,,
1732158050.397258,1732158050.400637,90.000000,0.000000,4327.307617,4280.512695,4315.256348,4279.871582,4227.307617,4259.230957,4334.743652,4400.256348,4302.436035,4303.461426,4537.436035,4548.205078,4445.128418,4489.615234,1546.000000,1.000000,22.000000,,,,0.000000,2.000000,2.000000,0.000000,4.000000,2.000000,2.000000,0.000000,0.000000,4.000000,4.000000,4.000000,4.000000,4.000000,4.000000,0.000000,,,,,,,,,,,,,,,,,,,,,,,,,,,,
1732158050.405067,1732158050.408445,91.000000,0.000000,4328.589844,4280.897461,4313.717773,4278.333496,4241.922852,4261.282227,4335.000000,4401.794922,4313.461426,4301.794922,4538.846191,4547.436035,4445.897461,4491.025879,1564.000000,1.000000,22.000000,,,,0.000000,2.000000,2.000000,0.000000,4.000000,2.000000,2.000000,0.000000,0.000000,4.000000,4.000000,4.000000,4.000000,4.000000,4.000000,0.000000,,,,,,,,,,,,,,,,,,,,,,,,,,,,
1732158050.412875,1732158050.416353,92.000000,0.000000,4326.922852,4280.000000,4314.615234,4280.000000,4248.077148,4262.051270,4335.128418,4400.512695,4311.538574,4304.871582,4536.922852,4546.282227,4444.230957,4490.000000,1706.000000,1.000000,22.000000,,,,0.000000,2.000000,2.000000,0.000000,4.000000,2.000000,2.000000,0.000000,0.000000,4.000000,4.000000,4.000000,4.000000,4.000000,4.000000,0.000000,,,,,,,,,,,,,,,,,23.000000,0.000000,0.507795,0.486572,-0.529663,0.474182,0.988402,0.000488,-0.035161,-34.638802,45.172825,31.126356
1732158050.420683,1732158050.424161,93.000000,0.000000,4326.666504,4279.615234,4318.205078,4281.153809,4247.563965,4261.538574,4334.743652,4401.410156,4308.077148,4306.666504,4537.051270,4549.102539,4441.794922,4489.102539,1599.000000,1.000000,22.000000,,,,0.000000,2.000000,2.000000,0.000000,4.000000,2.000000,2.000000,0.000000,0.000000,4.000000,4.000000,4.000000,4.000000,4.000000,4.000000,0.000000,,,,,,,,,,,,,,,,,,,,,,,,,,,,
1732158050.428491,1732158050.432169,94.000000,0.000000,4332.820313,4281.794922,4319.358887,4282.179688,4247.179688,4264.102539,4334.743652,4404.615234,4312.179688,4301.153809,4536.538574,4549.743652,4437.051270,4491.666504,1546.000000,1.000000,22.000000,,,,0.000000,2.000000,2.000000,0.000000,4.000000,2.000000,2.000000,0.000000,0.000000,4.000000,4.000000,4.000000,4.000000,4.000000,4.000000,0.000000,,,,,,,,,,,,,,,,,,,,,,,,,,,,
1732158050.436299,1732158050.439977,95.000000,0.000000,4336.538574,4284.615234,4317.307617,4284.615234,4250.512695,4265.384766,4334.871582,4403.333496,4306.794922,4294.871582,4536.410156,4545.641113,4430.512695,4491.282227,1564.000000,1.000000,22.000000,,,,0.000000,2.000000,2.000000,0.000000,4.000000,2.000000,2.000000,0.000000,0.000000,4.000000,4.000000,4.000000,4.000000,4.000000,4.000000,0.000000,,,,,,,,,,,,,,,,,,,,,,,,,,,,
1732158050.444108,1732158050.447886,96.000000,0.000000,4335.000000,4283.717773,4317.179688,4289.615234,4254.615234,4264.487305,4334.871582,4400.641113,4296.025879,4292.436035,4533.333496,4543.461426,4427.948730,4488.846191,1706.000000,1.000000,22.000000,,,,0.000000,2.000000,2.000000,0.000000,4.000000,2.000000,2.000000,0.000000,0.000000,4.000000,4.000000,4.000000,4.000000,4.000000,4.000000,0.000000,,,,,,,,,,,,,,,,,24.000000,0.000000,0.508506,0.484375,-0.530884,0.474304,0.969357,-0.012697,-0.037602,-34.777431,45.073322,31.315681
1732158050.451916,1732158050.455694,97.000000,0.000000,4335.384766,4283.717773,4317.692383,4292.948730,4254.487305,4265.000000,4334.871582,4401.538574,4296.922852,4290.384766,4524.487305,4547.051270,4429.230957,4489.743652,1599.000000,1.000000,22.000000,,,,0.000000,2.000000,2.000000,0.000000,4.000000,2.000000,2.000000,0.000000,0.000000,4.000000,4.000000,4.000000,4.000000,4.000000,4.000000,0.000000,,,,,,,,,,,,,,,,,,,,,,,,,,,,
1732158050.459724,1732158050.463302,98.000000,0.000000,4336.538574,4290.384766,4317.179688,4292.948730,4255.769043,4262.820313,4334.871582,4402.051270,4298.077148,4289.615234,4525.128418,4546.794922,4429.743652,4492.307617,1546.000000,1.000000,22.000000,,,,0.000000,2.000000,2.000000,0.000000,4.000000,2.000000,2.000000,0.000000,0.000000,4.000000,4.000000,4.000000,4.000000,4.000000,4.000000,0.000000,,,,,,,,,,,,,,,,,,,,,,,,,,,,
1732158050.467533,1732158050.471110,99.000000,0.000000,4335.769043,4295.512695,4318.717773,4293.205078,4252.179688,4262.436035,4334.871582,4398.205078,4295.897461,4294.102539,4538.589844,4548.205078,4430.897461,4491.410156,1564.000000,1.000000,22.000000,,,,0.000000,2.000000,2.000000,0.000000,4.000000,2.000000,2.000000,0.000000,0.000000,4.000000,4.000000,4.000000,4.000000,4.000000,4.000000,0.000000,,,,,,,,,,,,,,,,,,,,,,,,,,,,
1732158050.475341,1732158050.478819,100.000000,0.000000,4335.641113,4293.846191,4317.563965,4293.846191,4256.282227,4263.077148,4334.871582,4396.922852,4300.256348,4296.922852,4539.743652,4552.436035,4432.179688,4488.974121,1706.000000,1.000000,22.000000,,,,0.000000,2.000000,2.000000,0.000000,4.000000,2.000000,2.000000,0.000000,0.000000,4.000000,4.000000,4.000000,4.000000,4.000000,4.000000,0.000000,,,,,,,,,,,,,,,,,25.000000,0.000000,0.508551,0.483582,-0.531128,0.474792,0.986449,-0.004883,-0.025394,-34.826385,45.267723,31.285702
1732158050.483149,1732158050.486627,101.000000,0.000000,4335.256348,4292.563965,4317.692383,4294.102539,4271.025879,4262.307617,4334.871582,4400.641113,4301.794922,4294.102539,4525.769043,4545.512695,4424.743652,4489.358887,1599.000000,1.000000,22.000000,,,,0.000000,2.000000,2.000000,0.000000,4.000000,2.000000,2.000000,0.000000,0.000000,4.000000,4.000000,4.000000,4.000000,4.000000,4.000000,0.000000,,,,,,,,,,,,,,,,,,,,,,,,,,,,
1732158050.490957,1732158050.494235,102.000000,0.000000,4333.589844,4295.384766,4320.769043,4294.871582,4263.589844,4262.436035,4334.871582,4402.563965,4294.871582,4292.307617,4520.641113,4537.179688,4415.897461,4487.179688,1546.000000,1.000000,22.000000,,,,0.000000,2.000000,2.000000,0.000000,4.000000,2.000000,2.000000,0.000000,0.000000,4.000000,4.000000,4.000000,4.000000,4.000000,4.000000,0.000000,,,,,,,,,,,,,,,,,,,,,,,,,,,,
1732158050.498766,1732158050.502044,103.000000,0.000000,4333.974121,4296.410156,4320.897461,4296.282227,4243.846191,4263.589844,4334.871582,4401.025879,4294.487305,4292.563965,4523.333496,4536.410156,4413.333496,4480.769043,1564.000000,1.000000,22.000000,,,,0.000000,2.000000,2.000000,0.000000,4.000000,2.000000,2.000000,0.000000,0.000000,4.000000,4.000000,4.000000,4.000000,4.000000,4.000000,0.000000,,,,,,,,,,,,,,,,,,,,,,,,,,,,
1732158050.506574,1732158050.509952,104.000000,0.000000,4333.589844,4297.948730,4318.589844,4299.743652,4252.179688,4264.358887,4334.871582,4399.743652,4297.692383,4292.563965,4516.410156,4538.589844,4409.358887,4476.794922,1706.000000,1.000000,22.000000,,,,0.000000,2.000000,2.000000,0.000000,4.000000,2.000000,2.000000,0.000000,0.000000,4.000000,4.000000,4.000000,4.000000,4.000000,4.000000,0.000000,,,,,,,,,,,,,,,,,26.000000,0.000000,0.508422,0.483276,-0.531311,0.475037,0.972775,-0.017580,-0.017092,-34.954372,45.341854,31.323086
1732158050.514382,1732158050.517760,105.000000,0.000000,4333.205078,4300.769043,4320.128418,4306.538574,4269.230957,4265.128418,4334.871582,4399.743652,4294.487305,4292.436035,4508.333496,4538.205078,4401.922852,4476.666504,1599.000000,1.000000,22.000000,,,,0.000000,2.000000,2.000000,0.000000,4.000000,2.000000,2.000000,0.000000,0.000000,4.000000,4.000000,4.000000,4.000000,4.000000,4.000000,0.000000,,,,,,,,,,,,,,,,,,,,,,,,,,,,
1732158050.522190,1732158050.525368,106.000000,0.000000,4333.846191,4300.641113,4319.871582,4308.461426,4264.102539,4266.666504,4334.871582,4399.487305,4293.333496,4293.461426,4508.974121,4535.641113,4399.615234,4476.410156,1546.000000,1.000000,22.000000,,,,0.000000,2.000000,2.000000,0.000000,4.000000,2.000000,2.000000,0.000000,0.000000,4.000000,4.000000,4.000000,4.000000,4.000000,4.000000,0.000000,,,,,,,,,,,,,,,,,,,,,,,,,,,,
1732158050.529998,1732158050.533176,107.000000,0.000000,4331.538574,4298.717773,4315.128418,4306.025879,4261.794922,4265.512695,4334.871582,4400.512695,4297.436035,4294.487305,4509.615234,4528.589844,4399.358887,4475.512695,1564.000000,1.000000,22.000000,,,,0.000000,2.000000,2.000000,0.000000,4.000000,2.000000,2.000000,0.000000,0.000000,4.000000,4.000000,4.000000,4.000000,4.000000,4.000000,0.000000,,,,,,,,,,,,,,,,,,,,,,,,,,,,
1732158050.537807,1732158050.540885,108.000000,0.000000,4329.871582,4297.692383,4317.051270,4307.692383,4268.974121,4267.563965,4334.871582,4401.922852,4298.205078,4294.487305,4506.282227,4526.922852,4396.153809,4473.974121,1706.000000,1.000000,22.000000,,,,0.000000,2.000000,2.000000,0.000000,4.000000,2.000000,2.000000,0.000000,0.000000,4.000000,4.000000,4.000000,4.000000,4.000000,4.000000,0.000000,,,,,,,,,,,,,,,,,27.000000,0.000000,0.507810,0.482361,-0.531799,0.476074,0.980100,-0.017092,-0.011720,-35.001373,45.311905,31.473366
1732158050.545615,1732158050.548693,109.000000,0.000000,4333.333496,4299.743652,4322.436035,4309.615234,4274.230957,4269.615234,4334.871582,4400.256348,4296.410156,4293.333496,4506.282227,4528.205078,4395.128418,4473.846191,1599.000000,1.000000,22.000000,,,,0.000000,2.000000,2.000000,0.000000,4.000000,2.000000,2.000000,0.000000,0.000000,4.000000,4.000000,4.000000,4.000000,4.000000,4.000000,0.000000,,,,,,,,,,,,,,,,,,,,,,,,,,,,
1732158050.553423,1732158050.556301,110.000000,0.000000,4337.563965,4305.128418,4321.794922,4311.153809,4275.769043,4267.179688,4334.871582,4398.461426,4295.897461,4295.641113,4510.128418,4524.230957,4391.282227,4476.794922,1546.000000,1.000000,22.000000,,,,0.000000,2.000000,2.000000,0.000000,4.000000,2.000000,2.000000,0.000000,0.000000,4.000000,4.000000,4.000000,4.000000,4.000000,4.000000,0.000000,,,,,,,,,,,,,,,,,,,,,,,,,,,,
1732158050.561231,1732158050.564110,111.000000,0.000000,4334.743652,4310.256348,4318.205078,4315.128418,4273.974121,4274.871582,4334.871582,4399.615234,4296.538574,4295.641113,4506.666504,4523.077148,4384.102539,4472.948730,1564.000000,1.000000,22.000000,,,,0.000000,2.000000,2.000000,0.000000,4.000000,2.000000,2.000000,0.000000,0.000000,4.000000,4.000000,4.000000,4.000000,4.000000,4.000000,0.000000,,,,,,,,,,,,,,,,,,,,,,,,,,,,
1732158050.569040,1732158050.571818,112.000000,0.000000,4328.846191,4310.897461,4318.974121,4315.769043,4288.205078,4280.897461,4334.871582,4401.153809,4297.179688,4285.897461,4495.512695,4521.410156,4379.743652,4462.436035,1706.000000,1.000000,22.000000,,,,0.000000,2.000000,2.000000,0.000000,4.000000,2.000000,2.000000,0.000000,0.000000,4.000000,4.000000,4.000000,4.000000,4.000000,4.000000,0.000000,,,,,,,,,,,,,,,,,28.000000,0.000000,0.507193,0.482117,-0.532227,0.476501,0.986937,-0.006837,-0.030277,-35.092781,45.515976,31.598427
1732158050.576848,1732158050.579626,113.000000,0.000000,4326.410156,4310.384766,4320.512695,4311.666504,4298.077148,4268.846191,4334.871582,4400.769043,4295.512695,4278.333496,4491.410156,4516.538574,4378.717773,4458.846191,1599.000000,1.000000,22.000000,,,,0.000000,2.000000,2.000000,0.000000,4.000000,2.000000,2.000000,0.000000,0.000000,4.000000,4.000000,4.000000,4.000000,4.000000,4.000000,0.000000,,,,,,,,,,,,,,,,,,,,,,,,,,,,
1732158050.584656,1732158050.587634,114.000000,0.000000,4327.692383,4310.769043,4321.153809,4310.769043,4274.871582,4263.205078,4334.871582,4399.487305,4297.307617,4284.102539,4495.000000,4518.846191,4379.487305,4463.077148,1546.000000,1.000000,22.000000,,,,0.000000,2.000000,2.000000,0.000000,4.000000,2.000000,2.000000,0.000000,0.000000,4.000000,4.000000,4.000000,4.000000,4.000000,4.000000,0.000000,,,,,,,,,,,,,,,,,,,,,,,,,,,,
1732158050.592465,1732158050.595442,115.000000,0.000000,4327.948730,4310.897461,4318.846191,4316.025879,4258.974121,4276.410156,4334.871582,4398.461426,4306.282227,4295.256348,4494.487305,4521.794922,4379.615234,4462.820313,1564.000000,1.000000,22.000000,,,,0.000000,2.000000,2.000000,0.000000,4.000000,2.000000,2.000000,0.000000,0.000000,4.000000,4.000000,4.000000,4.000000,4.000000,4.000000,0.000000,,,,,,,,,,,,,,,,,,,,,,,,,,,,
1732158050.600273,1732158050.603350,116.000000,0.000000,4325.897461,4311.282227,4317.692383,4318.589844,4274.358887,4282.692383,4334.871582,4398.717773,4304.743652,4293.717773,4491.282227,4517.307617,4373.717773,4457.948730,1706.000000,1.000000,22.000000,,,,0.000000,2.000000,2.000000,0.000000,4.000000,2.000000,2.000000,0.000000,0.000000,4.000000,4.000000,4.000000,4.000000,4.000000,4.000000,0.000000,,,,,,,,,,,,,,,,,29.000000,0.000000,0.506778,0.482117,-0.532349,0.476807,0.982053,-0.022464,-0.024905,-35.106819,45.259605,31.484726
1732158050.608081,1732158050.611159,117.000000,0.000000,4327.307617,4312.820313,4320.512695,4317.051270,4283.974121,4277.692383,4334.871582,4399.487305,4297.692383,4288.333496,4494.615234,4519.358887,4371.794922,4458.333496,1599.000000,1.000000,22.000000,,,,0.000000,2.000000,2.000000,0.000000,4.000000,2.000000,2.000000,0.000000,0.000000,4.000000,4.000000,4.000000,4.000000,4.000000,4.000000,0.000000,,,,,,,,,,,,,,,,,,,,,,,,,,,,
1732158050.615889,1732158050.618767,118.000000,0.000000,4327.179688,4313.461426,4319.487305,4315.897461,4277.692383,4277.820313,4334.871582,4400.897461,4303.846191,4295.641113,4498.077148,4525.897461,4378.589844,4459.102539,1546.000000,1.000000,22.000000,,,,0.000000,2.000000,2.000000,0.000000,4.000000,2.000000,2.000000,0.000000,0.000000,4.000000,4.000000,4.000000,4.000000,4.000000,4.000000,0.000000,,,,,,,,,,,,,,,,,,,,,,,,,,,,
1732158050.623697,1732158050.626575,119.000000,0.000000,4323.589844,4311.282227,4315.641113,4317.820313,4278.846191,4280.256348,4334.871582,4401.410156,4306.794922,4297.307617,4493.589844,4520.384766,4370.384766,4452.436035,1564.000000,1.000000,22.000000,,,,0.000000,2.000000,2.000000,0.000000,4.000000,2.000000,2.000000,0.000000,0.000000,4.000000,4.000000,4.000000,4.000000,4.000000,4.000000,0.000000,,,,,,,,,,,,,,,,,,,,,,,,,,,,
1732158050.631506,1732158050.634284,120.000000,0.000000,4323.589844,4311.410156,4317.307617,4317.948730,4282.436035,4277.820313,4334.871582,4400.512695,4295.512695,4284.743652,4488.717773,4514.871582,4356.666504,4445.512695,1706.000000,1.000000,22.000000,,,,0.000000,2.000000,2.000000,0.000000,4.000000,2.000000,2.000000,0.000000,0.000000,4.000000,4.000000,4.000000,4.000000,4.000000,4.000000,0.000000,,,,,,,,,,,,,,,,,30.000000,0.000000,0.506055,0.482056,-0.532654,0.477295,0.976682,-0.039067,-0.031254,-35.121525,45.315281,31.682627
1732158050.639314,1732158050.642092,121.000000,0.000000,4325.384766,4312.436035,4321.153809,4314.743652,4282.692383,4279.358887,4334.871582,4400.000000,4293.461426,4278.717773,4487.307617,4517.307617,4360.512695,4445.128418,1599.000000,1.000000,22.000000,,,,0.000000,2.000000,2.000000,0.000000,4.000000,2.000000,2.000000,0.000000,0.000000,4.000000,4.000000,4.000000,4.000000,4.000000,4.000000,0.000000,,,,,,,,,,,,,,,,,,,,,,,,,,,,
1732158050.647122,1732158050.649700,122.000000,0.000000,4324.743652,4311.153809,4319.487305,4320.769043,4282.307617,4282.563965,4334.871582,4399.487305,4298.717773,4282.436035,4487.820313,4516.025879,4362.307617,4446.025879,1546.000000,1.000000,22.000000,,,,0.000000,2.000000,2.000000,0.000000,4.000000,2.000000,2.000000,0.000000,0.000000,4.000000,4.000000,4.000000,4.000000,4.000000,4.000000,0.000000,,,,,,,,,,,,,,,,,,,,,,,,,,,,
1732158050.654930,1732158050.657508,123.000000,0.000000,4325.641113,4314.358887,4318.205078,4328.974121,4285.512695,4274.743652,4334.871582,4399.358887,4292.820313,4280.256348,4488.846191,4516.666504,4351.666504,4447.307617,1564.000000,1.000000,22.000000,,,,0.000000,2.000000,2.000000,0.000000,4.000000,2.000000,2.000000,0.000000,0.000000,4.000000,4.000000,4.000000,4.000000,4.000000,4.000000,0.000000,,,,,,,,,,,,,,,,,,,,,,,,,,,,
1732158050.662739,1732158050.665417,124.000000,0.000000,4328.333496,4318.205078,4320.897461,4328.846191,4289.871582,4268.846191,4335.128418,4400.256348,4290.256348,4277.948730,4485.128418,4523.846191,4350.384766,4448.205078,1706.000000,1.000000,22.000000,,,,0.000000,2.000000,2.000000,0.000000,4.000000,2.000000,2.000000,0.000000,0.000000,4.000000,4.000000,4.000000,4.000000,4.000000,4.000000,0.000000,,,,,,,,,,,,,,,,,31.000000,0.000000,0.505069,0.481689,-0.533264,0.478027,0.987425,-0.028812,-0.033207,-35.050102,45.410378,31.759594
1732158050.670547,1732158050.673225,125.000000,0.000000,4326.282227,4313.846191,4322.948730,4326.666504,4287.563965,4278.589844,4335.000000,4401.153809,4297.051270,4282.179688,4479.358887,4519.230957,4354.102539,4444.743652,1599.000000,1.000000,22.000000,,,,0.000000,2.000000,2.000000,0.000000,4.000000,2.000000,2.000000,0.000000,0.000000,4.000000,4.000000,4.000000,4.000000,4.000000,4.000000,0.000000,,,,,,,,,,,,,,,,,,,,,,,,,,,,
1732158050.678355,1732158050.681233,126.000000,0.000000,4326.025879,4311.666504,4322.179688,4327.948730,4288.717773,4285.512695,4334.230957,4400.897461,4297.820313,4281.025879,4481.153809,4509.871582,4350.641113,4443.077148,1546.000000,1.000000,22.000000,,,,0.000000,2.000000,2.000000,0.000000,4.000000,2.000000,2.000000,0.000000,0.000000,4.000000,4.000000,4.000000,4.000000,4.000000,4.000000,0.000000,,,,,,,,,,,,,,,,,,,,,,,,,,,,
1732158050.686164,1732158050.689041,127.000000,0.000000,4328.974121,4320.256348,4321.538574,4329.487305,4293.205078,4280.512695,4335.769043,4400.384766,4295.384766,4281.025879,4487.948730,4515.256348,4349.871582,4447.307617,22.000000,1.000000,22.000000,,,,0.000000,2.000000,2.000000,0.000000,4.000000,2.000000,2.000000,0.000000,0.000000,4.000000,4.000000,4.000000,4.000000,4.000000,4.000000,0.000000,,,,,,,,,,,,,,,,,,,,,,,,,,,,
1732158050.693972,1732158050.696949,0.000000,0.000000,4326.282227,4320.512695,4321.666504,4328.461426,4291.794922,4281.410156,4334.743652,4399.743652,4300.641113,4288.717773,4487.179688,4524.358887,4350.384766,4447.307617,0.000000,1.000000,22.000000,,,,0.000000,2.000000,2.000000,0.000000,4.000000,2.000000,2.000000,0.000000,0.000000,4.000000,4.000000,4.000000,4.000000,4.000000,4.000000,0.000000,,,,,,,,,,,,,,,,,0.000000,0.000000,0.504773,0.481628,-0.533325,0.478333,0.981077,-0.040532,-0.046392,-35.160580,45.377407,31.753605
1732158050.701780,1732158050.704757,1.000000,0.000000,4322.436035,4311.666504,4321.153809,4323.589844,4299.871582,4283.974121,4330.641113,4401.282227,4305.641113,4290.000000,4482.179688,4522.820313,4349.743652,4438.077148,1603.000000,1.000000,22.000000,,,,0.000000,2.000000,2.000000,0.000000,4.000000,2.000000,2.000000,0.000000,0.000000,4.000000,4.000000,4.000000,4.000000,4.000000,4.000000,0.000000,,,,,,,,,,,,,,,,,,,,,,,,,,,,
1732158050.709588,1732158050.712765,2.000000,0.000000,4323.846191,4313.589844,4319.230957,4321.025879,4308.205078,4282.051270,4331.666504,4401.666504,4301.282227,4285.384766,4484.615234,4516.666504,4350.897461,4434.871582,1361.000000,1.000000,22.000000,,,,0.000000,2.000000,2.000000,0.000000,4.000000,2.000000,2.000000,0.000000,0.000000,4.000000,4.000000,4.000000,4.000000,4.000000,4.000000,0.000000,,,,,,,,,,,,,,,,,,,,,,,,,,,,
1732158050.717397,1732158050.720573,3.000000,0.000000,4326.922852,4319.615234,4319.615234,4327.820313,4290.384766,4283.205078,4335.384766,4398.846191,4297.563965,4285.512695,4484.358887,4515.128418,4348.974121,4441.282227,1414.000000,1.000000,22.000000,,,,0.000000,2.000000,2.000000,0.000000,4.000000,2.000000,2.000000,0.000000,0.000000,4.000000,4.000000,4.000000,4.000000,4.000000,4.000000,0.000000,,,,,,,,,,,,,,,,,,,,,,,,,,,,
1732158050.725205,1732158050.728282,4.000000,0.000000,4326.538574,4316.282227,4321.410156,4334.102539,4275.128418,4281.666504,4335.128418,4399.102539,4297.307617,4285.000000,4479.358887,4513.846191,4342.948730,4443.589844,1431.000000,1.000000,22.000000,,,,0.000000,2.000000,2.000000,0.000000,4.000000,2.000000,2.000000,0.000000,0.000000,4.000000,4.000000,4.000000,4.000000,4.000000,4.000000,0.000000,,,,,,,,,,,,,,,,,1.000000,0.000000,0.504651,0.481628,-0.533386,0.478394,0.981077,-0.040532,-0.046392,-35.193405,45.685699,31.737087
1732158050.733013,1732158050.736090,5.000000,0.000000,4322.692383,4313.077148,4321.922852,4331.025879,4286.153809,4279.230957,4334.102539,4402.307617,4294.871582,4278.974121,4477.820313,4513.205078,4341.153809,4441.666504,1192.000000,1.000000,22.000000,,,,0.000000,2.000000,2.000000,0.000000,4.000000,2.000000,2.000000,0.000000,0.000000,4.000000,4.000000,4.000000,4.000000,4.000000,4.000000,0.000000,,,,,,,,,,,,,,,,,,,,,,,,,,,,
1732158050.740821,1732158050.744098,6.000000,0.000000,4319.358887,4317.948730,4321.794922,4326.282227,4292.179688,4281.794922,4334.487305,4401.538574,4297.436035,4284.487305,4479.743652,4514.358887,4342.948730,4442.307617,0.000000,1.000000,22.000000,,,,0.000000,2.000000,2.000000,0.000000,4.000000,2.000000,2.000000,0.000000,0.000000,4.000000,4.000000,4.000000,4.000000,4.000000,4.000000,0.000000,,,,,,,,,,,,,,,,,,,,,,,,,,,,
1732158050.748629,1732158050.751906,7.000000,0.000000,4319.871582,4318.077148,4321.922852,4323.974121,4287.179688,4283.974121,4333.974121,4398.846191,4301.410156,4293.846191,4479.615234,4511.794922,4340.512695,4439.358887,0.000000,1.000000,22.000000,,,,0.000000,2.000000,2.000000,0.000000,4.000000,2.000000,2.000000,0.000000,0.000000,4.000000,4.000000,4.000000,4.000000,4.000000,4.000000,0.000000,,,,,,,,,,,,,,,,,,,,,,,,,,,,
1732158050.756438,1732158050.759814,8.000000,0.000000,4320.769043,4313.846191,4320.384766,4324.615234,4289.358887,4281.922852,4334.358887,4398.461426,4298.333496,4287.692383,4478.077148,4507.051270,4338.974121,4434.615234,1533.000000,1.000000,22.000000,,,,0.000000,2.000000,2.000000,0.000000,4.000000,2.000000,2.000000,0.000000,0.000000,4.000000,4.000000,4.000000,4.000000,4.000000,4.000000,0.000000,,,,,,,,,,,,,,,,,2.000000,0.000000,0.504277,0.481873,-0.533081,0.478882,0.964962,-0.040044,-0.036137,-35.198322,45.627083,31.415373
1732158050.764246,1732158050.767623,9.000000,0.000000,4318.205078,4314.102539,4319.743652,4322.948730,4292.179688,4281.153809,4334.615234,4399.743652,4298.974121,4282.307617,4477.692383,4507.179688,4341.153809,4436.282227,1695.000000,1.000000,22.000000,,,,0.000000,2.000000,2.000000,0.000000,4.000000,2.000000,2.000000,0.000000,0.000000,4.000000,4.000000,4.000000,4.000000,4.000000,4.000000,0.000000,,,,,,,,,,,,,,,,,,,,,,,,,,,,
1732158050.772054,1732158050.775631,10.000000,0.000000,4318.717773,4315.384766,4321.794922,4320.897461,4294.743652,4281.794922,4333.077148,4400.769043,4300.769043,4283.846191,4476.922852,4509.102539,4340.641113,4435.256348,1554.000000,1.000000,22.000000,,,,0.000000,2.000000,2.000000,0.000000,4.000000,2.000000,2.000000,0.000000,0.000000,4.000000,4.000000,4.000000,4.000000,4.000000,4.000000,0.000000,,,,,,,,,,,,,,,,,,,,,,,,,,,,
1732158050.779863,1732158050.783439,11.000000,0.000000,4323.461426,4314.743652,4321.538574,4324.230957,4293.717773,4281.025879,4333.717773,4399.358887,4297.436035,4285.641113,4478.077148,4507.563965,4338.461426,4431.025879,1558.000000,1.000000,22.000000,,,,0.000000,2.000000,2.000000,0.000000,4.000000,2.000000,2.000000,0.000000,0.000000,4.000000,4.000000,4.000000,4.000000,4.000000,4.000000,0.000000,,,,,,,,,,,,,,,,,,,,,,,,,,,,
1732158050.787671,1732158050.791347,12.000000,0.000000,4326.410156,4312.307617,4320.384766,4323.589844,4288.077148,4281.410156,4335.128418,4398.846191,4301.282227,4291.025879,4479.358887,4509.743652,4340.128418,4432.307617,1703.000000,1.000000,22.000000,,,,0.000000,2.000000,2.000000,0.000000,4.000000,2.000000,2.000000,0.000000,0.000000,4.000000,4.000000,4.000000,4.000000,4.000000,4.000000,0.000000,,,,,,,,,,,,,,,,,3.000000,0.000000,0.504115,0.482056,-0.532959,0.479004,0.974240,-0.025394,-0.034672,-35.202309,45.696270,31.238119
1732158050.795479,1732158050.799155,13.000000,0.000000,4324.102539,4310.769043,4322.436035,4319.615234,4301.025879,4281.282227,4335.128418,4401.666504,4305.000000,4293.461426,4480.256348,4512.820313,4343.077148,4436.410156,1604.000000,1.000000,22.000000,,,,0.000000,2.000000,2.000000,0.000000,4.000000,2.000000,2.000000,0.000000,0.000000,4.000000,4.000000,4.000000,4.000000,4.000000,4.000000,0.000000,,,,,,,,,,,,,,,,,,,,,,,,,,,,
1732158050.803287,1732158050.806863,14.000000,0.000000,4320.641113,4315.256348,4322.563965,4322.820313,4309.743652,4282.051270,4334.230957,4401.025879,4296.410156,4283.461426,4478.589844,4512.307617,4342.692383,4439.358887,1554.000000,1.000000,22.000000,,,,0.000000,2.000000,2.000000,0.000000,4.000000,2.000000,2.000000,0.000000,0.000000,4.000000,4.000000,4.000000,4.000000,4.000000,4.000000,0.000000,1.000000,0.000000,2.000000,2.000000,0.000000,4.000000,2.000000,2.000000,0.000000,0.000000,4.000000,4.000000,4.000000,4.000000,4.000000,4.000000,,,,,,,,,,,,
1732158050.811096,1732158050.814672,15.000000,0.000000,4320.769043,4320.128418,4319.358887,4328.205078,4287.563965,4282.563965,4333.717773,4398.589844,4295.641113,4278.333496,4479.358887,4509.615234,4341.153809,4439.102539,1558.000000,1.000000,22.000000,,,,0.000000,2.000000,2.000000,0.000000,4.000000,2.000000,2.000000,0.000000,0.000000,4.000000,4.000000,4.000000,4.000000,4.000000,4.000000,0.000000,,,,,,,,,,,,,,,,,,,,,,,,,,,,
1732158050.818904,1732158050.822580,16.000000,0.000000,4321.410156,4316.410156,4319.358887,4325.256348,4274.871582,4282.307617,4334.615234,4400.256348,4303.461426,4291.153809,4485.256348,4509.615234,4342.307617,4437.436035,0.000000,1.000000,22.000000,,,,0.000000,2.000000,2.000000,0.000000,4.000000,2.000000,2.000000,0.000000,0.000000,4.000000,4.000000,4.000000,4.000000,4.000000,4.000000,0.000000,,,,,,,,,,,,,,,,,4.000000,0.000000,0.504064,0.482117,-0.532898,0.479065,0.967403,-0.027835,-0.037602,-35.495537,45.555645,31.176210
1732158050.826712,1732158050.830388,17.000000,0.000000,4321.282227,4314.487305,4319.615234,4322.820313,4284.230957,4281.922852,4334.358887,4400.512695,4300.769043,4298.205078,4483.461426,4511.153809,4342.692383,4434.871582,0.000000,1.000000,22.000000,,,,0.000000,2.000000,2.000000,0.000000,4.000000,2.000000,2.000000,0.000000,0.000000,4.000000,4.000000,4.000000,4.000000,4.000000,4.000000,0.000000,,,,,,,,,,,,,,,,,,,,,,,,,,,,
1732158050.834520,1732158050.837996,18.000000,0.000000,4321.794922,4317.307617,4319.358887,4325.000000,4285.897461,4280.641113,4332.692383,4398.589844,4295.512695,4288.077148,4475.512695,4509.102539,4334.358887,4430.256348,0.000000,1.000000,22.000000,,,,0.000000,2.000000,2.000000,0.000000,4.000000,2.000000,2.000000,0.000000,0.000000,4.000000,4.000000,4.000000,4.000000,4.000000,4.000000,0.000000,,,,,,,,,,,,,,,,,,,,,,,,,,,,
1732158050.842328,1732158050.845805,19.000000,0.000000,4319.871582,4314.230957,4320.128418,4323.589844,4285.256348,4281.282227,4333.717773,4398.974121,4294.871582,4279.102539,4475.000000,4506.794922,4328.333496,4432.307617,0.000000,1.000000,22.000000,,,,0.000000,2.000000,2.000000,0.000000,4.000000,2.000000,2.000000,0.000000,0.000000,4.000000,4.000000,4.000000,4.000000,4.000000,4.000000,0.000000,,,,,,,,,,,,,,,,,,,,,,,,,,,,
1732158050.850137,1732158050.853513,20.000000,0.000000,4317.948730,4310.769043,4320.000000,4321.666504,4290.128418,4285.641113,4335.384766,4401.025879,4294.743652,4280.512695,4478.974121,4506.025879,4333.077148,4440.256348,0.000000,1.000000,22.000000,,,,0.000000,2.000000,2.000000,0.000000,4.000000,2.000000,2.000000,0.000000,0.000000,4.000000,4.000000,4.000000,4.000000,4.000000,4.000000,0.000000,,,,,,,,,,,,,,,,,5.000000,0.000000,0.504005,0.482178,-0.532898,0.479065,0.981565,-0.020510,-0.032230,-35.306385,45.355072,31.332729
1732158050.857945,1732158050.861321,21.000000,0.000000,4319.743652,4312.436035,4320.000000,4322.051270,4287.948730,4288.205078,4334.358887,4403.205078,4295.384766,4280.000000,4477.563965,4505.769043,4332.948730,4440.000000,0.000000,1.000000,22.000000,,,,0.000000,2.000000,2.000000,0.000000,4.000000,2.000000,2.000000,0.000000,0.000000,4.000000,4.000000,4.000000,4.000000,4.000000,4.000000,0.000000,,,,,,,,,,,,,,,,,,,,,,,,,,,,
1732158050.865753,1732158050.868929,22.000000,0.000000,4318.589844,4311.794922,4321.410156,4318.846191,4285.256348,4285.897461,4333.461426,4401.794922,4294.871582,4276.922852,4476.025879,4506.666504,4325.769043,4433.974121,0.000000,1.000000,22.000000,,,,0.000000,2.000000,2.000000,0.000000,4.000000,2.000000,2.000000,0.000000,0.000000,4.000000,4.000000,4.000000,4.000000,4.000000,4.000000,0.000000,,,,,,,,,,,,,,,,,,,,,,,,,,,,
1732158050.873562,1732158050.876738,23.000000,0.000000,4314.871582,4309.230957,4319.487305,4315.000000,4283.333496,4282.051270,4334.871582,4398.205078,4293.717773,4279.230957,4477.307617,4508.205078,4324.615234,4434.102539,0.000000,1.000000,22.000000,,,,0.000000,2.000000,2.000000,0.000000,4.000000,2.000000,2.000000,0.000000,0.000000,4.000000,4.000000,4.000000,4.000000,4.000000,4.000000,0.000000,,,,,,,,,,,,,,,,,,,,,,,,,,,,
1732158050.881370,1732158050.884446,24.000000,0.000000,4317.948730,4311.025879,4317.563965,4318.974121,4279.615234,4276.153809,4335.256348,4399.230957,4295.000000,4282.436035,4477.692383,4511.922852,4326.410156,4436.282227,0.000000,1.000000,22.000000,,,,0.000000,2.000000,2.000000,0.000000,4.000000,2.000000,2.000000,0.000000,0.000000,4.000000,4.000000,4.000000,4.000000,4.000000,4.000000,0.000000,,,,,,,,,,,,,,,,,6.000000,0.000000,0.504097,0.481873,-0.533142,0.479004,0.983518,-0.028324,-0.036626,-35.424839,45.204277,31.416178
1732158050.889178,1732158050.892254,25.000000,0.000000,4322.179688,4312.692383,4320.641113,4326.153809,4283.974121,4279.102539,4334.230957,4401.666504,4296.025879,4282.820313,4476.538574,4515.769043,4326.538574,4433.846191,0.000000,1.000000,22.000000,,,,0.000000,2.000000,2.000000,0.000000,4.000000,2.000000,2.000000,0.000000,0.000000,4.000000,4.000000,4.000000,4.000000,4.000000,4.000000,0.000000,,,,,,,,,,,,,,,,,,,,,,,,,,,,
1732158050.896986,1732158050.899863,26.000000,0.000000,4319.230957,4312.692383,4323.077148,4325.769043,4292.051270,4294.102539,4333.461426,4400.000000,4294.743652,4281.538574,4474.487305,4509.615234,4325.000000,4430.128418,0.000000,1.000000,22.000000,,,,0.000000,2.000000,2.000000,0.000000,4.000000,2.000000,2.000000,0.000000,0.000000,4.000000,4.000000,4.000000,4.000000,4.000000,4.000000,0.000000,,,,,,,,,,,,,,,,,,,,,,,,,,,,
1732158050.904795,1732158050.907671,27.000000,0.000000,4314.487305,4312.307617,4320.384766,4321.153809,4295.769043,4299.615234,4333.333496,4400.384766,4296.666504,4280.384766,4473.974121,4502.436035,4320.384766,4426.794922,0.000000,1.000000,22.000000,,,,0.000000,2.000000,2.000000,0.000000,4.000000,2.000000,2.000000,0.000000,0.000000,4.000000,4.000000,4.000000,4.000000,4.000000,4.000000,0.000000,,,,,,,,,,,,,,,,,,,,,,,,,,,,
1732158050.912603,1732158050.915579,28.000000,0.000000,4311.922852,4312.820313,4316.538574,4320.641113,4292.948730,4296.282227,4333.974121,4403.717773,4302.436035,4286.282227,4474.358887,4505.384766,4321.794922,4428.205078,0.000000,1.000000,22.000000,,,,0.000000,2.000000,2.000000,0.000000,4.000000,2.000000,2.000000,0.000000,0.000000,4.000000,4.000000,4.000000,4.000000,4.000000,4.000000,0.000000,,,,,,,,,,,,,,,,,7.000000,0.000000,0.504298,0.481506,-0.533447,0.478821,0.966427,-0.028812,-0.034184,-35.264118,45.123798,31.425438
1732158050.920411,1732158050.923387,29.000000,0.000000,4310.897461,4312.051270,4316.666504,4319.871582,4296.538574,4297.307617,4333.974121,4403.846191,4303.205078,4291.410156,4473.974121,4504.871582,4328.974121,4429.102539,0.000000,1.000000,22.000000,,,,0.000000,2.000000,2.000000,0.000000,4.000000,2.000000,2.000000,0.000000,0.000000,4.000000,4.000000,4.000000,4.000000,4.000000,4.000000,0.000000,,,,,,,,,,,,,,,,,,,,,,,,,,,,
1732158050.928219,1732158050.930996,30.000000,0.000000,4315.384766,4311.666504,4319.102539,4319.743652,4307.692383,4292.563965,4333.846191,4401.794922,4296.025879,4283.333496,4473.974121,4503.077148,4326.153809,4427.307617,0.000000,1.000000,22.000000,,,,0.000000,2.000000,2.000000,0.000000,4.000000,2.000000,2.000000,0.000000,0.000000,4.000000,4.000000,4.000000,4.000000,4.000000,4.000000,0.000000,,,,,,,,,,,,,,,,,,,,,,,,,,,,
1732158050.936027,1732158050.938804,31.000000,0.000000,4320.897461,4314.743652,4318.846191,4324.487305,4296.922852,4277.948730,4333.974121,4400.641113,4290.641113,4278.717773,4478.717773,4515.128418,4324.102539,4431.922852,0.000000,1.000000,22.000000,,,,0.000000,2.000000,2.000000,0.000000,4.000000,2.000000,2.000000,0.000000,0.000000,4.000000,4.000000,4.000000,4.000000,4.000000,4.000000,0.000000,,,,,,,,,,,,,,,,,,,,,,,,,,,,
1732158050.943836,1732158050.946512,32.000000,0.000000,4317.692383,4314.615234,4317.563965,4323.846191,4273.717773,4275.897461,4333.974121,4399.358887,4292.307617,4288.589844,4481.538574,4520.512695,4331.922852,4435.512695,0.000000,1.000000,22.000000,,,,0.000000,2.000000,2.000000,0.000000,4.000000,2.000000,2.000000,0.000000,0.000000,4.000000,4.000000,4.000000,4.000000,4.000000,4.000000,0.000000,,,,,,,,,,,,,,,,,8.000000,0.000000,0.504298,0.481506,-0.533447,0.478821,0.984495,-0.023929,-0.043462,-35.268936,45.313610,31.417938
1732158050.951644,1732158050.954320,33.000000,0.000000,4310.769043,4310.256348,4319.871582,4315.641113,4273.846191,4286.666504,4333.974121,4399.230957,4297.948730,4295.769043,4478.077148,4511.153809,4332.820313,4430.256348,0.000000,1.000000,22.000000,,,,0.000000,2.000000,2.000000,0.000000,4.000000,2.000000,2.000000,0.000000,0.000000,4.000000,4.000000,4.000000,4.000000,4.000000,4.000000,0.000000,,,,,,,,,,,,,,,,,,,,,,,,,,,,
1732158050.959452,1732158050.961929,34.000000,0.000000,4310.128418,4310.384766,4320.641113,4313.589844,4284.102539,4291.538574,4333.846191,4399.871582,4305.256348,4295.256348,4477.307617,4508.077148,4328.333496,4427.692383,0.000000,1.000000,22.000000,,,,0.000000,2.000000,2.000000,0.000000,4.000000,2.000000,2.000000,0.000000,0.000000,4.000000,4.000000,4.000000,4.000000,4.000000,4.000000,0.000000,,,,,,,,,,,,,,,,,,,,,,,,,,,,
1732158050.967260,1732158050.969737,35.000000,0.000000,4311.282227,4312.179688,4318.974121,4318.333496,4284.871582,4292.179688,4333.846191,4399.615234,4308.333496,4292.563965,4478.333496,4510.641113,4326.794922,4428.846191,0.000000,1.000000,22.000000,,,,0.000000,2.000000,2.000000,0.000000,4.000000,2.000000,2.000000,0.000000,0.000000,4.000000,4.000000,4.000000,4.000000,4.000000,4.000000,0.000000,,,,,,,,,,,,,,,,,,,,,,,,,,,,
1732158050.975069,1732158050.977445,36.000000,0.000000,4310.000000,4311.666504,4318.717773,4322.820313,4290.256348,4295.512695,4334.487305,4398.333496,4302.051270,4289.487305,4475.512695,4506.410156,4327.179688,4422.820313,0.000000,1.000000,22.000000,,,,0.000000,2.000000,2.000000,0.000000,4.000000,2.000000,2.000000,0.000000,0.000000,4.000000,4.000000,4.000000,4.000000,4.000000,4.000000,0.000000,,,,,,,,,,,,,,,,,9.000000,0.000000,0.504337,0.481323,-0.533630,0.478760,0.989379,-0.024417,-0.037602,-35.437840,45.242355,31.445196
1732158050.982877,1732158050.985253,37.000000,0.000000,4311.538574,4312.307617,4319.615234,4325.000000,4295.256348,4294.358887,4335.128418,4400.000000,4298.974121,4291.153809,4474.487305,4503.846191,4331.794922,4422.436035,0.000000,1.000000,22.000000,,,,0.000000,2.000000,2.000000,0.000000,4.000000,2.000000,2.000000,0.000000,0.000000,4.000000,4.000000,4.000000,4.000000,4.000000,4.000000,0.000000,,,,,,,,,,,,,,,,,,,,,,,,,,,,
1732158050.990685,1732158050.992862,38.000000,0.000000,4314.487305,4311.410156,4317.051270,4321.794922,4292.948730,4288.333496,4334.743652,4402.307617,4303.077148,4296.153809,4476.153809,4509.743652,4334.230957,4427.820313,0.000000,1.000000,22.000000,,,,0.000000,2.000000,2.000000,0.000000,4.000000,2.000000,2.000000,0.000000,0.000000,4.000000,4.000000,4.000000,4.000000,4.000000,4.000000,0.000000,,,,,,,,,,,,,,,,,,,,,,,,,,,,
1732158050.998494,1732158051.000670,39.000000,0.000000,4313.717773,4308.717773,4315.769043,4318.461426,4287.307617,4284.871582,4334.615234,4401.153809,4304.487305,4298.717773,4475.769043,4510.000000,4327.692383,4423.589844,0.000000,1.000000,22.000000,,,,0.000000,2.000000,2.000000,0.000000,4.000000,2.000000,2.000000,0.000000,0.000000,4.000000,4.000000,4.000000,4.000000,4.000000,4.000000,0.000000,,,,,,,,,,,,,,,,,,,,,,,,,,,,
1732158051.006302,1732158051.008578,40.000000,0.000000,4311.025879,4309.615234,4318.589844,4319.743652,4289.615234,4282.820313,4334.871582,4402.051270,4296.282227,4291.922852,4476.922852,4503.846191,4325.000000,4421.538574,0.000000,1.000000,22.000000,,,,0.000000,2.000000,2.000000,0.000000,4.000000,2.000000,2.000000,0.000000,0.000000,4.000000,4.000000,4.000000,4.000000,4.000000,4.000000,0.000000,,,,,,,,,,,,,,,,,10.000000,0.000000,0.503852,0.481812,-0.533264,0.479187,0.979123,-0.013185,-0.029300,-35.326317,45.226307,31.242275
1732158051.014110,1732158051.016386,41.000000,0.000000,4310.897461,4311.153809,4320.256348,4319.615234,4305.769043,4278.205078,4335.000000,4401.794922,4286.153809,4280.128418,4476.410156,4504.743652,4332.692383,4428.077148,0.000000,1.000000,22.000000,,,,0.000000,2.000000,2.000000,0.000000,4.000000,2.000000,2.000000,0.000000,0.000000,4.000000,4.000000,4.000000,4.000000,4.000000,4.000000,0.000000,,,,,,,,,,,,,,,,,,,,,,,,,,,,
1732158051.021918,1732158051.024394,42.000000,0.000000,4312.436035,4312.948730,4317.179688,4317.820313,4301.666504,4278.461426,4334.743652,4399.487305,4289.230957,4279.743652,4475.256348,4510.769043,4336.410156,4430.000000,0.000000,1.000000,22.000000,,,,0.000000,2.000000,2.000000,0.000000,4.000000,2.000000,2.000000,0.000000,0.000000,4.000000,4.000000,4.000000,4.000000,4.000000,4.000000,0.000000,,,,,,,,,,,,,,,,,,,,,,,,,,,,
1732158051.029726,1732158051.032203,43.000000,0.000000,4313.333496,4314.615234,4315.256348,4320.769043,4276.922852,4280.769043,4334.743652,4399.358887,4296.794922,4291.538574,4483.717773,4512.820313,4333.974121,4428.333496,0.000000,1.000000,22.000000,,,,0.000000,2.000000,2.000000,0.000000,4.000000,2.000000,2.000000,0.000000,0.000000,4.000000,4.000000,4.000000,4.000000,4.000000,4.000000,0.000000,,,,,,,,,,,,,,,,,,,,,,,,,,,,
1732158051.037535,1732158051.039911,44.000000,0.000000,4313.461426,4315.128418,4319.487305,4326.538574,4274.743652,4282.692383,4334.743652,4399.358887,4296.410156,4295.256348,4489.358887,4508.974121,4333.589844,4427.948730,0.000000,1.000000,22.000000,,,,0.000000,2.000000,2.000000,0.000000,4.000000,2.000000,2.000000,0.000000,0.000000,4.000000,4.000000,4.000000,4.000000,4.000000,4.000000,0.000000,,,,,,,,,,,,,,,,,11.000000,0.000000,0.504072,0.481628,-0.533386,0.479004,0.979123,-0.013185,-0.029300,-35.612648,45.499977,31.576242
1732158051.045343,1732158051.047719,45.000000,0.000000,4314.230957,4314.487305,4319.871582,4326.922852,4285.897461,4285.641113,4334.743652,4398.333496,4298.974121,4294.615234,4482.820313,4509.102539,4336.025879,4427.307617,0.000000,1.000000,22.000000,,,,0.000000,2.000000,2.000000,0.000000,4.000000,2.000000,2.000000,0.000000,0.000000,4.000000,4.000000,4.000000,4.000000,4.000000,4.000000,0.000000,,,,,,,,,,,,,,,,,,,,,,,,,,,,
1732158051.053151,1732158051.055727,46.000000,0.000000,4313.077148,4312.436035,4316.922852,4320.384766,4286.153809,4283.461426,4334.871582,4399.615234,4302.820313,4294.615234,4476.922852,4512.051270,4333.846191,4426.025879,0.000000,1.000000,22.000000,,,,0.000000,2.000000,2.000000,0.000000,4.000000,2.000000,2.000000,0.000000,0.000000,4.000000,4.000000,4.000000,4.000000,4.000000,4.000000,0.000000,,,,,,,,,,,,,,,,,,,,,,,,,,,,
1732158051.060959,1732158051.063535,47.000000,0.000000,4311.410156,4308.717773,4318.846191,4316.153809,4295.000000,4281.282227,4334.487305,4401.794922,4297.307617,4284.871582,4475.128418,4512.307617,4326.922852,4423.205078,0.000000,1.000000,22.000000,,,,0.000000,2.000000,2.000000,0.000000,4.000000,2.000000,2.000000,0.000000,0.000000,4.000000,4.000000,4.000000,4.000000,4.000000,4.000000,0.000000,,,,,,,,,,,,,,,,,,,,,,,,,,,,
1732158051.068768,1732158051.071244,48.000000,0.000000,4315.897461,4310.897461,4322.307617,4318.974121,4296.794922,4286.538574,4335.000000,4401.153809,4291.922852,4281.025879,4478.077148,4514.615234,4331.922852,4424.230957,0.000000,1.000000,22.000000,,,,0.000000,2.000000,2.000000,0.000000,4.000000,2.000000,2.000000,0.000000,0.000000,4.000000,4.000000,4.000000,4.000000,4.000000,4.000000,0.000000,,,,,,,,,,,,,,,,,12.000000,0.000000,0.504014,0.481628,-0.533386,0.479065,0.971798,-0.034672,-0.044927,-35.427914,45.533314,31.491756
1732158051.076576,1732158051.079052,49.000000,0.000000,4323.461426,4316.025879,4320.641113,4324.487305,4277.051270,4284.743652,4336.410156,4401.025879,4295.384766,4289.871582,4485.769043,4522.051270,4341.025879,4433.589844,0.000000,1.000000,22.000000,,,,0.000000,2.000000,2.000000,0.000000,4.000000,2.000000,2.000000,0.000000,0.000000,4.000000,4.000000,4.000000,4.000000,4.000000,4.000000,0.000000,,,,,,,,,,,,,,,,,,,,,,,,,,,,
1732158051.084384,1732158051.087060,50.000000,0.000000,4326.666504,4317.051270,4319.487305,4333.077148,4270.897461,4274.615234,4336.410156,4401.794922,4296.282227,4294.358887,4493.846191,4531.922852,4341.410156,4441.666504,0.000000,1.000000,22.000000,,,,0.000000,2.000000,2.000000,0.000000,4.000000,2.000000,2.000000,0.000000,0.000000,4.000000,4.000000,4.000000,4.000000,4.000000,4.000000,0.000000,,,,,,,,,,,,,,,,,,,,,,,,,,,,
1732158051.092193,1732158051.094868,51.000000,0.000000,4331.666504,4322.563965,4320.897461,4341.794922,4278.974121,4274.102539,4335.128418,4400.000000,4293.974121,4292.692383,4501.794922,4540.256348,4349.871582,4447.563965,0.000000,1.000000,22.000000,,,,0.000000,2.000000,2.000000,0.000000,4.000000,2.000000,2.000000,0.000000,0.000000,4.000000,4.000000,4.000000,4.000000,4.000000,4.000000,0.000000,,,,,,,,,,,,,,,,,,,,,,,,,,,,
1732158051.100001,1732158051.102776,52.000000,0.000000,4336.538574,4330.256348,4320.256348,4340.000000,4281.153809,4276.410156,4334.743652,4398.589844,4292.948730,4293.589844,4504.871582,4543.974121,4361.538574,4451.282227,0.000000,1.000000,22.000000,,,,0.000000,2.000000,2.000000,0.000000,4.000000,2.000000,2.000000,0.000000,0.000000,4.000000,4.000000,4.000000,4.000000,4.000000,4.000000,0.000000,,,,,,,,,,,,,,,,,13.000000,0.000000,0.504131,0.481445,-0.533386,0.479126,0.968868,-0.041509,-0.035649,-35.551609,45.461987,31.408323
1732158051.107809,1732158051.110584,53.000000,0.000000,4326.410156,4324.358887,4319.615234,4330.256348,4281.025879,4277.692383,4335.000000,4399.358887,4293.589844,4291.922852,4495.897461,4536.410156,4351.666504,4441.538574,0.000000,1.000000,22.000000,,,,0.000000,2.000000,2.000000,0.000000,4.000000,2.000000,2.000000,0.000000,0.000000,4.000000,4.000000,4.000000,4.000000,4.000000,4.000000,0.000000,,,,,,,,,,,,,,,,,,,,,,,,,,,,
1732158051.115617,1732158051.118592,54.000000,0.000000,4311.282227,4311.282227,4319.743652,4321.282227,4279.615234,4283.589844,4335.256348,4401.666504,4297.692383,4291.153809,4485.769043,4524.743652,4336.282227,4428.077148,0.000000,1.000000,22.000000,,,,0.000000,2.000000,2.000000,0.000000,4.000000,2.000000,2.000000,0.000000,0.000000,4.000000,4.000000,4.000000,4.000000,4.000000,4.000000,0.000000,,,,,,,,,,,,,,,,,,,,,,,,,,,,
1732158051.123426,1732158051.126401,55.000000,0.000000,4309.487305,4309.230957,4318.717773,4317.948730,4282.563965,4282.692383,4334.743652,4400.000000,4297.692383,4296.794922,4484.615234,4525.128418,4342.820313,4427.051270,0.000000,1.000000,22.000000,,,,0.000000,2.000000,2.000000,0.000000,4.000000,2.000000,2.000000,0.000000,0.000000,4.000000,4.000000,4.000000,4.000000,4.000000,4.000000,0.000000,,,,,,,,,,,,,,,,,,,,,,,,,,,,
1732158051.131234,1732158051.134109,56.000000,0.000000,4312.179688,4313.333496,4315.256348,4315.641113,4297.820313,4278.717773,4334.102539,4399.615234,4293.077148,4294.743652,4480.000000,4527.307617,4352.436035,4428.205078,0.000000,1.000000,22.000000,,,,0.000000,2.000000,2.000000,0.000000,4.000000,2.000000,2.000000,0.000000,0.000000,4.000000,4.000000,4.000000,4.000000,4.000000,4.000000,0.000000,,,,,,,,,,,,,,,,,14.000000,0.000000,0.504066,0.481384,-0.533447,0.479187,0.968868,-0.041509,-0.035649,-35.770138,45.340874,31.235743
1732158051.139042,1732158051.141917,57.000000,0.000000,4309.615234,4310.897461,4312.820313,4313.205078,4291.025879,4282.436035,4336.410156,4405.000000,4295.384766,4288.333496,4472.948730,4520.897461,4350.256348,4424.102539,0.000000,1.000000,22.000000,,,,0.000000,2.000000,2.000000,0.000000,4.000000,2.000000,2.000000,0.000000,0.000000,4.000000,4.000000,4.000000,4.000000,4.000000,4.000000,0.000000,,,,,,,,,,,,,,,,,,,,,,,,,,,,
1732158051.146850,1732158051.149925,58.000000,0.000000,4310.641113,4312.436035,4316.025879,4318.077148,4266.538574,4283.717773,4333.974121,4405.897461,4297.820313,4292.948730,4481.666504,4522.436035,4358.205078,4425.769043,0.000000,1.000000,22.000000,,,,0.000000,2.000000,2.000000,0.000000,4.000000,2.000000,2.000000,0.000000,0.000000,4.000000,4.000000,4.000000,4.000000,4.000000,4.000000,0.000000,,,,,,,,,,,,,,,,,,,,,,,,,,,,
1732158051.154658,1732158051.157733,59.000000,0.000000,4315.256348,4322.307617,4320.256348,4321.025879,4267.563965,4280.000000,4328.077148,4401.410156,4297.436035,4301.282227,4496.410156,4532.820313,4373.205078,4433.077148,0.000000,1.000000,22.000000,,,,0.000000,2.000000,2.000000,0.000000,4.000000,2.000000,2.000000,0.000000,0.000000,4.000000,4.000000,4.000000,4.000000,4.000000,4.000000,0.000000,,,,,,,,,,,,,,,,,,,,,,,,,,,,
1732158051.162467,1732158051.165641,60.000000,0.000000,4311.282227,4326.153809,4318.461426,4314.358887,4280.384766,4281.153809,4331.410156,4399.871582,4301.410156,4299.230957,4491.282227,4528.333496,4371.922852,4426.410156,0.000000,1.000000,22.000000,,,,0.000000,2.000000,2.000000,0.000000,4.000000,2.000000,2.000000,0.000000,0.000000,4.000000,4.000000,4.000000,4.000000,4.000000,4.000000,0.000000,,,,,,,,,,,,,,,,,15.000000,0.000000,0.504112,0.481323,-0.533569,0.479065,0.984007,-0.029300,-0.032230,-35.813812,45.529442,31.570951
1732158051.170275,1732158051.173450,61.000000,0.000000,4304.615234,4326.538574,4314.358887,4309.871582,4280.256348,4282.051270,4336.794922,4401.282227,4300.769043,4290.512695,4473.077148,4515.512695,4365.128418,4412.948730,0.000000,1.000000,22.000000,,,,0.000000,2.000000,2.000000,0.000000,4.000000,2.000000,2.000000,0.000000,0.000000,4.000000,4.000000,4.000000,4.000000,4.000000,4.000000,0.000000,,,,,,,,,,,,,,,,,,,,,,,,,,,,
1732158051.178083,1732158051.181458,62.000000,0.000000,4306.666504,4332.051270,4315.128418,4309.358887,4274.743652,4279.871582,4334.487305,4402.692383,4298.589844,4289.230957,4476.794922,4518.461426,4372.820313,4414.102539,0.000000,1.000000,22.000000,,,,0.000000,2.000000,2.000000,0.000000,4.000000,2.000000,2.000000,0.000000,0.000000,4.000000,4.000000,4.000000,4.000000,4.000000,4.000000,0.000000,,,,,,,,,,,,,,,,,,,,,,,,,,,,
1732158051.185892,1732158051.189266,63.000000,0.000000,4305.128418,4337.820313,4318.846191,4304.615234,4271.922852,4278.717773,4333.717773,4401.538574,4305.000000,4297.692383,4490.641113,4526.153809,4384.871582,4421.282227,0.000000,1.000000,22.000000,,,,0.000000,2.000000,2.000000,0.000000,4.000000,2.000000,2.000000,0.000000,0.000000,4.000000,4.000000,4.000000,4.000000,4.000000,4.000000,0.000000,,,,,,,,,,,,,,,,,,,,,,,,,,,,
1732158051.193700,1732158051.196974,64.000000,0.000000,4296.282227,4344.743652,4318.974121,4303.077148,4283.077148,4279.102539,4336.282227,4400.256348,4303.589844,4297.820313,4483.717773,4516.794922,4383.205078,4416.410156,0.000000,1.000000,22.000000,,,,0.000000,2.000000,2.000000,0.000000,4.000000,2.000000,2.000000,0.000000,0.000000,4.000000,4.000000,4.000000,4.000000,4.000000,4.000000,0.000000,,,,,,,,,,,,,,,,,16.000000,0.000000,0.504158,0.480347,-0.534241,0.479248,0.988402,-0.039556,-0.024905,-35.814186,45.260513,31.585804
1732158051.201508,1732158051.204782,65.000000,0.000000,4293.717773,4350.897461,4317.820313,4304.102539,4294.615234,4281.922852,4334.358887,4404.615234,4294.487305,4282.820313,4472.563965,4507.948730,4372.307617,4410.000000,1598.000000,1.000000,22.000000,,,,0.000000,2.000000,2.000000,0.000000,4.000000,2.000000,2.000000,0.000000,0.000000,4.000000,4.000000,4.000000,4.000000,4.000000,4.000000,0.000000,,,,,,,,,,,,,,,,,,,,,,,,,,,,
1732158051.209316,1732158051.212391,66.000000,0.000000,4296.922852,4352.563965,4317.563965,4305.128418,4275.769043,4282.692383,4333.205078,4406.153809,4301.794922,4282.436035,4476.025879,4516.538574,4369.743652,4414.102539,1361.000000,1.000000,22.000000,,,,0.000000,2.000000,2.000000,0.000000,4.000000,2.000000,2.000000,0.000000,0.000000,4.000000,4.000000,4.000000,4.000000,4.000000,4.000000,0.000000,,,,,,,,,,,,,,,,,,,,,,,,,,,,
1732158051.217125,1732158051.220199,67.000000,0.000000,4296.666504,4350.128418,4318.205078,4309.743652,4255.769043,4280.769043,4335.128418,4398.589844,4308.589844,4295.000000,4478.589844,4521.538574,4372.051270,4415.256348,1412.000000,1.000000,22.000000,,,,0.000000,2.000000,2.000000,0.000000,4.000000,2.000000,2.000000,0.000000,0.000000,4.000000,4.000000,4.000000,4.000000,4.000000,4.000000,0.000000,,,,,,,,,,,,,,,,,,,,,,,,,,,,
1732158051.224933,1732158051.227907,68.000000,0.000000,4294.487305,4346.794922,4318.077148,4309.743652,4267.179688,4281.538574,4334.871582,4395.769043,4299.615234,4289.358887,4471.922852,4513.461426,4369.102539,4408.589844,1432.000000,1.000000,22.000000,,,,0.000000,2.000000,2.000000,0.000000,4.000000,2.000000,2.000000,0.000000,0.000000,4.000000,4.000000,4.000000,4.000000,4.000000,4.000000,0.000000,,,,,,,,,,,,,,,,,17.000000,0.000000,0.503718,0.480164,-0.534546,0.479553,0.977170,-0.040044,-0.035649,-35.787823,45.214352,31.604502
1732158051.232741,1732158051.235715,69.000000,0.000000,4294.230957,4348.333496,4318.974121,4307.948730,4272.948730,4283.205078,4334.487305,4401.282227,4294.230957,4278.333496,4468.333496,4508.846191,4365.897461,4405.128418,1202.000000,1.000000,22.000000,,,,0.000000,2.000000,2.000000,0.000000,4.000000,2.000000,2.000000,0.000000,0.000000,4.000000,4.000000,4.000000,4.000000,4.000000,4.000000,0.000000,,,,,,,,,,,,,,,,,,,,,,,,,,,,
1732158051.240549,1732158051.243524,70.000000,0.000000,4294.102539,4351.922852,4319.487305,4312.051270,4270.897461,4284.615234,4334.743652,4401.410156,4295.769043,4280.128418,4467.563965,4505.000000,4363.205078,4403.589844,0.000000,1.000000,22.000000,,,,0.000000,2.000000,2.000000,0.000000,4.000000,2.000000,2.000000,0.000000,0.000000,4.000000,4.000000,4.000000,4.000000,4.000000,4.000000,0.000000,,,,,,,,,,,,,,,,,,,,,,,,,,,,
1732158051.248357,1732158051.251332,71.000000,0.000000,4293.333496,4346.410156,4318.077148,4310.384766,4290.769043,4285.128418,4334.743652,4398.333496,4295.641113,4281.025879,4459.230957,4496.922852,4356.025879,4401.922852,0.000000,1.000000,22.000000,,,,0.000000,2.000000,2.000000,0.000000,4.000000,2.000000,2.000000,0.000000,0.000000,4.000000,4.000000,4.000000,4.000000,4.000000,4.000000,0.000000,,,,,,,,,,,,,,,,,,,,,,,,,,,,
1732158051.256166,1732158051.259040,72.000000,0.000000,4292.051270,4337.820313,4316.666504,4302.051270,4297.692383,4286.025879,4334.743652,4400.384766,4301.538574,4285.897461,4457.692383,4500.512695,4356.282227,4406.025879,1528.000000,1.000000,22.000000,,,,0.000000,2.000000,2.000000,0.000000,4.000000,2.000000,2.000000,0.000000,0.000000,4.000000,4.000000,4.000000,4.000000,4.000000,4.000000,0.000000,,,,,,,,,,,,,,,,,18.000000,0.000000,0.503634,0.479980,-0.534790,0.479553,0.972775,-0.031254,-0.015139,-36.081470,45.110291,31.711313
1732158051.263974,1732158051.266848,73.000000,0.000000,4293.974121,4340.512695,4315.512695,4305.384766,4274.871582,4288.717773,4334.743652,4401.922852,4310.512695,4298.589844,4471.794922,4508.589844,4367.692383,4411.538574,1695.000000,1.000000,22.000000,,,,0.000000,2.000000,2.000000,0.000000,4.000000,2.000000,2.000000,0.000000,0.000000,4.000000,4.000000,4.000000,4.000000,4.000000,4.000000,0.000000,,,,,,,,,,,,,,,,,,,,,,,,,,,,
1732158051.271782,1732158051.274457,74.000000,0.000000,4297.436035,4343.077148,4315.256348,4312.436035,4267.179688,4295.256348,4334.743652,4400.641113,4302.563965,4293.333496,4473.461426,4505.384766,4368.846191,4412.307617,1544.000000,1.000000,22.000000,,,,0.000000,2.000000,2.000000,0.000000,4.000000,2.000000,2.000000,0.000000,0.000000,4.000000,4.000000,4.000000,4.000000,4.000000,4.000000,0.000000,,,,,,,,,,,,,,,,,,,,,,,,,,,,
1732158051.279590,1732158051.282265,75.000000,0.000000,4296.666504,4337.436035,4317.179688,4310.000000,4280.641113,4295.897461,4334.743652,4399.487305,4294.615234,4285.128418,4465.641113,4503.333496,4362.820313,4413.461426,1558.000000,1.000000,22.000000,,,,0.000000,2.000000,2.000000,0.000000,4.000000,2.000000,2.000000,0.000000,0.000000,4.000000,4.000000,4.000000,4.000000,4.000000,4.000000,0.000000,,,,,,,,,,,,,,,,,,,,,,,,,,,,
1732158051.287399,1732158051.289973,76.000000,0.000000,4296.153809,4335.000000,4319.871582,4310.769043,4283.077148,4285.000000,4334.743652,4400.384766,4305.128418,4296.538574,4472.436035,4511.410156,4366.538574,4416.538574,1698.000000,1.000000,22.000000,,,,0.000000,2.000000,2.000000,0.000000,4.000000,2.000000,2.000000,0.000000,0.000000,4.000000,4.000000,4.000000,4.000000,4.000000,4.000000,0.000000,,,,,,,,,,,,,,,,,19.000000,0.000000,0.503227,0.480103,-0.534790,0.479858,0.963008,-0.033207,-0.023929,-36.044327,45.084335,31.547831
1732158051.295207,1732158051.297782,77.000000,0.000000,4297.436035,4336.922852,4317.948730,4316.282227,4278.717773,4278.205078,4334.743652,4401.666504,4304.743652,4294.871582,4470.384766,4507.307617,4367.051270,4415.000000,1593.000000,1.000000,22.000000,,,,0.000000,2.000000,2.000000,0.000000,4.000000,2.000000,2.000000,0.000000,0.000000,4.000000,4.000000,4.000000,4.000000,4.000000,4.000000,0.000000,,,,,,,,,,,,,,,,,,,,,,,,,,,,
1732158051.303015,1732158051.305390,78.000000,0.000000,4297.820313,4335.769043,4317.692383,4316.538574,4283.077148,4284.615234,4334.615234,4400.897461,4295.000000,4284.230957,4458.974121,4496.666504,4359.358887,4413.846191,1544.000000,1.000000,22.000000,,,,0.000000,2.000000,2.000000,0.000000,4.000000,2.000000,2.000000,0.000000,0.000000,4.000000,4.000000,4.000000,4.000000,4.000000,4.000000,0.000000,1.000000,0.000000,2.000000,2.000000,0.000000,4.000000,2.000000,2.000000,0.000000,0.000000,4.000000,4.000000,4.000000,4.000000,3.000000,4.000000,,,,,,,,,,,,
1732158051.310824,1732158051.313198,79.000000,0.000000,4297.051270,4329.358887,4317.948730,4310.512695,4286.922852,4292.307617,4334.743652,4400.641113,4300.256348,4290.641113,4466.153809,4500.256348,4358.846191,4416.282227,1558.000000,1.000000,22.000000,,,,0.000000,2.000000,2.000000,0.000000,4.000000,2.000000,2.000000,0.000000,0.000000,4.000000,4.000000,4.000000,4.000000,4.000000,4.000000,0.000000,,,,,,,,,,,,,,,,,,,,,,,,,,,,
1732158051.318632,1732158051.320906,80.000000,0.000000,4294.871582,4324.230957,4315.641113,4305.128418,4297.179688,4287.051270,4334.871582,4402.307617,4302.307617,4290.512695,4470.256348,4503.333496,4362.307617,4415.128418,1698.000000,1.000000,22.000000,,,,0.000000,2.000000,2.000000,0.000000,4.000000,2.000000,2.000000,0.000000,0.000000,4.000000,4.000000,4.000000,4.000000,4.000000,4.000000,0.000000,,,,,,,,,,,,,,,,,20.000000,0.000000,0.502281,0.480835,-0.534363,0.480591,0.963497,-0.051764,-0.025882,-35.880905,45.011646,31.587076
1732158051.326440,1732158051.328715,81.000000,0.000000,4293.461426,4327.948730,4313.205078,4303.717773,4304.487305,4282.563965,4334.487305,4402.692383,4296.922852,4282.563965,4455.897461,4492.820313,4356.410156,4411.794922,1593.000000,1.000000,22.000000,,,,0.000000,2.000000,2.000000,0.000000,4.000000,2.000000,2.000000,0.000000,0.000000,4.000000,4.000000,4.000000,4.000000,4.000000,4.000000,0.000000,,,,,,,,,,,,,,,,,,,,,,,,,,,,
1732158051.334248,1732158051.336323,82.000000,0.000000,4295.256348,4332.179688,4313.461426,4310.769043,4291.922852,4293.205078,4335.128418,4399.743652,4306.025879,4291.153809,4457.179688,4494.102539,4353.717773,4410.641113,1544.000000,1.000000,22.000000,,,,0.000000,2.000000,2.000000,0.000000,4.000000,2.000000,2.000000,0.000000,0.000000,4.000000,4.000000,4.000000,4.000000,4.000000,4.000000,0.000000,,,,,,,,,,,,,,,,,,,,,,,,,,,,
1732158051.342056,1732158051.344131,83.000000,0.000000,4297.820313,4331.538574,4315.000000,4313.589844,4274.871582,4300.512695,4336.410156,4397.820313,4305.641113,4298.205078,4466.794922,4504.743652,4361.666504,4412.307617,1558.000000,1.000000,22.000000,,,,0.000000,2.000000,2.000000,0.000000,4.000000,2.000000,2.000000,0.000000,0.000000,4.000000,4.000000,4.000000,4.000000,4.000000,4.000000,0.000000,,,,,,,,,,,,,,,,,,,,,,,,,,,,
1732158051.349865,1732158051.351840,84.000000,0.000000,4296.538574,4329.487305,4314.615234,4301.538574,4277.179688,4289.615234,4336.153809,4401.025879,4293.717773,4292.820313,4461.794922,4501.153809,4363.717773,4413.205078,1698.000000,1.000000,22.000000,,,,0.000000,2.000000,2.000000,0.000000,4.000000,2.000000,2.000000,0.000000,0.000000,4.000000,4.000000,4.000000,4.000000,4.000000,4.000000,0.000000,,,,,,,,,,,,,,,,,21.000000,0.000000,0.502100,0.480835,-0.534424,0.480713,0.985472,-0.035649,-0.037602,-35.781864,44.919434,31.248865
1732158051.357673,1732158051.359648,85.000000,0.000000,4297.307617,4330.384766,4314.358887,4299.615234,4297.179688,4276.410156,4334.871582,4403.461426,4299.102539,4292.820313,4461.538574,4495.897461,4359.230957,4411.025879,1593.000000,1.000000,22.000000,,,,0.000000,2.000000,2.000000,0.000000,4.000000,2.000000,2.000000,0.000000,0.000000,4.000000,4.000000,4.000000,4.000000,4.000000,4.000000,0.000000,,,,,,,,,,,,,,,,,,,,,,,,,,,,
1732158051.365481,1732158051.367256,86.000000,0.000000,4302.051270,4335.512695,4319.230957,4314.487305,4295.000000,4278.333496,4334.487305,4401.666504,4301.666504,4295.128418,4474.230957,4507.436035,4364.871582,4413.717773,1544.000000,1.000000,22.000000,,,,0.000000,2.000000,2.000000,0.000000,4.000000,2.000000,2.000000,0.000000,0.000000,4.000000,4.000000,4.000000,4.000000,4.000000,4.000000,0.000000,,,,,,,,,,,,,,,,,,,,,,,,,,,,
1732158051.373289,1732158051.375064,87.000000,0.000000,4300.384766,4336.922852,4320.897461,4315.897461,4275.128418,4284.358887,4334.743652,4400.769043,4294.871582,4294.871582,4480.769043,4516.666504,4374.487305,4419.358887,1558.000000,1.000000,22.000000,,,,0.000000,2.000000,2.000000,0.000000,4.000000,2.000000,2.000000,0.000000,0.000000,4.000000,4.000000,4.000000,4.000000,4.000000,4.000000,0.000000,,,,,,,,,,,,,,,,,,,,,,,,,,,,
1732158051.381098,1732158051.382773,88.000000,0.000000,4294.230957,4334.102539,4315.641113,4306.025879,4280.641113,4281.282227,4334.615234,4402.692383,4303.333496,4295.897461,4475.128418,4510.897461,4370.256348,4417.563965,1698.000000,1.000000,22.000000,,,,0.000000,2.000000,2.000000,0.000000,4.000000,2.000000,2.000000,0.000000,0.000000,4.000000,4.000000,4.000000,4.000000,4.000000,4.000000,0.000000,,,,,,,,,,,,,,,,,22.000000,0.000000,0.501729,0.480774,-0.534607,0.480957,0.982053,-0.041021,-0.033696,-35.728310,45.029739,31.359913
1732158051.388906,1732158051.390581,89.000000,0.000000,4295.512695,4334.102539,4314.743652,4311.153809,4291.410156,4278.333496,4334.487305,4401.922852,4311.282227,4298.717773,4473.205078,4507.948730,4364.230957,4412.692383,1593.000000,1.000000,22.000000,,,,0.000000,2.000000,2.000000,0.000000,4.000000,2.000000,2.000000,0.000000,0.000000,4.000000,4.000000,4.000000,4.000000,4.000000,4.000000,0.000000,,,,,,,,,,,,,,,,,,,,,,,,,,,,
1732158051.396714,1732158051.398189,90.000000,0.000000,4294.871582,4330.641113,4318.717773,4314.102539,4277.948730,4288.461426,4335.128418,4400.384766,4311.410156,4308.974121,4479.615234,4511.666504,4371.153809,4412.436035,1544.000000,1.000000,22.000000,,,,0.000000,2.000000,2.000000,0.000000,4.000000,2.000000,2.000000,0.000000,0.000000,4.000000,4.000000,4.000000,4.000000,4.000000,4.000000,0.000000,,,,,,,,,,,,,,,,,,,,,,,,,,,,
1732158051.404523,1732158051.405998,91.000000,0.000000,4291.666504,4325.512695,4317.051270,4304.102539,4272.179688,4293.333496,4336.410156,4402.179688,4315.769043,4307.948730,4478.717773,4508.589844,4371.666504,4411.282227,1558.000000,1.000000,22.000000,,,,0.000000,2.000000,2.000000,0.000000,4.000000,2.000000,2.000000,0.000000,0.000000,4.000000,4.000000,4.000000,4.000000,4.000000,4.000000,0.000000,,,,,,,,,,,,,,,,,,,,,,,,,,,,
1732158051.412331,1732158051.413906,92.000000,0.000000,4296.794922,4329.871582,4316.538574,4308.717773,4287.692383,4282.179688,4335.256348,4401.410156,4308.333496,4293.846191,4472.436035,4503.461426,4363.589844,4410.000000,1698.000000,1.000000,22.000000,,,,0.000000,2.000000,2.000000,0.000000,4.000000,2.000000,2.000000,0.000000,0.000000,4.000000,4.000000,4.000000,4.000000,4.000000,4.000000,0.000000,,,,,,,,,,,,,,,,,23.000000,0.000000,0.501579,0.480469,-0.534912,0.481079,0.980100,-0.027835,-0.024905,-35.709930,45.035755,31.638197
1732158051.420139,1732158051.421714,93.000000,0.000000,4303.589844,4337.820313,4318.846191,4319.102539,4284.615234,4277.051270,4333.461426,4399.487305,4298.589844,4298.077148,4477.051270,4511.666504,4368.589844,4415.769043,1593.000000,1.000000,22.000000,,,,0.000000,2.000000,2.000000,0.000000,4.000000,2.000000,2.000000,0.000000,0.000000,4.000000,4.000000,4.000000,4.000000,4.000000,4.000000,0.000000,,,,,,,,,,,,,,,,,,,,,,,,,,,,
1732158051.427947,1732158051.429722,94.000000,0.000000,4306.922852,4339.871582,4317.307617,4319.102539,4285.384766,4282.179688,4335.512695,4400.256348,4305.769043,4305.769043,4481.794922,4517.563965,4374.871582,4421.666504,1544.000000,1.000000,22.000000,,,,0.000000,2.000000,2.000000,0.000000,4.000000,2.000000,2.000000,0.000000,0.000000,4.000000,4.000000,4.000000,4.000000,4.000000,4.000000,0.000000,,,,,,,,,,,,,,,,,,,,,,,,,,,,
1732158051.435756,1732158051.437530,95.000000,0.000000,4309.743652,4339.358887,4318.589844,4317.179688,4310.128418,4282.436035,4336.410156,4401.410156,4309.102539,4296.282227,4474.871582,4512.307617,4365.384766,4419.102539,1558.000000,1.000000,22.000000,,,,0.000000,2.000000,2.000000,0.000000,4.000000,2.000000,2.000000,0.000000,0.000000,4.000000,4.000000,4.000000,4.000000,4.000000,4.000000,0.000000,,,,,,,,,,,,,,,,,,,,,,,,,,,,
1732158051.443564,1732158051.445238,96.000000,0.000000,4309.743652,4339.615234,4319.230957,4317.692383,4307.307617,4280.256348,4333.205078,4399.743652,4305.000000,4299.358887,4477.692383,4511.282227,4361.153809,4418.717773,1698.000000,1.000000,22.000000,,,,0.000000,2.000000,2.000000,0.000000,4.000000,2.000000,2.000000,0.000000,0.000000,4.000000,4.000000,4.000000,4.000000,4.000000,4.000000,0.000000,,,,,,,,,,,,,,,,,24.000000,0.000000,0.501618,0.480347,-0.535095,0.480957,0.975217,-0.049811,-0.026370,-35.826710,44.982296,31.816938
1732158051.451372,1732158051.453047,97.000000,0.000000,4310.256348,4341.794922,4317.307617,4319.230957,4280.897461,4282.820313,4334.230957,4398.333496,4310.000000,4311.153809,4489.871582,4515.256348,4369.102539,4426.538574,1593.000000,1.000000,22.000000,,,,0.000000,2.000000,2.000000,0.000000,4.000000,2.000000,2.000000,0.000000,0.000000,4.000000,4.000000,4.000000,4.000000,4.000000,4.000000,0.000000,,,,,,,,,,,,,,,,,,,,,,,,,,,,
1732158051.459180,1732158051.461055,98.000000,0.000000,4308.333496,4341.794922,4317.179688,4323.974121,4276.794922,4283.333496,4338.333496,4398.205078,4311.666504,4302.692383,4490.256348,4512.820313,4368.717773,4427.692383,1544.000000,1.000000,22.000000,,,,0.000000,2.000000,2.000000,0.000000,4.000000,2.000000,2.000000,0.000000,0.000000,4.000000,4.000000,4.000000,4.000000,4.000000,4.000000,0.000000,,,,,,,,,,,,,,,,,,,,,,,,,,,,
1732158051.466988,1732158051.468863,99.000000,0.000000,4300.384766,4333.077148,4318.846191,4319.102539,4296.025879,4280.641113,4336.922852,4399.102539,4305.512695,4293.589844,4484.743652,4511.282227,4360.384766,4420.769043,1558.000000,1.000000,22.000000,,,,0.000000,2.000000,2.000000,0.000000,4.000000,2.000000,2.000000,0.000000,0.000000,4.000000,4.000000,4.000000,4.000000,4.000000,4.000000,0.000000,,,,,,,,,,,,,,,,,,,,,,,,,,,,
1732158051.474797,1732158051.476771,100.000000,0.000000,4298.717773,4326.794922,4318.461426,4308.333496,4305.256348,4282.051270,4333.461426,4400.128418,4308.974121,4298.589844,4487.179688,4513.589844,4357.948730,4420.256348,1698.000000,1.000000,22.000000,,,,0.000000,2.000000,2.000000,0.000000,4.000000,2.000000,2.000000,0.000000,0.000000,4.000000,4.000000,4.000000,4.000000,4.000000,4.000000,0.000000,,,,,,,,,,,,,,,,,25.000000,0.000000,0.501825,0.480103,-0.535339,0.480713,0.977170,-0.024905,-0.038579,-35.732971,45.048992,32.168388
1732158051.482605,1732158051.484579,101.000000,0.000000,4305.256348,4325.384766,4318.589844,4313.717773,4292.820313,4288.333496,4334.102539,4400.128418,4314.358887,4298.717773,4488.974121,4511.794922,4357.948730,4422.179688,1593.000000,1.000000,22.000000,,,,0.000000,2.000000,2.000000,0.000000,4.000000,2.000000,2.000000,0.000000,0.000000,4.000000,4.000000,4.000000,4.000000,4.000000,4.000000,0.000000,,,,,,,,,,,,,,,,,,,,,,,,,,,,
1732158051.490413,1732158051.492587,102.000000,0.000000,4307.820313,4325.256348,4319.615234,4322.179688,4279.615234,4285.897461,4335.384766,4400.769043,4310.512695,4292.820313,4486.794922,4515.000000,4353.846191,4417.307617,1544.000000,1.000000,22.000000,,,,0.000000,2.000000,2.000000,0.000000,4.000000,2.000000,2.000000,0.000000,0.000000,4.000000,4.000000,4.000000,4.000000,4.000000,4.000000,0.000000,,,,,,,,,,,,,,,,,,,,,,,,,,,,
1732158051.498222,1732158051.500395,103.000000,0.000000,4309.871582,4328.077148,4318.589844,4319.615234,4284.487305,4278.205078,4334.487305,4401.666504,4305.769043,4294.487305,4489.871582,4523.461426,4353.333496,4420.641113,1558.000000,1.000000,22.000000,,,,0.000000,2.000000,2.000000,0.000000,4.000000,2.000000,2.000000,0.000000,0.000000,4.000000,4.000000,4.000000,4.000000,4.000000,4.000000,0.000000,,,,,,,,,,,,,,,,,,,,,,,,,,,,
1732158051.506030,1732158051.508303,104.000000,0.000000,4311.153809,4320.769043,4318.077148,4314.230957,4300.512695,4286.025879,4334.743652,4401.025879,4312.436035,4299.102539,4491.282227,4524.871582,4352.051270,4429.615234,1698.000000,1.000000,22.000000,,,,0.000000,2.000000,2.000000,0.000000,4.000000,2.000000,2.000000,0.000000,0.000000,4.000000,4.000000,4.000000,4.000000,4.000000,4.000000,0.000000,,,,,,,,,,,,,,,,,26.000000,0.000000,0.501980,0.480042,-0.535522,0.480408,0.988890,-0.029300,-0.037602,-35.682037,45.133018,31.869728
1732158051.513838,1732158051.516112,105.000000,0.000000,4311.025879,4309.358887,4319.102539,4313.717773,4293.589844,4291.153809,4336.025879,4401.410156,4321.410156,4300.897461,4490.256348,4523.205078,4345.897461,4426.922852,1593.000000,1.000000,22.000000,,,,0.000000,2.000000,2.000000,0.000000,4.000000,2.000000,2.000000,0.000000,0.000000,4.000000,4.000000,4.000000,4.000000,4.000000,4.000000,0.000000,,,,,,,,,,,,,,,,,,,,,,,,,,,,
1732158051.521646,1732158051.524120,106.000000,0.000000,4310.128418,4311.410156,4318.461426,4314.358887,4288.333496,4280.128418,4335.897461,4402.820313,4315.897461,4297.820313,4486.282227,4522.179688,4344.230957,4419.230957,1544.000000,1.000000,22.000000,,,,0.000000,2.000000,2.000000,0.000000,4.000000,2.000000,2.000000,0.000000,0.000000,4.000000,4.000000,4.000000,4.000000,4.000000,4.000000,0.000000,,,,,,,,,,,,,,,,,,,,,,,,,,,,
1732158051.529455,1732158051.531928,107.000000,0.000000,4302.692383,4309.743652,4317.051270,4312.692383,4309.615234,4280.512695,4335.000000,4402.820313,4309.487305,4296.410156,4479.230957,4516.410156,4342.948730,4415.769043,1558.000000,1.000000,22.000000,,,,0.000000,2.000000,2.000000,0.000000,4.000000,2.000000,2.000000,0.000000,0.000000,4.000000,4.000000,4.000000,4.000000,4.000000,4.000000,0.000000,,,,,,,,,,,,,,,,,,,,,,,,,,,,
1732158051.537263,1732158051.539836,108.000000,0.000000,4297.692383,4301.666504,4317.179688,4311.025879,4308.974121,4290.000000,4334.871582,4401.538574,4313.205078,4297.820313,4476.410156,4511.794922,4335.384766,4416.153809,1698.000000,1.000000,22.000000,,,,0.000000,2.000000,2.000000,0.000000,4.000000,2.000000,2.000000,0.000000,0.000000,4.000000,4.000000,4.000000,4.000000,4.000000,4.000000,0.000000,,,,,,,,,,,,,,,,,27.000000,0.000000,0.501870,0.480347,-0.535461,0.480286,0.985472,-0.037114,-0.023440,-35.674118,45.167744,31.677813
1732158051.545071,1732158051.547644,109.000000,0.000000,4298.846191,4300.512695,4317.948730,4308.717773,4286.410156,4291.922852,4335.128418,4399.743652,4312.307617,4293.717773,4474.102539,4509.615234,4329.743652,4414.102539,1593.000000,1.000000,22.000000,,,,0.000000,2.000000,2.000000,0.000000,4.000000,2.000000,2.000000,0.000000,0.000000,4.000000,4.000000,4.000000,4.000000,4.000000,4.000000,0.000000,,,,,,,,,,,,,,,,,,,,,,,,,,,,
1732158051.552879,1732158051.555652,110.000000,0.000000,4299.230957,4294.487305,4317.051270,4312.051270,4285.384766,4294.615234,4335.000000,4397.692383,4307.692383,4293.333496,4474.615234,4511.794922,4330.769043,4412.436035,1544.000000,1.000000,22.000000,,,,0.000000,2.000000,2.000000,0.000000,4.000000,2.000000,2.000000,0.000000,0.000000,4.000000,4.000000,4.000000,4.000000,4.000000,4.000000,0.000000,,,,,,,,,,,,,,,,,,,,,,,,,,,,
1732158051.560687,1732158051.563460,111.000000,0.000000,4299.871582,4280.256348,4317.307617,4317.436035,4305.769043,4298.461426,4335.000000,4397.563965,4310.897461,4297.692383,4480.000000,4520.769043,4329.487305,4412.948730,1558.000000,1.000000,22.000000,,,,0.000000,2.000000,2.000000,0.000000,4.000000,2.000000,2.000000,0.000000,0.000000,4.000000,4.000000,4.000000,4.000000,4.000000,4.000000,0.000000,,,,,,,,,,,,,,,,,,,,,,,,,,,,
1732158051.568496,1732158051.571369,112.000000,0.000000,4300.641113,4271.666504,4319.102539,4313.717773,4314.358887,4293.589844,4335.000000,4399.615234,4310.384766,4296.922852,4480.384766,4523.589844,4328.205078,4412.179688,1698.000000,1.000000,22.000000,,,,0.000000,2.000000,2.000000,0.000000,4.000000,2.000000,2.000000,0.000000,0.000000,4.000000,4.000000,4.000000,4.000000,4.000000,4.000000,0.000000,,,,,,,,,,,,,,,,,28.000000,0.000000,0.501870,0.480347,-0.535461,0.480286,0.968868,-0.037602,-0.035649,-35.551037,45.170872,31.692362
1732158051.576304,1732158051.579177,113.000000,0.000000,4297.436035,4268.589844,4318.461426,4307.051270,4306.282227,4292.179688,4335.000000,4400.897461,4311.153809,4299.358887,4481.794922,4521.666504,4333.333496,4412.179688,1593.000000,1.000000,22.000000,,,,0.000000,2.000000,2.000000,0.000000,4.000000,2.000000,2.000000,0.000000,0.000000,4.000000,4.000000,4.000000,4.000000,4.000000,4.000000,0.000000,,,,,,,,,,,,,,,,,,,,,,,,,,,,
1732158051.584112,1732158051.586885,114.000000,0.000000,4296.794922,4266.282227,4318.974121,4309.615234,4291.153809,4297.948730,4335.000000,4401.538574,4319.743652,4303.461426,4488.205078,4523.333496,4331.666504,4412.436035,1544.000000,1.000000,22.000000,,,,0.000000,2.000000,2.000000,0.000000,4.000000,2.000000,2.000000,0.000000,0.000000,4.000000,4.000000,4.000000,4.000000,4.000000,4.000000,0.000000,,,,,,,,,,,,,,,,,,,,,,,,,,,,
1732158051.591921,1732158051.594693,115.000000,0.000000,4303.589844,4267.179688,4318.717773,4313.461426,4285.769043,4296.282227,4335.000000,4402.563965,4318.717773,4297.692383,4485.512695,4523.205078,4326.666504,4413.333496,1558.000000,1.000000,22.000000,,,,0.000000,2.000000,2.000000,0.000000,4.000000,2.000000,2.000000,0.000000,0.000000,4.000000,4.000000,4.000000,4.000000,4.000000,4.000000,0.000000,,,,,,,,,,,,,,,,,,,,,,,,,,,,
1732158051.599729,1732158051.602402,116.000000,0.000000,4305.256348,4266.410156,4318.333496,4310.256348,4306.666504,4291.666504,4335.000000,4400.384766,4310.128418,4291.794922,4479.358887,4522.051270,4326.794922,4414.743652,1698.000000,1.000000,22.000000,,,,0.000000,2.000000,2.000000,0.000000,4.000000,2.000000,2.000000,0.000000,0.000000,4.000000,4.000000,4.000000,4.000000,4.000000,4.000000,0.000000,,,,,,,,,,,,,,,,,29.000000,0.000000,0.501857,0.480225,-0.535583,0.480286,0.981565,-0.042486,-0.051276,-35.541340,45.075073,31.465813
1732158051.607537,1732158051.610210,117.000000,0.000000,4298.077148,4263.589844,4319.102539,4308.717773,4312.179688,4296.922852,4335.000000,4398.461426,4309.102539,4294.358887,4479.743652,4521.538574,4319.230957,4409.615234,1593.000000,1.000000,22.000000,,,,0.000000,2.000000,2.000000,0.000000,4.000000,2.000000,2.000000,0.000000,0.000000,4.000000,4.000000,4.000000,4.000000,4.000000,4.000000,0.000000,,,,,,,,,,,,,,,,,,,,,,,,,,,,
1732158051.615345,1732158051.617818,118.000000,0.000000,4292.436035,4264.615234,4318.974121,4310.128418,4294.615234,4304.871582,4335.000000,4402.692383,4313.205078,4295.000000,4476.410156,4515.512695,4307.820313,4399.358887,1544.000000,1.000000,22.000000,,,,0.000000,2.000000,2.000000,0.000000,4.000000,2.000000,2.000000,0.000000,0.000000,4.000000,4.000000,4.000000,4.000000,4.000000,4.000000,0.000000,,,,,,,,,,,,,,,,,,,,,,,,,,,,
1732158051.623154,1732158051.625626,119.000000,0.000000,4296.538574,4266.666504,4318.077148,4312.820313,4290.128418,4302.563965,4335.000000,4405.256348,4317.307617,4295.384766,4473.846191,4510.384766,4311.922852,4398.589844,1558.000000,1.000000,22.000000,,,,0.000000,2.000000,2.000000,0.000000,4.000000,2.000000,2.000000,0.000000,0.000000,4.000000,4.000000,4.000000,4.000000,4.000000,4.000000,0.000000,,,,,,,,,,,,,,,,,,,,,,,,,,,,
1732158051.630962,1732158051.633335,120.000000,0.000000,4300.512695,4265.128418,4317.179688,4313.077148,4298.589844,4298.589844,4335.000000,4402.307617,4318.461426,4298.333496,4478.846191,4513.717773,4320.641113,4405.384766,1698.000000,1.000000,22.000000,,,,0.000000,2.000000,2.000000,0.000000,4.000000,2.000000,2.000000,0.000000,0.000000,4.000000,4.000000,4.000000,4.000000,4.000000,4.000000,0.000000,,,,,,,,,,,,,,,,,30.000000,0.000000,0.501252,0.479919,-0.535767,0.481018,0.990355,-0.036626,-0.033696,-35.561817,45.252476,31.460642
1732158051.638770,1732158051.641143,121.000000,0.000000,4294.871582,4260.512695,4316.282227,4306.922852,4312.436035,4302.179688,4335.000000,4400.128418,4312.307617,4294.871582,4476.922852,4514.102539,4312.307617,4408.717773,1593.000000,1.000000,22.000000,,,,0.000000,2.000000,2.000000,0.000000,4.000000,2.000000,2.000000,0.000000,0.000000,4.000000,4.000000,4.000000,4.000000,4.000000,4.000000,0.000000,,,,,,,,,,,,,,,,,,,,,,,,,,,,
1732158051.646578,1732158051.648751,122.000000,0.000000,4292.948730,4260.897461,4316.794922,4305.897461,4318.461426,4305.000000,4335.000000,4400.641113,4312.563965,4292.179688,4474.871582,4515.256348,4306.538574,4410.128418,1544.000000,1.000000,22.000000,,,,0.000000,2.000000,2.000000,0.000000,4.000000,2.000000,2.000000,0.000000,0.000000,4.000000,4.000000,4.000000,4.000000,4.000000,4.000000,0.000000,,,,,,,,,,,,,,,,,,,,,,,,,,,,
1732158051.654386,1732158051.656560,123.000000,0.000000,4295.512695,4258.333496,4318.461426,4311.666504,4303.461426,4303.974121,4335.000000,4400.256348,4321.282227,4296.666504,4479.871582,4520.641113,4313.974121,4409.615234,1558.000000,1.000000,22.000000,,,,0.000000,2.000000,2.000000,0.000000,4.000000,2.000000,2.000000,0.000000,0.000000,4.000000,4.000000,4.000000,4.000000,4.000000,4.000000,0.000000,,,,,,,,,,,,,,,,,,,,,,,,,,,,
1732158051.662195,1732158051.664268,124.000000,0.000000,4287.179688,4249.230957,4319.487305,4306.538574,4285.769043,4302.051270,4334.871582,4399.871582,4319.743652,4296.410156,4478.077148,4518.717773,4314.102539,4401.410156,1698.000000,1.000000,22.000000,,,,0.000000,2.000000,2.000000,0.000000,4.000000,2.000000,2.000000,0.000000,0.000000,4.000000,4.000000,4.000000,4.000000,4.000000,4.000000,0.000000,,,,,,,,,,,,,,,,,31.000000,0.000000,0.501231,0.479797,-0.535950,0.480957,0.990844,-0.036626,-0.036626,-35.711739,45.312840,31.706453
1732158051.670003,1732158051.672076,125.000000,0.000000,4280.000000,4247.436035,4321.153809,4297.179688,4296.153809,4300.128418,4335.000000,4400.128418,4317.179688,4294.358887,4475.769043,4511.153809,4307.307617,4396.282227,1593.000000,1.000000,22.000000,,,,0.000000,2.000000,2.000000,0.000000,4.000000,2.000000,2.000000,0.000000,0.000000,4.000000,4.000000,4.000000,4.000000,4.000000,4.000000,0.000000,,,,,,,,,,,,,,,,,,,,,,,,,,,,
1732158051.677811,1732158051.679684,126.000000,0.000000,4289.358887,4256.794922,4318.333496,4304.871582,4308.461426,4295.897461,4335.128418,4398.974121,4318.205078,4299.230957,4479.871582,4508.846191,4309.871582,4401.025879,1544.000000,1.000000,22.000000,,,,0.000000,2.000000,2.000000,0.000000,4.000000,2.000000,2.000000,0.000000,0.000000,4.000000,4.000000,4.000000,4.000000,4.000000,4.000000,0.000000,,,,,,,,,,,,,,,,,,,,,,,,,,,,
1732158051.685619,1732158051.687493,127.000000,0.000000,4296.153809,4263.974121,4315.512695,4316.025879,4300.128418,4297.820313,4334.615234,4400.128418,4315.769043,4299.487305,4479.743652,4514.871582,4312.948730,4401.410156,22.000000,1.000000,22.000000,,,,0.000000,2.000000,2.000000,0.000000,4.000000,2.000000,2.000000,0.000000,0.000000,4.000000,4.000000,4.000000,4.000000,4.000000,4.000000,0.000000,,,,,,,,,,,,,,,,,,,,,,,,,,,,
1732158051.693428,1732158051.695201,0.000000,0.000000,4292.436035,4262.436035,4317.179688,4310.512695,4308.846191,4301.153809,4335.897461,4401.025879,4314.487305,4293.333496,4475.641113,4520.128418,4308.205078,4396.922852,0.000000,1.000000,22.000000,,,,0.000000,2.000000,2.000000,0.000000,4.000000,2.000000,2.000000,0.000000,0.000000,4.000000,4.000000,4.000000,4.000000,4.000000,4.000000,0.000000,,,,,,,,,,,,,,,,,0.000000,0.000000,0.501231,0.479797,-0.535950,0.480957,0.990844,-0.036626,-0.036626,-35.766510,44.936733,31.413893
1732158051.701236,1732158051.703009,1.000000,0.000000,4293.846191,4262.436035,4315.641113,4306.922852,4324.358887,4299.615234,4338.205078,4399.615234,4315.000000,4293.717773,4476.410156,4521.410156,4308.333496,4399.871582,1601.000000,1.000000,22.000000,,,,0.000000,2.000000,2.000000,0.000000,4.000000,2.000000,2.000000,0.000000,0.000000,4.000000,4.000000,4.000000,4.000000,4.000000,4.000000,0.000000,,,,,,,,,,,,,,,,,,,,,,,,,,,,
