title:five2, start timestamp:1732081688.982771, stop timestamp:1732081718.185645, headset type:EPOCX, headset serial:E5020C3A, headset firmware:730, channels:67, sampling rate:eeg_128;mot_32, samples:3741      , version:2.2, 
Timestamp,OriginalTimestamp,EEG.Counter,EEG.Interpolated,EEG.AF3,EEG.F7,EEG.F3,EEG.FC5,EEG.T7,EEG.P7,EEG.O1,EEG.O2,EEG.P8,EEG.T8,EEG.FC6,EEG.F4,EEG.F8,EEG.AF4,EEG.RawCq,EEG.Battery,EEG.BatteryPercent,MarkerIndex,MarkerType,MarkerValueInt,EEG.MarkerHardware,CQ.AF3,CQ.F7,CQ.F3,CQ.FC5,CQ.T7,CQ.P7,CQ.O1,CQ.O2,CQ.P8,CQ.T8,CQ.FC6,CQ.F4,CQ.F8,CQ.AF4,CQ.Overall,EQ.SampleRateQuality,EQ.OVERALL,EQ.AF3,EQ.F7,EQ.F3,EQ.FC5,EQ.T7,EQ.P7,EQ.O1,EQ.O2,EQ.P8,EQ.T8,EQ.FC6,EQ.F4,EQ.F8,EQ.AF4,MOT.CounterMems,MOT.InterpolatedMems,MOT.Q0,MOT.Q1,MOT.Q2,MOT.Q3,MOT.AccX,MOT.AccY,MOT.AccZ,MOT.MagX,MOT.MagY,MOT.MagZ
1732081688.982771,1732081688.984421,73.000000,0.000000,4273.077148,4262.563965,4270.384766,4266.922852,4239.743652,4239.487305,4255.512695,4236.410156,4230.128418,4229.615234,4312.692383,4362.563965,4230.641113,4272.051270,1479.000000,0.000000,12.000000,,,,0.000000,2.000000,2.000000,0.000000,2.000000,2.000000,2.000000,1.000000,2.000000,4.000000,4.000000,4.000000,4.000000,2.000000,4.000000,25.000000,,,,,,,,,,,,,,,,,,,,,,,,,,,,
1732081688.990579,1732081688.992029,74.000000,0.000000,4276.410156,4262.563965,4269.743652,4267.563965,4238.333496,4234.102539,4254.743652,4233.461426,4225.769043,4231.410156,4314.230957,4360.128418,4231.410156,4280.384766,1369.000000,0.000000,12.000000,,,,0.000000,2.000000,2.000000,0.000000,2.000000,2.000000,2.000000,1.000000,2.000000,4.000000,4.000000,4.000000,4.000000,2.000000,4.000000,25.000000,,,,,,,,,,,,,,,,,,,,,,,,,,,,
1732081688.998388,1732081688.999837,75.000000,0.000000,4276.410156,4260.641113,4268.077148,4270.769043,4235.256348,4235.641113,4255.128418,4233.974121,4225.641113,4229.743652,4315.000000,4362.948730,4231.922852,4280.641113,1508.000000,0.000000,12.000000,,,,0.000000,2.000000,2.000000,0.000000,2.000000,2.000000,2.000000,1.000000,2.000000,4.000000,4.000000,4.000000,4.000000,2.000000,4.000000,25.000000,,,,,,,,,,,,,,,,,,,,,,,,,,,,
1732081689.006196,1732081689.007546,76.000000,0.000000,4278.205078,4260.897461,4270.384766,4268.205078,4236.153809,4238.077148,4256.282227,4237.563965,4229.743652,4230.641113,4314.871582,4365.641113,4234.230957,4276.538574,1738.000000,0.000000,12.000000,,,,0.000000,2.000000,2.000000,0.000000,2.000000,2.000000,2.000000,1.000000,2.000000,4.000000,4.000000,4.000000,4.000000,2.000000,4.000000,25.000000,,,,,,,,,,,,,,,,,19.000000,0.000000,0.632738,0.416870,-0.587219,0.284668,0.964962,0.190453,-0.034672,-73.207382,67.648270,27.944897
1732081689.014004,1732081689.015354,77.000000,0.000000,4281.282227,4260.384766,4269.615234,4265.000000,4236.025879,4239.230957,4253.846191,4234.743652,4227.179688,4232.563965,4314.358887,4366.410156,4231.538574,4278.077148,1696.000000,0.000000,12.000000,,,,0.000000,2.000000,2.000000,0.000000,2.000000,2.000000,2.000000,1.000000,2.000000,4.000000,4.000000,4.000000,4.000000,2.000000,4.000000,25.000000,,,,,,,,,,,,,,,,,,,,,,,,,,,,
1732081689.021812,1732081689.022962,78.000000,0.000000,4282.179688,4257.179688,4267.051270,4265.512695,4227.692383,4235.384766,4254.358887,4233.205078,4223.974121,4233.974121,4314.358887,4367.563965,4233.589844,4280.641113,1369.000000,0.000000,12.000000,,,,0.000000,2.000000,2.000000,0.000000,2.000000,2.000000,2.000000,1.000000,2.000000,4.000000,4.000000,4.000000,4.000000,2.000000,4.000000,25.000000,1.000000,25.000000,2.000000,2.000000,0.000000,2.000000,2.000000,2.000000,1.000000,2.000000,3.000000,3.000000,4.000000,4.000000,2.000000,4.000000,,,,,,,,,,,,
1732081689.029621,1732081689.030770,79.000000,0.000000,4285.769043,4256.922852,4266.282227,4265.256348,4235.512695,4232.436035,4254.102539,4239.615234,4228.589844,4233.205078,4316.794922,4363.461426,4241.666504,4280.128418,1508.000000,0.000000,12.000000,,,,0.000000,2.000000,2.000000,0.000000,2.000000,2.000000,2.000000,1.000000,2.000000,4.000000,4.000000,4.000000,4.000000,2.000000,4.000000,25.000000,,,,,,,,,,,,,,,,,,,,,,,,,,,,
1732081689.037429,1732081689.038678,80.000000,0.000000,4289.102539,4257.948730,4267.820313,4264.358887,4248.205078,4233.461426,4254.358887,4239.487305,4228.846191,4227.948730,4316.922852,4358.461426,4242.051270,4278.846191,1738.000000,0.000000,12.000000,,,,0.000000,2.000000,2.000000,0.000000,2.000000,2.000000,2.000000,1.000000,2.000000,4.000000,4.000000,4.000000,4.000000,2.000000,4.000000,25.000000,,,,,,,,,,,,,,,,,20.000000,0.000000,0.632556,0.416199,-0.587891,0.284668,0.960566,0.183616,-0.038091,-73.261314,67.518433,27.902033
1732081689.045237,1732081689.046487,81.000000,0.000000,4286.666504,4257.692383,4265.128418,4267.436035,4238.205078,4233.717773,4256.025879,4237.948730,4227.692383,4226.410156,4313.205078,4357.563965,4240.384766,4278.717773,1696.000000,0.000000,12.000000,,,,0.000000,2.000000,2.000000,0.000000,2.000000,2.000000,2.000000,1.000000,2.000000,4.000000,4.000000,4.000000,4.000000,2.000000,4.000000,25.000000,,,,,,,,,,,,,,,,,,,,,,,,,,,,
1732081689.053045,1732081689.054495,82.000000,0.000000,4285.128418,4258.846191,4265.128418,4267.948730,4228.077148,4235.256348,4259.615234,4244.230957,4232.692383,4231.666504,4313.846191,4358.077148,4239.615234,4280.769043,1369.000000,0.000000,12.000000,,,,0.000000,2.000000,2.000000,0.000000,2.000000,2.000000,2.000000,1.000000,2.000000,4.000000,4.000000,4.000000,4.000000,2.000000,4.000000,25.000000,,,,,,,,,,,,,,,,,,,,,,,,,,,,
1732081689.060854,1732081689.062303,83.000000,0.000000,4287.948730,4261.538574,4266.025879,4263.333496,4233.974121,4239.487305,4258.205078,4247.051270,4235.897461,4238.205078,4320.256348,4361.666504,4240.384766,4280.641113,1508.000000,0.000000,12.000000,,,,0.000000,2.000000,2.000000,0.000000,2.000000,2.000000,2.000000,1.000000,2.000000,4.000000,4.000000,4.000000,4.000000,2.000000,4.000000,25.000000,,,,,,,,,,,,,,,,,,,,,,,,,,,,
1732081689.068662,1732081689.070211,84.000000,0.000000,4285.000000,4258.589844,4266.282227,4258.333496,4238.461426,4239.102539,4255.256348,4240.769043,4233.846191,4238.717773,4321.922852,4367.692383,4245.128418,4279.358887,1738.000000,0.000000,12.000000,,,,0.000000,2.000000,2.000000,0.000000,2.000000,2.000000,2.000000,1.000000,2.000000,4.000000,4.000000,4.000000,4.000000,2.000000,4.000000,25.000000,,,,,,,,,,,,,,,,,21.000000,0.000000,0.632468,0.416077,-0.588013,0.284790,0.961055,0.179709,-0.035161,-73.354996,67.538261,27.955647
1732081689.076470,1732081689.078019,85.000000,0.000000,4277.692383,4256.666504,4263.205078,4256.153809,4233.846191,4233.461426,4257.179688,4236.666504,4232.436035,4233.974121,4318.974121,4368.077148,4249.358887,4278.589844,1696.000000,0.000000,12.000000,,,,0.000000,2.000000,2.000000,0.000000,2.000000,2.000000,2.000000,1.000000,2.000000,4.000000,4.000000,4.000000,4.000000,2.000000,4.000000,25.000000,,,,,,,,,,,,,,,,,,,,,,,,,,,,
1732081689.084278,1732081689.086027,86.000000,0.000000,4278.333496,4259.358887,4265.256348,4258.205078,4233.333496,4233.846191,4261.922852,4240.641113,4233.205078,4231.666504,4320.384766,4366.922852,4246.538574,4278.717773,1369.000000,0.000000,12.000000,,,,0.000000,2.000000,2.000000,0.000000,2.000000,2.000000,2.000000,1.000000,2.000000,4.000000,4.000000,4.000000,4.000000,2.000000,4.000000,25.000000,,,,,,,,,,,,,,,,,,,,,,,,,,,,
1732081689.092087,1732081689.093835,87.000000,0.000000,4284.230957,4259.743652,4266.410156,4259.615234,4232.820313,4236.538574,4260.769043,4240.384766,4231.922852,4234.102539,4323.717773,4368.717773,4246.922852,4279.230957,1508.000000,0.000000,12.000000,,,,0.000000,2.000000,2.000000,0.000000,2.000000,2.000000,2.000000,1.000000,2.000000,4.000000,4.000000,4.000000,4.000000,2.000000,4.000000,25.000000,,,,,,,,,,,,,,,,,,,,,,,,,,,,
1732081689.099895,1732081689.101544,88.000000,0.000000,4283.974121,4257.436035,4262.307617,4258.205078,4232.436035,4234.615234,4254.102539,4236.410156,4232.436035,4233.205078,4320.769043,4372.820313,4248.077148,4279.358887,1738.000000,0.000000,12.000000,,,,0.000000,2.000000,2.000000,0.000000,2.000000,2.000000,2.000000,1.000000,2.000000,4.000000,4.000000,4.000000,4.000000,2.000000,4.000000,25.000000,,,,,,,,,,,,,,,,,22.000000,0.000000,0.632267,0.415649,-0.588501,0.284851,0.975705,0.189965,-0.032719,-73.414215,67.150993,27.869074
1732081689.107703,1732081689.109352,89.000000,0.000000,4284.358887,4257.436035,4260.769043,4260.512695,4235.641113,4231.410156,4256.153809,4239.102539,4233.846191,4229.358887,4316.538574,4376.282227,4239.871582,4279.743652,1696.000000,0.000000,12.000000,,,,0.000000,2.000000,2.000000,0.000000,2.000000,2.000000,2.000000,1.000000,2.000000,4.000000,4.000000,4.000000,4.000000,2.000000,4.000000,25.000000,,,,,,,,,,,,,,,,,,,,,,,,,,,,
1732081689.115512,1732081689.117360,90.000000,0.000000,4289.230957,4260.512695,4263.717773,4263.077148,4228.205078,4232.051270,4261.538574,4241.538574,4230.897461,4227.563965,4317.436035,4374.102539,4237.436035,4281.282227,1369.000000,0.000000,12.000000,,,,0.000000,2.000000,2.000000,0.000000,2.000000,2.000000,2.000000,1.000000,2.000000,4.000000,4.000000,4.000000,4.000000,2.000000,4.000000,25.000000,,,,,,,,,,,,,,,,,,,,,,,,,,,,
1732081689.123320,1732081689.125168,91.000000,0.000000,4287.436035,4261.025879,4266.025879,4260.256348,4231.794922,4235.256348,4257.692383,4234.871582,4224.615234,4224.358887,4317.179688,4370.256348,4238.205078,4281.666504,1508.000000,0.000000,12.000000,,,,0.000000,2.000000,2.000000,0.000000,2.000000,2.000000,2.000000,1.000000,2.000000,4.000000,4.000000,4.000000,4.000000,2.000000,4.000000,25.000000,,,,,,,,,,,,,,,,,,,,,,,,,,,,
1732081689.131128,1732081689.133076,92.000000,0.000000,4284.487305,4259.230957,4264.871582,4258.333496,4252.820313,4235.128418,4252.307617,4231.922852,4221.794922,4221.153809,4312.563965,4362.051270,4231.666504,4279.871582,1738.000000,0.000000,12.000000,,,,0.000000,2.000000,2.000000,0.000000,2.000000,2.000000,2.000000,1.000000,2.000000,4.000000,4.000000,4.000000,4.000000,2.000000,4.000000,25.000000,,,,,,,,,,,,,,,,,23.000000,0.000000,0.631919,0.414795,-0.589478,0.284851,0.966427,0.187035,-0.049811,-73.320511,66.873970,27.937283
1732081689.138936,1732081689.140884,93.000000,0.000000,4284.871582,4257.820313,4265.512695,4260.128418,4251.538574,4232.820313,4257.307617,4233.717773,4225.384766,4223.077148,4310.897461,4355.384766,4230.000000,4279.102539,1696.000000,0.000000,12.000000,,,,0.000000,2.000000,2.000000,0.000000,2.000000,2.000000,2.000000,1.000000,2.000000,4.000000,4.000000,4.000000,4.000000,2.000000,4.000000,25.000000,,,,,,,,,,,,,,,,,,,,,,,,,,,,
1732081689.146744,1732081689.148892,94.000000,0.000000,4283.205078,4257.563965,4263.974121,4260.897461,4229.230957,4237.051270,4260.128418,4234.487305,4228.846191,4227.179688,4315.897461,4358.333496,4238.333496,4279.358887,1369.000000,0.000000,12.000000,,,,0.000000,2.000000,2.000000,0.000000,2.000000,2.000000,2.000000,1.000000,2.000000,4.000000,4.000000,4.000000,4.000000,2.000000,4.000000,25.000000,,,,,,,,,,,,,,,,,,,,,,,,,,,,
1732081689.154553,1732081689.156701,95.000000,0.000000,4281.153809,4260.641113,4265.384766,4260.769043,4230.384766,4238.846191,4258.846191,4234.358887,4230.000000,4228.846191,4320.384766,4362.051270,4241.410156,4283.974121,1508.000000,0.000000,12.000000,,,,0.000000,2.000000,2.000000,0.000000,2.000000,2.000000,2.000000,1.000000,2.000000,4.000000,4.000000,4.000000,4.000000,2.000000,4.000000,25.000000,,,,,,,,,,,,,,,,,,,,,,,,,,,,
1732081689.162361,1732081689.164609,96.000000,0.000000,4282.436035,4262.307617,4265.128418,4261.153809,4245.384766,4231.282227,4257.051270,4236.025879,4231.666504,4232.563965,4325.512695,4360.641113,4242.051270,4289.102539,1738.000000,0.000000,12.000000,,,,0.000000,2.000000,2.000000,0.000000,2.000000,2.000000,2.000000,1.000000,2.000000,4.000000,4.000000,4.000000,4.000000,2.000000,4.000000,25.000000,,,,,,,,,,,,,,,,,24.000000,0.000000,0.631839,0.414612,-0.589722,0.284790,0.966427,0.187035,-0.049811,-73.242950,66.672920,28.019199
1732081689.170169,1732081689.172417,97.000000,0.000000,4280.512695,4255.000000,4266.282227,4257.179688,4241.025879,4231.922852,4259.102539,4237.307617,4233.589844,4236.153809,4330.384766,4364.487305,4248.846191,4287.307617,1696.000000,0.000000,12.000000,,,,0.000000,2.000000,2.000000,0.000000,2.000000,2.000000,2.000000,1.000000,2.000000,4.000000,4.000000,4.000000,4.000000,2.000000,4.000000,25.000000,,,,,,,,,,,,,,,,,,,,,,,,,,,,
1732081689.177977,1732081689.180425,98.000000,0.000000,4279.358887,4253.077148,4264.487305,4258.589844,4234.615234,4238.461426,4257.948730,4236.410156,4234.230957,4233.974121,4328.974121,4367.051270,4250.512695,4286.922852,1369.000000,0.000000,12.000000,,,,0.000000,2.000000,2.000000,0.000000,2.000000,2.000000,2.000000,1.000000,2.000000,4.000000,4.000000,4.000000,4.000000,2.000000,4.000000,25.000000,,,,,,,,,,,,,,,,,,,,,,,,,,,,
1732081689.185786,1732081689.188233,99.000000,0.000000,4283.205078,4259.102539,4262.563965,4267.179688,4238.461426,4239.102539,4257.436035,4233.846191,4230.897461,4229.743652,4326.794922,4359.743652,4247.179688,4288.205078,1508.000000,0.000000,12.000000,,,,0.000000,2.000000,2.000000,0.000000,2.000000,2.000000,2.000000,1.000000,2.000000,4.000000,4.000000,4.000000,4.000000,2.000000,4.000000,25.000000,,,,,,,,,,,,,,,,,,,,,,,,,,,,
1732081689.193594,1732081689.196141,100.000000,0.000000,4281.410156,4253.333496,4261.025879,4265.384766,4238.077148,4240.128418,4256.666504,4237.179688,4229.358887,4230.000000,4329.871582,4357.692383,4248.461426,4286.153809,1738.000000,0.000000,12.000000,,,,0.000000,2.000000,2.000000,0.000000,2.000000,2.000000,2.000000,1.000000,2.000000,4.000000,4.000000,4.000000,4.000000,2.000000,4.000000,25.000000,,,,,,,,,,,,,,,,,25.000000,0.000000,0.631776,0.413879,-0.590332,0.284729,0.960078,0.190453,-0.038579,-73.320122,66.695061,27.787218
1732081689.201402,1732081689.203950,101.000000,0.000000,4278.974121,4247.820313,4262.307617,4256.666504,4234.743652,4241.153809,4256.025879,4240.641113,4233.461426,4233.461426,4330.128418,4362.179688,4250.512695,4284.487305,1696.000000,0.000000,12.000000,,,,0.000000,2.000000,2.000000,0.000000,2.000000,2.000000,2.000000,1.000000,2.000000,4.000000,4.000000,4.000000,4.000000,2.000000,4.000000,25.000000,,,,,,,,,,,,,,,,,,,,,,,,,,,,
1732081689.209211,1732081689.211958,102.000000,0.000000,4280.256348,4258.846191,4261.538574,4259.230957,4236.025879,4240.256348,4255.512695,4233.205078,4232.820313,4231.922852,4323.974121,4357.563965,4249.871582,4284.230957,1369.000000,0.000000,12.000000,,,,0.000000,2.000000,2.000000,0.000000,2.000000,2.000000,2.000000,1.000000,2.000000,4.000000,4.000000,4.000000,4.000000,2.000000,4.000000,25.000000,,,,,,,,,,,,,,,,,,,,,,,,,,,,
1732081689.217019,1732081689.219766,103.000000,0.000000,4281.153809,4263.461426,4261.666504,4263.333496,4237.820313,4243.589844,4253.846191,4231.794922,4231.282227,4229.230957,4320.512695,4350.384766,4245.384766,4281.410156,1508.000000,0.000000,12.000000,,,,0.000000,2.000000,2.000000,0.000000,2.000000,2.000000,2.000000,1.000000,2.000000,4.000000,4.000000,4.000000,4.000000,2.000000,4.000000,25.000000,,,,,,,,,,,,,,,,,,,,,,,,,,,,
1732081689.224827,1732081689.227674,104.000000,0.000000,4277.307617,4255.000000,4263.205078,4260.769043,4238.974121,4247.179688,4255.512695,4243.077148,4232.948730,4229.615234,4322.692383,4353.077148,4240.769043,4279.615234,1738.000000,0.000000,12.000000,,,,0.000000,2.000000,2.000000,0.000000,2.000000,2.000000,2.000000,1.000000,2.000000,4.000000,4.000000,4.000000,4.000000,2.000000,4.000000,25.000000,,,,,,,,,,,,,,,,,26.000000,0.000000,0.631536,0.412903,-0.591125,0.285034,0.967892,0.166036,-0.037114,-73.565964,66.496338,27.799313
1732081689.232635,1732081689.235482,105.000000,0.000000,4276.922852,4255.256348,4262.820313,4263.077148,4241.538574,4245.769043,4259.230957,4244.358887,4233.461426,4230.769043,4326.025879,4359.102539,4241.153809,4281.666504,1696.000000,0.000000,12.000000,,,,0.000000,2.000000,2.000000,0.000000,2.000000,2.000000,2.000000,1.000000,2.000000,4.000000,4.000000,4.000000,4.000000,2.000000,4.000000,25.000000,,,,,,,,,,,,,,,,,,,,,,,,,,,,
1732081689.240444,1732081689.243190,106.000000,0.000000,4280.128418,4260.897461,4265.769043,4267.948730,4242.051270,4246.282227,4262.307617,4240.512695,4230.897461,4230.512695,4325.512695,4362.563965,4238.461426,4280.256348,1369.000000,0.000000,12.000000,,,,0.000000,2.000000,2.000000,0.000000,2.000000,2.000000,2.000000,1.000000,2.000000,4.000000,4.000000,4.000000,4.000000,2.000000,4.000000,25.000000,,,,,,,,,,,,,,,,,,,,,,,,,,,,
1732081689.248252,1732081689.250999,107.000000,0.000000,4277.051270,4258.717773,4268.077148,4266.153809,4242.179688,4245.384766,4259.615234,4244.358887,4230.641113,4228.077148,4322.307617,4364.102539,4230.641113,4275.641113,1508.000000,0.000000,12.000000,,,,0.000000,2.000000,2.000000,0.000000,2.000000,2.000000,2.000000,1.000000,2.000000,4.000000,4.000000,4.000000,4.000000,2.000000,4.000000,25.000000,,,,,,,,,,,,,,,,,,,,,,,,,,,,
1732081689.256060,1732081689.258707,108.000000,0.000000,4274.102539,4257.179688,4265.000000,4263.846191,4246.666504,4245.000000,4260.000000,4248.717773,4231.922852,4228.461426,4322.051270,4366.410156,4233.974121,4278.205078,1738.000000,0.000000,12.000000,,,,0.000000,2.000000,2.000000,0.000000,2.000000,2.000000,2.000000,1.000000,2.000000,4.000000,4.000000,4.000000,4.000000,2.000000,4.000000,25.000000,,,,,,,,,,,,,,,,,27.000000,0.000000,0.631439,0.411743,-0.591919,0.285278,0.980100,0.174826,-0.030765,-73.870102,66.308701,27.987444
1732081689.263868,1732081689.266515,109.000000,0.000000,4276.922852,4259.871582,4261.282227,4268.717773,4246.282227,4246.282227,4261.794922,4245.128418,4232.820313,4230.128418,4327.948730,4371.282227,4242.307617,4288.717773,1696.000000,0.000000,12.000000,,,,0.000000,2.000000,2.000000,0.000000,2.000000,2.000000,2.000000,1.000000,2.000000,4.000000,4.000000,4.000000,4.000000,2.000000,4.000000,25.000000,,,,,,,,,,,,,,,,,,,,,,,,,,,,
1732081689.271676,1732081689.274123,110.000000,0.000000,4279.871582,4261.153809,4263.205078,4272.436035,4239.230957,4243.974121,4264.358887,4240.256348,4234.230957,4230.000000,4330.384766,4372.179688,4240.897461,4293.717773,1369.000000,0.000000,12.000000,,,,0.000000,2.000000,2.000000,0.000000,2.000000,2.000000,2.000000,1.000000,2.000000,4.000000,4.000000,4.000000,4.000000,2.000000,4.000000,25.000000,,,,,,,,,,,,,,,,,,,,,,,,,,,,
1732081689.279485,1732081689.281932,111.000000,0.000000,4277.436035,4260.128418,4262.179688,4271.153809,4239.102539,4241.410156,4262.692383,4239.743652,4233.205078,4228.205078,4326.410156,4365.128418,4240.000000,4288.717773,1508.000000,0.000000,12.000000,,,,0.000000,2.000000,2.000000,0.000000,2.000000,2.000000,2.000000,1.000000,2.000000,4.000000,4.000000,4.000000,4.000000,2.000000,4.000000,25.000000,,,,,,,,,,,,,,,,,,,,,,,,,,,,
1732081689.287293,1732081689.289640,112.000000,0.000000,4274.102539,4259.102539,4262.692383,4268.974121,4242.436035,4239.743652,4261.025879,4234.871582,4230.384766,4224.615234,4322.051270,4364.615234,4240.897461,4286.282227,1738.000000,0.000000,12.000000,,,,0.000000,2.000000,2.000000,0.000000,2.000000,2.000000,2.000000,1.000000,2.000000,4.000000,4.000000,4.000000,4.000000,2.000000,4.000000,25.000000,,,,,,,,,,,,,,,,,28.000000,0.000000,0.631389,0.411255,-0.592224,0.285461,0.971310,0.148456,-0.032230,-74.116447,66.440048,28.084829
1732081689.295101,1732081689.297448,113.000000,0.000000,4274.743652,4259.230957,4263.589844,4268.974121,4241.666504,4240.897461,4261.922852,4236.410156,4231.666504,4227.051270,4323.205078,4368.333496,4236.922852,4290.512695,1696.000000,0.000000,12.000000,,,,0.000000,2.000000,2.000000,0.000000,2.000000,2.000000,2.000000,1.000000,2.000000,4.000000,4.000000,4.000000,4.000000,2.000000,4.000000,25.000000,,,,,,,,,,,,,,,,,,,,,,,,,,,,
1732081689.302909,1732081689.305057,114.000000,0.000000,4274.358887,4259.615234,4263.205078,4270.256348,4242.820313,4241.794922,4264.743652,4245.000000,4234.358887,4229.743652,4324.743652,4363.717773,4233.333496,4289.743652,1369.000000,0.000000,12.000000,,,,0.000000,2.000000,2.000000,0.000000,2.000000,2.000000,2.000000,1.000000,2.000000,4.000000,4.000000,4.000000,4.000000,2.000000,4.000000,25.000000,,,,,,,,,,,,,,,,,,,,,,,,,,,,
1732081689.310718,1732081689.312865,115.000000,0.000000,4273.717773,4259.871582,4258.717773,4271.794922,4256.922852,4242.051270,4262.179688,4246.666504,4232.820313,4226.922852,4322.051270,4357.179688,4231.666504,4283.589844,1508.000000,0.000000,12.000000,,,,0.000000,2.000000,2.000000,0.000000,2.000000,2.000000,2.000000,1.000000,2.000000,4.000000,4.000000,4.000000,4.000000,2.000000,4.000000,25.000000,,,,,,,,,,,,,,,,,,,,,,,,,,,,
1732081689.318526,1732081689.320573,116.000000,0.000000,4270.384766,4256.666504,4260.512695,4272.820313,4262.307617,4243.974121,4259.871582,4244.230957,4230.384766,4225.512695,4322.436035,4357.948730,4232.436035,4280.000000,1738.000000,0.000000,12.000000,,,,0.000000,2.000000,2.000000,0.000000,2.000000,2.000000,2.000000,1.000000,2.000000,4.000000,4.000000,4.000000,4.000000,2.000000,4.000000,25.000000,,,,,,,,,,,,,,,,,29.000000,0.000000,0.630982,0.410095,-0.593079,0.286255,0.972287,0.169454,-0.025882,-74.242653,66.686440,28.148712
1732081689.326334,1732081689.328381,117.000000,0.000000,4271.025879,4255.512695,4263.461426,4274.230957,4248.077148,4246.922852,4262.179688,4245.641113,4232.307617,4229.102539,4325.512695,4361.666504,4233.717773,4282.051270,1696.000000,0.000000,12.000000,,,,0.000000,2.000000,2.000000,0.000000,2.000000,2.000000,2.000000,1.000000,2.000000,4.000000,4.000000,4.000000,4.000000,2.000000,4.000000,25.000000,,,,,,,,,,,,,,,,,,,,,,,,,,,,
1732081689.334143,1732081689.335990,118.000000,0.000000,4276.153809,4258.846191,4263.974121,4275.641113,4242.436035,4246.922852,4263.333496,4244.358887,4232.948730,4230.384766,4327.179688,4364.615234,4234.102539,4285.641113,1369.000000,0.000000,12.000000,,,,0.000000,2.000000,2.000000,0.000000,2.000000,2.000000,2.000000,1.000000,2.000000,4.000000,4.000000,4.000000,4.000000,2.000000,4.000000,25.000000,,,,,,,,,,,,,,,,,,,,,,,,,,,,
1732081689.341951,1732081689.343798,119.000000,0.000000,4277.820313,4260.512695,4262.179688,4275.897461,4249.871582,4245.897461,4261.666504,4240.641113,4230.000000,4230.512695,4327.307617,4363.589844,4236.538574,4285.256348,1508.000000,0.000000,12.000000,,,,0.000000,2.000000,2.000000,0.000000,2.000000,2.000000,2.000000,1.000000,2.000000,4.000000,4.000000,4.000000,4.000000,2.000000,4.000000,25.000000,,,,,,,,,,,,,,,,,,,,,,,,,,,,
1732081689.349759,1732081689.351506,120.000000,0.000000,4274.743652,4259.358887,4261.282227,4273.846191,4250.128418,4248.717773,4262.692383,4245.000000,4230.897461,4236.410156,4331.282227,4364.615234,4245.897461,4286.666504,1738.000000,0.000000,12.000000,,,,0.000000,2.000000,2.000000,0.000000,2.000000,2.000000,2.000000,1.000000,2.000000,4.000000,4.000000,4.000000,4.000000,2.000000,4.000000,25.000000,,,,,,,,,,,,,,,,,30.000000,0.000000,0.630788,0.410034,-0.593445,0.286011,0.941033,0.171896,-0.041509,-74.214882,66.924347,28.165457
1732081689.357567,1732081689.359314,121.000000,0.000000,4273.589844,4258.077148,4261.922852,4270.897461,4243.974121,4247.820313,4265.256348,4245.897461,4234.102539,4237.179688,4337.948730,4370.384766,4249.743652,4283.077148,1696.000000,0.000000,12.000000,,,,0.000000,2.000000,2.000000,0.000000,2.000000,2.000000,2.000000,1.000000,2.000000,4.000000,4.000000,4.000000,4.000000,2.000000,4.000000,25.000000,,,,,,,,,,,,,,,,,,,,,,,,,,,,
1732081689.365376,1732081689.366923,122.000000,0.000000,4276.282227,4257.692383,4262.820313,4269.615234,4244.871582,4247.692383,4262.948730,4243.846191,4232.051270,4230.769043,4335.641113,4373.589844,4246.282227,4268.589844,1369.000000,0.000000,12.000000,,,,0.000000,2.000000,2.000000,0.000000,2.000000,2.000000,2.000000,1.000000,2.000000,4.000000,4.000000,4.000000,4.000000,2.000000,4.000000,25.000000,,,,,,,,,,,,,,,,,,,,,,,,,,,,
1732081689.373184,1732081689.374731,123.000000,0.000000,4276.410156,4258.974121,4263.205078,4271.410156,4246.410156,4248.846191,4263.205078,4247.820313,4230.000000,4228.077148,4330.641113,4376.153809,4245.769043,4253.333496,1508.000000,0.000000,12.000000,,,,0.000000,2.000000,2.000000,0.000000,2.000000,2.000000,2.000000,1.000000,2.000000,4.000000,4.000000,4.000000,4.000000,2.000000,4.000000,25.000000,,,,,,,,,,,,,,,,,,,,,,,,,,,,
1732081689.380992,1732081689.382439,124.000000,0.000000,4276.410156,4261.794922,4261.025879,4274.615234,4244.230957,4249.487305,4263.333496,4250.384766,4233.077148,4231.282227,4332.948730,4377.436035,4247.820313,4243.717773,1738.000000,0.000000,12.000000,,,,0.000000,2.000000,2.000000,0.000000,2.000000,2.000000,2.000000,1.000000,2.000000,4.000000,4.000000,4.000000,4.000000,2.000000,4.000000,25.000000,,,,,,,,,,,,,,,,,31.000000,0.000000,0.630801,0.410095,-0.593506,0.285767,0.946893,0.194848,-0.049322,-74.267387,66.760391,28.254021
1732081689.388800,1732081689.390248,125.000000,0.000000,4276.666504,4258.974121,4263.717773,4273.974121,4243.205078,4248.077148,4263.461426,4248.333496,4234.358887,4232.692383,4332.820313,4375.128418,4247.436035,4235.000000,1696.000000,0.000000,12.000000,,,,0.000000,2.000000,2.000000,0.000000,2.000000,2.000000,2.000000,1.000000,2.000000,4.000000,4.000000,4.000000,4.000000,2.000000,4.000000,25.000000,,,,,,,,,,,,,,,,,,,,,,,,,,,,
1732081689.396609,1732081689.397856,126.000000,0.000000,4278.077148,4256.666504,4265.384766,4273.589844,4242.436035,4245.769043,4262.692383,4246.666504,4230.897461,4229.230957,4328.333496,4371.666504,4246.410156,4231.025879,1369.000000,0.000000,12.000000,,,,0.000000,2.000000,2.000000,0.000000,2.000000,2.000000,2.000000,1.000000,2.000000,4.000000,4.000000,4.000000,4.000000,2.000000,4.000000,25.000000,,,,,,,,,,,,,,,,,,,,,,,,,,,,
1732081689.404417,1732081689.405664,127.000000,0.000000,4279.358887,4257.948730,4265.512695,4277.051270,4239.358887,4247.820313,4264.487305,4245.897461,4234.358887,4231.282227,4333.333496,4368.974121,4247.948730,4228.846191,12.000000,0.000000,12.000000,,,,0.000000,2.000000,2.000000,0.000000,2.000000,2.000000,2.000000,1.000000,2.000000,4.000000,4.000000,4.000000,4.000000,2.000000,4.000000,25.000000,,,,,,,,,,,,,,,,,,,,,,,,,,,,
1732081689.412225,1732081689.413373,0.000000,0.000000,4276.794922,4261.538574,4265.000000,4280.256348,4244.487305,4246.794922,4262.948730,4248.077148,4238.846191,4237.820313,4340.128418,4366.922852,4250.000000,4221.666504,1.000000,0.000000,12.000000,,,,0.000000,2.000000,2.000000,0.000000,2.000000,2.000000,2.000000,1.000000,2.000000,4.000000,4.000000,4.000000,4.000000,2.000000,4.000000,25.000000,,,,,,,,,,,,,,,,,0.000000,0.000000,0.630979,0.410645,-0.593201,0.285217,0.947870,0.215847,-0.051276,-74.343254,66.489250,28.047422
1732081689.420033,1732081689.421181,1.000000,0.000000,4275.128418,4265.000000,4267.948730,4277.051270,4254.871582,4246.153809,4262.820313,4249.615234,4235.256348,4236.153809,4337.179688,4370.256348,4249.230957,4216.538574,1289.000000,0.000000,12.000000,,,,0.000000,2.000000,2.000000,0.000000,2.000000,2.000000,2.000000,1.000000,2.000000,4.000000,4.000000,4.000000,4.000000,2.000000,4.000000,25.000000,,,,,,,,,,,,,,,,,,,,,,,,,,,,
1732081689.427842,1732081689.428789,2.000000,0.000000,4275.897461,4264.871582,4266.410156,4276.666504,4250.000000,4254.615234,4266.794922,4249.871582,4237.692383,4235.641113,4336.282227,4376.282227,4251.666504,4216.922852,1220.000000,0.000000,12.000000,,,,0.000000,2.000000,2.000000,0.000000,2.000000,2.000000,2.000000,1.000000,2.000000,4.000000,4.000000,4.000000,4.000000,2.000000,4.000000,25.000000,,,,,,,,,,,,,,,,,,,,,,,,,,,,
1732081689.435650,1732081689.436597,3.000000,0.000000,4273.077148,4261.282227,4267.051270,4281.153809,4240.897461,4257.948730,4268.461426,4251.025879,4242.948730,4240.000000,4339.871582,4375.769043,4254.871582,4215.512695,1170.000000,0.000000,12.000000,,,,0.000000,2.000000,2.000000,0.000000,2.000000,2.000000,2.000000,1.000000,2.000000,4.000000,4.000000,4.000000,4.000000,2.000000,4.000000,25.000000,,,,,,,,,,,,,,,,,,,,,,,,,,,,
1732081689.443458,1732081689.444506,4.000000,0.000000,4273.589844,4261.025879,4268.205078,4280.000000,4246.025879,4249.102539,4265.384766,4250.897461,4236.794922,4235.641113,4340.897461,4372.179688,4252.820313,4215.000000,1197.000000,0.000000,12.000000,,,,0.000000,2.000000,2.000000,0.000000,2.000000,2.000000,2.000000,1.000000,2.000000,4.000000,4.000000,4.000000,4.000000,2.000000,4.000000,25.000000,,,,,,,,,,,,,,,,,1.000000,0.000000,0.631994,0.414673,-0.590393,0.282959,0.955195,0.243682,-0.058601,-74.319702,66.496292,28.023413
1732081689.451266,1732081689.452314,5.000000,0.000000,4277.051270,4266.282227,4268.846191,4275.512695,4247.692383,4245.769043,4265.256348,4249.615234,4230.256348,4229.102539,4336.282227,4372.179688,4249.871582,4216.538574,1075.000000,0.000000,12.000000,,,,0.000000,2.000000,2.000000,0.000000,2.000000,2.000000,2.000000,1.000000,2.000000,4.000000,4.000000,4.000000,4.000000,2.000000,4.000000,25.000000,,,,,,,,,,,,,,,,,,,,,,,,,,,,
1732081689.459075,1732081689.460322,6.000000,0.000000,4270.384766,4265.641113,4270.769043,4274.487305,4243.333496,4250.384766,4268.589844,4250.512695,4233.589844,4230.769043,4330.128418,4369.487305,4249.358887,4215.000000,220.000000,0.000000,12.000000,,,,0.000000,2.000000,2.000000,0.000000,2.000000,2.000000,2.000000,1.000000,2.000000,4.000000,4.000000,4.000000,4.000000,2.000000,4.000000,25.000000,,,,,,,,,,,,,,,,,,,,,,,,,,,,
1732081689.466883,1732081689.468130,7.000000,0.000000,4262.692383,4262.051270,4271.025879,4273.846191,4243.589844,4248.205078,4270.000000,4249.615234,4234.230957,4232.051270,4329.871582,4360.641113,4249.487305,4213.846191,1204.000000,0.000000,12.000000,,,,0.000000,2.000000,2.000000,0.000000,2.000000,2.000000,2.000000,1.000000,2.000000,4.000000,4.000000,4.000000,4.000000,2.000000,4.000000,25.000000,,,,,,,,,,,,,,,,,,,,,,,,,,,,
1732081689.474691,1732081689.476038,8.000000,0.000000,4265.384766,4261.538574,4268.974121,4272.692383,4239.358887,4246.025879,4270.512695,4247.436035,4232.436035,4233.333496,4333.461426,4357.820313,4251.282227,4214.487305,1346.000000,0.000000,12.000000,,,,0.000000,2.000000,2.000000,0.000000,2.000000,2.000000,2.000000,1.000000,2.000000,4.000000,4.000000,4.000000,4.000000,2.000000,4.000000,25.000000,,,,,,,,,,,,,,,,,2.000000,0.000000,0.631465,0.417786,-0.589172,0.282104,0.982053,0.194848,-0.060554,-74.397293,66.641998,27.800631
1732081689.482499,1732081689.483846,9.000000,0.000000,4266.922852,4260.384766,4267.820313,4273.205078,4243.589844,4248.974121,4270.384766,4248.846191,4232.179688,4236.025879,4331.153809,4361.538574,4251.410156,4214.230957,1479.000000,0.000000,12.000000,,,,0.000000,2.000000,2.000000,0.000000,2.000000,2.000000,2.000000,1.000000,2.000000,4.000000,4.000000,4.000000,4.000000,2.000000,4.000000,25.000000,,,,,,,,,,,,,,,,,,,,,,,,,,,,
1732081689.490308,1732081689.491854,10.000000,0.000000,4266.666504,4260.256348,4271.282227,4272.948730,4252.820313,4248.205078,4271.025879,4251.025879,4233.846191,4235.512695,4327.820313,4361.666504,4249.230957,4213.717773,1371.000000,0.000000,12.000000,,,,0.000000,2.000000,2.000000,0.000000,2.000000,2.000000,2.000000,1.000000,2.000000,4.000000,4.000000,4.000000,4.000000,2.000000,4.000000,25.000000,,,,,,,,,,,,,,,,,,,,,,,,,,,,
1732081689.498116,1732081689.499662,11.000000,0.000000,4272.307617,4261.282227,4271.922852,4272.179688,4239.615234,4247.692383,4270.384766,4250.128418,4238.205078,4237.436035,4333.589844,4361.153809,4251.282227,4214.358887,1508.000000,0.000000,12.000000,,,,0.000000,2.000000,2.000000,0.000000,2.000000,2.000000,2.000000,1.000000,2.000000,4.000000,4.000000,4.000000,4.000000,2.000000,4.000000,25.000000,,,,,,,,,,,,,,,,,,,,,,,,,,,,
1732081689.505924,1732081689.507571,12.000000,0.000000,4271.922852,4260.512695,4269.230957,4275.128418,4227.307617,4250.256348,4274.487305,4248.333496,4240.128418,4243.589844,4339.871582,4366.538574,4252.692383,4216.410156,1736.000000,0.000000,12.000000,,,,0.000000,2.000000,2.000000,0.000000,2.000000,2.000000,2.000000,1.000000,2.000000,4.000000,4.000000,4.000000,4.000000,2.000000,4.000000,25.000000,,,,,,,,,,,,,,,,,3.000000,0.000000,0.631061,0.417969,-0.589417,0.282227,0.981077,0.160664,-0.056648,-74.290138,66.551682,27.933512
1732081689.513732,1732081689.515379,13.000000,0.000000,4262.563965,4256.410156,4266.922852,4277.307617,4237.820313,4251.153809,4276.410156,4248.461426,4239.743652,4245.512695,4340.384766,4372.307617,4250.000000,4216.794922,1691.000000,0.000000,12.000000,,,,0.000000,2.000000,2.000000,0.000000,2.000000,2.000000,2.000000,1.000000,2.000000,4.000000,4.000000,4.000000,4.000000,2.000000,4.000000,25.000000,,,,,,,,,,,,,,,,,,,,,,,,,,,,
1732081689.521541,1732081689.523387,14.000000,0.000000,4256.922852,4255.128418,4269.743652,4272.948730,4243.333496,4249.358887,4273.461426,4249.743652,4240.769043,4244.102539,4338.589844,4372.179688,4248.589844,4214.615234,1371.000000,0.000000,12.000000,,,,0.000000,2.000000,2.000000,0.000000,2.000000,2.000000,2.000000,1.000000,2.000000,4.000000,4.000000,4.000000,4.000000,2.000000,4.000000,25.000000,1.000000,25.000000,2.000000,2.000000,0.000000,2.000000,2.000000,2.000000,1.000000,2.000000,4.000000,3.000000,4.000000,4.000000,2.000000,4.000000,,,,,,,,,,,,
1732081689.529349,1732081689.531195,15.000000,0.000000,4257.563965,4257.051270,4268.333496,4270.000000,4239.358887,4248.589844,4270.128418,4250.512695,4241.282227,4245.384766,4337.179688,4365.128418,4247.948730,4211.922852,1508.000000,0.000000,12.000000,,,,0.000000,2.000000,2.000000,0.000000,2.000000,2.000000,2.000000,1.000000,2.000000,4.000000,4.000000,4.000000,4.000000,2.000000,4.000000,25.000000,,,,,,,,,,,,,,,,,,,,,,,,,,,,
1732081689.537157,1732081689.539103,16.000000,0.000000,4255.128418,4258.846191,4268.589844,4271.025879,4243.333496,4253.717773,4273.974121,4249.871582,4240.512695,4244.102539,4333.974121,4361.025879,4244.487305,4207.307617,0.000000,0.000000,12.000000,,,,0.000000,2.000000,2.000000,0.000000,2.000000,2.000000,2.000000,1.000000,2.000000,4.000000,4.000000,4.000000,4.000000,2.000000,4.000000,25.000000,,,,,,,,,,,,,,,,,4.000000,0.000000,0.630049,0.415527,-0.591431,0.283875,0.952753,0.141619,-0.047857,-74.220009,66.823532,27.741144
1732081689.544965,1732081689.546911,17.000000,0.000000,4255.384766,4259.230957,4270.256348,4272.820313,4248.205078,4258.077148,4275.769043,4249.487305,4245.000000,4243.717773,4332.307617,4367.307617,4244.615234,4208.333496,0.000000,0.000000,12.000000,,,,0.000000,2.000000,2.000000,0.000000,2.000000,2.000000,2.000000,1.000000,2.000000,4.000000,4.000000,4.000000,4.000000,2.000000,4.000000,25.000000,,,,,,,,,,,,,,,,,,,,,,,,,,,,
1732081689.552774,1732081689.554919,18.000000,0.000000,4261.666504,4256.153809,4269.230957,4272.948730,4246.666504,4254.230957,4273.077148,4250.128418,4245.000000,4243.461426,4333.077148,4373.461426,4248.846191,4215.256348,0.000000,0.000000,12.000000,,,,0.000000,2.000000,2.000000,0.000000,2.000000,2.000000,2.000000,1.000000,2.000000,4.000000,4.000000,4.000000,4.000000,2.000000,4.000000,25.000000,,,,,,,,,,,,,,,,,,,,,,,,,,,,
1732081689.560582,1732081689.562728,19.000000,0.000000,4265.128418,4257.436035,4266.410156,4274.358887,4246.794922,4249.230957,4269.615234,4247.948730,4236.282227,4238.589844,4332.436035,4372.820313,4249.230957,4216.794922,0.000000,0.000000,12.000000,,,,0.000000,2.000000,2.000000,0.000000,2.000000,2.000000,2.000000,1.000000,2.000000,4.000000,4.000000,4.000000,4.000000,2.000000,4.000000,25.000000,,,,,,,,,,,,,,,,,,,,,,,,,,,,
1732081689.568390,1732081689.570636,20.000000,0.000000,4265.897461,4265.256348,4269.230957,4279.230957,4249.230957,4249.358887,4267.307617,4243.205078,4231.922852,4235.000000,4332.051270,4373.717773,4246.410156,4213.461426,0.000000,0.000000,12.000000,,,,0.000000,2.000000,2.000000,0.000000,2.000000,2.000000,2.000000,1.000000,2.000000,4.000000,4.000000,4.000000,4.000000,2.000000,4.000000,25.000000,,,,,,,,,,,,,,,,,5.000000,0.000000,0.629620,0.411316,-0.594238,0.285095,0.958125,0.148944,-0.047369,-74.111542,66.867058,27.583660
1732081689.576198,1732081689.578444,21.000000,0.000000,4267.179688,4266.922852,4270.512695,4279.615234,4248.974121,4249.871582,4269.230957,4243.461426,4233.333496,4233.461426,4329.358887,4372.563965,4244.487305,4212.563965,0.000000,0.000000,12.000000,,,,0.000000,2.000000,2.000000,0.000000,2.000000,2.000000,2.000000,1.000000,2.000000,4.000000,4.000000,4.000000,4.000000,2.000000,4.000000,25.000000,,,,,,,,,,,,,,,,,,,,,,,,,,,,
1732081689.584007,1732081689.586452,22.000000,0.000000,4268.077148,4259.230957,4267.179688,4276.922852,4245.000000,4249.487305,4272.051270,4249.358887,4235.641113,4230.384766,4325.000000,4371.410156,4245.128418,4212.051270,0.000000,0.000000,12.000000,,,,0.000000,2.000000,2.000000,0.000000,2.000000,2.000000,2.000000,1.000000,2.000000,4.000000,4.000000,4.000000,4.000000,2.000000,4.000000,25.000000,,,,,,,,,,,,,,,,,,,,,,,,,,,,
1732081689.591815,1732081689.594260,23.000000,0.000000,4272.051270,4258.846191,4268.589844,4277.307617,4241.282227,4249.487305,4270.128418,4249.615234,4232.563965,4233.589844,4329.743652,4383.974121,4249.871582,4213.205078,0.000000,0.000000,12.000000,,,,0.000000,2.000000,2.000000,0.000000,2.000000,2.000000,2.000000,1.000000,2.000000,4.000000,4.000000,4.000000,4.000000,2.000000,4.000000,25.000000,,,,,,,,,,,,,,,,,,,,,,,,,,,,
1732081689.599623,1732081689.602168,24.000000,0.000000,4280.384766,4268.077148,4268.846191,4282.307617,4241.025879,4248.461426,4265.769043,4245.897461,4232.436035,4243.974121,4340.256348,4396.666504,4259.230957,4226.282227,0.000000,0.000000,12.000000,,,,0.000000,2.000000,2.000000,0.000000,2.000000,2.000000,2.000000,1.000000,2.000000,4.000000,4.000000,4.000000,4.000000,2.000000,4.000000,25.000000,,,,,,,,,,,,,,,,,6.000000,0.000000,0.629609,0.409790,-0.595215,0.285278,0.958125,0.148944,-0.047369,-74.110352,66.643982,27.697765
1732081689.607432,1732081689.609976,25.000000,0.000000,4283.974121,4271.538574,4270.641113,4282.179688,4242.051270,4247.307617,4266.538574,4246.025879,4233.077148,4239.871582,4339.230957,4392.820313,4264.230957,4236.025879,0.000000,0.000000,12.000000,,,,0.000000,2.000000,2.000000,0.000000,2.000000,2.000000,2.000000,1.000000,2.000000,4.000000,4.000000,4.000000,4.000000,2.000000,4.000000,25.000000,,,,,,,,,,,,,,,,,,,,,,,,,,,,
1732081689.615240,1732081689.617585,26.000000,0.000000,4288.846191,4270.769043,4270.897461,4279.743652,4240.769043,4248.717773,4267.436035,4245.512695,4232.820313,4232.436035,4333.846191,4388.974121,4261.922852,4233.077148,0.000000,0.000000,12.000000,,,,0.000000,2.000000,2.000000,0.000000,2.000000,2.000000,2.000000,1.000000,2.000000,4.000000,4.000000,4.000000,4.000000,2.000000,4.000000,25.000000,,,,,,,,,,,,,,,,,,,,,,,,,,,,
1732081689.623048,1732081689.625393,27.000000,0.000000,4297.820313,4271.538574,4270.256348,4282.051270,4241.666504,4249.102539,4267.051270,4247.948730,4232.820313,4235.256348,4336.922852,4397.179688,4263.205078,4237.307617,0.000000,0.000000,12.000000,,,,0.000000,2.000000,2.000000,0.000000,2.000000,2.000000,2.000000,1.000000,2.000000,4.000000,4.000000,4.000000,4.000000,2.000000,4.000000,25.000000,,,,,,,,,,,,,,,,,,,,,,,,,,,,
1732081689.630856,1732081689.633101,28.000000,0.000000,4299.743652,4269.615234,4267.436035,4284.230957,4242.692383,4248.077148,4264.615234,4247.948730,4233.077148,4232.179688,4338.974121,4397.307617,4265.641113,4244.487305,0.000000,0.000000,12.000000,,,,0.000000,2.000000,2.000000,0.000000,2.000000,2.000000,2.000000,1.000000,2.000000,4.000000,4.000000,4.000000,4.000000,2.000000,4.000000,25.000000,,,,,,,,,,,,,,,,,7.000000,0.000000,0.629676,0.407959,-0.596313,0.285461,0.965450,0.145037,-0.045904,-74.272720,66.429962,27.615189
1732081689.638665,1732081689.640909,29.000000,0.000000,4299.358887,4268.717773,4266.922852,4283.717773,4243.333496,4246.794922,4265.000000,4238.333496,4232.948730,4226.794922,4336.666504,4388.589844,4263.589844,4245.000000,0.000000,0.000000,12.000000,,,,0.000000,2.000000,2.000000,0.000000,2.000000,2.000000,2.000000,1.000000,2.000000,4.000000,4.000000,4.000000,4.000000,2.000000,4.000000,25.000000,,,,,,,,,,,,,,,,,,,,,,,,,,,,
1732081689.646473,1732081689.648518,30.000000,0.000000,4306.153809,4273.333496,4268.974121,4286.282227,4243.205078,4246.922852,4264.102539,4238.205078,4230.641113,4231.794922,4341.666504,4388.077148,4260.641113,4248.077148,0.000000,0.000000,12.000000,,,,0.000000,2.000000,2.000000,0.000000,2.000000,2.000000,2.000000,1.000000,2.000000,4.000000,4.000000,4.000000,4.000000,2.000000,4.000000,25.000000,,,,,,,,,,,,,,,,,,,,,,,,,,,,
1732081689.654281,1732081689.656326,31.000000,0.000000,4310.641113,4274.487305,4271.153809,4285.641113,4243.589844,4249.871582,4264.743652,4248.461426,4232.307617,4236.410156,4350.128418,4390.000000,4262.820313,4252.307617,0.000000,0.000000,12.000000,,,,0.000000,2.000000,2.000000,0.000000,2.000000,2.000000,2.000000,1.000000,2.000000,4.000000,4.000000,4.000000,4.000000,2.000000,4.000000,25.000000,,,,,,,,,,,,,,,,,,,,,,,,,,,,
1732081689.662089,1732081689.664034,32.000000,0.000000,4312.179688,4267.051270,4268.077148,4277.436035,4242.307617,4246.282227,4263.717773,4248.205078,4239.230957,4241.025879,4355.769043,4387.563965,4273.077148,4256.538574,0.000000,0.000000,12.000000,,,,0.000000,2.000000,2.000000,0.000000,2.000000,2.000000,2.000000,1.000000,2.000000,4.000000,4.000000,4.000000,4.000000,2.000000,4.000000,25.000000,,,,,,,,,,,,,,,,,8.000000,0.000000,0.630099,0.400818,-0.600403,0.286072,0.962031,0.148456,-0.048834,-74.419235,66.323265,27.664970
1732081689.669897,1732081689.671843,33.000000,0.000000,4317.948730,4266.538574,4264.615234,4275.128418,4238.846191,4240.641113,4263.333496,4245.897461,4243.205078,4250.256348,4357.436035,4386.538574,4279.487305,4264.615234,0.000000,0.000000,12.000000,,,,0.000000,2.000000,2.000000,0.000000,2.000000,2.000000,2.000000,1.000000,2.000000,4.000000,4.000000,4.000000,4.000000,2.000000,4.000000,25.000000,,,,,,,,,,,,,,,,,,,,,,,,,,,,
1732081689.677706,1732081689.679451,34.000000,0.000000,4322.692383,4273.717773,4265.384766,4280.128418,4242.051270,4240.769043,4263.846191,4245.128418,4240.000000,4250.769043,4349.743652,4384.230957,4277.563965,4265.000000,0.000000,0.000000,12.000000,,,,0.000000,2.000000,2.000000,0.000000,2.000000,2.000000,2.000000,1.000000,2.000000,4.000000,4.000000,4.000000,4.000000,2.000000,4.000000,25.000000,,,,,,,,,,,,,,,,,,,,,,,,,,,,
1732081689.685514,1732081689.687259,35.000000,0.000000,4325.128418,4272.948730,4266.922852,4275.000000,4239.102539,4240.384766,4261.410156,4238.846191,4233.974121,4242.820313,4346.922852,4376.922852,4277.692383,4262.948730,0.000000,0.000000,12.000000,,,,0.000000,2.000000,2.000000,0.000000,2.000000,2.000000,2.000000,1.000000,2.000000,4.000000,4.000000,4.000000,4.000000,2.000000,4.000000,25.000000,,,,,,,,,,,,,,,,,,,,,,,,,,,,
1732081689.693322,1732081689.694968,36.000000,0.000000,4329.230957,4269.615234,4266.666504,4272.692383,4235.769043,4237.692383,4257.948730,4236.410156,4232.692383,4238.717773,4355.512695,4378.077148,4282.820313,4275.000000,0.000000,0.000000,12.000000,,,,0.000000,2.000000,2.000000,0.000000,2.000000,2.000000,2.000000,1.000000,2.000000,4.000000,4.000000,4.000000,4.000000,2.000000,4.000000,25.000000,,,,,,,,,,,,,,,,,9.000000,0.000000,0.630048,0.399353,-0.601257,0.286438,0.962031,0.148456,-0.048834,-74.336243,66.223511,27.770292
1732081689.701131,1732081689.702776,37.000000,0.000000,4331.025879,4274.871582,4267.436035,4282.179688,4249.230957,4236.794922,4257.563965,4240.769043,4232.820313,4236.410156,4358.717773,4389.358887,4283.717773,4284.487305,0.000000,0.000000,12.000000,,,,0.000000,2.000000,2.000000,0.000000,2.000000,2.000000,2.000000,1.000000,2.000000,4.000000,4.000000,4.000000,4.000000,2.000000,4.000000,25.000000,,,,,,,,,,,,,,,,,,,,,,,,,,,,
1732081689.708939,1732081689.710384,38.000000,0.000000,4331.025879,4277.307617,4268.974121,4284.230957,4249.358887,4235.512695,4259.871582,4243.205078,4231.410156,4231.794922,4354.487305,4391.922852,4283.205078,4281.282227,0.000000,0.000000,12.000000,,,,0.000000,2.000000,2.000000,0.000000,2.000000,2.000000,2.000000,1.000000,2.000000,4.000000,4.000000,4.000000,4.000000,2.000000,4.000000,25.000000,,,,,,,,,,,,,,,,,,,,,,,,,,,,
1732081689.716747,1732081689.718192,39.000000,0.000000,4336.538574,4275.897461,4267.692383,4279.615234,4232.563965,4233.589844,4260.512695,4243.974121,4230.256348,4230.000000,4352.692383,4387.563965,4283.846191,4280.512695,0.000000,0.000000,12.000000,,,,0.000000,2.000000,2.000000,0.000000,2.000000,2.000000,2.000000,1.000000,2.000000,4.000000,4.000000,4.000000,4.000000,2.000000,4.000000,25.000000,,,,,,,,,,,,,,,,,,,,,,,,,,,,
1732081689.724555,1732081689.725901,40.000000,0.000000,4344.358887,4279.743652,4267.051270,4283.077148,4233.974121,4235.000000,4259.358887,4244.487305,4230.897461,4233.589844,4354.102539,4394.102539,4280.897461,4284.871582,0.000000,0.000000,12.000000,,,,0.000000,2.000000,2.000000,0.000000,2.000000,2.000000,2.000000,1.000000,2.000000,4.000000,4.000000,4.000000,4.000000,2.000000,4.000000,25.000000,,,,,,,,,,,,,,,,,10.000000,0.000000,0.630588,0.395386,-0.602844,0.287415,0.965938,0.155292,-0.049322,-74.589027,65.896049,27.655603
1732081689.732364,1732081689.733709,41.000000,0.000000,4343.717773,4278.589844,4266.410156,4289.102539,4249.743652,4235.641113,4258.205078,4243.846191,4232.692383,4238.077148,4355.897461,4401.666504,4279.487305,4290.256348,0.000000,0.000000,12.000000,,,,0.000000,2.000000,2.000000,0.000000,2.000000,2.000000,2.000000,1.000000,2.000000,4.000000,4.000000,4.000000,4.000000,2.000000,4.000000,25.000000,,,,,,,,,,,,,,,,,,,,,,,,,,,,
1732081689.740172,1732081689.741317,42.000000,0.000000,4338.589844,4268.077148,4267.436035,4284.487305,4250.384766,4234.102539,4261.153809,4244.615234,4231.794922,4238.333496,4356.666504,4396.153809,4280.897461,4292.436035,0.000000,0.000000,12.000000,,,,0.000000,2.000000,2.000000,0.000000,2.000000,2.000000,2.000000,1.000000,2.000000,4.000000,4.000000,4.000000,4.000000,2.000000,4.000000,25.000000,,,,,,,,,,,,,,,,,,,,,,,,,,,,
1732081689.747980,1732081689.749126,43.000000,0.000000,4341.410156,4267.307617,4267.563965,4276.025879,4243.205078,4235.769043,4261.922852,4246.025879,4233.077148,4240.128418,4357.692383,4394.743652,4283.461426,4292.307617,0.000000,0.000000,12.000000,,,,0.000000,2.000000,2.000000,0.000000,2.000000,2.000000,2.000000,1.000000,2.000000,4.000000,4.000000,4.000000,4.000000,2.000000,4.000000,25.000000,,,,,,,,,,,,,,,,,,,,,,,,,,,,
1732081689.755788,1732081689.757034,44.000000,0.000000,4350.512695,4271.538574,4268.589844,4276.666504,4237.948730,4235.000000,4262.307617,4246.666504,4234.871582,4239.871582,4360.641113,4407.948730,4282.692383,4295.769043,0.000000,0.000000,12.000000,,,,0.000000,2.000000,2.000000,0.000000,2.000000,2.000000,2.000000,1.000000,2.000000,4.000000,4.000000,4.000000,4.000000,2.000000,4.000000,25.000000,,,,,,,,,,,,,,,,,11.000000,0.000000,0.632197,0.391052,-0.602905,0.289673,0.966915,0.124039,-0.027835,-74.757111,65.619133,27.774372
1732081689.763597,1732081689.764842,45.000000,0.000000,4352.179688,4268.717773,4267.820313,4279.230957,4238.077148,4232.436035,4260.000000,4245.769043,4231.922852,4231.922852,4360.641113,4414.487305,4278.205078,4301.538574,0.000000,0.000000,12.000000,,,,0.000000,2.000000,2.000000,0.000000,2.000000,2.000000,2.000000,1.000000,2.000000,4.000000,4.000000,4.000000,4.000000,2.000000,4.000000,25.000000,,,,,,,,,,,,,,,,,,,,,,,,,,,,
1732081689.771405,1732081689.772450,46.000000,0.000000,4352.563965,4265.512695,4269.358887,4275.384766,4243.717773,4231.794922,4258.333496,4246.153809,4232.179688,4230.384766,4359.358887,4409.358887,4277.051270,4301.666504,0.000000,0.000000,12.000000,,,,0.000000,2.000000,2.000000,0.000000,2.000000,2.000000,2.000000,1.000000,2.000000,4.000000,4.000000,4.000000,4.000000,2.000000,4.000000,25.000000,,,,,,,,,,,,,,,,,,,,,,,,,,,,
1732081689.779213,1732081689.780258,47.000000,0.000000,4360.256348,4271.794922,4270.256348,4276.282227,4246.794922,4233.717773,4258.333496,4245.641113,4235.000000,4236.922852,4361.025879,4404.358887,4278.461426,4297.307617,0.000000,0.000000,12.000000,,,,0.000000,2.000000,2.000000,0.000000,2.000000,2.000000,2.000000,1.000000,2.000000,4.000000,4.000000,4.000000,4.000000,2.000000,4.000000,25.000000,,,,,,,,,,,,,,,,,,,,,,,,,,,,
1732081689.787021,1732081689.788167,48.000000,0.000000,4359.615234,4273.974121,4270.256348,4283.589844,4248.974121,4234.230957,4259.615234,4238.974121,4232.307617,4236.666504,4360.641113,4403.461426,4276.153809,4294.615234,0.000000,0.000000,12.000000,,,,0.000000,2.000000,2.000000,0.000000,2.000000,2.000000,2.000000,1.000000,2.000000,4.000000,4.000000,4.000000,4.000000,2.000000,4.000000,25.000000,,,,,,,,,,,,,,,,,12.000000,0.000000,0.633457,0.389465,-0.602051,0.290833,0.973263,0.148456,-0.040532,-74.888260,65.453163,27.875574
1732081689.794829,1732081689.795975,49.000000,0.000000,4355.256348,4270.128418,4268.974121,4285.000000,4252.051270,4234.615234,4257.436035,4239.102539,4228.589844,4234.871582,4360.128418,4404.487305,4274.743652,4295.128418,0.000000,0.000000,12.000000,,,,0.000000,2.000000,2.000000,0.000000,2.000000,2.000000,2.000000,1.000000,2.000000,4.000000,4.000000,4.000000,4.000000,2.000000,4.000000,25.000000,,,,,,,,,,,,,,,,,,,,,,,,,,,,
1732081689.802638,1732081689.803983,50.000000,0.000000,4359.487305,4270.512695,4270.641113,4283.589844,4250.769043,4235.128418,4260.000000,4246.153809,4231.794922,4238.077148,4362.692383,4405.256348,4278.461426,4295.769043,0.000000,0.000000,12.000000,,,,0.000000,2.000000,2.000000,0.000000,2.000000,2.000000,2.000000,1.000000,2.000000,4.000000,4.000000,4.000000,4.000000,2.000000,4.000000,25.000000,,,,,,,,,,,,,,,,,,,,,,,,,,,,
1732081689.810446,1732081689.811791,51.000000,0.000000,4362.051270,4267.563965,4272.820313,4283.205078,4249.871582,4233.717773,4262.820313,4247.051270,4234.102539,4241.922852,4365.512695,4404.871582,4280.512695,4298.077148,0.000000,0.000000,12.000000,,,,0.000000,2.000000,2.000000,0.000000,2.000000,2.000000,2.000000,1.000000,2.000000,4.000000,4.000000,4.000000,4.000000,2.000000,4.000000,25.000000,,,,,,,,,,,,,,,,,,,,,,,,,,,,
1732081689.818254,1732081689.819699,52.000000,0.000000,4361.025879,4262.179688,4271.666504,4281.666504,4244.487305,4234.743652,4259.487305,4245.641113,4233.974121,4243.589844,4369.358887,4408.589844,4279.487305,4305.256348,0.000000,0.000000,12.000000,,,,0.000000,2.000000,2.000000,0.000000,2.000000,2.000000,2.000000,1.000000,2.000000,4.000000,4.000000,4.000000,4.000000,2.000000,4.000000,25.000000,,,,,,,,,,,,,,,,,13.000000,0.000000,0.633457,0.389465,-0.602051,0.290833,0.964473,0.138200,-0.022464,-74.874489,65.243729,27.882549
1732081689.826063,1732081689.827507,53.000000,0.000000,4362.820313,4263.589844,4269.358887,4280.512695,4246.025879,4234.487305,4257.051270,4246.282227,4233.077148,4243.205078,4370.897461,4411.153809,4276.666504,4307.948730,0.000000,0.000000,12.000000,,,,0.000000,2.000000,2.000000,0.000000,2.000000,2.000000,2.000000,1.000000,2.000000,4.000000,4.000000,4.000000,4.000000,2.000000,4.000000,25.000000,,,,,,,,,,,,,,,,,,,,,,,,,,,,
1732081689.833871,1732081689.835116,54.000000,0.000000,4361.153809,4265.256348,4270.769043,4276.794922,4256.794922,4232.820313,4257.820313,4246.153809,4231.666504,4242.692383,4368.589844,4408.846191,4274.615234,4305.512695,0.000000,0.000000,12.000000,,,,0.000000,2.000000,2.000000,0.000000,2.000000,2.000000,2.000000,1.000000,2.000000,4.000000,4.000000,4.000000,4.000000,2.000000,4.000000,25.000000,,,,,,,,,,,,,,,,,,,,,,,,,,,,
1732081689.841679,1732081689.842924,55.000000,0.000000,4358.077148,4260.769043,4271.794922,4274.487305,4251.922852,4239.615234,4261.153809,4249.102539,4242.436035,4246.666504,4373.333496,4412.948730,4276.922852,4307.948730,0.000000,0.000000,12.000000,,,,0.000000,2.000000,2.000000,0.000000,2.000000,2.000000,2.000000,1.000000,2.000000,4.000000,4.000000,4.000000,4.000000,2.000000,4.000000,25.000000,,,,,,,,,,,,,,,,,,,,,,,,,,,,
1732081689.849487,1732081689.850832,56.000000,0.000000,4358.974121,4261.153809,4268.717773,4278.589844,4244.487305,4248.589844,4263.333496,4251.282227,4249.358887,4249.102539,4380.000000,4417.820313,4274.615234,4308.077148,0.000000,0.000000,12.000000,,,,0.000000,2.000000,2.000000,0.000000,2.000000,2.000000,2.000000,1.000000,2.000000,4.000000,4.000000,4.000000,4.000000,2.000000,4.000000,25.000000,,,,,,,,,,,,,,,,,14.000000,0.000000,0.634261,0.389160,-0.601135,0.291382,0.961055,0.149432,-0.020510,-75.265007,65.134087,28.068197
1732081689.857296,1732081689.858640,57.000000,0.000000,4357.179688,4262.948730,4269.102539,4279.615234,4250.512695,4248.333496,4261.794922,4248.333496,4238.717773,4244.871582,4372.692383,4412.307617,4270.000000,4302.436035,0.000000,0.000000,12.000000,,,,0.000000,2.000000,2.000000,0.000000,2.000000,2.000000,2.000000,1.000000,2.000000,4.000000,4.000000,4.000000,4.000000,2.000000,4.000000,25.000000,,,,,,,,,,,,,,,,,,,,,,,,,,,,
1732081689.865104,1732081689.866648,58.000000,0.000000,4358.077148,4263.846191,4274.358887,4278.077148,4250.000000,4245.256348,4257.948730,4247.820313,4235.641113,4244.358887,4365.512695,4409.871582,4273.205078,4300.256348,0.000000,0.000000,12.000000,,,,0.000000,2.000000,2.000000,0.000000,2.000000,2.000000,2.000000,1.000000,2.000000,4.000000,4.000000,4.000000,4.000000,2.000000,4.000000,25.000000,,,,,,,,,,,,,,,,,,,,,,,,,,,,
1732081689.872912,1732081689.874456,59.000000,0.000000,4358.974121,4265.256348,4276.922852,4280.641113,4246.153809,4246.666504,4259.615234,4249.743652,4250.256348,4249.487305,4369.487305,4421.922852,4281.666504,4303.846191,0.000000,0.000000,12.000000,,,,0.000000,2.000000,2.000000,0.000000,2.000000,2.000000,2.000000,1.000000,2.000000,4.000000,4.000000,4.000000,4.000000,2.000000,4.000000,25.000000,,,,,,,,,,,,,,,,,,,,,,,,,,,,
1732081689.880721,1732081689.882365,60.000000,0.000000,4351.025879,4265.384766,4274.743652,4282.692383,4249.487305,4245.256348,4259.487305,4249.487305,4250.384766,4249.358887,4370.769043,4424.230957,4278.974121,4305.897461,0.000000,0.000000,12.000000,,,,0.000000,2.000000,2.000000,0.000000,2.000000,2.000000,2.000000,1.000000,2.000000,4.000000,4.000000,4.000000,4.000000,2.000000,4.000000,25.000000,,,,,,,,,,,,,,,,,15.000000,0.000000,0.635253,0.390442,-0.598450,0.293030,0.969357,0.135759,-0.013674,-75.351318,65.230278,28.241907
1732081689.888529,1732081689.890173,61.000000,0.000000,4343.846191,4264.358887,4272.692383,4283.205078,4252.179688,4242.948730,4258.333496,4248.333496,4236.538574,4241.794922,4365.256348,4407.307617,4271.025879,4302.051270,0.000000,0.000000,12.000000,,,,0.000000,2.000000,2.000000,0.000000,2.000000,2.000000,2.000000,1.000000,2.000000,4.000000,4.000000,4.000000,4.000000,2.000000,4.000000,25.000000,,,,,,,,,,,,,,,,,,,,,,,,,,,,
1732081689.896337,1732081689.898181,62.000000,0.000000,4344.487305,4265.897461,4270.000000,4287.051270,4253.461426,4246.025879,4261.153809,4247.051270,4237.820313,4240.897461,4362.179688,4400.256348,4269.358887,4296.666504,0.000000,0.000000,12.000000,,,,0.000000,2.000000,2.000000,0.000000,2.000000,2.000000,2.000000,1.000000,2.000000,4.000000,4.000000,4.000000,4.000000,2.000000,4.000000,25.000000,,,,,,,,,,,,,,,,,,,,,,,,,,,,
1732081689.904145,1732081689.905989,63.000000,0.000000,4342.307617,4266.153809,4269.615234,4287.436035,4259.871582,4248.461426,4266.794922,4248.461426,4244.102539,4248.461426,4364.358887,4408.077148,4269.230957,4292.307617,0.000000,0.000000,12.000000,,,,0.000000,2.000000,2.000000,0.000000,2.000000,2.000000,2.000000,1.000000,2.000000,4.000000,4.000000,4.000000,4.000000,2.000000,4.000000,25.000000,,,,,,,,,,,,,,,,,,,,,,,,,,,,
1732081689.911953,1732081689.913897,64.000000,0.000000,4337.820313,4263.589844,4271.153809,4281.794922,4257.948730,4249.230957,4264.743652,4253.846191,4244.871582,4253.205078,4372.051270,4410.769043,4271.410156,4292.051270,0.000000,0.000000,12.000000,,,,0.000000,2.000000,2.000000,0.000000,2.000000,2.000000,2.000000,1.000000,2.000000,4.000000,4.000000,4.000000,4.000000,2.000000,4.000000,25.000000,,,,,,,,,,,,,,,,,16.000000,0.000000,0.635396,0.390869,-0.597839,0.293396,0.960078,0.148944,-0.001953,-75.322899,65.159859,28.305944
1732081689.919762,1732081689.921705,65.000000,0.000000,4334.358887,4264.230957,4272.436035,4277.692383,4250.256348,4247.948730,4262.051270,4255.512695,4246.153809,4253.717773,4376.282227,4407.179688,4271.666504,4295.256348,1297.000000,0.000000,12.000000,,,,0.000000,2.000000,2.000000,0.000000,2.000000,2.000000,2.000000,1.000000,2.000000,4.000000,4.000000,4.000000,4.000000,2.000000,4.000000,25.000000,,,,,,,,,,,,,,,,,,,,,,,,,,,,
1732081689.927570,1732081689.929713,66.000000,0.000000,4330.769043,4262.179688,4267.563965,4278.077148,4259.102539,4248.077148,4262.436035,4254.230957,4248.077148,4251.922852,4369.358887,4405.000000,4266.794922,4295.512695,1214.000000,0.000000,12.000000,,,,0.000000,2.000000,2.000000,0.000000,2.000000,2.000000,2.000000,1.000000,2.000000,4.000000,4.000000,4.000000,4.000000,2.000000,4.000000,25.000000,,,,,,,,,,,,,,,,,,,,,,,,,,,,
1732081689.935378,1732081689.937522,67.000000,0.000000,4330.769043,4255.769043,4266.282227,4277.692383,4267.179688,4249.871582,4263.205078,4258.333496,4247.051270,4250.000000,4364.487305,4404.487305,4263.333496,4292.692383,1179.000000,0.000000,12.000000,,,,0.000000,2.000000,2.000000,0.000000,2.000000,2.000000,2.000000,1.000000,2.000000,4.000000,4.000000,4.000000,4.000000,2.000000,4.000000,25.000000,,,,,,,,,,,,,,,,,,,,,,,,,,,,
1732081689.943186,1732081689.945430,68.000000,0.000000,4333.333496,4258.077148,4269.102539,4278.461426,4253.077148,4249.743652,4261.794922,4263.846191,4246.922852,4253.205078,4369.358887,4405.512695,4264.871582,4295.128418,1195.000000,0.000000,12.000000,,,,0.000000,2.000000,2.000000,0.000000,2.000000,2.000000,2.000000,1.000000,2.000000,4.000000,4.000000,4.000000,4.000000,2.000000,4.000000,25.000000,,,,,,,,,,,,,,,,,17.000000,0.000000,0.635799,0.391479,-0.596741,0.293945,0.970822,0.149921,-0.009767,-75.008217,65.002815,28.469482
1732081689.950995,1732081689.953238,69.000000,0.000000,4330.128418,4264.743652,4270.769043,4282.563965,4247.179688,4248.461426,4263.077148,4263.589844,4251.153809,4255.256348,4371.666504,4408.846191,4266.153809,4299.487305,1075.000000,0.000000,12.000000,,,,0.000000,2.000000,2.000000,0.000000,2.000000,2.000000,2.000000,1.000000,2.000000,4.000000,4.000000,4.000000,4.000000,2.000000,4.000000,25.000000,,,,,,,,,,,,,,,,,,,,,,,,,,,,
1732081689.958803,1732081689.960846,70.000000,0.000000,4326.922852,4266.282227,4269.743652,4279.871582,4259.615234,4248.974121,4263.589844,4262.179688,4250.641113,4255.384766,4367.820313,4408.717773,4265.000000,4296.922852,223.000000,0.000000,12.000000,,,,0.000000,2.000000,2.000000,0.000000,2.000000,2.000000,2.000000,1.000000,2.000000,4.000000,4.000000,4.000000,4.000000,2.000000,4.000000,25.000000,,,,,,,,,,,,,,,,,,,,,,,,,,,,
1732081689.966611,1732081689.968654,71.000000,0.000000,4332.051270,4267.179688,4271.153809,4276.410156,4263.461426,4251.282227,4260.769043,4264.230957,4248.461426,4258.205078,4366.666504,4409.230957,4267.948730,4297.051270,1204.000000,0.000000,12.000000,,,,0.000000,2.000000,2.000000,0.000000,2.000000,2.000000,2.000000,1.000000,2.000000,4.000000,4.000000,4.000000,4.000000,2.000000,4.000000,25.000000,,,,,,,,,,,,,,,,,,,,,,,,,,,,
1732081689.974419,1732081689.976363,72.000000,0.000000,4332.051270,4270.897461,4272.692383,4282.307617,4268.589844,4249.358887,4261.538574,4264.615234,4248.717773,4255.384766,4368.205078,4414.230957,4269.102539,4301.025879,1346.000000,0.000000,12.000000,,,,0.000000,2.000000,2.000000,0.000000,2.000000,2.000000,2.000000,1.000000,2.000000,4.000000,4.000000,4.000000,4.000000,2.000000,4.000000,25.000000,,,,,,,,,,,,,,,,,18.000000,0.000000,0.636208,0.392822,-0.594543,0.295715,0.985472,0.143572,-0.008790,-75.173325,64.947281,28.643614
1732081689.982228,1732081689.984171,73.000000,0.000000,4326.153809,4268.205078,4273.205078,4285.256348,4273.846191,4246.538574,4262.563965,4261.410156,4248.205078,4247.307617,4368.461426,4415.641113,4267.563965,4298.333496,1479.000000,0.000000,12.000000,,,,0.000000,2.000000,2.000000,0.000000,2.000000,2.000000,2.000000,1.000000,2.000000,4.000000,4.000000,4.000000,4.000000,2.000000,4.000000,25.000000,,,,,,,,,,,,,,,,,,,,,,,,,,,,
1732081689.990036,1732081689.991779,74.000000,0.000000,4327.436035,4268.974121,4273.205078,4285.897461,4261.410156,4251.666504,4263.846191,4260.000000,4248.717773,4248.461426,4370.512695,4412.563965,4265.641113,4300.000000,1371.000000,0.000000,12.000000,,,,0.000000,2.000000,2.000000,0.000000,2.000000,2.000000,2.000000,1.000000,2.000000,4.000000,4.000000,4.000000,4.000000,2.000000,4.000000,25.000000,,,,,,,,,,,,,,,,,,,,,,,,,,,,
1732081689.997844,1732081689.999588,75.000000,0.000000,4328.846191,4271.538574,4273.461426,4289.230957,4255.384766,4260.769043,4264.743652,4264.358887,4254.102539,4255.256348,4372.820313,4408.846191,4266.282227,4306.410156,1508.000000,0.000000,12.000000,,,,0.000000,2.000000,2.000000,0.000000,2.000000,2.000000,2.000000,1.000000,2.000000,4.000000,4.000000,4.000000,4.000000,2.000000,4.000000,25.000000,,,,,,,,,,,,,,,,,,,,,,,,,,,,
1732081690.005653,1732081690.007296,76.000000,0.000000,4324.487305,4269.358887,4274.743652,4290.641113,4265.769043,4265.000000,4266.794922,4266.666504,4256.538574,4255.000000,4372.307617,4407.820313,4266.922852,4305.512695,1731.000000,0.000000,12.000000,,,,0.000000,2.000000,2.000000,0.000000,2.000000,2.000000,2.000000,1.000000,2.000000,4.000000,4.000000,4.000000,4.000000,2.000000,4.000000,25.000000,,,,,,,,,,,,,,,,,19.000000,0.000000,0.635879,0.393494,-0.593201,0.298218,0.984984,0.138200,0.005372,-75.088722,65.017296,28.762993
1732081690.013461,1732081690.015104,77.000000,0.000000,4323.717773,4270.512695,4273.205078,4288.333496,4277.563965,4261.538574,4263.205078,4261.538574,4247.948730,4253.717773,4370.384766,4405.384766,4265.512695,4304.871582,1690.000000,0.000000,12.000000,,,,0.000000,2.000000,2.000000,0.000000,2.000000,2.000000,2.000000,1.000000,2.000000,4.000000,4.000000,4.000000,4.000000,2.000000,4.000000,25.000000,,,,,,,,,,,,,,,,,,,,,,,,,,,,
1732081690.021269,1732081690.022713,78.000000,0.000000,4321.922852,4271.538574,4274.230957,4286.666504,4284.230957,4262.307617,4263.717773,4257.948730,4246.025879,4253.717773,4365.000000,4404.615234,4264.230957,4303.077148,1371.000000,0.000000,12.000000,,,,0.000000,2.000000,2.000000,0.000000,2.000000,2.000000,2.000000,1.000000,2.000000,4.000000,4.000000,4.000000,4.000000,2.000000,4.000000,25.000000,1.000000,25.000000,2.000000,2.000000,0.000000,2.000000,2.000000,2.000000,1.000000,2.000000,3.000000,3.000000,4.000000,4.000000,2.000000,4.000000,,,,,,,,,,,,
1732081690.029077,1732081690.030521,79.000000,0.000000,4316.153809,4269.871582,4274.230957,4287.563965,4279.102539,4267.820313,4266.410156,4263.077148,4255.256348,4254.358887,4361.666504,4403.717773,4262.948730,4295.128418,1508.000000,0.000000,12.000000,,,,0.000000,2.000000,2.000000,0.000000,2.000000,2.000000,2.000000,1.000000,2.000000,4.000000,4.000000,4.000000,4.000000,2.000000,4.000000,25.000000,,,,,,,,,,,,,,,,,,,,,,,,,,,,
1732081690.036886,1732081690.038229,80.000000,0.000000,4316.282227,4272.692383,4272.948730,4292.436035,4269.487305,4266.794922,4265.641113,4266.794922,4257.436035,4257.563965,4365.641113,4399.743652,4262.692383,4295.384766,1731.000000,0.000000,12.000000,,,,0.000000,2.000000,2.000000,0.000000,2.000000,2.000000,2.000000,1.000000,2.000000,4.000000,4.000000,4.000000,4.000000,2.000000,4.000000,25.000000,,,,,,,,,,,,,,,,,20.000000,0.000000,0.635744,0.393616,-0.592896,0.298950,0.977658,0.143572,0.004883,-75.515198,65.140678,29.093025
1732081690.044694,1732081690.046037,81.000000,0.000000,4317.820313,4275.384766,4271.666504,4293.974121,4275.256348,4262.563965,4263.461426,4263.205078,4254.230957,4260.384766,4370.384766,4400.512695,4264.230957,4298.974121,1690.000000,0.000000,12.000000,,,,0.000000,2.000000,2.000000,0.000000,2.000000,2.000000,2.000000,1.000000,2.000000,4.000000,4.000000,4.000000,4.000000,2.000000,4.000000,25.000000,,,,,,,,,,,,,,,,,,,,,,,,,,,,
1732081690.052502,1732081690.053646,82.000000,0.000000,4314.487305,4273.205078,4274.102539,4285.256348,4281.666504,4262.051270,4264.487305,4261.666504,4253.077148,4259.102539,4369.230957,4404.358887,4263.846191,4296.282227,1371.000000,0.000000,12.000000,,,,0.000000,2.000000,2.000000,0.000000,2.000000,2.000000,2.000000,1.000000,2.000000,4.000000,4.000000,4.000000,4.000000,2.000000,4.000000,25.000000,,,,,,,,,,,,,,,,,,,,,,,,,,,,
1732081690.060310,1732081690.061454,83.000000,0.000000,4315.000000,4274.487305,4270.769043,4282.948730,4278.846191,4264.615234,4263.077148,4261.794922,4250.000000,4256.410156,4366.153809,4404.230957,4263.461426,4296.410156,1508.000000,0.000000,12.000000,,,,0.000000,2.000000,2.000000,0.000000,2.000000,2.000000,2.000000,1.000000,2.000000,4.000000,4.000000,4.000000,4.000000,2.000000,4.000000,25.000000,,,,,,,,,,,,,,,,,,,,,,,,,,,,
1732081690.068118,1732081690.069162,84.000000,0.000000,4316.666504,4279.743652,4268.461426,4290.384766,4277.307617,4264.871582,4262.820313,4253.205078,4244.871582,4254.487305,4367.563965,4404.230957,4264.230957,4302.948730,1731.000000,0.000000,12.000000,,,,0.000000,2.000000,2.000000,0.000000,2.000000,2.000000,2.000000,1.000000,2.000000,4.000000,4.000000,4.000000,4.000000,2.000000,4.000000,25.000000,,,,,,,,,,,,,,,,,21.000000,0.000000,0.635681,0.393616,-0.592346,0.300171,0.978147,0.134294,-0.002442,-75.678978,65.142281,29.162016
1732081690.075927,1732081690.076970,85.000000,0.000000,4314.102539,4278.077148,4271.410156,4291.922852,4279.743652,4262.436035,4264.102539,4245.897461,4244.743652,4254.487305,4366.538574,4405.769043,4263.717773,4301.922852,1690.000000,0.000000,12.000000,,,,0.000000,2.000000,2.000000,0.000000,2.000000,2.000000,2.000000,1.000000,2.000000,4.000000,4.000000,4.000000,4.000000,2.000000,4.000000,25.000000,,,,,,,,,,,,,,,,,,,,,,,,,,,,
1732081690.083735,1732081690.084579,86.000000,0.000000,4312.436035,4271.922852,4273.717773,4286.922852,4285.769043,4261.538574,4262.692383,4251.922852,4245.897461,4256.922852,4364.358887,4404.743652,4263.461426,4299.102539,1371.000000,0.000000,12.000000,,,,0.000000,2.000000,2.000000,0.000000,2.000000,2.000000,2.000000,1.000000,2.000000,4.000000,4.000000,4.000000,4.000000,2.000000,4.000000,25.000000,,,,,,,,,,,,,,,,,,,,,,,,,,,,
1732081690.091543,1732081690.092387,87.000000,0.000000,4313.077148,4273.717773,4271.794922,4287.948730,4283.846191,4265.384766,4263.717773,4261.922852,4249.743652,4258.077148,4370.128418,4406.922852,4264.871582,4304.102539,1508.000000,0.000000,12.000000,,,,0.000000,2.000000,2.000000,0.000000,2.000000,2.000000,2.000000,1.000000,2.000000,4.000000,4.000000,4.000000,4.000000,2.000000,4.000000,25.000000,,,,,,,,,,,,,,,,,,,,,,,,,,,,
1732081690.099352,1732081690.100095,88.000000,0.000000,4313.077148,4277.563965,4270.384766,4289.871582,4274.102539,4267.948730,4266.282227,4267.179688,4256.666504,4259.230957,4378.205078,4416.666504,4262.051270,4309.487305,1731.000000,0.000000,12.000000,,,,0.000000,2.000000,2.000000,0.000000,2.000000,2.000000,2.000000,1.000000,2.000000,4.000000,4.000000,4.000000,4.000000,2.000000,4.000000,25.000000,,,,,,,,,,,,,,,,,22.000000,0.000000,0.635223,0.394592,-0.590881,0.302734,0.961055,0.137712,0.004883,-75.844971,65.110252,29.001234
1732081690.107160,1732081690.107904,89.000000,0.000000,4311.025879,4270.384766,4271.922852,4287.051270,4271.538574,4263.974121,4266.153809,4266.410156,4254.358887,4262.948730,4378.846191,4422.948730,4264.358887,4309.358887,1690.000000,0.000000,12.000000,,,,0.000000,2.000000,2.000000,0.000000,2.000000,2.000000,2.000000,1.000000,2.000000,4.000000,4.000000,4.000000,4.000000,2.000000,4.000000,25.000000,,,,,,,,,,,,,,,,,,,,,,,,,,,,
1732081690.114968,1732081690.115512,90.000000,0.000000,4312.436035,4268.461426,4272.948730,4286.922852,4274.743652,4263.589844,4265.128418,4263.589844,4250.641113,4263.589844,4378.205078,4422.563965,4272.051270,4309.487305,1371.000000,0.000000,12.000000,,,,0.000000,2.000000,2.000000,0.000000,2.000000,2.000000,2.000000,1.000000,2.000000,4.000000,4.000000,4.000000,4.000000,2.000000,4.000000,25.000000,,,,,,,,,,,,,,,,,,,,,,,,,,,,
1732081690.122776,1732081690.123320,91.000000,0.000000,4316.666504,4279.487305,4273.589844,4289.615234,4283.205078,4265.897461,4267.307617,4263.589844,4251.025879,4259.102539,4380.000000,4421.666504,4275.000000,4313.589844,1508.000000,0.000000,12.000000,,,,0.000000,2.000000,2.000000,0.000000,2.000000,2.000000,2.000000,1.000000,2.000000,4.000000,4.000000,4.000000,4.000000,2.000000,4.000000,25.000000,,,,,,,,,,,,,,,,,,,,,,,,,,,,
1732081690.130585,1732081690.131028,92.000000,0.000000,4315.000000,4281.538574,4273.846191,4286.922852,4290.128418,4263.205078,4266.025879,4262.948730,4248.974121,4256.794922,4378.589844,4418.077148,4273.461426,4313.077148,1731.000000,0.000000,12.000000,,,,0.000000,2.000000,2.000000,0.000000,2.000000,2.000000,2.000000,1.000000,2.000000,4.000000,4.000000,4.000000,4.000000,2.000000,4.000000,25.000000,,,,,,,,,,,,,,,,,23.000000,0.000000,0.635208,0.395020,-0.590393,0.303162,0.970822,0.137224,0.006348,-75.842758,65.100967,29.062666
1732081690.138393,1732081690.138837,93.000000,0.000000,4309.487305,4271.410156,4275.897461,4282.692383,4282.692383,4267.692383,4264.871582,4260.512695,4248.846191,4257.436035,4377.820313,4412.436035,4273.461426,4310.128418,1690.000000,0.000000,12.000000,,,,0.000000,2.000000,2.000000,0.000000,2.000000,2.000000,2.000000,1.000000,2.000000,4.000000,4.000000,4.000000,4.000000,2.000000,4.000000,25.000000,,,,,,,,,,,,,,,,,,,,,,,,,,,,
1732081690.146201,1732081690.146845,94.000000,0.000000,4308.846191,4272.051270,4275.000000,4285.384766,4274.615234,4274.743652,4262.436035,4261.794922,4251.025879,4259.102539,4378.717773,4409.615234,4274.230957,4309.358887,1371.000000,0.000000,12.000000,,,,0.000000,2.000000,2.000000,0.000000,2.000000,2.000000,2.000000,1.000000,2.000000,4.000000,4.000000,4.000000,4.000000,2.000000,4.000000,25.000000,,,,,,,,,,,,,,,,,,,,,,,,,,,,
1732081690.154009,1732081690.154653,95.000000,0.000000,4309.358887,4280.897461,4273.589844,4288.846191,4280.128418,4271.538574,4263.717773,4264.615234,4252.820313,4260.256348,4377.179688,4412.307617,4270.512695,4306.410156,1508.000000,0.000000,12.000000,,,,0.000000,2.000000,2.000000,0.000000,2.000000,2.000000,2.000000,1.000000,2.000000,4.000000,4.000000,4.000000,4.000000,2.000000,4.000000,25.000000,,,,,,,,,,,,,,,,,,,,,,,,,,,,
1732081690.161818,1732081690.162561,96.000000,0.000000,4305.897461,4280.384766,4272.436035,4289.615234,4284.615234,4270.384766,4268.333496,4263.461426,4257.179688,4260.512695,4377.051270,4411.153809,4267.948730,4303.717773,1731.000000,0.000000,12.000000,,,,0.000000,2.000000,2.000000,0.000000,2.000000,2.000000,2.000000,1.000000,2.000000,4.000000,4.000000,4.000000,4.000000,2.000000,4.000000,25.000000,,,,,,,,,,,,,,,,,24.000000,0.000000,0.635284,0.395569,-0.589661,0.303711,0.974728,0.135759,-0.002442,-75.972633,65.020119,29.189093
1732081690.169626,1732081690.170369,97.000000,0.000000,4301.538574,4273.333496,4273.974121,4286.538574,4280.512695,4279.743652,4273.717773,4267.563965,4258.717773,4258.974121,4375.897461,4406.282227,4267.307617,4301.410156,1690.000000,0.000000,12.000000,,,,0.000000,2.000000,2.000000,0.000000,2.000000,2.000000,2.000000,1.000000,2.000000,4.000000,4.000000,4.000000,4.000000,2.000000,4.000000,25.000000,,,,,,,,,,,,,,,,,,,,,,,,,,,,
1732081690.177434,1732081690.178377,98.000000,0.000000,4299.487305,4272.820313,4275.256348,4282.820313,4278.974121,4281.666504,4271.666504,4276.410156,4258.717773,4260.384766,4377.692383,4410.641113,4265.128418,4301.794922,1371.000000,0.000000,12.000000,,,,0.000000,2.000000,2.000000,0.000000,2.000000,2.000000,2.000000,1.000000,2.000000,4.000000,4.000000,4.000000,4.000000,2.000000,4.000000,25.000000,,,,,,,,,,,,,,,,,,,,,,,,,,,,
1732081690.185242,1732081690.186185,99.000000,0.000000,4297.692383,4272.179688,4277.563965,4283.205078,4283.974121,4267.051270,4265.512695,4272.307617,4260.512695,4263.717773,4380.769043,4419.102539,4262.820313,4306.538574,1508.000000,0.000000,12.000000,,,,0.000000,2.000000,2.000000,0.000000,2.000000,2.000000,2.000000,1.000000,2.000000,4.000000,4.000000,4.000000,4.000000,2.000000,4.000000,25.000000,,,,,,,,,,,,,,,,,,,,,,,,,,,,
1732081690.193051,1732081690.194094,100.000000,0.000000,4298.077148,4271.410156,4275.512695,4285.641113,4284.102539,4262.563965,4264.102539,4262.051270,4261.153809,4261.666504,4379.230957,4418.205078,4262.051270,4310.128418,1731.000000,0.000000,12.000000,,,,0.000000,2.000000,2.000000,0.000000,2.000000,2.000000,2.000000,1.000000,2.000000,4.000000,4.000000,4.000000,4.000000,2.000000,4.000000,25.000000,,,,,,,,,,,,,,,,,25.000000,0.000000,0.635400,0.396545,-0.588501,0.304443,0.977170,0.145037,-0.002442,-75.947838,65.071297,29.058165
1732081690.200859,1732081690.201902,101.000000,0.000000,4300.128418,4278.717773,4273.333496,4289.487305,4279.358887,4276.025879,4267.307617,4264.615234,4260.128418,4261.538574,4377.563965,4412.307617,4264.358887,4306.153809,1690.000000,0.000000,12.000000,,,,0.000000,2.000000,2.000000,0.000000,2.000000,2.000000,2.000000,1.000000,2.000000,4.000000,4.000000,4.000000,4.000000,2.000000,4.000000,25.000000,,,,,,,,,,,,,,,,,,,,,,,,,,,,
1732081690.208667,1732081690.209910,102.000000,0.000000,4302.051270,4282.051270,4274.871582,4292.692383,4279.358887,4283.205078,4267.436035,4268.461426,4260.128418,4265.769043,4378.461426,4415.128418,4263.974121,4304.871582,1371.000000,0.000000,12.000000,,,,0.000000,2.000000,2.000000,0.000000,2.000000,2.000000,2.000000,1.000000,2.000000,4.000000,4.000000,4.000000,4.000000,2.000000,4.000000,25.000000,,,,,,,,,,,,,,,,,,,,,,,,,,,,
1732081690.216475,1732081690.217718,103.000000,0.000000,4301.794922,4278.077148,4276.410156,4289.871582,4286.153809,4278.589844,4263.974121,4264.871582,4262.820313,4265.769043,4380.897461,4420.000000,4264.358887,4311.025879,1508.000000,0.000000,12.000000,,,,0.000000,2.000000,2.000000,0.000000,2.000000,2.000000,2.000000,1.000000,2.000000,4.000000,4.000000,4.000000,4.000000,2.000000,4.000000,25.000000,,,,,,,,,,,,,,,,,,,,,,,,,,,,
1732081690.224284,1732081690.225626,104.000000,0.000000,4298.589844,4277.563965,4273.846191,4283.333496,4287.051270,4277.179688,4268.077148,4269.487305,4265.128418,4265.769043,4383.077148,4414.743652,4264.358887,4312.436035,1731.000000,0.000000,12.000000,,,,0.000000,2.000000,2.000000,0.000000,2.000000,2.000000,2.000000,1.000000,2.000000,4.000000,4.000000,4.000000,4.000000,2.000000,4.000000,25.000000,,,,,,,,,,,,,,,,,26.000000,0.000000,0.635036,0.397339,-0.588074,0.304993,0.970822,0.141131,0.004395,-75.977745,65.146080,28.985447
1732081690.232092,1732081690.233434,105.000000,0.000000,4295.384766,4280.000000,4273.461426,4287.179688,4278.333496,4281.410156,4272.948730,4279.487305,4266.922852,4273.205078,4382.948730,4408.974121,4265.128418,4309.102539,1690.000000,0.000000,12.000000,,,,0.000000,2.000000,2.000000,0.000000,2.000000,2.000000,2.000000,1.000000,2.000000,4.000000,4.000000,4.000000,4.000000,2.000000,4.000000,25.000000,,,,,,,,,,,,,,,,,,,,,,,,,,,,
1732081690.239900,1732081690.241442,106.000000,0.000000,4297.436035,4279.358887,4276.922852,4296.025879,4281.410156,4279.102539,4272.307617,4280.128418,4265.512695,4273.333496,4378.333496,4410.000000,4266.153809,4309.871582,1371.000000,0.000000,12.000000,,,,0.000000,2.000000,2.000000,0.000000,2.000000,2.000000,2.000000,1.000000,2.000000,4.000000,4.000000,4.000000,4.000000,2.000000,4.000000,25.000000,,,,,,,,,,,,,,,,,,,,,,,,,,,,
1732081690.247708,1732081690.249250,107.000000,0.000000,4303.333496,4280.641113,4275.128418,4293.717773,4298.974121,4277.563965,4268.461426,4277.563965,4264.487305,4265.641113,4377.307617,4409.487305,4263.846191,4313.974121,1508.000000,0.000000,12.000000,,,,0.000000,2.000000,2.000000,0.000000,2.000000,2.000000,2.000000,1.000000,2.000000,4.000000,4.000000,4.000000,4.000000,2.000000,4.000000,25.000000,,,,,,,,,,,,,,,,,,,,,,,,,,,,
1732081690.255517,1732081690.257159,108.000000,0.000000,4301.282227,4281.282227,4273.205078,4288.077148,4297.563965,4279.358887,4269.487305,4277.948730,4265.000000,4265.897461,4382.948730,4407.436035,4265.384766,4314.743652,1731.000000,0.000000,12.000000,,,,0.000000,2.000000,2.000000,0.000000,2.000000,2.000000,2.000000,1.000000,2.000000,4.000000,4.000000,4.000000,4.000000,2.000000,4.000000,25.000000,,,,,,,,,,,,,,,,,27.000000,0.000000,0.634830,0.397705,-0.587891,0.305298,0.969845,0.154804,0.012209,-75.950310,65.149994,28.924879
1732081690.263325,1732081690.264967,109.000000,0.000000,4292.820313,4278.205078,4273.461426,4290.512695,4278.717773,4280.384766,4270.000000,4279.102539,4264.871582,4273.205078,4385.897461,4412.051270,4267.692383,4313.717773,1690.000000,0.000000,12.000000,,,,0.000000,2.000000,2.000000,0.000000,2.000000,2.000000,2.000000,1.000000,2.000000,4.000000,4.000000,4.000000,4.000000,2.000000,4.000000,25.000000,,,,,,,,,,,,,,,,,,,,,,,,,,,,
1732081690.271133,1732081690.272975,110.000000,0.000000,4290.128418,4276.025879,4275.384766,4289.871582,4277.307617,4281.410156,4271.025879,4279.871582,4268.205078,4276.410156,4383.461426,4419.743652,4269.230957,4315.769043,1371.000000,0.000000,12.000000,,,,0.000000,2.000000,2.000000,0.000000,2.000000,2.000000,2.000000,1.000000,2.000000,4.000000,4.000000,4.000000,4.000000,2.000000,4.000000,25.000000,,,,,,,,,,,,,,,,,,,,,,,,,,,,
1732081690.278942,1732081690.280783,111.000000,0.000000,4293.589844,4275.897461,4274.487305,4287.051270,4282.692383,4281.538574,4272.179688,4280.000000,4272.563965,4280.128418,4384.230957,4421.282227,4273.205078,4320.000000,1508.000000,0.000000,12.000000,,,,0.000000,2.000000,2.000000,0.000000,2.000000,2.000000,2.000000,1.000000,2.000000,4.000000,4.000000,4.000000,4.000000,2.000000,4.000000,25.000000,,,,,,,,,,,,,,,,,,,,,,,,,,,,
1732081690.286750,1732081690.288691,112.000000,0.000000,4291.794922,4275.128418,4272.179688,4286.025879,4285.384766,4279.615234,4273.589844,4278.333496,4274.230957,4283.717773,4385.384766,4423.461426,4274.358887,4321.025879,1731.000000,0.000000,12.000000,,,,0.000000,2.000000,2.000000,0.000000,2.000000,2.000000,2.000000,1.000000,2.000000,4.000000,4.000000,4.000000,4.000000,2.000000,4.000000,25.000000,,,,,,,,,,,,,,,,,28.000000,0.000000,0.634135,0.398621,-0.587830,0.305664,0.972287,0.148456,-0.010255,-75.548080,64.868164,29.002485
1732081690.294558,1732081690.296499,113.000000,0.000000,4288.205078,4274.743652,4269.487305,4284.230957,4292.307617,4277.820313,4272.563965,4278.077148,4271.922852,4280.897461,4382.948730,4428.333496,4273.461426,4321.666504,1690.000000,0.000000,12.000000,,,,0.000000,2.000000,2.000000,0.000000,2.000000,2.000000,2.000000,1.000000,2.000000,4.000000,4.000000,4.000000,4.000000,2.000000,4.000000,25.000000,,,,,,,,,,,,,,,,,,,,,,,,,,,,
1732081690.302366,1732081690.304507,114.000000,0.000000,4291.025879,4276.025879,4273.205078,4285.512695,4283.717773,4279.487305,4273.077148,4281.025879,4270.512695,4278.589844,4382.436035,4429.487305,4273.846191,4321.922852,1371.000000,0.000000,12.000000,,,,0.000000,2.000000,2.000000,0.000000,2.000000,2.000000,2.000000,1.000000,2.000000,4.000000,4.000000,4.000000,4.000000,2.000000,4.000000,25.000000,,,,,,,,,,,,,,,,,,,,,,,,,,,,
1732081690.310174,1732081690.312316,115.000000,0.000000,4293.846191,4278.205078,4275.384766,4289.743652,4271.153809,4280.641113,4275.384766,4282.692383,4271.538574,4280.000000,4382.051270,4428.461426,4275.000000,4318.974121,1508.000000,0.000000,12.000000,,,,0.000000,2.000000,2.000000,0.000000,2.000000,2.000000,2.000000,1.000000,2.000000,4.000000,4.000000,4.000000,4.000000,2.000000,4.000000,25.000000,,,,,,,,,,,,,,,,,,,,,,,,,,,,
1732081690.317983,1732081690.320224,116.000000,0.000000,4291.025879,4278.717773,4275.769043,4290.128418,4278.077148,4278.974121,4275.384766,4281.666504,4270.384766,4281.410156,4382.820313,4431.666504,4276.410156,4321.922852,1731.000000,0.000000,12.000000,,,,0.000000,2.000000,2.000000,0.000000,2.000000,2.000000,2.000000,1.000000,2.000000,4.000000,4.000000,4.000000,4.000000,2.000000,4.000000,25.000000,,,,,,,,,,,,,,,,,29.000000,0.000000,0.632735,0.399780,-0.588074,0.306580,0.976193,0.145037,-0.005860,-75.398949,64.883209,29.117012
1732081690.325791,1732081690.328032,117.000000,0.000000,4289.615234,4281.538574,4277.179688,4290.128418,4284.743652,4279.615234,4275.000000,4281.666504,4275.128418,4281.025879,4389.743652,4436.922852,4282.307617,4330.384766,1690.000000,0.000000,12.000000,,,,0.000000,2.000000,2.000000,0.000000,2.000000,2.000000,2.000000,1.000000,2.000000,4.000000,4.000000,4.000000,4.000000,2.000000,4.000000,25.000000,,,,,,,,,,,,,,,,,,,,,,,,,,,,
1732081690.333599,1732081690.335740,118.000000,0.000000,4288.846191,4284.743652,4278.717773,4291.666504,4286.410156,4277.179688,4273.717773,4283.077148,4276.922852,4279.615234,4386.153809,4433.717773,4278.717773,4322.948730,1371.000000,0.000000,12.000000,,,,0.000000,2.000000,2.000000,0.000000,2.000000,2.000000,2.000000,1.000000,2.000000,4.000000,4.000000,4.000000,4.000000,2.000000,4.000000,25.000000,,,,,,,,,,,,,,,,,,,,,,,,,,,,
1732081690.341407,1732081690.343548,119.000000,0.000000,4282.179688,4281.794922,4276.410156,4292.179688,4290.641113,4274.871582,4273.461426,4280.384766,4272.436035,4276.282227,4373.077148,4425.769043,4266.538574,4309.487305,1508.000000,0.000000,12.000000,,,,0.000000,2.000000,2.000000,0.000000,2.000000,2.000000,2.000000,1.000000,2.000000,4.000000,4.000000,4.000000,4.000000,2.000000,4.000000,25.000000,,,,,,,,,,,,,,,,,,,,,,,,,,,,
1732081690.349216,1732081690.351257,120.000000,0.000000,4281.025879,4277.563965,4275.256348,4291.538574,4282.692383,4277.051270,4275.000000,4279.743652,4274.230957,4276.410156,4375.769043,4424.871582,4270.128418,4317.307617,1731.000000,0.000000,12.000000,,,,0.000000,2.000000,2.000000,0.000000,2.000000,2.000000,2.000000,1.000000,2.000000,4.000000,4.000000,4.000000,4.000000,2.000000,4.000000,25.000000,,,,,,,,,,,,,,,,,30.000000,0.000000,0.631935,0.400269,-0.588379,0.307007,0.973263,0.139177,-0.020022,-75.378151,64.712067,29.093113
1732081690.357024,1732081690.359065,121.000000,0.000000,4284.743652,4275.641113,4276.410156,4287.051270,4275.256348,4279.487305,4278.077148,4280.897461,4276.922852,4280.128418,4382.692383,4431.025879,4274.102539,4323.717773,1690.000000,0.000000,12.000000,,,,0.000000,2.000000,2.000000,0.000000,2.000000,2.000000,2.000000,1.000000,2.000000,4.000000,4.000000,4.000000,4.000000,2.000000,4.000000,25.000000,,,,,,,,,,,,,,,,,,,,,,,,,,,,
1732081690.364832,1732081690.366673,122.000000,0.000000,4278.205078,4275.384766,4275.897461,4284.358887,4284.743652,4280.384766,4277.436035,4281.410156,4275.384766,4275.769043,4372.820313,4431.922852,4263.846191,4312.948730,1371.000000,0.000000,12.000000,,,,0.000000,2.000000,2.000000,0.000000,2.000000,2.000000,2.000000,1.000000,2.000000,4.000000,4.000000,4.000000,4.000000,2.000000,4.000000,25.000000,,,,,,,,,,,,,,,,,,,,,,,,,,,,
1732081690.372640,1732081690.374481,123.000000,0.000000,4271.153809,4274.743652,4273.077148,4285.128418,4289.102539,4282.307617,4278.974121,4287.179688,4275.512695,4270.641113,4364.871582,4427.179688,4259.871582,4308.205078,1508.000000,0.000000,12.000000,,,,0.000000,2.000000,2.000000,0.000000,2.000000,2.000000,2.000000,1.000000,2.000000,4.000000,4.000000,4.000000,4.000000,2.000000,4.000000,25.000000,,,,,,,,,,,,,,,,,,,,,,,,,,,,
1732081690.380449,1732081690.382190,124.000000,0.000000,4276.025879,4275.512695,4271.666504,4285.000000,4281.538574,4285.256348,4279.615234,4290.769043,4279.102539,4273.974121,4369.358887,4428.205078,4266.153809,4317.051270,1731.000000,0.000000,12.000000,,,,0.000000,2.000000,2.000000,0.000000,2.000000,2.000000,2.000000,1.000000,2.000000,4.000000,4.000000,4.000000,4.000000,2.000000,4.000000,25.000000,,,,,,,,,,,,,,,,,31.000000,0.000000,0.631475,0.400757,-0.588318,0.307434,0.972287,0.135270,-0.006837,-75.369629,65.020111,28.853756
1732081690.388257,1732081690.389998,125.000000,0.000000,4278.974121,4282.307617,4276.410156,4284.102539,4283.717773,4284.487305,4277.179688,4285.512695,4277.948730,4277.948730,4372.436035,4432.051270,4268.974121,4323.077148,1690.000000,0.000000,12.000000,,,,0.000000,2.000000,2.000000,0.000000,2.000000,2.000000,2.000000,1.000000,2.000000,4.000000,4.000000,4.000000,4.000000,2.000000,4.000000,25.000000,,,,,,,,,,,,,,,,,,,,,,,,,,,,
1732081690.396065,1732081690.397606,126.000000,0.000000,4280.256348,4304.743652,4278.333496,4290.512695,4294.743652,4278.846191,4274.743652,4280.897461,4273.846191,4275.128418,4372.307617,4430.897461,4271.025879,4323.205078,1371.000000,0.000000,12.000000,,,,0.000000,2.000000,2.000000,0.000000,2.000000,2.000000,2.000000,1.000000,2.000000,4.000000,4.000000,4.000000,4.000000,2.000000,4.000000,25.000000,,,,,,,,,,,,,,,,,,,,,,,,,,,,
1732081690.403874,1732081690.405415,127.000000,0.000000,4284.102539,4343.205078,4279.487305,4297.307617,4286.025879,4277.563965,4275.128418,4280.384766,4269.743652,4269.871582,4372.563965,4428.974121,4273.205078,4323.974121,12.000000,0.000000,12.000000,,,,0.000000,2.000000,2.000000,0.000000,2.000000,2.000000,2.000000,1.000000,2.000000,4.000000,4.000000,4.000000,4.000000,2.000000,4.000000,25.000000,,,,,,,,,,,,,,,,,,,,,,,,,,,,
1732081690.411682,1732081690.413123,0.000000,0.000000,4280.769043,4382.307617,4279.102539,4295.769043,4264.743652,4280.128418,4272.436035,4279.871582,4270.769043,4272.692383,4373.717773,4430.512695,4273.589844,4327.307617,5.000000,0.000000,12.000000,,,,0.000000,2.000000,2.000000,0.000000,2.000000,2.000000,2.000000,1.000000,2.000000,4.000000,4.000000,4.000000,4.000000,2.000000,4.000000,25.000000,,,,,,,,,,,,,,,,,0.000000,0.000000,0.630199,0.401672,-0.588806,0.307922,0.954706,0.147479,-0.009767,-75.519402,65.019623,28.951542
1732081690.419490,1732081690.420931,1.000000,0.000000,4276.282227,4425.000000,4277.436035,4293.589844,4261.282227,4273.589844,4270.000000,4280.641113,4272.307617,4275.000000,4370.897461,4433.205078,4272.820313,4326.282227,1287.000000,0.000000,12.000000,,,,0.000000,2.000000,2.000000,0.000000,2.000000,2.000000,2.000000,1.000000,2.000000,4.000000,4.000000,4.000000,4.000000,2.000000,4.000000,25.000000,,,,,,,,,,,,,,,,,,,,,,,,,,,,
1732081690.427298,1732081690.428540,2.000000,0.000000,4276.282227,4477.563965,4274.615234,4292.436035,4266.666504,4262.563965,4264.871582,4282.820313,4267.179688,4268.461426,4364.358887,4428.717773,4267.563965,4318.205078,1214.000000,0.000000,12.000000,,,,0.000000,2.000000,2.000000,0.000000,2.000000,2.000000,2.000000,1.000000,2.000000,4.000000,4.000000,4.000000,4.000000,2.000000,4.000000,25.000000,,,,,,,,,,,,,,,,,,,,,,,,,,,,
1732081690.435106,1732081690.436348,3.000000,0.000000,4270.512695,4525.897461,4274.871582,4289.358887,4258.846191,4262.051270,4260.769043,4281.282227,4263.974121,4261.025879,4363.205078,4421.410156,4263.846191,4313.461426,1150.000000,0.000000,12.000000,,,,0.000000,2.000000,2.000000,0.000000,2.000000,2.000000,2.000000,1.000000,2.000000,4.000000,4.000000,4.000000,4.000000,2.000000,4.000000,25.000000,,,,,,,,,,,,,,,,,,,,,,,,,,,,
1732081690.442915,1732081690.444056,4.000000,0.000000,4268.846191,4561.153809,4277.179688,4286.153809,4247.820313,4260.897461,4265.000000,4280.769043,4263.205078,4260.769043,4366.025879,4425.256348,4265.000000,4316.153809,1197.000000,0.000000,12.000000,,,,0.000000,2.000000,2.000000,0.000000,2.000000,2.000000,2.000000,1.000000,2.000000,4.000000,4.000000,4.000000,4.000000,2.000000,4.000000,25.000000,,,,,,,,,,,,,,,,,1.000000,0.000000,0.629721,0.401978,-0.589172,0.307800,0.965450,0.134782,-0.019534,-75.387383,64.810890,29.080750
1732081690.450723,1732081690.451864,5.000000,0.000000,4275.897461,4595.000000,4278.974121,4285.897461,4250.000000,4250.000000,4267.179688,4280.897461,4261.922852,4257.563965,4363.589844,4431.282227,4264.615234,4316.538574,1075.000000,0.000000,12.000000,,,,0.000000,2.000000,2.000000,0.000000,2.000000,2.000000,2.000000,1.000000,2.000000,4.000000,4.000000,4.000000,4.000000,2.000000,4.000000,25.000000,,,,,,,,,,,,,,,,,,,,,,,,,,,,
1732081690.458531,1732081690.459473,6.000000,0.000000,4270.256348,4637.563965,4275.256348,4286.922852,4252.820313,4244.230957,4261.922852,4281.025879,4261.794922,4253.461426,4360.128418,4421.666504,4262.692383,4315.128418,222.000000,0.000000,12.000000,,,,0.000000,2.000000,2.000000,0.000000,2.000000,2.000000,2.000000,1.000000,2.000000,4.000000,4.000000,4.000000,4.000000,2.000000,4.000000,25.000000,,,,,,,,,,,,,,,,,,,,,,,,,,,,
1732081690.466339,1732081690.467281,7.000000,0.000000,4259.487305,4675.897461,4275.641113,4289.358887,4242.820313,4247.948730,4261.282227,4280.897461,4263.205078,4257.307617,4362.948730,4415.128418,4264.615234,4314.743652,1204.000000,0.000000,12.000000,,,,0.000000,2.000000,2.000000,0.000000,2.000000,2.000000,2.000000,1.000000,2.000000,4.000000,4.000000,4.000000,4.000000,2.000000,4.000000,25.000000,,,,,,,,,,,,,,,,,,,,,,,,,,,,
1732081690.474148,1732081690.475189,8.000000,0.000000,4265.000000,4702.820313,4280.256348,4295.000000,4230.128418,4250.128418,4265.000000,4278.717773,4261.025879,4257.436035,4366.025879,4423.717773,4263.974121,4314.487305,1344.000000,0.000000,12.000000,,,,0.000000,2.000000,2.000000,0.000000,2.000000,2.000000,2.000000,1.000000,2.000000,4.000000,4.000000,4.000000,4.000000,2.000000,4.000000,25.000000,,,,,,,,,,,,,,,,,2.000000,0.000000,0.629721,0.401978,-0.589172,0.307800,0.970333,0.134782,-0.024417,-75.370445,64.731827,29.200407
1732081690.481956,1732081690.482997,9.000000,0.000000,4271.025879,4724.102539,4277.692383,4292.692383,4232.563965,4247.820313,4261.025879,4278.205078,4262.179688,4252.820313,4363.589844,4426.794922,4264.743652,4314.743652,1471.000000,0.000000,12.000000,,,,0.000000,2.000000,2.000000,0.000000,2.000000,2.000000,2.000000,1.000000,2.000000,4.000000,4.000000,4.000000,4.000000,2.000000,4.000000,25.000000,,,,,,,,,,,,,,,,,,,,,,,,,,,,
1732081690.489764,1732081690.491005,10.000000,0.000000,4264.871582,4736.025879,4273.717773,4286.410156,4237.307617,4245.897461,4260.128418,4280.384766,4264.487305,4253.717773,4359.102539,4421.282227,4265.256348,4316.666504,1367.000000,0.000000,12.000000,,,,0.000000,2.000000,2.000000,0.000000,2.000000,2.000000,2.000000,1.000000,2.000000,4.000000,4.000000,4.000000,4.000000,2.000000,4.000000,25.000000,,,,,,,,,,,,,,,,,,,,,,,,,,,,
1732081690.497573,1732081690.498813,11.000000,0.000000,4265.128418,4728.077148,4277.051270,4291.025879,4237.563965,4249.230957,4261.410156,4280.769043,4263.846191,4255.512695,4359.230957,4418.205078,4264.743652,4319.487305,1503.000000,0.000000,12.000000,,,,0.000000,2.000000,2.000000,0.000000,2.000000,2.000000,2.000000,1.000000,2.000000,4.000000,4.000000,4.000000,4.000000,2.000000,4.000000,25.000000,,,,,,,,,,,,,,,,,,,,,,,,,,,,
1732081690.505381,1732081690.506522,12.000000,0.000000,4271.794922,4700.128418,4279.487305,4296.025879,4253.077148,4248.846191,4260.384766,4278.717773,4261.282227,4253.589844,4361.666504,4409.743652,4265.769043,4318.974121,1723.000000,0.000000,12.000000,,,,0.000000,2.000000,2.000000,0.000000,2.000000,2.000000,2.000000,1.000000,2.000000,4.000000,4.000000,4.000000,4.000000,2.000000,4.000000,25.000000,,,,,,,,,,,,,,,,,3.000000,0.000000,0.628809,0.402771,-0.589478,0.308044,0.967403,0.134294,-0.015139,-75.270065,64.704445,29.005663
1732081690.513189,1732081690.514330,13.000000,0.000000,4266.922852,4664.358887,4275.000000,4290.641113,4262.051270,4246.410156,4260.641113,4277.051270,4261.153809,4255.769043,4361.282227,4397.948730,4265.512695,4313.974121,1686.000000,0.000000,12.000000,,,,0.000000,2.000000,2.000000,0.000000,2.000000,2.000000,2.000000,1.000000,2.000000,4.000000,4.000000,4.000000,4.000000,2.000000,4.000000,25.000000,,,,,,,,,,,,,,,,,,,,,,,,,,,,
1732081690.520997,1732081690.522338,14.000000,0.000000,4255.384766,4632.692383,4275.512695,4288.077148,4252.307617,4255.512695,4268.205078,4283.205078,4264.487305,4258.717773,4360.641113,4398.461426,4264.871582,4311.794922,1367.000000,0.000000,12.000000,,,,0.000000,2.000000,2.000000,0.000000,2.000000,2.000000,2.000000,1.000000,2.000000,4.000000,4.000000,4.000000,4.000000,2.000000,4.000000,25.000000,1.000000,16.666666,2.000000,1.000000,0.000000,2.000000,2.000000,2.000000,1.000000,2.000000,3.000000,4.000000,4.000000,4.000000,2.000000,3.000000,,,,,,,,,,,,
1732081690.528806,1732081690.530146,15.000000,0.000000,4256.666504,4611.666504,4274.487305,4296.538574,4252.179688,4265.128418,4270.128418,4287.563965,4266.153809,4258.589844,4364.871582,4406.538574,4266.282227,4314.487305,1503.000000,0.000000,12.000000,,,,0.000000,2.000000,2.000000,0.000000,2.000000,2.000000,2.000000,1.000000,2.000000,4.000000,4.000000,4.000000,4.000000,2.000000,4.000000,25.000000,,,,,,,,,,,,,,,,,,,,,,,,,,,,
1732081690.536614,1732081690.537854,16.000000,0.000000,4265.384766,4590.000000,4274.102539,4293.461426,4266.538574,4265.769043,4267.436035,4283.974121,4265.000000,4261.153809,4366.025879,4410.769043,4265.512695,4315.256348,0.000000,0.000000,12.000000,,,,0.000000,2.000000,2.000000,0.000000,2.000000,2.000000,2.000000,1.000000,2.000000,4.000000,4.000000,4.000000,4.000000,2.000000,4.000000,25.000000,,,,,,,,,,,,,,,,,4.000000,0.000000,0.628511,0.402649,-0.589783,0.308228,0.957636,0.135270,-0.031254,-75.185417,64.630600,28.894587
1732081690.544422,1732081690.545663,17.000000,0.000000,4266.282227,4568.846191,4274.615234,4285.512695,4273.846191,4267.051270,4266.794922,4283.333496,4264.743652,4261.922852,4361.410156,4412.436035,4262.179688,4311.153809,0.000000,0.000000,12.000000,,,,0.000000,2.000000,2.000000,0.000000,2.000000,2.000000,2.000000,1.000000,2.000000,4.000000,4.000000,4.000000,4.000000,2.000000,4.000000,25.000000,,,,,,,,,,,,,,,,,,,,,,,,,,,,
1732081690.552230,1732081690.553271,18.000000,0.000000,4267.948730,4557.179688,4277.820313,4293.974121,4266.410156,4272.436035,4271.282227,4286.794922,4265.128418,4262.692383,4362.563965,4419.743652,4261.410156,4309.358887,0.000000,0.000000,12.000000,,,,0.000000,2.000000,2.000000,0.000000,2.000000,2.000000,2.000000,1.000000,2.000000,4.000000,4.000000,4.000000,4.000000,2.000000,4.000000,25.000000,,,,,,,,,,,,,,,,,,,,,,,,,,,,
1732081690.560039,1732081690.561079,19.000000,0.000000,4275.512695,4546.025879,4276.410156,4303.077148,4270.641113,4271.794922,4270.384766,4285.256348,4265.512695,4265.128418,4367.436035,4429.358887,4263.974121,4314.871582,0.000000,0.000000,12.000000,,,,0.000000,2.000000,2.000000,0.000000,2.000000,2.000000,2.000000,1.000000,2.000000,4.000000,4.000000,4.000000,4.000000,2.000000,4.000000,25.000000,,,,,,,,,,,,,,,,,,,,,,,,,,,,
1732081690.567847,1732081690.568987,20.000000,0.000000,4280.641113,4533.077148,4273.077148,4299.615234,4286.025879,4267.820313,4265.512695,4282.820313,4265.512695,4265.769043,4365.641113,4429.615234,4266.025879,4319.871582,0.000000,0.000000,12.000000,,,,0.000000,2.000000,2.000000,0.000000,2.000000,2.000000,2.000000,1.000000,2.000000,4.000000,4.000000,4.000000,4.000000,2.000000,4.000000,25.000000,,,,,,,,,,,,,,,,,5.000000,0.000000,0.628334,0.401855,-0.590576,0.308105,0.962031,0.137224,-0.031254,-75.270187,64.510788,28.852949
1732081690.575655,1732081690.576796,21.000000,0.000000,4278.846191,4521.666504,4275.128418,4298.077148,4286.666504,4273.846191,4269.615234,4288.589844,4270.384766,4267.179688,4361.282227,4430.512695,4266.153809,4317.820313,0.000000,0.000000,12.000000,,,,0.000000,2.000000,2.000000,0.000000,2.000000,2.000000,2.000000,1.000000,2.000000,4.000000,4.000000,4.000000,4.000000,2.000000,4.000000,25.000000,,,,,,,,,,,,,,,,,,,,,,,,,,,,
1732081690.583463,1732081690.584804,22.000000,0.000000,4276.922852,4506.666504,4277.051270,4302.436035,4272.820313,4278.589844,4275.512695,4293.461426,4274.615234,4270.128418,4363.717773,4440.128418,4267.179688,4319.230957,0.000000,0.000000,12.000000,,,,0.000000,2.000000,2.000000,0.000000,2.000000,2.000000,2.000000,1.000000,2.000000,4.000000,4.000000,4.000000,4.000000,2.000000,4.000000,25.000000,,,,,,,,,,,,,,,,,,,,,,,,,,,,
1732081690.591272,1732081690.592612,23.000000,0.000000,4282.307617,4492.179688,4273.974121,4303.589844,4271.282227,4276.410156,4274.743652,4293.077148,4273.333496,4268.846191,4367.563965,4440.384766,4274.743652,4326.410156,0.000000,0.000000,12.000000,,,,0.000000,2.000000,2.000000,0.000000,2.000000,2.000000,2.000000,1.000000,2.000000,4.000000,4.000000,4.000000,4.000000,2.000000,4.000000,25.000000,,,,,,,,,,,,,,,,,,,,,,,,,,,,
1732081690.599080,1732081690.600520,24.000000,0.000000,4287.948730,4484.871582,4274.615234,4303.589844,4285.897461,4278.077148,4274.487305,4294.487305,4274.487305,4270.128418,4367.563965,4433.589844,4281.666504,4328.974121,0.000000,0.000000,12.000000,,,,0.000000,2.000000,2.000000,0.000000,2.000000,2.000000,2.000000,1.000000,2.000000,4.000000,4.000000,4.000000,4.000000,2.000000,4.000000,25.000000,,,,,,,,,,,,,,,,,6.000000,0.000000,0.628131,0.401855,-0.590759,0.308167,0.962031,0.137224,-0.031254,-75.377182,64.635406,28.754221
1732081690.606888,1732081690.608328,25.000000,0.000000,4286.153809,4475.384766,4277.948730,4305.384766,4291.794922,4283.333496,4277.436035,4297.307617,4280.128418,4275.128418,4367.307617,4439.871582,4278.974121,4327.692383,0.000000,0.000000,12.000000,,,,0.000000,2.000000,2.000000,0.000000,2.000000,2.000000,2.000000,1.000000,2.000000,4.000000,4.000000,4.000000,4.000000,2.000000,4.000000,25.000000,,,,,,,,,,,,,,,,,,,,,,,,,,,,
1732081690.614696,1732081690.616336,26.000000,0.000000,4285.128418,4462.307617,4276.538574,4302.436035,4285.641113,4282.307617,4275.512695,4297.948730,4280.769043,4275.256348,4367.820313,4447.948730,4275.512695,4327.948730,0.000000,0.000000,12.000000,,,,0.000000,2.000000,2.000000,0.000000,2.000000,2.000000,2.000000,1.000000,2.000000,4.000000,4.000000,4.000000,4.000000,2.000000,4.000000,25.000000,,,,,,,,,,,,,,,,,,,,,,,,,,,,
1732081690.622505,1732081690.624144,27.000000,0.000000,4287.179688,4452.820313,4276.794922,4299.230957,4292.692383,4277.820313,4275.000000,4295.256348,4277.820313,4276.282227,4369.871582,4439.487305,4279.487305,4328.077148,0.000000,0.000000,12.000000,,,,0.000000,2.000000,2.000000,0.000000,2.000000,2.000000,2.000000,1.000000,2.000000,4.000000,4.000000,4.000000,4.000000,2.000000,4.000000,25.000000,,,,,,,,,,,,,,,,,,,,,,,,,,,,
1732081690.630313,1732081690.631853,28.000000,0.000000,4284.230957,4445.000000,4278.846191,4301.538574,4308.077148,4280.256348,4276.025879,4294.743652,4278.589844,4279.743652,4373.717773,4430.128418,4278.077148,4328.461426,0.000000,0.000000,12.000000,,,,0.000000,2.000000,2.000000,0.000000,2.000000,2.000000,2.000000,1.000000,2.000000,4.000000,4.000000,4.000000,4.000000,2.000000,4.000000,25.000000,,,,,,,,,,,,,,,,,7.000000,0.000000,0.627500,0.402100,-0.590881,0.308899,0.973752,0.133805,-0.025882,-75.365517,64.618011,28.380920
1732081690.638121,1732081690.639661,29.000000,0.000000,4279.230957,4435.897461,4277.307617,4301.666504,4295.769043,4282.692383,4279.487305,4296.538574,4281.153809,4282.051270,4375.512695,4438.077148,4277.179688,4329.358887,0.000000,0.000000,12.000000,,,,0.000000,2.000000,2.000000,0.000000,2.000000,2.000000,2.000000,1.000000,2.000000,4.000000,4.000000,4.000000,4.000000,2.000000,4.000000,25.000000,,,,,,,,,,,,,,,,,,,,,,,,,,,,
1732081690.645929,1732081690.647669,30.000000,0.000000,4281.538574,4426.794922,4275.641113,4299.230957,4284.743652,4281.025879,4280.897461,4295.512695,4281.538574,4284.615234,4376.025879,4448.846191,4285.897461,4329.743652,0.000000,0.000000,12.000000,,,,0.000000,2.000000,2.000000,0.000000,2.000000,2.000000,2.000000,1.000000,2.000000,4.000000,4.000000,4.000000,4.000000,2.000000,4.000000,25.000000,,,,,,,,,,,,,,,,,,,,,,,,,,,,
1732081690.653738,1732081690.655477,31.000000,0.000000,4283.974121,4420.000000,4278.205078,4299.358887,4298.461426,4282.051270,4279.358887,4295.384766,4282.563965,4285.769043,4378.717773,4445.384766,4287.051270,4334.102539,0.000000,0.000000,12.000000,,,,0.000000,2.000000,2.000000,0.000000,2.000000,2.000000,2.000000,1.000000,2.000000,4.000000,4.000000,4.000000,4.000000,2.000000,4.000000,25.000000,,,,,,,,,,,,,,,,,,,,,,,,,,,,
1732081690.661546,1732081690.663385,32.000000,0.000000,4278.974121,4411.282227,4276.922852,4297.436035,4298.846191,4287.948730,4277.692383,4299.230957,4287.436035,4287.179688,4382.436035,4439.230957,4280.512695,4340.128418,0.000000,0.000000,12.000000,,,,0.000000,2.000000,2.000000,0.000000,2.000000,2.000000,2.000000,1.000000,2.000000,4.000000,4.000000,4.000000,4.000000,2.000000,4.000000,25.000000,,,,,,,,,,,,,,,,,8.000000,0.000000,0.627461,0.402161,-0.590881,0.308899,0.984007,0.131852,-0.041509,-75.626068,64.553925,28.261879
1732081690.669354,1732081690.671193,33.000000,0.000000,4276.922852,4401.922852,4275.769043,4294.743652,4289.487305,4291.538574,4281.410156,4303.974121,4289.743652,4289.487305,4383.205078,4441.666504,4281.410156,4340.641113,0.000000,0.000000,12.000000,,,,0.000000,2.000000,2.000000,0.000000,2.000000,2.000000,2.000000,1.000000,2.000000,4.000000,4.000000,4.000000,4.000000,2.000000,4.000000,25.000000,,,,,,,,,,,,,,,,,,,,,,,,,,,,
1732081690.677162,1732081690.679201,34.000000,0.000000,4283.974121,4397.051270,4275.897461,4301.666504,4294.102539,4292.436035,4283.461426,4302.307617,4289.487305,4289.358887,4381.538574,4440.641113,4286.153809,4338.589844,0.000000,0.000000,12.000000,,,,0.000000,2.000000,2.000000,0.000000,2.000000,2.000000,2.000000,1.000000,2.000000,4.000000,4.000000,4.000000,4.000000,2.000000,4.000000,25.000000,,,,,,,,,,,,,,,,,,,,,,,,,,,,
1732081690.684971,1732081690.687010,35.000000,0.000000,4284.743652,4390.769043,4277.051270,4304.743652,4297.820313,4294.615234,4283.589844,4299.743652,4293.333496,4290.000000,4380.897461,4435.128418,4282.948730,4335.769043,0.000000,0.000000,12.000000,,,,0.000000,2.000000,2.000000,0.000000,2.000000,2.000000,2.000000,1.000000,2.000000,4.000000,4.000000,4.000000,4.000000,2.000000,4.000000,25.000000,,,,,,,,,,,,,,,,,,,,,,,,,,,,
1732081690.692779,1732081690.694918,36.000000,0.000000,4278.589844,4384.230957,4276.794922,4299.358887,4303.589844,4293.589844,4280.641113,4301.025879,4297.307617,4293.333496,4382.179688,4430.000000,4282.051270,4335.256348,0.000000,0.000000,12.000000,,,,0.000000,2.000000,2.000000,0.000000,2.000000,2.000000,2.000000,1.000000,2.000000,4.000000,4.000000,4.000000,4.000000,2.000000,4.000000,25.000000,,,,,,,,,,,,,,,,,9.000000,0.000000,0.627419,0.402222,-0.590820,0.309021,0.984007,0.131852,-0.041509,-75.733788,64.560341,28.187120
1732081690.700587,1732081690.702726,37.000000,0.000000,4284.230957,4382.820313,4277.563965,4302.563965,4310.384766,4288.974121,4278.461426,4300.641113,4292.948730,4292.948730,4385.769043,4430.769043,4285.512695,4342.179688,0.000000,0.000000,12.000000,,,,0.000000,2.000000,2.000000,0.000000,2.000000,2.000000,2.000000,1.000000,2.000000,4.000000,4.000000,4.000000,4.000000,2.000000,4.000000,25.000000,,,,,,,,,,,,,,,,,,,,,,,,,,,,
1732081690.708395,1732081690.710734,38.000000,0.000000,4290.256348,4378.589844,4278.974121,4309.358887,4298.974121,4290.384766,4282.692383,4298.974121,4288.846191,4290.641113,4388.846191,4437.179688,4283.333496,4344.743652,0.000000,0.000000,12.000000,,,,0.000000,2.000000,2.000000,0.000000,2.000000,2.000000,2.000000,1.000000,2.000000,4.000000,4.000000,4.000000,4.000000,2.000000,4.000000,25.000000,,,,,,,,,,,,,,,,,,,,,,,,,,,,
1732081690.716204,1732081690.718542,39.000000,0.000000,4282.563965,4369.358887,4276.410156,4309.615234,4287.948730,4294.487305,4282.563965,4302.436035,4290.897461,4292.436035,4391.153809,4438.205078,4284.487305,4339.487305,0.000000,0.000000,12.000000,,,,0.000000,2.000000,2.000000,0.000000,2.000000,2.000000,2.000000,1.000000,2.000000,4.000000,4.000000,4.000000,4.000000,2.000000,4.000000,25.000000,,,,,,,,,,,,,,,,,,,,,,,,,,,,
1732081690.724012,1732081690.726250,40.000000,0.000000,4283.717773,4365.897461,4274.230957,4308.974121,4296.410156,4294.358887,4280.000000,4306.922852,4291.666504,4294.871582,4392.563965,4430.256348,4292.820313,4340.512695,0.000000,0.000000,12.000000,,,,0.000000,2.000000,2.000000,0.000000,2.000000,2.000000,2.000000,1.000000,2.000000,4.000000,4.000000,4.000000,4.000000,2.000000,4.000000,25.000000,,,,,,,,,,,,,,,,,10.000000,0.000000,0.627112,0.402466,-0.590820,0.309326,0.967892,0.123550,-0.012697,-75.534363,64.462212,28.184902
1732081690.731820,1732081690.734059,41.000000,0.000000,4292.307617,4362.563965,4276.538574,4308.974121,4307.948730,4291.794922,4281.410156,4304.230957,4293.205078,4296.538574,4393.717773,4423.461426,4296.666504,4349.487305,0.000000,0.000000,12.000000,,,,0.000000,2.000000,2.000000,0.000000,2.000000,2.000000,2.000000,1.000000,2.000000,4.000000,4.000000,4.000000,4.000000,2.000000,4.000000,25.000000,,,,,,,,,,,,,,,,,,,,,,,,,,,,
1732081690.739628,1732081690.741667,42.000000,0.000000,4292.051270,4355.000000,4278.846191,4308.333496,4305.000000,4293.205078,4284.615234,4303.461426,4295.256348,4296.794922,4397.307617,4425.897461,4295.256348,4353.717773,0.000000,0.000000,12.000000,,,,0.000000,2.000000,2.000000,0.000000,2.000000,2.000000,2.000000,1.000000,2.000000,4.000000,4.000000,4.000000,4.000000,2.000000,4.000000,25.000000,,,,,,,,,,,,,,,,,,,,,,,,,,,,
1732081690.747437,1732081690.749475,43.000000,0.000000,4289.615234,4351.282227,4278.846191,4311.282227,4298.205078,4299.487305,4283.846191,4310.641113,4295.769043,4297.179688,4397.179688,4430.000000,4294.743652,4350.000000,0.000000,0.000000,12.000000,,,,0.000000,2.000000,2.000000,0.000000,2.000000,2.000000,2.000000,1.000000,2.000000,4.000000,4.000000,4.000000,4.000000,2.000000,4.000000,25.000000,,,,,,,,,,,,,,,,,,,,,,,,,,,,
1732081690.755245,1732081690.757184,44.000000,0.000000,4289.230957,4346.666504,4280.897461,4312.692383,4301.153809,4299.358887,4285.128418,4312.820313,4295.128418,4298.077148,4394.230957,4430.256348,4295.512695,4348.461426,0.000000,0.000000,12.000000,,,,0.000000,2.000000,2.000000,0.000000,2.000000,2.000000,2.000000,1.000000,2.000000,4.000000,4.000000,4.000000,4.000000,2.000000,4.000000,25.000000,,,,,,,,,,,,,,,,,11.000000,0.000000,0.627178,0.402283,-0.591003,0.309082,0.966427,0.128922,-0.029789,-75.372833,64.432724,28.266438
1732081690.763053,1732081690.764992,45.000000,0.000000,4289.743652,4340.769043,4279.615234,4311.153809,4309.615234,4296.282227,4284.743652,4310.000000,4295.384766,4298.077148,4394.743652,4429.615234,4299.358887,4355.384766,0.000000,0.000000,12.000000,,,,0.000000,2.000000,2.000000,0.000000,2.000000,2.000000,2.000000,1.000000,2.000000,4.000000,4.000000,4.000000,4.000000,2.000000,4.000000,25.000000,,,,,,,,,,,,,,,,,,,,,,,,,,,,
1732081690.770862,1732081690.772600,46.000000,0.000000,4293.461426,4337.563965,4278.333496,4314.102539,4315.128418,4298.461426,4285.384766,4308.974121,4293.205078,4295.512695,4394.743652,4430.769043,4300.897461,4355.641113,0.000000,0.000000,12.000000,,,,0.000000,2.000000,2.000000,0.000000,2.000000,2.000000,2.000000,1.000000,2.000000,4.000000,4.000000,4.000000,4.000000,2.000000,4.000000,25.000000,,,,,,,,,,,,,,,,,,,,,,,,,,,,
1732081690.778670,1732081690.780408,47.000000,0.000000,4291.410156,4332.563965,4280.512695,4316.282227,4312.820313,4298.846191,4285.512695,4310.128418,4291.282227,4295.384766,4393.589844,4429.871582,4295.384766,4346.282227,0.000000,0.000000,12.000000,,,,0.000000,2.000000,2.000000,0.000000,2.000000,2.000000,2.000000,1.000000,2.000000,4.000000,4.000000,4.000000,4.000000,2.000000,4.000000,25.000000,,,,,,,,,,,,,,,,,,,,,,,,,,,,
1732081690.786478,1732081690.788317,48.000000,0.000000,4282.820313,4326.666504,4282.563965,4318.333496,4304.102539,4295.256348,4283.589844,4311.794922,4295.256348,4297.436035,4393.589844,4431.794922,4293.717773,4346.282227,0.000000,0.000000,12.000000,,,,0.000000,2.000000,2.000000,0.000000,2.000000,2.000000,2.000000,1.000000,2.000000,4.000000,4.000000,4.000000,4.000000,2.000000,4.000000,25.000000,,,,,,,,,,,,,,,,,12.000000,0.000000,0.627178,0.402283,-0.591003,0.309082,0.961543,0.133805,-0.037602,-75.241997,64.303841,28.377481
1732081690.794286,1732081690.796125,49.000000,0.000000,4284.743652,4325.897461,4278.589844,4322.692383,4301.025879,4299.358887,4284.230957,4314.102539,4297.692383,4298.846191,4395.384766,4440.128418,4295.897461,4352.948730,0.000000,0.000000,12.000000,,,,0.000000,2.000000,2.000000,0.000000,2.000000,2.000000,2.000000,1.000000,2.000000,4.000000,4.000000,4.000000,4.000000,2.000000,4.000000,25.000000,,,,,,,,,,,,,,,,,,,,,,,,,,,,
1732081690.802095,1732081690.803733,50.000000,0.000000,4287.179688,4323.974121,4277.820313,4317.692383,4311.538574,4305.128418,4287.436035,4311.538574,4294.102539,4297.820313,4395.769043,4442.948730,4294.743652,4352.051270,0.000000,0.000000,12.000000,,,,0.000000,2.000000,2.000000,0.000000,2.000000,2.000000,2.000000,1.000000,2.000000,4.000000,4.000000,4.000000,4.000000,2.000000,4.000000,25.000000,,,,,,,,,,,,,,,,,,,,,,,,,,,,
1732081690.809903,1732081690.811541,51.000000,0.000000,4280.384766,4318.205078,4278.077148,4316.794922,4319.358887,4299.743652,4285.128418,4309.102539,4291.922852,4297.692383,4395.769043,4442.563965,4297.307617,4353.589844,0.000000,0.000000,12.000000,,,,0.000000,2.000000,2.000000,0.000000,2.000000,2.000000,2.000000,1.000000,2.000000,4.000000,4.000000,4.000000,4.000000,2.000000,4.000000,25.000000,,,,,,,,,,,,,,,,,,,,,,,,,,,,
1732081690.817711,1732081690.819449,52.000000,0.000000,4280.000000,4315.512695,4279.102539,4328.717773,4317.179688,4295.897461,4283.974121,4310.769043,4294.743652,4300.256348,4393.846191,4446.410156,4301.025879,4359.871582,0.000000,0.000000,12.000000,,,,0.000000,2.000000,2.000000,0.000000,2.000000,2.000000,2.000000,1.000000,2.000000,4.000000,4.000000,4.000000,4.000000,2.000000,4.000000,25.000000,,,,,,,,,,,,,,,,,13.000000,0.000000,0.627093,0.402283,-0.591125,0.309021,0.971310,0.125992,-0.033207,-75.449348,64.214447,28.115759
1732081690.825519,1732081690.827258,53.000000,0.000000,4283.974121,4314.743652,4280.128418,4334.102539,4313.717773,4298.461426,4286.410156,4310.384766,4295.769043,4300.000000,4392.692383,4445.897461,4297.692383,4362.307617,0.000000,0.000000,12.000000,,,,0.000000,2.000000,2.000000,0.000000,2.000000,2.000000,2.000000,1.000000,2.000000,4.000000,4.000000,4.000000,4.000000,2.000000,4.000000,25.000000,,,,,,,,,,,,,,,,,,,,,,,,,,,,
1732081690.833327,1732081690.834866,54.000000,0.000000,4280.897461,4310.384766,4281.410156,4329.487305,4308.846191,4303.461426,4282.179688,4309.743652,4294.358887,4297.692383,4395.000000,4440.000000,4295.128418,4360.512695,0.000000,0.000000,12.000000,,,,0.000000,2.000000,2.000000,0.000000,2.000000,2.000000,2.000000,1.000000,2.000000,4.000000,4.000000,4.000000,4.000000,2.000000,4.000000,25.000000,,,,,,,,,,,,,,,,,,,,,,,,,,,,
1732081690.841136,1732081690.842674,55.000000,0.000000,4280.512695,4309.743652,4281.282227,4333.974121,4308.333496,4307.692383,4277.948730,4312.436035,4294.871582,4297.692383,4393.205078,4440.384766,4295.769043,4360.897461,0.000000,0.000000,12.000000,,,,0.000000,2.000000,2.000000,0.000000,2.000000,2.000000,2.000000,1.000000,2.000000,4.000000,4.000000,4.000000,4.000000,2.000000,4.000000,25.000000,,,,,,,,,,,,,,,,,,,,,,,,,,,,
1732081690.848944,1732081690.850383,56.000000,0.000000,4285.000000,4310.897461,4281.666504,4340.641113,4312.820313,4302.948730,4279.230957,4313.077148,4295.641113,4298.974121,4393.589844,4447.436035,4295.897461,4364.743652,0.000000,0.000000,12.000000,,,,0.000000,2.000000,2.000000,0.000000,2.000000,2.000000,2.000000,1.000000,2.000000,4.000000,4.000000,4.000000,4.000000,2.000000,4.000000,25.000000,,,,,,,,,,,,,,,,,14.000000,0.000000,0.626970,0.402466,-0.591003,0.309265,0.972287,0.130875,-0.024417,-75.550644,64.392036,27.962099
1732081690.856752,1732081690.858191,57.000000,0.000000,4282.692383,4303.717773,4283.461426,4337.307617,4314.230957,4298.846191,4280.384766,4311.282227,4294.615234,4300.256348,4397.436035,4445.897461,4296.794922,4364.743652,0.000000,0.000000,12.000000,,,,0.000000,2.000000,2.000000,0.000000,2.000000,2.000000,2.000000,1.000000,2.000000,4.000000,4.000000,4.000000,4.000000,2.000000,4.000000,25.000000,,,,,,,,,,,,,,,,,,,,,,,,,,,,
1732081690.864560,1732081690.865799,58.000000,0.000000,4282.051270,4299.615234,4284.487305,4341.153809,4309.743652,4307.563965,4279.230957,4315.000000,4297.179688,4302.436035,4397.820313,4436.666504,4296.153809,4362.436035,0.000000,0.000000,12.000000,,,,0.000000,2.000000,2.000000,0.000000,2.000000,2.000000,2.000000,1.000000,2.000000,4.000000,4.000000,4.000000,4.000000,2.000000,4.000000,25.000000,,,,,,,,,,,,,,,,,,,,,,,,,,,,
1732081690.872369,1732081690.873607,59.000000,0.000000,4290.384766,4302.820313,4286.922852,4345.384766,4317.563965,4312.436035,4281.410156,4317.948730,4300.384766,4301.794922,4398.077148,4437.051270,4293.461426,4366.025879,0.000000,0.000000,12.000000,,,,0.000000,2.000000,2.000000,0.000000,2.000000,2.000000,2.000000,1.000000,2.000000,4.000000,4.000000,4.000000,4.000000,2.000000,4.000000,25.000000,,,,,,,,,,,,,,,,,,,,,,,,,,,,
1732081690.880177,1732081690.881316,60.000000,0.000000,4294.230957,4301.282227,4286.410156,4342.307617,4327.820313,4306.794922,4281.282227,4314.230957,4295.769043,4298.333496,4400.769043,4442.692383,4296.538574,4371.153809,0.000000,0.000000,12.000000,,,,0.000000,2.000000,2.000000,0.000000,2.000000,2.000000,2.000000,1.000000,2.000000,4.000000,4.000000,4.000000,4.000000,2.000000,4.000000,25.000000,,,,,,,,,,,,,,,,,15.000000,0.000000,0.626859,0.402588,-0.590942,0.309448,0.966915,0.129899,-0.023440,-75.522682,64.475883,27.714300
1732081690.887985,1732081690.889124,61.000000,0.000000,4287.436035,4294.358887,4284.358887,4345.000000,4315.384766,4310.897461,4285.512695,4313.333496,4296.282227,4302.179688,4401.922852,4441.282227,4299.743652,4367.692383,0.000000,0.000000,12.000000,,,,0.000000,2.000000,2.000000,0.000000,2.000000,2.000000,2.000000,1.000000,2.000000,4.000000,4.000000,4.000000,4.000000,2.000000,4.000000,25.000000,,,,,,,,,,,,,,,,,,,,,,,,,,,,
1732081690.895794,1732081690.897132,62.000000,0.000000,4284.871582,4292.436035,4282.820313,4351.025879,4316.153809,4313.846191,4284.743652,4313.974121,4304.358887,4306.025879,4399.230957,4434.102539,4295.769043,4359.871582,0.000000,0.000000,12.000000,,,,0.000000,2.000000,2.000000,0.000000,2.000000,2.000000,2.000000,1.000000,2.000000,4.000000,4.000000,4.000000,4.000000,2.000000,4.000000,25.000000,,,,,,,,,,,,,,,,,,,,,,,,,,,,
1732081690.903602,1732081690.904940,63.000000,0.000000,4289.102539,4294.230957,4284.487305,4346.538574,4328.461426,4304.358887,4280.000000,4311.410156,4301.410156,4302.948730,4399.102539,4428.333496,4298.717773,4363.205078,0.000000,0.000000,12.000000,,,,0.000000,2.000000,2.000000,0.000000,2.000000,2.000000,2.000000,1.000000,2.000000,4.000000,4.000000,4.000000,4.000000,2.000000,4.000000,25.000000,,,,,,,,,,,,,,,,,,,,,,,,,,,,
1732081690.911410,1732081690.912848,64.000000,0.000000,4291.794922,4290.384766,4283.717773,4345.256348,4313.077148,4306.025879,4280.641113,4313.974121,4295.769043,4302.307617,4403.461426,4430.384766,4309.358887,4374.615234,1.000000,0.000000,12.000000,,,,0.000000,2.000000,2.000000,0.000000,2.000000,2.000000,2.000000,1.000000,2.000000,4.000000,4.000000,4.000000,4.000000,2.000000,4.000000,25.000000,,,,,,,,,,,,,,,,,16.000000,0.000000,0.626925,0.402527,-0.590881,0.309509,0.961055,0.138200,-0.019045,-75.531708,64.378799,27.745249
1732081690.919218,1732081690.920656,65.000000,0.000000,4294.102539,4284.615234,4282.948730,4351.666504,4307.692383,4312.692383,4281.666504,4316.025879,4300.641113,4307.051270,4407.179688,4439.102539,4312.051270,4378.333496,1285.000000,0.000000,12.000000,,,,0.000000,2.000000,2.000000,0.000000,2.000000,2.000000,2.000000,1.000000,2.000000,4.000000,4.000000,4.000000,4.000000,2.000000,4.000000,25.000000,,,,,,,,,,,,,,,,,,,,,,,,,,,,
1732081690.927027,1732081690.928664,66.000000,0.000000,4293.717773,4284.230957,4279.871582,4348.717773,4329.615234,4310.769043,4278.461426,4310.897461,4304.102539,4309.487305,4408.333496,4439.102539,4310.128418,4375.897461,1212.000000,0.000000,12.000000,,,,0.000000,2.000000,2.000000,0.000000,2.000000,2.000000,2.000000,1.000000,2.000000,4.000000,4.000000,4.000000,4.000000,2.000000,4.000000,25.000000,,,,,,,,,,,,,,,,,,,,,,,,,,,,
1732081690.934835,1732081690.936473,67.000000,0.000000,4291.922852,4285.769043,4280.128418,4347.563965,4326.666504,4310.897461,4281.538574,4315.256348,4300.128418,4305.769043,4405.641113,4428.077148,4310.641113,4376.794922,1153.000000,0.000000,12.000000,,,,0.000000,2.000000,2.000000,0.000000,2.000000,2.000000,2.000000,1.000000,2.000000,4.000000,4.000000,4.000000,4.000000,2.000000,4.000000,25.000000,,,,,,,,,,,,,,,,,,,,,,,,,,,,
1732081690.942643,1732081690.944181,68.000000,0.000000,4291.282227,4283.974121,4281.410156,4354.871582,4309.487305,4314.230957,4282.948730,4321.410156,4298.974121,4302.436035,4400.512695,4425.769043,4308.846191,4377.820313,1192.000000,0.000000,12.000000,,,,0.000000,2.000000,2.000000,0.000000,2.000000,2.000000,2.000000,1.000000,2.000000,4.000000,4.000000,4.000000,4.000000,2.000000,4.000000,25.000000,,,,,,,,,,,,,,,,,17.000000,0.000000,0.627031,0.402222,-0.590881,0.309692,0.959101,0.145037,-0.020510,-75.747353,64.216827,27.806986
1732081690.950451,1732081690.951989,69.000000,0.000000,4287.436035,4277.051270,4281.282227,4350.128418,4316.794922,4311.282227,4277.948730,4315.256348,4299.743652,4303.333496,4398.077148,4434.487305,4304.871582,4375.512695,1075.000000,0.000000,12.000000,,,,0.000000,2.000000,2.000000,0.000000,2.000000,2.000000,2.000000,1.000000,2.000000,4.000000,4.000000,4.000000,4.000000,2.000000,4.000000,25.000000,,,,,,,,,,,,,,,,,,,,,,,,,,,,
1732081690.958259,1732081690.959598,70.000000,0.000000,4279.102539,4268.333496,4279.743652,4339.615234,4319.871582,4308.974121,4281.538574,4314.102539,4303.717773,4307.692383,4403.205078,4437.692383,4308.589844,4376.538574,218.000000,0.000000,12.000000,,,,0.000000,2.000000,2.000000,0.000000,2.000000,2.000000,2.000000,1.000000,2.000000,4.000000,4.000000,4.000000,4.000000,2.000000,4.000000,25.000000,,,,,,,,,,,,,,,,,,,,,,,,,,,,
1732081690.966068,1732081690.967406,71.000000,0.000000,4278.974121,4266.410156,4280.128418,4342.563965,4315.256348,4312.307617,4285.128418,4322.820313,4306.666504,4308.589844,4405.384766,4433.846191,4312.563965,4378.461426,1195.000000,0.000000,12.000000,,,,0.000000,2.000000,2.000000,0.000000,2.000000,2.000000,2.000000,1.000000,2.000000,4.000000,4.000000,4.000000,4.000000,2.000000,4.000000,25.000000,,,,,,,,,,,,,,,,,,,,,,,,,,,,
1732081690.973876,1732081690.975314,72.000000,0.000000,4283.077148,4268.717773,4282.051270,4348.333496,4321.922852,4312.692383,4281.922852,4321.794922,4301.922852,4303.717773,4401.153809,4432.179688,4304.743652,4376.025879,1341.000000,0.000000,12.000000,,,,0.000000,2.000000,2.000000,0.000000,2.000000,2.000000,2.000000,1.000000,2.000000,4.000000,4.000000,4.000000,4.000000,2.000000,4.000000,25.000000,,,,,,,,,,,,,,,,,18.000000,0.000000,0.627649,0.401123,-0.591003,0.309631,0.969357,0.138689,-0.011720,-75.598686,64.175629,27.968658
1732081690.981684,1732081690.983122,73.000000,0.000000,4281.922852,4266.538574,4282.436035,4345.641113,4319.230957,4311.153809,4281.794922,4316.282227,4301.538574,4303.846191,4404.230957,4432.692383,4300.384766,4374.871582,1467.000000,0.000000,12.000000,,,,0.000000,2.000000,2.000000,0.000000,2.000000,2.000000,2.000000,1.000000,2.000000,4.000000,4.000000,4.000000,4.000000,2.000000,4.000000,25.000000,,,,,,,,,,,,,,,,,,,,,,,,,,,,
1732081690.989493,1732081690.991130,74.000000,0.000000,4280.641113,4264.487305,4282.948730,4343.589844,4315.256348,4310.769043,4285.384766,4319.358887,4307.307617,4310.000000,4411.153809,4433.077148,4311.922852,4377.179688,1356.000000,0.000000,12.000000,,,,0.000000,2.000000,2.000000,0.000000,2.000000,2.000000,2.000000,1.000000,2.000000,4.000000,4.000000,4.000000,4.000000,2.000000,4.000000,25.000000,,,,,,,,,,,,,,,,,,,,,,,,,,,,
1732081690.997301,1732081690.998938,75.000000,0.000000,4280.769043,4266.153809,4282.051270,4343.461426,4329.615234,4310.641113,4282.307617,4319.102539,4308.077148,4312.948730,4409.487305,4432.436035,4314.230957,4377.820313,1497.000000,0.000000,12.000000,,,,0.000000,2.000000,2.000000,0.000000,2.000000,2.000000,2.000000,1.000000,2.000000,4.000000,4.000000,4.000000,4.000000,2.000000,4.000000,25.000000,,,,,,,,,,,,,,,,,,,,,,,,,,,,
1732081691.005109,1732081691.006846,76.000000,0.000000,4283.333496,4265.256348,4283.461426,4342.820313,4331.153809,4311.794922,4282.563965,4312.948730,4306.153809,4309.102539,4405.769043,4430.769043,4302.820313,4373.717773,1723.000000,0.000000,12.000000,,,,0.000000,2.000000,2.000000,0.000000,2.000000,2.000000,2.000000,1.000000,2.000000,4.000000,4.000000,4.000000,4.000000,2.000000,4.000000,25.000000,,,,,,,,,,,,,,,,,19.000000,0.000000,0.627748,0.400879,-0.591064,0.309631,0.969357,0.138689,-0.011720,-75.358269,64.142258,28.069613
1732081691.012917,1732081691.014655,77.000000,0.000000,4288.974121,4267.307617,4283.589844,4344.230957,4319.230957,4310.641113,4283.846191,4313.846191,4308.333496,4308.333496,4409.743652,4431.153809,4309.358887,4374.487305,1685.000000,0.000000,12.000000,,,,0.000000,2.000000,2.000000,0.000000,2.000000,2.000000,2.000000,1.000000,2.000000,4.000000,4.000000,4.000000,4.000000,2.000000,4.000000,25.000000,,,,,,,,,,,,,,,,,,,,,,,,,,,,
