title:five, start timestamp:1732081645.974855, stop timestamp:1732081677.832532, headset type:EPOCX, headset serial:E5020C3A, headset firmware:730, channels:67, sampling rate:eeg_128;mot_32, samples:4081      , version:2.2, 
Timestamp,OriginalTimestamp,EEG.Counter,EEG.Interpolated,EEG.AF3,EEG.F7,EEG.F3,EEG.FC5,EEG.T7,EEG.P7,EEG.O1,EEG.O2,EEG.P8,EEG.T8,EEG.FC6,EEG.F4,EEG.F8,EEG.AF4,EEG.RawCq,EEG.Battery,EEG.BatteryPercent,MarkerIndex,MarkerType,MarkerValueInt,EEG.MarkerHardware,CQ.AF3,CQ.F7,CQ.F3,CQ.FC5,CQ.T7,CQ.P7,CQ.O1,CQ.O2,CQ.P8,CQ.T8,CQ.FC6,CQ.F4,CQ.F8,CQ.AF4,CQ.Overall,EQ.SampleRateQuality,EQ.OVERALL,EQ.AF3,EQ.F7,EQ.F3,EQ.FC5,EQ.T7,EQ.P7,EQ.O1,EQ.O2,EQ.P8,EQ.T8,EQ.FC6,EQ.F4,EQ.F8,EQ.AF4,MOT.CounterMems,MOT.InterpolatedMems,MOT.Q0,MOT.Q1,MOT.Q2,MOT.Q3,MOT.AccX,MOT.AccY,MOT.AccZ,MOT.MagX,MOT.MagY,MOT.MagZ
1732081645.974855,1732081645.976813,69.000000,0.000000,4307.692383,4285.256348,4317.051270,4302.563965,4302.692383,4306.282227,4320.897461,4340.256348,4327.307617,4312.436035,4445.641113,4459.615234,4414.615234,4392.179688,1065.000000,0.000000,13.000000,,,,0.000000,2.000000,2.000000,0.000000,2.000000,2.000000,2.000000,1.000000,2.000000,4.000000,4.000000,4.000000,4.000000,2.000000,4.000000,25.000000,,,,,,,,,,,,,,,,,,,,,,,,,,,,
1732081645.982664,1732081645.984421,70.000000,0.000000,4311.025879,4296.666504,4317.563965,4311.538574,4302.563965,4304.230957,4317.692383,4334.102539,4327.051270,4310.641113,4441.153809,4451.410156,4414.230957,4383.846191,213.000000,0.000000,13.000000,,,,0.000000,2.000000,2.000000,0.000000,2.000000,2.000000,2.000000,1.000000,2.000000,4.000000,4.000000,4.000000,4.000000,2.000000,4.000000,25.000000,,,,,,,,,,,,,,,,,,,,,,,,,,,,
1732081645.990472,1732081645.992229,71.000000,0.000000,4311.025879,4303.333496,4319.487305,4315.128418,4298.461426,4307.563965,4316.666504,4333.589844,4326.282227,4310.000000,4439.230957,4451.410156,4417.692383,4386.153809,1194.000000,0.000000,13.000000,,,,0.000000,2.000000,2.000000,0.000000,2.000000,2.000000,2.000000,1.000000,2.000000,4.000000,4.000000,4.000000,4.000000,2.000000,4.000000,25.000000,,,,,,,,,,,,,,,,,,,,,,,,,,,,
1732081645.998280,1732081645.999938,72.000000,0.000000,4310.897461,4298.974121,4321.153809,4309.358887,4302.948730,4311.666504,4321.666504,4336.153809,4324.230957,4306.794922,4440.769043,4458.717773,4415.256348,4390.128418,1332.000000,0.000000,13.000000,,,,0.000000,2.000000,2.000000,0.000000,2.000000,2.000000,2.000000,1.000000,2.000000,4.000000,4.000000,4.000000,4.000000,2.000000,4.000000,25.000000,,,,,,,,,,,,,,,,,18.000000,0.000000,0.631018,0.399902,-0.587463,0.311096,0.968868,0.132829,-0.009767,-75.556862,63.563545,28.622702
1732081646.006088,1732081646.007746,73.000000,0.000000,4310.000000,4297.820313,4321.666504,4310.897461,4312.179688,4307.948730,4319.743652,4335.769043,4324.102539,4303.589844,4439.358887,4457.307617,4410.384766,4383.461426,1461.000000,0.000000,13.000000,,,,0.000000,2.000000,2.000000,0.000000,2.000000,2.000000,2.000000,1.000000,2.000000,4.000000,4.000000,4.000000,4.000000,2.000000,4.000000,25.000000,,,,,,,,,,,,,,,,,,,,,,,,,,,,
1732081646.013897,1732081646.015754,74.000000,0.000000,4305.384766,4299.358887,4323.461426,4309.615234,4316.666504,4302.179688,4317.692383,4334.615234,4326.794922,4307.179688,4436.666504,4451.025879,4411.410156,4377.307617,1344.000000,0.000000,13.000000,,,,0.000000,2.000000,2.000000,0.000000,2.000000,2.000000,2.000000,1.000000,2.000000,4.000000,4.000000,4.000000,4.000000,2.000000,4.000000,25.000000,,,,,,,,,,,,,,,,,,,,,,,,,,,,
1732081646.021705,1732081646.023562,75.000000,0.000000,4304.615234,4299.102539,4319.615234,4304.871582,4307.179688,4304.871582,4320.000000,4335.641113,4327.051270,4310.769043,4438.974121,4453.717773,4417.051270,4382.179688,1486.000000,0.000000,13.000000,,,,0.000000,2.000000,2.000000,0.000000,2.000000,2.000000,2.000000,1.000000,2.000000,4.000000,4.000000,4.000000,4.000000,2.000000,4.000000,25.000000,,,,,,,,,,,,,,,,,,,,,,,,,,,,
1732081646.029513,1732081646.031270,76.000000,0.000000,4308.717773,4301.025879,4317.692383,4308.461426,4296.794922,4308.461426,4320.897461,4335.512695,4322.436035,4305.512695,4445.384766,4458.846191,4419.102539,4388.205078,1718.000000,0.000000,13.000000,,,,0.000000,2.000000,2.000000,0.000000,2.000000,2.000000,2.000000,1.000000,2.000000,4.000000,4.000000,4.000000,4.000000,2.000000,4.000000,25.000000,,,,,,,,,,,,,,,,,19.000000,0.000000,0.631021,0.399719,-0.587585,0.311096,0.978635,0.141619,-0.014162,-75.547729,63.559803,28.697721
1732081646.037321,1732081646.039079,77.000000,0.000000,4310.897461,4302.948730,4321.025879,4312.307617,4305.512695,4306.538574,4318.717773,4335.897461,4320.256348,4302.179688,4446.282227,4459.615234,4414.871582,4387.692383,1676.000000,0.000000,13.000000,,,,0.000000,2.000000,2.000000,0.000000,2.000000,2.000000,2.000000,1.000000,2.000000,4.000000,4.000000,4.000000,4.000000,2.000000,4.000000,25.000000,,,,,,,,,,,,,,,,,,,,,,,,,,,,
1732081646.045129,1732081646.046687,78.000000,0.000000,4312.179688,4301.410156,4324.743652,4312.692383,4312.820313,4307.179688,4320.512695,4336.282227,4323.205078,4306.153809,4440.897461,4466.538574,4414.871582,4387.692383,1344.000000,0.000000,13.000000,,,,0.000000,2.000000,2.000000,0.000000,2.000000,2.000000,2.000000,1.000000,2.000000,4.000000,4.000000,4.000000,4.000000,2.000000,4.000000,25.000000,1.000000,0.000000,2.000000,2.000000,0.000000,2.000000,2.000000,1.000000,0.000000,0.000000,0.000000,1.000000,4.000000,4.000000,2.000000,4.000000,,,,,,,,,,,,
1732081646.052938,1732081646.054495,79.000000,0.000000,4315.384766,4299.871582,4322.820313,4311.666504,4306.666504,4309.487305,4320.512695,4334.102539,4325.000000,4308.077148,4439.358887,4470.128418,4415.769043,4387.179688,1486.000000,0.000000,13.000000,,,,0.000000,2.000000,2.000000,0.000000,2.000000,2.000000,2.000000,1.000000,2.000000,4.000000,4.000000,4.000000,4.000000,2.000000,4.000000,25.000000,,,,,,,,,,,,,,,,,,,,,,,,,,,,
1732081646.060746,1732081646.062203,80.000000,0.000000,4315.769043,4302.179688,4321.538574,4314.615234,4303.589844,4306.666504,4319.230957,4333.461426,4323.974121,4303.974121,4440.256348,4458.077148,4412.820313,4385.256348,1718.000000,0.000000,13.000000,,,,0.000000,2.000000,2.000000,0.000000,2.000000,2.000000,2.000000,1.000000,2.000000,4.000000,4.000000,4.000000,4.000000,2.000000,4.000000,25.000000,,,,,,,,,,,,,,,,,20.000000,0.000000,0.630986,0.399414,-0.587830,0.311096,0.977658,0.121597,-0.006348,-75.636993,63.438442,28.751822
1732081646.068554,1732081646.070012,81.000000,0.000000,4320.128418,4307.051270,4322.948730,4321.538574,4308.333496,4306.666504,4321.025879,4335.641113,4326.282227,4305.128418,4440.128418,4452.436035,4417.307617,4382.692383,1676.000000,0.000000,13.000000,,,,0.000000,2.000000,2.000000,0.000000,2.000000,2.000000,2.000000,1.000000,2.000000,4.000000,4.000000,4.000000,4.000000,2.000000,4.000000,25.000000,,,,,,,,,,,,,,,,,,,,,,,,,,,,
1732081646.076362,1732081646.077620,82.000000,0.000000,4324.743652,4308.205078,4324.615234,4321.794922,4311.025879,4306.666504,4319.230957,4334.615234,4325.769043,4309.615234,4441.153809,4459.615234,4424.358887,4383.077148,1344.000000,0.000000,13.000000,,,,0.000000,2.000000,2.000000,0.000000,2.000000,2.000000,2.000000,1.000000,2.000000,4.000000,4.000000,4.000000,4.000000,2.000000,4.000000,25.000000,,,,,,,,,,,,,,,,,,,,,,,,,,,,
1732081646.084171,1732081646.085428,83.000000,0.000000,4320.000000,4307.692383,4322.820313,4314.487305,4302.948730,4303.846191,4317.563965,4331.153809,4321.922852,4309.743652,4443.589844,4455.000000,4423.205078,4383.846191,1486.000000,0.000000,13.000000,,,,0.000000,2.000000,2.000000,0.000000,2.000000,2.000000,2.000000,1.000000,2.000000,4.000000,4.000000,4.000000,4.000000,2.000000,4.000000,25.000000,,,,,,,,,,,,,,,,,,,,,,,,,,,,
1732081646.091979,1732081646.093336,84.000000,0.000000,4314.230957,4306.282227,4319.743652,4313.461426,4301.282227,4303.461426,4319.615234,4329.743652,4321.922852,4309.230957,4445.000000,4447.179688,4417.436035,4382.692383,1718.000000,0.000000,13.000000,,,,0.000000,2.000000,2.000000,0.000000,2.000000,2.000000,2.000000,1.000000,2.000000,4.000000,4.000000,4.000000,4.000000,2.000000,4.000000,25.000000,,,,,,,,,,,,,,,,,21.000000,0.000000,0.630883,0.399170,-0.588074,0.311157,0.983030,0.116225,-0.013185,-75.669296,63.271805,28.735641
1732081646.099787,1732081646.101145,85.000000,0.000000,4314.871582,4305.000000,4322.179688,4317.948730,4313.461426,4299.358887,4319.358887,4327.179688,4320.000000,4306.538574,4442.051270,4452.436035,4416.025879,4381.922852,1676.000000,0.000000,13.000000,,,,0.000000,2.000000,2.000000,0.000000,2.000000,2.000000,2.000000,1.000000,2.000000,4.000000,4.000000,4.000000,4.000000,2.000000,4.000000,25.000000,,,,,,,,,,,,,,,,,,,,,,,,,,,,
1732081646.107596,1732081646.109153,86.000000,0.000000,4317.436035,4304.615234,4326.153809,4315.641113,4311.538574,4297.563965,4315.769043,4325.897461,4318.461426,4306.538574,4439.615234,4460.128418,4418.333496,4382.051270,1344.000000,0.000000,13.000000,,,,0.000000,2.000000,2.000000,0.000000,2.000000,2.000000,2.000000,1.000000,2.000000,4.000000,4.000000,4.000000,4.000000,2.000000,4.000000,25.000000,,,,,,,,,,,,,,,,,,,,,,,,,,,,
1732081646.115404,1732081646.116961,87.000000,0.000000,4315.769043,4302.563965,4326.922852,4313.333496,4296.153809,4304.743652,4318.205078,4331.282227,4323.846191,4312.179688,4442.563965,4465.256348,4420.128418,4384.487305,1486.000000,0.000000,13.000000,,,,0.000000,2.000000,2.000000,0.000000,2.000000,2.000000,2.000000,1.000000,2.000000,4.000000,4.000000,4.000000,4.000000,2.000000,4.000000,25.000000,,,,,,,,,,,,,,,,,,,,,,,,,,,,
1732081646.123212,1732081646.124869,88.000000,0.000000,4314.102539,4302.179688,4323.205078,4313.846191,4293.077148,4311.666504,4319.487305,4335.128418,4328.717773,4315.641113,4445.769043,4466.538574,4418.077148,4387.051270,1718.000000,0.000000,13.000000,,,,0.000000,2.000000,2.000000,0.000000,2.000000,2.000000,2.000000,1.000000,2.000000,4.000000,4.000000,4.000000,4.000000,2.000000,4.000000,25.000000,,,,,,,,,,,,,,,,,22.000000,0.000000,0.630883,0.399170,-0.588074,0.311157,0.983030,0.116225,-0.013185,-75.605461,63.211830,28.617537
1732081646.131020,1732081646.132677,89.000000,0.000000,4315.128418,4302.179688,4322.563965,4311.282227,4304.615234,4307.948730,4319.743652,4335.128418,4326.282227,4309.615234,4438.461426,4459.487305,4414.487305,4384.743652,1676.000000,0.000000,13.000000,,,,0.000000,2.000000,2.000000,0.000000,2.000000,2.000000,2.000000,1.000000,2.000000,4.000000,4.000000,4.000000,4.000000,2.000000,4.000000,25.000000,,,,,,,,,,,,,,,,,,,,,,,,,,,,
1732081646.138829,1732081646.140685,90.000000,0.000000,4311.538574,4299.743652,4323.077148,4305.897461,4314.230957,4301.025879,4318.717773,4334.102539,4324.230957,4307.436035,4435.769043,4451.538574,4417.051270,4380.897461,1344.000000,0.000000,13.000000,,,,0.000000,2.000000,2.000000,0.000000,2.000000,2.000000,2.000000,1.000000,2.000000,4.000000,4.000000,4.000000,4.000000,2.000000,4.000000,25.000000,,,,,,,,,,,,,,,,,,,,,,,,,,,,
1732081646.146637,1732081646.148493,91.000000,0.000000,4304.743652,4298.205078,4322.948730,4304.487305,4304.230957,4303.077148,4319.487305,4331.410156,4325.000000,4312.563965,4443.974121,4453.461426,4419.615234,4382.563965,1486.000000,0.000000,13.000000,,,,0.000000,2.000000,2.000000,0.000000,2.000000,2.000000,2.000000,1.000000,2.000000,4.000000,4.000000,4.000000,4.000000,2.000000,4.000000,25.000000,,,,,,,,,,,,,,,,,,,,,,,,,,,,
1732081646.154445,1732081646.156401,92.000000,0.000000,4305.128418,4299.230957,4320.641113,4304.230957,4291.538574,4308.333496,4319.871582,4332.051270,4326.794922,4314.230957,4446.025879,4460.256348,4418.205078,4387.436035,1718.000000,0.000000,13.000000,,,,0.000000,2.000000,2.000000,0.000000,2.000000,2.000000,2.000000,1.000000,2.000000,4.000000,4.000000,4.000000,4.000000,2.000000,4.000000,25.000000,,,,,,,,,,,,,,,,,23.000000,0.000000,0.629975,0.399414,-0.588623,0.311646,0.975217,0.127945,-0.009278,-75.657089,63.134914,28.526871
1732081646.162253,1732081646.164210,93.000000,0.000000,4309.871582,4297.307617,4320.641113,4301.922852,4297.820313,4308.333496,4320.641113,4336.153809,4328.846191,4313.589844,4443.461426,4462.307617,4415.256348,4388.461426,1676.000000,0.000000,13.000000,,,,0.000000,2.000000,2.000000,0.000000,2.000000,2.000000,2.000000,1.000000,2.000000,4.000000,4.000000,4.000000,4.000000,2.000000,4.000000,25.000000,,,,,,,,,,,,,,,,,,,,,,,,,,,,
1732081646.170062,1732081646.172218,94.000000,0.000000,4308.077148,4295.000000,4319.358887,4304.743652,4303.333496,4304.358887,4319.102539,4335.897461,4329.102539,4314.102539,4444.743652,4457.948730,4413.461426,4385.128418,1344.000000,0.000000,13.000000,,,,0.000000,2.000000,2.000000,0.000000,2.000000,2.000000,2.000000,1.000000,2.000000,4.000000,4.000000,4.000000,4.000000,2.000000,4.000000,25.000000,,,,,,,,,,,,,,,,,,,,,,,,,,,,
1732081646.177870,1732081646.180026,95.000000,0.000000,4303.461426,4296.666504,4318.589844,4308.333496,4294.743652,4303.717773,4317.563965,4334.743652,4330.000000,4314.358887,4444.871582,4454.487305,4412.307617,4381.538574,1486.000000,0.000000,13.000000,,,,0.000000,2.000000,2.000000,0.000000,2.000000,2.000000,2.000000,1.000000,2.000000,4.000000,4.000000,4.000000,4.000000,2.000000,4.000000,25.000000,,,,,,,,,,,,,,,,,,,,,,,,,,,,
1732081646.185678,1732081646.187934,96.000000,0.000000,4305.128418,4294.615234,4321.922852,4306.666504,4299.102539,4308.205078,4320.000000,4335.384766,4330.897461,4313.461426,4441.153809,4453.717773,4409.487305,4381.410156,1718.000000,0.000000,13.000000,,,,0.000000,2.000000,2.000000,0.000000,2.000000,2.000000,2.000000,1.000000,2.000000,4.000000,4.000000,4.000000,4.000000,2.000000,4.000000,25.000000,,,,,,,,,,,,,,,,,24.000000,0.000000,0.629805,0.399597,-0.588745,0.311523,0.967892,0.129899,-0.008790,-75.647247,62.952614,28.555099
1732081646.193486,1732081646.195742,97.000000,0.000000,4307.820313,4293.846191,4324.358887,4305.128418,4310.000000,4312.436035,4321.922852,4334.743652,4330.384766,4314.871582,4443.205078,4455.897461,4409.358887,4381.538574,1676.000000,0.000000,13.000000,,,,0.000000,2.000000,2.000000,0.000000,2.000000,2.000000,2.000000,1.000000,2.000000,4.000000,4.000000,4.000000,4.000000,2.000000,4.000000,25.000000,,,,,,,,,,,,,,,,,,,,,,,,,,,,
1732081646.201295,1732081646.203750,98.000000,0.000000,4308.717773,4295.769043,4320.000000,4309.230957,4302.820313,4311.666504,4321.153809,4336.922852,4330.641113,4319.230957,4446.153809,4456.922852,4413.205078,4381.025879,1344.000000,0.000000,13.000000,,,,0.000000,2.000000,2.000000,0.000000,2.000000,2.000000,2.000000,1.000000,2.000000,4.000000,4.000000,4.000000,4.000000,2.000000,4.000000,25.000000,,,,,,,,,,,,,,,,,,,,,,,,,,,,
1732081646.209103,1732081646.211558,99.000000,0.000000,4311.282227,4294.230957,4320.000000,4311.410156,4295.769043,4310.128418,4321.666504,4339.487305,4331.410156,4319.230957,4444.487305,4452.692383,4412.307617,4383.846191,1486.000000,0.000000,13.000000,,,,0.000000,2.000000,2.000000,0.000000,2.000000,2.000000,2.000000,1.000000,2.000000,4.000000,4.000000,4.000000,4.000000,2.000000,4.000000,25.000000,,,,,,,,,,,,,,,,,,,,,,,,,,,,
1732081646.216911,1732081646.219466,100.000000,0.000000,4314.358887,4294.615234,4325.641113,4310.000000,4308.974121,4312.051270,4323.461426,4340.000000,4328.717773,4315.000000,4445.512695,4456.153809,4407.563965,4384.871582,1718.000000,0.000000,13.000000,,,,0.000000,2.000000,2.000000,0.000000,2.000000,2.000000,2.000000,1.000000,2.000000,4.000000,4.000000,4.000000,4.000000,2.000000,4.000000,25.000000,,,,,,,,,,,,,,,,,25.000000,0.000000,0.629617,0.399719,-0.588928,0.311401,0.967892,0.129899,-0.008790,-75.672600,63.046616,28.524630
1732081646.224719,1732081646.227275,101.000000,0.000000,4313.846191,4298.205078,4325.000000,4310.128418,4320.128418,4308.846191,4321.025879,4339.358887,4325.769043,4312.563965,4446.153809,4462.692383,4405.769043,4383.461426,1676.000000,0.000000,13.000000,,,,0.000000,2.000000,2.000000,0.000000,2.000000,2.000000,2.000000,1.000000,2.000000,4.000000,4.000000,4.000000,4.000000,2.000000,4.000000,25.000000,,,,,,,,,,,,,,,,,,,,,,,,,,,,
1732081646.232528,1732081646.235283,102.000000,0.000000,4309.102539,4298.974121,4320.512695,4311.025879,4304.871582,4305.769043,4320.000000,4338.205078,4326.922852,4313.205078,4441.410156,4460.256348,4404.487305,4383.077148,1344.000000,0.000000,13.000000,,,,0.000000,2.000000,2.000000,0.000000,2.000000,2.000000,2.000000,1.000000,2.000000,4.000000,4.000000,4.000000,4.000000,2.000000,4.000000,25.000000,,,,,,,,,,,,,,,,,,,,,,,,,,,,
1732081646.240336,1732081646.243091,103.000000,0.000000,4306.922852,4298.333496,4320.512695,4313.717773,4289.615234,4312.820313,4322.179688,4337.179688,4329.743652,4311.538574,4439.230957,4457.436035,4403.846191,4382.179688,1486.000000,0.000000,13.000000,,,,0.000000,2.000000,2.000000,0.000000,2.000000,2.000000,2.000000,1.000000,2.000000,4.000000,4.000000,4.000000,4.000000,2.000000,4.000000,25.000000,,,,,,,,,,,,,,,,,,,,,,,,,,,,
1732081646.248144,1732081646.250799,104.000000,0.000000,4306.922852,4302.692383,4323.461426,4315.897461,4306.410156,4315.000000,4323.717773,4339.102539,4328.077148,4307.948730,4442.051270,4460.384766,4403.077148,4382.563965,1718.000000,0.000000,13.000000,,,,0.000000,2.000000,2.000000,0.000000,2.000000,2.000000,2.000000,1.000000,2.000000,4.000000,4.000000,4.000000,4.000000,2.000000,4.000000,25.000000,,,,,,,,,,,,,,,,,26.000000,0.000000,0.628458,0.401123,-0.589050,0.311707,0.985472,0.130875,-0.016604,-75.718140,63.231094,28.483284
1732081646.255952,1732081646.258607,105.000000,0.000000,4307.692383,4306.282227,4322.820313,4319.358887,4316.922852,4308.717773,4321.410156,4338.974121,4325.384766,4308.589844,4440.897461,4459.487305,4400.256348,4383.077148,1676.000000,0.000000,13.000000,,,,0.000000,2.000000,2.000000,0.000000,2.000000,2.000000,2.000000,1.000000,2.000000,4.000000,4.000000,4.000000,4.000000,2.000000,4.000000,25.000000,,,,,,,,,,,,,,,,,,,,,,,,,,,,
1732081646.263761,1732081646.266216,106.000000,0.000000,4308.461426,4304.102539,4322.948730,4319.615234,4302.051270,4310.256348,4324.358887,4336.538574,4326.025879,4309.230957,4437.563965,4461.025879,4393.589844,4381.666504,1344.000000,0.000000,13.000000,,,,0.000000,2.000000,2.000000,0.000000,2.000000,2.000000,2.000000,1.000000,2.000000,4.000000,4.000000,4.000000,4.000000,2.000000,4.000000,25.000000,,,,,,,,,,,,,,,,,,,,,,,,,,,,
1732081646.271569,1732081646.274024,107.000000,0.000000,4308.077148,4301.666504,4323.205078,4320.512695,4298.846191,4316.025879,4325.256348,4335.384766,4326.153809,4305.256348,4436.410156,4459.230957,4384.871582,4378.333496,1486.000000,0.000000,13.000000,,,,0.000000,2.000000,2.000000,0.000000,2.000000,2.000000,2.000000,1.000000,2.000000,4.000000,4.000000,4.000000,4.000000,2.000000,4.000000,25.000000,,,,,,,,,,,,,,,,,,,,,,,,,,,,
1732081646.279377,1732081646.281732,108.000000,0.000000,4303.461426,4301.410156,4322.948730,4319.230957,4307.820313,4315.512695,4323.205078,4335.128418,4325.000000,4301.922852,4431.666504,4449.358887,4379.743652,4373.205078,1718.000000,0.000000,13.000000,,,,0.000000,2.000000,2.000000,0.000000,2.000000,2.000000,2.000000,1.000000,2.000000,4.000000,4.000000,4.000000,4.000000,2.000000,4.000000,25.000000,,,,,,,,,,,,,,,,,27.000000,0.000000,0.627874,0.401672,-0.589233,0.311829,0.971798,0.118667,-0.023440,-75.755028,63.330521,28.449793
1732081646.287185,1732081646.289541,109.000000,0.000000,4301.153809,4298.846191,4321.538574,4311.282227,4307.948730,4316.410156,4321.794922,4338.461426,4326.538574,4305.256348,4429.871582,4452.179688,4380.512695,4372.436035,1676.000000,0.000000,13.000000,,,,0.000000,2.000000,2.000000,0.000000,2.000000,2.000000,2.000000,1.000000,2.000000,4.000000,4.000000,4.000000,4.000000,2.000000,4.000000,25.000000,,,,,,,,,,,,,,,,,,,,,,,,,,,,
1732081646.294994,1732081646.297149,110.000000,0.000000,4306.538574,4298.461426,4325.000000,4312.051270,4307.563965,4317.692383,4323.846191,4338.077148,4328.205078,4311.153809,4435.897461,4463.077148,4384.102539,4378.205078,1344.000000,0.000000,13.000000,,,,0.000000,2.000000,2.000000,0.000000,2.000000,2.000000,2.000000,1.000000,2.000000,4.000000,4.000000,4.000000,4.000000,2.000000,4.000000,25.000000,,,,,,,,,,,,,,,,,,,,,,,,,,,,
1732081646.302802,1732081646.304957,111.000000,0.000000,4309.487305,4302.436035,4326.025879,4322.820313,4308.589844,4313.846191,4322.820313,4334.487305,4326.666504,4312.307617,4439.230957,4459.102539,4385.897461,4382.436035,1486.000000,0.000000,13.000000,,,,0.000000,2.000000,2.000000,0.000000,2.000000,2.000000,2.000000,1.000000,2.000000,4.000000,4.000000,4.000000,4.000000,2.000000,4.000000,25.000000,,,,,,,,,,,,,,,,,,,,,,,,,,,,
1732081646.310610,1732081646.312666,112.000000,0.000000,4309.358887,4303.461426,4324.743652,4323.077148,4303.846191,4310.512695,4320.000000,4334.102539,4323.974121,4308.461426,4434.743652,4452.563965,4380.128418,4379.743652,1718.000000,0.000000,13.000000,,,,0.000000,2.000000,2.000000,0.000000,2.000000,2.000000,2.000000,1.000000,2.000000,4.000000,4.000000,4.000000,4.000000,2.000000,4.000000,25.000000,,,,,,,,,,,,,,,,,28.000000,0.000000,0.627543,0.401917,-0.589355,0.311951,0.975217,0.105482,-0.026859,-75.896568,63.141052,28.079332
1732081646.318418,1732081646.320474,113.000000,0.000000,4310.128418,4302.179688,4325.512695,4318.205078,4310.128418,4311.025879,4320.128418,4333.974121,4323.077148,4306.153809,4432.948730,4458.589844,4367.563965,4376.153809,1676.000000,0.000000,13.000000,,,,0.000000,2.000000,2.000000,0.000000,2.000000,2.000000,2.000000,1.000000,2.000000,4.000000,4.000000,4.000000,4.000000,2.000000,4.000000,25.000000,,,,,,,,,,,,,,,,,,,,,,,,,,,,
1732081646.326227,1732081646.328082,114.000000,0.000000,4310.512695,4302.179688,4328.974121,4324.358887,4317.436035,4311.922852,4321.666504,4332.820313,4322.692383,4307.436035,4434.358887,4462.307617,4364.230957,4375.769043,1344.000000,0.000000,13.000000,,,,0.000000,2.000000,2.000000,0.000000,2.000000,2.000000,2.000000,1.000000,2.000000,4.000000,4.000000,4.000000,4.000000,2.000000,4.000000,25.000000,,,,,,,,,,,,,,,,,,,,,,,,,,,,
1732081646.334035,1732081646.335890,115.000000,0.000000,4309.487305,4302.948730,4326.922852,4325.512695,4303.333496,4313.717773,4323.205078,4333.077148,4324.871582,4308.333496,4436.025879,4459.743652,4366.410156,4379.743652,1486.000000,0.000000,13.000000,,,,0.000000,2.000000,2.000000,0.000000,2.000000,2.000000,2.000000,1.000000,2.000000,4.000000,4.000000,4.000000,4.000000,2.000000,4.000000,25.000000,,,,,,,,,,,,,,,,,,,,,,,,,,,,
1732081646.341843,1732081646.343798,116.000000,0.000000,4310.000000,4305.897461,4325.128418,4320.769043,4293.974121,4315.000000,4322.436035,4333.717773,4327.307617,4305.769043,4437.307617,4458.974121,4358.846191,4380.769043,1718.000000,0.000000,13.000000,,,,0.000000,2.000000,2.000000,0.000000,2.000000,2.000000,2.000000,1.000000,2.000000,4.000000,4.000000,4.000000,4.000000,2.000000,4.000000,25.000000,,,,,,,,,,,,,,,,,29.000000,0.000000,0.626596,0.402893,-0.589600,0.312134,0.979612,0.111342,-0.032230,-75.789558,63.367588,28.190926
1732081646.349651,1732081646.351607,117.000000,0.000000,4312.820313,4308.205078,4327.436035,4323.717773,4304.358887,4312.563965,4322.436035,4333.846191,4325.000000,4303.589844,4432.820313,4459.743652,4351.666504,4378.205078,1676.000000,0.000000,13.000000,,,,0.000000,2.000000,2.000000,0.000000,2.000000,2.000000,2.000000,1.000000,2.000000,4.000000,4.000000,4.000000,4.000000,2.000000,4.000000,25.000000,,,,,,,,,,,,,,,,,,,,,,,,,,,,
1732081646.357460,1732081646.359215,118.000000,0.000000,4313.846191,4304.230957,4330.256348,4322.179688,4306.025879,4313.205078,4322.436035,4336.794922,4324.230957,4305.256348,4428.461426,4463.205078,4350.128418,4381.666504,1344.000000,0.000000,13.000000,,,,0.000000,2.000000,2.000000,0.000000,2.000000,2.000000,2.000000,1.000000,2.000000,4.000000,4.000000,4.000000,4.000000,2.000000,4.000000,25.000000,,,,,,,,,,,,,,,,,,,,,,,,,,,,
1732081646.365268,1732081646.367023,119.000000,0.000000,4310.641113,4302.179688,4329.487305,4319.102539,4306.538574,4314.871582,4325.256348,4337.820313,4326.282227,4306.666504,4430.256348,4470.769043,4345.128418,4382.692383,1486.000000,0.000000,13.000000,,,,0.000000,2.000000,2.000000,0.000000,2.000000,2.000000,2.000000,1.000000,2.000000,4.000000,4.000000,4.000000,4.000000,2.000000,4.000000,25.000000,,,,,,,,,,,,,,,,,,,,,,,,,,,,
1732081646.373076,1732081646.374732,120.000000,0.000000,4307.948730,4306.282227,4324.487305,4324.871582,4320.128418,4311.922852,4325.384766,4334.615234,4325.512695,4304.615234,4431.538574,4474.743652,4339.743652,4378.717773,1718.000000,0.000000,13.000000,,,,0.000000,2.000000,2.000000,0.000000,2.000000,2.000000,2.000000,1.000000,2.000000,4.000000,4.000000,4.000000,4.000000,2.000000,4.000000,25.000000,,,,,,,,,,,,,,,,,30.000000,0.000000,0.625785,0.404114,-0.589722,0.311951,0.988402,0.125992,-0.022464,-75.947876,63.559410,28.076317
1732081646.380885,1732081646.382540,121.000000,0.000000,4310.897461,4306.153809,4327.051270,4328.846191,4314.487305,4311.794922,4326.410156,4333.717773,4324.102539,4304.230957,4429.102539,4473.846191,4335.384766,4381.410156,1676.000000,0.000000,13.000000,,,,0.000000,2.000000,2.000000,0.000000,2.000000,2.000000,2.000000,1.000000,2.000000,4.000000,4.000000,4.000000,4.000000,2.000000,4.000000,25.000000,,,,,,,,,,,,,,,,,,,,,,,,,,,,
1732081646.388693,1732081646.390148,122.000000,0.000000,4312.563965,4304.487305,4330.000000,4324.871582,4300.641113,4317.820313,4326.153809,4338.974121,4328.077148,4307.820313,4432.307617,4476.538574,4329.615234,4387.179688,1344.000000,0.000000,13.000000,,,,0.000000,2.000000,2.000000,0.000000,2.000000,2.000000,2.000000,1.000000,2.000000,4.000000,4.000000,4.000000,4.000000,2.000000,4.000000,25.000000,,,,,,,,,,,,,,,,,,,,,,,,,,,,
1732081646.396501,1732081646.397956,123.000000,0.000000,4311.410156,4306.410156,4329.615234,4323.333496,4307.820313,4321.410156,4324.871582,4345.000000,4330.897461,4309.487305,4435.769043,4479.743652,4324.615234,4386.025879,1486.000000,0.000000,13.000000,,,,0.000000,2.000000,2.000000,0.000000,2.000000,2.000000,2.000000,1.000000,2.000000,4.000000,4.000000,4.000000,4.000000,2.000000,4.000000,25.000000,,,,,,,,,,,,,,,,,,,,,,,,,,,,
1732081646.404309,1732081646.405665,124.000000,0.000000,4312.692383,4309.615234,4326.025879,4327.307617,4315.897461,4317.692383,4321.538574,4340.512695,4326.538574,4309.358887,4433.205078,4474.615234,4320.000000,4383.974121,1718.000000,0.000000,13.000000,,,,0.000000,2.000000,2.000000,0.000000,2.000000,2.000000,2.000000,1.000000,2.000000,4.000000,4.000000,4.000000,4.000000,2.000000,4.000000,25.000000,,,,,,,,,,,,,,,,,31.000000,0.000000,0.625473,0.404419,-0.589844,0.311951,0.978635,0.120620,-0.033207,-75.994446,63.413124,27.998484
1732081646.412117,1732081646.413473,125.000000,0.000000,4312.179688,4308.589844,4327.820313,4325.641113,4313.205078,4317.820313,4322.948730,4333.461426,4321.794922,4307.692383,4429.743652,4468.589844,4315.000000,4380.512695,1676.000000,0.000000,13.000000,,,,0.000000,2.000000,2.000000,0.000000,2.000000,2.000000,2.000000,1.000000,2.000000,4.000000,4.000000,4.000000,4.000000,2.000000,4.000000,25.000000,,,,,,,,,,,,,,,,,,,,,,,,,,,,
1732081646.419926,1732081646.421481,126.000000,0.000000,4309.487305,4307.948730,4327.948730,4320.128418,4312.692383,4324.358887,4325.897461,4338.333496,4325.512695,4307.436035,4427.692383,4467.436035,4309.871582,4375.769043,1344.000000,0.000000,13.000000,,,,0.000000,2.000000,2.000000,0.000000,2.000000,2.000000,2.000000,1.000000,2.000000,4.000000,4.000000,4.000000,4.000000,2.000000,4.000000,25.000000,,,,,,,,,,,,,,,,,,,,,,,,,,,,
1732081646.427734,1732081646.429289,127.000000,0.000000,4307.820313,4307.563965,4327.563965,4318.333496,4318.461426,4321.538574,4326.282227,4341.922852,4331.282227,4311.538574,4427.692383,4463.846191,4301.153809,4376.153809,13.000000,0.000000,13.000000,,,,0.000000,2.000000,2.000000,0.000000,2.000000,2.000000,2.000000,1.000000,2.000000,4.000000,4.000000,4.000000,4.000000,2.000000,4.000000,25.000000,,,,,,,,,,,,,,,,,,,,,,,,,,,,
1732081646.435542,1732081646.437197,0.000000,0.000000,4307.436035,4303.846191,4325.384766,4322.820313,4325.256348,4313.077148,4325.000000,4335.000000,4329.743652,4311.922852,4428.589844,4457.563965,4295.512695,4377.692383,6.000000,0.000000,13.000000,,,,0.000000,2.000000,2.000000,0.000000,2.000000,2.000000,2.000000,1.000000,2.000000,4.000000,4.000000,4.000000,4.000000,2.000000,4.000000,25.000000,,,,,,,,,,,,,,,,,0.000000,0.000000,0.625437,0.404480,-0.589905,0.311829,0.966427,0.129899,-0.029300,-76.132164,63.119629,28.132105
1732081646.443350,1732081646.445005,1.000000,0.000000,4308.846191,4304.487305,4326.025879,4325.384766,4322.436035,4313.333496,4323.846191,4333.589844,4325.128418,4308.077148,4427.436035,4458.077148,4294.743652,4376.410156,1282.000000,0.000000,13.000000,,,,0.000000,2.000000,2.000000,0.000000,2.000000,2.000000,2.000000,1.000000,2.000000,4.000000,4.000000,4.000000,4.000000,2.000000,4.000000,25.000000,,,,,,,,,,,,,,,,,,,,,,,,,,,,
1732081646.451159,1732081646.453013,2.000000,0.000000,4310.769043,4308.205078,4329.230957,4326.410156,4308.205078,4318.461426,4324.743652,4338.846191,4326.410156,4308.974121,4423.333496,4460.769043,4291.153809,4377.051270,1204.000000,0.000000,13.000000,,,,0.000000,2.000000,2.000000,0.000000,2.000000,2.000000,2.000000,1.000000,2.000000,4.000000,4.000000,4.000000,4.000000,2.000000,4.000000,25.000000,,,,,,,,,,,,,,,,,,,,,,,,,,,,
1732081646.458967,1732081646.460822,3.000000,0.000000,4314.102539,4309.743652,4330.000000,4327.948730,4307.179688,4317.179688,4324.358887,4337.563965,4325.897461,4308.461426,4425.000000,4459.230957,4288.461426,4381.153809,1162.000000,0.000000,13.000000,,,,0.000000,2.000000,2.000000,0.000000,2.000000,2.000000,2.000000,1.000000,2.000000,4.000000,4.000000,4.000000,4.000000,2.000000,4.000000,25.000000,,,,,,,,,,,,,,,,,,,,,,,,,,,,
1732081646.466775,1732081646.468530,4.000000,0.000000,4320.256348,4308.846191,4328.205078,4326.538574,4314.358887,4313.333496,4322.692383,4334.102539,4320.128418,4301.025879,4429.487305,4460.128418,4286.153809,4384.358887,1187.000000,0.000000,13.000000,,,,0.000000,2.000000,2.000000,0.000000,2.000000,2.000000,2.000000,1.000000,2.000000,4.000000,4.000000,4.000000,4.000000,2.000000,4.000000,25.000000,,,,,,,,,,,,,,,,,1.000000,0.000000,0.625485,0.406128,-0.589172,0.310974,0.957148,0.133805,-0.034672,-76.218719,63.290234,28.018671
1732081646.474584,1732081646.476338,5.000000,0.000000,4322.948730,4310.000000,4329.358887,4328.461426,4311.922852,4312.436035,4321.666504,4334.871582,4318.974121,4301.282227,4428.846191,4461.025879,4280.000000,4385.384766,1065.000000,0.000000,13.000000,,,,0.000000,2.000000,2.000000,0.000000,2.000000,2.000000,2.000000,1.000000,2.000000,4.000000,4.000000,4.000000,4.000000,2.000000,4.000000,25.000000,,,,,,,,,,,,,,,,,,,,,,,,,,,,
1732081646.482392,1732081646.483947,6.000000,0.000000,4322.051270,4311.922852,4329.871582,4333.333496,4309.743652,4312.307617,4323.717773,4333.846191,4321.153809,4305.256348,4428.333496,4458.589844,4279.615234,4385.512695,208.000000,0.000000,13.000000,,,,0.000000,2.000000,2.000000,0.000000,2.000000,2.000000,2.000000,1.000000,2.000000,4.000000,4.000000,4.000000,4.000000,2.000000,4.000000,25.000000,,,,,,,,,,,,,,,,,,,,,,,,,,,,
1732081646.490200,1732081646.491755,7.000000,0.000000,4327.179688,4311.282227,4327.563965,4330.897461,4310.512695,4311.666504,4322.948730,4332.692383,4320.256348,4298.846191,4427.820313,4459.487305,4280.512695,4385.384766,1194.000000,0.000000,13.000000,,,,0.000000,2.000000,2.000000,0.000000,2.000000,2.000000,2.000000,1.000000,2.000000,4.000000,4.000000,4.000000,4.000000,2.000000,4.000000,25.000000,,,,,,,,,,,,,,,,,,,,,,,,,,,,
1732081646.498008,1732081646.499463,8.000000,0.000000,4329.487305,4307.051270,4327.820313,4327.436035,4307.179688,4313.974121,4322.948730,4334.358887,4319.102539,4295.641113,4424.358887,4459.102539,4269.743652,4383.461426,1337.000000,0.000000,13.000000,,,,0.000000,2.000000,2.000000,0.000000,2.000000,2.000000,2.000000,1.000000,2.000000,4.000000,4.000000,4.000000,4.000000,2.000000,4.000000,25.000000,,,,,,,,,,,,,,,,,2.000000,0.000000,0.625348,0.407227,-0.588623,0.310852,0.964473,0.156269,-0.027835,-76.095497,63.065090,28.041790
1732081646.505817,1732081646.507271,9.000000,0.000000,4325.897461,4307.307617,4327.436035,4333.717773,4308.205078,4316.922852,4322.692383,4336.025879,4322.051270,4304.230957,4423.589844,4447.436035,4263.077148,4381.922852,1462.000000,0.000000,13.000000,,,,0.000000,2.000000,2.000000,0.000000,2.000000,2.000000,2.000000,1.000000,2.000000,4.000000,4.000000,4.000000,4.000000,2.000000,4.000000,25.000000,,,,,,,,,,,,,,,,,,,,,,,,,,,,
1732081646.513625,1732081646.515279,10.000000,0.000000,4330.256348,4311.282227,4328.077148,4335.641113,4306.666504,4312.820313,4322.692383,4334.615234,4323.589844,4307.692383,4427.436035,4443.589844,4270.641113,4386.410156,1349.000000,0.000000,13.000000,,,,0.000000,2.000000,2.000000,0.000000,2.000000,2.000000,2.000000,1.000000,2.000000,4.000000,4.000000,4.000000,4.000000,2.000000,4.000000,25.000000,,,,,,,,,,,,,,,,,,,,,,,,,,,,
1732081646.521433,1732081646.523088,11.000000,0.000000,4341.025879,4311.282227,4327.820313,4329.615234,4297.307617,4309.615234,4322.948730,4332.948730,4322.436035,4304.358887,4431.794922,4453.205078,4274.743652,4391.538574,1486.000000,0.000000,13.000000,,,,0.000000,2.000000,2.000000,0.000000,2.000000,2.000000,2.000000,1.000000,2.000000,4.000000,4.000000,4.000000,4.000000,2.000000,4.000000,25.000000,,,,,,,,,,,,,,,,,,,,,,,,,,,,
1732081646.529241,1732081646.530996,12.000000,0.000000,4347.692383,4308.974121,4328.333496,4329.615234,4294.102539,4308.205078,4325.769043,4336.538574,4323.077148,4305.641113,4438.589844,4461.025879,4270.897461,4397.179688,1718.000000,0.000000,13.000000,,,,0.000000,2.000000,2.000000,0.000000,2.000000,2.000000,2.000000,1.000000,2.000000,4.000000,4.000000,4.000000,4.000000,2.000000,4.000000,25.000000,,,,,,,,,,,,,,,,,3.000000,0.000000,0.625426,0.407776,-0.588257,0.310669,0.958613,0.152851,-0.019045,-75.665688,63.021057,27.812183
1732081646.537050,1732081646.538804,13.000000,0.000000,4354.230957,4310.256348,4327.051270,4334.743652,4297.436035,4299.871582,4324.871582,4337.563965,4323.589844,4307.820313,4443.974121,4469.487305,4273.846191,4410.000000,1678.000000,0.000000,13.000000,,,,0.000000,2.000000,2.000000,0.000000,2.000000,2.000000,2.000000,1.000000,2.000000,4.000000,4.000000,4.000000,4.000000,2.000000,4.000000,25.000000,,,,,,,,,,,,,,,,,,,,,,,,,,,,
1732081646.544858,1732081646.546812,14.000000,0.000000,4363.461426,4313.846191,4329.102539,4335.512695,4291.410156,4293.846191,4322.820313,4332.436035,4323.974121,4308.846191,4443.589844,4476.153809,4281.153809,4421.538574,1349.000000,0.000000,13.000000,,,,0.000000,2.000000,2.000000,0.000000,2.000000,2.000000,2.000000,1.000000,2.000000,4.000000,4.000000,4.000000,4.000000,2.000000,4.000000,25.000000,1.000000,0.000000,2.000000,2.000000,0.000000,2.000000,1.000000,2.000000,0.000000,0.000000,0.000000,1.000000,4.000000,4.000000,2.000000,4.000000,,,,,,,,,,,,
1732081646.552666,1732081646.554620,15.000000,0.000000,4371.538574,4313.589844,4330.512695,4330.000000,4285.128418,4296.538574,4322.307617,4331.794922,4323.589844,4309.743652,4447.307617,4478.077148,4281.153809,4427.820313,1486.000000,0.000000,13.000000,,,,0.000000,2.000000,2.000000,0.000000,2.000000,2.000000,2.000000,1.000000,2.000000,4.000000,4.000000,4.000000,4.000000,2.000000,4.000000,25.000000,,,,,,,,,,,,,,,,,,,,,,,,,,,,
1732081646.560474,1732081646.562528,16.000000,0.000000,4378.717773,4310.128418,4329.743652,4326.153809,4286.666504,4297.436035,4320.512695,4333.205078,4321.153809,4305.897461,4455.256348,4485.256348,4277.692383,4434.230957,0.000000,0.000000,13.000000,,,,0.000000,2.000000,2.000000,0.000000,2.000000,2.000000,2.000000,1.000000,2.000000,4.000000,4.000000,4.000000,4.000000,2.000000,4.000000,25.000000,,,,,,,,,,,,,,,,,4.000000,0.000000,0.625396,0.409546,-0.587219,0.310364,0.963985,0.167013,-0.034672,-75.809204,63.287056,27.894535
1732081646.568282,1732081646.570336,17.000000,0.000000,4387.051270,4313.461426,4326.922852,4332.820313,4284.487305,4295.512695,4320.000000,4330.897461,4319.230957,4301.025879,4457.179688,4489.487305,4278.333496,4438.205078,0.000000,0.000000,13.000000,,,,0.000000,2.000000,2.000000,0.000000,2.000000,2.000000,2.000000,1.000000,2.000000,4.000000,4.000000,4.000000,4.000000,2.000000,4.000000,25.000000,,,,,,,,,,,,,,,,,,,,,,,,,,,,
1732081646.576091,1732081646.577945,18.000000,0.000000,4394.230957,4318.077148,4328.205078,4338.461426,4279.102539,4296.153809,4322.563965,4329.743652,4319.102539,4302.820313,4456.922852,4484.487305,4281.922852,4438.846191,0.000000,0.000000,13.000000,,,,0.000000,2.000000,2.000000,0.000000,2.000000,2.000000,2.000000,1.000000,2.000000,4.000000,4.000000,4.000000,4.000000,2.000000,4.000000,25.000000,,,,,,,,,,,,,,,,,,,,,,,,,,,,
1732081646.583899,1732081646.585753,19.000000,0.000000,4399.743652,4314.358887,4331.922852,4334.487305,4279.230957,4296.666504,4324.358887,4329.102539,4320.384766,4309.615234,4459.358887,4485.384766,4280.256348,4445.769043,0.000000,0.000000,13.000000,,,,0.000000,2.000000,2.000000,0.000000,2.000000,2.000000,2.000000,1.000000,2.000000,4.000000,4.000000,4.000000,4.000000,2.000000,4.000000,25.000000,,,,,,,,,,,,,,,,,,,,,,,,,,,,
1732081646.591707,1732081646.593661,20.000000,0.000000,4409.230957,4313.974121,4329.358887,4332.563965,4277.051270,4294.871582,4320.641113,4326.538574,4319.743652,4311.666504,4460.641113,4494.230957,4277.563965,4457.051270,0.000000,0.000000,13.000000,,,,0.000000,2.000000,2.000000,0.000000,2.000000,2.000000,2.000000,1.000000,2.000000,4.000000,4.000000,4.000000,4.000000,2.000000,4.000000,25.000000,,,,,,,,,,,,,,,,,5.000000,0.000000,0.624543,0.412598,-0.586731,0.308960,0.994262,0.131852,-0.036137,-75.775459,63.302513,27.777906
1732081646.599516,1732081646.601469,21.000000,0.000000,4418.077148,4316.666504,4329.743652,4332.820313,4273.333496,4290.897461,4320.512695,4327.820313,4321.666504,4308.077148,4461.666504,4496.538574,4282.820313,4466.538574,0.000000,0.000000,13.000000,,,,0.000000,2.000000,2.000000,0.000000,2.000000,2.000000,2.000000,1.000000,2.000000,4.000000,4.000000,4.000000,4.000000,2.000000,4.000000,25.000000,,,,,,,,,,,,,,,,,,,,,,,,,,,,
1732081646.607324,1732081646.609477,22.000000,0.000000,4416.410156,4310.641113,4333.974121,4330.384766,4274.871582,4292.179688,4324.615234,4333.846191,4324.871582,4305.512695,4462.179688,4499.487305,4281.538574,4468.461426,0.000000,0.000000,13.000000,,,,0.000000,2.000000,2.000000,0.000000,2.000000,2.000000,2.000000,1.000000,2.000000,4.000000,4.000000,4.000000,4.000000,2.000000,4.000000,25.000000,,,,,,,,,,,,,,,,,,,,,,,,,,,,
1732081646.615132,1732081646.617286,23.000000,0.000000,4413.461426,4311.538574,4335.384766,4330.641113,4270.512695,4296.538574,4328.717773,4336.153809,4322.307617,4303.333496,4458.077148,4503.846191,4268.077148,4463.974121,0.000000,0.000000,13.000000,,,,0.000000,2.000000,2.000000,0.000000,2.000000,2.000000,2.000000,1.000000,2.000000,4.000000,4.000000,4.000000,4.000000,2.000000,4.000000,25.000000,,,,,,,,,,,,,,,,,,,,,,,,,,,,
1732081646.622940,1732081646.625194,24.000000,0.000000,4420.897461,4319.743652,4332.307617,4331.025879,4270.000000,4288.717773,4325.128418,4330.512695,4319.358887,4304.743652,4459.615234,4501.922852,4270.000000,4470.769043,0.000000,0.000000,13.000000,,,,0.000000,2.000000,2.000000,0.000000,2.000000,2.000000,2.000000,1.000000,2.000000,4.000000,4.000000,4.000000,4.000000,2.000000,4.000000,25.000000,,,,,,,,,,,,,,,,,6.000000,0.000000,0.622894,0.412109,-0.589111,0.308411,0.988402,0.113295,-0.025394,-75.644791,63.266705,27.721771
1732081646.630749,1732081646.633002,25.000000,0.000000,4426.282227,4319.358887,4333.461426,4330.641113,4284.871582,4280.769043,4321.538574,4326.794922,4321.538574,4308.974121,4464.358887,4494.743652,4278.461426,4479.230957,0.000000,0.000000,13.000000,,,,0.000000,2.000000,2.000000,0.000000,2.000000,2.000000,2.000000,1.000000,2.000000,4.000000,4.000000,4.000000,4.000000,2.000000,4.000000,25.000000,,,,,,,,,,,,,,,,,,,,,,,,,,,,
1732081646.638557,1732081646.641010,26.000000,0.000000,4422.948730,4315.769043,4334.487305,4335.641113,4285.000000,4286.922852,4322.948730,4332.307617,4324.102539,4309.230957,4460.128418,4489.615234,4267.179688,4473.846191,0.000000,0.000000,13.000000,,,,0.000000,2.000000,2.000000,0.000000,2.000000,2.000000,2.000000,1.000000,2.000000,4.000000,4.000000,4.000000,4.000000,2.000000,4.000000,25.000000,,,,,,,,,,,,,,,,,,,,,,,,,,,,
1732081646.646365,1732081646.648818,27.000000,0.000000,4420.000000,4317.948730,4333.974121,4339.102539,4267.307617,4289.230957,4325.384766,4333.589844,4322.692383,4306.538574,4462.436035,4493.846191,4259.102539,4472.436035,0.000000,0.000000,13.000000,,,,0.000000,2.000000,2.000000,0.000000,2.000000,2.000000,2.000000,1.000000,2.000000,4.000000,4.000000,4.000000,4.000000,2.000000,4.000000,25.000000,,,,,,,,,,,,,,,,,,,,,,,,,,,,
1732081646.654173,1732081646.656726,28.000000,0.000000,4421.282227,4317.692383,4332.820313,4335.769043,4269.230957,4281.794922,4324.871582,4325.000000,4322.563965,4308.333496,4470.897461,4497.436035,4266.666504,4477.692383,0.000000,0.000000,13.000000,,,,0.000000,2.000000,2.000000,0.000000,2.000000,2.000000,2.000000,1.000000,2.000000,4.000000,4.000000,4.000000,4.000000,2.000000,4.000000,25.000000,,,,,,,,,,,,,,,,,7.000000,0.000000,0.622350,0.411316,-0.590271,0.308350,0.975705,0.116225,-0.041021,-75.300613,63.501030,27.774635
1732081646.661982,1732081646.664534,29.000000,0.000000,4420.769043,4314.871582,4333.717773,4332.051270,4283.333496,4283.589844,4325.769043,4325.769043,4322.179688,4308.077148,4465.769043,4493.717773,4261.666504,4474.871582,0.000000,0.000000,13.000000,,,,0.000000,2.000000,2.000000,0.000000,2.000000,2.000000,2.000000,1.000000,2.000000,4.000000,4.000000,4.000000,4.000000,2.000000,4.000000,25.000000,,,,,,,,,,,,,,,,,,,,,,,,,,,,
1732081646.669790,1732081646.672143,30.000000,0.000000,4421.538574,4316.922852,4334.871582,4333.717773,4280.512695,4287.307617,4323.333496,4333.589844,4320.512695,4304.615234,4461.538574,4486.794922,4248.717773,4470.128418,0.000000,0.000000,13.000000,,,,0.000000,2.000000,2.000000,0.000000,2.000000,2.000000,2.000000,1.000000,2.000000,4.000000,4.000000,4.000000,4.000000,2.000000,4.000000,25.000000,,,,,,,,,,,,,,,,,,,,,,,,,,,,
1732081646.677598,1732081646.679951,31.000000,0.000000,4422.563965,4319.871582,4330.512695,4337.307617,4277.307617,4284.102539,4318.461426,4329.358887,4319.102539,4302.436035,4465.769043,4483.461426,4249.487305,4472.307617,0.000000,0.000000,13.000000,,,,0.000000,2.000000,2.000000,0.000000,2.000000,2.000000,2.000000,1.000000,2.000000,4.000000,4.000000,4.000000,4.000000,2.000000,4.000000,25.000000,,,,,,,,,,,,,,,,,,,,,,,,,,,,
1732081646.685406,1732081646.687659,32.000000,0.000000,4418.717773,4321.666504,4326.538574,4335.897461,4284.230957,4283.461426,4317.948730,4325.256348,4318.333496,4302.307617,4467.436035,4487.820313,4251.922852,4474.487305,0.000000,0.000000,13.000000,,,,0.000000,2.000000,2.000000,0.000000,2.000000,2.000000,2.000000,1.000000,2.000000,4.000000,4.000000,4.000000,4.000000,2.000000,4.000000,25.000000,,,,,,,,,,,,,,,,,8.000000,0.000000,0.620649,0.406250,-0.595642,0.308167,0.968868,0.105970,-0.034672,-75.370163,63.362499,27.592455
1732081646.693215,1732081646.695468,33.000000,0.000000,4416.794922,4322.179688,4328.717773,4334.102539,4281.922852,4286.153809,4319.487305,4329.743652,4321.538574,4304.358887,4468.461426,4490.000000,4249.102539,4473.589844,0.000000,0.000000,13.000000,,,,0.000000,2.000000,2.000000,0.000000,2.000000,2.000000,2.000000,1.000000,2.000000,4.000000,4.000000,4.000000,4.000000,2.000000,4.000000,25.000000,,,,,,,,,,,,,,,,,,,,,,,,,,,,
1732081646.701023,1732081646.703076,34.000000,0.000000,4417.948730,4321.666504,4332.179688,4341.922852,4278.717773,4287.051270,4317.307617,4330.000000,4323.077148,4302.179688,4471.153809,4485.000000,4248.589844,4468.846191,0.000000,0.000000,13.000000,,,,0.000000,2.000000,2.000000,0.000000,2.000000,2.000000,2.000000,1.000000,2.000000,4.000000,4.000000,4.000000,4.000000,2.000000,4.000000,25.000000,,,,,,,,,,,,,,,,,,,,,,,,,,,,
1732081646.708831,1732081646.710884,35.000000,0.000000,4414.102539,4323.333496,4329.615234,4347.563965,4295.769043,4287.436035,4312.436035,4325.769043,4319.102539,4297.948730,4467.436035,4481.410156,4243.974121,4462.692383,0.000000,0.000000,13.000000,,,,0.000000,2.000000,2.000000,0.000000,2.000000,2.000000,2.000000,1.000000,2.000000,4.000000,4.000000,4.000000,4.000000,2.000000,4.000000,25.000000,,,,,,,,,,,,,,,,,,,,,,,,,,,,
1732081646.716639,1732081646.718592,36.000000,0.000000,4408.077148,4324.743652,4330.897461,4342.307617,4304.743652,4289.487305,4314.230957,4326.538574,4316.025879,4297.563965,4462.179688,4487.692383,4235.000000,4460.000000,0.000000,0.000000,13.000000,,,,0.000000,2.000000,2.000000,0.000000,2.000000,2.000000,2.000000,1.000000,2.000000,4.000000,4.000000,4.000000,4.000000,2.000000,4.000000,25.000000,,,,,,,,,,,,,,,,,9.000000,0.000000,0.619953,0.404175,-0.597900,0.307922,0.952265,0.133317,-0.047857,-75.426498,63.250294,27.511555
1732081646.724448,1732081646.726401,37.000000,0.000000,4408.205078,4326.025879,4333.205078,4341.538574,4289.487305,4293.589844,4315.769043,4328.077148,4316.794922,4297.948730,4461.282227,4489.871582,4232.307617,4460.256348,0.000000,0.000000,13.000000,,,,0.000000,2.000000,2.000000,0.000000,2.000000,2.000000,2.000000,1.000000,2.000000,4.000000,4.000000,4.000000,4.000000,2.000000,4.000000,25.000000,,,,,,,,,,,,,,,,,,,,,,,,,,,,
1732081646.732256,1732081646.734009,38.000000,0.000000,4408.974121,4326.794922,4330.897461,4347.307617,4281.794922,4296.922852,4315.128418,4326.410156,4315.897461,4295.256348,4458.717773,4487.436035,4235.769043,4457.692383,0.000000,0.000000,13.000000,,,,0.000000,2.000000,2.000000,0.000000,2.000000,2.000000,2.000000,1.000000,2.000000,4.000000,4.000000,4.000000,4.000000,2.000000,4.000000,25.000000,,,,,,,,,,,,,,,,,,,,,,,,,,,,
1732081646.740064,1732081646.741817,39.000000,0.000000,4409.102539,4326.282227,4327.820313,4345.512695,4292.948730,4291.282227,4313.974121,4323.974121,4314.230957,4296.410156,4459.871582,4497.692383,4240.000000,4457.307617,0.000000,0.000000,13.000000,,,,0.000000,2.000000,2.000000,0.000000,2.000000,2.000000,2.000000,1.000000,2.000000,4.000000,4.000000,4.000000,4.000000,2.000000,4.000000,25.000000,,,,,,,,,,,,,,,,,,,,,,,,,,,,
1732081646.747872,1732081646.749526,40.000000,0.000000,4410.256348,4326.666504,4331.538574,4337.948730,4303.333496,4281.922852,4313.077148,4319.230957,4311.922852,4296.410156,4461.153809,4504.230957,4239.102539,4460.641113,0.000000,0.000000,13.000000,,,,0.000000,2.000000,2.000000,0.000000,2.000000,2.000000,2.000000,1.000000,2.000000,4.000000,4.000000,4.000000,4.000000,2.000000,4.000000,25.000000,,,,,,,,,,,,,,,,,10.000000,0.000000,0.619597,0.403320,-0.598877,0.307861,0.960078,0.142107,-0.062508,-75.525459,63.422737,27.156025
1732081646.755681,1732081646.757334,41.000000,0.000000,4406.922852,4330.256348,4331.922852,4342.820313,4300.000000,4285.769043,4310.897461,4320.000000,4312.820313,4295.128418,4459.871582,4497.948730,4232.948730,4462.179688,0.000000,0.000000,13.000000,,,,0.000000,2.000000,2.000000,0.000000,2.000000,2.000000,2.000000,1.000000,2.000000,4.000000,4.000000,4.000000,4.000000,2.000000,4.000000,25.000000,,,,,,,,,,,,,,,,,,,,,,,,,,,,
1732081646.763489,1732081646.765342,42.000000,0.000000,4404.230957,4333.333496,4329.871582,4353.589844,4290.512695,4293.846191,4314.743652,4326.025879,4319.487305,4298.589844,4460.256348,4501.025879,4230.641113,4459.230957,0.000000,0.000000,13.000000,,,,0.000000,2.000000,2.000000,0.000000,2.000000,2.000000,2.000000,1.000000,2.000000,4.000000,4.000000,4.000000,4.000000,2.000000,4.000000,25.000000,,,,,,,,,,,,,,,,,,,,,,,,,,,,
1732081646.771297,1732081646.773150,43.000000,0.000000,4406.282227,4332.563965,4330.384766,4352.051270,4289.230957,4294.358887,4319.871582,4326.410156,4321.025879,4302.179688,4460.256348,4506.410156,4231.922852,4458.717773,0.000000,0.000000,13.000000,,,,0.000000,2.000000,2.000000,0.000000,2.000000,2.000000,2.000000,1.000000,2.000000,4.000000,4.000000,4.000000,4.000000,2.000000,4.000000,25.000000,,,,,,,,,,,,,,,,,,,,,,,,,,,,
1732081646.779105,1732081646.780858,44.000000,0.000000,4403.974121,4329.871582,4331.794922,4346.666504,4298.846191,4291.922852,4318.846191,4324.743652,4318.077148,4301.794922,4461.666504,4497.563965,4228.077148,4461.153809,0.000000,0.000000,13.000000,,,,0.000000,2.000000,2.000000,0.000000,2.000000,2.000000,2.000000,1.000000,2.000000,4.000000,4.000000,4.000000,4.000000,2.000000,4.000000,25.000000,,,,,,,,,,,,,,,,,11.000000,0.000000,0.618982,0.401855,-0.600464,0.307922,0.965938,0.115737,-0.076181,-75.678955,63.184082,27.379715
1732081646.786914,1732081646.788667,45.000000,0.000000,4404.358887,4330.256348,4333.077148,4351.025879,4302.692383,4295.641113,4314.615234,4328.333496,4319.871582,4298.205078,4460.641113,4492.179688,4225.512695,4460.769043,0.000000,0.000000,13.000000,,,,0.000000,2.000000,2.000000,0.000000,2.000000,2.000000,2.000000,1.000000,2.000000,4.000000,4.000000,4.000000,4.000000,2.000000,4.000000,25.000000,,,,,,,,,,,,,,,,,,,,,,,,,,,,
1732081646.794722,1732081646.796275,46.000000,0.000000,4410.769043,4332.948730,4332.307617,4353.589844,4309.358887,4296.666504,4313.077148,4327.179688,4318.589844,4294.487305,4455.897461,4493.589844,4224.871582,4459.615234,0.000000,0.000000,13.000000,,,,0.000000,2.000000,2.000000,0.000000,2.000000,2.000000,2.000000,1.000000,2.000000,4.000000,4.000000,4.000000,4.000000,2.000000,4.000000,25.000000,,,,,,,,,,,,,,,,,,,,,,,,,,,,
1732081646.802530,1732081646.804083,47.000000,0.000000,4405.384766,4333.333496,4327.948730,4343.974121,4317.051270,4293.333496,4312.820313,4319.871582,4311.025879,4294.358887,4451.922852,4488.717773,4218.333496,4458.333496,0.000000,0.000000,13.000000,,,,0.000000,2.000000,2.000000,0.000000,2.000000,2.000000,2.000000,1.000000,2.000000,4.000000,4.000000,4.000000,4.000000,2.000000,4.000000,25.000000,,,,,,,,,,,,,,,,,,,,,,,,,,,,
1732081646.810338,1732081646.811791,48.000000,0.000000,4393.205078,4328.461426,4325.384766,4335.128418,4302.692383,4294.871582,4312.948730,4323.077148,4314.487305,4298.333496,4449.230957,4485.256348,4216.410156,4452.051270,0.000000,0.000000,13.000000,,,,0.000000,2.000000,2.000000,0.000000,2.000000,2.000000,2.000000,1.000000,2.000000,4.000000,4.000000,4.000000,4.000000,2.000000,4.000000,25.000000,,,,,,,,,,,,,,,,,12.000000,0.000000,0.617824,0.400146,-0.602356,0.308777,0.965450,0.108900,-0.059578,-75.603287,63.090775,27.410902
1732081646.818147,1732081646.819600,49.000000,0.000000,4392.307617,4326.538574,4328.846191,4338.077148,4290.769043,4296.794922,4312.563965,4329.230957,4323.333496,4298.205078,4446.282227,4483.205078,4217.948730,4445.256348,0.000000,0.000000,13.000000,,,,0.000000,2.000000,2.000000,0.000000,2.000000,2.000000,2.000000,1.000000,2.000000,4.000000,4.000000,4.000000,4.000000,2.000000,4.000000,25.000000,,,,,,,,,,,,,,,,,,,,,,,,,,,,
1732081646.825955,1732081646.827208,50.000000,0.000000,4392.436035,4328.333496,4328.077148,4344.102539,4300.769043,4296.282227,4313.589844,4324.615234,4318.461426,4293.717773,4442.179688,4475.769043,4214.615234,4443.717773,0.000000,0.000000,13.000000,,,,0.000000,2.000000,2.000000,0.000000,2.000000,2.000000,2.000000,1.000000,2.000000,4.000000,4.000000,4.000000,4.000000,2.000000,4.000000,25.000000,,,,,,,,,,,,,,,,,,,,,,,,,,,,
1732081646.833763,1732081646.835016,51.000000,0.000000,4384.743652,4329.487305,4324.743652,4346.153809,4303.589844,4296.153809,4317.179688,4321.538574,4314.358887,4294.358887,4445.897461,4474.615234,4213.717773,4445.769043,0.000000,0.000000,13.000000,,,,0.000000,2.000000,2.000000,0.000000,2.000000,2.000000,2.000000,1.000000,2.000000,4.000000,4.000000,4.000000,4.000000,2.000000,4.000000,25.000000,,,,,,,,,,,,,,,,,,,,,,,,,,,,
1732081646.841571,1732081646.842924,52.000000,0.000000,4385.256348,4329.358887,4326.666504,4345.512695,4296.025879,4298.589844,4317.948730,4327.051270,4322.179688,4302.436035,4454.615234,4476.922852,4217.948730,4446.410156,0.000000,0.000000,13.000000,,,,0.000000,2.000000,2.000000,0.000000,2.000000,2.000000,2.000000,1.000000,2.000000,4.000000,4.000000,4.000000,4.000000,2.000000,4.000000,25.000000,,,,,,,,,,,,,,,,,13.000000,0.000000,0.617448,0.398865,-0.603027,0.309875,0.984984,0.096203,-0.053229,-75.512001,63.171860,27.451164
1732081646.849380,1732081646.850733,53.000000,0.000000,4386.410156,4323.333496,4328.333496,4342.436035,4308.077148,4297.307617,4317.563965,4327.692383,4324.230957,4307.307617,4459.102539,4476.922852,4217.051270,4443.846191,0.000000,0.000000,13.000000,,,,0.000000,2.000000,2.000000,0.000000,2.000000,2.000000,2.000000,1.000000,2.000000,4.000000,4.000000,4.000000,4.000000,2.000000,4.000000,25.000000,,,,,,,,,,,,,,,,,,,,,,,,,,,,
1732081646.857188,1732081646.858741,54.000000,0.000000,4380.769043,4320.512695,4325.256348,4344.230957,4317.692383,4296.025879,4315.769043,4324.743652,4322.307617,4308.077148,4458.846191,4477.948730,4213.846191,4440.769043,0.000000,0.000000,13.000000,,,,0.000000,2.000000,2.000000,0.000000,2.000000,2.000000,2.000000,1.000000,2.000000,4.000000,4.000000,4.000000,4.000000,2.000000,4.000000,25.000000,,,,,,,,,,,,,,,,,,,,,,,,,,,,
1732081646.864996,1732081646.866549,55.000000,0.000000,4380.128418,4328.333496,4325.000000,4351.025879,4304.358887,4301.282227,4315.897461,4325.256348,4324.871582,4308.846191,4455.000000,4479.358887,4216.922852,4441.538574,0.000000,0.000000,13.000000,,,,0.000000,2.000000,2.000000,0.000000,2.000000,2.000000,2.000000,1.000000,2.000000,4.000000,4.000000,4.000000,4.000000,2.000000,4.000000,25.000000,,,,,,,,,,,,,,,,,,,,,,,,,,,,
1732081646.872805,1732081646.874457,56.000000,0.000000,4382.051270,4333.589844,4328.974121,4348.974121,4297.948730,4303.589844,4314.743652,4326.922852,4326.410156,4307.948730,4455.128418,4478.333496,4216.922852,4445.128418,0.000000,0.000000,13.000000,,,,0.000000,2.000000,2.000000,0.000000,2.000000,2.000000,2.000000,1.000000,2.000000,4.000000,4.000000,4.000000,4.000000,2.000000,4.000000,25.000000,,,,,,,,,,,,,,,,,14.000000,0.000000,0.617503,0.398315,-0.603271,0.309998,0.981077,0.096203,-0.042974,-75.541382,62.949207,27.492109
1732081646.880613,1732081646.882265,57.000000,0.000000,4375.769043,4325.897461,4328.846191,4343.077148,4311.282227,4298.333496,4314.743652,4331.153809,4325.000000,4307.307617,4454.487305,4478.589844,4207.051270,4443.205078,0.000000,0.000000,13.000000,,,,0.000000,2.000000,2.000000,0.000000,2.000000,2.000000,2.000000,1.000000,2.000000,4.000000,4.000000,4.000000,4.000000,2.000000,4.000000,25.000000,,,,,,,,,,,,,,,,,,,,,,,,,,,,
1732081646.888421,1732081646.889874,58.000000,0.000000,4368.974121,4321.410156,4324.487305,4346.025879,4323.974121,4295.641113,4312.948730,4331.153809,4325.128418,4308.846191,4448.333496,4478.205078,4201.922852,4437.948730,0.000000,0.000000,13.000000,,,,0.000000,2.000000,2.000000,0.000000,2.000000,2.000000,2.000000,1.000000,2.000000,4.000000,4.000000,4.000000,4.000000,2.000000,4.000000,25.000000,,,,,,,,,,,,,,,,,,,,,,,,,,,,
1732081646.896229,1732081646.897682,59.000000,0.000000,4368.974121,4326.410156,4325.769043,4347.820313,4318.333496,4302.820313,4316.922852,4328.205078,4327.051270,4310.128418,4444.615234,4475.000000,4204.358887,4433.846191,0.000000,0.000000,13.000000,,,,0.000000,2.000000,2.000000,0.000000,2.000000,2.000000,2.000000,1.000000,2.000000,4.000000,4.000000,4.000000,4.000000,2.000000,4.000000,25.000000,,,,,,,,,,,,,,,,,,,,,,,,,,,,
1732081646.904038,1732081646.905390,60.000000,0.000000,4368.461426,4326.922852,4326.538574,4343.205078,4305.384766,4309.615234,4320.384766,4329.487305,4326.794922,4308.461426,4444.743652,4473.205078,4202.436035,4428.589844,0.000000,0.000000,13.000000,,,,0.000000,2.000000,2.000000,0.000000,2.000000,2.000000,2.000000,1.000000,2.000000,4.000000,4.000000,4.000000,4.000000,2.000000,4.000000,25.000000,,,,,,,,,,,,,,,,,15.000000,0.000000,0.617759,0.397217,-0.603577,0.310303,0.977170,0.124039,-0.056159,-76.000191,62.855526,27.501942
1732081646.911846,1732081646.913198,61.000000,0.000000,4367.948730,4322.820313,4326.153809,4340.897461,4302.820313,4310.128418,4319.743652,4329.230957,4322.692383,4301.538574,4441.538574,4473.461426,4199.358887,4423.974121,0.000000,0.000000,13.000000,,,,0.000000,2.000000,2.000000,0.000000,2.000000,2.000000,2.000000,1.000000,2.000000,4.000000,4.000000,4.000000,4.000000,2.000000,4.000000,25.000000,,,,,,,,,,,,,,,,,,,,,,,,,,,,
1732081646.919654,1732081646.921206,62.000000,0.000000,4372.563965,4321.410156,4326.922852,4343.589844,4312.563965,4311.282227,4320.000000,4328.333496,4319.358887,4297.820313,4439.102539,4475.769043,4202.179688,4429.487305,0.000000,0.000000,13.000000,,,,0.000000,2.000000,2.000000,0.000000,2.000000,2.000000,2.000000,1.000000,2.000000,4.000000,4.000000,4.000000,4.000000,2.000000,4.000000,25.000000,,,,,,,,,,,,,,,,,,,,,,,,,,,,
1732081646.927462,1732081646.929014,63.000000,0.000000,4373.333496,4324.743652,4329.102539,4346.282227,4308.846191,4307.179688,4321.794922,4334.358887,4321.282227,4304.743652,4445.384766,4483.205078,4204.358887,4436.410156,0.000000,0.000000,13.000000,,,,0.000000,2.000000,2.000000,0.000000,2.000000,2.000000,2.000000,1.000000,2.000000,4.000000,4.000000,4.000000,4.000000,2.000000,4.000000,25.000000,,,,,,,,,,,,,,,,,,,,,,,,,,,,
1732081646.935270,1732081646.936923,64.000000,0.000000,4372.179688,4327.307617,4327.179688,4345.128418,4302.692383,4299.102539,4318.717773,4336.153809,4325.128418,4312.563965,4447.051270,4484.615234,4202.820313,4433.461426,5.000000,0.000000,13.000000,,,,0.000000,2.000000,2.000000,0.000000,2.000000,2.000000,2.000000,1.000000,2.000000,4.000000,4.000000,4.000000,4.000000,2.000000,4.000000,25.000000,,,,,,,,,,,,,,,,,16.000000,0.000000,0.617787,0.397583,-0.603149,0.310608,0.972775,0.131364,-0.050299,-76.271820,62.712975,27.609907
1732081646.943079,1732081646.944731,65.000000,0.000000,4374.743652,4322.820313,4327.948730,4343.077148,4316.025879,4298.846191,4315.897461,4332.179688,4329.743652,4312.563965,4444.615234,4477.307617,4201.538574,4428.717773,1275.000000,0.000000,13.000000,,,,0.000000,2.000000,2.000000,0.000000,2.000000,2.000000,2.000000,1.000000,2.000000,4.000000,4.000000,4.000000,4.000000,2.000000,4.000000,25.000000,,,,,,,,,,,,,,,,,,,,,,,,,,,,
1732081646.950887,1732081646.952739,66.000000,0.000000,4371.794922,4322.692383,4329.615234,4343.717773,4317.563965,4307.051270,4320.769043,4336.794922,4333.461426,4313.333496,4444.743652,4474.102539,4199.615234,4422.948730,1195.000000,0.000000,13.000000,,,,0.000000,2.000000,2.000000,0.000000,2.000000,2.000000,2.000000,1.000000,2.000000,4.000000,4.000000,4.000000,4.000000,2.000000,4.000000,25.000000,,,,,,,,,,,,,,,,,,,,,,,,,,,,
1732081646.958695,1732081646.960547,67.000000,0.000000,4363.077148,4325.897461,4327.307617,4338.846191,4301.666504,4310.256348,4322.820313,4342.051270,4332.307617,4316.666504,4444.743652,4474.487305,4198.846191,4417.179688,1157.000000,0.000000,13.000000,,,,0.000000,2.000000,2.000000,0.000000,2.000000,2.000000,2.000000,1.000000,2.000000,4.000000,4.000000,4.000000,4.000000,2.000000,4.000000,25.000000,,,,,,,,,,,,,,,,,,,,,,,,,,,,
1732081646.966504,1732081646.968455,68.000000,0.000000,4360.256348,4319.871582,4326.282227,4335.641113,4298.077148,4309.743652,4322.179688,4341.282227,4334.358887,4316.666504,4443.974121,4474.230957,4200.000000,4420.897461,1187.000000,0.000000,13.000000,,,,0.000000,2.000000,2.000000,0.000000,2.000000,2.000000,2.000000,1.000000,2.000000,4.000000,4.000000,4.000000,4.000000,2.000000,4.000000,25.000000,,,,,,,,,,,,,,,,,17.000000,0.000000,0.617797,0.397888,-0.602844,0.310791,0.972775,0.131364,-0.050299,-76.695175,62.672508,27.494024
1732081646.974312,1732081646.976263,69.000000,0.000000,4363.846191,4319.230957,4329.358887,4347.179688,4315.000000,4308.461426,4317.692383,4335.897461,4332.692383,4311.282227,4442.820313,4474.743652,4200.769043,4428.461426,1065.000000,0.000000,13.000000,,,,0.000000,2.000000,2.000000,0.000000,2.000000,2.000000,2.000000,1.000000,2.000000,4.000000,4.000000,4.000000,4.000000,2.000000,4.000000,25.000000,,,,,,,,,,,,,,,,,,,,,,,,,,,,
1732081646.982120,1732081646.984271,70.000000,0.000000,4368.333496,4328.846191,4332.307617,4352.948730,4322.820313,4304.743652,4316.922852,4330.256348,4323.205078,4302.820313,4444.102539,4474.615234,4200.256348,4426.153809,212.000000,0.000000,13.000000,,,,0.000000,2.000000,2.000000,0.000000,2.000000,2.000000,2.000000,1.000000,2.000000,4.000000,4.000000,4.000000,4.000000,2.000000,4.000000,25.000000,,,,,,,,,,,,,,,,,,,,,,,,,,,,
1732081646.989928,1732081646.992080,71.000000,0.000000,4374.102539,4334.487305,4331.282227,4347.692383,4311.794922,4307.051270,4322.563965,4332.692383,4321.025879,4300.769043,4447.948730,4477.948730,4201.410156,4426.153809,1194.000000,0.000000,13.000000,,,,0.000000,2.000000,2.000000,0.000000,2.000000,2.000000,2.000000,1.000000,2.000000,4.000000,4.000000,4.000000,4.000000,2.000000,4.000000,25.000000,,,,,,,,,,,,,,,,,,,,,,,,,,,,
1732081646.997737,1732081646.999988,72.000000,0.000000,4376.794922,4336.410156,4331.538574,4350.384766,4302.051270,4311.282227,4327.307617,4336.794922,4325.384766,4304.615234,4450.769043,4485.897461,4203.077148,4433.589844,1337.000000,0.000000,13.000000,,,,0.000000,2.000000,2.000000,0.000000,2.000000,2.000000,2.000000,1.000000,2.000000,4.000000,4.000000,4.000000,4.000000,2.000000,4.000000,25.000000,,,,,,,,,,,,,,,,,18.000000,0.000000,0.617577,0.398315,-0.602661,0.311035,0.978147,0.133805,-0.031254,-76.784760,62.576401,27.558493
1732081647.005545,1732081647.007796,73.000000,0.000000,4372.179688,4335.769043,4331.153809,4356.922852,4309.230957,4310.641113,4324.102539,4333.461426,4326.282227,4310.769043,4447.692383,4486.538574,4200.000000,4431.666504,1462.000000,0.000000,13.000000,,,,0.000000,2.000000,2.000000,0.000000,2.000000,2.000000,2.000000,1.000000,2.000000,4.000000,4.000000,4.000000,4.000000,2.000000,4.000000,25.000000,,,,,,,,,,,,,,,,,,,,,,,,,,,,
1732081647.013353,1732081647.015504,74.000000,0.000000,4366.538574,4329.871582,4330.256348,4350.769043,4313.589844,4309.230957,4323.333496,4333.717773,4327.692383,4315.256348,4443.846191,4479.487305,4198.461426,4421.922852,1361.000000,0.000000,13.000000,,,,0.000000,2.000000,2.000000,0.000000,2.000000,2.000000,2.000000,1.000000,2.000000,4.000000,4.000000,4.000000,4.000000,2.000000,4.000000,25.000000,,,,,,,,,,,,,,,,,,,,,,,,,,,,
1732081647.021161,1732081647.023312,75.000000,0.000000,4360.769043,4324.102539,4330.000000,4339.230957,4308.077148,4310.384766,4324.358887,4341.538574,4333.077148,4315.512695,4441.666504,4476.410156,4200.769043,4415.384766,1482.000000,0.000000,13.000000,,,,0.000000,2.000000,2.000000,0.000000,2.000000,2.000000,2.000000,1.000000,2.000000,4.000000,4.000000,4.000000,4.000000,2.000000,4.000000,25.000000,,,,,,,,,,,,,,,,,,,,,,,,,,,,
1732081647.028970,1732081647.031021,76.000000,0.000000,4348.974121,4318.846191,4328.461426,4331.794922,4316.794922,4312.307617,4326.025879,4340.384766,4331.153809,4309.230957,4435.128418,4477.179688,4192.307617,4408.846191,1718.000000,0.000000,13.000000,,,,0.000000,2.000000,2.000000,0.000000,2.000000,2.000000,2.000000,1.000000,2.000000,4.000000,4.000000,4.000000,4.000000,2.000000,4.000000,25.000000,,,,,,,,,,,,,,,,,19.000000,0.000000,0.616368,0.399902,-0.601868,0.312927,0.970333,0.113783,-0.038091,-76.813988,62.263550,27.262379
1732081647.036778,1732081647.038829,77.000000,0.000000,4341.922852,4313.717773,4322.436035,4332.051270,4322.692383,4312.820313,4328.333496,4338.846191,4326.794922,4305.897461,4427.051270,4470.641113,4182.051270,4401.410156,1680.000000,0.000000,13.000000,,,,0.000000,2.000000,2.000000,0.000000,2.000000,2.000000,2.000000,1.000000,2.000000,4.000000,4.000000,4.000000,4.000000,2.000000,4.000000,25.000000,,,,,,,,,,,,,,,,,,,,,,,,,,,,
1732081647.044586,1732081647.046437,78.000000,0.000000,4345.897461,4318.077148,4321.794922,4335.897461,4309.743652,4312.820313,4325.641113,4340.769043,4329.487305,4312.820313,4426.538574,4459.743652,4192.563965,4402.307617,1361.000000,0.000000,13.000000,,,,0.000000,2.000000,2.000000,0.000000,2.000000,2.000000,2.000000,1.000000,2.000000,4.000000,4.000000,4.000000,4.000000,2.000000,4.000000,25.000000,1.000000,16.666666,2.000000,2.000000,0.000000,2.000000,2.000000,2.000000,1.000000,1.000000,1.000000,3.000000,4.000000,4.000000,2.000000,4.000000,,,,,,,,,,,,
1732081647.052394,1732081647.054246,79.000000,0.000000,4350.512695,4325.384766,4324.743652,4340.512695,4304.743652,4311.282227,4321.922852,4336.794922,4330.641113,4316.666504,4437.820313,4458.333496,4209.102539,4412.307617,1482.000000,0.000000,13.000000,,,,0.000000,2.000000,2.000000,0.000000,2.000000,2.000000,2.000000,1.000000,2.000000,4.000000,4.000000,4.000000,4.000000,2.000000,4.000000,25.000000,,,,,,,,,,,,,,,,,,,,,,,,,,,,
1732081647.060202,1732081647.061954,80.000000,0.000000,4348.717773,4326.538574,4326.666504,4345.256348,4316.794922,4307.948730,4324.487305,4331.666504,4323.461426,4306.153809,4440.256348,4461.794922,4200.897461,4415.000000,1718.000000,0.000000,13.000000,,,,0.000000,2.000000,2.000000,0.000000,2.000000,2.000000,2.000000,1.000000,2.000000,4.000000,4.000000,4.000000,4.000000,2.000000,4.000000,25.000000,,,,,,,,,,,,,,,,,20.000000,0.000000,0.615821,0.400391,-0.601563,0.313965,0.970333,0.113783,-0.038091,-76.812660,62.155144,26.955860
1732081647.068011,1732081647.069762,81.000000,0.000000,4344.743652,4325.897461,4327.307617,4345.512695,4328.589844,4308.717773,4326.666504,4333.589844,4321.666504,4300.384766,4428.846191,4457.436035,4189.230957,4404.487305,1680.000000,0.000000,13.000000,,,,0.000000,2.000000,2.000000,0.000000,2.000000,2.000000,2.000000,1.000000,2.000000,4.000000,4.000000,4.000000,4.000000,2.000000,4.000000,25.000000,,,,,,,,,,,,,,,,,,,,,,,,,,,,
1732081647.075819,1732081647.077370,82.000000,0.000000,4343.077148,4325.384766,4328.077148,4343.846191,4324.615234,4317.820313,4327.692383,4339.230957,4330.000000,4310.512695,4427.051270,4457.179688,4196.410156,4397.692383,1361.000000,0.000000,13.000000,,,,0.000000,2.000000,2.000000,0.000000,2.000000,2.000000,2.000000,1.000000,2.000000,4.000000,4.000000,4.000000,4.000000,2.000000,4.000000,25.000000,,,,,,,,,,,,,,,,,,,,,,,,,,,,
1732081647.083627,1732081647.085179,83.000000,0.000000,4344.102539,4326.153809,4324.487305,4346.922852,4314.615234,4321.025879,4329.615234,4341.922852,4331.922852,4313.077148,4438.974121,4467.692383,4202.179688,4406.025879,1482.000000,0.000000,13.000000,,,,0.000000,2.000000,2.000000,0.000000,2.000000,2.000000,2.000000,1.000000,2.000000,4.000000,4.000000,4.000000,4.000000,2.000000,4.000000,25.000000,,,,,,,,,,,,,,,,,,,,,,,,,,,,
1732081647.091436,1732081647.092887,84.000000,0.000000,4344.615234,4328.974121,4323.846191,4349.230957,4313.846191,4312.436035,4326.153809,4341.794922,4327.436035,4306.282227,4442.307617,4472.948730,4199.230957,4412.436035,1718.000000,0.000000,13.000000,,,,0.000000,2.000000,2.000000,0.000000,2.000000,2.000000,2.000000,1.000000,2.000000,4.000000,4.000000,4.000000,4.000000,2.000000,4.000000,25.000000,,,,,,,,,,,,,,,,,21.000000,0.000000,0.614050,0.401245,-0.601074,0.317261,0.970822,0.103528,-0.046881,-76.911591,62.284000,26.774246
1732081647.099244,1732081647.100695,85.000000,0.000000,4341.153809,4327.820313,4325.641113,4346.538574,4318.077148,4311.410156,4326.025879,4343.205078,4328.205078,4309.871582,4435.769043,4469.358887,4199.871582,4405.512695,1680.000000,0.000000,13.000000,,,,0.000000,2.000000,2.000000,0.000000,2.000000,2.000000,2.000000,1.000000,2.000000,4.000000,4.000000,4.000000,4.000000,2.000000,4.000000,25.000000,,,,,,,,,,,,,,,,,,,,,,,,,,,,
1732081647.107052,1732081647.108304,86.000000,0.000000,4337.948730,4323.077148,4321.538574,4343.717773,4323.589844,4316.922852,4328.974121,4345.769043,4332.051270,4314.871582,4434.487305,4463.717773,4201.282227,4399.358887,1361.000000,0.000000,13.000000,,,,0.000000,2.000000,2.000000,0.000000,2.000000,2.000000,2.000000,1.000000,2.000000,4.000000,4.000000,4.000000,4.000000,2.000000,4.000000,25.000000,,,,,,,,,,,,,,,,,,,,,,,,,,,,
1732081647.114860,1732081647.116112,87.000000,0.000000,4338.205078,4325.512695,4319.743652,4343.461426,4328.077148,4314.358887,4328.077148,4338.974121,4331.153809,4311.794922,4432.179688,4458.717773,4198.461426,4398.974121,1482.000000,0.000000,13.000000,,,,0.000000,2.000000,2.000000,0.000000,2.000000,2.000000,2.000000,1.000000,2.000000,4.000000,4.000000,4.000000,4.000000,2.000000,4.000000,25.000000,,,,,,,,,,,,,,,,,,,,,,,,,,,,
1732081647.122669,1732081647.123820,88.000000,0.000000,4340.897461,4332.820313,4320.512695,4346.794922,4319.358887,4314.358887,4325.769043,4335.384766,4328.974121,4310.384766,4431.025879,4460.256348,4200.384766,4398.717773,1718.000000,0.000000,13.000000,,,,0.000000,2.000000,2.000000,0.000000,2.000000,2.000000,2.000000,1.000000,2.000000,4.000000,4.000000,4.000000,4.000000,2.000000,4.000000,25.000000,,,,,,,,,,,,,,,,,22.000000,0.000000,0.612104,0.401184,-0.600830,0.321533,0.972775,0.083506,-0.049322,-76.893387,62.200039,26.812140
1732081647.130477,1732081647.131628,89.000000,0.000000,4339.871582,4328.717773,4320.384766,4348.077148,4311.282227,4321.922852,4328.205078,4341.666504,4328.846191,4307.307617,4431.666504,4462.948730,4200.769043,4398.205078,1680.000000,0.000000,13.000000,,,,0.000000,2.000000,2.000000,0.000000,2.000000,2.000000,2.000000,1.000000,2.000000,4.000000,4.000000,4.000000,4.000000,2.000000,4.000000,25.000000,,,,,,,,,,,,,,,,,,,,,,,,,,,,
1732081647.138285,1732081647.139237,90.000000,0.000000,4335.128418,4321.282227,4319.487305,4340.384766,4316.922852,4321.922852,4327.436035,4339.102539,4326.025879,4303.461426,4428.461426,4458.589844,4195.769043,4394.230957,1361.000000,0.000000,13.000000,,,,0.000000,2.000000,2.000000,0.000000,2.000000,2.000000,2.000000,1.000000,2.000000,4.000000,4.000000,4.000000,4.000000,2.000000,4.000000,25.000000,,,,,,,,,,,,,,,,,,,,,,,,,,,,
1732081647.146093,1732081647.147045,91.000000,0.000000,4334.871582,4326.282227,4322.692383,4336.025879,4318.974121,4314.871582,4327.307617,4331.025879,4322.692383,4306.025879,4427.179688,4457.563965,4196.666504,4391.410156,1482.000000,0.000000,13.000000,,,,0.000000,2.000000,2.000000,0.000000,2.000000,2.000000,2.000000,1.000000,2.000000,4.000000,4.000000,4.000000,4.000000,2.000000,4.000000,25.000000,,,,,,,,,,,,,,,,,,,,,,,,,,,,
1732081647.153902,1732081647.154753,92.000000,0.000000,4335.384766,4329.358887,4320.641113,4338.589844,4326.666504,4315.256348,4326.282227,4332.820313,4322.563965,4306.922852,4428.974121,4462.179688,4200.384766,4394.871582,1718.000000,0.000000,13.000000,,,,0.000000,2.000000,2.000000,0.000000,2.000000,2.000000,2.000000,1.000000,2.000000,4.000000,4.000000,4.000000,4.000000,2.000000,4.000000,25.000000,,,,,,,,,,,,,,,,,23.000000,0.000000,0.611836,0.400513,-0.600830,0.322876,0.976193,0.068856,-0.035649,-76.668648,62.012032,26.987833
1732081647.161710,1732081647.162561,93.000000,0.000000,4331.025879,4323.717773,4318.461426,4338.077148,4332.563965,4321.794922,4325.769043,4335.128418,4323.846191,4304.871582,4429.487305,4461.922852,4201.794922,4393.974121,1680.000000,0.000000,13.000000,,,,0.000000,2.000000,2.000000,0.000000,2.000000,2.000000,2.000000,1.000000,2.000000,4.000000,4.000000,4.000000,4.000000,2.000000,4.000000,25.000000,,,,,,,,,,,,,,,,,,,,,,,,,,,,
1732081647.169518,1732081647.170170,94.000000,0.000000,4330.000000,4323.205078,4321.410156,4336.794922,4313.333496,4320.384766,4327.563965,4332.179688,4323.461426,4308.077148,4429.871582,4460.897461,4201.410156,4391.282227,1361.000000,0.000000,13.000000,,,,0.000000,2.000000,2.000000,0.000000,2.000000,2.000000,2.000000,1.000000,2.000000,4.000000,4.000000,4.000000,4.000000,2.000000,4.000000,25.000000,,,,,,,,,,,,,,,,,,,,,,,,,,,,
1732081647.177326,1732081647.177978,95.000000,0.000000,4332.563965,4320.641113,4325.384766,4334.871582,4305.256348,4312.179688,4326.666504,4333.461426,4320.384766,4307.179688,4428.205078,4463.717773,4200.000000,4394.358887,1482.000000,0.000000,13.000000,,,,0.000000,2.000000,2.000000,0.000000,2.000000,2.000000,2.000000,1.000000,2.000000,4.000000,4.000000,4.000000,4.000000,2.000000,4.000000,25.000000,,,,,,,,,,,,,,,,,,,,,,,,,,,,
1732081647.185135,1732081647.185686,96.000000,0.000000,4328.717773,4315.128418,4323.077148,4335.512695,4321.794922,4312.307617,4323.589844,4334.743652,4319.102539,4301.153809,4422.436035,4461.922852,4198.589844,4392.692383,1718.000000,0.000000,13.000000,,,,0.000000,2.000000,2.000000,0.000000,2.000000,2.000000,2.000000,1.000000,2.000000,4.000000,4.000000,4.000000,4.000000,2.000000,4.000000,25.000000,,,,,,,,,,,,,,,,,24.000000,0.000000,0.611938,0.400146,-0.600708,0.323364,0.989379,0.074716,-0.042486,-76.763268,61.883080,26.610146
1732081647.192943,1732081647.193495,97.000000,0.000000,4324.743652,4315.641113,4318.589844,4338.077148,4319.358887,4318.333496,4323.333496,4334.743652,4322.692383,4304.871582,4423.461426,4458.205078,4199.230957,4387.820313,1680.000000,0.000000,13.000000,,,,0.000000,2.000000,2.000000,0.000000,2.000000,2.000000,2.000000,1.000000,2.000000,4.000000,4.000000,4.000000,4.000000,2.000000,4.000000,25.000000,,,,,,,,,,,,,,,,,,,,,,,,,,,,
1732081647.200751,1732081647.201103,98.000000,0.000000,4325.641113,4318.205078,4318.077148,4333.717773,4316.538574,4314.743652,4323.205078,4334.487305,4324.871582,4310.512695,4428.717773,4458.461426,4200.256348,4390.769043,1361.000000,0.000000,13.000000,,,,0.000000,2.000000,2.000000,0.000000,2.000000,2.000000,2.000000,1.000000,2.000000,4.000000,4.000000,4.000000,4.000000,2.000000,4.000000,25.000000,,,,,,,,,,,,,,,,,,,,,,,,,,,,
1732081647.208559,1732081647.208911,99.000000,0.000000,4324.871582,4316.025879,4319.743652,4327.179688,4331.922852,4310.256348,4321.025879,4332.563965,4322.051270,4306.025879,4426.794922,4459.871582,4199.871582,4389.487305,1482.000000,0.000000,13.000000,,,,0.000000,2.000000,2.000000,0.000000,2.000000,2.000000,2.000000,1.000000,2.000000,4.000000,4.000000,4.000000,4.000000,2.000000,4.000000,25.000000,,,,,,,,,,,,,,,,,,,,,,,,,,,,
1732081647.216368,1732081647.216620,100.000000,0.000000,4323.589844,4314.871582,4318.974121,4328.461426,4326.410156,4315.384766,4324.230957,4332.563965,4322.948730,4304.743652,4424.487305,4465.897461,4199.102539,4384.102539,1718.000000,0.000000,13.000000,,,,0.000000,2.000000,2.000000,0.000000,2.000000,2.000000,2.000000,1.000000,2.000000,4.000000,4.000000,4.000000,4.000000,2.000000,4.000000,25.000000,,,,,,,,,,,,,,,,,25.000000,0.000000,0.612189,0.399536,-0.600464,0.324097,0.977658,0.076670,-0.039067,-76.503250,61.908627,26.534218
1732081647.224176,1732081647.224428,101.000000,0.000000,4326.666504,4317.563965,4316.794922,4330.641113,4310.897461,4320.128418,4327.436035,4335.641113,4328.077148,4311.410156,4428.077148,4471.153809,4198.333496,4386.666504,1680.000000,0.000000,13.000000,,,,0.000000,2.000000,2.000000,0.000000,2.000000,2.000000,2.000000,1.000000,2.000000,4.000000,4.000000,4.000000,4.000000,2.000000,4.000000,25.000000,,,,,,,,,,,,,,,,,,,,,,,,,,,,
1732081647.231984,1732081647.232036,102.000000,0.000000,4329.743652,4316.025879,4317.563965,4329.102539,4314.102539,4322.307617,4329.743652,4337.436035,4331.410156,4315.256348,4430.128418,4464.871582,4200.769043,4389.230957,1361.000000,0.000000,13.000000,,,,0.000000,2.000000,2.000000,0.000000,2.000000,2.000000,2.000000,1.000000,2.000000,4.000000,4.000000,4.000000,4.000000,2.000000,4.000000,25.000000,,,,,,,,,,,,,,,,,,,,,,,,,,,,
1732081647.239792,1732081647.239844,103.000000,0.000000,4328.461426,4311.922852,4316.922852,4329.358887,4326.153809,4320.641113,4328.461426,4335.256348,4331.922852,4316.025879,4428.333496,4456.025879,4203.077148,4387.820313,1482.000000,0.000000,13.000000,,,,0.000000,2.000000,2.000000,0.000000,2.000000,2.000000,2.000000,1.000000,2.000000,4.000000,4.000000,4.000000,4.000000,2.000000,4.000000,25.000000,,,,,,,,,,,,,,,,,,,,,,,,,,,,
1732081647.247601,1732081647.247752,104.000000,0.000000,4326.538574,4310.128418,4316.153809,4326.922852,4329.615234,4314.615234,4326.538574,4334.358887,4326.666504,4314.358887,4428.205078,4453.717773,4202.436035,4386.153809,1718.000000,0.000000,13.000000,,,,0.000000,2.000000,2.000000,0.000000,2.000000,2.000000,2.000000,1.000000,2.000000,4.000000,4.000000,4.000000,4.000000,2.000000,4.000000,25.000000,,,,,,,,,,,,,,,,,26.000000,0.000000,0.613368,0.398254,-0.599915,0.324463,0.978147,0.096203,-0.032230,-76.605965,61.892654,26.566050
1732081647.255409,1732081647.255561,105.000000,0.000000,4330.256348,4311.282227,4315.897461,4328.846191,4317.820313,4315.256348,4325.128418,4335.000000,4323.205078,4310.641113,4428.846191,4448.461426,4203.333496,4385.641113,1680.000000,0.000000,13.000000,,,,0.000000,2.000000,2.000000,0.000000,2.000000,2.000000,2.000000,1.000000,2.000000,4.000000,4.000000,4.000000,4.000000,2.000000,4.000000,25.000000,,,,,,,,,,,,,,,,,,,,,,,,,,,,
1732081647.263217,1732081647.263569,106.000000,0.000000,4334.487305,4313.205078,4316.794922,4333.846191,4310.128418,4320.128418,4327.051270,4334.615234,4326.282227,4308.077148,4426.282227,4441.794922,4202.051270,4384.871582,1361.000000,0.000000,13.000000,,,,0.000000,2.000000,2.000000,0.000000,2.000000,2.000000,2.000000,1.000000,2.000000,4.000000,4.000000,4.000000,4.000000,2.000000,4.000000,25.000000,,,,,,,,,,,,,,,,,,,,,,,,,,,,
1732081647.271026,1732081647.271377,107.000000,0.000000,4332.436035,4312.948730,4315.256348,4330.512695,4320.384766,4319.615234,4325.128418,4334.358887,4328.205078,4309.487305,4425.128418,4443.205078,4202.179688,4381.153809,1482.000000,0.000000,13.000000,,,,0.000000,2.000000,2.000000,0.000000,2.000000,2.000000,2.000000,1.000000,2.000000,4.000000,4.000000,4.000000,4.000000,2.000000,4.000000,25.000000,,,,,,,,,,,,,,,,,,,,,,,,,,,,
1732081647.278834,1732081647.279285,108.000000,0.000000,4328.077148,4313.974121,4316.666504,4334.102539,4324.358887,4319.230957,4323.461426,4335.000000,4326.025879,4312.051270,4429.358887,4444.615234,4210.128418,4380.000000,1718.000000,0.000000,13.000000,,,,0.000000,2.000000,2.000000,0.000000,2.000000,2.000000,2.000000,1.000000,2.000000,4.000000,4.000000,4.000000,4.000000,2.000000,4.000000,25.000000,,,,,,,,,,,,,,,,,27.000000,0.000000,0.613829,0.397827,-0.599792,0.324341,0.980588,0.083018,-0.029789,-76.474167,61.796383,26.411833
1732081647.286642,1732081647.287094,109.000000,0.000000,4330.256348,4316.153809,4315.384766,4342.563965,4322.307617,4320.256348,4323.717773,4334.615234,4328.333496,4313.205078,4433.589844,4443.846191,4217.307617,4384.102539,1680.000000,0.000000,13.000000,,,,0.000000,2.000000,2.000000,0.000000,2.000000,2.000000,2.000000,1.000000,2.000000,4.000000,4.000000,4.000000,4.000000,2.000000,4.000000,25.000000,,,,,,,,,,,,,,,,,,,,,,,,,,,,
1732081647.294450,1732081647.295102,110.000000,0.000000,4333.717773,4320.256348,4311.922852,4336.282227,4331.666504,4316.922852,4324.743652,4335.897461,4331.538574,4311.922852,4433.717773,4452.563965,4216.794922,4386.025879,1361.000000,0.000000,13.000000,,,,0.000000,2.000000,2.000000,0.000000,2.000000,2.000000,2.000000,1.000000,2.000000,4.000000,4.000000,4.000000,4.000000,2.000000,4.000000,25.000000,,,,,,,,,,,,,,,,,,,,,,,,,,,,
1732081647.302258,1732081647.302910,111.000000,0.000000,4332.948730,4321.282227,4313.589844,4331.410156,4327.692383,4318.333496,4325.512695,4340.897461,4331.410156,4309.358887,4431.922852,4462.307617,4214.358887,4384.487305,1482.000000,0.000000,13.000000,,,,0.000000,2.000000,2.000000,0.000000,2.000000,2.000000,2.000000,1.000000,2.000000,4.000000,4.000000,4.000000,4.000000,2.000000,4.000000,25.000000,,,,,,,,,,,,,,,,,,,,,,,,,,,,
1732081647.310067,1732081647.310618,112.000000,0.000000,4332.051270,4317.051270,4318.589844,4339.615234,4314.743652,4322.436035,4327.307617,4340.128418,4331.794922,4310.000000,4428.461426,4459.358887,4215.256348,4384.230957,1718.000000,0.000000,13.000000,,,,0.000000,2.000000,2.000000,0.000000,2.000000,2.000000,2.000000,1.000000,2.000000,4.000000,4.000000,4.000000,4.000000,2.000000,4.000000,25.000000,,,,,,,,,,,,,,,,,28.000000,0.000000,0.614863,0.396790,-0.599915,0.323425,0.983518,0.100598,-0.028812,-76.352409,61.930069,26.681919
1732081647.317875,1732081647.318426,113.000000,0.000000,4331.538574,4314.358887,4316.922852,4342.051270,4319.743652,4321.153809,4327.820313,4333.717773,4330.897461,4311.410156,4426.666504,4455.769043,4218.077148,4383.077148,1680.000000,0.000000,13.000000,,,,0.000000,2.000000,2.000000,0.000000,2.000000,2.000000,2.000000,1.000000,2.000000,4.000000,4.000000,4.000000,4.000000,2.000000,4.000000,25.000000,,,,,,,,,,,,,,,,,,,,,,,,,,,,
1732081647.325683,1732081647.326434,114.000000,0.000000,4330.384766,4312.948730,4314.102539,4336.153809,4330.769043,4314.743652,4322.820313,4332.948730,4326.282227,4312.436035,4428.846191,4462.948730,4219.230957,4384.102539,1361.000000,0.000000,13.000000,,,,0.000000,2.000000,2.000000,0.000000,2.000000,2.000000,2.000000,1.000000,2.000000,4.000000,4.000000,4.000000,4.000000,2.000000,4.000000,25.000000,,,,,,,,,,,,,,,,,,,,,,,,,,,,
1732081647.333491,1732081647.334242,115.000000,0.000000,4328.974121,4313.974121,4315.897461,4331.922852,4331.025879,4311.794922,4322.820313,4335.128418,4326.025879,4311.794922,4429.358887,4468.077148,4218.589844,4386.025879,1482.000000,0.000000,13.000000,,,,0.000000,2.000000,2.000000,0.000000,2.000000,2.000000,2.000000,1.000000,2.000000,4.000000,4.000000,4.000000,4.000000,2.000000,4.000000,25.000000,,,,,,,,,,,,,,,,,,,,,,,,,,,,
1732081647.341300,1732081647.342150,116.000000,0.000000,4327.948730,4316.025879,4319.230957,4331.025879,4320.000000,4316.666504,4326.794922,4334.743652,4327.436035,4309.487305,4428.205078,4469.102539,4216.025879,4382.179688,1718.000000,0.000000,13.000000,,,,0.000000,2.000000,2.000000,0.000000,2.000000,2.000000,2.000000,1.000000,2.000000,4.000000,4.000000,4.000000,4.000000,2.000000,4.000000,25.000000,,,,,,,,,,,,,,,,,29.000000,0.000000,0.615904,0.395813,-0.599854,0.322754,0.983030,0.104993,-0.035161,-76.390450,62.033356,26.884020
1732081647.349108,1732081647.349958,117.000000,0.000000,4328.589844,4315.128418,4318.717773,4335.128418,4311.025879,4320.384766,4326.282227,4334.615234,4324.102539,4308.333496,4428.077148,4469.487305,4218.077148,4380.384766,1680.000000,0.000000,13.000000,,,,0.000000,2.000000,2.000000,0.000000,2.000000,2.000000,2.000000,1.000000,2.000000,4.000000,4.000000,4.000000,4.000000,2.000000,4.000000,25.000000,,,,,,,,,,,,,,,,,,,,,,,,,,,,
1732081647.356916,1732081647.357966,118.000000,0.000000,4328.589844,4315.256348,4313.461426,4336.538574,4316.666504,4315.897461,4319.871582,4331.538574,4321.666504,4308.461426,4428.717773,4465.769043,4223.333496,4384.871582,1361.000000,0.000000,13.000000,,,,0.000000,2.000000,2.000000,0.000000,2.000000,2.000000,2.000000,1.000000,2.000000,4.000000,4.000000,4.000000,4.000000,2.000000,4.000000,25.000000,,,,,,,,,,,,,,,,,,,,,,,,,,,,
1732081647.364725,1732081647.365775,119.000000,0.000000,4328.589844,4320.512695,4311.922852,4331.410156,4320.256348,4312.436035,4322.436035,4329.871582,4322.948730,4309.871582,4429.102539,4460.641113,4227.436035,4386.025879,1482.000000,0.000000,13.000000,,,,0.000000,2.000000,2.000000,0.000000,2.000000,2.000000,2.000000,1.000000,2.000000,4.000000,4.000000,4.000000,4.000000,2.000000,4.000000,25.000000,,,,,,,,,,,,,,,,,,,,,,,,,,,,
1732081647.372533,1732081647.373683,120.000000,0.000000,4331.922852,4320.128418,4314.358887,4332.692383,4320.512695,4311.922852,4324.102539,4330.641113,4323.974121,4308.846191,4429.743652,4459.743652,4226.922852,4385.384766,1718.000000,0.000000,13.000000,,,,0.000000,2.000000,2.000000,0.000000,2.000000,2.000000,2.000000,1.000000,2.000000,4.000000,4.000000,4.000000,4.000000,2.000000,4.000000,25.000000,,,,,,,,,,,,,,,,,30.000000,0.000000,0.615855,0.395569,-0.600098,0.322693,0.986937,0.115737,-0.030277,-76.316261,61.943687,26.949390
1732081647.380341,1732081647.381491,121.000000,0.000000,4330.256348,4312.820313,4312.692383,4336.538574,4330.897461,4310.256348,4321.410156,4329.487305,4320.000000,4303.974121,4428.974121,4456.538574,4220.128418,4384.487305,1680.000000,0.000000,13.000000,,,,0.000000,2.000000,2.000000,0.000000,2.000000,2.000000,2.000000,1.000000,2.000000,4.000000,4.000000,4.000000,4.000000,2.000000,4.000000,25.000000,,,,,,,,,,,,,,,,,,,,,,,,,,,,
1732081647.388149,1732081647.389499,122.000000,0.000000,4323.589844,4315.000000,4310.256348,4332.948730,4325.128418,4314.230957,4321.666504,4329.615234,4318.205078,4303.846191,4430.256348,4450.641113,4221.153809,4382.820313,1361.000000,0.000000,13.000000,,,,0.000000,2.000000,2.000000,0.000000,2.000000,2.000000,2.000000,1.000000,2.000000,4.000000,4.000000,4.000000,4.000000,2.000000,4.000000,25.000000,,,,,,,,,,,,,,,,,,,,,,,,,,,,
1732081647.395958,1732081647.397307,123.000000,0.000000,4325.256348,4317.563965,4315.769043,4327.051270,4306.666504,4317.692383,4324.615234,4333.461426,4322.820313,4308.589844,4433.077148,4451.282227,4230.641113,4381.794922,1482.000000,0.000000,13.000000,,,,0.000000,2.000000,2.000000,0.000000,2.000000,2.000000,2.000000,1.000000,2.000000,4.000000,4.000000,4.000000,4.000000,2.000000,4.000000,25.000000,,,,,,,,,,,,,,,,,,,,,,,,,,,,
1732081647.403766,1732081647.405215,124.000000,0.000000,4326.153809,4313.974121,4314.358887,4328.333496,4318.974121,4311.794922,4322.692383,4336.153809,4329.230957,4311.538574,4429.743652,4451.282227,4234.102539,4378.333496,1718.000000,0.000000,13.000000,,,,0.000000,2.000000,2.000000,0.000000,2.000000,2.000000,2.000000,1.000000,2.000000,4.000000,4.000000,4.000000,4.000000,2.000000,4.000000,25.000000,,,,,,,,,,,,,,,,,31.000000,0.000000,0.615796,0.395569,-0.600159,0.322693,0.975705,0.102063,-0.035649,-76.509506,62.017719,26.864006
1732081647.411574,1732081647.413024,125.000000,0.000000,4316.666504,4315.256348,4309.871582,4331.410156,4335.128418,4309.615234,4320.256348,4334.871582,4328.974121,4310.769043,4426.538574,4450.256348,4231.538574,4375.897461,1680.000000,0.000000,13.000000,,,,0.000000,2.000000,2.000000,0.000000,2.000000,2.000000,2.000000,1.000000,2.000000,4.000000,4.000000,4.000000,4.000000,2.000000,4.000000,25.000000,,,,,,,,,,,,,,,,,,,,,,,,,,,,
1732081647.419382,1732081647.420732,126.000000,0.000000,4316.666504,4319.487305,4310.897461,4331.666504,4320.256348,4315.897461,4323.333496,4333.461426,4323.333496,4311.538574,4429.743652,4455.000000,4233.205078,4378.077148,1361.000000,0.000000,13.000000,,,,0.000000,2.000000,2.000000,0.000000,2.000000,2.000000,2.000000,1.000000,2.000000,4.000000,4.000000,4.000000,4.000000,2.000000,4.000000,25.000000,,,,,,,,,,,,,,,,,,,,,,,,,,,,
1732081647.427190,1732081647.428540,127.000000,0.000000,4325.128418,4317.436035,4312.692383,4331.153809,4303.461426,4317.563965,4326.025879,4334.358887,4325.512695,4314.230957,4431.282227,4459.615234,4236.922852,4379.615234,13.000000,0.000000,13.000000,,,,0.000000,2.000000,2.000000,0.000000,2.000000,2.000000,2.000000,1.000000,2.000000,4.000000,4.000000,4.000000,4.000000,2.000000,4.000000,25.000000,,,,,,,,,,,,,,,,,,,,,,,,,,,,
1732081647.434999,1732081647.436248,0.000000,0.000000,4321.153809,4313.589844,4310.769043,4328.717773,4313.846191,4312.307617,4322.307617,4335.512695,4327.820313,4314.743652,4431.410156,4460.897461,4234.615234,4380.000000,5.000000,0.000000,13.000000,,,,0.000000,2.000000,2.000000,0.000000,2.000000,2.000000,2.000000,1.000000,2.000000,4.000000,4.000000,4.000000,4.000000,2.000000,4.000000,25.000000,,,,,,,,,,,,,,,,,0.000000,0.000000,0.615481,0.395752,-0.600098,0.323181,0.969357,0.103040,-0.035161,-76.517700,61.954353,26.826511
1732081647.442807,1732081647.444057,1.000000,0.000000,4313.205078,4312.563965,4311.025879,4326.538574,4329.615234,4309.230957,4319.487305,4329.615234,4321.922852,4309.230957,4429.487305,4459.871582,4230.128418,4377.179688,1297.000000,0.000000,13.000000,,,,0.000000,2.000000,2.000000,0.000000,2.000000,2.000000,2.000000,1.000000,2.000000,4.000000,4.000000,4.000000,4.000000,2.000000,4.000000,25.000000,,,,,,,,,,,,,,,,,,,,,,,,,,,,
1732081647.450615,1732081647.451665,2.000000,0.000000,4315.384766,4313.974121,4312.179688,4326.410156,4322.948730,4310.384766,4322.820313,4326.922852,4319.743652,4304.871582,4425.897461,4453.461426,4231.922852,4372.051270,1205.000000,0.000000,13.000000,,,,0.000000,2.000000,2.000000,0.000000,2.000000,2.000000,2.000000,1.000000,2.000000,4.000000,4.000000,4.000000,4.000000,2.000000,4.000000,25.000000,,,,,,,,,,,,,,,,,,,,,,,,,,,,
1732081647.458424,1732081647.459473,3.000000,0.000000,4317.563965,4316.666504,4311.410156,4327.436035,4307.948730,4310.897461,4323.589844,4333.589844,4327.179688,4310.512695,4428.461426,4446.922852,4238.461426,4372.051270,1162.000000,0.000000,13.000000,,,,0.000000,2.000000,2.000000,0.000000,2.000000,2.000000,2.000000,1.000000,2.000000,4.000000,4.000000,4.000000,4.000000,2.000000,4.000000,25.000000,,,,,,,,,,,,,,,,,,,,,,,,,,,,
1732081647.466232,1732081647.467181,4.000000,0.000000,4314.230957,4315.897461,4310.641113,4327.179688,4310.000000,4312.436035,4321.538574,4332.436035,4330.384766,4314.743652,4431.410156,4451.025879,4240.384766,4375.000000,1184.000000,0.000000,13.000000,,,,0.000000,2.000000,2.000000,0.000000,2.000000,2.000000,2.000000,1.000000,2.000000,4.000000,4.000000,4.000000,4.000000,2.000000,4.000000,25.000000,,,,,,,,,,,,,,,,,1.000000,0.000000,0.615578,0.395203,-0.600525,0.322876,0.967892,0.088390,-0.025882,-76.491005,61.769691,26.996141
1732081647.474040,1732081647.474990,5.000000,0.000000,4312.692383,4313.717773,4309.230957,4327.948730,4318.717773,4315.384766,4322.051270,4327.436035,4325.256348,4310.256348,4427.563965,4459.358887,4238.205078,4371.922852,1065.000000,0.000000,13.000000,,,,0.000000,2.000000,2.000000,0.000000,2.000000,2.000000,2.000000,1.000000,2.000000,4.000000,4.000000,4.000000,4.000000,2.000000,4.000000,25.000000,,,,,,,,,,,,,,,,,,,,,,,,,,,,
1732081647.481848,1732081647.482598,6.000000,0.000000,4314.230957,4316.153809,4308.717773,4328.461426,4318.974121,4312.820313,4325.256348,4331.153809,4321.410156,4305.512695,4425.641113,4461.794922,4237.820313,4373.205078,208.000000,0.000000,13.000000,,,,0.000000,2.000000,2.000000,0.000000,2.000000,2.000000,2.000000,1.000000,2.000000,4.000000,4.000000,4.000000,4.000000,2.000000,4.000000,25.000000,,,,,,,,,,,,,,,,,,,,,,,,,,,,
1732081647.489657,1732081647.490406,7.000000,0.000000,4317.436035,4318.589844,4309.102539,4329.230957,4313.974121,4310.897461,4324.487305,4335.897461,4324.487305,4310.256348,4429.871582,4457.436035,4240.512695,4381.282227,1194.000000,0.000000,13.000000,,,,0.000000,2.000000,2.000000,0.000000,2.000000,2.000000,2.000000,1.000000,2.000000,4.000000,4.000000,4.000000,4.000000,2.000000,4.000000,25.000000,,,,,,,,,,,,,,,,,,,,,,,,,,,,
1732081647.497465,1732081647.498115,8.000000,0.000000,4315.641113,4315.000000,4309.871582,4330.641113,4318.717773,4317.563965,4324.743652,4333.717773,4328.461426,4315.128418,4428.717773,4454.102539,4247.307617,4377.948730,1337.000000,0.000000,13.000000,,,,0.000000,2.000000,2.000000,0.000000,2.000000,2.000000,2.000000,1.000000,2.000000,4.000000,4.000000,4.000000,4.000000,2.000000,4.000000,25.000000,,,,,,,,,,,,,,,,,2.000000,0.000000,0.615546,0.395203,-0.600525,0.322937,0.969845,0.082041,-0.032719,-76.544380,61.861782,26.980207
1732081647.505273,1732081647.505923,9.000000,0.000000,4311.153809,4311.282227,4310.000000,4325.897461,4329.230957,4319.230957,4323.461426,4332.436035,4325.769043,4311.410156,4426.025879,4457.948730,4247.307617,4374.615234,1462.000000,0.000000,13.000000,,,,0.000000,2.000000,2.000000,0.000000,2.000000,2.000000,2.000000,1.000000,2.000000,4.000000,4.000000,4.000000,4.000000,2.000000,4.000000,25.000000,,,,,,,,,,,,,,,,,,,,,,,,,,,,
1732081647.513081,1732081647.513531,10.000000,0.000000,4310.769043,4311.282227,4310.384766,4320.128418,4324.487305,4312.179688,4324.743652,4334.487305,4321.282227,4304.871582,4427.692383,4460.641113,4236.538574,4378.589844,1366.000000,0.000000,13.000000,,,,0.000000,2.000000,2.000000,0.000000,2.000000,2.000000,2.000000,1.000000,2.000000,4.000000,4.000000,4.000000,4.000000,2.000000,4.000000,25.000000,,,,,,,,,,,,,,,,,,,,,,,,,,,,
1732081647.520890,1732081647.521339,11.000000,0.000000,4311.538574,4311.153809,4309.743652,4319.871582,4306.794922,4313.205078,4323.974121,4335.897461,4323.077148,4306.025879,4427.179688,4458.846191,4238.589844,4378.974121,1482.000000,0.000000,13.000000,,,,0.000000,2.000000,2.000000,0.000000,2.000000,2.000000,2.000000,1.000000,2.000000,4.000000,4.000000,4.000000,4.000000,2.000000,4.000000,25.000000,,,,,,,,,,,,,,,,,,,,,,,,,,,,
1732081647.528698,1732081647.529048,12.000000,0.000000,4309.102539,4308.589844,4309.871582,4319.615234,4306.410156,4316.153809,4322.051270,4335.897461,4323.333496,4311.794922,4426.025879,4458.974121,4250.897461,4379.358887,1720.000000,0.000000,13.000000,,,,0.000000,2.000000,2.000000,0.000000,2.000000,2.000000,2.000000,1.000000,2.000000,4.000000,4.000000,4.000000,4.000000,2.000000,4.000000,25.000000,,,,,,,,,,,,,,,,,3.000000,0.000000,0.615422,0.395203,-0.600586,0.323059,0.967892,0.080088,-0.040044,-76.717613,61.768044,27.002302
1732081647.536506,1732081647.536856,13.000000,0.000000,4308.205078,4306.794922,4306.282227,4317.436035,4312.051270,4311.666504,4323.205078,4333.717773,4321.666504,4312.179688,4431.410156,4455.256348,4250.512695,4382.179688,1678.000000,0.000000,13.000000,,,,0.000000,2.000000,2.000000,0.000000,2.000000,2.000000,2.000000,1.000000,2.000000,4.000000,4.000000,4.000000,4.000000,2.000000,4.000000,25.000000,,,,,,,,,,,,,,,,,,,,,,,,,,,,
1732081647.544314,1732081647.544864,14.000000,0.000000,4309.358887,4305.256348,4305.897461,4318.205078,4307.692383,4310.641113,4324.743652,4334.615234,4324.102539,4309.358887,4434.615234,4450.769043,4247.307617,4381.410156,1366.000000,0.000000,13.000000,,,,0.000000,2.000000,2.000000,0.000000,2.000000,2.000000,2.000000,1.000000,2.000000,4.000000,4.000000,4.000000,4.000000,2.000000,4.000000,25.000000,1.000000,8.333333,2.000000,2.000000,0.000000,2.000000,2.000000,2.000000,0.000000,1.000000,1.000000,1.000000,4.000000,4.000000,2.000000,4.000000,,,,,,,,,,,,
1732081647.552122,1732081647.552672,15.000000,0.000000,4309.230957,4305.384766,4306.153809,4320.641113,4316.922852,4312.179688,4322.948730,4339.615234,4325.641113,4310.897461,4433.589844,4454.615234,4249.358887,4377.948730,1482.000000,0.000000,13.000000,,,,0.000000,2.000000,2.000000,0.000000,2.000000,2.000000,2.000000,1.000000,2.000000,4.000000,4.000000,4.000000,4.000000,2.000000,4.000000,25.000000,,,,,,,,,,,,,,,,,,,,,,,,,,,,
1732081647.559931,1732081647.560381,16.000000,0.000000,4307.692383,4309.615234,4303.205078,4316.410156,4321.922852,4312.436035,4323.461426,4341.282227,4325.512695,4314.743652,4435.000000,4459.743652,4251.538574,4380.897461,0.000000,0.000000,13.000000,,,,0.000000,2.000000,2.000000,0.000000,2.000000,2.000000,2.000000,1.000000,2.000000,4.000000,4.000000,4.000000,4.000000,2.000000,4.000000,25.000000,,,,,,,,,,,,,,,,,4.000000,0.000000,0.615346,0.394714,-0.600952,0.323120,0.973752,0.088878,-0.036137,-76.931267,61.873783,27.171864
1732081647.567739,1732081647.568189,17.000000,0.000000,4306.666504,4311.666504,4300.897461,4315.769043,4308.974121,4317.307617,4327.179688,4341.282227,4327.948730,4314.102539,4433.846191,4459.358887,4250.897461,4382.436035,0.000000,0.000000,13.000000,,,,0.000000,2.000000,2.000000,0.000000,2.000000,2.000000,2.000000,1.000000,2.000000,4.000000,4.000000,4.000000,4.000000,2.000000,4.000000,25.000000,,,,,,,,,,,,,,,,,,,,,,,,,,,,
1732081647.575547,1732081647.575797,18.000000,0.000000,4306.025879,4311.794922,4305.000000,4322.692383,4307.948730,4319.358887,4325.769043,4341.282227,4328.846191,4312.820313,4427.179688,4457.820313,4250.512695,4381.666504,0.000000,0.000000,13.000000,,,,0.000000,2.000000,2.000000,0.000000,2.000000,2.000000,2.000000,1.000000,2.000000,4.000000,4.000000,4.000000,4.000000,2.000000,4.000000,25.000000,,,,,,,,,,,,,,,,,,,,,,,,,,,,
1732081647.583356,1732081647.583605,19.000000,0.000000,4306.025879,4312.436035,4309.615234,4320.128418,4311.794922,4313.846191,4325.384766,4339.615234,4326.794922,4313.717773,4429.871582,4460.256348,4249.615234,4383.589844,0.000000,0.000000,13.000000,,,,0.000000,2.000000,2.000000,0.000000,2.000000,2.000000,2.000000,1.000000,2.000000,4.000000,4.000000,4.000000,4.000000,2.000000,4.000000,25.000000,,,,,,,,,,,,,,,,,,,,,,,,,,,,
1732081647.591164,1732081647.591314,20.000000,0.000000,4303.205078,4311.153809,4307.436035,4313.974121,4315.000000,4312.179688,4324.358887,4335.769043,4323.333496,4310.256348,4429.743652,4461.794922,4248.589844,4380.256348,0.000000,0.000000,13.000000,,,,0.000000,2.000000,2.000000,0.000000,2.000000,2.000000,2.000000,1.000000,2.000000,4.000000,4.000000,4.000000,4.000000,2.000000,4.000000,25.000000,,,,,,,,,,,,,,,,,5.000000,0.000000,0.615336,0.394165,-0.601257,0.323242,0.976682,0.095226,-0.037114,-76.954330,61.759430,27.159210
1732081647.598972,1732081647.599122,21.000000,0.000000,4299.230957,4308.461426,4304.230957,4319.743652,4322.948730,4313.205078,4323.589844,4334.871582,4322.307617,4308.974121,4419.487305,4461.282227,4247.436035,4375.897461,0.000000,0.000000,13.000000,,,,0.000000,2.000000,2.000000,0.000000,2.000000,2.000000,2.000000,1.000000,2.000000,4.000000,4.000000,4.000000,4.000000,2.000000,4.000000,25.000000,,,,,,,,,,,,,,,,,,,,,,,,,,,,
1732081647.606780,1732081647.606730,22.000000,0.000000,4297.692383,4309.615234,4304.615234,4325.897461,4316.153809,4311.666504,4325.897461,4336.025879,4324.615234,4314.743652,4418.846191,4462.692383,4247.948730,4376.666504,0.000000,0.000000,13.000000,,,,0.000000,2.000000,2.000000,0.000000,2.000000,2.000000,2.000000,1.000000,2.000000,4.000000,4.000000,4.000000,4.000000,2.000000,4.000000,25.000000,,,,,,,,,,,,,,,,,,,,,,,,,,,,
1732081647.614589,1732081647.614538,23.000000,0.000000,4297.692383,4312.436035,4307.948730,4322.179688,4303.589844,4312.948730,4327.307617,4338.589844,4324.230957,4314.871582,4425.769043,4465.256348,4249.358887,4376.282227,0.000000,0.000000,13.000000,,,,0.000000,2.000000,2.000000,0.000000,2.000000,2.000000,2.000000,1.000000,2.000000,4.000000,4.000000,4.000000,4.000000,2.000000,4.000000,25.000000,,,,,,,,,,,,,,,,,,,,,,,,,,,,
1732081647.622397,1732081647.622247,24.000000,0.000000,4299.358887,4311.538574,4308.333496,4321.538574,4312.692383,4314.615234,4323.333496,4340.897461,4321.025879,4309.743652,4423.077148,4465.897461,4249.358887,4374.615234,0.000000,0.000000,13.000000,,,,0.000000,2.000000,2.000000,0.000000,2.000000,2.000000,2.000000,1.000000,2.000000,4.000000,4.000000,4.000000,4.000000,2.000000,4.000000,25.000000,,,,,,,,,,,,,,,,,6.000000,0.000000,0.615412,0.393860,-0.601379,0.323242,0.976682,0.095226,-0.037114,-76.836342,61.741806,27.065626
1732081647.630205,1732081647.630055,25.000000,0.000000,4302.179688,4309.871582,4308.461426,4322.307617,4320.512695,4312.436035,4324.615234,4336.794922,4321.153809,4308.589844,4416.666504,4463.205078,4249.615234,4375.512695,0.000000,0.000000,13.000000,,,,0.000000,2.000000,2.000000,0.000000,2.000000,2.000000,2.000000,1.000000,2.000000,4.000000,4.000000,4.000000,4.000000,2.000000,4.000000,25.000000,,,,,,,,,,,,,,,,,,,,,,,,,,,,
1732081647.638013,1732081647.637663,26.000000,0.000000,4302.051270,4309.615234,4309.358887,4320.897461,4308.205078,4312.051270,4327.436035,4334.358887,4321.922852,4309.615234,4418.717773,4463.077148,4250.897461,4372.948730,0.000000,0.000000,13.000000,,,,0.000000,2.000000,2.000000,0.000000,2.000000,2.000000,2.000000,1.000000,2.000000,4.000000,4.000000,4.000000,4.000000,2.000000,4.000000,25.000000,,,,,,,,,,,,,,,,,,,,,,,,,,,,
1732081647.645822,1732081647.645472,27.000000,0.000000,4299.615234,4309.230957,4310.256348,4322.307617,4309.743652,4312.307617,4324.487305,4335.641113,4319.615234,4308.333496,4419.743652,4465.000000,4251.153809,4365.384766,0.000000,0.000000,13.000000,,,,0.000000,2.000000,2.000000,0.000000,2.000000,2.000000,2.000000,1.000000,2.000000,4.000000,4.000000,4.000000,4.000000,2.000000,4.000000,25.000000,,,,,,,,,,,,,,,,,,,,,,,,,,,,
1732081647.653630,1732081647.653380,28.000000,0.000000,4300.000000,4308.717773,4308.589844,4320.769043,4324.487305,4308.846191,4320.256348,4334.871582,4320.897461,4307.692383,4418.205078,4465.897461,4249.230957,4369.230957,0.000000,0.000000,13.000000,,,,0.000000,2.000000,2.000000,0.000000,2.000000,2.000000,2.000000,1.000000,2.000000,4.000000,4.000000,4.000000,4.000000,2.000000,4.000000,25.000000,,,,,,,,,,,,,,,,,7.000000,0.000000,0.615474,0.392578,-0.601990,0.323547,0.973263,0.088390,-0.034184,-76.964104,61.754196,27.034824
1732081647.661438,1732081647.661188,29.000000,0.000000,4301.153809,4307.692383,4308.077148,4317.307617,4320.128418,4309.871582,4322.307617,4334.487305,4321.153809,4309.230957,4418.333496,4465.384766,4248.717773,4378.077148,0.000000,0.000000,13.000000,,,,0.000000,2.000000,2.000000,0.000000,2.000000,2.000000,2.000000,1.000000,2.000000,4.000000,4.000000,4.000000,4.000000,2.000000,4.000000,25.000000,,,,,,,,,,,,,,,,,,,,,,,,,,,,
1732081647.669246,1732081647.669196,30.000000,0.000000,4300.256348,4307.179688,4308.717773,4319.871582,4307.179688,4316.025879,4323.846191,4333.974121,4315.000000,4309.487305,4419.230957,4462.051270,4255.000000,4378.077148,0.000000,0.000000,13.000000,,,,0.000000,2.000000,2.000000,0.000000,2.000000,2.000000,2.000000,1.000000,2.000000,4.000000,4.000000,4.000000,4.000000,2.000000,4.000000,25.000000,,,,,,,,,,,,,,,,,,,,,,,,,,,,
1732081647.677055,1732081647.677004,31.000000,0.000000,4300.641113,4307.563965,4309.615234,4325.256348,4310.384766,4314.871582,4322.948730,4333.589844,4315.128418,4309.358887,4421.794922,4463.846191,4262.307617,4377.820313,0.000000,0.000000,13.000000,,,,0.000000,2.000000,2.000000,0.000000,2.000000,2.000000,2.000000,1.000000,2.000000,4.000000,4.000000,4.000000,4.000000,2.000000,4.000000,25.000000,,,,,,,,,,,,,,,,,,,,,,,,,,,,
1732081647.684863,1732081647.684912,32.000000,0.000000,4298.846191,4309.871582,4307.051270,4325.384766,4315.384766,4310.512695,4324.358887,4339.102539,4322.436035,4312.436035,4426.025879,4469.358887,4263.974121,4382.692383,0.000000,0.000000,13.000000,,,,0.000000,2.000000,2.000000,0.000000,2.000000,2.000000,2.000000,1.000000,2.000000,4.000000,4.000000,4.000000,4.000000,2.000000,4.000000,25.000000,,,,,,,,,,,,,,,,,8.000000,0.000000,0.615575,0.391663,-0.602417,0.323669,0.984007,0.090831,-0.027835,-77.114258,61.740898,27.098207
1732081647.692671,1732081647.692720,33.000000,0.000000,4295.512695,4310.641113,4305.000000,4318.846191,4314.102539,4312.563965,4324.743652,4338.846191,4323.846191,4314.102539,4425.384766,4470.769043,4263.077148,4382.948730,0.000000,0.000000,13.000000,,,,0.000000,2.000000,2.000000,0.000000,2.000000,2.000000,2.000000,1.000000,2.000000,4.000000,4.000000,4.000000,4.000000,2.000000,4.000000,25.000000,,,,,,,,,,,,,,,,,,,,,,,,,,,,
1732081647.700479,1732081647.700728,34.000000,0.000000,4294.743652,4310.128418,4306.794922,4316.794922,4325.897461,4314.358887,4323.974121,4327.051270,4319.230957,4311.025879,4419.615234,4471.282227,4261.410156,4378.077148,0.000000,0.000000,13.000000,,,,0.000000,2.000000,2.000000,0.000000,2.000000,2.000000,2.000000,1.000000,2.000000,4.000000,4.000000,4.000000,4.000000,2.000000,4.000000,25.000000,,,,,,,,,,,,,,,,,,,,,,,,,,,,
1732081647.708288,1732081647.708537,35.000000,0.000000,4296.410156,4310.897461,4306.666504,4321.794922,4325.256348,4312.179688,4323.333496,4326.025879,4318.205078,4310.384766,4420.128418,4473.717773,4260.512695,4378.461426,0.000000,0.000000,13.000000,,,,0.000000,2.000000,2.000000,0.000000,2.000000,2.000000,2.000000,1.000000,2.000000,4.000000,4.000000,4.000000,4.000000,2.000000,4.000000,25.000000,,,,,,,,,,,,,,,,,,,,,,,,,,,,
1732081647.716096,1732081647.716445,36.000000,0.000000,4296.153809,4307.307617,4304.487305,4318.717773,4302.436035,4311.538574,4323.461426,4335.769043,4320.128418,4315.512695,4424.230957,4477.179688,4263.589844,4380.128418,0.000000,0.000000,13.000000,,,,0.000000,2.000000,2.000000,0.000000,2.000000,2.000000,2.000000,1.000000,2.000000,4.000000,4.000000,4.000000,4.000000,2.000000,4.000000,25.000000,,,,,,,,,,,,,,,,,9.000000,0.000000,0.615640,0.391235,-0.602661,0.323608,0.982542,0.091808,-0.029300,-76.955879,61.815128,27.231215
1732081647.723904,1732081647.724253,37.000000,0.000000,4296.794922,4302.948730,4305.512695,4312.692383,4299.358887,4312.563965,4321.153809,4336.282227,4322.436035,4315.256348,4424.487305,4477.436035,4264.743652,4378.974121,0.000000,0.000000,13.000000,,,,0.000000,2.000000,2.000000,0.000000,2.000000,2.000000,2.000000,1.000000,2.000000,4.000000,4.000000,4.000000,4.000000,2.000000,4.000000,25.000000,,,,,,,,,,,,,,,,,,,,,,,,,,,,
1732081647.731712,1732081647.732261,38.000000,0.000000,4296.410156,4305.512695,4308.846191,4318.077148,4317.563965,4312.179688,4320.641113,4332.948730,4319.871582,4310.000000,4422.307617,4468.717773,4264.102539,4379.358887,0.000000,0.000000,13.000000,,,,0.000000,2.000000,2.000000,0.000000,2.000000,2.000000,2.000000,1.000000,2.000000,4.000000,4.000000,4.000000,4.000000,2.000000,4.000000,25.000000,,,,,,,,,,,,,,,,,,,,,,,,,,,,
1732081647.739521,1732081647.740069,39.000000,0.000000,4295.000000,4310.769043,4307.051270,4327.307617,4318.717773,4310.000000,4320.512695,4334.102539,4313.846191,4307.436035,4421.666504,4462.820313,4265.128418,4379.615234,0.000000,0.000000,13.000000,,,,0.000000,2.000000,2.000000,0.000000,2.000000,2.000000,2.000000,1.000000,2.000000,4.000000,4.000000,4.000000,4.000000,2.000000,4.000000,25.000000,,,,,,,,,,,,,,,,,,,,,,,,,,,,
1732081647.747329,1732081647.747977,40.000000,0.000000,4295.769043,4312.051270,4305.000000,4327.820313,4305.000000,4309.487305,4324.102539,4334.615234,4312.948730,4304.230957,4418.205078,4467.179688,4259.871582,4375.000000,0.000000,0.000000,13.000000,,,,0.000000,2.000000,2.000000,0.000000,2.000000,2.000000,2.000000,1.000000,2.000000,4.000000,4.000000,4.000000,4.000000,2.000000,4.000000,25.000000,,,,,,,,,,,,,,,,,10.000000,0.000000,0.615619,0.391174,-0.602722,0.323608,0.982053,0.091808,-0.036626,-77.090927,61.628586,27.345617
1732081647.755137,1732081647.755786,41.000000,0.000000,4294.871582,4310.128418,4304.615234,4324.358887,4306.922852,4314.743652,4325.384766,4334.358887,4314.487305,4299.487305,4409.487305,4460.384766,4255.769043,4367.436035,0.000000,0.000000,13.000000,,,,0.000000,2.000000,2.000000,0.000000,2.000000,2.000000,2.000000,1.000000,2.000000,4.000000,4.000000,4.000000,4.000000,2.000000,4.000000,25.000000,,,,,,,,,,,,,,,,,,,,,,,,,,,,
1732081647.762946,1732081647.763794,42.000000,0.000000,4291.025879,4305.641113,4306.025879,4321.794922,4311.538574,4321.282227,4325.256348,4334.871582,4316.025879,4298.974121,4408.717773,4449.358887,4263.333496,4365.000000,0.000000,0.000000,13.000000,,,,0.000000,2.000000,2.000000,0.000000,2.000000,2.000000,2.000000,1.000000,2.000000,4.000000,4.000000,4.000000,4.000000,2.000000,4.000000,25.000000,,,,,,,,,,,,,,,,,,,,,,,,,,,,
1732081647.770754,1732081647.771602,43.000000,0.000000,4292.820313,4304.871582,4307.051270,4321.025879,4312.179688,4319.743652,4324.487305,4335.641113,4322.051270,4304.487305,4420.000000,4455.897461,4268.333496,4372.051270,0.000000,0.000000,13.000000,,,,0.000000,2.000000,2.000000,0.000000,2.000000,2.000000,2.000000,1.000000,2.000000,4.000000,4.000000,4.000000,4.000000,2.000000,4.000000,25.000000,,,,,,,,,,,,,,,,,,,,,,,,,,,,
1732081647.778562,1732081647.779510,44.000000,0.000000,4297.692383,4310.512695,4306.025879,4323.205078,4318.333496,4314.743652,4323.333496,4334.230957,4323.974121,4308.974121,4425.128418,4464.102539,4268.589844,4380.641113,0.000000,0.000000,13.000000,,,,0.000000,2.000000,2.000000,0.000000,2.000000,2.000000,2.000000,1.000000,2.000000,4.000000,4.000000,4.000000,4.000000,2.000000,4.000000,25.000000,,,,,,,,,,,,,,,,,11.000000,0.000000,0.615438,0.390930,-0.602966,0.323792,0.982053,0.088390,-0.027347,-77.046989,61.447491,27.279949
1732081647.786370,1732081647.787318,45.000000,0.000000,4298.077148,4313.717773,4303.077148,4325.128418,4317.436035,4314.102539,4321.794922,4328.461426,4319.102539,4309.358887,4422.179688,4461.666504,4276.538574,4382.563965,0.000000,0.000000,13.000000,,,,0.000000,2.000000,2.000000,0.000000,2.000000,2.000000,2.000000,1.000000,2.000000,4.000000,4.000000,4.000000,4.000000,2.000000,4.000000,25.000000,,,,,,,,,,,,,,,,,,,,,,,,,,,,
1732081647.794178,1732081647.795326,46.000000,0.000000,4296.666504,4310.769043,4307.820313,4320.641113,4306.794922,4314.358887,4323.461426,4326.922852,4319.615234,4308.846191,4426.153809,4461.153809,4282.436035,4382.051270,0.000000,0.000000,13.000000,,,,0.000000,2.000000,2.000000,0.000000,2.000000,2.000000,2.000000,1.000000,2.000000,4.000000,4.000000,4.000000,4.000000,2.000000,4.000000,25.000000,,,,,,,,,,,,,,,,,,,,,,,,,,,,
1732081647.801987,1732081647.803134,47.000000,0.000000,4296.410156,4310.384766,4310.641113,4316.666504,4302.051270,4317.307617,4323.974121,4333.333496,4323.077148,4310.897461,4430.641113,4461.666504,4278.846191,4380.769043,0.000000,0.000000,13.000000,,,,0.000000,2.000000,2.000000,0.000000,2.000000,2.000000,2.000000,1.000000,2.000000,4.000000,4.000000,4.000000,4.000000,2.000000,4.000000,25.000000,,,,,,,,,,,,,,,,,,,,,,,,,,,,
1732081647.809795,1732081647.811042,48.000000,0.000000,4293.974121,4313.974121,4305.256348,4319.230957,4313.846191,4317.563965,4321.922852,4337.820313,4322.307617,4311.922852,4426.153809,4457.307617,4276.922852,4380.000000,0.000000,0.000000,13.000000,,,,0.000000,2.000000,2.000000,0.000000,2.000000,2.000000,2.000000,1.000000,2.000000,4.000000,4.000000,4.000000,4.000000,2.000000,4.000000,25.000000,,,,,,,,,,,,,,,,,12.000000,0.000000,0.615335,0.390991,-0.602966,0.323914,0.970822,0.080576,-0.039556,-77.121391,61.170799,27.300093
1732081647.817603,1732081647.818851,49.000000,0.000000,4294.871582,4314.358887,4304.358887,4322.436035,4324.102539,4312.436035,4321.538574,4336.025879,4323.333496,4309.358887,4423.846191,4454.230957,4278.461426,4381.794922,0.000000,0.000000,13.000000,,,,0.000000,2.000000,2.000000,0.000000,2.000000,2.000000,2.000000,1.000000,2.000000,4.000000,4.000000,4.000000,4.000000,2.000000,4.000000,25.000000,,,,,,,,,,,,,,,,,,,,,,,,,,,,
1732081647.825411,1732081647.826859,50.000000,0.000000,4298.717773,4309.358887,4309.358887,4319.358887,4313.846191,4315.000000,4322.307617,4334.358887,4325.256348,4311.025879,4426.538574,4459.743652,4280.256348,4383.333496,0.000000,0.000000,13.000000,,,,0.000000,2.000000,2.000000,0.000000,2.000000,2.000000,2.000000,1.000000,2.000000,4.000000,4.000000,4.000000,4.000000,2.000000,4.000000,25.000000,,,,,,,,,,,,,,,,,,,,,,,,,,,,
1732081647.833220,1732081647.834667,51.000000,0.000000,4298.333496,4307.563965,4307.948730,4313.717773,4301.794922,4320.384766,4324.358887,4334.487305,4323.333496,4315.000000,4425.769043,4460.128418,4280.769043,4380.512695,0.000000,0.000000,13.000000,,,,0.000000,2.000000,2.000000,0.000000,2.000000,2.000000,2.000000,1.000000,2.000000,4.000000,4.000000,4.000000,4.000000,2.000000,4.000000,25.000000,,,,,,,,,,,,,,,,,,,,,,,,,,,,
1732081647.841028,1732081647.842375,52.000000,0.000000,4295.128418,4310.512695,4303.846191,4313.461426,4308.974121,4313.717773,4322.948730,4334.871582,4321.153809,4311.538574,4423.461426,4447.179688,4280.769043,4377.692383,0.000000,0.000000,13.000000,,,,0.000000,2.000000,2.000000,0.000000,2.000000,2.000000,2.000000,1.000000,2.000000,4.000000,4.000000,4.000000,4.000000,2.000000,4.000000,25.000000,,,,,,,,,,,,,,,,,13.000000,0.000000,0.615335,0.390991,-0.602966,0.323914,0.973752,0.088390,-0.035649,-77.256660,60.916679,27.211409
1732081647.848836,1732081647.850183,53.000000,0.000000,4293.974121,4311.666504,4305.256348,4316.794922,4313.333496,4308.077148,4323.205078,4334.230957,4318.974121,4305.128418,4421.282227,4446.538574,4281.282227,4375.256348,0.000000,0.000000,13.000000,,,,0.000000,2.000000,2.000000,0.000000,2.000000,2.000000,2.000000,1.000000,2.000000,4.000000,4.000000,4.000000,4.000000,2.000000,4.000000,25.000000,,,,,,,,,,,,,,,,,,,,,,,,,,,,
1732081647.856645,1732081647.857792,54.000000,0.000000,4291.025879,4308.846191,4307.436035,4314.743652,4310.384766,4312.948730,4323.717773,4334.230957,4319.102539,4306.538574,4417.820313,4459.230957,4280.897461,4369.871582,0.000000,0.000000,13.000000,,,,0.000000,2.000000,2.000000,0.000000,2.000000,2.000000,2.000000,1.000000,2.000000,4.000000,4.000000,4.000000,4.000000,2.000000,4.000000,25.000000,,,,,,,,,,,,,,,,,,,,,,,,,,,,
1732081647.864453,1732081647.865600,55.000000,0.000000,4286.282227,4304.487305,4307.820313,4310.641113,4320.769043,4312.051270,4323.589844,4334.871582,4320.384766,4309.102539,4415.769043,4459.230957,4279.102539,4366.410156,0.000000,0.000000,13.000000,,,,0.000000,2.000000,2.000000,0.000000,2.000000,2.000000,2.000000,1.000000,2.000000,4.000000,4.000000,4.000000,4.000000,2.000000,4.000000,25.000000,,,,,,,,,,,,,,,,,,,,,,,,,,,,
1732081647.872261,1732081647.873308,56.000000,0.000000,4286.922852,4302.692383,4307.820313,4317.051270,4317.436035,4307.820313,4321.025879,4334.487305,4319.358887,4306.922852,4418.461426,4454.230957,4279.871582,4368.205078,0.000000,0.000000,13.000000,,,,0.000000,2.000000,2.000000,0.000000,2.000000,2.000000,2.000000,1.000000,2.000000,4.000000,4.000000,4.000000,4.000000,2.000000,4.000000,25.000000,,,,,,,,,,,,,,,,,14.000000,0.000000,0.615228,0.391052,-0.602905,0.324158,0.984984,0.075204,-0.024905,-77.372894,61.084179,27.229574
1732081647.880069,1732081647.881116,57.000000,0.000000,4292.307617,4306.922852,4308.077148,4322.820313,4298.205078,4311.025879,4322.563965,4333.846191,4316.666504,4305.769043,4419.743652,4457.948730,4279.871582,4367.563965,0.000000,0.000000,13.000000,,,,0.000000,2.000000,2.000000,0.000000,2.000000,2.000000,2.000000,1.000000,2.000000,4.000000,4.000000,4.000000,4.000000,2.000000,4.000000,25.000000,,,,,,,,,,,,,,,,,,,,,,,,,,,,
1732081647.887878,1732081647.888725,58.000000,0.000000,4293.717773,4309.230957,4305.000000,4320.512695,4303.589844,4311.282227,4323.205078,4336.153809,4316.025879,4307.179688,4416.922852,4459.358887,4278.461426,4366.410156,0.000000,0.000000,13.000000,,,,0.000000,2.000000,2.000000,0.000000,2.000000,2.000000,2.000000,1.000000,2.000000,4.000000,4.000000,4.000000,4.000000,2.000000,4.000000,25.000000,,,,,,,,,,,,,,,,,,,,,,,,,,,,
1732081647.895686,1732081647.896533,59.000000,0.000000,4290.384766,4305.384766,4304.102539,4316.153809,4315.128418,4307.179688,4322.436035,4336.153809,4317.563965,4308.974121,4415.641113,4458.974121,4281.666504,4369.358887,0.000000,0.000000,13.000000,,,,0.000000,2.000000,2.000000,0.000000,2.000000,2.000000,2.000000,1.000000,2.000000,4.000000,4.000000,4.000000,4.000000,2.000000,4.000000,25.000000,,,,,,,,,,,,,,,,,,,,,,,,,,,,
1732081647.903494,1732081647.904241,60.000000,0.000000,4287.692383,4303.846191,4306.538574,4309.487305,4308.205078,4306.410156,4320.897461,4330.641113,4317.179688,4309.358887,4414.615234,4459.358887,4282.179688,4369.358887,0.000000,0.000000,13.000000,,,,0.000000,2.000000,2.000000,0.000000,2.000000,2.000000,2.000000,1.000000,2.000000,4.000000,4.000000,4.000000,4.000000,2.000000,4.000000,25.000000,,,,,,,,,,,,,,,,,15.000000,0.000000,0.614891,0.391357,-0.602722,0.324768,0.999145,0.075204,-0.035649,-77.468712,61.266518,27.154289
1732081647.911302,1732081647.912050,61.000000,0.000000,4283.974121,4306.025879,4309.871582,4306.794922,4306.410156,4308.205078,4321.025879,4327.948730,4314.102539,4306.025879,4412.307617,4457.948730,4276.410156,4364.487305,0.000000,0.000000,13.000000,,,,0.000000,2.000000,2.000000,0.000000,2.000000,2.000000,2.000000,1.000000,2.000000,4.000000,4.000000,4.000000,4.000000,2.000000,4.000000,25.000000,,,,,,,,,,,,,,,,,,,,,,,,,,,,
1732081647.919110,1732081647.919658,62.000000,0.000000,4284.615234,4308.846191,4305.897461,4310.897461,4318.461426,4308.589844,4321.153809,4329.487305,4314.102539,4303.333496,4411.282227,4461.410156,4276.410156,4366.282227,0.000000,0.000000,13.000000,,,,0.000000,2.000000,2.000000,0.000000,2.000000,2.000000,2.000000,1.000000,2.000000,4.000000,4.000000,4.000000,4.000000,2.000000,4.000000,25.000000,,,,,,,,,,,,,,,,,,,,,,,,,,,,
1732081647.926919,1732081647.927466,63.000000,0.000000,4290.128418,4306.410156,4304.871582,4308.461426,4314.871582,4310.000000,4320.641113,4329.487305,4319.102539,4306.922852,4416.666504,4466.922852,4281.794922,4374.102539,0.000000,0.000000,13.000000,,,,0.000000,2.000000,2.000000,0.000000,2.000000,2.000000,2.000000,1.000000,2.000000,4.000000,4.000000,4.000000,4.000000,2.000000,4.000000,25.000000,,,,,,,,,,,,,,,,,,,,,,,,,,,,
1732081647.934727,1732081647.935175,64.000000,0.000000,4286.410156,4298.717773,4307.692383,4302.692383,4296.922852,4312.307617,4321.025879,4328.717773,4316.025879,4310.256348,4417.820313,4463.333496,4281.666504,4374.102539,5.000000,0.000000,13.000000,,,,0.000000,2.000000,2.000000,0.000000,2.000000,2.000000,2.000000,1.000000,2.000000,4.000000,4.000000,4.000000,4.000000,2.000000,4.000000,25.000000,,,,,,,,,,,,,,,,,16.000000,0.000000,0.614507,0.391418,-0.602844,0.325195,0.969845,0.077646,-0.035649,-77.562988,61.297546,27.009974
1732081647.942535,1732081647.942983,65.000000,0.000000,4281.410156,4300.897461,4308.077148,4308.589844,4296.922852,4307.179688,4320.512695,4328.205078,4309.871582,4305.384766,4413.846191,4455.897461,4278.333496,4370.128418,1287.000000,0.000000,13.000000,,,,0.000000,2.000000,2.000000,0.000000,2.000000,2.000000,2.000000,1.000000,2.000000,4.000000,4.000000,4.000000,4.000000,2.000000,4.000000,25.000000,,,,,,,,,,,,,,,,,,,,,,,,,,,,
1732081647.950343,1732081647.950591,66.000000,0.000000,4288.974121,4306.025879,4306.282227,4315.000000,4308.205078,4303.974121,4321.025879,4325.897461,4310.256348,4300.641113,4412.307617,4456.025879,4278.589844,4367.179688,1209.000000,0.000000,13.000000,,,,0.000000,2.000000,2.000000,0.000000,2.000000,2.000000,2.000000,1.000000,2.000000,4.000000,4.000000,4.000000,4.000000,2.000000,4.000000,25.000000,,,,,,,,,,,,,,,,,,,,,,,,,,,,
1732081647.958152,1732081647.958399,67.000000,0.000000,4297.051270,4300.256348,4305.512695,4313.333496,4309.102539,4306.538574,4322.436035,4325.256348,4311.153809,4301.666504,4411.794922,4458.205078,4279.487305,4366.153809,1157.000000,0.000000,13.000000,,,,0.000000,2.000000,2.000000,0.000000,2.000000,2.000000,2.000000,1.000000,2.000000,4.000000,4.000000,4.000000,4.000000,2.000000,4.000000,25.000000,,,,,,,,,,,,,,,,,,,,,,,,,,,,
1732081647.965960,1732081647.966307,68.000000,0.000000,4295.256348,4300.641113,4304.358887,4311.153809,4315.128418,4303.077148,4321.153809,4326.922852,4309.487305,4302.051270,4410.769043,4449.615234,4280.512695,4366.282227,1172.000000,0.000000,13.000000,,,,0.000000,2.000000,2.000000,0.000000,2.000000,2.000000,2.000000,1.000000,2.000000,4.000000,4.000000,4.000000,4.000000,2.000000,4.000000,25.000000,,,,,,,,,,,,,,,,,17.000000,0.000000,0.614540,0.391235,-0.603027,0.325012,0.969845,0.077646,-0.035649,-77.361023,60.766010,27.451412
1732081647.973768,1732081647.974116,69.000000,0.000000,4295.384766,4308.333496,4303.461426,4313.333496,4318.333496,4300.256348,4316.922852,4325.512695,4311.410156,4302.179688,4410.000000,4434.743652,4280.512695,4366.410156,1070.000000,0.000000,13.000000,,,,0.000000,2.000000,2.000000,0.000000,2.000000,2.000000,2.000000,1.000000,2.000000,4.000000,4.000000,4.000000,4.000000,2.000000,4.000000,25.000000,,,,,,,,,,,,,,,,,,,,,,,,,,,,
1732081647.981577,1732081647.982124,70.000000,0.000000,4296.538574,4301.794922,4306.282227,4315.128418,4303.461426,4308.461426,4321.666504,4326.410156,4314.102539,4305.256348,4409.487305,4432.563965,4281.666504,4364.871582,215.000000,0.000000,13.000000,,,,0.000000,2.000000,2.000000,0.000000,2.000000,2.000000,2.000000,1.000000,2.000000,4.000000,4.000000,4.000000,4.000000,2.000000,4.000000,25.000000,,,,,,,,,,,,,,,,,,,,,,,,,,,,
1732081647.989385,1732081647.989932,71.000000,0.000000,4298.333496,4295.384766,4305.384766,4311.794922,4299.487305,4315.128418,4326.666504,4330.641113,4313.077148,4306.666504,4409.102539,4441.025879,4285.641113,4363.589844,1194.000000,0.000000,13.000000,,,,0.000000,2.000000,2.000000,0.000000,2.000000,2.000000,2.000000,1.000000,2.000000,4.000000,4.000000,4.000000,4.000000,2.000000,4.000000,25.000000,,,,,,,,,,,,,,,,,,,,,,,,,,,,
1732081647.997193,1732081647.997840,72.000000,0.000000,4299.230957,4298.717773,4302.820313,4306.410156,4310.384766,4308.461426,4323.974121,4330.769043,4313.717773,4304.871582,4413.333496,4445.641113,4286.538574,4366.282227,1341.000000,0.000000,13.000000,,,,0.000000,2.000000,2.000000,0.000000,2.000000,2.000000,2.000000,1.000000,2.000000,4.000000,4.000000,4.000000,4.000000,2.000000,4.000000,25.000000,,,,,,,,,,,,,,,,,18.000000,0.000000,0.614581,0.390991,-0.603210,0.324890,0.972775,0.079600,-0.052252,-77.339096,60.635471,27.150644
1732081648.005001,1732081648.005648,73.000000,0.000000,4296.282227,4298.333496,4301.666504,4307.436035,4307.179688,4304.487305,4319.743652,4328.461426,4319.487305,4306.025879,4415.512695,4443.846191,4284.487305,4366.538574,1469.000000,0.000000,13.000000,,,,0.000000,2.000000,2.000000,0.000000,2.000000,2.000000,2.000000,1.000000,2.000000,4.000000,4.000000,4.000000,4.000000,2.000000,4.000000,25.000000,,,,,,,,,,,,,,,,,,,,,,,,,,,,
