title:five2, start timestamp:1732083333.809948, stop timestamp:1732083376.193208, headset type:EPOCX, headset serial:E5020C3A, headset firmware:730, channels:67, sampling rate:eeg_128;mot_32, samples:5429      , version:2.2, 
Timestamp,OriginalTimestamp,EEG.Counter,EEG.Interpolated,EEG.AF3,EEG.F7,EEG.F3,EEG.FC5,EEG.T7,EEG.P7,EEG.O1,EEG.O2,EEG.P8,EEG.T8,EEG.FC6,EEG.F4,EEG.F8,EEG.AF4,EEG.RawCq,EEG.Battery,EEG.BatteryPercent,MarkerIndex,MarkerType,MarkerValueInt,EEG.MarkerHardware,CQ.AF3,CQ.F7,CQ.F3,CQ.FC5,CQ.T7,CQ.P7,CQ.O1,CQ.O2,CQ.P8,CQ.T8,CQ.FC6,CQ.F4,CQ.F8,CQ.AF4,CQ.Overall,EQ.SampleRateQuality,EQ.OVERALL,EQ.AF3,EQ.F7,EQ.F3,EQ.FC5,EQ.T7,EQ.P7,EQ.O1,EQ.O2,EQ.P8,EQ.T8,EQ.FC6,EQ.F4,EQ.F8,EQ.AF4,MOT.CounterMems,MOT.InterpolatedMems,MOT.Q0,MOT.Q1,MOT.Q2,MOT.Q3,MOT.AccX,MOT.AccY,MOT.AccZ,MOT.MagX,MOT.MagY,MOT.MagZ
1732083333.809948,1732083333.811656,37.000000,0.000000,4317.051270,4319.871582,4323.974121,4314.871582,4287.948730,4291.922852,4302.051270,4320.769043,4309.615234,4297.307617,4432.307617,4463.589844,4338.717773,4390.384766,0.000000,0.000000,6.000000,,,,0.000000,2.000000,2.000000,0.000000,2.000000,2.000000,2.000000,0.000000,2.000000,4.000000,4.000000,4.000000,4.000000,2.000000,4.000000,16.666666,,,,,,,,,,,,,,,,,,,,,,,,,,,,
1732083333.817756,1732083333.819264,38.000000,0.000000,4313.974121,4320.897461,4320.256348,4314.487305,4283.717773,4290.769043,4299.615234,4322.436035,4309.358887,4295.512695,4431.666504,4463.461426,4340.512695,4389.743652,0.000000,0.000000,6.000000,,,,0.000000,2.000000,2.000000,0.000000,2.000000,2.000000,2.000000,0.000000,2.000000,4.000000,4.000000,4.000000,4.000000,2.000000,4.000000,16.666666,,,,,,,,,,,,,,,,,,,,,,,,,,,,
1732083333.825564,1732083333.827072,39.000000,0.000000,4311.153809,4316.922852,4320.000000,4308.461426,4295.256348,4292.563965,4298.589844,4322.820313,4311.538574,4293.333496,4435.256348,4460.897461,4346.025879,4392.436035,0.000000,0.000000,6.000000,,,,0.000000,2.000000,2.000000,0.000000,2.000000,2.000000,2.000000,0.000000,2.000000,4.000000,4.000000,4.000000,4.000000,2.000000,4.000000,16.666666,,,,,,,,,,,,,,,,,,,,,,,,,,,,
1732083333.833372,1732083333.834781,40.000000,0.000000,4312.051270,4314.358887,4323.205078,4304.230957,4298.205078,4293.974121,4301.153809,4324.487305,4313.333496,4293.205078,4435.512695,4461.410156,4345.000000,4392.563965,0.000000,0.000000,6.000000,,,,0.000000,2.000000,2.000000,0.000000,2.000000,2.000000,2.000000,0.000000,2.000000,4.000000,4.000000,4.000000,4.000000,2.000000,4.000000,16.666666,,,,,,,,,,,,,,,,,10.000000,0.000000,0.635839,0.401550,-0.598938,0.275208,0.976193,0.177756,-0.015139,-73.217422,66.082146,29.304773
1732083333.841181,1732083333.842589,41.000000,0.000000,4315.256348,4318.717773,4320.897461,4309.487305,4294.230957,4293.589844,4302.179688,4326.025879,4313.589844,4295.897461,4439.358887,4465.512695,4345.000000,4393.717773,0.000000,0.000000,6.000000,,,,0.000000,2.000000,2.000000,0.000000,2.000000,2.000000,2.000000,0.000000,2.000000,4.000000,4.000000,4.000000,4.000000,2.000000,4.000000,16.666666,,,,,,,,,,,,,,,,,,,,,,,,,,,,
1732083333.848989,1732083333.850597,42.000000,0.000000,4315.000000,4322.820313,4320.000000,4315.897461,4292.051270,4293.846191,4302.692383,4325.769043,4312.820313,4296.794922,4445.000000,4467.179688,4351.794922,4398.846191,0.000000,0.000000,6.000000,,,,0.000000,2.000000,2.000000,0.000000,2.000000,2.000000,2.000000,0.000000,2.000000,4.000000,4.000000,4.000000,4.000000,2.000000,4.000000,16.666666,,,,,,,,,,,,,,,,,,,,,,,,,,,,
1732083333.856797,1732083333.858405,43.000000,0.000000,4313.974121,4320.384766,4321.410156,4316.794922,4301.794922,4294.615234,4302.307617,4326.538574,4313.333496,4295.641113,4446.282227,4467.179688,4354.230957,4401.153809,0.000000,0.000000,6.000000,,,,0.000000,2.000000,2.000000,0.000000,2.000000,2.000000,2.000000,0.000000,2.000000,4.000000,4.000000,4.000000,4.000000,2.000000,4.000000,16.666666,,,,,,,,,,,,,,,,,,,,,,,,,,,,
1732083333.864606,1732083333.866313,44.000000,0.000000,4316.025879,4317.948730,4322.179688,4314.615234,4313.846191,4292.692383,4302.051270,4322.563965,4310.769043,4298.077148,4445.256348,4468.333496,4352.051270,4398.717773,0.000000,0.000000,6.000000,,,,0.000000,2.000000,2.000000,0.000000,2.000000,2.000000,2.000000,0.000000,2.000000,4.000000,4.000000,4.000000,4.000000,2.000000,4.000000,16.666666,,,,,,,,,,,,,,,,,11.000000,0.000000,0.635259,0.400879,-0.599609,0.276062,0.970333,0.181663,-0.030765,-73.102776,65.796539,29.241867
1732083333.872414,1732083333.874121,45.000000,0.000000,4319.487305,4319.743652,4318.974121,4316.153809,4299.230957,4291.794922,4301.538574,4317.820313,4310.128418,4300.384766,4447.179688,4467.307617,4355.641113,4400.000000,0.000000,0.000000,6.000000,,,,0.000000,2.000000,2.000000,0.000000,2.000000,2.000000,2.000000,0.000000,2.000000,4.000000,4.000000,4.000000,4.000000,2.000000,4.000000,16.666666,,,,,,,,,,,,,,,,,,,,,,,,,,,,
1732083333.880222,1732083333.882129,46.000000,0.000000,4318.717773,4319.358887,4320.897461,4317.820313,4282.436035,4296.794922,4303.589844,4321.538574,4312.307617,4295.769043,4447.820313,4465.256348,4357.563965,4401.922852,0.000000,0.000000,6.000000,,,,0.000000,2.000000,2.000000,0.000000,2.000000,2.000000,2.000000,0.000000,2.000000,4.000000,4.000000,4.000000,4.000000,2.000000,4.000000,16.666666,,,,,,,,,,,,,,,,,,,,,,,,,,,,
1732083333.888030,1732083333.889937,47.000000,0.000000,4315.769043,4319.230957,4320.641113,4317.307617,4294.487305,4299.230957,4302.436035,4327.692383,4314.487305,4294.743652,4443.461426,4465.384766,4353.589844,4396.794922,0.000000,0.000000,6.000000,,,,0.000000,2.000000,2.000000,0.000000,2.000000,2.000000,2.000000,0.000000,2.000000,4.000000,4.000000,4.000000,4.000000,2.000000,4.000000,16.666666,,,,,,,,,,,,,,,,,,,,,,,,,,,,
1732083333.895839,1732083333.897846,48.000000,0.000000,4318.846191,4319.230957,4320.641113,4314.487305,4302.179688,4296.538574,4301.410156,4327.692383,4315.000000,4301.410156,4441.666504,4466.922852,4353.205078,4392.692383,0.000000,0.000000,6.000000,,,,0.000000,2.000000,2.000000,0.000000,2.000000,2.000000,2.000000,0.000000,2.000000,4.000000,4.000000,4.000000,4.000000,2.000000,4.000000,16.666666,,,,,,,,,,,,,,,,,12.000000,0.000000,0.634626,0.400146,-0.600403,0.276855,0.970333,0.181663,-0.030765,-73.334915,65.681862,29.315912
1732083333.903647,1732083333.905654,49.000000,0.000000,4323.589844,4319.102539,4319.871582,4312.820313,4294.358887,4295.384766,4298.717773,4325.256348,4314.487305,4304.358887,4445.000000,4468.974121,4356.922852,4394.871582,0.000000,0.000000,6.000000,,,,0.000000,2.000000,2.000000,0.000000,2.000000,2.000000,2.000000,0.000000,2.000000,4.000000,4.000000,4.000000,4.000000,2.000000,4.000000,16.666666,,,,,,,,,,,,,,,,,,,,,,,,,,,,
1732083333.911455,1732083333.913262,50.000000,0.000000,4321.666504,4320.641113,4321.025879,4312.563965,4293.205078,4291.538574,4297.692383,4321.666504,4310.641113,4296.922852,4440.897461,4467.820313,4351.922852,4392.563965,0.000000,0.000000,6.000000,,,,0.000000,2.000000,2.000000,0.000000,2.000000,2.000000,2.000000,0.000000,2.000000,4.000000,4.000000,4.000000,4.000000,2.000000,4.000000,16.666666,,,,,,,,,,,,,,,,,,,,,,,,,,,,
1732083333.919263,1732083333.921070,51.000000,0.000000,4317.307617,4323.205078,4318.589844,4313.846191,4297.563965,4290.384766,4299.615234,4318.333496,4307.948730,4291.282227,4431.794922,4457.820313,4343.205078,4386.410156,0.000000,0.000000,6.000000,,,,0.000000,2.000000,2.000000,0.000000,2.000000,2.000000,2.000000,0.000000,2.000000,4.000000,4.000000,4.000000,4.000000,2.000000,4.000000,16.666666,,,,,,,,,,,,,,,,,,,,,,,,,,,,
1732083333.927072,1732083333.928978,52.000000,0.000000,4317.436035,4319.230957,4318.461426,4314.102539,4298.974121,4296.282227,4303.846191,4321.410156,4312.307617,4292.563965,4435.641113,4451.153809,4344.615234,4389.102539,0.000000,0.000000,6.000000,,,,0.000000,2.000000,2.000000,0.000000,2.000000,2.000000,2.000000,0.000000,2.000000,4.000000,4.000000,4.000000,4.000000,2.000000,4.000000,16.666666,,,,,,,,,,,,,,,,,13.000000,0.000000,0.631272,0.397400,-0.603882,0.280884,0.960078,0.187035,-0.031254,-73.356285,65.208977,29.395889
1732083333.934880,1732083333.936787,53.000000,0.000000,4318.717773,4314.358887,4318.974121,4315.000000,4298.974121,4296.922852,4302.179688,4322.563965,4312.051270,4294.102539,4443.717773,4453.846191,4349.743652,4397.563965,0.000000,0.000000,6.000000,,,,0.000000,2.000000,2.000000,0.000000,2.000000,2.000000,2.000000,0.000000,2.000000,4.000000,4.000000,4.000000,4.000000,2.000000,4.000000,16.666666,,,,,,,,,,,,,,,,,,,,,,,,,,,,
1732083333.942688,1732083333.944795,54.000000,0.000000,4314.871582,4318.589844,4318.333496,4316.922852,4298.077148,4293.461426,4301.794922,4319.230957,4307.436035,4292.692383,4436.666504,4457.692383,4347.051270,4396.794922,0.000000,0.000000,6.000000,,,,0.000000,2.000000,2.000000,0.000000,2.000000,2.000000,2.000000,0.000000,2.000000,4.000000,4.000000,4.000000,4.000000,2.000000,4.000000,16.666666,,,,,,,,,,,,,,,,,,,,,,,,,,,,
1732083333.950497,1732083333.952603,55.000000,0.000000,4315.384766,4316.794922,4318.077148,4314.743652,4295.641113,4295.128418,4302.948730,4321.666504,4310.128418,4292.051270,4434.615234,4460.897461,4344.743652,4392.436035,0.000000,0.000000,6.000000,,,,0.000000,2.000000,2.000000,0.000000,2.000000,2.000000,2.000000,0.000000,2.000000,4.000000,4.000000,4.000000,4.000000,2.000000,4.000000,16.666666,,,,,,,,,,,,,,,,,,,,,,,,,,,,
1732083333.958305,1732083333.960511,56.000000,0.000000,4319.615234,4311.794922,4320.256348,4312.692383,4294.358887,4295.769043,4302.051270,4323.461426,4311.794922,4293.077148,4439.871582,4463.846191,4345.769043,4395.000000,0.000000,0.000000,6.000000,,,,0.000000,2.000000,2.000000,0.000000,2.000000,2.000000,2.000000,0.000000,2.000000,4.000000,4.000000,4.000000,4.000000,2.000000,4.000000,16.666666,,,,,,,,,,,,,,,,,14.000000,0.000000,0.628985,0.396301,-0.606018,0.282959,0.962520,0.197778,-0.055183,-73.340256,65.042603,29.427336
1732083333.966113,1732083333.968319,57.000000,0.000000,4319.743652,4319.487305,4321.410156,4316.538574,4293.717773,4293.205078,4302.307617,4316.025879,4306.538574,4291.282227,4433.589844,4464.743652,4345.256348,4398.461426,0.000000,0.000000,6.000000,,,,0.000000,2.000000,2.000000,0.000000,2.000000,2.000000,2.000000,0.000000,2.000000,4.000000,4.000000,4.000000,4.000000,2.000000,4.000000,16.666666,,,,,,,,,,,,,,,,,,,,,,,,,,,,
1732083333.973921,1732083333.976327,58.000000,0.000000,4321.153809,4328.974121,4320.641113,4320.769043,4292.179688,4291.282227,4302.307617,4309.487305,4305.256348,4295.641113,4433.846191,4470.000000,4346.666504,4399.230957,0.000000,0.000000,6.000000,,,,0.000000,2.000000,2.000000,0.000000,2.000000,2.000000,2.000000,0.000000,2.000000,4.000000,4.000000,4.000000,4.000000,2.000000,4.000000,16.666666,,,,,,,,,,,,,,,,,,,,,,,,,,,,
1732083333.981730,1732083333.984135,59.000000,0.000000,4326.410156,4328.333496,4324.358887,4318.846191,4292.051270,4292.436035,4301.282227,4317.948730,4310.384766,4299.871582,4446.025879,4476.794922,4347.948730,4400.384766,0.000000,0.000000,6.000000,,,,0.000000,2.000000,2.000000,0.000000,2.000000,2.000000,2.000000,0.000000,2.000000,4.000000,4.000000,4.000000,4.000000,2.000000,4.000000,16.666666,,,,,,,,,,,,,,,,,,,,,,,,,,,,
1732083333.989538,1732083333.991844,60.000000,0.000000,4327.307617,4324.615234,4323.205078,4316.410156,4293.461426,4294.102539,4300.769043,4325.897461,4309.615234,4290.128418,4444.358887,4474.358887,4345.256348,4400.256348,0.000000,0.000000,6.000000,,,,0.000000,2.000000,2.000000,0.000000,2.000000,2.000000,2.000000,0.000000,2.000000,4.000000,4.000000,4.000000,4.000000,2.000000,4.000000,16.666666,,,,,,,,,,,,,,,,,15.000000,0.000000,0.627669,0.396057,-0.607056,0.283997,0.938103,0.217312,-0.052741,-73.528938,64.939507,29.092810
1732083333.997346,1732083333.999652,61.000000,0.000000,4327.820313,4321.666504,4322.436035,4318.717773,4290.128418,4293.846191,4305.641113,4320.128418,4304.871582,4287.820313,4438.974121,4475.384766,4348.205078,4398.589844,0.000000,0.000000,6.000000,,,,0.000000,2.000000,2.000000,0.000000,2.000000,2.000000,2.000000,0.000000,2.000000,4.000000,4.000000,4.000000,4.000000,2.000000,4.000000,16.666666,,,,,,,,,,,,,,,,,,,,,,,,,,,,
1732083334.005154,1732083334.007260,62.000000,0.000000,4333.077148,4322.179688,4323.333496,4319.871582,4287.179688,4290.256348,4305.641113,4317.820313,4307.948730,4305.128418,4450.384766,4485.000000,4359.102539,4402.820313,0.000000,0.000000,6.000000,,,,0.000000,2.000000,2.000000,0.000000,2.000000,2.000000,2.000000,0.000000,2.000000,4.000000,4.000000,4.000000,4.000000,2.000000,4.000000,16.666666,,,,,,,,,,,,,,,,,,,,,,,,,,,,
1732083334.012963,1732083334.015069,63.000000,0.000000,4331.538574,4326.410156,4325.128418,4316.794922,4289.487305,4286.025879,4302.820313,4319.615234,4310.384766,4310.256348,4452.948730,4489.743652,4360.769043,4407.692383,0.000000,0.000000,6.000000,,,,0.000000,2.000000,2.000000,0.000000,2.000000,2.000000,2.000000,0.000000,2.000000,4.000000,4.000000,4.000000,4.000000,2.000000,4.000000,16.666666,,,,,,,,,,,,,,,,,,,,,,,,,,,,
1732083334.020771,1732083334.022777,64.000000,0.000000,4326.922852,4323.974121,4318.846191,4314.743652,4283.589844,4286.794922,4303.589844,4318.589844,4307.179688,4298.461426,4440.897461,4485.512695,4351.410156,4406.922852,0.000000,0.000000,6.000000,,,,0.000000,2.000000,2.000000,0.000000,2.000000,2.000000,2.000000,0.000000,2.000000,4.000000,4.000000,4.000000,4.000000,2.000000,4.000000,16.666666,,,,,,,,,,,,,,,,,16.000000,0.000000,0.623551,0.396484,-0.609924,0.286316,0.946893,0.244659,-0.069344,-73.586777,64.697670,29.296843
1732083334.028579,1732083334.030585,65.000000,0.000000,4329.230957,4316.410156,4321.922852,4312.436035,4284.487305,4291.282227,4310.384766,4322.563965,4306.794922,4291.922852,4437.307617,4484.871582,4345.000000,4406.922852,1315.000000,0.000000,6.000000,,,,0.000000,2.000000,2.000000,0.000000,2.000000,2.000000,2.000000,0.000000,2.000000,4.000000,4.000000,4.000000,4.000000,2.000000,4.000000,16.666666,,,,,,,,,,,,,,,,,,,,,,,,,,,,
1732083334.036388,1732083334.038194,66.000000,0.000000,4335.897461,4317.563965,4328.974121,4310.897461,4295.769043,4288.846191,4309.358887,4323.717773,4308.333496,4293.461426,4444.102539,4491.922852,4351.538574,4413.717773,1240.000000,0.000000,6.000000,,,,0.000000,2.000000,2.000000,0.000000,2.000000,2.000000,2.000000,0.000000,2.000000,4.000000,4.000000,4.000000,4.000000,2.000000,4.000000,16.666666,,,,,,,,,,,,,,,,,,,,,,,,,,,,
1732083334.044196,1732083334.046002,67.000000,0.000000,4340.128418,4324.230957,4330.512695,4312.820313,4284.615234,4281.153809,4306.282227,4315.641113,4305.256348,4297.948730,4451.794922,4493.974121,4363.077148,4420.769043,1189.000000,0.000000,6.000000,,,,0.000000,2.000000,2.000000,0.000000,2.000000,2.000000,2.000000,0.000000,2.000000,4.000000,4.000000,4.000000,4.000000,2.000000,4.000000,16.666666,,,,,,,,,,,,,,,,,,,,,,,,,,,,
1732083334.052004,1732083334.053710,68.000000,0.000000,4343.205078,4327.563965,4327.051270,4315.897461,4267.436035,4284.871582,4307.051270,4313.205078,4302.820313,4299.615234,4455.384766,4487.820313,4366.410156,4424.230957,1219.000000,0.000000,6.000000,,,,0.000000,2.000000,2.000000,0.000000,2.000000,2.000000,2.000000,0.000000,2.000000,4.000000,4.000000,4.000000,4.000000,2.000000,4.000000,16.666666,,,,,,,,,,,,,,,,,17.000000,0.000000,0.616987,0.396667,-0.614990,0.289429,1.002564,0.128922,-0.076181,-73.751953,64.308449,28.997108
1732083334.059812,1732083334.061518,69.000000,0.000000,4346.153809,4328.846191,4326.025879,4315.897461,4272.051270,4290.000000,4309.487305,4319.358887,4307.820313,4295.000000,4454.230957,4489.487305,4360.897461,4426.025879,1073.000000,0.000000,6.000000,,,,0.000000,2.000000,2.000000,0.000000,2.000000,2.000000,2.000000,0.000000,2.000000,4.000000,4.000000,4.000000,4.000000,2.000000,4.000000,16.666666,,,,,,,,,,,,,,,,,,,,,,,,,,,,
1732083334.067621,1732083334.069127,70.000000,0.000000,4351.794922,4326.538574,4328.846191,4313.205078,4279.102539,4285.641113,4309.358887,4319.230957,4309.102539,4295.641113,4453.205078,4496.410156,4357.436035,4428.333496,5.000000,0.000000,6.000000,,,,0.000000,2.000000,2.000000,0.000000,2.000000,2.000000,2.000000,0.000000,2.000000,4.000000,4.000000,4.000000,4.000000,2.000000,4.000000,16.666666,,,,,,,,,,,,,,,,,,,,,,,,,,,,
1732083334.075429,1732083334.076935,71.000000,0.000000,4357.948730,4322.563965,4326.153809,4311.282227,4273.077148,4283.333496,4308.589844,4315.000000,4301.538574,4297.307617,4457.948730,4488.846191,4363.333496,4435.384766,1175.000000,0.000000,6.000000,,,,0.000000,2.000000,2.000000,0.000000,2.000000,2.000000,2.000000,0.000000,2.000000,4.000000,4.000000,4.000000,4.000000,2.000000,4.000000,16.666666,,,,,,,,,,,,,,,,,,,,,,,,,,,,
1732083334.083237,1732083334.084643,72.000000,0.000000,4361.025879,4323.333496,4324.871582,4309.743652,4270.256348,4282.051270,4308.589844,4313.846191,4300.384766,4290.128418,4462.948730,4480.512695,4368.205078,4443.974121,1359.000000,0.000000,6.000000,,,,0.000000,2.000000,2.000000,0.000000,2.000000,2.000000,2.000000,0.000000,2.000000,4.000000,4.000000,4.000000,4.000000,2.000000,4.000000,16.666666,,,,,,,,,,,,,,,,,18.000000,0.000000,0.612569,0.394165,-0.619324,0.292969,0.981077,0.098157,-0.085948,-73.887413,63.816509,28.815992
1732083334.091045,1732083334.092451,73.000000,0.000000,4368.077148,4326.538574,4323.589844,4312.307617,4272.820313,4276.410156,4304.871582,4310.512695,4303.461426,4289.871582,4458.589844,4485.897461,4365.897461,4447.820313,1506.000000,0.000000,6.000000,,,,0.000000,2.000000,2.000000,0.000000,2.000000,2.000000,2.000000,0.000000,2.000000,4.000000,4.000000,4.000000,4.000000,2.000000,4.000000,16.666666,,,,,,,,,,,,,,,,,,,,,,,,,,,,
1732083334.098853,1732083334.100459,74.000000,0.000000,4378.333496,4326.025879,4328.461426,4317.051270,4273.974121,4274.615234,4305.256348,4306.666504,4299.615234,4294.871582,4452.179688,4488.333496,4367.307617,4450.384766,1377.000000,0.000000,6.000000,,,,0.000000,2.000000,2.000000,0.000000,2.000000,2.000000,2.000000,0.000000,2.000000,4.000000,4.000000,4.000000,4.000000,2.000000,4.000000,16.666666,,,,,,,,,,,,,,,,,,,,,,,,,,,,
1732083334.106662,1732083334.108268,75.000000,0.000000,4382.563965,4325.769043,4324.871582,4317.051270,4275.256348,4278.077148,4308.846191,4310.769043,4298.461426,4293.974121,4456.666504,4483.333496,4374.358887,4457.436035,1514.000000,0.000000,6.000000,,,,0.000000,2.000000,2.000000,0.000000,2.000000,2.000000,2.000000,0.000000,2.000000,4.000000,4.000000,4.000000,4.000000,2.000000,4.000000,16.666666,,,,,,,,,,,,,,,,,,,,,,,,,,,,
1732083334.114470,1732083334.115976,76.000000,0.000000,4380.256348,4324.230957,4322.692383,4310.769043,4273.077148,4279.102539,4310.769043,4317.563965,4304.743652,4291.794922,4463.077148,4484.743652,4372.051270,4461.538574,1741.000000,0.000000,6.000000,,,,0.000000,2.000000,2.000000,0.000000,2.000000,2.000000,2.000000,0.000000,2.000000,4.000000,4.000000,4.000000,4.000000,2.000000,4.000000,16.666666,,,,,,,,,,,,,,,,,19.000000,0.000000,0.610389,0.392151,-0.621765,0.295044,0.963985,0.075693,-0.071298,-74.362137,63.393036,28.380953
1732083334.122278,1732083334.123784,77.000000,0.000000,4384.487305,4324.615234,4321.025879,4310.641113,4276.153809,4274.487305,4302.948730,4314.230957,4304.487305,4295.769043,4468.077148,4487.563965,4372.692383,4461.538574,1596.000000,0.000000,6.000000,,,,0.000000,2.000000,2.000000,0.000000,2.000000,2.000000,2.000000,0.000000,2.000000,4.000000,4.000000,4.000000,4.000000,2.000000,4.000000,16.666666,,,,,,,,,,,,,,,,,,,,,,,,,,,,
1732083334.130087,1732083334.131393,78.000000,0.000000,4390.256348,4330.256348,4326.025879,4316.922852,4279.102539,4270.512695,4299.487305,4306.025879,4300.769043,4300.384766,4470.384766,4486.282227,4382.948730,4465.384766,1377.000000,0.000000,6.000000,,,,0.000000,2.000000,2.000000,0.000000,2.000000,2.000000,2.000000,0.000000,2.000000,4.000000,4.000000,4.000000,4.000000,2.000000,4.000000,16.666666,1.000000,8.333333,2.000000,2.000000,0.000000,2.000000,2.000000,2.000000,0.000000,2.000000,1.000000,3.000000,4.000000,4.000000,2.000000,4.000000,,,,,,,,,,,,
1732083334.137895,1732083334.139201,79.000000,0.000000,4388.589844,4333.589844,4324.230957,4317.307617,4278.717773,4273.974121,4302.051270,4308.974121,4305.512695,4297.307617,4472.307617,4485.128418,4384.871582,4468.333496,1514.000000,0.000000,6.000000,,,,0.000000,2.000000,2.000000,0.000000,2.000000,2.000000,2.000000,0.000000,2.000000,4.000000,4.000000,4.000000,4.000000,2.000000,4.000000,16.666666,,,,,,,,,,,,,,,,,,,,,,,,,,,,
1732083334.145703,1732083334.146909,80.000000,0.000000,4385.000000,4330.256348,4318.717773,4313.846191,4280.641113,4276.153809,4302.436035,4314.743652,4306.153809,4293.846191,4475.000000,4489.102539,4378.974121,4465.384766,1741.000000,0.000000,6.000000,,,,0.000000,2.000000,2.000000,0.000000,2.000000,2.000000,2.000000,0.000000,2.000000,4.000000,4.000000,4.000000,4.000000,2.000000,4.000000,16.666666,,,,,,,,,,,,,,,,,20.000000,0.000000,0.601970,0.381714,-0.631531,0.305115,0.942986,0.036626,-0.061043,-74.745003,62.843361,28.018572
1732083334.153511,1732083334.154717,81.000000,0.000000,4385.641113,4331.153809,4315.384766,4314.615234,4280.512695,4271.025879,4297.436035,4313.333496,4302.692383,4297.051270,4475.512695,4489.487305,4380.128418,4462.948730,1596.000000,0.000000,6.000000,,,,0.000000,2.000000,2.000000,0.000000,2.000000,2.000000,2.000000,0.000000,2.000000,4.000000,4.000000,4.000000,4.000000,2.000000,4.000000,16.666666,,,,,,,,,,,,,,,,,,,,,,,,,,,,
1732083334.161320,1732083334.162326,82.000000,0.000000,4385.641113,4337.436035,4311.666504,4318.589844,4285.384766,4270.256348,4295.769043,4310.769043,4306.282227,4292.051270,4473.589844,4482.948730,4384.230957,4463.589844,1377.000000,0.000000,6.000000,,,,0.000000,2.000000,2.000000,0.000000,2.000000,2.000000,2.000000,0.000000,2.000000,4.000000,4.000000,4.000000,4.000000,2.000000,4.000000,16.666666,,,,,,,,,,,,,,,,,,,,,,,,,,,,
1732083334.169128,1732083334.170134,83.000000,0.000000,4384.102539,4339.358887,4307.692383,4321.538574,4298.461426,4272.179688,4295.384766,4311.922852,4310.256348,4285.384766,4473.974121,4480.769043,4383.205078,4463.205078,1514.000000,0.000000,6.000000,,,,0.000000,2.000000,2.000000,0.000000,2.000000,2.000000,2.000000,0.000000,2.000000,4.000000,4.000000,4.000000,4.000000,2.000000,4.000000,16.666666,,,,,,,,,,,,,,,,,,,,,,,,,,,,
1732083334.176936,1732083334.177842,84.000000,0.000000,4382.436035,4335.897461,4307.179688,4319.615234,4296.794922,4269.102539,4293.333496,4312.820313,4305.512695,4292.820313,4475.384766,4484.358887,4379.230957,4461.025879,1741.000000,0.000000,6.000000,,,,0.000000,2.000000,2.000000,0.000000,2.000000,2.000000,2.000000,0.000000,2.000000,4.000000,4.000000,4.000000,4.000000,2.000000,4.000000,16.666666,,,,,,,,,,,,,,,,,21.000000,0.000000,0.598514,0.376343,-0.635559,0.310181,0.936638,0.030277,-0.083506,-75.093452,62.306454,27.911711
1732083334.184744,1732083334.185650,85.000000,0.000000,4378.333496,4332.692383,4312.051270,4318.717773,4280.128418,4272.563965,4292.692383,4316.666504,4302.820313,4296.153809,4473.077148,4485.897461,4377.820313,4462.948730,1596.000000,0.000000,6.000000,,,,0.000000,2.000000,2.000000,0.000000,2.000000,2.000000,2.000000,0.000000,2.000000,4.000000,4.000000,4.000000,4.000000,2.000000,4.000000,16.666666,,,,,,,,,,,,,,,,,,,,,,,,,,,,
1732083334.192553,1732083334.193658,86.000000,0.000000,4379.615234,4333.333496,4310.384766,4320.384766,4275.769043,4279.743652,4296.153809,4321.025879,4311.922852,4291.410156,4475.128418,4482.051270,4384.615234,4469.358887,1377.000000,0.000000,6.000000,,,,0.000000,2.000000,2.000000,0.000000,2.000000,2.000000,2.000000,0.000000,2.000000,4.000000,4.000000,4.000000,4.000000,2.000000,4.000000,16.666666,,,,,,,,,,,,,,,,,,,,,,,,,,,,
1732083334.200361,1732083334.201467,87.000000,0.000000,4382.563965,4331.538574,4316.025879,4314.615234,4291.794922,4271.922852,4299.102539,4316.025879,4311.794922,4293.974121,4475.897461,4481.922852,4386.153809,4467.307617,1514.000000,0.000000,6.000000,,,,0.000000,2.000000,2.000000,0.000000,2.000000,2.000000,2.000000,0.000000,2.000000,4.000000,4.000000,4.000000,4.000000,2.000000,4.000000,16.666666,,,,,,,,,,,,,,,,,,,,,,,,,,,,
1732083334.208169,1732083334.209375,88.000000,0.000000,4379.615234,4331.538574,4318.077148,4311.794922,4302.179688,4262.307617,4296.666504,4307.948730,4299.871582,4294.487305,4473.077148,4482.307617,4380.128418,4457.948730,1741.000000,0.000000,6.000000,,,,0.000000,2.000000,2.000000,0.000000,2.000000,2.000000,2.000000,0.000000,2.000000,4.000000,4.000000,4.000000,4.000000,2.000000,4.000000,16.666666,,,,,,,,,,,,,,,,,22.000000,0.000000,0.597049,0.373901,-0.637329,0.312317,0.940544,0.020999,-0.074228,-75.645699,61.646561,27.675152
1732083334.215978,1732083334.217183,89.000000,0.000000,4376.794922,4338.589844,4317.820313,4321.538574,4290.897461,4265.000000,4296.666504,4305.512695,4300.384766,4290.512695,4473.077148,4486.922852,4384.230957,4459.230957,1596.000000,0.000000,6.000000,,,,0.000000,2.000000,2.000000,0.000000,2.000000,2.000000,2.000000,0.000000,2.000000,4.000000,4.000000,4.000000,4.000000,2.000000,4.000000,16.666666,,,,,,,,,,,,,,,,,,,,,,,,,,,,
1732083334.223786,1732083334.225191,90.000000,0.000000,4381.282227,4343.461426,4313.846191,4328.846191,4284.487305,4275.769043,4296.794922,4306.794922,4306.538574,4293.461426,4476.025879,4494.102539,4393.846191,4469.871582,1377.000000,0.000000,6.000000,,,,0.000000,2.000000,2.000000,0.000000,2.000000,2.000000,2.000000,0.000000,2.000000,4.000000,4.000000,4.000000,4.000000,2.000000,4.000000,16.666666,,,,,,,,,,,,,,,,,,,,,,,,,,,,
1732083334.231594,1732083334.232999,91.000000,0.000000,4383.077148,4338.589844,4313.974121,4320.769043,4294.871582,4280.641113,4294.230957,4310.128418,4303.077148,4290.512695,4479.615234,4497.051270,4393.333496,4471.538574,1514.000000,0.000000,6.000000,,,,0.000000,2.000000,2.000000,0.000000,2.000000,2.000000,2.000000,0.000000,2.000000,4.000000,4.000000,4.000000,4.000000,2.000000,4.000000,16.666666,,,,,,,,,,,,,,,,,,,,,,,,,,,,
1732083334.239402,1732083334.240907,92.000000,0.000000,4380.128418,4336.666504,4307.179688,4318.077148,4300.256348,4280.897461,4290.256348,4313.846191,4304.102539,4285.512695,4473.589844,4489.743652,4387.179688,4465.000000,1741.000000,0.000000,6.000000,,,,0.000000,2.000000,2.000000,0.000000,2.000000,2.000000,2.000000,0.000000,2.000000,4.000000,4.000000,4.000000,4.000000,2.000000,4.000000,16.666666,,,,,,,,,,,,,,,,,23.000000,0.000000,0.594296,0.369873,-0.640320,0.316223,0.956660,0.023929,-0.089855,-76.194679,60.723717,27.393539
1732083334.247211,1732083334.248715,93.000000,0.000000,4377.948730,4339.358887,4305.769043,4324.615234,4293.589844,4279.358887,4289.871582,4310.641113,4306.282227,4289.615234,4463.589844,4484.743652,4383.589844,4458.589844,1596.000000,0.000000,6.000000,,,,0.000000,2.000000,2.000000,0.000000,2.000000,2.000000,2.000000,0.000000,2.000000,4.000000,4.000000,4.000000,4.000000,2.000000,4.000000,16.666666,,,,,,,,,,,,,,,,,,,,,,,,,,,,
1732083334.255019,1732083334.256723,94.000000,0.000000,4377.948730,4337.948730,4306.666504,4324.871582,4297.948730,4281.282227,4289.102539,4310.897461,4304.487305,4294.487305,4464.230957,4488.333496,4381.282227,4456.538574,1377.000000,0.000000,6.000000,,,,0.000000,2.000000,2.000000,0.000000,2.000000,2.000000,2.000000,0.000000,2.000000,4.000000,4.000000,4.000000,4.000000,2.000000,4.000000,16.666666,,,,,,,,,,,,,,,,,,,,,,,,,,,,
1732083334.262827,1732083334.264532,95.000000,0.000000,4378.974121,4335.641113,4308.461426,4318.333496,4303.461426,4282.307617,4291.025879,4318.333496,4310.256348,4300.256348,4470.512695,4491.538574,4383.205078,4460.000000,1514.000000,0.000000,6.000000,,,,0.000000,2.000000,2.000000,0.000000,2.000000,2.000000,2.000000,0.000000,2.000000,4.000000,4.000000,4.000000,4.000000,2.000000,4.000000,16.666666,,,,,,,,,,,,,,,,,,,,,,,,,,,,
1732083334.270635,1732083334.272440,96.000000,0.000000,4378.333496,4338.077148,4310.000000,4319.358887,4296.282227,4280.128418,4290.128418,4317.563965,4315.641113,4305.512695,4469.743652,4492.948730,4383.205078,4462.051270,1741.000000,0.000000,6.000000,,,,0.000000,2.000000,2.000000,0.000000,2.000000,2.000000,2.000000,0.000000,2.000000,4.000000,4.000000,4.000000,4.000000,2.000000,4.000000,16.666666,,,,,,,,,,,,,,,,,24.000000,0.000000,0.590184,0.365601,-0.643250,0.322876,0.973752,0.018557,-0.094250,-76.872688,59.909542,26.982100
1732083334.278444,1732083334.280248,97.000000,0.000000,4374.615234,4339.102539,4311.922852,4324.358887,4300.897461,4278.205078,4288.205078,4312.820313,4308.589844,4299.871582,4466.282227,4492.179688,4376.666504,4458.461426,1596.000000,0.000000,6.000000,,,,0.000000,2.000000,2.000000,0.000000,2.000000,2.000000,2.000000,0.000000,2.000000,4.000000,4.000000,4.000000,4.000000,2.000000,4.000000,16.666666,,,,,,,,,,,,,,,,,,,,,,,,,,,,
1732083334.286252,1732083334.288256,98.000000,0.000000,4372.051270,4337.051270,4313.974121,4320.384766,4314.102539,4275.897461,4289.871582,4308.461426,4300.512695,4298.589844,4468.589844,4491.025879,4376.538574,4455.769043,1377.000000,0.000000,6.000000,,,,0.000000,2.000000,2.000000,0.000000,2.000000,2.000000,2.000000,0.000000,2.000000,4.000000,4.000000,4.000000,4.000000,2.000000,4.000000,16.666666,,,,,,,,,,,,,,,,,,,,,,,,,,,,
1732083334.294060,1732083334.296064,99.000000,0.000000,4372.307617,4337.051270,4311.666504,4315.384766,4307.563965,4277.179688,4293.461426,4305.512695,4302.179688,4304.102539,4471.538574,4489.743652,4382.820313,4456.410156,1514.000000,0.000000,6.000000,,,,0.000000,2.000000,2.000000,0.000000,2.000000,2.000000,2.000000,0.000000,2.000000,4.000000,4.000000,4.000000,4.000000,2.000000,4.000000,16.666666,,,,,,,,,,,,,,,,,,,,,,,,,,,,
1732083334.301869,1732083334.303972,100.000000,0.000000,4373.205078,4338.333496,4313.077148,4319.487305,4292.692383,4280.512695,4292.179688,4308.974121,4306.666504,4300.000000,4473.205078,4491.153809,4382.436035,4453.205078,1741.000000,0.000000,6.000000,,,,0.000000,2.000000,2.000000,0.000000,2.000000,2.000000,2.000000,0.000000,2.000000,4.000000,4.000000,4.000000,4.000000,2.000000,4.000000,16.666666,,,,,,,,,,,,,,,,,25.000000,0.000000,0.587312,0.364685,-0.643555,0.328491,0.961543,-0.010743,-0.083018,-77.316879,59.225063,26.623835
1732083334.309677,1732083334.311781,101.000000,0.000000,4368.717773,4340.000000,4316.666504,4323.333496,4297.948730,4282.948730,4293.461426,4312.307617,4306.153809,4297.820313,4468.461426,4488.205078,4378.846191,4447.179688,1596.000000,0.000000,6.000000,,,,0.000000,2.000000,2.000000,0.000000,2.000000,2.000000,2.000000,0.000000,2.000000,4.000000,4.000000,4.000000,4.000000,2.000000,4.000000,16.666666,,,,,,,,,,,,,,,,,,,,,,,,,,,,
1732083334.317485,1732083334.319389,102.000000,0.000000,4360.000000,4338.461426,4318.846191,4313.846191,4304.102539,4283.461426,4296.025879,4307.307617,4302.948730,4306.153809,4461.153809,4485.000000,4380.769043,4442.307617,1377.000000,0.000000,6.000000,,,,0.000000,2.000000,2.000000,0.000000,2.000000,2.000000,2.000000,0.000000,2.000000,4.000000,4.000000,4.000000,4.000000,2.000000,4.000000,16.666666,,,,,,,,,,,,,,,,,,,,,,,,,,,,
1732083334.325293,1732083334.327197,103.000000,0.000000,4356.922852,4335.897461,4314.230957,4308.077148,4295.512695,4280.641113,4294.743652,4302.820313,4305.256348,4307.563965,4459.615234,4487.436035,4381.153809,4443.205078,1514.000000,0.000000,6.000000,,,,0.000000,2.000000,2.000000,0.000000,2.000000,2.000000,2.000000,0.000000,2.000000,4.000000,4.000000,4.000000,4.000000,2.000000,4.000000,16.666666,,,,,,,,,,,,,,,,,,,,,,,,,,,,
1732083334.333102,1732083334.335105,104.000000,0.000000,4360.769043,4334.871582,4318.846191,4313.974121,4294.871582,4281.794922,4297.179688,4309.743652,4309.358887,4306.282227,4462.051270,4491.666504,4378.974121,4447.051270,1741.000000,0.000000,6.000000,,,,0.000000,2.000000,2.000000,0.000000,2.000000,2.000000,2.000000,0.000000,2.000000,4.000000,4.000000,4.000000,4.000000,2.000000,4.000000,16.666666,,,,,,,,,,,,,,,,,26.000000,0.000000,0.586297,0.364502,-0.643616,0.330383,0.981565,-0.015139,-0.079600,-77.573341,58.295635,26.283640
1732083334.340910,1732083334.342913,105.000000,0.000000,4364.102539,4334.743652,4324.487305,4316.922852,4301.410156,4288.461426,4301.282227,4320.769043,4314.487305,4312.307617,4466.153809,4493.974121,4377.179688,4447.948730,1596.000000,0.000000,6.000000,,,,0.000000,2.000000,2.000000,0.000000,2.000000,2.000000,2.000000,0.000000,2.000000,4.000000,4.000000,4.000000,4.000000,2.000000,4.000000,16.666666,,,,,,,,,,,,,,,,,,,,,,,,,,,,
1732083334.348718,1732083334.350921,106.000000,0.000000,4362.948730,4333.205078,4326.410156,4315.000000,4299.230957,4287.051270,4302.179688,4320.897461,4315.769043,4307.051270,4463.846191,4492.563965,4375.897461,4446.282227,1377.000000,0.000000,6.000000,,,,0.000000,2.000000,2.000000,0.000000,2.000000,2.000000,2.000000,0.000000,2.000000,4.000000,4.000000,4.000000,4.000000,2.000000,4.000000,16.666666,,,,,,,,,,,,,,,,,,,,,,,,,,,,
1732083334.356526,1732083334.358730,107.000000,0.000000,4363.589844,4334.102539,4328.717773,4316.153809,4296.794922,4280.000000,4299.102539,4308.205078,4304.102539,4301.025879,4460.384766,4490.641113,4377.820313,4447.051270,1514.000000,0.000000,6.000000,,,,0.000000,2.000000,2.000000,0.000000,2.000000,2.000000,2.000000,0.000000,2.000000,4.000000,4.000000,4.000000,4.000000,2.000000,4.000000,16.666666,,,,,,,,,,,,,,,,,,,,,,,,,,,,
1732083334.364334,1732083334.366638,108.000000,0.000000,4366.282227,4335.128418,4330.897461,4315.641113,4298.974121,4279.743652,4298.205078,4301.922852,4292.820313,4302.820313,4461.153809,4496.922852,4382.692383,4448.974121,1741.000000,0.000000,6.000000,,,,0.000000,2.000000,2.000000,0.000000,2.000000,2.000000,2.000000,0.000000,2.000000,4.000000,4.000000,4.000000,4.000000,2.000000,4.000000,16.666666,,,,,,,,,,,,,,,,,27.000000,0.000000,0.582494,0.365479,-0.643799,0.335632,1.001099,0.000000,-0.100110,-77.917740,57.612797,26.063082
1732083334.372143,1732083334.374446,109.000000,0.000000,4363.205078,4330.128418,4328.589844,4312.179688,4301.153809,4281.922852,4299.230957,4311.538574,4301.922852,4296.794922,4462.307617,4506.538574,4381.666504,4448.717773,1596.000000,0.000000,6.000000,,,,0.000000,2.000000,2.000000,0.000000,2.000000,2.000000,2.000000,0.000000,2.000000,4.000000,4.000000,4.000000,4.000000,2.000000,4.000000,16.666666,,,,,,,,,,,,,,,,,,,,,,,,,,,,
1732083334.379951,1732083334.382454,110.000000,0.000000,4357.436035,4327.051270,4330.128418,4311.025879,4295.384766,4282.179688,4303.077148,4316.153809,4311.922852,4294.871582,4461.666504,4505.000000,4375.897461,4447.307617,1377.000000,0.000000,6.000000,,,,0.000000,2.000000,2.000000,0.000000,2.000000,2.000000,2.000000,0.000000,2.000000,4.000000,4.000000,4.000000,4.000000,2.000000,4.000000,16.666666,,,,,,,,,,,,,,,,,,,,,,,,,,,,
1732083334.387759,1732083334.390262,111.000000,0.000000,4358.205078,4330.000000,4330.512695,4310.128418,4292.563965,4282.692383,4301.410156,4304.615234,4308.077148,4307.307617,4460.769043,4496.410156,4374.743652,4446.282227,1514.000000,0.000000,6.000000,,,,0.000000,2.000000,2.000000,0.000000,2.000000,2.000000,2.000000,0.000000,2.000000,4.000000,4.000000,4.000000,4.000000,2.000000,4.000000,16.666666,,,,,,,,,,,,,,,,,,,,,,,,,,,,
1732083334.395568,1732083334.398170,112.000000,0.000000,4361.153809,4329.358887,4327.179688,4307.179688,4303.333496,4276.538574,4296.794922,4301.538574,4306.282227,4312.051270,4461.538574,4496.153809,4376.025879,4445.000000,1741.000000,0.000000,6.000000,,,,0.000000,2.000000,2.000000,0.000000,2.000000,2.000000,2.000000,0.000000,2.000000,4.000000,4.000000,4.000000,4.000000,2.000000,4.000000,16.666666,,,,,,,,,,,,,,,,,28.000000,0.000000,0.580114,0.366394,-0.644470,0.337463,1.015261,-0.022464,-0.096691,-78.113365,56.893032,25.801096
1732083334.403376,1732083334.405978,113.000000,0.000000,4360.897461,4325.384766,4329.102539,4308.717773,4299.487305,4277.948730,4298.205078,4316.410156,4312.436035,4306.282227,4466.794922,4497.563965,4375.384766,4443.846191,1596.000000,0.000000,6.000000,,,,0.000000,2.000000,2.000000,0.000000,2.000000,2.000000,2.000000,0.000000,2.000000,4.000000,4.000000,4.000000,4.000000,2.000000,4.000000,16.666666,,,,,,,,,,,,,,,,,,,,,,,,,,,,
1732083334.411184,1732083334.413587,114.000000,0.000000,4358.077148,4324.871582,4332.948730,4311.025879,4282.948730,4293.846191,4306.410156,4320.256348,4314.230957,4308.333496,4469.871582,4498.461426,4372.820313,4443.205078,1377.000000,0.000000,6.000000,,,,0.000000,2.000000,2.000000,0.000000,2.000000,2.000000,2.000000,0.000000,2.000000,4.000000,4.000000,4.000000,4.000000,2.000000,4.000000,16.666666,,,,,,,,,,,,,,,,,,,,,,,,,,,,
1732083334.418992,1732083334.421395,115.000000,0.000000,4355.769043,4328.205078,4333.205078,4310.256348,4286.025879,4292.563965,4305.128418,4306.538574,4309.487305,4311.153809,4465.128418,4501.410156,4375.256348,4443.461426,1514.000000,0.000000,6.000000,,,,0.000000,2.000000,2.000000,0.000000,2.000000,2.000000,2.000000,0.000000,2.000000,4.000000,4.000000,4.000000,4.000000,2.000000,4.000000,16.666666,,,,,,,,,,,,,,,,,,,,,,,,,,,,
1732083334.426801,1732083334.429103,116.000000,0.000000,4352.179688,4330.256348,4332.436035,4310.256348,4299.102539,4279.615234,4301.025879,4312.179688,4309.230957,4308.717773,4462.436035,4497.307617,4379.230957,4440.128418,1741.000000,0.000000,6.000000,,,,0.000000,2.000000,2.000000,0.000000,2.000000,2.000000,2.000000,0.000000,2.000000,4.000000,4.000000,4.000000,4.000000,2.000000,4.000000,16.666666,,,,,,,,,,,,,,,,,29.000000,0.000000,0.578788,0.366577,-0.645142,0.338257,1.023074,-0.029789,-0.108412,-78.275162,56.246689,25.648888
1732083334.434609,1732083334.436912,117.000000,0.000000,4346.538574,4328.333496,4331.794922,4312.307617,4296.794922,4287.179688,4304.358887,4321.922852,4310.512695,4306.153809,4461.538574,4490.897461,4374.743652,4431.922852,1596.000000,0.000000,6.000000,,,,0.000000,2.000000,2.000000,0.000000,2.000000,2.000000,2.000000,0.000000,2.000000,4.000000,4.000000,4.000000,4.000000,2.000000,4.000000,16.666666,,,,,,,,,,,,,,,,,,,,,,,,,,,,
1732083334.442417,1732083334.444520,118.000000,0.000000,4343.717773,4323.333496,4330.384766,4312.563965,4290.256348,4299.615234,4306.538574,4305.641113,4305.897461,4309.615234,4458.333496,4491.025879,4367.179688,4427.051270,1377.000000,0.000000,6.000000,,,,0.000000,2.000000,2.000000,0.000000,2.000000,2.000000,2.000000,0.000000,2.000000,4.000000,4.000000,4.000000,4.000000,2.000000,4.000000,16.666666,,,,,,,,,,,,,,,,,,,,,,,,,,,,
1732083334.450225,1732083334.452328,119.000000,0.000000,4346.153809,4326.025879,4330.128418,4314.230957,4301.410156,4289.871582,4301.282227,4296.282227,4304.871582,4312.436035,4457.820313,4492.307617,4368.589844,4431.666504,1514.000000,0.000000,6.000000,,,,0.000000,2.000000,2.000000,0.000000,2.000000,2.000000,2.000000,0.000000,2.000000,4.000000,4.000000,4.000000,4.000000,2.000000,4.000000,16.666666,,,,,,,,,,,,,,,,,,,,,,,,,,,,
1732083334.458034,1732083334.460037,120.000000,0.000000,4348.077148,4333.205078,4330.000000,4317.563965,4312.051270,4278.589844,4299.871582,4306.025879,4307.307617,4305.769043,4461.666504,4493.205078,4378.717773,4440.000000,1741.000000,0.000000,6.000000,,,,0.000000,2.000000,2.000000,0.000000,2.000000,2.000000,2.000000,0.000000,2.000000,4.000000,4.000000,4.000000,4.000000,2.000000,4.000000,16.666666,,,,,,,,,,,,,,,,,30.000000,0.000000,0.575634,0.366638,-0.647156,0.339722,1.018679,-0.045904,-0.119644,-78.507881,56.041485,25.398932
1732083334.465842,1732083334.467845,121.000000,0.000000,4347.179688,4331.794922,4332.051270,4314.871582,4299.871582,4281.538574,4303.974121,4305.897461,4308.846191,4306.025879,4468.205078,4503.461426,4383.077148,4444.871582,1596.000000,0.000000,6.000000,,,,0.000000,2.000000,2.000000,0.000000,2.000000,2.000000,2.000000,0.000000,2.000000,4.000000,4.000000,4.000000,4.000000,2.000000,4.000000,16.666666,,,,,,,,,,,,,,,,,,,,,,,,,,,,
1732083334.473650,1732083334.475453,122.000000,0.000000,4350.769043,4327.820313,4333.717773,4315.384766,4286.410156,4282.692383,4302.563965,4298.077148,4308.205078,4317.051270,4469.871582,4507.307617,4378.717773,4445.641113,1377.000000,0.000000,6.000000,,,,0.000000,2.000000,2.000000,0.000000,2.000000,2.000000,2.000000,0.000000,2.000000,4.000000,4.000000,4.000000,4.000000,2.000000,4.000000,16.666666,,,,,,,,,,,,,,,,,,,,,,,,,,,,
1732083334.481459,1732083334.483261,123.000000,0.000000,4351.282227,4329.230957,4333.205078,4321.794922,4293.205078,4283.974121,4302.820313,4299.230957,4302.563965,4315.128418,4463.333496,4497.179688,4373.205078,4441.153809,1514.000000,0.000000,6.000000,,,,0.000000,2.000000,2.000000,0.000000,2.000000,2.000000,2.000000,0.000000,2.000000,4.000000,4.000000,4.000000,4.000000,2.000000,4.000000,16.666666,,,,,,,,,,,,,,,,,,,,,,,,,,,,
1732083334.489267,1732083334.490970,124.000000,0.000000,4342.436035,4330.769043,4331.410156,4319.743652,4299.487305,4291.922852,4307.307617,4307.563965,4301.666504,4307.436035,4460.512695,4493.077148,4372.436035,4434.487305,1741.000000,0.000000,6.000000,,,,0.000000,2.000000,2.000000,0.000000,2.000000,2.000000,2.000000,0.000000,2.000000,4.000000,4.000000,4.000000,4.000000,2.000000,4.000000,16.666666,,,,,,,,,,,,,,,,,31.000000,0.000000,0.569403,0.365601,-0.652527,0.341064,0.969357,-0.058113,-0.122574,-78.671387,55.550270,25.166468
1732083334.497075,1732083334.498778,125.000000,0.000000,4335.384766,4326.282227,4331.153809,4314.230957,4296.538574,4295.769043,4310.256348,4318.333496,4312.692383,4311.794922,4461.025879,4496.794922,4371.794922,4430.769043,1596.000000,0.000000,6.000000,,,,0.000000,2.000000,2.000000,0.000000,2.000000,2.000000,2.000000,0.000000,2.000000,4.000000,4.000000,4.000000,4.000000,2.000000,4.000000,16.666666,,,,,,,,,,,,,,,,,,,,,,,,,,,,
1732083334.504883,1732083334.506386,126.000000,0.000000,4336.153809,4320.641113,4328.205078,4317.820313,4298.974121,4292.563965,4305.000000,4316.922852,4313.717773,4313.974121,4463.205078,4494.871582,4370.384766,4430.128418,1377.000000,0.000000,6.000000,,,,0.000000,2.000000,2.000000,0.000000,2.000000,2.000000,2.000000,0.000000,2.000000,4.000000,4.000000,4.000000,4.000000,2.000000,4.000000,16.666666,,,,,,,,,,,,,,,,,,,,,,,,,,,,
1732083334.512692,1732083334.514195,127.000000,0.000000,4338.461426,4320.384766,4325.128418,4322.820313,4302.692383,4291.922852,4302.436035,4307.179688,4305.769043,4308.974121,4471.794922,4491.794922,4373.077148,4432.948730,6.000000,0.000000,6.000000,,,,0.000000,2.000000,2.000000,0.000000,2.000000,2.000000,2.000000,0.000000,2.000000,4.000000,4.000000,4.000000,4.000000,2.000000,4.000000,16.666666,,,,,,,,,,,,,,,,,,,,,,,,,,,,
1732083334.520500,1732083334.521903,0.000000,0.000000,4341.025879,4323.077148,4323.717773,4322.179688,4300.641113,4293.333496,4304.615234,4316.666504,4313.333496,4316.025879,4477.692383,4493.717773,4373.589844,4435.256348,0.000000,0.000000,6.000000,,,,0.000000,2.000000,2.000000,0.000000,2.000000,2.000000,2.000000,0.000000,2.000000,4.000000,4.000000,4.000000,4.000000,2.000000,4.000000,16.666666,,,,,,,,,,,,,,,,,0.000000,0.000000,0.565908,0.363647,-0.656677,0.341003,0.935173,-0.056159,-0.141619,-78.873817,54.952385,24.808172
1732083334.528308,1732083334.529711,1.000000,0.000000,4342.820313,4324.487305,4325.769043,4323.205078,4301.538574,4293.333496,4303.974121,4317.820313,4317.436035,4321.282227,4473.974121,4492.820313,4372.179688,4435.897461,1317.000000,0.000000,6.000000,,,,0.000000,2.000000,2.000000,0.000000,2.000000,2.000000,2.000000,0.000000,2.000000,4.000000,4.000000,4.000000,4.000000,2.000000,4.000000,16.666666,,,,,,,,,,,,,,,,,,,,,,,,,,,,
1732083334.536116,1732083334.537319,2.000000,0.000000,4344.871582,4324.230957,4327.820313,4323.077148,4304.102539,4295.000000,4297.948730,4296.025879,4308.589844,4312.820313,4473.846191,4491.794922,4378.333496,4439.230957,1242.000000,0.000000,6.000000,,,,0.000000,2.000000,2.000000,0.000000,2.000000,2.000000,2.000000,0.000000,2.000000,4.000000,4.000000,4.000000,4.000000,2.000000,4.000000,16.666666,,,,,,,,,,,,,,,,,,,,,,,,,,,,
1732083334.543925,1732083334.545128,3.000000,0.000000,4348.974121,4324.743652,4327.820313,4321.922852,4305.384766,4294.871582,4297.051270,4293.589844,4306.538574,4307.692383,4474.358887,4493.846191,4383.333496,4442.179688,1189.000000,0.000000,6.000000,,,,0.000000,2.000000,2.000000,0.000000,2.000000,2.000000,2.000000,0.000000,2.000000,4.000000,4.000000,4.000000,4.000000,2.000000,4.000000,16.666666,,,,,,,,,,,,,,,,,,,,,,,,,,,,
1732083334.551733,1732083334.552836,4.000000,0.000000,4345.256348,4323.846191,4327.948730,4323.333496,4306.794922,4293.717773,4299.871582,4311.282227,4311.922852,4311.922852,4468.205078,4492.436035,4377.436035,4437.307617,1204.000000,0.000000,6.000000,,,,0.000000,2.000000,2.000000,0.000000,2.000000,2.000000,2.000000,0.000000,2.000000,4.000000,4.000000,4.000000,4.000000,2.000000,4.000000,16.666666,,,,,,,,,,,,,,,,,1.000000,0.000000,0.564965,0.363464,-0.657654,0.340881,0.944451,-0.028324,-0.143084,-78.834457,54.518097,24.559620
1732083334.559541,1732083334.560644,5.000000,0.000000,4336.410156,4322.563965,4328.846191,4322.179688,4308.974121,4297.563965,4304.487305,4313.461426,4314.487305,4313.205078,4462.436035,4489.871582,4370.769043,4430.128418,1075.000000,0.000000,6.000000,,,,0.000000,2.000000,2.000000,0.000000,2.000000,2.000000,2.000000,0.000000,2.000000,4.000000,4.000000,4.000000,4.000000,2.000000,4.000000,16.666666,,,,,,,,,,,,,,,,,,,,,,,,,,,,
1732083334.567350,1732083334.568253,6.000000,0.000000,4337.307617,4323.974121,4329.743652,4320.897461,4311.282227,4299.102539,4307.051270,4309.487305,4315.641113,4310.256348,4460.384766,4493.589844,4368.846191,4428.846191,6.000000,0.000000,6.000000,,,,0.000000,2.000000,2.000000,0.000000,2.000000,2.000000,2.000000,0.000000,2.000000,4.000000,4.000000,4.000000,4.000000,2.000000,4.000000,16.666666,,,,,,,,,,,,,,,,,,,,,,,,,,,,
1732083334.575158,1732083334.576061,7.000000,0.000000,4339.358887,4325.769043,4331.153809,4322.563965,4307.563965,4295.384766,4307.692383,4318.846191,4315.641113,4308.333496,4460.384766,4494.615234,4366.666504,4427.436035,1177.000000,0.000000,6.000000,,,,0.000000,2.000000,2.000000,0.000000,2.000000,2.000000,2.000000,0.000000,2.000000,4.000000,4.000000,4.000000,4.000000,2.000000,4.000000,16.666666,,,,,,,,,,,,,,,,,,,,,,,,,,,,
1732083334.582966,1732083334.583769,8.000000,0.000000,4331.922852,4324.487305,4333.974121,4325.512695,4305.256348,4295.641113,4311.922852,4325.256348,4315.641113,4308.974121,4460.897461,4490.000000,4365.384766,4425.641113,1359.000000,0.000000,6.000000,,,,0.000000,2.000000,2.000000,0.000000,2.000000,2.000000,2.000000,0.000000,2.000000,4.000000,4.000000,4.000000,4.000000,2.000000,4.000000,16.666666,,,,,,,,,,,,,,,,,2.000000,0.000000,0.562653,0.364563,-0.659058,0.340820,0.952265,0.006837,-0.174826,-79.054245,54.251328,24.118292
1732083334.590774,1732083334.591577,9.000000,0.000000,4329.230957,4322.563965,4334.871582,4324.358887,4316.922852,4297.820313,4313.461426,4320.384766,4314.871582,4310.512695,4462.179688,4487.436035,4365.769043,4425.512695,1513.000000,0.000000,6.000000,,,,0.000000,2.000000,2.000000,0.000000,2.000000,2.000000,2.000000,0.000000,2.000000,4.000000,4.000000,4.000000,4.000000,2.000000,4.000000,16.666666,,,,,,,,,,,,,,,,,,,,,,,,,,,,
1732083334.598583,1732083334.599585,10.000000,0.000000,4330.897461,4321.922852,4336.922852,4317.051270,4319.230957,4296.153809,4310.000000,4316.666504,4313.589844,4310.256348,4462.436035,4487.563965,4363.461426,4421.922852,1377.000000,0.000000,6.000000,,,,0.000000,2.000000,2.000000,0.000000,2.000000,2.000000,2.000000,0.000000,2.000000,4.000000,4.000000,4.000000,4.000000,2.000000,4.000000,16.666666,,,,,,,,,,,,,,,,,,,,,,,,,,,,
1732083334.606391,1732083334.607394,11.000000,0.000000,4329.230957,4321.153809,4335.769043,4314.615234,4300.897461,4295.641113,4306.794922,4317.307617,4314.871582,4312.563965,4460.769043,4489.230957,4362.436035,4421.025879,1514.000000,0.000000,6.000000,,,,0.000000,2.000000,2.000000,0.000000,2.000000,2.000000,2.000000,0.000000,2.000000,4.000000,4.000000,4.000000,4.000000,2.000000,4.000000,16.666666,,,,,,,,,,,,,,,,,,,,,,,,,,,,
1732083334.614199,1732083334.615302,12.000000,0.000000,4329.102539,4320.769043,4330.769043,4319.230957,4291.410156,4295.641113,4307.436035,4313.461426,4308.846191,4312.179688,4461.282227,4491.282227,4366.153809,4423.077148,1741.000000,0.000000,6.000000,,,,0.000000,2.000000,2.000000,0.000000,2.000000,2.000000,2.000000,0.000000,2.000000,4.000000,4.000000,4.000000,4.000000,2.000000,4.000000,16.666666,,,,,,,,,,,,,,,,,3.000000,0.000000,0.560033,0.366211,-0.659363,0.342773,0.967892,-0.042486,-0.155781,-78.918938,54.040241,23.999149
1732083334.622007,1732083334.623110,13.000000,0.000000,4329.230957,4323.205078,4327.307617,4321.025879,4301.282227,4296.666504,4307.692383,4310.512695,4302.692383,4297.948730,4460.641113,4491.538574,4365.384766,4419.487305,1594.000000,0.000000,6.000000,,,,0.000000,2.000000,2.000000,0.000000,2.000000,2.000000,2.000000,0.000000,2.000000,4.000000,4.000000,4.000000,4.000000,2.000000,4.000000,16.666666,,,,,,,,,,,,,,,,,,,,,,,,,,,,
1732083334.629815,1732083334.630718,14.000000,0.000000,4327.051270,4324.358887,4325.897461,4316.538574,4306.794922,4302.692383,4309.102539,4314.102539,4305.897461,4290.256348,4454.743652,4489.871582,4358.077148,4414.615234,1377.000000,0.000000,6.000000,,,,0.000000,2.000000,2.000000,0.000000,2.000000,2.000000,2.000000,0.000000,2.000000,4.000000,4.000000,4.000000,4.000000,2.000000,4.000000,16.666666,1.000000,8.333333,2.000000,2.000000,0.000000,2.000000,2.000000,2.000000,0.000000,2.000000,1.000000,3.000000,4.000000,4.000000,2.000000,4.000000,,,,,,,,,,,,
1732083334.637624,1732083334.638526,15.000000,0.000000,4323.717773,4323.333496,4321.538574,4314.230957,4303.846191,4302.563965,4305.384766,4315.000000,4308.461426,4299.743652,4452.436035,4488.461426,4355.256348,4416.538574,1514.000000,0.000000,6.000000,,,,0.000000,2.000000,2.000000,0.000000,2.000000,2.000000,2.000000,0.000000,2.000000,4.000000,4.000000,4.000000,4.000000,2.000000,4.000000,16.666666,,,,,,,,,,,,,,,,,,,,,,,,,,,,
1732083334.645432,1732083334.646435,16.000000,0.000000,4319.871582,4320.256348,4322.820313,4314.487305,4303.589844,4300.000000,4306.538574,4311.410156,4308.333496,4306.538574,4455.897461,4487.051270,4356.922852,4413.461426,0.000000,0.000000,6.000000,,,,0.000000,2.000000,2.000000,0.000000,2.000000,2.000000,2.000000,0.000000,2.000000,4.000000,4.000000,4.000000,4.000000,2.000000,4.000000,16.666666,,,,,,,,,,,,,,,,,4.000000,0.000000,0.558918,0.366272,-0.659607,0.344055,0.967892,-0.042486,-0.155781,-79.092674,53.810928,23.714312
1732083334.653240,1732083334.654243,17.000000,0.000000,4321.282227,4318.461426,4328.589844,4314.871582,4301.410156,4302.436035,4312.692383,4316.025879,4312.692383,4304.102539,4455.512695,4486.794922,4358.589844,4410.128418,0.000000,0.000000,6.000000,,,,0.000000,2.000000,2.000000,0.000000,2.000000,2.000000,2.000000,0.000000,2.000000,4.000000,4.000000,4.000000,4.000000,2.000000,4.000000,16.666666,,,,,,,,,,,,,,,,,,,,,,,,,,,,
1732083334.661049,1732083334.662251,18.000000,0.000000,4324.871582,4319.615234,4330.000000,4314.102539,4300.512695,4300.897461,4313.205078,4327.436035,4317.563965,4304.743652,4456.410156,4491.025879,4364.358887,4416.794922,0.000000,0.000000,6.000000,,,,0.000000,2.000000,2.000000,0.000000,2.000000,2.000000,2.000000,0.000000,2.000000,4.000000,4.000000,4.000000,4.000000,2.000000,4.000000,16.666666,,,,,,,,,,,,,,,,,,,,,,,,,,,,
1732083334.668857,1732083334.670059,19.000000,0.000000,4323.589844,4320.512695,4329.358887,4313.589844,4304.358887,4298.589844,4308.717773,4326.922852,4314.230957,4308.589844,4460.897461,4495.384766,4366.794922,4417.820313,0.000000,0.000000,6.000000,,,,0.000000,2.000000,2.000000,0.000000,2.000000,2.000000,2.000000,0.000000,2.000000,4.000000,4.000000,4.000000,4.000000,2.000000,4.000000,16.666666,,,,,,,,,,,,,,,,,,,,,,,,,,,,
1732083334.676665,1732083334.677967,20.000000,0.000000,4320.641113,4318.589844,4330.128418,4315.641113,4310.256348,4302.820313,4308.461426,4310.384766,4307.692383,4305.897461,4455.000000,4492.563965,4360.000000,4411.538574,0.000000,0.000000,6.000000,,,,0.000000,2.000000,2.000000,0.000000,2.000000,2.000000,2.000000,0.000000,2.000000,4.000000,4.000000,4.000000,4.000000,2.000000,4.000000,16.666666,,,,,,,,,,,,,,,,,5.000000,0.000000,0.557739,0.366089,-0.659973,0.345459,0.984007,-0.070321,-0.153827,-78.978401,53.573521,23.610258
1732083334.684473,1732083334.685775,21.000000,0.000000,4320.769043,4314.358887,4332.307617,4313.205078,4308.974121,4305.897461,4307.051270,4303.974121,4307.820313,4303.846191,4451.025879,4489.230957,4358.974121,4409.743652,0.000000,0.000000,6.000000,,,,0.000000,2.000000,2.000000,0.000000,2.000000,2.000000,2.000000,0.000000,2.000000,4.000000,4.000000,4.000000,4.000000,2.000000,4.000000,16.666666,,,,,,,,,,,,,,,,,,,,,,,,,,,,
1732083334.692282,1732083334.693783,22.000000,0.000000,4320.641113,4311.794922,4332.436035,4307.820313,4298.589844,4302.563965,4306.794922,4315.769043,4317.051270,4311.153809,4459.358887,4492.051270,4366.666504,4411.922852,0.000000,0.000000,6.000000,,,,0.000000,2.000000,2.000000,0.000000,2.000000,2.000000,2.000000,0.000000,2.000000,4.000000,4.000000,4.000000,4.000000,2.000000,4.000000,16.666666,,,,,,,,,,,,,,,,,,,,,,,,,,,,
1732083334.700090,1732083334.701592,23.000000,0.000000,4320.641113,4312.692383,4326.410156,4309.615234,4307.436035,4300.256348,4309.615234,4322.051270,4320.384766,4316.282227,4464.743652,4494.487305,4368.077148,4414.487305,0.000000,0.000000,6.000000,,,,0.000000,2.000000,2.000000,0.000000,2.000000,2.000000,2.000000,0.000000,2.000000,4.000000,4.000000,4.000000,4.000000,2.000000,4.000000,16.666666,,,,,,,,,,,,,,,,,,,,,,,,,,,,
1732083334.707898,1732083334.709500,24.000000,0.000000,4321.282227,4317.179688,4325.128418,4316.025879,4318.974121,4296.410156,4309.102539,4318.077148,4317.692383,4309.358887,4462.948730,4492.563965,4365.384766,4416.922852,0.000000,0.000000,6.000000,,,,0.000000,2.000000,2.000000,0.000000,2.000000,2.000000,2.000000,0.000000,2.000000,4.000000,4.000000,4.000000,4.000000,2.000000,4.000000,16.666666,,,,,,,,,,,,,,,,,6.000000,0.000000,0.553241,0.363220,-0.661987,0.351807,0.957636,-0.116713,-0.154804,-79.274170,53.349552,23.507643
1732083334.715706,1732083334.717308,25.000000,0.000000,4321.922852,4319.358887,4331.794922,4318.077148,4303.589844,4297.179688,4309.871582,4322.820313,4322.563965,4305.769043,4467.820313,4492.179688,4368.077148,4416.025879,0.000000,0.000000,6.000000,,,,0.000000,2.000000,2.000000,0.000000,2.000000,2.000000,2.000000,0.000000,2.000000,4.000000,4.000000,4.000000,4.000000,2.000000,4.000000,16.666666,,,,,,,,,,,,,,,,,,,,,,,,,,,,
1732083334.723515,1732083334.725316,26.000000,0.000000,4322.307617,4318.846191,4328.461426,4316.025879,4293.077148,4307.820313,4312.820313,4330.000000,4326.282227,4311.153809,4472.692383,4493.333496,4371.538574,4415.256348,0.000000,0.000000,6.000000,,,,0.000000,2.000000,2.000000,0.000000,2.000000,2.000000,2.000000,0.000000,2.000000,4.000000,4.000000,4.000000,4.000000,2.000000,4.000000,16.666666,,,,,,,,,,,,,,,,,,,,,,,,,,,,
1732083334.731323,1732083334.733124,27.000000,0.000000,4316.410156,4316.666504,4321.794922,4313.974121,4305.000000,4312.307617,4313.589844,4329.358887,4323.077148,4308.333496,4469.358887,4493.717773,4367.948730,4416.025879,0.000000,0.000000,6.000000,,,,0.000000,2.000000,2.000000,0.000000,2.000000,2.000000,2.000000,0.000000,2.000000,4.000000,4.000000,4.000000,4.000000,2.000000,4.000000,16.666666,,,,,,,,,,,,,,,,,,,,,,,,,,,,
1732083334.739131,1732083334.741032,28.000000,0.000000,4311.410156,4313.205078,4323.461426,4313.974121,4308.205078,4307.436035,4309.871582,4325.000000,4323.333496,4303.333496,4467.436035,4492.563965,4364.871582,4415.128418,0.000000,0.000000,6.000000,,,,0.000000,2.000000,2.000000,0.000000,2.000000,2.000000,2.000000,0.000000,2.000000,4.000000,4.000000,4.000000,4.000000,2.000000,4.000000,16.666666,,,,,,,,,,,,,,,,,7.000000,0.000000,0.552375,0.362122,-0.662598,0.353149,0.957636,-0.116713,-0.154804,-79.633743,53.093136,23.346191
1732083334.746940,1732083334.748840,29.000000,0.000000,4313.589844,4315.512695,4325.128418,4313.333496,4297.692383,4307.820313,4311.153809,4324.743652,4325.000000,4305.256348,4466.282227,4490.000000,4367.051270,4414.487305,0.000000,0.000000,6.000000,,,,0.000000,2.000000,2.000000,0.000000,2.000000,2.000000,2.000000,0.000000,2.000000,4.000000,4.000000,4.000000,4.000000,2.000000,4.000000,16.666666,,,,,,,,,,,,,,,,,,,,,,,,,,,,
1732083334.754748,1732083334.756848,30.000000,0.000000,4311.666504,4317.563965,4322.307617,4310.000000,4298.333496,4311.025879,4312.051270,4329.615234,4325.384766,4306.410156,4461.025879,4488.589844,4366.794922,4412.436035,0.000000,0.000000,6.000000,,,,0.000000,2.000000,2.000000,0.000000,2.000000,2.000000,2.000000,0.000000,2.000000,4.000000,4.000000,4.000000,4.000000,2.000000,4.000000,16.666666,,,,,,,,,,,,,,,,,,,,,,,,,,,,
1732083334.762556,1732083334.764657,31.000000,0.000000,4304.615234,4315.512695,4323.717773,4310.128418,4306.794922,4306.666504,4310.128418,4324.358887,4324.615234,4304.487305,4461.666504,4489.230957,4366.410156,4412.692383,0.000000,0.000000,6.000000,,,,0.000000,2.000000,2.000000,0.000000,2.000000,2.000000,2.000000,0.000000,2.000000,4.000000,4.000000,4.000000,4.000000,2.000000,4.000000,16.666666,,,,,,,,,,,,,,,,,,,,,,,,,,,,
1732083334.770364,1732083334.772565,32.000000,0.000000,4310.256348,4320.512695,4325.384766,4317.051270,4311.794922,4305.256348,4309.358887,4310.641113,4321.538574,4304.743652,4468.461426,4490.897461,4373.846191,4419.102539,0.000000,0.000000,6.000000,,,,0.000000,2.000000,2.000000,0.000000,2.000000,2.000000,2.000000,0.000000,2.000000,4.000000,4.000000,4.000000,4.000000,2.000000,4.000000,16.666666,,,,,,,,,,,,,,,,,8.000000,0.000000,0.550997,0.358154,-0.664429,0.355896,0.962520,-0.117690,-0.139177,-79.861664,52.600441,22.995415
1732083334.778173,1732083334.780373,33.000000,0.000000,4318.461426,4325.384766,4328.205078,4320.512695,4308.205078,4310.641113,4314.615234,4310.641113,4319.358887,4307.692383,4467.179688,4494.358887,4374.743652,4419.487305,0.000000,0.000000,6.000000,,,,0.000000,2.000000,2.000000,0.000000,2.000000,2.000000,2.000000,0.000000,2.000000,4.000000,4.000000,4.000000,4.000000,2.000000,4.000000,16.666666,,,,,,,,,,,,,,,,,,,,,,,,,,,,
1732083334.785981,1732083334.787981,34.000000,0.000000,4312.563965,4315.641113,4328.077148,4312.307617,4311.794922,4308.205078,4313.974121,4323.333496,4321.794922,4305.641113,4462.948730,4496.666504,4367.948730,4413.205078,0.000000,0.000000,6.000000,,,,0.000000,2.000000,2.000000,0.000000,2.000000,2.000000,2.000000,0.000000,2.000000,4.000000,4.000000,4.000000,4.000000,2.000000,4.000000,16.666666,,,,,,,,,,,,,,,,,,,,,,,,,,,,
1732083334.793789,1732083334.795790,35.000000,0.000000,4306.666504,4309.871582,4323.205078,4305.641113,4321.410156,4302.307617,4309.743652,4328.846191,4324.102539,4305.256348,4465.384766,4495.384766,4367.692383,4411.794922,0.000000,0.000000,6.000000,,,,0.000000,2.000000,2.000000,0.000000,2.000000,2.000000,2.000000,0.000000,2.000000,4.000000,4.000000,4.000000,4.000000,2.000000,4.000000,16.666666,,,,,,,,,,,,,,,,,,,,,,,,,,,,
1732083334.801597,1732083334.803498,36.000000,0.000000,4310.641113,4318.077148,4324.743652,4312.179688,4308.461426,4306.025879,4310.512695,4326.153809,4321.922852,4306.282227,4463.974121,4492.436035,4369.102539,4415.000000,0.000000,0.000000,6.000000,,,,0.000000,2.000000,2.000000,0.000000,2.000000,2.000000,2.000000,0.000000,2.000000,4.000000,4.000000,4.000000,4.000000,2.000000,4.000000,16.666666,,,,,,,,,,,,,,,,,9.000000,0.000000,0.550816,0.352905,-0.666565,0.357422,0.984495,-0.112807,-0.133317,-80.056282,52.261356,22.876286
1732083334.809406,1732083334.811306,37.000000,0.000000,4312.692383,4318.333496,4327.307617,4315.769043,4296.666504,4312.563965,4313.717773,4327.563965,4325.384766,4300.512695,4460.769043,4489.871582,4366.922852,4415.384766,0.000000,0.000000,6.000000,,,,0.000000,2.000000,2.000000,0.000000,2.000000,2.000000,2.000000,0.000000,2.000000,4.000000,4.000000,4.000000,4.000000,2.000000,4.000000,16.666666,,,,,,,,,,,,,,,,,,,,,,,,,,,,
1732083334.817214,1732083334.818914,38.000000,0.000000,4312.307617,4312.563965,4326.666504,4310.897461,4308.077148,4313.974121,4313.077148,4330.128418,4328.717773,4298.589844,4460.897461,4490.256348,4367.051270,4412.563965,0.000000,0.000000,6.000000,,,,0.000000,2.000000,2.000000,0.000000,2.000000,2.000000,2.000000,0.000000,2.000000,4.000000,4.000000,4.000000,4.000000,2.000000,4.000000,16.666666,,,,,,,,,,,,,,,,,,,,,,,,,,,,
1732083334.825022,1732083334.826723,39.000000,0.000000,4315.641113,4317.563965,4324.871582,4311.794922,4312.436035,4311.410156,4311.282227,4325.128418,4319.230957,4307.179688,4461.538574,4485.897461,4367.692383,4410.384766,0.000000,0.000000,6.000000,,,,0.000000,2.000000,2.000000,0.000000,2.000000,2.000000,2.000000,0.000000,2.000000,4.000000,4.000000,4.000000,4.000000,2.000000,4.000000,16.666666,,,,,,,,,,,,,,,,,,,,,,,,,,,,
1732083334.832831,1732083334.834431,40.000000,0.000000,4316.282227,4322.563965,4326.922852,4314.871582,4305.256348,4307.563965,4309.230957,4319.102539,4317.307617,4310.256348,4460.128418,4479.743652,4365.000000,4412.436035,0.000000,0.000000,6.000000,,,,0.000000,2.000000,2.000000,0.000000,2.000000,2.000000,2.000000,0.000000,2.000000,4.000000,4.000000,4.000000,4.000000,2.000000,4.000000,16.666666,,,,,,,,,,,,,,,,,10.000000,0.000000,0.550870,0.350891,-0.667419,0.357727,0.982542,-0.095226,-0.128434,-80.210587,51.976700,22.648125
1732083334.840639,1732083334.842239,41.000000,0.000000,4310.384766,4318.333496,4327.563965,4311.922852,4306.922852,4306.666504,4308.846191,4323.333496,4330.512695,4307.436035,4460.000000,4479.358887,4365.256348,4412.051270,0.000000,0.000000,6.000000,,,,0.000000,2.000000,2.000000,0.000000,2.000000,2.000000,2.000000,0.000000,2.000000,4.000000,4.000000,4.000000,4.000000,2.000000,4.000000,16.666666,,,,,,,,,,,,,,,,,,,,,,,,,,,,
1732083334.848447,1732083334.849848,42.000000,0.000000,4305.769043,4314.743652,4327.563965,4308.333496,4308.589844,4309.230957,4313.077148,4330.769043,4334.230957,4308.077148,4462.820313,4483.974121,4367.436035,4406.538574,0.000000,0.000000,6.000000,,,,0.000000,2.000000,2.000000,0.000000,2.000000,2.000000,2.000000,0.000000,2.000000,4.000000,4.000000,4.000000,4.000000,2.000000,4.000000,16.666666,,,,,,,,,,,,,,,,,,,,,,,,,,,,
1732083334.856255,1732083334.857656,43.000000,0.000000,4306.410156,4316.538574,4325.769043,4307.307617,4305.769043,4311.538574,4314.615234,4328.333496,4326.794922,4310.384766,4462.820313,4482.692383,4365.897461,4404.358887,0.000000,0.000000,6.000000,,,,0.000000,2.000000,2.000000,0.000000,2.000000,2.000000,2.000000,0.000000,2.000000,4.000000,4.000000,4.000000,4.000000,2.000000,4.000000,16.666666,,,,,,,,,,,,,,,,,,,,,,,,,,,,
1732083334.864064,1732083334.865364,44.000000,0.000000,4308.846191,4319.487305,4325.897461,4308.846191,4307.948730,4310.000000,4312.948730,4321.025879,4324.358887,4313.077148,4461.282227,4480.384766,4366.410156,4406.282227,0.000000,0.000000,6.000000,,,,0.000000,2.000000,2.000000,0.000000,2.000000,2.000000,2.000000,0.000000,2.000000,4.000000,4.000000,4.000000,4.000000,2.000000,4.000000,16.666666,,,,,,,,,,,,,,,,,11.000000,0.000000,0.551052,0.349854,-0.667847,0.357666,0.978635,-0.104505,-0.130387,-80.043907,51.252792,22.619982
1732083334.871872,1732083334.873172,45.000000,0.000000,4311.922852,4323.077148,4328.589844,4314.743652,4308.205078,4309.102539,4312.051270,4323.077148,4326.025879,4312.692383,4467.692383,4486.410156,4372.051270,4408.077148,0.000000,0.000000,6.000000,,,,0.000000,2.000000,2.000000,0.000000,2.000000,2.000000,2.000000,0.000000,2.000000,4.000000,4.000000,4.000000,4.000000,2.000000,4.000000,16.666666,,,,,,,,,,,,,,,,,,,,,,,,,,,,
1732083334.879680,1732083334.880781,46.000000,0.000000,4315.384766,4322.820313,4328.205078,4316.538574,4306.794922,4310.641113,4315.000000,4330.512695,4327.051270,4304.743652,4471.666504,4492.820313,4372.692383,4410.000000,0.000000,0.000000,6.000000,,,,0.000000,2.000000,2.000000,0.000000,2.000000,2.000000,2.000000,0.000000,2.000000,4.000000,4.000000,4.000000,4.000000,2.000000,4.000000,16.666666,,,,,,,,,,,,,,,,,,,,,,,,,,,,
1732083334.887488,1732083334.888589,47.000000,0.000000,4311.410156,4317.948730,4325.897461,4311.538574,4308.974121,4311.282227,4314.358887,4329.102539,4326.922852,4307.948730,4463.333496,4488.717773,4364.871582,4409.102539,0.000000,0.000000,6.000000,,,,0.000000,2.000000,2.000000,0.000000,2.000000,2.000000,2.000000,0.000000,2.000000,4.000000,4.000000,4.000000,4.000000,2.000000,4.000000,16.666666,,,,,,,,,,,,,,,,,,,,,,,,,,,,
1732083334.895296,1732083334.896297,48.000000,0.000000,4303.205078,4317.563965,4326.666504,4310.128418,4310.769043,4312.436035,4313.589844,4326.153809,4326.922852,4320.256348,4456.282227,4476.794922,4363.205078,4402.179688,0.000000,0.000000,6.000000,,,,0.000000,2.000000,2.000000,0.000000,2.000000,2.000000,2.000000,0.000000,2.000000,4.000000,4.000000,4.000000,4.000000,2.000000,4.000000,16.666666,,,,,,,,,,,,,,,,,12.000000,0.000000,0.551453,0.348083,-0.668701,0.357178,0.958613,-0.068856,-0.132829,-79.968903,50.979763,22.853851
1732083334.903105,1732083334.904105,49.000000,0.000000,4306.025879,4323.846191,4327.051270,4315.897461,4310.384766,4310.769043,4312.948730,4334.102539,4333.461426,4323.205078,4459.743652,4474.230957,4366.794922,4399.871582,0.000000,0.000000,6.000000,,,,0.000000,2.000000,2.000000,0.000000,2.000000,2.000000,2.000000,0.000000,2.000000,4.000000,4.000000,4.000000,4.000000,2.000000,4.000000,16.666666,,,,,,,,,,,,,,,,,,,,,,,,,,,,
1732083334.910913,1732083334.911714,50.000000,0.000000,4310.000000,4323.333496,4326.282227,4318.461426,4311.153809,4309.871582,4314.230957,4339.102539,4334.487305,4317.563965,4461.794922,4480.000000,4363.461426,4402.051270,0.000000,0.000000,6.000000,,,,0.000000,2.000000,2.000000,0.000000,2.000000,2.000000,2.000000,0.000000,2.000000,4.000000,4.000000,4.000000,4.000000,2.000000,4.000000,16.666666,,,,,,,,,,,,,,,,,,,,,,,,,,,,
1732083334.918721,1732083334.919522,51.000000,0.000000,4300.128418,4316.538574,4326.025879,4313.974121,4311.794922,4315.384766,4315.256348,4333.974121,4327.692383,4311.410156,4460.641113,4479.871582,4359.615234,4399.615234,0.000000,0.000000,6.000000,,,,0.000000,2.000000,2.000000,0.000000,2.000000,2.000000,2.000000,0.000000,2.000000,4.000000,4.000000,4.000000,4.000000,2.000000,4.000000,16.666666,,,,,,,,,,,,,,,,,,,,,,,,,,,,
1732083334.926530,1732083334.927230,52.000000,0.000000,4293.205078,4316.410156,4325.000000,4309.102539,4312.436035,4315.641113,4317.307617,4334.871582,4329.358887,4310.512695,4460.769043,4475.897461,4363.717773,4396.794922,0.000000,0.000000,6.000000,,,,0.000000,2.000000,2.000000,0.000000,2.000000,2.000000,2.000000,0.000000,2.000000,4.000000,4.000000,4.000000,4.000000,2.000000,4.000000,16.666666,,,,,,,,,,,,,,,,,13.000000,0.000000,0.551836,0.346252,-0.669434,0.356995,0.964962,-0.076181,-0.136247,-80.271477,50.723606,22.936619
1732083334.934338,1732083334.935039,53.000000,0.000000,4300.128418,4320.897461,4323.461426,4308.717773,4310.000000,4308.846191,4316.666504,4335.641113,4330.641113,4312.820313,4460.128418,4473.589844,4367.307617,4398.077148,0.000000,0.000000,6.000000,,,,0.000000,2.000000,2.000000,0.000000,2.000000,2.000000,2.000000,0.000000,2.000000,4.000000,4.000000,4.000000,4.000000,2.000000,4.000000,16.666666,,,,,,,,,,,,,,,,,,,,,,,,,,,,
1732083334.942146,1732083334.943047,54.000000,0.000000,4302.179688,4317.179688,4324.615234,4307.692383,4302.563965,4310.256348,4315.256348,4325.512695,4325.000000,4308.974121,4458.846191,4473.589844,4361.153809,4399.743652,0.000000,0.000000,6.000000,,,,0.000000,2.000000,2.000000,0.000000,2.000000,2.000000,2.000000,0.000000,2.000000,4.000000,4.000000,4.000000,4.000000,2.000000,4.000000,16.666666,,,,,,,,,,,,,,,,,,,,,,,,,,,,
1732083334.949954,1732083334.950855,55.000000,0.000000,4294.615234,4308.846191,4325.641113,4302.948730,4309.615234,4309.743652,4315.000000,4321.794922,4325.641113,4307.948730,4456.153809,4474.615234,4356.153809,4396.538574,0.000000,0.000000,6.000000,,,,0.000000,2.000000,2.000000,0.000000,2.000000,2.000000,2.000000,0.000000,2.000000,4.000000,4.000000,4.000000,4.000000,2.000000,4.000000,16.666666,,,,,,,,,,,,,,,,,,,,,,,,,,,,
1732083334.957763,1732083334.958563,56.000000,0.000000,4294.358887,4312.436035,4324.871582,4304.230957,4317.948730,4300.000000,4315.384766,4328.846191,4330.641113,4313.205078,4457.179688,4476.538574,4361.794922,4398.717773,0.000000,0.000000,6.000000,,,,0.000000,2.000000,2.000000,0.000000,2.000000,2.000000,2.000000,0.000000,2.000000,4.000000,4.000000,4.000000,4.000000,2.000000,4.000000,16.666666,,,,,,,,,,,,,,,,,14.000000,0.000000,0.551790,0.346191,-0.669373,0.357239,0.972287,-0.088390,-0.129410,-80.378227,50.606121,22.851995
1732083334.965571,1732083334.966371,57.000000,0.000000,4300.128418,4320.384766,4327.307617,4313.077148,4303.077148,4302.436035,4316.153809,4330.384766,4330.256348,4311.153809,4461.025879,4475.256348,4367.820313,4404.743652,0.000000,0.000000,6.000000,,,,0.000000,2.000000,2.000000,0.000000,2.000000,2.000000,2.000000,0.000000,2.000000,4.000000,4.000000,4.000000,4.000000,2.000000,4.000000,16.666666,,,,,,,,,,,,,,,,,,,,,,,,,,,,
1732083334.973379,1732083334.973980,58.000000,0.000000,4300.384766,4317.307617,4328.077148,4316.666504,4293.974121,4313.461426,4316.666504,4324.487305,4325.769043,4309.230957,4458.846191,4474.230957,4365.512695,4404.358887,0.000000,0.000000,6.000000,,,,0.000000,2.000000,2.000000,0.000000,2.000000,2.000000,2.000000,0.000000,2.000000,4.000000,4.000000,4.000000,4.000000,2.000000,4.000000,16.666666,,,,,,,,,,,,,,,,,,,,,,,,,,,,
1732083334.981187,1732083334.981788,59.000000,0.000000,4295.769043,4315.384766,4325.512695,4313.717773,4308.589844,4312.179688,4318.333496,4326.410156,4324.871582,4313.589844,4452.436035,4475.512695,4361.538574,4399.358887,0.000000,0.000000,6.000000,,,,0.000000,2.000000,2.000000,0.000000,2.000000,2.000000,2.000000,0.000000,2.000000,4.000000,4.000000,4.000000,4.000000,2.000000,4.000000,16.666666,,,,,,,,,,,,,,,,,,,,,,,,,,,,
1732083334.988996,1732083334.989696,60.000000,0.000000,4296.153809,4322.051270,4324.487305,4315.897461,4313.077148,4308.205078,4316.666504,4332.948730,4328.461426,4314.871582,4453.846191,4473.589844,4364.230957,4397.179688,0.000000,0.000000,6.000000,,,,0.000000,2.000000,2.000000,0.000000,2.000000,2.000000,2.000000,0.000000,2.000000,4.000000,4.000000,4.000000,4.000000,2.000000,4.000000,16.666666,,,,,,,,,,,,,,,,,15.000000,0.000000,0.551614,0.346069,-0.669189,0.357971,0.976682,-0.080088,-0.126480,-80.591362,50.712624,22.785116
1732083334.996804,1732083334.997504,61.000000,0.000000,4301.794922,4324.230957,4326.153809,4319.487305,4307.948730,4313.717773,4317.948730,4329.615234,4330.256348,4314.743652,4459.358887,4469.487305,4367.948730,4398.717773,0.000000,0.000000,6.000000,,,,0.000000,2.000000,2.000000,0.000000,2.000000,2.000000,2.000000,0.000000,2.000000,4.000000,4.000000,4.000000,4.000000,2.000000,4.000000,16.666666,,,,,,,,,,,,,,,,,,,,,,,,,,,,
1732083335.004612,1732083335.005512,62.000000,0.000000,4301.666504,4320.512695,4327.307617,4315.000000,4311.538574,4317.436035,4319.487305,4326.538574,4329.743652,4316.025879,4458.077148,4468.077148,4367.692383,4398.589844,0.000000,0.000000,6.000000,,,,0.000000,2.000000,2.000000,0.000000,2.000000,2.000000,2.000000,0.000000,2.000000,4.000000,4.000000,4.000000,4.000000,2.000000,4.000000,16.666666,,,,,,,,,,,,,,,,,,,,,,,,,,,,
1732083335.012421,1732083335.013320,63.000000,0.000000,4298.846191,4321.282227,4325.512695,4311.666504,4306.410156,4309.615234,4319.102539,4332.307617,4332.692383,4312.820313,4458.589844,4473.077148,4366.666504,4397.051270,0.000000,0.000000,6.000000,,,,0.000000,2.000000,2.000000,0.000000,2.000000,2.000000,2.000000,0.000000,2.000000,4.000000,4.000000,4.000000,4.000000,2.000000,4.000000,16.666666,,,,,,,,,,,,,,,,,,,,,,,,,,,,
1732083335.020229,1732083335.021229,64.000000,0.000000,4303.333496,4323.077148,4324.102539,4313.717773,4300.128418,4301.538574,4314.615234,4331.666504,4334.743652,4312.563965,4463.717773,4477.307617,4367.436035,4398.077148,0.000000,0.000000,6.000000,,,,0.000000,2.000000,2.000000,0.000000,2.000000,2.000000,2.000000,0.000000,2.000000,4.000000,4.000000,4.000000,4.000000,2.000000,4.000000,16.666666,,,,,,,,,,,,,,,,,16.000000,0.000000,0.550787,0.345642,-0.668945,0.360107,0.975217,-0.118667,-0.126480,-80.495674,50.492226,22.824278
1732083335.028037,1732083335.029037,65.000000,0.000000,4303.974121,4319.358887,4325.256348,4315.384766,4306.666504,4306.410156,4315.512695,4326.282227,4329.871582,4319.230957,4463.077148,4469.871582,4367.820313,4398.461426,1317.000000,0.000000,6.000000,,,,0.000000,2.000000,2.000000,0.000000,2.000000,2.000000,2.000000,0.000000,2.000000,4.000000,4.000000,4.000000,4.000000,2.000000,4.000000,16.666666,,,,,,,,,,,,,,,,,,,,,,,,,,,,
1732083335.035845,1732083335.037045,66.000000,0.000000,4297.436035,4318.846191,4324.487305,4316.282227,4311.410156,4314.230957,4316.922852,4327.820313,4325.000000,4313.333496,4458.333496,4464.743652,4366.410156,4396.282227,1245.000000,0.000000,6.000000,,,,0.000000,2.000000,2.000000,0.000000,2.000000,2.000000,2.000000,0.000000,2.000000,4.000000,4.000000,4.000000,4.000000,2.000000,4.000000,16.666666,,,,,,,,,,,,,,,,,,,,,,,,,,,,
1732083335.043654,1732083335.044853,67.000000,0.000000,4295.128418,4320.256348,4322.436035,4317.948730,4310.256348,4311.794922,4317.051270,4330.384766,4324.615234,4301.025879,4456.538574,4471.922852,4365.128418,4395.769043,1189.000000,0.000000,6.000000,,,,0.000000,2.000000,2.000000,0.000000,2.000000,2.000000,2.000000,0.000000,2.000000,4.000000,4.000000,4.000000,4.000000,2.000000,4.000000,16.666666,,,,,,,,,,,,,,,,,,,,,,,,,,,,
1732083335.051462,1732083335.052761,68.000000,0.000000,4296.282227,4316.538574,4324.871582,4319.615234,4305.512695,4311.410156,4316.153809,4327.051270,4323.461426,4304.358887,4457.436035,4476.666504,4360.128418,4397.692383,1207.000000,0.000000,6.000000,,,,0.000000,2.000000,2.000000,0.000000,2.000000,2.000000,2.000000,0.000000,2.000000,4.000000,4.000000,4.000000,4.000000,2.000000,4.000000,16.666666,,,,,,,,,,,,,,,,,17.000000,0.000000,0.550421,0.344604,-0.669189,0.361206,0.963008,-0.119155,-0.119155,-80.433159,50.175369,22.875998
1732083335.059270,1732083335.060569,69.000000,0.000000,4294.743652,4311.025879,4326.153809,4317.307617,4310.384766,4313.461426,4318.077148,4328.333496,4324.358887,4312.563965,4458.717773,4474.615234,4355.641113,4396.025879,1075.000000,0.000000,6.000000,,,,0.000000,2.000000,2.000000,0.000000,2.000000,2.000000,2.000000,0.000000,2.000000,4.000000,4.000000,4.000000,4.000000,2.000000,4.000000,16.666666,,,,,,,,,,,,,,,,,,,,,,,,,,,,
1732083335.067078,1732083335.068577,70.000000,0.000000,4294.615234,4309.358887,4320.384766,4313.333496,4321.666504,4311.282227,4320.641113,4335.384766,4329.871582,4310.897461,4457.179688,4474.615234,4360.000000,4395.128418,3.000000,0.000000,6.000000,,,,0.000000,2.000000,2.000000,0.000000,2.000000,2.000000,2.000000,0.000000,2.000000,4.000000,4.000000,4.000000,4.000000,2.000000,4.000000,16.666666,,,,,,,,,,,,,,,,,,,,,,,,,,,,
1732083335.074887,1732083335.076386,71.000000,0.000000,4296.922852,4310.897461,4320.256348,4314.871582,4311.922852,4310.769043,4320.128418,4335.512695,4331.794922,4309.487305,4455.384766,4472.820313,4361.794922,4396.666504,1182.000000,0.000000,6.000000,,,,0.000000,2.000000,2.000000,0.000000,2.000000,2.000000,2.000000,0.000000,2.000000,4.000000,4.000000,4.000000,4.000000,2.000000,4.000000,16.666666,,,,,,,,,,,,,,,,,,,,,,,,,,,,
1732083335.082695,1732083335.084294,72.000000,0.000000,4300.000000,4313.333496,4327.179688,4317.051270,4295.384766,4313.717773,4319.358887,4327.948730,4328.205078,4314.487305,4458.077148,4471.153809,4360.384766,4397.436035,1359.000000,0.000000,6.000000,,,,0.000000,2.000000,2.000000,0.000000,2.000000,2.000000,2.000000,0.000000,2.000000,4.000000,4.000000,4.000000,4.000000,2.000000,4.000000,16.666666,,,,,,,,,,,,,,,,,18.000000,0.000000,0.550179,0.344543,-0.669189,0.361633,0.967403,-0.113295,-0.124527,-80.509193,50.078716,22.614559
1732083335.090503,1732083335.092102,73.000000,0.000000,4300.000000,4313.589844,4326.666504,4313.205078,4304.102539,4313.589844,4321.282227,4325.897461,4327.692383,4314.102539,4460.897461,4474.743652,4362.563965,4399.615234,1514.000000,0.000000,6.000000,,,,0.000000,2.000000,2.000000,0.000000,2.000000,2.000000,2.000000,0.000000,2.000000,4.000000,4.000000,4.000000,4.000000,2.000000,4.000000,16.666666,,,,,,,,,,,,,,,,,,,,,,,,,,,,
1732083335.098312,1732083335.100110,74.000000,0.000000,4297.307617,4312.692383,4323.077148,4312.692383,4316.025879,4312.563965,4322.436035,4331.666504,4330.897461,4314.487305,4459.230957,4473.205078,4363.333496,4398.974121,1377.000000,0.000000,6.000000,,,,0.000000,2.000000,2.000000,0.000000,2.000000,2.000000,2.000000,0.000000,2.000000,4.000000,4.000000,4.000000,4.000000,2.000000,4.000000,16.666666,,,,,,,,,,,,,,,,,,,,,,,,,,,,
1732083335.106120,1732083335.107918,75.000000,0.000000,4300.384766,4317.179688,4323.974121,4316.025879,4310.128418,4312.307617,4318.333496,4333.974121,4330.256348,4314.358887,4457.307617,4470.128418,4358.205078,4394.615234,1514.000000,0.000000,6.000000,,,,0.000000,2.000000,2.000000,0.000000,2.000000,2.000000,2.000000,0.000000,2.000000,4.000000,4.000000,4.000000,4.000000,2.000000,4.000000,16.666666,,,,,,,,,,,,,,,,,,,,,,,,,,,,
1732083335.113928,1732083335.115826,76.000000,0.000000,4304.615234,4318.589844,4324.487305,4314.743652,4307.179688,4309.615234,4318.974121,4332.820313,4327.179688,4304.358887,4458.589844,4472.948730,4358.589844,4395.128418,1741.000000,0.000000,6.000000,,,,0.000000,2.000000,2.000000,0.000000,2.000000,2.000000,2.000000,0.000000,2.000000,4.000000,4.000000,4.000000,4.000000,2.000000,4.000000,16.666666,,,,,,,,,,,,,,,,,19.000000,0.000000,0.550099,0.344177,-0.669312,0.361877,0.973263,-0.115248,-0.134294,-80.637451,50.017094,22.811125
1732083335.121736,1732083335.123634,77.000000,0.000000,4300.512695,4315.256348,4323.846191,4313.974121,4307.179688,4308.589844,4320.000000,4335.384766,4328.974121,4301.153809,4460.256348,4476.025879,4363.205078,4400.384766,1588.000000,0.000000,6.000000,,,,0.000000,2.000000,2.000000,0.000000,2.000000,2.000000,2.000000,0.000000,2.000000,4.000000,4.000000,4.000000,4.000000,2.000000,4.000000,16.666666,,,,,,,,,,,,,,,,,,,,,,,,,,,,
1732083335.129545,1732083335.131642,78.000000,0.000000,4297.436035,4316.410156,4327.307617,4314.230957,4309.358887,4308.461426,4319.230957,4336.282227,4332.307617,4309.230957,4459.230957,4474.615234,4361.410156,4400.384766,1377.000000,0.000000,6.000000,,,,0.000000,2.000000,2.000000,0.000000,2.000000,2.000000,2.000000,0.000000,2.000000,4.000000,4.000000,4.000000,4.000000,2.000000,4.000000,16.666666,1.000000,8.333333,2.000000,2.000000,0.000000,1.000000,2.000000,2.000000,0.000000,2.000000,4.000000,4.000000,4.000000,4.000000,2.000000,4.000000,,,,,,,,,,,,
1732083335.137353,1732083335.139451,79.000000,0.000000,4301.410156,4316.666504,4326.410156,4311.025879,4319.358887,4304.615234,4318.461426,4331.794922,4325.256348,4308.974121,4457.692383,4471.153809,4357.948730,4395.384766,1514.000000,0.000000,6.000000,,,,0.000000,2.000000,2.000000,0.000000,2.000000,2.000000,2.000000,0.000000,2.000000,4.000000,4.000000,4.000000,4.000000,2.000000,4.000000,16.666666,,,,,,,,,,,,,,,,,,,,,,,,,,,,
1732083335.145161,1732083335.147359,80.000000,0.000000,4300.384766,4310.384766,4322.436035,4308.717773,4310.641113,4305.384766,4322.436035,4329.743652,4316.922852,4300.384766,4457.051270,4470.512695,4355.897461,4395.769043,1741.000000,0.000000,6.000000,,,,0.000000,2.000000,2.000000,0.000000,2.000000,2.000000,2.000000,0.000000,2.000000,4.000000,4.000000,4.000000,4.000000,2.000000,4.000000,16.666666,,,,,,,,,,,,,,,,,20.000000,0.000000,0.550300,0.343628,-0.669495,0.361755,0.971798,-0.116713,-0.129899,-80.774666,49.867180,22.870344
1732083335.152969,1732083335.155167,81.000000,0.000000,4293.717773,4307.436035,4323.846191,4308.717773,4291.153809,4310.512695,4325.000000,4336.794922,4324.871582,4305.384766,4459.102539,4473.589844,4357.692383,4399.230957,1588.000000,0.000000,6.000000,,,,0.000000,2.000000,2.000000,0.000000,2.000000,2.000000,2.000000,0.000000,2.000000,4.000000,4.000000,4.000000,4.000000,2.000000,4.000000,16.666666,,,,,,,,,,,,,,,,,,,,,,,,,,,,
1732083335.160777,1732083335.163175,82.000000,0.000000,4292.436035,4310.256348,4324.487305,4309.230957,4293.974121,4309.743652,4323.846191,4342.179688,4332.948730,4314.487305,4462.563965,4474.871582,4364.230957,4401.410156,1377.000000,0.000000,6.000000,,,,0.000000,2.000000,2.000000,0.000000,2.000000,2.000000,2.000000,0.000000,2.000000,4.000000,4.000000,4.000000,4.000000,2.000000,4.000000,16.666666,,,,,,,,,,,,,,,,,,,,,,,,,,,,
1732083335.168586,1732083335.170983,83.000000,0.000000,4295.512695,4309.871582,4321.666504,4309.743652,4304.743652,4306.666504,4319.871582,4340.000000,4332.436035,4311.922852,4463.717773,4474.487305,4365.384766,4402.820313,1514.000000,0.000000,6.000000,,,,0.000000,2.000000,2.000000,0.000000,2.000000,2.000000,2.000000,0.000000,2.000000,4.000000,4.000000,4.000000,4.000000,2.000000,4.000000,16.666666,,,,,,,,,,,,,,,,,,,,,,,,,,,,
1732083335.176394,1732083335.178691,84.000000,0.000000,4297.563965,4309.743652,4322.051270,4310.512695,4305.128418,4310.256348,4318.974121,4331.922852,4330.000000,4312.307617,4460.384766,4474.615234,4359.102539,4398.333496,1741.000000,0.000000,6.000000,,,,0.000000,2.000000,2.000000,0.000000,2.000000,2.000000,2.000000,0.000000,2.000000,4.000000,4.000000,4.000000,4.000000,2.000000,4.000000,16.666666,,,,,,,,,,,,,,,,,21.000000,0.000000,0.550298,0.343750,-0.669434,0.361755,0.977658,-0.113783,-0.130875,-80.897476,49.740749,22.884979
1732083335.184202,1732083335.186500,85.000000,0.000000,4300.000000,4311.794922,4323.717773,4313.589844,4304.615234,4311.666504,4322.307617,4328.589844,4329.615234,4317.307617,4458.974121,4476.538574,4358.589844,4393.333496,1588.000000,0.000000,6.000000,,,,0.000000,2.000000,2.000000,0.000000,2.000000,2.000000,2.000000,0.000000,2.000000,4.000000,4.000000,4.000000,4.000000,2.000000,4.000000,16.666666,,,,,,,,,,,,,,,,,,,,,,,,,,,,
1732083335.192011,1732083335.194108,86.000000,0.000000,4302.820313,4313.205078,4324.358887,4317.563965,4306.666504,4307.051270,4325.128418,4337.820313,4332.051270,4313.461426,4463.205078,4480.256348,4362.436035,4397.820313,1377.000000,0.000000,6.000000,,,,0.000000,2.000000,2.000000,0.000000,2.000000,2.000000,2.000000,0.000000,2.000000,4.000000,4.000000,4.000000,4.000000,2.000000,4.000000,16.666666,,,,,,,,,,,,,,,,,,,,,,,,,,,,
1732083335.199819,1732083335.201916,87.000000,0.000000,4300.128418,4312.820313,4324.743652,4314.743652,4308.205078,4308.461426,4324.487305,4342.563965,4331.794922,4308.846191,4464.487305,4480.641113,4364.230957,4405.128418,1514.000000,0.000000,6.000000,,,,0.000000,2.000000,2.000000,0.000000,2.000000,2.000000,2.000000,0.000000,2.000000,4.000000,4.000000,4.000000,4.000000,2.000000,4.000000,16.666666,,,,,,,,,,,,,,,,,,,,,,,,,,,,
1732083335.207627,1732083335.209625,88.000000,0.000000,4297.820313,4312.179688,4324.358887,4310.000000,4304.487305,4314.615234,4323.205078,4331.794922,4326.282227,4315.512695,4461.410156,4476.922852,4363.846191,4403.077148,1741.000000,0.000000,6.000000,,,,0.000000,2.000000,2.000000,0.000000,2.000000,2.000000,2.000000,0.000000,2.000000,4.000000,4.000000,4.000000,4.000000,2.000000,4.000000,16.666666,,,,,,,,,,,,,,,,,22.000000,0.000000,0.550211,0.343933,-0.669312,0.361938,0.972775,-0.105970,-0.132340,-80.948624,49.695007,22.736834
1732083335.215435,1732083335.217433,89.000000,0.000000,4297.820313,4311.025879,4323.205078,4311.282227,4303.333496,4313.461426,4324.230957,4326.025879,4324.102539,4317.179688,4460.512695,4475.256348,4357.436035,4398.205078,1588.000000,0.000000,6.000000,,,,0.000000,2.000000,2.000000,0.000000,2.000000,2.000000,2.000000,0.000000,2.000000,4.000000,4.000000,4.000000,4.000000,2.000000,4.000000,16.666666,,,,,,,,,,,,,,,,,,,,,,,,,,,,
1732083335.223244,1732083335.225441,90.000000,0.000000,4294.871582,4309.102539,4324.615234,4312.948730,4316.282227,4307.179688,4324.615234,4336.666504,4329.743652,4312.563965,4461.282227,4477.051270,4351.282227,4399.230957,1377.000000,0.000000,6.000000,,,,0.000000,2.000000,2.000000,0.000000,2.000000,2.000000,2.000000,0.000000,2.000000,4.000000,4.000000,4.000000,4.000000,2.000000,4.000000,16.666666,,,,,,,,,,,,,,,,,,,,,,,,,,,,
1732083335.231052,1732083335.233249,91.000000,0.000000,4293.717773,4308.717773,4325.769043,4312.436035,4314.615234,4310.512695,4325.512695,4341.922852,4332.563965,4314.487305,4462.051270,4479.358887,4351.922852,4402.179688,1514.000000,0.000000,6.000000,,,,0.000000,2.000000,2.000000,0.000000,2.000000,2.000000,2.000000,0.000000,2.000000,4.000000,4.000000,4.000000,4.000000,2.000000,4.000000,16.666666,,,,,,,,,,,,,,,,,,,,,,,,,,,,
1732083335.238860,1732083335.240957,92.000000,0.000000,4297.307617,4308.717773,4325.384766,4313.205078,4294.487305,4315.897461,4324.743652,4332.307617,4328.589844,4314.615234,4460.512695,4478.333496,4354.487305,4402.948730,1741.000000,0.000000,6.000000,,,,0.000000,2.000000,2.000000,0.000000,2.000000,2.000000,2.000000,0.000000,2.000000,4.000000,4.000000,4.000000,4.000000,2.000000,4.000000,16.666666,,,,,,,,,,,,,,,,,23.000000,0.000000,0.550209,0.344055,-0.669250,0.361938,0.979123,-0.101575,-0.121597,-80.895050,49.562954,22.850168
1732083335.246668,1732083335.248766,93.000000,0.000000,4298.846191,4310.512695,4325.641113,4315.384766,4292.692383,4312.307617,4322.051270,4327.307617,4327.436035,4307.436035,4457.820313,4475.384766,4353.333496,4400.641113,1588.000000,0.000000,6.000000,,,,0.000000,2.000000,2.000000,0.000000,2.000000,2.000000,2.000000,0.000000,2.000000,4.000000,4.000000,4.000000,4.000000,2.000000,4.000000,16.666666,,,,,,,,,,,,,,,,,,,,,,,,,,,,
1732083335.254477,1732083335.256374,94.000000,0.000000,4291.922852,4310.384766,4325.641113,4315.641113,4305.128418,4312.692383,4319.358887,4333.333496,4329.102539,4304.487305,4455.512695,4473.846191,4351.410156,4397.307617,1377.000000,0.000000,6.000000,,,,0.000000,2.000000,2.000000,0.000000,2.000000,2.000000,2.000000,0.000000,2.000000,4.000000,4.000000,4.000000,4.000000,2.000000,4.000000,16.666666,,,,,,,,,,,,,,,,,,,,,,,,,,,,
1732083335.262285,1732083335.264182,95.000000,0.000000,4284.102539,4305.512695,4323.077148,4312.563965,4308.589844,4321.410156,4323.717773,4337.948730,4327.820313,4308.461426,4452.436035,4471.794922,4346.153809,4391.666504,1514.000000,0.000000,6.000000,,,,0.000000,2.000000,2.000000,0.000000,2.000000,2.000000,2.000000,0.000000,2.000000,4.000000,4.000000,4.000000,4.000000,2.000000,4.000000,16.666666,,,,,,,,,,,,,,,,,,,,,,,,,,,,
1732083335.270093,1732083335.272090,96.000000,0.000000,4283.077148,4300.512695,4321.922852,4309.102539,4307.820313,4322.436035,4327.307617,4335.641113,4328.461426,4308.717773,4450.769043,4469.102539,4342.436035,4386.794922,1741.000000,0.000000,6.000000,,,,0.000000,2.000000,2.000000,0.000000,2.000000,2.000000,2.000000,0.000000,2.000000,4.000000,4.000000,4.000000,4.000000,2.000000,4.000000,16.666666,,,,,,,,,,,,,,,,,24.000000,0.000000,0.550250,0.344055,-0.669250,0.361877,0.965450,-0.101087,-0.129899,-80.851662,49.539326,22.891970
1732083335.277902,1732083335.279898,97.000000,0.000000,4286.794922,4302.307617,4325.384766,4307.692383,4303.589844,4314.615234,4327.179688,4334.743652,4333.461426,4305.128418,4455.256348,4471.282227,4348.461426,4385.769043,1588.000000,0.000000,6.000000,,,,0.000000,2.000000,2.000000,0.000000,2.000000,2.000000,2.000000,0.000000,2.000000,4.000000,4.000000,4.000000,4.000000,2.000000,4.000000,16.666666,,,,,,,,,,,,,,,,,,,,,,,,,,,,
1732083335.285710,1732083335.287507,98.000000,0.000000,4294.487305,4308.333496,4327.563965,4311.538574,4300.000000,4309.487305,4323.205078,4335.128418,4328.461426,4307.436035,4459.871582,4474.871582,4354.743652,4386.794922,1377.000000,0.000000,6.000000,,,,0.000000,2.000000,2.000000,0.000000,2.000000,2.000000,2.000000,0.000000,2.000000,4.000000,4.000000,4.000000,4.000000,2.000000,4.000000,16.666666,,,,,,,,,,,,,,,,,,,,,,,,,,,,
1732083335.293518,1732083335.295315,99.000000,0.000000,4300.512695,4309.358887,4326.794922,4317.436035,4303.717773,4309.102539,4322.820313,4333.205078,4320.512695,4314.230957,4459.358887,4474.102539,4353.461426,4386.282227,1514.000000,0.000000,6.000000,,,,0.000000,2.000000,2.000000,0.000000,2.000000,2.000000,2.000000,0.000000,2.000000,4.000000,4.000000,4.000000,4.000000,2.000000,4.000000,16.666666,,,,,,,,,,,,,,,,,,,,,,,,,,,,
1732083335.301326,1732083335.303023,100.000000,0.000000,4301.153809,4311.153809,4325.000000,4321.025879,4305.256348,4310.256348,4323.205078,4330.384766,4324.358887,4314.358887,4458.205078,4473.333496,4349.230957,4382.820313,1741.000000,0.000000,6.000000,,,,0.000000,2.000000,2.000000,0.000000,2.000000,2.000000,2.000000,0.000000,2.000000,4.000000,4.000000,4.000000,4.000000,2.000000,4.000000,16.666666,,,,,,,,,,,,,,,,,25.000000,0.000000,0.550250,0.344055,-0.669250,0.361877,0.967892,-0.092785,-0.128922,-80.911514,49.531857,22.975828
1732083335.309135,1732083335.310832,101.000000,0.000000,4298.717773,4316.025879,4325.897461,4323.077148,4315.128418,4310.384766,4323.589844,4327.692383,4323.974121,4308.333496,4454.230957,4473.589844,4349.871582,4380.256348,1588.000000,0.000000,6.000000,,,,0.000000,2.000000,2.000000,0.000000,2.000000,2.000000,2.000000,0.000000,2.000000,4.000000,4.000000,4.000000,4.000000,2.000000,4.000000,16.666666,,,,,,,,,,,,,,,,,,,,,,,,,,,,
1732083335.316943,1732083335.318440,102.000000,0.000000,4298.974121,4316.025879,4326.922852,4326.282227,4322.820313,4309.230957,4323.974121,4331.153809,4319.743652,4309.102539,4451.794922,4474.487305,4350.384766,4379.615234,1377.000000,0.000000,6.000000,,,,0.000000,2.000000,2.000000,0.000000,2.000000,2.000000,2.000000,0.000000,2.000000,4.000000,4.000000,4.000000,4.000000,2.000000,4.000000,16.666666,,,,,,,,,,,,,,,,,,,,,,,,,,,,
1732083335.324751,1732083335.326248,103.000000,0.000000,4298.717773,4311.410156,4327.820313,4324.358887,4308.333496,4310.769043,4323.333496,4336.794922,4327.563965,4312.051270,4457.563965,4477.307617,4349.358887,4377.820313,1514.000000,0.000000,6.000000,,,,0.000000,2.000000,2.000000,0.000000,2.000000,2.000000,2.000000,0.000000,2.000000,4.000000,4.000000,4.000000,4.000000,2.000000,4.000000,16.666666,,,,,,,,,,,,,,,,,,,,,,,,,,,,
1732083335.332559,1732083335.334156,104.000000,0.000000,4295.384766,4309.358887,4328.077148,4316.666504,4300.897461,4314.871582,4322.948730,4333.333496,4331.025879,4308.589844,4458.846191,4479.358887,4349.358887,4376.922852,1741.000000,0.000000,6.000000,,,,0.000000,2.000000,2.000000,0.000000,2.000000,2.000000,2.000000,0.000000,2.000000,4.000000,4.000000,4.000000,4.000000,2.000000,4.000000,16.666666,,,,,,,,,,,,,,,,,26.000000,0.000000,0.550125,0.344299,-0.669128,0.362061,0.975217,-0.104505,-0.131364,-80.991653,49.652470,22.758755
1732083335.340368,1732083335.341965,105.000000,0.000000,4297.692383,4311.410156,4326.922852,4316.538574,4312.563965,4320.256348,4326.794922,4333.846191,4324.487305,4310.000000,4455.897461,4479.871582,4351.153809,4379.743652,1588.000000,0.000000,6.000000,,,,0.000000,2.000000,2.000000,0.000000,2.000000,2.000000,2.000000,0.000000,2.000000,4.000000,4.000000,4.000000,4.000000,2.000000,4.000000,16.666666,,,,,,,,,,,,,,,,,,,,,,,,,,,,
1732083335.348176,1732083335.349573,106.000000,0.000000,4300.512695,4311.282227,4326.025879,4320.641113,4313.974121,4321.153809,4330.897461,4342.436035,4327.563965,4315.384766,4459.615234,4478.974121,4352.051270,4378.461426,1377.000000,0.000000,6.000000,,,,0.000000,2.000000,2.000000,0.000000,2.000000,2.000000,2.000000,0.000000,2.000000,4.000000,4.000000,4.000000,4.000000,2.000000,4.000000,16.666666,,,,,,,,,,,,,,,,,,,,,,,,,,,,
1732083335.355984,1732083335.357381,107.000000,0.000000,4295.641113,4309.102539,4325.128418,4316.153809,4309.230957,4315.000000,4327.820313,4341.025879,4333.717773,4310.897461,4460.769043,4478.717773,4352.051270,4373.205078,1514.000000,0.000000,6.000000,,,,0.000000,2.000000,2.000000,0.000000,2.000000,2.000000,2.000000,0.000000,2.000000,4.000000,4.000000,4.000000,4.000000,2.000000,4.000000,16.666666,,,,,,,,,,,,,,,,,,,,,,,,,,,,
1732083335.363793,1732083335.365289,108.000000,0.000000,4287.948730,4308.589844,4325.128418,4312.692383,4311.666504,4310.128418,4326.410156,4336.282227,4331.794922,4310.769043,4456.666504,4479.615234,4350.769043,4372.948730,1741.000000,0.000000,6.000000,,,,0.000000,2.000000,2.000000,0.000000,2.000000,2.000000,2.000000,0.000000,2.000000,4.000000,4.000000,4.000000,4.000000,2.000000,4.000000,16.666666,,,,,,,,,,,,,,,,,27.000000,0.000000,0.549876,0.345032,-0.668823,0.362305,0.974240,-0.107435,-0.130875,-80.874908,49.616833,22.832924
1732083335.371601,1732083335.373097,109.000000,0.000000,4289.487305,4311.410156,4325.897461,4315.000000,4308.846191,4311.538574,4325.897461,4339.487305,4331.282227,4321.922852,4457.179688,4478.589844,4350.000000,4374.871582,1588.000000,0.000000,6.000000,,,,0.000000,2.000000,2.000000,0.000000,2.000000,2.000000,2.000000,0.000000,2.000000,4.000000,4.000000,4.000000,4.000000,2.000000,4.000000,16.666666,,,,,,,,,,,,,,,,,,,,,,,,,,,,
1732083335.379409,1732083335.381105,110.000000,0.000000,4295.000000,4311.025879,4325.641113,4315.000000,4313.205078,4309.230957,4323.333496,4338.333496,4328.077148,4317.820313,4456.153809,4473.974121,4351.666504,4374.487305,1377.000000,0.000000,6.000000,,,,0.000000,2.000000,2.000000,0.000000,2.000000,2.000000,2.000000,0.000000,2.000000,4.000000,4.000000,4.000000,4.000000,2.000000,4.000000,16.666666,,,,,,,,,,,,,,,,,,,,,,,,,,,,
1732083335.387217,1732083335.388914,111.000000,0.000000,4298.077148,4309.615234,4324.230957,4314.615234,4321.666504,4304.743652,4320.641113,4327.563965,4318.974121,4304.487305,4453.589844,4473.333496,4351.153809,4375.128418,1514.000000,0.000000,6.000000,,,,0.000000,2.000000,2.000000,0.000000,2.000000,2.000000,2.000000,0.000000,2.000000,4.000000,4.000000,4.000000,4.000000,2.000000,4.000000,16.666666,,,,,,,,,,,,,,,,,,,,,,,,,,,,
1732083335.395026,1732083335.396822,112.000000,0.000000,4299.743652,4313.461426,4326.410156,4317.948730,4310.256348,4308.461426,4324.102539,4324.743652,4318.589844,4308.205078,4457.051270,4476.922852,4350.641113,4374.871582,1741.000000,0.000000,6.000000,,,,0.000000,2.000000,2.000000,0.000000,2.000000,2.000000,2.000000,0.000000,2.000000,4.000000,4.000000,4.000000,4.000000,2.000000,4.000000,16.666666,,,,,,,,,,,,,,,,,28.000000,0.000000,0.549678,0.345520,-0.668701,0.362366,0.966427,-0.109388,-0.135759,-81.142006,49.532967,22.891336
1732083335.402834,1732083335.404630,113.000000,0.000000,4296.794922,4312.948730,4328.461426,4316.922852,4301.025879,4313.846191,4323.333496,4330.897461,4324.615234,4313.077148,4460.641113,4474.487305,4353.846191,4373.333496,1588.000000,0.000000,6.000000,,,,0.000000,2.000000,2.000000,0.000000,2.000000,2.000000,2.000000,0.000000,2.000000,4.000000,4.000000,4.000000,4.000000,2.000000,4.000000,16.666666,,,,,,,,,,,,,,,,,,,,,,,,,,,,
1732083335.410642,1732083335.412638,114.000000,0.000000,4292.820313,4308.205078,4323.846191,4311.025879,4308.974121,4313.077148,4324.358887,4334.871582,4323.589844,4305.128418,4455.256348,4472.307617,4352.692383,4372.307617,1377.000000,0.000000,6.000000,,,,0.000000,2.000000,2.000000,0.000000,2.000000,2.000000,2.000000,0.000000,2.000000,4.000000,4.000000,4.000000,4.000000,2.000000,4.000000,16.666666,,,,,,,,,,,,,,,,,,,,,,,,,,,,
1732083335.418450,1732083335.420446,115.000000,0.000000,4291.666504,4306.666504,4320.897461,4310.512695,4307.563965,4312.051270,4328.589844,4337.051270,4322.692383,4308.717773,4448.077148,4474.487305,4346.666504,4369.102539,1514.000000,0.000000,6.000000,,,,0.000000,2.000000,2.000000,0.000000,2.000000,2.000000,2.000000,0.000000,2.000000,4.000000,4.000000,4.000000,4.000000,2.000000,4.000000,16.666666,,,,,,,,,,,,,,,,,,,,,,,,,,,,
1732083335.426258,1732083335.428354,116.000000,0.000000,4291.153809,4306.538574,4324.615234,4312.820313,4309.230957,4311.282227,4327.692383,4336.666504,4325.128418,4313.205078,4447.179688,4467.948730,4344.487305,4362.563965,1741.000000,0.000000,6.000000,,,,0.000000,2.000000,2.000000,0.000000,2.000000,2.000000,2.000000,0.000000,2.000000,4.000000,4.000000,4.000000,4.000000,2.000000,4.000000,16.666666,,,,,,,,,,,,,,,,,29.000000,0.000000,0.549601,0.345642,-0.668701,0.362366,0.969357,-0.104505,-0.133805,-80.798363,49.938370,23.133648
1732083335.434067,1732083335.436163,117.000000,0.000000,4291.410156,4308.589844,4323.846191,4311.282227,4323.846191,4310.512695,4323.333496,4334.871582,4322.051270,4299.102539,4449.615234,4464.102539,4347.051270,4360.384766,1588.000000,0.000000,6.000000,,,,0.000000,2.000000,2.000000,0.000000,2.000000,2.000000,2.000000,0.000000,2.000000,4.000000,4.000000,4.000000,4.000000,2.000000,4.000000,16.666666,,,,,,,,,,,,,,,,,,,,,,,,,,,,
1732083335.441875,1732083335.444171,118.000000,0.000000,4291.538574,4309.615234,4321.666504,4308.461426,4313.205078,4313.461426,4323.974121,4334.487305,4318.846191,4294.102539,4450.256348,4469.743652,4345.897461,4365.128418,1377.000000,0.000000,6.000000,,,,0.000000,2.000000,2.000000,0.000000,2.000000,2.000000,2.000000,0.000000,2.000000,4.000000,4.000000,4.000000,4.000000,2.000000,4.000000,16.666666,,,,,,,,,,,,,,,,,,,,,,,,,,,,
1732083335.449683,1732083335.451979,119.000000,0.000000,4292.436035,4309.102539,4322.948730,4308.461426,4298.589844,4314.615234,4325.897461,4339.102539,4322.820313,4310.384766,4450.128418,4466.410156,4346.410156,4367.948730,1514.000000,0.000000,6.000000,,,,0.000000,2.000000,2.000000,0.000000,2.000000,2.000000,2.000000,0.000000,2.000000,4.000000,4.000000,4.000000,4.000000,2.000000,4.000000,16.666666,,,,,,,,,,,,,,,,,,,,,,,,,,,,
1732083335.457492,1732083335.459887,120.000000,0.000000,4299.230957,4310.897461,4323.333496,4315.512695,4308.333496,4311.410156,4323.717773,4340.000000,4324.487305,4312.307617,4448.461426,4457.820313,4348.461426,4368.461426,1741.000000,0.000000,6.000000,,,,0.000000,2.000000,2.000000,0.000000,2.000000,2.000000,2.000000,0.000000,2.000000,4.000000,4.000000,4.000000,4.000000,2.000000,4.000000,16.666666,,,,,,,,,,,,,,,,,30.000000,0.000000,0.549300,0.346130,-0.668762,0.362244,0.958613,-0.109877,-0.137712,-80.630005,49.786747,22.956589
1732083335.465300,1732083335.467695,121.000000,0.000000,4304.102539,4312.948730,4322.692383,4322.051270,4309.358887,4310.512695,4322.948730,4328.974121,4320.128418,4297.948730,4448.333496,4462.179688,4346.666504,4368.974121,1588.000000,0.000000,6.000000,,,,0.000000,2.000000,2.000000,0.000000,2.000000,2.000000,2.000000,0.000000,2.000000,4.000000,4.000000,4.000000,4.000000,2.000000,4.000000,16.666666,,,,,,,,,,,,,,,,,,,,,,,,,,,,
1732083335.473108,1732083335.475703,122.000000,0.000000,4299.615234,4306.794922,4323.333496,4317.692383,4309.743652,4310.512695,4322.692383,4323.077148,4319.871582,4301.153809,4451.922852,4466.410156,4348.077148,4368.205078,1377.000000,0.000000,6.000000,,,,0.000000,2.000000,2.000000,0.000000,2.000000,2.000000,2.000000,0.000000,2.000000,4.000000,4.000000,4.000000,4.000000,2.000000,4.000000,16.666666,,,,,,,,,,,,,,,,,,,,,,,,,,,,
1732083335.480916,1732083335.483511,123.000000,0.000000,4293.974121,4301.282227,4321.410156,4309.358887,4321.025879,4311.794922,4323.333496,4332.692383,4322.820313,4309.102539,4453.333496,4463.974121,4352.692383,4367.179688,1514.000000,0.000000,6.000000,,,,0.000000,2.000000,2.000000,0.000000,2.000000,2.000000,2.000000,0.000000,2.000000,4.000000,4.000000,4.000000,4.000000,2.000000,4.000000,16.666666,,,,,,,,,,,,,,,,,,,,,,,,,,,,
1732083335.488725,1732083335.491220,124.000000,0.000000,4296.666504,4301.794922,4320.128418,4311.282227,4307.820313,4312.563965,4325.384766,4337.179688,4322.948730,4302.436035,4449.743652,4463.717773,4349.487305,4367.820313,1741.000000,0.000000,6.000000,,,,0.000000,2.000000,2.000000,0.000000,2.000000,2.000000,2.000000,0.000000,2.000000,4.000000,4.000000,4.000000,4.000000,2.000000,4.000000,16.666666,,,,,,,,,,,,,,,,,31.000000,0.000000,0.549017,0.346741,-0.668579,0.362427,0.977658,-0.099622,-0.141619,-80.643639,49.930599,22.679836
1732083335.496533,1732083335.499028,125.000000,0.000000,4299.615234,4300.897461,4321.410156,4314.487305,4289.102539,4313.205078,4330.384766,4333.974121,4320.641113,4295.769043,4448.333496,4464.743652,4344.487305,4369.743652,1588.000000,0.000000,6.000000,,,,0.000000,2.000000,2.000000,0.000000,2.000000,2.000000,2.000000,0.000000,2.000000,4.000000,4.000000,4.000000,4.000000,2.000000,4.000000,16.666666,,,,,,,,,,,,,,,,,,,,,,,,,,,,
1732083335.504341,1732083335.506636,126.000000,0.000000,4294.358887,4300.256348,4320.512695,4310.512695,4302.051270,4316.794922,4330.641113,4339.230957,4321.282227,4295.769043,4446.282227,4470.256348,4346.794922,4371.922852,1377.000000,0.000000,6.000000,,,,0.000000,2.000000,2.000000,0.000000,2.000000,2.000000,2.000000,0.000000,2.000000,4.000000,4.000000,4.000000,4.000000,2.000000,4.000000,16.666666,,,,,,,,,,,,,,,,,,,,,,,,,,,,
1732083335.512149,1732083335.514444,127.000000,0.000000,4296.794922,4300.384766,4321.794922,4308.461426,4307.436035,4314.230957,4326.538574,4339.615234,4325.000000,4301.410156,4446.153809,4476.282227,4351.538574,4374.358887,6.000000,0.000000,6.000000,,,,0.000000,2.000000,2.000000,0.000000,2.000000,2.000000,2.000000,0.000000,2.000000,4.000000,4.000000,4.000000,4.000000,2.000000,4.000000,16.666666,,,,,,,,,,,,,,,,,,,,,,,,,,,,
1732083335.519958,1732083335.522153,0.000000,0.000000,4307.436035,4297.563965,4324.230957,4311.282227,4293.589844,4302.179688,4324.230957,4332.563965,4325.769043,4305.641113,4455.256348,4475.384766,4355.000000,4379.358887,0.000000,0.000000,6.000000,,,,0.000000,2.000000,2.000000,0.000000,2.000000,2.000000,2.000000,0.000000,2.000000,4.000000,4.000000,4.000000,4.000000,2.000000,4.000000,16.666666,,,,,,,,,,,,,,,,,0.000000,0.000000,0.549017,0.346741,-0.668579,0.362427,0.956660,-0.109877,-0.136247,-80.759682,50.107117,22.620668
1732083335.527766,1732083335.529961,1.000000,0.000000,4306.794922,4295.512695,4322.051270,4312.948730,4303.589844,4297.820313,4326.025879,4333.589844,4322.051270,4297.948730,4455.512695,4473.461426,4356.025879,4382.179688,1317.000000,0.000000,6.000000,,,,0.000000,2.000000,2.000000,0.000000,2.000000,2.000000,2.000000,0.000000,2.000000,4.000000,4.000000,4.000000,4.000000,2.000000,4.000000,16.666666,,,,,,,,,,,,,,,,,,,,,,,,,,,,
1732083335.535574,1732083335.537569,2.000000,0.000000,4300.128418,4299.743652,4320.256348,4312.051270,4320.384766,4304.743652,4324.230957,4333.077148,4321.282227,4292.820313,4448.205078,4474.871582,4354.871582,4379.871582,1252.000000,0.000000,6.000000,,,,0.000000,2.000000,2.000000,0.000000,2.000000,2.000000,2.000000,0.000000,2.000000,4.000000,4.000000,4.000000,4.000000,2.000000,4.000000,16.666666,,,,,,,,,,,,,,,,,,,,,,,,,,,,
1732083335.543383,1732083335.545378,3.000000,0.000000,4300.000000,4304.230957,4323.205078,4312.436035,4305.769043,4312.948730,4327.307617,4326.538574,4322.820313,4304.487305,4451.666504,4475.769043,4354.615234,4377.436035,1189.000000,0.000000,6.000000,,,,0.000000,2.000000,2.000000,0.000000,2.000000,2.000000,2.000000,0.000000,2.000000,4.000000,4.000000,4.000000,4.000000,2.000000,4.000000,16.666666,,,,,,,,,,,,,,,,,,,,,,,,,,,,
1732083335.551191,1732083335.553086,4.000000,0.000000,4301.153809,4304.358887,4323.974121,4315.769043,4291.282227,4318.077148,4331.666504,4327.948730,4323.717773,4312.051270,4456.410156,4475.897461,4353.974121,4378.846191,1207.000000,0.000000,6.000000,,,,0.000000,2.000000,2.000000,0.000000,2.000000,2.000000,2.000000,0.000000,2.000000,4.000000,4.000000,4.000000,4.000000,2.000000,4.000000,16.666666,,,,,,,,,,,,,,,,,1.000000,0.000000,0.548902,0.347168,-0.668518,0.362305,0.970822,-0.096203,-0.148944,-80.815338,49.935101,22.666075
1732083335.558999,1732083335.560894,5.000000,0.000000,4298.717773,4302.692383,4322.948730,4320.128418,4303.717773,4316.794922,4331.410156,4342.051270,4325.512695,4303.333496,4451.025879,4476.922852,4348.974121,4378.205078,1075.000000,0.000000,6.000000,,,,0.000000,2.000000,2.000000,0.000000,2.000000,2.000000,2.000000,0.000000,2.000000,4.000000,4.000000,4.000000,4.000000,2.000000,4.000000,16.666666,,,,,,,,,,,,,,,,,,,,,,,,,,,,
1732083335.566807,1732083335.568502,6.000000,0.000000,4298.589844,4299.487305,4323.333496,4322.820313,4308.205078,4312.692383,4332.051270,4347.692383,4325.000000,4297.692383,4445.000000,4474.615234,4346.025879,4374.102539,0.000000,0.000000,6.000000,,,,0.000000,2.000000,2.000000,0.000000,2.000000,2.000000,2.000000,0.000000,2.000000,4.000000,4.000000,4.000000,4.000000,2.000000,4.000000,16.666666,,,,,,,,,,,,,,,,,,,,,,,,,,,,
1732083335.574616,1732083335.576311,7.000000,0.000000,4298.846191,4298.077148,4324.102539,4321.410156,4299.230957,4312.948730,4334.230957,4339.871582,4322.051270,4298.717773,4445.128418,4474.230957,4346.794922,4371.025879,1180.000000,0.000000,6.000000,,,,0.000000,2.000000,2.000000,0.000000,2.000000,2.000000,2.000000,0.000000,2.000000,4.000000,4.000000,4.000000,4.000000,2.000000,4.000000,16.666666,,,,,,,,,,,,,,,,,,,,,,,,,,,,
1732083335.582424,1732083335.584019,8.000000,0.000000,4296.922852,4299.102539,4320.128418,4315.256348,4310.641113,4313.846191,4331.153809,4335.512695,4323.974121,4297.948730,4445.128418,4475.384766,4347.179688,4371.153809,1359.000000,0.000000,6.000000,,,,0.000000,2.000000,2.000000,0.000000,2.000000,2.000000,2.000000,0.000000,2.000000,4.000000,4.000000,4.000000,4.000000,2.000000,4.000000,16.666666,,,,,,,,,,,,,,,,,2.000000,0.000000,0.548675,0.347473,-0.668579,0.362244,0.982053,-0.103528,-0.129899,-80.857094,49.915764,22.542854
1732083335.590232,1732083335.591827,9.000000,0.000000,4294.358887,4302.179688,4316.666504,4310.512695,4315.384766,4309.743652,4327.179688,4336.282227,4327.948730,4302.948730,4447.820313,4470.512695,4349.615234,4372.820313,1511.000000,0.000000,6.000000,,,,0.000000,2.000000,2.000000,0.000000,2.000000,2.000000,2.000000,0.000000,2.000000,4.000000,4.000000,4.000000,4.000000,2.000000,4.000000,16.666666,,,,,,,,,,,,,,,,,,,,,,,,,,,,
1732083335.598040,1732083335.599436,10.000000,0.000000,4295.769043,4303.717773,4318.205078,4314.358887,4294.615234,4307.051270,4327.563965,4333.077148,4328.974121,4309.230957,4448.461426,4466.025879,4351.922852,4372.307617,1376.000000,0.000000,6.000000,,,,0.000000,2.000000,2.000000,0.000000,2.000000,2.000000,2.000000,0.000000,2.000000,4.000000,4.000000,4.000000,4.000000,2.000000,4.000000,16.666666,,,,,,,,,,,,,,,,,,,,,,,,,,,,
1732083335.605849,1732083335.607244,11.000000,0.000000,4300.769043,4301.410156,4323.205078,4317.051270,4292.051270,4310.256348,4325.897461,4331.410156,4327.948730,4308.077148,4448.333496,4471.538574,4352.436035,4373.205078,1514.000000,0.000000,6.000000,,,,0.000000,2.000000,2.000000,0.000000,2.000000,2.000000,2.000000,0.000000,2.000000,4.000000,4.000000,4.000000,4.000000,2.000000,4.000000,16.666666,,,,,,,,,,,,,,,,,,,,,,,,,,,,
1732083335.613657,1732083335.614952,12.000000,0.000000,4301.025879,4298.717773,4325.000000,4313.846191,4302.307617,4311.282227,4325.641113,4332.948730,4323.333496,4307.307617,4447.948730,4478.589844,4352.820313,4377.051270,1741.000000,0.000000,6.000000,,,,0.000000,2.000000,2.000000,0.000000,2.000000,2.000000,2.000000,0.000000,2.000000,4.000000,4.000000,4.000000,4.000000,2.000000,4.000000,16.666666,,,,,,,,,,,,,,,,,3.000000,0.000000,0.548551,0.347839,-0.668457,0.362305,0.974728,-0.097180,-0.136247,-80.825912,50.083435,22.418045
1732083335.621465,1732083335.622760,13.000000,0.000000,4298.461426,4296.666504,4321.410156,4309.487305,4298.461426,4306.282227,4327.563965,4333.461426,4321.666504,4305.000000,4446.794922,4477.563965,4351.666504,4375.512695,1593.000000,0.000000,6.000000,,,,0.000000,2.000000,2.000000,0.000000,2.000000,2.000000,2.000000,0.000000,2.000000,4.000000,4.000000,4.000000,4.000000,2.000000,4.000000,16.666666,,,,,,,,,,,,,,,,,,,,,,,,,,,,
1732083335.629274,1732083335.630369,14.000000,0.000000,4298.077148,4297.563965,4322.563965,4311.410156,4295.769043,4306.025879,4331.410156,4340.512695,4327.051270,4297.692383,4445.256348,4474.102539,4348.333496,4371.410156,1376.000000,0.000000,6.000000,,,,0.000000,2.000000,2.000000,0.000000,2.000000,2.000000,2.000000,0.000000,2.000000,4.000000,4.000000,4.000000,4.000000,2.000000,4.000000,16.666666,1.000000,8.333333,2.000000,2.000000,0.000000,1.000000,2.000000,2.000000,0.000000,2.000000,4.000000,4.000000,4.000000,4.000000,2.000000,4.000000,,,,,,,,,,,,
1732083335.637082,1732083335.638177,15.000000,0.000000,4300.256348,4301.153809,4326.410156,4317.436035,4302.563965,4312.307617,4333.717773,4341.025879,4327.820313,4299.743652,4443.717773,4473.333496,4346.794922,4375.000000,1514.000000,0.000000,6.000000,,,,0.000000,2.000000,2.000000,0.000000,2.000000,2.000000,2.000000,0.000000,2.000000,4.000000,4.000000,4.000000,4.000000,2.000000,4.000000,16.666666,,,,,,,,,,,,,,,,,,,,,,,,,,,,
1732083335.644890,1732083335.645885,16.000000,0.000000,4302.179688,4301.410156,4324.358887,4318.333496,4314.358887,4314.230957,4332.820313,4330.641113,4322.179688,4306.538574,4443.589844,4475.000000,4347.179688,4380.512695,0.000000,0.000000,6.000000,,,,0.000000,2.000000,2.000000,0.000000,2.000000,2.000000,2.000000,0.000000,2.000000,4.000000,4.000000,4.000000,4.000000,2.000000,4.000000,16.666666,,,,,,,,,,,,,,,,,4.000000,0.000000,0.548472,0.347900,-0.668457,0.362366,0.974728,-0.097180,-0.136247,-80.795654,50.130917,22.496950
1732083335.652698,1732083335.653693,17.000000,0.000000,4298.333496,4298.077148,4321.410156,4315.384766,4321.153809,4316.538574,4328.717773,4332.179688,4323.589844,4303.333496,4444.230957,4476.025879,4345.641113,4377.563965,0.000000,0.000000,6.000000,,,,0.000000,2.000000,2.000000,0.000000,2.000000,2.000000,2.000000,0.000000,2.000000,4.000000,4.000000,4.000000,4.000000,2.000000,4.000000,16.666666,,,,,,,,,,,,,,,,,,,,,,,,,,,,
1732083335.660507,1732083335.661302,18.000000,0.000000,4290.128418,4296.025879,4323.077148,4312.692383,4307.051270,4322.179688,4331.153809,4338.333496,4328.205078,4302.051270,4444.487305,4473.717773,4343.846191,4371.794922,0.000000,0.000000,6.000000,,,,0.000000,2.000000,2.000000,0.000000,2.000000,2.000000,2.000000,0.000000,2.000000,4.000000,4.000000,4.000000,4.000000,2.000000,4.000000,16.666666,,,,,,,,,,,,,,,,,,,,,,,,,,,,
1732083335.668315,1732083335.669110,19.000000,0.000000,4290.000000,4295.641113,4320.641113,4311.922852,4293.717773,4320.000000,4332.563965,4333.077148,4327.436035,4307.179688,4442.179688,4471.282227,4344.615234,4370.769043,0.000000,0.000000,6.000000,,,,0.000000,2.000000,2.000000,0.000000,2.000000,2.000000,2.000000,0.000000,2.000000,4.000000,4.000000,4.000000,4.000000,2.000000,4.000000,16.666666,,,,,,,,,,,,,,,,,,,,,,,,,,,,
1732083335.676123,1732083335.676818,20.000000,0.000000,4291.153809,4293.589844,4317.307617,4311.153809,4302.563965,4315.897461,4330.512695,4331.538574,4327.692383,4305.769043,4441.153809,4469.743652,4345.000000,4371.282227,0.000000,0.000000,6.000000,,,,0.000000,2.000000,2.000000,0.000000,2.000000,2.000000,2.000000,0.000000,2.000000,4.000000,4.000000,4.000000,4.000000,2.000000,4.000000,16.666666,,,,,,,,,,,,,,,,,5.000000,0.000000,0.548387,0.348206,-0.668335,0.362427,0.974240,-0.093273,-0.133805,-80.682816,50.096043,22.349195
1732083335.683931,1732083335.684627,21.000000,0.000000,4284.743652,4292.179688,4319.487305,4309.871582,4307.179688,4320.128418,4331.794922,4340.000000,4331.153809,4305.897461,4443.077148,4470.769043,4343.077148,4367.563965,0.000000,0.000000,6.000000,,,,0.000000,2.000000,2.000000,0.000000,2.000000,2.000000,2.000000,0.000000,2.000000,4.000000,4.000000,4.000000,4.000000,2.000000,4.000000,16.666666,,,,,,,,,,,,,,,,,,,,,,,,,,,,
1732083335.691739,1732083335.692635,22.000000,0.000000,4280.256348,4292.820313,4320.512695,4308.333496,4302.307617,4318.333496,4333.589844,4338.717773,4329.102539,4306.794922,4444.358887,4468.589844,4340.769043,4364.743652,0.000000,0.000000,6.000000,,,,0.000000,2.000000,2.000000,0.000000,2.000000,2.000000,2.000000,0.000000,2.000000,4.000000,4.000000,4.000000,4.000000,2.000000,4.000000,16.666666,,,,,,,,,,,,,,,,,,,,,,,,,,,,
1732083335.699548,1732083335.700443,23.000000,0.000000,4282.820313,4294.230957,4318.974121,4308.974121,4302.436035,4311.538574,4331.282227,4332.307617,4326.410156,4304.615234,4443.974121,4463.589844,4342.179688,4365.256348,0.000000,0.000000,6.000000,,,,0.000000,2.000000,2.000000,0.000000,2.000000,2.000000,2.000000,0.000000,2.000000,4.000000,4.000000,4.000000,4.000000,2.000000,4.000000,16.666666,,,,,,,,,,,,,,,,,,,,,,,,,,,,
1732083335.707356,1732083335.708351,24.000000,0.000000,4284.487305,4295.512695,4320.000000,4312.692383,4302.051270,4316.282227,4331.410156,4334.102539,4329.102539,4304.743652,4444.358887,4467.948730,4345.769043,4366.410156,0.000000,0.000000,6.000000,,,,0.000000,2.000000,2.000000,0.000000,2.000000,2.000000,2.000000,0.000000,2.000000,4.000000,4.000000,4.000000,4.000000,2.000000,4.000000,16.666666,,,,,,,,,,,,,,,,,6.000000,0.000000,0.548348,0.348267,-0.668335,0.362427,0.972287,-0.108412,-0.142596,-80.774750,50.096127,22.252848
1732083335.715164,1732083335.716159,25.000000,0.000000,4283.461426,4295.641113,4319.743652,4313.846191,4314.358887,4319.743652,4333.333496,4335.897461,4325.897461,4300.384766,4445.897461,4475.128418,4343.205078,4367.692383,0.000000,0.000000,6.000000,,,,0.000000,2.000000,2.000000,0.000000,2.000000,2.000000,2.000000,0.000000,2.000000,4.000000,4.000000,4.000000,4.000000,2.000000,4.000000,16.666666,,,,,,,,,,,,,,,,,,,,,,,,,,,,
1732083335.722973,1732083335.724167,26.000000,0.000000,4281.794922,4295.512695,4320.128418,4311.282227,4322.563965,4311.666504,4330.897461,4335.384766,4320.769043,4296.538574,4444.487305,4473.846191,4339.102539,4368.077148,0.000000,0.000000,6.000000,,,,0.000000,2.000000,2.000000,0.000000,2.000000,2.000000,2.000000,0.000000,2.000000,4.000000,4.000000,4.000000,4.000000,2.000000,4.000000,16.666666,,,,,,,,,,,,,,,,,,,,,,,,,,,,
1732083335.730781,1732083335.731975,27.000000,0.000000,4281.666504,4294.871582,4321.794922,4312.307617,4298.589844,4309.358887,4330.256348,4336.794922,4327.692383,4305.897461,4443.461426,4473.589844,4341.794922,4368.589844,0.000000,0.000000,6.000000,,,,0.000000,2.000000,2.000000,0.000000,2.000000,2.000000,2.000000,0.000000,2.000000,4.000000,4.000000,4.000000,4.000000,2.000000,4.000000,16.666666,,,,,,,,,,,,,,,,,,,,,,,,,,,,
1732083335.738589,1732083335.739883,28.000000,0.000000,4288.205078,4294.358887,4321.538574,4313.077148,4294.615234,4315.256348,4330.000000,4332.948730,4332.692383,4311.538574,4446.538574,4479.358887,4344.615234,4374.102539,0.000000,0.000000,6.000000,,,,0.000000,2.000000,2.000000,0.000000,2.000000,2.000000,2.000000,0.000000,2.000000,4.000000,4.000000,4.000000,4.000000,2.000000,4.000000,16.666666,,,,,,,,,,,,,,,,,7.000000,0.000000,0.548348,0.348267,-0.668335,0.362427,0.972287,-0.108412,-0.142596,-80.694214,49.884529,22.231474
1732083335.746397,1732083335.747692,29.000000,0.000000,4288.717773,4295.769043,4319.102539,4305.512695,4318.717773,4314.102539,4331.282227,4328.589844,4327.051270,4303.077148,4449.615234,4480.512695,4345.256348,4380.641113,0.000000,0.000000,6.000000,,,,0.000000,2.000000,2.000000,0.000000,2.000000,2.000000,2.000000,0.000000,2.000000,4.000000,4.000000,4.000000,4.000000,2.000000,4.000000,16.666666,,,,,,,,,,,,,,,,,,,,,,,,,,,,
1732083335.754206,1732083335.755300,30.000000,0.000000,4281.922852,4293.461426,4318.333496,4302.436035,4310.769043,4309.102539,4332.307617,4334.230957,4326.922852,4303.333496,4449.358887,4478.846191,4347.307617,4378.846191,0.000000,0.000000,6.000000,,,,0.000000,2.000000,2.000000,0.000000,2.000000,2.000000,2.000000,0.000000,2.000000,4.000000,4.000000,4.000000,4.000000,2.000000,4.000000,16.666666,,,,,,,,,,,,,,,,,,,,,,,,,,,,
1732083335.762014,1732083335.763108,31.000000,0.000000,4282.948730,4289.487305,4320.000000,4305.128418,4286.922852,4311.410156,4331.922852,4337.307617,4329.487305,4310.000000,4446.025879,4476.794922,4347.948730,4373.974121,0.000000,0.000000,6.000000,,,,0.000000,2.000000,2.000000,0.000000,2.000000,2.000000,2.000000,0.000000,2.000000,4.000000,4.000000,4.000000,4.000000,2.000000,4.000000,16.666666,,,,,,,,,,,,,,,,,,,,,,,,,,,,
1732083335.769822,1732083335.771016,32.000000,0.000000,4282.948730,4289.615234,4318.717773,4297.948730,4297.307617,4314.871582,4330.897461,4334.487305,4326.025879,4308.589844,4443.461426,4473.589844,4346.282227,4377.051270,0.000000,0.000000,6.000000,,,,0.000000,2.000000,2.000000,0.000000,2.000000,2.000000,2.000000,0.000000,2.000000,4.000000,4.000000,4.000000,4.000000,2.000000,4.000000,16.666666,,,,,,,,,,,,,,,,,8.000000,0.000000,0.548398,0.348145,-0.668457,0.362244,0.977170,-0.101087,-0.134294,-80.832314,49.784801,22.014160
1732083335.777630,1732083335.778825,33.000000,0.000000,4277.820313,4290.512695,4318.205078,4292.820313,4309.487305,4314.743652,4333.205078,4335.256348,4325.512695,4306.025879,4443.333496,4473.717773,4346.025879,4377.692383,0.000000,0.000000,6.000000,,,,0.000000,2.000000,2.000000,0.000000,2.000000,2.000000,2.000000,0.000000,2.000000,4.000000,4.000000,4.000000,4.000000,2.000000,4.000000,16.666666,,,,,,,,,,,,,,,,,,,,,,,,,,,,
1732083335.785439,1732083335.786833,34.000000,0.000000,4281.922852,4290.641113,4320.897461,4304.871582,4298.205078,4313.077148,4332.179688,4336.410156,4329.487305,4307.563965,4444.487305,4474.615234,4345.897461,4374.871582,0.000000,0.000000,6.000000,,,,0.000000,2.000000,2.000000,0.000000,2.000000,2.000000,2.000000,0.000000,2.000000,4.000000,4.000000,4.000000,4.000000,2.000000,4.000000,16.666666,,,,,,,,,,,,,,,,,,,,,,,,,,,,
1732083335.793247,1732083335.794641,35.000000,0.000000,4288.461426,4292.307617,4321.922852,4312.051270,4303.333496,4312.179688,4332.563965,4334.871582,4328.846191,4307.563965,4445.512695,4476.410156,4345.000000,4378.077148,0.000000,0.000000,6.000000,,,,0.000000,2.000000,2.000000,0.000000,2.000000,2.000000,2.000000,0.000000,2.000000,4.000000,4.000000,4.000000,4.000000,2.000000,4.000000,16.666666,,,,,,,,,,,,,,,,,,,,,,,,,,,,
1732083335.801055,1732083335.802549,36.000000,0.000000,4286.538574,4294.871582,4320.512695,4309.615234,4316.922852,4311.025879,4332.948730,4336.153809,4327.820313,4308.846191,4449.358887,4478.589844,4345.769043,4381.922852,0.000000,0.000000,6.000000,,,,0.000000,2.000000,2.000000,0.000000,2.000000,2.000000,2.000000,0.000000,2.000000,4.000000,4.000000,4.000000,4.000000,2.000000,4.000000,16.666666,,,,,,,,,,,,,,,,,9.000000,0.000000,0.548402,0.348083,-0.668518,0.362183,0.970333,-0.097180,-0.130387,-80.644173,49.704021,21.921471
1732083335.808864,1732083335.810357,37.000000,0.000000,4286.666504,4295.641113,4321.025879,4312.692383,4306.025879,4312.820313,4331.410156,4336.666504,4328.717773,4311.153809,4450.256348,4477.563965,4343.974121,4381.666504,0.000000,0.000000,6.000000,,,,0.000000,2.000000,2.000000,0.000000,2.000000,2.000000,2.000000,0.000000,2.000000,4.000000,4.000000,4.000000,4.000000,2.000000,4.000000,16.666666,,,,,,,,,,,,,,,,,,,,,,,,,,,,
1732083335.816672,1732083335.818365,38.000000,0.000000,4291.794922,4296.153809,4321.922852,4314.487305,4289.871582,4313.205078,4332.307617,4335.512695,4326.922852,4306.538574,4448.333496,4479.743652,4344.743652,4383.974121,0.000000,0.000000,6.000000,,,,0.000000,2.000000,2.000000,0.000000,2.000000,2.000000,2.000000,0.000000,2.000000,4.000000,4.000000,4.000000,4.000000,2.000000,4.000000,16.666666,,,,,,,,,,,,,,,,,,,,,,,,,,,,
1732083335.824480,1732083335.826173,39.000000,0.000000,4291.025879,4296.538574,4321.025879,4311.666504,4293.974121,4309.743652,4336.538574,4336.538574,4322.820313,4308.461426,4450.641113,4483.846191,4348.077148,4387.051270,0.000000,0.000000,6.000000,,,,0.000000,2.000000,2.000000,0.000000,2.000000,2.000000,2.000000,0.000000,2.000000,4.000000,4.000000,4.000000,4.000000,2.000000,4.000000,16.666666,,,,,,,,,,,,,,,,,,,,,,,,,,,,
1732083335.832288,1732083335.834081,40.000000,0.000000,4288.077148,4295.256348,4319.358887,4311.666504,4305.256348,4313.589844,4337.563965,4337.948730,4319.230957,4310.769043,4451.410156,4486.153809,4344.358887,4386.410156,0.000000,0.000000,6.000000,,,,0.000000,2.000000,2.000000,0.000000,2.000000,2.000000,2.000000,0.000000,2.000000,4.000000,4.000000,4.000000,4.000000,2.000000,4.000000,16.666666,,,,,,,,,,,,,,,,,10.000000,0.000000,0.548402,0.348083,-0.668518,0.362183,0.961543,-0.077646,-0.131852,-80.775116,49.538593,22.063057
1732083335.840097,1732083335.841890,41.000000,0.000000,4288.974121,4295.128418,4319.487305,4314.871582,4307.307617,4316.666504,4332.563965,4336.282227,4320.512695,4300.384766,4447.820313,4484.358887,4341.282227,4387.307617,0.000000,0.000000,6.000000,,,,0.000000,2.000000,2.000000,0.000000,2.000000,2.000000,2.000000,0.000000,2.000000,4.000000,4.000000,4.000000,4.000000,2.000000,4.000000,16.666666,,,,,,,,,,,,,,,,,,,,,,,,,,,,
