title:five3, start timestamp:1732083280.776237, stop timestamp:1732083328.188021, headset type:EPOCX, headset serial:E5020C3A, headset firmware:730, channels:67, sampling rate:eeg_128;mot_32, samples:6073      , version:2.2, 
Timestamp,OriginalTimestamp,EEG.Counter,EEG.Interpolated,EEG.AF3,EEG.F7,EEG.F3,EEG.FC5,EEG.T7,EEG.P7,EEG.O1,EEG.O2,EEG.P8,EEG.T8,EEG.FC6,EEG.F4,EEG.F8,EEG.AF4,EEG.RawCq,EEG.Battery,EEG.BatteryPercent,MarkerIndex,MarkerType,MarkerValueInt,EEG.MarkerHardware,CQ.AF3,CQ.F7,CQ.F3,CQ.FC5,CQ.T7,CQ.P7,CQ.O1,CQ.O2,CQ.P8,CQ.T8,CQ.FC6,CQ.F4,CQ.F8,CQ.AF4,CQ.Overall,EQ.SampleRateQuality,EQ.OVERALL,EQ.AF3,EQ.F7,EQ.F3,EQ.FC5,EQ.T7,EQ.P7,EQ.O1,EQ.O2,EQ.P8,EQ.T8,EQ.FC6,EQ.F4,EQ.F8,EQ.AF4,MOT.CounterMems,MOT.InterpolatedMems,MOT.Q0,MOT.Q1,MOT.Q2,MOT.Q3,MOT.AccX,MOT.AccY,MOT.AccZ,MOT.MagX,MOT.MagY,MOT.MagZ
1732083280.776237,1732083280.777604,29.000000,0.000000,4291.153809,4276.153809,4289.487305,4285.641113,4265.128418,4281.282227,4288.461426,4293.717773,4276.538574,4270.128418,4417.563965,4495.384766,4299.871582,4354.487305,0.000000,0.000000,6.000000,,,,0.000000,2.000000,2.000000,0.000000,2.000000,2.000000,2.000000,0.000000,2.000000,4.000000,4.000000,4.000000,4.000000,2.000000,4.000000,16.666666,,,,,,,,,,,,,,,,,,,,,,,,,,,,
1732083280.784045,1732083280.785612,30.000000,0.000000,4289.358887,4277.948730,4286.410156,4286.410156,4268.205078,4279.487305,4286.666504,4290.256348,4275.128418,4271.025879,4417.563965,4492.179688,4300.128418,4359.615234,0.000000,0.000000,6.000000,,,,0.000000,2.000000,2.000000,0.000000,2.000000,2.000000,2.000000,0.000000,2.000000,4.000000,4.000000,4.000000,4.000000,2.000000,4.000000,16.666666,,,,,,,,,,,,,,,,,,,,,,,,,,,,
1732083280.791854,1732083280.793421,31.000000,0.000000,4289.487305,4279.615234,4285.512695,4288.974121,4265.384766,4280.000000,4288.205078,4293.333496,4276.538574,4274.743652,4413.333496,4490.641113,4294.615234,4360.128418,0.000000,0.000000,6.000000,,,,0.000000,2.000000,2.000000,0.000000,2.000000,2.000000,2.000000,0.000000,2.000000,4.000000,4.000000,4.000000,4.000000,2.000000,4.000000,16.666666,,,,,,,,,,,,,,,,,,,,,,,,,,,,
1732083280.799662,1732083280.801329,32.000000,0.000000,4291.922852,4278.717773,4289.230957,4288.205078,4266.538574,4279.230957,4289.230957,4294.230957,4276.282227,4271.666504,4415.384766,4494.230957,4295.641113,4356.153809,0.000000,0.000000,6.000000,,,,0.000000,2.000000,2.000000,0.000000,2.000000,2.000000,2.000000,0.000000,2.000000,4.000000,4.000000,4.000000,4.000000,2.000000,4.000000,16.666666,,,,,,,,,,,,,,,,,8.000000,0.000000,0.645837,0.391174,-0.571533,0.321289,0.955683,0.159687,0.048834,-74.095253,63.916031,33.565247
1732083280.807470,1732083280.809137,33.000000,0.000000,4291.282227,4275.256348,4286.410156,4287.051270,4267.436035,4277.563965,4285.769043,4292.820313,4276.666504,4269.358887,4421.282227,4491.922852,4303.974121,4357.563965,0.000000,0.000000,6.000000,,,,0.000000,2.000000,2.000000,0.000000,2.000000,2.000000,2.000000,0.000000,2.000000,4.000000,4.000000,4.000000,4.000000,2.000000,4.000000,16.666666,,,,,,,,,,,,,,,,,,,,,,,,,,,,
1732083280.815278,1732083280.816745,34.000000,0.000000,4291.282227,4273.717773,4287.307617,4287.948730,4265.384766,4278.846191,4287.436035,4294.743652,4280.000000,4276.666504,4423.333496,4487.563965,4305.512695,4362.692383,0.000000,0.000000,6.000000,,,,0.000000,2.000000,2.000000,0.000000,2.000000,2.000000,2.000000,0.000000,2.000000,4.000000,4.000000,4.000000,4.000000,2.000000,4.000000,16.666666,,,,,,,,,,,,,,,,,,,,,,,,,,,,
1732083280.823087,1732083280.824554,35.000000,0.000000,4292.307617,4275.000000,4292.692383,4289.487305,4266.794922,4280.641113,4288.717773,4297.051270,4280.000000,4280.000000,4421.282227,4488.205078,4299.615234,4363.717773,0.000000,0.000000,6.000000,,,,0.000000,2.000000,2.000000,0.000000,2.000000,2.000000,2.000000,0.000000,2.000000,4.000000,4.000000,4.000000,4.000000,2.000000,4.000000,16.666666,,,,,,,,,,,,,,,,,,,,,,,,,,,,
1732083280.830895,1732083280.832262,36.000000,0.000000,4289.230957,4273.974121,4294.487305,4288.333496,4267.820313,4279.230957,4290.128418,4294.615234,4275.000000,4274.230957,4422.820313,4488.077148,4300.128418,4364.102539,0.000000,0.000000,6.000000,,,,0.000000,2.000000,2.000000,0.000000,2.000000,2.000000,2.000000,0.000000,2.000000,4.000000,4.000000,4.000000,4.000000,2.000000,4.000000,16.666666,,,,,,,,,,,,,,,,,9.000000,0.000000,0.645333,0.392273,-0.571350,0.321289,0.951776,0.178733,0.034184,-74.330490,63.805317,33.584518
1732083280.838703,1732083280.840070,37.000000,0.000000,4287.307617,4273.205078,4287.692383,4288.077148,4264.487305,4277.051270,4289.230957,4292.948730,4274.487305,4272.307617,4425.384766,4482.179688,4305.384766,4365.512695,0.000000,0.000000,6.000000,,,,0.000000,2.000000,2.000000,0.000000,2.000000,2.000000,2.000000,0.000000,2.000000,4.000000,4.000000,4.000000,4.000000,2.000000,4.000000,16.666666,,,,,,,,,,,,,,,,,,,,,,,,,,,,
1732083280.846511,1732083280.847878,38.000000,0.000000,4290.128418,4275.769043,4290.256348,4289.230957,4264.230957,4279.358887,4289.358887,4295.769043,4277.307617,4273.205078,4421.794922,4481.410156,4302.820313,4360.384766,0.000000,0.000000,6.000000,,,,0.000000,2.000000,2.000000,0.000000,2.000000,2.000000,2.000000,0.000000,2.000000,4.000000,4.000000,4.000000,4.000000,2.000000,4.000000,16.666666,,,,,,,,,,,,,,,,,,,,,,,,,,,,
1732083280.854320,1732083280.855686,39.000000,0.000000,4290.512695,4276.666504,4294.743652,4288.974121,4266.282227,4282.051270,4290.128418,4298.589844,4276.794922,4270.769043,4420.000000,4483.846191,4296.922852,4357.436035,0.000000,0.000000,6.000000,,,,0.000000,2.000000,2.000000,0.000000,2.000000,2.000000,2.000000,0.000000,2.000000,4.000000,4.000000,4.000000,4.000000,2.000000,4.000000,16.666666,,,,,,,,,,,,,,,,,,,,,,,,,,,,
1732083280.862128,1732083280.863395,40.000000,0.000000,4285.769043,4272.948730,4294.487305,4286.922852,4265.000000,4281.025879,4292.948730,4296.666504,4272.820313,4269.487305,4420.256348,4481.538574,4297.307617,4363.461426,0.000000,0.000000,6.000000,,,,0.000000,2.000000,2.000000,0.000000,2.000000,2.000000,2.000000,0.000000,2.000000,4.000000,4.000000,4.000000,4.000000,2.000000,4.000000,16.666666,,,,,,,,,,,,,,,,,10.000000,0.000000,0.643749,0.396912,-0.570618,0.320068,0.948358,0.224637,-0.003418,-74.109367,63.810642,33.663460
1732083280.869936,1732083280.871203,41.000000,0.000000,4284.743652,4272.307617,4293.205078,4284.743652,4263.461426,4279.102539,4293.589844,4293.333496,4274.102539,4273.077148,4418.461426,4480.769043,4301.025879,4364.871582,0.000000,0.000000,6.000000,,,,0.000000,2.000000,2.000000,0.000000,2.000000,2.000000,2.000000,0.000000,2.000000,4.000000,4.000000,4.000000,4.000000,2.000000,4.000000,16.666666,,,,,,,,,,,,,,,,,,,,,,,,,,,,
1732083280.877745,1732083280.878811,42.000000,0.000000,4284.487305,4272.051270,4295.512695,4283.461426,4262.948730,4280.128418,4295.000000,4298.717773,4283.077148,4276.025879,4414.743652,4482.307617,4298.974121,4360.384766,0.000000,0.000000,6.000000,,,,0.000000,2.000000,2.000000,0.000000,2.000000,2.000000,2.000000,0.000000,2.000000,4.000000,4.000000,4.000000,4.000000,2.000000,4.000000,16.666666,,,,,,,,,,,,,,,,,,,,,,,,,,,,
1732083280.885553,1732083280.886620,43.000000,0.000000,4285.000000,4271.153809,4294.102539,4287.948730,4262.179688,4282.692383,4296.025879,4305.512695,4287.051270,4279.615234,4417.436035,4486.282227,4300.897461,4367.179688,0.000000,0.000000,6.000000,,,,0.000000,2.000000,2.000000,0.000000,2.000000,2.000000,2.000000,0.000000,2.000000,4.000000,4.000000,4.000000,4.000000,2.000000,4.000000,16.666666,,,,,,,,,,,,,,,,,,,,,,,,,,,,
1732083280.893361,1732083280.894328,44.000000,0.000000,4288.461426,4272.948730,4292.051270,4291.666504,4259.230957,4280.256348,4294.230957,4300.769043,4277.820313,4289.358887,4425.512695,4490.641113,4311.025879,4379.871582,0.000000,0.000000,6.000000,,,,0.000000,2.000000,2.000000,0.000000,2.000000,2.000000,2.000000,0.000000,2.000000,4.000000,4.000000,4.000000,4.000000,2.000000,4.000000,16.666666,,,,,,,,,,,,,,,,,11.000000,0.000000,0.640297,0.405701,-0.569275,0.318359,0.966915,0.218777,-0.012697,-74.101921,63.783287,33.262402
1732083280.901169,1732083280.902136,45.000000,0.000000,4286.538574,4277.051270,4290.512695,4289.487305,4257.179688,4276.666504,4293.205078,4291.282227,4269.102539,4291.666504,4429.615234,4490.128418,4313.974121,4380.128418,0.000000,0.000000,6.000000,,,,0.000000,2.000000,2.000000,0.000000,2.000000,2.000000,2.000000,0.000000,2.000000,4.000000,4.000000,4.000000,4.000000,2.000000,4.000000,16.666666,,,,,,,,,,,,,,,,,,,,,,,,,,,,
1732083280.908978,1732083280.909745,46.000000,0.000000,4283.205078,4276.282227,4291.153809,4287.820313,4254.615234,4279.871582,4296.794922,4294.358887,4276.410156,4283.846191,4428.461426,4486.538574,4308.846191,4377.307617,0.000000,0.000000,6.000000,,,,0.000000,2.000000,2.000000,0.000000,2.000000,2.000000,2.000000,0.000000,2.000000,4.000000,4.000000,4.000000,4.000000,2.000000,4.000000,16.666666,,,,,,,,,,,,,,,,,,,,,,,,,,,,
1732083280.916786,1732083280.917553,47.000000,0.000000,4281.794922,4268.461426,4295.769043,4286.666504,4253.333496,4286.538574,4301.538574,4310.000000,4285.769043,4283.077148,4418.846191,4488.974121,4304.102539,4379.358887,0.000000,0.000000,6.000000,,,,0.000000,2.000000,2.000000,0.000000,2.000000,2.000000,2.000000,0.000000,2.000000,4.000000,4.000000,4.000000,4.000000,2.000000,4.000000,16.666666,,,,,,,,,,,,,,,,,,,,,,,,,,,,
1732083280.924594,1732083280.925461,48.000000,0.000000,4278.461426,4267.692383,4295.384766,4286.922852,4252.307617,4284.102539,4299.358887,4307.563965,4276.538574,4287.307617,4416.538574,4491.538574,4307.051270,4381.666504,0.000000,0.000000,6.000000,,,,0.000000,2.000000,2.000000,0.000000,2.000000,2.000000,2.000000,0.000000,2.000000,4.000000,4.000000,4.000000,4.000000,2.000000,4.000000,16.666666,,,,,,,,,,,,,,,,,12.000000,0.000000,0.638379,0.408691,-0.569153,0.318604,0.986937,0.191918,0.003418,-74.050888,63.761127,32.949211
1732083280.932402,1732083280.933269,49.000000,0.000000,4280.769043,4273.077148,4296.282227,4287.436035,4252.820313,4277.051270,4293.846191,4283.846191,4265.897461,4288.333496,4425.000000,4486.153809,4312.948730,4386.153809,0.000000,0.000000,6.000000,,,,0.000000,2.000000,2.000000,0.000000,2.000000,2.000000,2.000000,0.000000,2.000000,4.000000,4.000000,4.000000,4.000000,2.000000,4.000000,16.666666,,,,,,,,,,,,,,,,,,,,,,,,,,,,
1732083280.940211,1732083280.940877,50.000000,0.000000,4289.487305,4273.461426,4296.025879,4287.179688,4252.179688,4276.794922,4288.974121,4277.307617,4270.769043,4288.589844,4426.666504,4476.538574,4313.461426,4390.512695,0.000000,0.000000,6.000000,,,,0.000000,2.000000,2.000000,0.000000,2.000000,2.000000,2.000000,0.000000,2.000000,4.000000,4.000000,4.000000,4.000000,2.000000,4.000000,16.666666,,,,,,,,,,,,,,,,,,,,,,,,,,,,
1732083280.948019,1732083280.948686,51.000000,0.000000,4289.487305,4270.769043,4296.666504,4286.153809,4252.563965,4281.282227,4293.589844,4293.461426,4273.461426,4282.307617,4420.384766,4472.179688,4311.666504,4389.871582,0.000000,0.000000,6.000000,,,,0.000000,2.000000,2.000000,0.000000,2.000000,2.000000,2.000000,0.000000,2.000000,4.000000,4.000000,4.000000,4.000000,2.000000,4.000000,16.666666,,,,,,,,,,,,,,,,,,,,,,,,,,,,
1732083280.955827,1732083280.956394,52.000000,0.000000,4287.692383,4273.077148,4292.563965,4287.436035,4253.974121,4282.436035,4291.410156,4296.410156,4270.512695,4278.846191,4422.563965,4474.615234,4314.358887,4391.666504,0.000000,0.000000,6.000000,,,,0.000000,2.000000,2.000000,0.000000,2.000000,2.000000,2.000000,0.000000,2.000000,4.000000,4.000000,4.000000,4.000000,2.000000,4.000000,16.666666,,,,,,,,,,,,,,,,,13.000000,0.000000,0.637234,0.409302,-0.569519,0.319458,1.001099,0.145037,0.013674,-73.974548,63.994846,32.668861
1732083280.963636,1732083280.964202,53.000000,0.000000,4293.333496,4276.282227,4291.025879,4288.461426,4253.846191,4278.589844,4285.384766,4289.871582,4272.307617,4280.000000,4426.153809,4480.000000,4309.743652,4393.717773,0.000000,0.000000,6.000000,,,,0.000000,2.000000,2.000000,0.000000,2.000000,2.000000,2.000000,0.000000,2.000000,4.000000,4.000000,4.000000,4.000000,2.000000,4.000000,16.666666,,,,,,,,,,,,,,,,,,,,,,,,,,,,
1732083280.971444,1732083280.971811,54.000000,0.000000,4299.871582,4275.384766,4289.102539,4288.077148,4256.282227,4278.077148,4287.307617,4299.743652,4278.974121,4274.615234,4422.179688,4482.179688,4300.128418,4392.051270,0.000000,0.000000,6.000000,,,,0.000000,2.000000,2.000000,0.000000,2.000000,2.000000,2.000000,0.000000,2.000000,4.000000,4.000000,4.000000,4.000000,2.000000,4.000000,16.666666,,,,,,,,,,,,,,,,,,,,,,,,,,,,
1732083280.979252,1732083280.979619,55.000000,0.000000,4303.846191,4272.820313,4290.641113,4288.205078,4256.410156,4280.000000,4293.717773,4310.000000,4284.102539,4269.743652,4422.692383,4483.717773,4303.589844,4396.794922,0.000000,0.000000,6.000000,,,,0.000000,2.000000,2.000000,0.000000,2.000000,2.000000,2.000000,0.000000,2.000000,4.000000,4.000000,4.000000,4.000000,2.000000,4.000000,16.666666,,,,,,,,,,,,,,,,,,,,,,,,,,,,
1732083280.987060,1732083280.987327,56.000000,0.000000,4305.128418,4270.769043,4288.974121,4288.461426,4255.384766,4280.641113,4289.102539,4301.153809,4281.666504,4270.512695,4423.333496,4483.846191,4307.436035,4400.641113,0.000000,0.000000,6.000000,,,,0.000000,2.000000,2.000000,0.000000,2.000000,2.000000,2.000000,0.000000,2.000000,4.000000,4.000000,4.000000,4.000000,2.000000,4.000000,16.666666,,,,,,,,,,,,,,,,,14.000000,0.000000,0.634428,0.407898,-0.571899,0.322571,0.965938,0.124039,0.006837,-74.057724,63.980827,32.366779
1732083280.994869,1732083280.995135,57.000000,0.000000,4306.538574,4271.025879,4282.820313,4291.666504,4257.436035,4280.256348,4283.077148,4289.615234,4272.820313,4265.384766,4418.333496,4478.589844,4300.384766,4394.230957,0.000000,0.000000,6.000000,,,,0.000000,2.000000,2.000000,0.000000,2.000000,2.000000,2.000000,0.000000,2.000000,4.000000,4.000000,4.000000,4.000000,2.000000,4.000000,16.666666,,,,,,,,,,,,,,,,,,,,,,,,,,,,
1732083281.002677,1732083281.003143,58.000000,0.000000,4317.820313,4273.333496,4280.256348,4293.205078,4259.358887,4280.384766,4284.102539,4303.717773,4278.461426,4264.487305,4419.358887,4475.897461,4300.128418,4392.692383,0.000000,0.000000,6.000000,,,,0.000000,2.000000,2.000000,0.000000,2.000000,2.000000,2.000000,0.000000,2.000000,4.000000,4.000000,4.000000,4.000000,2.000000,4.000000,16.666666,,,,,,,,,,,,,,,,,,,,,,,,,,,,
1732083281.010485,1732083281.010952,59.000000,0.000000,4326.538574,4274.230957,4278.205078,4289.487305,4256.153809,4277.820313,4280.897461,4320.384766,4293.205078,4277.820313,4426.666504,4476.025879,4308.717773,4398.205078,0.000000,0.000000,6.000000,,,,0.000000,2.000000,2.000000,0.000000,2.000000,2.000000,2.000000,0.000000,2.000000,4.000000,4.000000,4.000000,4.000000,2.000000,4.000000,16.666666,,,,,,,,,,,,,,,,,,,,,,,,,,,,
1732083281.018293,1732083281.018860,60.000000,0.000000,4323.589844,4272.948730,4272.820313,4289.230957,4256.410156,4276.025879,4275.384766,4304.871582,4285.769043,4276.025879,4426.922852,4469.871582,4310.897461,4400.384766,0.000000,0.000000,6.000000,,,,0.000000,2.000000,2.000000,0.000000,2.000000,2.000000,2.000000,0.000000,2.000000,4.000000,4.000000,4.000000,4.000000,2.000000,4.000000,16.666666,,,,,,,,,,,,,,,,,15.000000,0.000000,0.626999,0.400879,-0.579834,0.331604,0.969357,0.083995,0.032719,-74.088417,63.816135,32.197090
1732083281.026102,1732083281.026668,61.000000,0.000000,4329.230957,4276.410156,4265.256348,4296.538574,4261.025879,4276.410156,4273.461426,4285.512695,4272.820313,4261.025879,4423.461426,4463.974121,4308.333496,4404.871582,0.000000,0.000000,6.000000,,,,0.000000,2.000000,2.000000,0.000000,2.000000,2.000000,2.000000,0.000000,2.000000,4.000000,4.000000,4.000000,4.000000,2.000000,4.000000,16.666666,,,,,,,,,,,,,,,,,,,,,,,,,,,,
1732083281.033910,1732083281.034676,62.000000,0.000000,4341.922852,4281.282227,4269.230957,4296.153809,4256.410156,4271.666504,4276.410156,4292.051270,4280.384766,4264.487305,4429.102539,4472.436035,4312.692383,4412.436035,0.000000,0.000000,6.000000,,,,0.000000,2.000000,2.000000,0.000000,2.000000,2.000000,2.000000,0.000000,2.000000,4.000000,4.000000,4.000000,4.000000,2.000000,4.000000,16.666666,,,,,,,,,,,,,,,,,,,,,,,,,,,,
1732083281.041718,1732083281.042484,63.000000,0.000000,4346.153809,4283.333496,4272.692383,4289.487305,4252.051270,4266.410156,4276.025879,4300.000000,4292.563965,4280.128418,4438.333496,4478.846191,4323.974121,4420.384766,0.000000,0.000000,6.000000,,,,0.000000,2.000000,2.000000,0.000000,2.000000,2.000000,2.000000,0.000000,2.000000,4.000000,4.000000,4.000000,4.000000,2.000000,4.000000,16.666666,,,,,,,,,,,,,,,,,,,,,,,,,,,,
1732083281.049526,1732083281.050192,64.000000,0.000000,4352.179688,4285.256348,4279.102539,4293.846191,4256.794922,4266.410156,4276.153809,4294.358887,4284.871582,4274.871582,4437.307617,4477.436035,4327.307617,4425.256348,0.000000,0.000000,6.000000,,,,0.000000,2.000000,2.000000,0.000000,2.000000,2.000000,2.000000,0.000000,2.000000,4.000000,4.000000,4.000000,4.000000,2.000000,4.000000,16.666666,,,,,,,,,,,,,,,,,16.000000,0.000000,0.625142,0.399109,-0.581726,0.333923,0.969357,0.083995,0.032719,-74.243286,63.487736,31.802977
1732083281.057335,1732083281.058001,65.000000,0.000000,4363.717773,4288.333496,4280.128418,4301.666504,4263.077148,4265.384766,4276.666504,4293.846191,4273.333496,4263.974121,4435.769043,4479.487305,4322.051270,4425.897461,1317.000000,0.000000,6.000000,,,,0.000000,2.000000,2.000000,0.000000,2.000000,2.000000,2.000000,0.000000,2.000000,4.000000,4.000000,4.000000,4.000000,2.000000,4.000000,16.666666,,,,,,,,,,,,,,,,,,,,,,,,,,,,
1732083281.065143,1732083281.066009,66.000000,0.000000,4365.000000,4286.410156,4283.461426,4294.743652,4258.589844,4265.384766,4280.641113,4296.794922,4277.307617,4267.563965,4440.000000,4484.230957,4324.743652,4428.205078,1245.000000,0.000000,6.000000,,,,0.000000,2.000000,2.000000,0.000000,2.000000,2.000000,2.000000,0.000000,2.000000,4.000000,4.000000,4.000000,4.000000,2.000000,4.000000,16.666666,,,,,,,,,,,,,,,,,,,,,,,,,,,,
1732083281.072951,1732083281.073817,67.000000,0.000000,4365.128418,4286.922852,4283.846191,4289.615234,4257.179688,4269.615234,4282.563965,4296.794922,4284.358887,4267.948730,4443.589844,4478.717773,4332.436035,4433.589844,1192.000000,0.000000,6.000000,,,,0.000000,2.000000,2.000000,0.000000,2.000000,2.000000,2.000000,0.000000,2.000000,4.000000,4.000000,4.000000,4.000000,2.000000,4.000000,16.666666,,,,,,,,,,,,,,,,,,,,,,,,,,,,
1732083281.080759,1732083281.081725,68.000000,0.000000,4373.205078,4290.128418,4285.000000,4297.179688,4263.846191,4271.794922,4282.948730,4298.205078,4283.333496,4258.717773,4441.410156,4470.384766,4330.384766,4433.205078,1222.000000,0.000000,6.000000,,,,0.000000,2.000000,2.000000,0.000000,2.000000,2.000000,2.000000,0.000000,2.000000,4.000000,4.000000,4.000000,4.000000,2.000000,4.000000,16.666666,,,,,,,,,,,,,,,,,17.000000,0.000000,0.621693,0.396301,-0.584900,0.338135,0.939079,0.059089,0.040044,-74.610397,63.051735,31.622078
1732083281.088568,1732083281.089533,69.000000,0.000000,4378.077148,4291.666504,4283.717773,4304.358887,4265.512695,4267.563965,4279.358887,4297.692383,4278.205078,4257.436035,4439.743652,4474.871582,4328.077148,4433.077148,1087.000000,0.000000,6.000000,,,,0.000000,2.000000,2.000000,0.000000,2.000000,2.000000,2.000000,0.000000,2.000000,4.000000,4.000000,4.000000,4.000000,2.000000,4.000000,16.666666,,,,,,,,,,,,,,,,,,,,,,,,,,,,
1732083281.096376,1732083281.097541,70.000000,0.000000,4376.025879,4293.717773,4284.615234,4303.717773,4263.846191,4267.307617,4281.025879,4297.307617,4280.897461,4264.487305,4443.461426,4484.358887,4337.692383,4440.256348,3.000000,0.000000,6.000000,,,,0.000000,2.000000,2.000000,0.000000,2.000000,2.000000,2.000000,0.000000,2.000000,4.000000,4.000000,4.000000,4.000000,2.000000,4.000000,16.666666,,,,,,,,,,,,,,,,,,,,,,,,,,,,
1732083281.104184,1732083281.105349,71.000000,0.000000,4373.205078,4296.282227,4287.948730,4300.256348,4266.666504,4273.974121,4284.102539,4301.922852,4291.282227,4265.769043,4446.025879,4488.589844,4344.102539,4443.846191,1185.000000,0.000000,6.000000,,,,0.000000,2.000000,2.000000,0.000000,2.000000,2.000000,2.000000,0.000000,2.000000,4.000000,4.000000,4.000000,4.000000,2.000000,4.000000,16.666666,,,,,,,,,,,,,,,,,,,,,,,,,,,,
1732083281.111992,1732083281.113257,72.000000,0.000000,4373.205078,4299.743652,4285.641113,4301.410156,4269.102539,4274.358887,4285.000000,4304.102539,4291.025879,4263.333496,4445.128418,4488.077148,4339.358887,4443.974121,1376.000000,0.000000,6.000000,,,,0.000000,2.000000,2.000000,0.000000,2.000000,2.000000,2.000000,0.000000,2.000000,4.000000,4.000000,4.000000,4.000000,2.000000,4.000000,16.666666,,,,,,,,,,,,,,,,,18.000000,0.000000,0.615384,0.394775,-0.588135,0.345764,0.970822,0.063484,0.005860,-75.074417,62.581905,31.275549
1732083281.119801,1732083281.121066,73.000000,0.000000,4373.589844,4301.282227,4286.025879,4305.256348,4264.871582,4266.282227,4283.846191,4299.487305,4277.948730,4263.205078,4443.461426,4492.692383,4339.743652,4448.974121,1504.000000,0.000000,6.000000,,,,0.000000,2.000000,2.000000,0.000000,2.000000,2.000000,2.000000,0.000000,2.000000,4.000000,4.000000,4.000000,4.000000,2.000000,4.000000,16.666666,,,,,,,,,,,,,,,,,,,,,,,,,,,,
1732083281.127609,1732083281.129074,74.000000,0.000000,4368.717773,4298.717773,4288.589844,4303.846191,4263.974121,4263.974121,4284.358887,4295.128418,4274.230957,4259.743652,4446.153809,4493.589844,4347.307617,4452.179688,1379.000000,0.000000,6.000000,,,,0.000000,2.000000,2.000000,0.000000,2.000000,2.000000,2.000000,0.000000,2.000000,4.000000,4.000000,4.000000,4.000000,2.000000,4.000000,16.666666,,,,,,,,,,,,,,,,,,,,,,,,,,,,
1732083281.135417,1732083281.136882,75.000000,0.000000,4366.794922,4299.102539,4294.230957,4301.794922,4263.589844,4265.512695,4287.179688,4294.615234,4280.384766,4255.000000,4447.820313,4491.666504,4350.128418,4449.871582,1513.000000,0.000000,6.000000,,,,0.000000,2.000000,2.000000,0.000000,2.000000,2.000000,2.000000,0.000000,2.000000,4.000000,4.000000,4.000000,4.000000,2.000000,4.000000,16.666666,,,,,,,,,,,,,,,,,,,,,,,,,,,,
1732083281.143226,1732083281.144790,76.000000,0.000000,4370.641113,4303.461426,4295.897461,4306.666504,4263.077148,4263.717773,4287.692383,4294.743652,4278.077148,4255.897461,4445.512695,4491.025879,4345.512695,4446.794922,1750.000000,0.000000,6.000000,,,,0.000000,2.000000,2.000000,0.000000,2.000000,2.000000,2.000000,0.000000,2.000000,4.000000,4.000000,4.000000,4.000000,2.000000,4.000000,16.666666,,,,,,,,,,,,,,,,,19.000000,0.000000,0.611509,0.396606,-0.588562,0.349792,0.999634,0.057136,0.002442,-75.530281,61.986343,31.008196
1732083281.151034,1732083281.152598,77.000000,0.000000,4366.666504,4301.282227,4298.077148,4310.256348,4264.743652,4262.820313,4286.794922,4294.615234,4272.436035,4261.410156,4444.230957,4492.563965,4343.717773,4445.384766,1594.000000,0.000000,6.000000,,,,0.000000,2.000000,2.000000,0.000000,2.000000,2.000000,2.000000,0.000000,2.000000,4.000000,4.000000,4.000000,4.000000,2.000000,4.000000,16.666666,,,,,,,,,,,,,,,,,,,,,,,,,,,,
1732083281.158842,1732083281.160606,78.000000,0.000000,4361.922852,4297.436035,4298.205078,4308.077148,4264.615234,4265.128418,4286.794922,4295.769043,4277.051270,4266.538574,4444.615234,4490.897461,4346.410156,4450.000000,1379.000000,0.000000,6.000000,,,,0.000000,2.000000,2.000000,0.000000,2.000000,2.000000,2.000000,0.000000,2.000000,4.000000,4.000000,4.000000,4.000000,2.000000,4.000000,16.666666,1.000000,8.333333,2.000000,2.000000,0.000000,2.000000,2.000000,2.000000,0.000000,2.000000,3.000000,4.000000,4.000000,4.000000,2.000000,1.000000,,,,,,,,,,,,
1732083281.166650,1732083281.168414,79.000000,0.000000,4369.615234,4301.794922,4303.077148,4305.769043,4260.769043,4263.205078,4291.025879,4298.974121,4282.820313,4272.179688,4447.307617,4489.358887,4350.897461,4457.307617,1513.000000,0.000000,6.000000,,,,0.000000,2.000000,2.000000,0.000000,2.000000,2.000000,2.000000,0.000000,2.000000,4.000000,4.000000,4.000000,4.000000,2.000000,4.000000,16.666666,,,,,,,,,,,,,,,,,,,,,,,,,,,,
1732083281.174459,1732083281.176323,80.000000,0.000000,4380.000000,4307.307617,4304.487305,4310.000000,4259.102539,4261.666504,4292.948730,4295.128418,4278.717773,4275.384766,4455.384766,4495.769043,4359.487305,4460.641113,1750.000000,0.000000,6.000000,,,,0.000000,2.000000,2.000000,0.000000,2.000000,2.000000,2.000000,0.000000,2.000000,4.000000,4.000000,4.000000,4.000000,2.000000,4.000000,16.666666,,,,,,,,,,,,,,,,,20.000000,0.000000,0.610094,0.397705,-0.588562,0.351013,0.975217,0.057136,0.000000,-75.714531,61.418938,30.531637
1732083281.182267,1732083281.184131,81.000000,0.000000,4377.179688,4306.153809,4305.128418,4315.000000,4263.205078,4263.205078,4292.436035,4287.692383,4273.333496,4271.410156,4456.538574,4503.205078,4356.794922,4457.692383,1594.000000,0.000000,6.000000,,,,0.000000,2.000000,2.000000,0.000000,2.000000,2.000000,2.000000,0.000000,2.000000,4.000000,4.000000,4.000000,4.000000,2.000000,4.000000,16.666666,,,,,,,,,,,,,,,,,,,,,,,,,,,,
1732083281.190075,1732083281.192139,82.000000,0.000000,4372.820313,4304.871582,4307.563965,4314.743652,4265.000000,4265.641113,4289.871582,4288.205078,4273.717773,4266.025879,4444.615234,4500.256348,4346.922852,4455.256348,1379.000000,0.000000,6.000000,,,,0.000000,2.000000,2.000000,0.000000,2.000000,2.000000,2.000000,0.000000,2.000000,4.000000,4.000000,4.000000,4.000000,2.000000,4.000000,16.666666,,,,,,,,,,,,,,,,,,,,,,,,,,,,
1732083281.197883,1732083281.199947,83.000000,0.000000,4379.615234,4307.692383,4310.512695,4314.743652,4258.461426,4266.410156,4291.666504,4295.512695,4275.256348,4267.051270,4444.487305,4497.051270,4349.102539,4457.051270,1513.000000,0.000000,6.000000,,,,0.000000,2.000000,2.000000,0.000000,2.000000,2.000000,2.000000,0.000000,2.000000,4.000000,4.000000,4.000000,4.000000,2.000000,4.000000,16.666666,,,,,,,,,,,,,,,,,,,,,,,,,,,,
1732083281.205692,1732083281.207655,84.000000,0.000000,4386.153809,4310.128418,4310.128418,4320.000000,4255.256348,4265.512695,4291.794922,4297.179688,4274.743652,4276.025879,4456.282227,4505.000000,4357.179688,4459.230957,1750.000000,0.000000,6.000000,,,,0.000000,2.000000,2.000000,0.000000,2.000000,2.000000,2.000000,0.000000,2.000000,4.000000,4.000000,4.000000,4.000000,2.000000,4.000000,16.666666,,,,,,,,,,,,,,,,,21.000000,0.000000,0.604327,0.401794,-0.589905,0.354065,0.962520,0.047857,-0.030765,-75.948769,60.894341,30.247293
1732083281.213500,1732083281.215463,85.000000,0.000000,4384.615234,4308.846191,4310.000000,4321.410156,4262.307617,4265.000000,4290.897461,4286.538574,4270.897461,4274.743652,4454.871582,4508.846191,4357.820313,4459.743652,1594.000000,0.000000,6.000000,,,,0.000000,2.000000,2.000000,0.000000,2.000000,2.000000,2.000000,0.000000,2.000000,4.000000,4.000000,4.000000,4.000000,2.000000,4.000000,16.666666,,,,,,,,,,,,,,,,,,,,,,,,,,,,
1732083281.221308,1732083281.223072,86.000000,0.000000,4384.102539,4307.692383,4307.563965,4317.307617,4261.282227,4264.487305,4291.410156,4281.538574,4269.358887,4261.410156,4449.743652,4500.128418,4355.384766,4456.153809,1379.000000,0.000000,6.000000,,,,0.000000,2.000000,2.000000,0.000000,2.000000,2.000000,2.000000,0.000000,2.000000,4.000000,4.000000,4.000000,4.000000,2.000000,4.000000,16.666666,,,,,,,,,,,,,,,,,,,,,,,,,,,,
1732083281.229117,1732083281.230880,87.000000,0.000000,4387.307617,4308.077148,4303.846191,4316.410156,4261.410156,4270.128418,4293.461426,4291.153809,4273.333496,4260.256348,4452.692383,4496.153809,4352.692383,4451.282227,1513.000000,0.000000,6.000000,,,,0.000000,2.000000,2.000000,0.000000,2.000000,2.000000,2.000000,0.000000,2.000000,4.000000,4.000000,4.000000,4.000000,2.000000,4.000000,16.666666,,,,,,,,,,,,,,,,,,,,,,,,,,,,
1732083281.236925,1732083281.238588,88.000000,0.000000,4387.563965,4306.538574,4302.563965,4319.743652,4278.846191,4276.666504,4290.384766,4294.230957,4278.333496,4271.538574,4454.230957,4501.282227,4349.230957,4452.307617,1750.000000,0.000000,6.000000,,,,0.000000,2.000000,2.000000,0.000000,2.000000,2.000000,2.000000,0.000000,2.000000,4.000000,4.000000,4.000000,4.000000,2.000000,4.000000,16.666666,,,,,,,,,,,,,,,,,22.000000,0.000000,0.601946,0.403625,-0.590759,0.354614,0.965938,0.075204,-0.027347,-76.158501,60.422749,30.003641
1732083281.244733,1732083281.246397,89.000000,0.000000,4389.487305,4305.897461,4300.384766,4318.333496,4277.307617,4274.615234,4288.589844,4293.205078,4280.641113,4276.922852,4454.743652,4504.487305,4353.205078,4460.384766,1594.000000,0.000000,6.000000,,,,0.000000,2.000000,2.000000,0.000000,2.000000,2.000000,2.000000,0.000000,2.000000,4.000000,4.000000,4.000000,4.000000,2.000000,4.000000,16.666666,,,,,,,,,,,,,,,,,,,,,,,,,,,,
1732083281.252541,1732083281.254005,90.000000,0.000000,4392.563965,4308.077148,4299.358887,4315.128418,4256.538574,4274.871582,4288.974121,4300.641113,4283.077148,4275.769043,4458.846191,4502.179688,4357.563965,4462.563965,1379.000000,0.000000,6.000000,,,,0.000000,2.000000,2.000000,0.000000,2.000000,2.000000,2.000000,0.000000,2.000000,4.000000,4.000000,4.000000,4.000000,2.000000,4.000000,16.666666,,,,,,,,,,,,,,,,,,,,,,,,,,,,
1732083281.260350,1732083281.261813,91.000000,0.000000,4386.282227,4306.666504,4300.641113,4317.948730,4260.256348,4283.461426,4287.692383,4301.666504,4283.333496,4278.461426,4463.077148,4497.307617,4355.897461,4458.205078,1513.000000,0.000000,6.000000,,,,0.000000,2.000000,2.000000,0.000000,2.000000,2.000000,2.000000,0.000000,2.000000,4.000000,4.000000,4.000000,4.000000,2.000000,4.000000,16.666666,,,,,,,,,,,,,,,,,,,,,,,,,,,,
1732083281.268158,1732083281.269522,92.000000,0.000000,4379.487305,4301.794922,4299.358887,4319.743652,4271.410156,4284.230957,4287.436035,4294.358887,4280.384766,4280.256348,4462.051270,4494.230957,4357.563965,4461.153809,1750.000000,0.000000,6.000000,,,,0.000000,2.000000,2.000000,0.000000,2.000000,2.000000,2.000000,0.000000,2.000000,4.000000,4.000000,4.000000,4.000000,2.000000,4.000000,16.666666,,,,,,,,,,,,,,,,,23.000000,0.000000,0.600890,0.404358,-0.591187,0.354858,0.967892,0.079111,-0.038091,-76.520050,60.154091,29.561283
1732083281.275966,1732083281.277330,93.000000,0.000000,4379.358887,4300.769043,4299.487305,4314.743652,4264.487305,4277.948730,4287.307617,4296.922852,4282.563965,4281.025879,4459.871582,4490.769043,4358.589844,4463.589844,1594.000000,0.000000,6.000000,,,,0.000000,2.000000,2.000000,0.000000,2.000000,2.000000,2.000000,0.000000,2.000000,4.000000,4.000000,4.000000,4.000000,2.000000,4.000000,16.666666,,,,,,,,,,,,,,,,,,,,,,,,,,,,
1732083281.283774,1732083281.284938,94.000000,0.000000,4379.230957,4303.333496,4306.025879,4314.743652,4260.384766,4281.025879,4288.461426,4303.205078,4286.025879,4282.307617,4458.846191,4491.025879,4352.307617,4461.538574,1379.000000,0.000000,6.000000,,,,0.000000,2.000000,2.000000,0.000000,2.000000,2.000000,2.000000,0.000000,2.000000,4.000000,4.000000,4.000000,4.000000,2.000000,4.000000,16.666666,,,,,,,,,,,,,,,,,,,,,,,,,,,,
1732083281.291583,1732083281.292746,95.000000,0.000000,4377.051270,4304.871582,4306.666504,4322.436035,4266.794922,4286.153809,4292.307617,4299.743652,4284.743652,4283.461426,4461.538574,4494.615234,4351.282227,4469.102539,1513.000000,0.000000,6.000000,,,,0.000000,2.000000,2.000000,0.000000,2.000000,2.000000,2.000000,0.000000,2.000000,4.000000,4.000000,4.000000,4.000000,2.000000,4.000000,16.666666,,,,,,,,,,,,,,,,,,,,,,,,,,,,
1732083281.299391,1732083281.300455,96.000000,0.000000,4373.974121,4303.974121,4304.102539,4323.846191,4266.282227,4282.307617,4294.230957,4296.025879,4283.461426,4285.128418,4461.794922,4495.897461,4356.410156,4476.666504,1750.000000,0.000000,6.000000,,,,0.000000,2.000000,2.000000,0.000000,2.000000,2.000000,2.000000,0.000000,2.000000,4.000000,4.000000,4.000000,4.000000,2.000000,4.000000,16.666666,,,,,,,,,,,,,,,,,24.000000,0.000000,0.599057,0.404968,-0.592224,0.355530,0.984984,0.071786,-0.053229,-76.769577,60.093147,29.042973
1732083281.307199,1732083281.308263,97.000000,0.000000,4370.769043,4303.589844,4307.179688,4318.333496,4263.589844,4278.077148,4289.230957,4296.153809,4286.410156,4283.589844,4459.615234,4492.307617,4355.512695,4473.717773,1594.000000,0.000000,6.000000,,,,0.000000,2.000000,2.000000,0.000000,2.000000,2.000000,2.000000,0.000000,2.000000,4.000000,4.000000,4.000000,4.000000,2.000000,4.000000,16.666666,,,,,,,,,,,,,,,,,,,,,,,,,,,,
1732083281.315007,1732083281.315871,98.000000,0.000000,4367.436035,4300.897461,4313.846191,4315.769043,4264.230957,4278.205078,4291.666504,4297.820313,4287.692383,4285.128418,4460.128418,4494.743652,4351.025879,4472.179688,1379.000000,0.000000,6.000000,,,,0.000000,2.000000,2.000000,0.000000,2.000000,2.000000,2.000000,0.000000,2.000000,4.000000,4.000000,4.000000,4.000000,2.000000,4.000000,16.666666,,,,,,,,,,,,,,,,,,,,,,,,,,,,
1732083281.322816,1732083281.323679,99.000000,0.000000,4363.205078,4296.922852,4312.820313,4316.538574,4265.641113,4280.128418,4298.461426,4305.897461,4289.230957,4291.922852,4465.384766,4504.358887,4352.948730,4478.589844,1513.000000,0.000000,6.000000,,,,0.000000,2.000000,2.000000,0.000000,2.000000,2.000000,2.000000,0.000000,2.000000,4.000000,4.000000,4.000000,4.000000,2.000000,4.000000,16.666666,,,,,,,,,,,,,,,,,,,,,,,,,,,,
1732083281.330624,1732083281.331588,100.000000,0.000000,4357.692383,4297.051270,4313.333496,4316.922852,4270.769043,4285.000000,4302.948730,4312.179688,4292.948730,4290.769043,4468.974121,4509.615234,4356.410156,4480.384766,1750.000000,0.000000,6.000000,,,,0.000000,2.000000,2.000000,0.000000,2.000000,2.000000,2.000000,0.000000,2.000000,4.000000,4.000000,4.000000,4.000000,2.000000,4.000000,16.666666,,,,,,,,,,,,,,,,,25.000000,0.000000,0.594285,0.403503,-0.596619,0.357849,1.018679,0.019045,-0.046881,-76.950020,59.870449,28.574808
1732083281.338432,1732083281.339396,101.000000,0.000000,4356.153809,4300.000000,4316.922852,4316.794922,4273.846191,4287.692383,4300.384766,4303.846191,4292.563965,4289.358887,4463.461426,4506.025879,4355.512695,4476.538574,1594.000000,0.000000,6.000000,,,,0.000000,2.000000,2.000000,0.000000,2.000000,2.000000,2.000000,0.000000,2.000000,4.000000,4.000000,4.000000,4.000000,2.000000,4.000000,16.666666,,,,,,,,,,,,,,,,,,,,,,,,,,,,
1732083281.346240,1732083281.347004,102.000000,0.000000,4355.000000,4298.333496,4318.205078,4313.205078,4271.025879,4282.307617,4299.871582,4293.333496,4289.358887,4294.487305,4457.820313,4501.794922,4353.077148,4474.615234,1379.000000,0.000000,6.000000,,,,0.000000,2.000000,2.000000,0.000000,2.000000,2.000000,2.000000,0.000000,2.000000,4.000000,4.000000,4.000000,4.000000,2.000000,4.000000,16.666666,,,,,,,,,,,,,,,,,,,,,,,,,,,,
1732083281.354049,1732083281.354812,103.000000,0.000000,4350.641113,4293.589844,4317.307617,4310.769043,4268.077148,4279.487305,4301.282227,4300.128418,4293.589844,4296.666504,4460.512695,4504.230957,4349.743652,4474.102539,1513.000000,0.000000,6.000000,,,,0.000000,2.000000,2.000000,0.000000,2.000000,2.000000,2.000000,0.000000,2.000000,4.000000,4.000000,4.000000,4.000000,2.000000,4.000000,16.666666,,,,,,,,,,,,,,,,,,,,,,,,,,,,
1732083281.361857,1732083281.362721,104.000000,0.000000,4347.563965,4293.846191,4319.743652,4312.820313,4277.051270,4280.897461,4303.589844,4305.897461,4298.461426,4296.538574,4462.692383,4507.563965,4349.743652,4474.871582,1750.000000,0.000000,6.000000,,,,0.000000,2.000000,2.000000,0.000000,2.000000,2.000000,2.000000,0.000000,2.000000,4.000000,4.000000,4.000000,4.000000,2.000000,4.000000,16.666666,,,,,,,,,,,,,,,,,26.000000,0.000000,0.590509,0.399963,-0.602539,0.358154,0.994750,-0.001465,-0.053229,-77.109520,59.538399,28.330595
1732083281.369665,1732083281.370529,105.000000,0.000000,4349.102539,4294.358887,4321.153809,4314.102539,4285.384766,4280.641113,4303.205078,4296.410156,4294.487305,4297.948730,4461.410156,4506.922852,4353.846191,4474.871582,1594.000000,0.000000,6.000000,,,,0.000000,2.000000,2.000000,0.000000,2.000000,2.000000,2.000000,0.000000,2.000000,4.000000,4.000000,4.000000,4.000000,2.000000,4.000000,16.666666,,,,,,,,,,,,,,,,,,,,,,,,,,,,
1732083281.377473,1732083281.378137,106.000000,0.000000,4351.282227,4294.358887,4320.000000,4313.589844,4274.487305,4278.589844,4300.256348,4292.436035,4291.410156,4295.512695,4460.641113,4506.025879,4355.769043,4475.641113,1379.000000,0.000000,6.000000,,,,0.000000,2.000000,2.000000,0.000000,2.000000,2.000000,2.000000,0.000000,2.000000,4.000000,4.000000,4.000000,4.000000,2.000000,4.000000,16.666666,,,,,,,,,,,,,,,,,,,,,,,,,,,,
1732083281.385282,1732083281.385945,107.000000,0.000000,4349.230957,4294.358887,4320.512695,4314.743652,4268.205078,4280.641113,4299.871582,4300.897461,4293.205078,4292.820313,4461.794922,4507.820313,4351.538574,4474.871582,1513.000000,0.000000,6.000000,,,,0.000000,2.000000,2.000000,0.000000,2.000000,2.000000,2.000000,0.000000,2.000000,4.000000,4.000000,4.000000,4.000000,2.000000,4.000000,16.666666,,,,,,,,,,,,,,,,,,,,,,,,,,,,
1732083281.393090,1732083281.393654,108.000000,0.000000,4344.871582,4294.743652,4317.307617,4315.769043,4280.256348,4291.538574,4301.282227,4306.025879,4295.128418,4293.205078,4459.743652,4506.538574,4347.436035,4472.692383,1750.000000,0.000000,6.000000,,,,0.000000,2.000000,2.000000,0.000000,2.000000,2.000000,2.000000,0.000000,2.000000,4.000000,4.000000,4.000000,4.000000,2.000000,4.000000,16.666666,,,,,,,,,,,,,,,,,27.000000,0.000000,0.589542,0.398804,-0.604614,0.357544,0.955195,0.004395,-0.067391,-77.152046,59.277767,28.204449
1732083281.400898,1732083281.401462,109.000000,0.000000,4344.358887,4294.743652,4317.179688,4313.717773,4284.487305,4295.000000,4300.256348,4300.769043,4294.487305,4290.128418,4459.487305,4503.846191,4350.769043,4472.820313,1594.000000,0.000000,6.000000,,,,0.000000,2.000000,2.000000,0.000000,2.000000,2.000000,2.000000,0.000000,2.000000,4.000000,4.000000,4.000000,4.000000,2.000000,4.000000,16.666666,,,,,,,,,,,,,,,,,,,,,,,,,,,,
1732083281.408707,1732083281.409470,110.000000,0.000000,4346.282227,4294.102539,4320.000000,4313.461426,4276.410156,4282.948730,4295.641113,4295.641113,4293.589844,4293.589844,4468.589844,4505.256348,4354.487305,4475.897461,1379.000000,0.000000,6.000000,,,,0.000000,2.000000,2.000000,0.000000,2.000000,2.000000,2.000000,0.000000,2.000000,4.000000,4.000000,4.000000,4.000000,2.000000,4.000000,16.666666,,,,,,,,,,,,,,,,,,,,,,,,,,,,
1732083281.416515,1732083281.417278,111.000000,0.000000,4347.179688,4296.922852,4315.384766,4317.948730,4278.461426,4279.615234,4294.615234,4295.000000,4292.563965,4299.358887,4474.743652,4508.846191,4354.102539,4477.692383,1513.000000,0.000000,6.000000,,,,0.000000,2.000000,2.000000,0.000000,2.000000,2.000000,2.000000,0.000000,2.000000,4.000000,4.000000,4.000000,4.000000,2.000000,4.000000,16.666666,,,,,,,,,,,,,,,,,,,,,,,,,,,,
1732083281.424323,1732083281.425186,112.000000,0.000000,4346.666504,4301.794922,4307.051270,4321.538574,4285.384766,4285.384766,4294.487305,4297.436035,4292.307617,4293.974121,4472.436035,4508.077148,4354.615234,4477.436035,1750.000000,0.000000,6.000000,,,,0.000000,2.000000,2.000000,0.000000,2.000000,2.000000,2.000000,0.000000,2.000000,4.000000,4.000000,4.000000,4.000000,2.000000,4.000000,16.666666,,,,,,,,,,,,,,,,,28.000000,0.000000,0.586991,0.396484,-0.610107,0.354980,0.971310,0.007813,-0.093761,-77.388153,58.889992,27.945602
1732083281.432131,1732083281.432994,113.000000,0.000000,4338.077148,4299.230957,4308.717773,4317.692383,4283.333496,4286.153809,4296.538574,4302.051270,4297.307617,4292.820313,4472.692383,4504.871582,4354.358887,4475.512695,1594.000000,0.000000,6.000000,,,,0.000000,2.000000,2.000000,0.000000,2.000000,2.000000,2.000000,0.000000,2.000000,4.000000,4.000000,4.000000,4.000000,2.000000,4.000000,16.666666,,,,,,,,,,,,,,,,,,,,,,,,,,,,
1732083281.439940,1732083281.441002,114.000000,0.000000,4328.077148,4295.000000,4310.384766,4309.871582,4284.871582,4286.922852,4296.410156,4304.358887,4303.333496,4305.769043,4475.897461,4504.358887,4354.230957,4472.692383,1379.000000,0.000000,6.000000,,,,0.000000,2.000000,2.000000,0.000000,2.000000,2.000000,2.000000,0.000000,2.000000,4.000000,4.000000,4.000000,4.000000,2.000000,4.000000,16.666666,,,,,,,,,,,,,,,,,,,,,,,,,,,,
1732083281.447748,1732083281.448811,115.000000,0.000000,4325.384766,4301.153809,4308.974121,4311.025879,4286.282227,4289.358887,4295.384766,4305.512695,4304.871582,4312.051270,4473.846191,4503.205078,4356.410156,4472.563965,1513.000000,0.000000,6.000000,,,,0.000000,2.000000,2.000000,0.000000,2.000000,2.000000,2.000000,0.000000,2.000000,4.000000,4.000000,4.000000,4.000000,2.000000,4.000000,16.666666,,,,,,,,,,,,,,,,,,,,,,,,,,,,
1732083281.455556,1732083281.456719,116.000000,0.000000,4330.512695,4310.256348,4308.589844,4320.000000,4285.128418,4288.717773,4295.384766,4311.153809,4305.256348,4308.077148,4472.692383,4503.333496,4358.846191,4475.256348,1750.000000,0.000000,6.000000,,,,0.000000,2.000000,2.000000,0.000000,2.000000,2.000000,2.000000,0.000000,2.000000,4.000000,4.000000,4.000000,4.000000,2.000000,4.000000,16.666666,,,,,,,,,,,,,,,,,29.000000,0.000000,0.584529,0.395874,-0.613953,0.353088,0.945428,0.057136,-0.112807,-77.437737,58.597561,27.549271
1732083281.463364,1732083281.464527,117.000000,0.000000,4330.512695,4308.333496,4311.538574,4320.384766,4287.179688,4291.410156,4298.589844,4313.974121,4307.307617,4307.948730,4474.487305,4505.128418,4355.000000,4474.615234,1594.000000,0.000000,6.000000,,,,0.000000,2.000000,2.000000,0.000000,2.000000,2.000000,2.000000,0.000000,2.000000,4.000000,4.000000,4.000000,4.000000,2.000000,4.000000,16.666666,,,,,,,,,,,,,,,,,,,,,,,,,,,,
1732083281.471173,1732083281.472535,118.000000,0.000000,4324.230957,4303.846191,4313.717773,4313.333496,4287.820313,4291.153809,4297.563965,4306.922852,4303.846191,4309.743652,4474.358887,4505.000000,4354.871582,4473.461426,1379.000000,0.000000,6.000000,,,,0.000000,2.000000,2.000000,0.000000,2.000000,2.000000,2.000000,0.000000,2.000000,4.000000,4.000000,4.000000,4.000000,2.000000,4.000000,16.666666,,,,,,,,,,,,,,,,,,,,,,,,,,,,
1732083281.478981,1732083281.480343,119.000000,0.000000,4330.128418,4306.538574,4315.512695,4316.666504,4285.641113,4287.436035,4298.461426,4308.461426,4302.563965,4310.128418,4478.461426,4507.692383,4361.666504,4476.922852,1513.000000,0.000000,6.000000,,,,0.000000,2.000000,2.000000,0.000000,2.000000,2.000000,2.000000,0.000000,2.000000,4.000000,4.000000,4.000000,4.000000,2.000000,4.000000,16.666666,,,,,,,,,,,,,,,,,,,,,,,,,,,,
1732083281.486789,1732083281.488251,120.000000,0.000000,4342.051270,4313.077148,4316.282227,4328.333496,4289.487305,4294.230957,4300.256348,4314.230957,4308.205078,4310.641113,4477.820313,4510.384766,4360.128418,4480.128418,1750.000000,0.000000,6.000000,,,,0.000000,2.000000,2.000000,0.000000,2.000000,2.000000,2.000000,0.000000,2.000000,4.000000,4.000000,4.000000,4.000000,2.000000,4.000000,16.666666,,,,,,,,,,,,,,,,,30.000000,0.000000,0.583765,0.396057,-0.614807,0.352661,0.945428,0.057136,-0.112807,-77.489571,58.367359,27.231577
1732083281.494598,1732083281.496059,121.000000,0.000000,4337.692383,4316.666504,4313.974121,4332.692383,4288.717773,4293.846191,4298.077148,4305.769043,4301.794922,4303.974121,4473.205078,4510.384766,4355.128418,4483.333496,1594.000000,0.000000,6.000000,,,,0.000000,2.000000,2.000000,0.000000,2.000000,2.000000,2.000000,0.000000,2.000000,4.000000,4.000000,4.000000,4.000000,2.000000,4.000000,16.666666,,,,,,,,,,,,,,,,,,,,,,,,,,,,
1732083281.502406,1732083281.504067,122.000000,0.000000,4327.436035,4312.820313,4311.410156,4327.051270,4278.589844,4283.589844,4296.153809,4300.641113,4295.897461,4307.692383,4482.820313,4518.974121,4361.794922,4491.922852,1379.000000,0.000000,6.000000,,,,0.000000,2.000000,2.000000,0.000000,2.000000,2.000000,2.000000,0.000000,2.000000,4.000000,4.000000,4.000000,4.000000,2.000000,4.000000,16.666666,,,,,,,,,,,,,,,,,,,,,,,,,,,,
1732083281.510214,1732083281.511876,123.000000,0.000000,4330.897461,4306.282227,4312.179688,4320.512695,4278.717773,4288.589844,4298.589844,4311.538574,4304.102539,4321.153809,4493.077148,4527.179688,4371.025879,4493.077148,1513.000000,0.000000,6.000000,,,,0.000000,2.000000,2.000000,0.000000,2.000000,2.000000,2.000000,0.000000,2.000000,4.000000,4.000000,4.000000,4.000000,2.000000,4.000000,16.666666,,,,,,,,,,,,,,,,,,,,,,,,,,,,
1732083281.518022,1732083281.519784,124.000000,0.000000,4332.820313,4310.897461,4311.282227,4318.846191,4283.333496,4297.563965,4298.461426,4313.077148,4303.333496,4310.256348,4481.410156,4518.205078,4362.307617,4480.769043,1750.000000,0.000000,6.000000,,,,0.000000,2.000000,2.000000,0.000000,2.000000,2.000000,2.000000,0.000000,2.000000,4.000000,4.000000,4.000000,4.000000,2.000000,4.000000,16.666666,,,,,,,,,,,,,,,,,31.000000,0.000000,0.583011,0.396301,-0.615540,0.352356,0.983030,0.035649,-0.097180,-77.636551,58.207561,26.882578
1732083281.525831,1732083281.527592,125.000000,0.000000,4322.563965,4318.589844,4305.000000,4317.051270,4281.794922,4296.025879,4293.846191,4299.743652,4293.846191,4295.000000,4462.948730,4505.641113,4348.333496,4471.794922,1594.000000,0.000000,6.000000,,,,0.000000,2.000000,2.000000,0.000000,2.000000,2.000000,2.000000,0.000000,2.000000,4.000000,4.000000,4.000000,4.000000,2.000000,4.000000,16.666666,,,,,,,,,,,,,,,,,,,,,,,,,,,,
1732083281.533639,1732083281.535600,126.000000,0.000000,4314.615234,4310.769043,4304.615234,4310.128418,4281.282227,4297.307617,4296.153809,4301.794922,4298.846191,4306.282227,4466.025879,4501.922852,4349.743652,4474.102539,1379.000000,0.000000,6.000000,,,,0.000000,2.000000,2.000000,0.000000,2.000000,2.000000,2.000000,0.000000,2.000000,4.000000,4.000000,4.000000,4.000000,2.000000,4.000000,16.666666,,,,,,,,,,,,,,,,,,,,,,,,,,,,
1732083281.541447,1732083281.543408,127.000000,0.000000,4310.897461,4301.538574,4305.769043,4306.538574,4280.384766,4300.641113,4297.563965,4311.794922,4305.769043,4313.205078,4469.615234,4493.717773,4350.000000,4467.692383,6.000000,0.000000,6.000000,,,,0.000000,2.000000,2.000000,0.000000,2.000000,2.000000,2.000000,0.000000,2.000000,4.000000,4.000000,4.000000,4.000000,2.000000,4.000000,16.666666,,,,,,,,,,,,,,,,,,,,,,,,,,,,
1732083281.549255,1732083281.551316,0.000000,0.000000,4304.871582,4308.077148,4304.358887,4307.948730,4280.512695,4294.743652,4295.769043,4311.666504,4302.179688,4305.256348,4460.769043,4484.487305,4338.717773,4458.333496,0.000000,0.000000,6.000000,,,,0.000000,2.000000,2.000000,0.000000,2.000000,2.000000,2.000000,0.000000,2.000000,4.000000,4.000000,4.000000,4.000000,2.000000,4.000000,16.666666,,,,,,,,,,,,,,,,,0.000000,0.000000,0.580357,0.395935,-0.618103,0.352661,0.976682,-0.035161,-0.094250,-77.758942,58.014790,26.683220
1732083281.557064,1732083281.559125,1.000000,0.000000,4306.025879,4317.436035,4305.897461,4310.897461,4286.153809,4293.846191,4296.025879,4313.205078,4307.179688,4308.077148,4462.692383,4488.974121,4339.615234,4465.512695,1319.000000,0.000000,6.000000,,,,0.000000,2.000000,2.000000,0.000000,2.000000,2.000000,2.000000,0.000000,2.000000,4.000000,4.000000,4.000000,4.000000,2.000000,4.000000,16.666666,,,,,,,,,,,,,,,,,,,,,,,,,,,,
1732083281.564872,1732083281.567133,2.000000,0.000000,4311.410156,4317.948730,4309.871582,4313.846191,4287.051270,4298.974121,4299.102539,4314.358887,4312.179688,4313.077148,4471.282227,4493.333496,4352.692383,4472.948730,1249.000000,0.000000,6.000000,,,,0.000000,2.000000,2.000000,0.000000,2.000000,2.000000,2.000000,0.000000,2.000000,4.000000,4.000000,4.000000,4.000000,2.000000,4.000000,16.666666,,,,,,,,,,,,,,,,,,,,,,,,,,,,
1732083281.572680,1732083281.574941,3.000000,0.000000,4311.282227,4316.538574,4306.794922,4314.230957,4283.205078,4295.897461,4296.538574,4310.128418,4309.487305,4309.871582,4471.282227,4488.589844,4353.589844,4468.717773,1189.000000,0.000000,6.000000,,,,0.000000,2.000000,2.000000,0.000000,2.000000,2.000000,2.000000,0.000000,2.000000,4.000000,4.000000,4.000000,4.000000,2.000000,4.000000,16.666666,,,,,,,,,,,,,,,,,,,,,,,,,,,,
1732083281.580488,1732083281.582649,4.000000,0.000000,4308.846191,4315.769043,4307.051270,4308.974121,4283.717773,4292.179688,4297.307617,4310.128418,4309.487305,4307.307617,4468.077148,4486.666504,4346.410156,4464.358887,1214.000000,0.000000,6.000000,,,,0.000000,2.000000,2.000000,0.000000,2.000000,2.000000,2.000000,0.000000,2.000000,4.000000,4.000000,4.000000,4.000000,2.000000,4.000000,16.666666,,,,,,,,,,,,,,,,,1.000000,0.000000,0.579787,0.394958,-0.619019,0.353088,0.976682,-0.035161,-0.094250,-77.963074,57.663647,26.521742
1732083281.588297,1732083281.590457,5.000000,0.000000,4310.000000,4314.102539,4309.871582,4305.256348,4283.846191,4293.589844,4298.461426,4312.692383,4311.282227,4304.615234,4468.333496,4486.538574,4346.538574,4463.717773,1087.000000,0.000000,6.000000,,,,0.000000,2.000000,2.000000,0.000000,2.000000,2.000000,2.000000,0.000000,2.000000,4.000000,4.000000,4.000000,4.000000,2.000000,4.000000,16.666666,,,,,,,,,,,,,,,,,,,,,,,,,,,,
1732083281.596105,1732083281.598066,6.000000,0.000000,4310.000000,4314.230957,4310.897461,4307.948730,4286.794922,4295.128418,4297.820313,4308.077148,4307.436035,4299.871582,4462.051270,4480.769043,4340.769043,4457.179688,5.000000,0.000000,6.000000,,,,0.000000,2.000000,2.000000,0.000000,2.000000,2.000000,2.000000,0.000000,2.000000,4.000000,4.000000,4.000000,4.000000,2.000000,4.000000,16.666666,,,,,,,,,,,,,,,,,,,,,,,,,,,,
1732083281.603913,1732083281.605874,7.000000,0.000000,4308.846191,4315.000000,4310.769043,4312.051270,4294.615234,4297.436035,4296.410156,4305.384766,4303.974121,4296.282227,4454.358887,4474.487305,4330.000000,4451.282227,1184.000000,0.000000,6.000000,,,,0.000000,2.000000,2.000000,0.000000,2.000000,2.000000,2.000000,0.000000,2.000000,4.000000,4.000000,4.000000,4.000000,2.000000,4.000000,16.666666,,,,,,,,,,,,,,,,,,,,,,,,,,,,
1732083281.611721,1732083281.613582,8.000000,0.000000,4304.230957,4311.922852,4309.230957,4307.436035,4291.538574,4299.871582,4296.153809,4310.000000,4310.769043,4296.922852,4459.230957,4474.102539,4334.487305,4453.589844,1369.000000,0.000000,6.000000,,,,0.000000,2.000000,2.000000,0.000000,2.000000,2.000000,2.000000,0.000000,2.000000,4.000000,4.000000,4.000000,4.000000,2.000000,4.000000,16.666666,,,,,,,,,,,,,,,,,2.000000,0.000000,0.578733,0.390869,-0.621826,0.354431,0.975217,-0.044927,-0.062996,-77.970093,57.474220,26.549278
1732083281.619530,1732083281.621390,9.000000,0.000000,4297.051270,4308.461426,4305.128418,4303.846191,4285.000000,4296.922852,4297.179688,4311.153809,4314.358887,4299.102539,4463.333496,4476.025879,4346.538574,4457.307617,1511.000000,0.000000,6.000000,,,,0.000000,2.000000,2.000000,0.000000,2.000000,2.000000,2.000000,0.000000,2.000000,4.000000,4.000000,4.000000,4.000000,2.000000,4.000000,16.666666,,,,,,,,,,,,,,,,,,,,,,,,,,,,
1732083281.627338,1732083281.628999,10.000000,0.000000,4296.666504,4307.051270,4303.717773,4306.282227,4289.487305,4298.205078,4299.743652,4310.384766,4308.077148,4292.179688,4454.487305,4475.769043,4340.897461,4452.179688,1377.000000,0.000000,6.000000,,,,0.000000,2.000000,2.000000,0.000000,2.000000,2.000000,2.000000,0.000000,2.000000,4.000000,4.000000,4.000000,4.000000,2.000000,4.000000,16.666666,,,,,,,,,,,,,,,,,,,,,,,,,,,,
1732083281.635146,1732083281.636807,11.000000,0.000000,4296.666504,4301.794922,4304.358887,4302.051270,4293.974121,4306.666504,4299.358887,4313.717773,4309.230957,4291.282227,4446.538574,4474.358887,4330.256348,4443.589844,1509.000000,0.000000,6.000000,,,,0.000000,2.000000,2.000000,0.000000,2.000000,2.000000,2.000000,0.000000,2.000000,4.000000,4.000000,4.000000,4.000000,2.000000,4.000000,16.666666,,,,,,,,,,,,,,,,,,,,,,,,,,,,
1732083281.642954,1732083281.644515,12.000000,0.000000,4294.615234,4296.666504,4300.769043,4293.974121,4292.948730,4305.641113,4299.230957,4315.641113,4319.358887,4310.000000,4459.102539,4477.948730,4342.051270,4448.461426,1743.000000,0.000000,6.000000,,,,0.000000,2.000000,2.000000,0.000000,2.000000,2.000000,2.000000,0.000000,2.000000,4.000000,4.000000,4.000000,4.000000,2.000000,4.000000,16.666666,,,,,,,,,,,,,,,,,3.000000,0.000000,0.578784,0.385376,-0.624817,0.355103,0.992797,-0.037602,-0.067879,-78.167442,57.312450,26.118248
1732083281.650763,1732083281.652324,13.000000,0.000000,4298.333496,4302.179688,4302.051270,4299.358887,4292.948730,4299.358887,4302.179688,4312.307617,4318.589844,4312.563965,4464.615234,4481.666504,4350.512695,4456.794922,1596.000000,0.000000,6.000000,,,,0.000000,2.000000,2.000000,0.000000,2.000000,2.000000,2.000000,0.000000,2.000000,4.000000,4.000000,4.000000,4.000000,2.000000,4.000000,16.666666,,,,,,,,,,,,,,,,,,,,,,,,,,,,
1732083281.658571,1732083281.659932,14.000000,0.000000,4299.358887,4308.077148,4307.307617,4307.051270,4296.153809,4302.820313,4298.846191,4308.846191,4312.051270,4295.256348,4449.102539,4475.769043,4336.794922,4450.256348,1377.000000,0.000000,6.000000,,,,0.000000,2.000000,2.000000,0.000000,2.000000,2.000000,2.000000,0.000000,2.000000,4.000000,4.000000,4.000000,4.000000,2.000000,4.000000,16.666666,1.000000,16.666666,2.000000,2.000000,0.000000,2.000000,2.000000,2.000000,0.000000,2.000000,4.000000,4.000000,4.000000,4.000000,2.000000,3.000000,,,,,,,,,,,,
1732083281.666379,1732083281.667740,15.000000,0.000000,4297.692383,4304.358887,4307.051270,4305.769043,4295.128418,4303.077148,4295.512695,4310.128418,4315.769043,4298.461426,4449.743652,4478.077148,4339.358887,4447.436035,1509.000000,0.000000,6.000000,,,,0.000000,2.000000,2.000000,0.000000,2.000000,2.000000,2.000000,0.000000,2.000000,4.000000,4.000000,4.000000,4.000000,2.000000,4.000000,16.666666,,,,,,,,,,,,,,,,,,,,,,,,,,,,
1732083281.674188,1732083281.675448,16.000000,0.000000,4301.794922,4304.358887,4303.333496,4305.897461,4292.307617,4295.512695,4297.179688,4310.256348,4313.717773,4312.948730,4462.692383,4486.794922,4349.358887,4454.871582,0.000000,0.000000,6.000000,,,,0.000000,2.000000,2.000000,0.000000,2.000000,2.000000,2.000000,0.000000,2.000000,4.000000,4.000000,4.000000,4.000000,2.000000,4.000000,16.666666,,,,,,,,,,,,,,,,,4.000000,0.000000,0.579561,0.382690,-0.626404,0.353943,1.011842,-0.015139,-0.082041,-78.240623,57.033085,25.924114
1732083281.681996,1732083281.683257,17.000000,0.000000,4304.358887,4305.256348,4306.282227,4307.307617,4296.666504,4299.102539,4300.897461,4307.436035,4305.000000,4304.358887,4456.794922,4482.051270,4337.692383,4450.256348,0.000000,0.000000,6.000000,,,,0.000000,2.000000,2.000000,0.000000,2.000000,2.000000,2.000000,0.000000,2.000000,4.000000,4.000000,4.000000,4.000000,2.000000,4.000000,16.666666,,,,,,,,,,,,,,,,,,,,,,,,,,,,
1732083281.689804,1732083281.691265,18.000000,0.000000,4295.384766,4298.589844,4306.025879,4306.153809,4305.384766,4309.743652,4300.256348,4314.615234,4311.794922,4291.538574,4446.538574,4474.615234,4329.230957,4441.025879,0.000000,0.000000,6.000000,,,,0.000000,2.000000,2.000000,0.000000,2.000000,2.000000,2.000000,0.000000,2.000000,4.000000,4.000000,4.000000,4.000000,2.000000,4.000000,16.666666,,,,,,,,,,,,,,,,,,,,,,,,,,,,
1732083281.697612,1732083281.699073,19.000000,0.000000,4286.282227,4294.102539,4304.487305,4302.436035,4304.358887,4311.922852,4300.769043,4326.153809,4320.769043,4298.333496,4447.436035,4476.538574,4337.692383,4443.846191,0.000000,0.000000,6.000000,,,,0.000000,2.000000,2.000000,0.000000,2.000000,2.000000,2.000000,0.000000,2.000000,4.000000,4.000000,4.000000,4.000000,2.000000,4.000000,16.666666,,,,,,,,,,,,,,,,,,,,,,,,,,,,
1732083281.705421,1732083281.706981,20.000000,0.000000,4286.794922,4293.333496,4307.436035,4298.333496,4298.717773,4307.307617,4301.666504,4324.871582,4319.230957,4308.846191,4451.025879,4477.307617,4339.102539,4444.743652,0.000000,0.000000,6.000000,,,,0.000000,2.000000,2.000000,0.000000,2.000000,2.000000,2.000000,0.000000,2.000000,4.000000,4.000000,4.000000,4.000000,2.000000,4.000000,16.666666,,,,,,,,,,,,,,,,,5.000000,0.000000,0.579561,0.382690,-0.626404,0.353943,1.005982,0.003907,-0.078623,-78.299904,56.656799,25.871866
1732083281.713229,1732083281.714789,21.000000,0.000000,4290.897461,4295.641113,4309.487305,4302.179688,4298.717773,4300.641113,4301.153809,4316.025879,4315.641113,4305.384766,4454.743652,4476.410156,4335.384766,4442.820313,0.000000,0.000000,6.000000,,,,0.000000,2.000000,2.000000,0.000000,2.000000,2.000000,2.000000,0.000000,2.000000,4.000000,4.000000,4.000000,4.000000,2.000000,4.000000,16.666666,,,,,,,,,,,,,,,,,,,,,,,,,,,,
1732083281.721037,1732083281.722398,22.000000,0.000000,4295.769043,4302.820313,4307.307617,4309.358887,4296.153809,4295.000000,4297.307617,4312.051270,4313.077148,4305.512695,4460.384766,4479.743652,4345.897461,4453.205078,0.000000,0.000000,6.000000,,,,0.000000,2.000000,2.000000,0.000000,2.000000,2.000000,2.000000,0.000000,2.000000,4.000000,4.000000,4.000000,4.000000,2.000000,4.000000,16.666666,,,,,,,,,,,,,,,,,,,,,,,,,,,,
1732083281.728845,1732083281.730206,23.000000,0.000000,4301.282227,4310.769043,4308.077148,4310.512695,4296.666504,4295.128418,4297.563965,4309.743652,4308.461426,4313.333496,4463.461426,4480.384766,4356.282227,4462.820313,0.000000,0.000000,6.000000,,,,0.000000,2.000000,2.000000,0.000000,2.000000,2.000000,2.000000,0.000000,2.000000,4.000000,4.000000,4.000000,4.000000,2.000000,4.000000,16.666666,,,,,,,,,,,,,,,,,,,,,,,,,,,,
1732083281.736654,1732083281.738114,24.000000,0.000000,4298.461426,4308.589844,4310.256348,4307.563965,4306.153809,4303.461426,4300.256348,4310.128418,4312.179688,4314.871582,4468.077148,4477.436035,4354.487305,4458.333496,0.000000,0.000000,6.000000,,,,0.000000,2.000000,2.000000,0.000000,2.000000,2.000000,2.000000,0.000000,2.000000,4.000000,4.000000,4.000000,4.000000,2.000000,4.000000,16.666666,,,,,,,,,,,,,,,,,6.000000,0.000000,0.580157,0.381958,-0.626953,0.352783,0.970822,-0.000977,-0.069833,-78.344589,56.582008,25.757877
1732083281.744462,1732083281.745922,25.000000,0.000000,4288.461426,4300.769043,4309.743652,4307.179688,4308.205078,4309.102539,4301.025879,4314.871582,4316.538574,4314.743652,4466.538574,4473.461426,4349.871582,4451.282227,0.000000,0.000000,6.000000,,,,0.000000,2.000000,2.000000,0.000000,2.000000,2.000000,2.000000,0.000000,2.000000,4.000000,4.000000,4.000000,4.000000,2.000000,4.000000,16.666666,,,,,,,,,,,,,,,,,,,,,,,,,,,,
1732083281.752270,1732083281.753531,26.000000,0.000000,4291.410156,4300.384766,4309.358887,4310.000000,4301.025879,4304.743652,4299.230957,4311.153809,4310.512695,4313.205078,4461.666504,4471.538574,4350.384766,4453.461426,0.000000,0.000000,6.000000,,,,0.000000,2.000000,2.000000,0.000000,2.000000,2.000000,2.000000,0.000000,2.000000,4.000000,4.000000,4.000000,4.000000,2.000000,4.000000,16.666666,,,,,,,,,,,,,,,,,,,,,,,,,,,,
1732083281.760079,1732083281.761339,27.000000,0.000000,4302.563965,4303.333496,4308.205078,4314.743652,4300.512695,4300.769043,4299.487305,4307.307617,4312.051270,4309.615234,4470.641113,4473.717773,4354.743652,4459.102539,0.000000,0.000000,6.000000,,,,0.000000,2.000000,2.000000,0.000000,2.000000,2.000000,2.000000,0.000000,2.000000,4.000000,4.000000,4.000000,4.000000,2.000000,4.000000,16.666666,,,,,,,,,,,,,,,,,,,,,,,,,,,,
1732083281.767887,1732083281.769047,28.000000,0.000000,4300.128418,4301.410156,4307.692383,4314.102539,4306.666504,4306.282227,4302.563965,4314.102539,4318.846191,4312.307617,4477.692383,4475.512695,4353.589844,4457.948730,0.000000,0.000000,6.000000,,,,0.000000,2.000000,2.000000,0.000000,2.000000,2.000000,2.000000,0.000000,2.000000,4.000000,4.000000,4.000000,4.000000,2.000000,4.000000,16.666666,,,,,,,,,,,,,,,,,7.000000,0.000000,0.581309,0.382141,-0.627075,0.350464,0.974728,0.011232,-0.074228,-78.230789,56.374760,25.628881
1732083281.775695,1732083281.776855,29.000000,0.000000,4289.871582,4296.153809,4309.230957,4308.205078,4309.871582,4313.333496,4305.256348,4320.769043,4316.282227,4318.077148,4465.384766,4475.256348,4347.563965,4454.743652,0.000000,0.000000,6.000000,,,,0.000000,2.000000,2.000000,0.000000,2.000000,2.000000,2.000000,0.000000,2.000000,4.000000,4.000000,4.000000,4.000000,2.000000,4.000000,16.666666,,,,,,,,,,,,,,,,,,,,,,,,,,,,
1732083281.783503,1732083281.784863,30.000000,0.000000,4288.205078,4298.333496,4311.922852,4309.743652,4312.436035,4313.205078,4306.538574,4322.307617,4310.769043,4315.000000,4459.743652,4478.205078,4343.717773,4455.512695,0.000000,0.000000,6.000000,,,,0.000000,2.000000,2.000000,0.000000,2.000000,2.000000,2.000000,0.000000,2.000000,4.000000,4.000000,4.000000,4.000000,2.000000,4.000000,16.666666,,,,,,,,,,,,,,,,,,,,,,,,,,,,
1732083281.791312,1732083281.792671,31.000000,0.000000,4292.436035,4300.512695,4312.820313,4312.307617,4309.871582,4309.230957,4303.077148,4325.897461,4317.563965,4317.820313,4470.769043,4487.051270,4347.692383,4458.974121,0.000000,0.000000,6.000000,,,,0.000000,2.000000,2.000000,0.000000,2.000000,2.000000,2.000000,0.000000,2.000000,4.000000,4.000000,4.000000,4.000000,2.000000,4.000000,16.666666,,,,,,,,,,,,,,,,,,,,,,,,,,,,
1732083281.799120,1732083281.800580,32.000000,0.000000,4291.025879,4295.000000,4311.025879,4304.487305,4302.692383,4304.358887,4302.307617,4330.000000,4330.256348,4330.769043,4473.589844,4491.410156,4352.307617,4457.307617,0.000000,0.000000,6.000000,,,,0.000000,2.000000,2.000000,0.000000,2.000000,2.000000,2.000000,0.000000,2.000000,4.000000,4.000000,4.000000,4.000000,2.000000,4.000000,16.666666,,,,,,,,,,,,,,,,,8.000000,0.000000,0.581574,0.382385,-0.626953,0.349976,0.965450,0.020022,-0.083995,-78.090271,56.326889,25.492727
1732083281.806928,1732083281.808388,33.000000,0.000000,4294.358887,4300.128418,4308.589844,4304.871582,4300.769043,4300.641113,4299.230957,4323.333496,4325.128418,4326.922852,4469.487305,4488.077148,4354.230957,4458.077148,0.000000,0.000000,6.000000,,,,0.000000,2.000000,2.000000,0.000000,2.000000,2.000000,2.000000,0.000000,2.000000,4.000000,4.000000,4.000000,4.000000,2.000000,4.000000,16.666666,,,,,,,,,,,,,,,,,,,,,,,,,,,,
1732083281.814736,1732083281.816396,34.000000,0.000000,4300.641113,4305.769043,4311.666504,4313.589844,4298.717773,4299.743652,4298.589844,4316.153809,4315.000000,4321.794922,4474.615234,4488.077148,4358.333496,4463.589844,0.000000,0.000000,6.000000,,,,0.000000,2.000000,2.000000,0.000000,2.000000,2.000000,2.000000,0.000000,2.000000,4.000000,4.000000,4.000000,4.000000,2.000000,4.000000,16.666666,,,,,,,,,,,,,,,,,,,,,,,,,,,,
1732083281.822545,1732083281.824204,35.000000,0.000000,4294.615234,4297.820313,4312.051270,4311.538574,4305.897461,4299.871582,4299.230957,4317.051270,4314.230957,4325.512695,4473.717773,4488.077148,4355.897461,4462.948730,0.000000,0.000000,6.000000,,,,0.000000,2.000000,2.000000,0.000000,2.000000,2.000000,2.000000,0.000000,2.000000,4.000000,4.000000,4.000000,4.000000,2.000000,4.000000,16.666666,,,,,,,,,,,,,,,,,,,,,,,,,,,,
1732083281.830353,1732083281.832112,36.000000,0.000000,4286.922852,4293.974121,4308.589844,4305.384766,4319.871582,4305.128418,4300.512695,4319.358887,4309.871582,4311.666504,4458.846191,4483.333496,4346.410156,4456.282227,0.000000,0.000000,6.000000,,,,0.000000,2.000000,2.000000,0.000000,2.000000,2.000000,2.000000,0.000000,2.000000,4.000000,4.000000,4.000000,4.000000,2.000000,4.000000,16.666666,,,,,,,,,,,,,,,,,9.000000,0.000000,0.582150,0.382568,-0.626953,0.348816,0.969845,0.014162,-0.079111,-78.294785,56.359779,25.272442
1732083281.838161,1732083281.839920,37.000000,0.000000,4293.717773,4301.410156,4308.717773,4310.000000,4310.769043,4314.743652,4302.563965,4319.487305,4307.692383,4301.794922,4456.666504,4485.256348,4347.820313,4459.743652,0.000000,0.000000,6.000000,,,,0.000000,2.000000,2.000000,0.000000,2.000000,2.000000,2.000000,0.000000,2.000000,4.000000,4.000000,4.000000,4.000000,2.000000,4.000000,16.666666,,,,,,,,,,,,,,,,,,,,,,,,,,,,
1732083281.845969,1732083281.847928,38.000000,0.000000,4302.563965,4304.871582,4312.692383,4317.051270,4293.974121,4317.692383,4308.205078,4320.000000,4315.512695,4318.333496,4468.077148,4492.563965,4355.897461,4468.333496,0.000000,0.000000,6.000000,,,,0.000000,2.000000,2.000000,0.000000,2.000000,2.000000,2.000000,0.000000,2.000000,4.000000,4.000000,4.000000,4.000000,2.000000,4.000000,16.666666,,,,,,,,,,,,,,,,,,,,,,,,,,,,
1732083281.853778,1732083281.855737,39.000000,0.000000,4301.666504,4305.769043,4311.922852,4319.358887,4300.256348,4308.077148,4304.871582,4317.692383,4314.615234,4329.743652,4467.692383,4491.282227,4356.410156,4467.436035,0.000000,0.000000,6.000000,,,,0.000000,2.000000,2.000000,0.000000,2.000000,2.000000,2.000000,0.000000,2.000000,4.000000,4.000000,4.000000,4.000000,2.000000,4.000000,16.666666,,,,,,,,,,,,,,,,,,,,,,,,,,,,
1732083281.861586,1732083281.863645,40.000000,0.000000,4295.000000,4303.461426,4308.589844,4316.282227,4307.051270,4299.743652,4300.641113,4321.025879,4312.307617,4325.000000,4461.025879,4487.948730,4353.461426,4464.102539,0.000000,0.000000,6.000000,,,,0.000000,2.000000,2.000000,0.000000,2.000000,2.000000,2.000000,0.000000,2.000000,4.000000,4.000000,4.000000,4.000000,2.000000,4.000000,16.666666,,,,,,,,,,,,,,,,,10.000000,0.000000,0.582886,0.382813,-0.627136,0.346985,0.978635,0.023440,-0.080576,-78.260445,56.308086,25.080679
1732083281.869394,1732083281.871453,41.000000,0.000000,4288.589844,4296.153809,4306.922852,4309.230957,4301.410156,4308.717773,4306.794922,4335.641113,4325.512695,4331.794922,4466.922852,4487.563965,4352.051270,4462.051270,0.000000,0.000000,6.000000,,,,0.000000,2.000000,2.000000,0.000000,2.000000,2.000000,2.000000,0.000000,2.000000,4.000000,4.000000,4.000000,4.000000,2.000000,4.000000,16.666666,,,,,,,,,,,,,,,,,,,,,,,,,,,,
1732083281.877202,1732083281.879461,42.000000,0.000000,4287.051270,4300.000000,4309.102539,4308.846191,4307.179688,4318.205078,4308.205078,4331.666504,4327.179688,4333.077148,4470.512695,4482.179688,4351.153809,4456.922852,0.000000,0.000000,6.000000,,,,0.000000,2.000000,2.000000,0.000000,2.000000,2.000000,2.000000,0.000000,2.000000,4.000000,4.000000,4.000000,4.000000,2.000000,4.000000,16.666666,,,,,,,,,,,,,,,,,,,,,,,,,,,,
1732083281.885011,1732083281.887269,43.000000,0.000000,4286.025879,4304.102539,4307.692383,4311.153809,4314.358887,4313.717773,4300.769043,4313.461426,4315.000000,4323.461426,4460.000000,4474.102539,4348.846191,4452.820313,0.000000,0.000000,6.000000,,,,0.000000,2.000000,2.000000,0.000000,2.000000,2.000000,2.000000,0.000000,2.000000,4.000000,4.000000,4.000000,4.000000,2.000000,4.000000,16.666666,,,,,,,,,,,,,,,,,,,,,,,,,,,,
1732083281.892819,1732083281.895177,44.000000,0.000000,4282.179688,4295.384766,4305.641113,4302.692383,4303.974121,4305.769043,4302.179688,4313.589844,4313.846191,4327.820313,4459.871582,4472.563965,4351.794922,4455.769043,0.000000,0.000000,6.000000,,,,0.000000,2.000000,2.000000,0.000000,2.000000,2.000000,2.000000,0.000000,2.000000,4.000000,4.000000,4.000000,4.000000,2.000000,4.000000,16.666666,,,,,,,,,,,,,,,,,11.000000,0.000000,0.582758,0.383240,-0.627197,0.346619,0.976682,0.025394,-0.078135,-78.069290,56.264553,24.953682
1732083281.900627,1732083281.902985,45.000000,0.000000,4285.128418,4295.384766,4306.025879,4299.102539,4296.666504,4306.282227,4308.974121,4324.230957,4316.922852,4323.461426,4468.333496,4476.666504,4355.769043,4461.410156,0.000000,0.000000,6.000000,,,,0.000000,2.000000,2.000000,0.000000,2.000000,2.000000,2.000000,0.000000,2.000000,4.000000,4.000000,4.000000,4.000000,2.000000,4.000000,16.666666,,,,,,,,,,,,,,,,,,,,,,,,,,,,
1732083281.908435,1732083281.910993,46.000000,0.000000,4289.102539,4303.333496,4307.948730,4306.025879,4303.589844,4309.615234,4305.384766,4322.692383,4313.077148,4307.563965,4462.563965,4478.077148,4347.563965,4461.410156,0.000000,0.000000,6.000000,,,,0.000000,2.000000,2.000000,0.000000,2.000000,2.000000,2.000000,0.000000,2.000000,4.000000,4.000000,4.000000,4.000000,2.000000,4.000000,16.666666,,,,,,,,,,,,,,,,,,,,,,,,,,,,
1732083281.916244,1732083281.918802,47.000000,0.000000,4284.615234,4303.205078,4307.179688,4304.230957,4306.410156,4309.743652,4302.307617,4318.717773,4312.948730,4315.000000,4456.922852,4474.102539,4342.436035,4457.563965,0.000000,0.000000,6.000000,,,,0.000000,2.000000,2.000000,0.000000,2.000000,2.000000,2.000000,0.000000,2.000000,4.000000,4.000000,4.000000,4.000000,2.000000,4.000000,16.666666,,,,,,,,,,,,,,,,,,,,,,,,,,,,
1732083281.924052,1732083281.926510,48.000000,0.000000,4287.692383,4306.153809,4306.922852,4300.769043,4302.948730,4308.461426,4304.871582,4320.384766,4316.794922,4333.717773,4467.436035,4473.589844,4354.615234,4460.769043,0.000000,0.000000,6.000000,,,,0.000000,2.000000,2.000000,0.000000,2.000000,2.000000,2.000000,0.000000,2.000000,4.000000,4.000000,4.000000,4.000000,2.000000,4.000000,16.666666,,,,,,,,,,,,,,,,,12.000000,0.000000,0.582586,0.383301,-0.627319,0.346619,0.983030,0.014650,-0.079111,-78.214462,56.087620,24.645817
1732083281.931860,1732083281.934318,49.000000,0.000000,4291.794922,4308.974121,4309.615234,4307.307617,4304.743652,4308.077148,4309.615234,4323.974121,4319.102539,4329.743652,4468.077148,4475.641113,4357.436035,4463.846191,0.000000,0.000000,6.000000,,,,0.000000,2.000000,2.000000,0.000000,2.000000,2.000000,2.000000,0.000000,2.000000,4.000000,4.000000,4.000000,4.000000,2.000000,4.000000,16.666666,,,,,,,,,,,,,,,,,,,,,,,,,,,,
1732083281.939669,1732083281.942326,50.000000,0.000000,4282.436035,4301.922852,4310.641113,4310.128418,4306.666504,4313.589844,4309.615234,4328.717773,4322.051270,4319.615234,4455.128418,4475.641113,4343.589844,4459.615234,0.000000,0.000000,6.000000,,,,0.000000,2.000000,2.000000,0.000000,2.000000,2.000000,2.000000,0.000000,2.000000,4.000000,4.000000,4.000000,4.000000,2.000000,4.000000,16.666666,,,,,,,,,,,,,,,,,,,,,,,,,,,,
1732083281.947477,1732083281.950134,51.000000,0.000000,4277.051270,4298.974121,4311.410156,4302.820313,4312.563965,4312.179688,4307.179688,4326.538574,4319.230957,4318.333496,4453.717773,4475.256348,4340.897461,4456.666504,0.000000,0.000000,6.000000,,,,0.000000,2.000000,2.000000,0.000000,2.000000,2.000000,2.000000,0.000000,2.000000,4.000000,4.000000,4.000000,4.000000,2.000000,4.000000,16.666666,,,,,,,,,,,,,,,,,,,,,,,,,,,,
1732083281.955285,1732083281.957843,52.000000,0.000000,4285.256348,4305.128418,4309.358887,4303.717773,4321.538574,4308.077148,4305.256348,4325.512695,4315.897461,4318.717773,4458.974121,4475.000000,4348.205078,4458.461426,0.000000,0.000000,6.000000,,,,0.000000,2.000000,2.000000,0.000000,2.000000,2.000000,2.000000,0.000000,2.000000,4.000000,4.000000,4.000000,4.000000,2.000000,4.000000,16.666666,,,,,,,,,,,,,,,,,13.000000,0.000000,0.582327,0.383484,-0.627380,0.346741,0.984984,0.005860,-0.068368,-78.173714,56.267639,24.693111
1732083281.963093,1732083281.965651,53.000000,0.000000,4288.333496,4307.563965,4309.871582,4309.743652,4311.794922,4317.179688,4307.948730,4332.051270,4317.563965,4322.051270,4452.820313,4475.769043,4343.717773,4457.820313,0.000000,0.000000,6.000000,,,,0.000000,2.000000,2.000000,0.000000,2.000000,2.000000,2.000000,0.000000,2.000000,4.000000,4.000000,4.000000,4.000000,2.000000,4.000000,16.666666,,,,,,,,,,,,,,,,,,,,,,,,,,,,
1732083281.970902,1732083281.973259,54.000000,0.000000,4286.282227,4306.922852,4310.384766,4309.871582,4299.230957,4321.538574,4309.743652,4328.846191,4314.871582,4316.666504,4449.487305,4484.358887,4341.538574,4457.307617,0.000000,0.000000,6.000000,,,,0.000000,2.000000,2.000000,0.000000,2.000000,2.000000,2.000000,0.000000,2.000000,4.000000,4.000000,4.000000,4.000000,2.000000,4.000000,16.666666,,,,,,,,,,,,,,,,,,,,,,,,,,,,
1732083281.978710,1732083281.981067,55.000000,0.000000,4288.717773,4307.948730,4311.153809,4309.615234,4306.538574,4310.641113,4310.000000,4318.461426,4306.666504,4305.000000,4455.897461,4493.589844,4348.333496,4461.282227,0.000000,0.000000,6.000000,,,,0.000000,2.000000,2.000000,0.000000,2.000000,2.000000,2.000000,0.000000,2.000000,4.000000,4.000000,4.000000,4.000000,2.000000,4.000000,16.666666,,,,,,,,,,,,,,,,,,,,,,,,,,,,
1732083281.986518,1732083281.988776,56.000000,0.000000,4290.897461,4307.179688,4310.769043,4310.897461,4311.282227,4305.769043,4306.410156,4321.538574,4309.230957,4312.051270,4459.102539,4491.025879,4347.948730,4463.077148,0.000000,0.000000,6.000000,,,,0.000000,2.000000,2.000000,0.000000,2.000000,2.000000,2.000000,0.000000,2.000000,4.000000,4.000000,4.000000,4.000000,2.000000,4.000000,16.666666,,,,,,,,,,,,,,,,,14.000000,0.000000,0.581067,0.384033,-0.627808,0.347473,0.978147,0.007325,-0.077646,-78.040710,56.646786,24.631420
1732083281.994326,1732083281.996584,57.000000,0.000000,4289.487305,4306.025879,4311.794922,4310.000000,4308.461426,4309.615234,4302.948730,4324.743652,4314.871582,4324.358887,4458.205078,4487.563965,4342.307617,4461.410156,0.000000,0.000000,6.000000,,,,0.000000,2.000000,2.000000,0.000000,2.000000,2.000000,2.000000,0.000000,2.000000,4.000000,4.000000,4.000000,4.000000,2.000000,4.000000,16.666666,,,,,,,,,,,,,,,,,,,,,,,,,,,,
1732083282.002135,1732083282.004192,58.000000,0.000000,4287.563965,4304.358887,4312.179688,4306.538574,4306.538574,4311.025879,4305.128418,4325.000000,4311.538574,4320.641113,4459.230957,4486.282227,4341.410156,4460.641113,0.000000,0.000000,6.000000,,,,0.000000,2.000000,2.000000,0.000000,2.000000,2.000000,2.000000,0.000000,2.000000,4.000000,4.000000,4.000000,4.000000,2.000000,4.000000,16.666666,,,,,,,,,,,,,,,,,,,,,,,,,,,,
1732083282.009943,1732083282.012001,59.000000,0.000000,4289.871582,4300.769043,4310.769043,4307.692383,4307.436035,4309.615234,4308.333496,4330.512695,4312.563965,4317.563965,4461.153809,4481.794922,4343.589844,4460.897461,0.000000,0.000000,6.000000,,,,0.000000,2.000000,2.000000,0.000000,2.000000,2.000000,2.000000,0.000000,2.000000,4.000000,4.000000,4.000000,4.000000,2.000000,4.000000,16.666666,,,,,,,,,,,,,,,,,,,,,,,,,,,,
1732083282.017751,1732083282.019709,60.000000,0.000000,4296.538574,4305.128418,4310.641113,4311.538574,4318.205078,4306.922852,4305.769043,4328.717773,4311.666504,4313.974121,4455.897461,4476.538574,4340.641113,4459.230957,0.000000,0.000000,6.000000,,,,0.000000,2.000000,2.000000,0.000000,2.000000,2.000000,2.000000,0.000000,2.000000,4.000000,4.000000,4.000000,4.000000,2.000000,4.000000,16.666666,,,,,,,,,,,,,,,,,15.000000,0.000000,0.580686,0.384155,-0.628052,0.347534,0.983030,-0.009278,-0.086436,-78.144638,56.575565,24.498117
1732083282.025560,1732083282.027517,61.000000,0.000000,4300.897461,4312.692383,4312.563965,4313.461426,4317.692383,4311.282227,4305.512695,4319.615234,4307.179688,4308.205078,4449.487305,4475.512695,4339.615234,4458.205078,0.000000,0.000000,6.000000,,,,0.000000,2.000000,2.000000,0.000000,2.000000,2.000000,2.000000,0.000000,2.000000,4.000000,4.000000,4.000000,4.000000,2.000000,4.000000,16.666666,,,,,,,,,,,,,,,,,,,,,,,,,,,,
1732083282.033368,1732083282.035525,62.000000,0.000000,4299.102539,4307.563965,4312.820313,4311.282227,4297.948730,4320.128418,4310.256348,4323.974121,4312.820313,4310.256348,4447.820313,4477.307617,4343.589844,4459.358887,0.000000,0.000000,6.000000,,,,0.000000,2.000000,2.000000,0.000000,2.000000,2.000000,2.000000,0.000000,2.000000,4.000000,4.000000,4.000000,4.000000,2.000000,4.000000,16.666666,,,,,,,,,,,,,,,,,,,,,,,,,,,,
1732083282.041176,1732083282.043333,63.000000,0.000000,4294.230957,4297.436035,4310.000000,4308.461426,4299.102539,4320.384766,4309.871582,4335.256348,4318.205078,4308.846191,4445.128418,4475.256348,4341.538574,4455.256348,0.000000,0.000000,6.000000,,,,0.000000,2.000000,2.000000,0.000000,2.000000,2.000000,2.000000,0.000000,2.000000,4.000000,4.000000,4.000000,4.000000,2.000000,4.000000,16.666666,,,,,,,,,,,,,,,,,,,,,,,,,,,,
1732083282.048984,1732083282.051241,64.000000,0.000000,4294.230957,4299.871582,4310.769043,4310.256348,4316.410156,4318.846191,4308.589844,4333.205078,4313.077148,4307.692383,4446.410156,4472.179688,4339.102539,4455.384766,0.000000,0.000000,6.000000,,,,0.000000,2.000000,2.000000,0.000000,2.000000,2.000000,2.000000,0.000000,2.000000,4.000000,4.000000,4.000000,4.000000,2.000000,4.000000,16.666666,,,,,,,,,,,,,,,,,16.000000,0.000000,0.580076,0.384033,-0.628723,0.347473,0.963008,-0.010743,-0.084483,-77.908821,56.547874,24.435141
1732083282.056793,1732083282.059050,65.000000,0.000000,4302.692383,4306.410156,4310.897461,4310.384766,4313.333496,4318.717773,4306.025879,4326.922852,4315.000000,4312.179688,4454.615234,4479.358887,4345.897461,4467.179688,1320.000000,0.000000,6.000000,,,,0.000000,2.000000,2.000000,0.000000,2.000000,2.000000,2.000000,0.000000,2.000000,4.000000,4.000000,4.000000,4.000000,2.000000,4.000000,16.666666,,,,,,,,,,,,,,,,,,,,,,,,,,,,
1732083282.064601,1732083282.066658,66.000000,0.000000,4307.692383,4305.000000,4311.538574,4307.179688,4297.948730,4312.307617,4306.410156,4326.282227,4321.410156,4309.358887,4460.641113,4488.717773,4353.077148,4472.436035,1250.000000,0.000000,6.000000,,,,0.000000,2.000000,2.000000,0.000000,2.000000,2.000000,2.000000,0.000000,2.000000,4.000000,4.000000,4.000000,4.000000,2.000000,4.000000,16.666666,,,,,,,,,,,,,,,,,,,,,,,,,,,,
1732083282.072409,1732083282.074466,67.000000,0.000000,4303.461426,4303.461426,4312.563965,4310.256348,4303.974121,4308.077148,4304.615234,4327.948730,4315.128418,4304.615234,4456.922852,4482.307617,4347.948730,4461.922852,1182.000000,0.000000,6.000000,,,,0.000000,2.000000,2.000000,0.000000,2.000000,2.000000,2.000000,0.000000,2.000000,4.000000,4.000000,4.000000,4.000000,2.000000,4.000000,16.666666,,,,,,,,,,,,,,,,,,,,,,,,,,,,
1732083282.080217,1732083282.082175,68.000000,0.000000,4302.820313,4302.307617,4313.461426,4315.256348,4323.333496,4309.487305,4304.743652,4327.307617,4308.461426,4305.000000,4450.000000,4473.974121,4340.000000,4457.948730,1214.000000,0.000000,6.000000,,,,0.000000,2.000000,2.000000,0.000000,2.000000,2.000000,2.000000,0.000000,2.000000,4.000000,4.000000,4.000000,4.000000,2.000000,4.000000,16.666666,,,,,,,,,,,,,,,,,17.000000,0.000000,0.579374,0.384155,-0.629700,0.346741,0.978147,0.003418,-0.093761,-77.892815,56.562111,24.500797
1732083282.088026,1732083282.089983,69.000000,0.000000,4306.538574,4300.256348,4310.128418,4309.230957,4318.205078,4309.871582,4305.769043,4327.563965,4314.102539,4307.307617,4449.871582,4479.487305,4344.230957,4466.794922,1083.000000,0.000000,6.000000,,,,0.000000,2.000000,2.000000,0.000000,2.000000,2.000000,2.000000,0.000000,2.000000,4.000000,4.000000,4.000000,4.000000,2.000000,4.000000,16.666666,,,,,,,,,,,,,,,,,,,,,,,,,,,,
1732083282.095834,1732083282.097591,70.000000,0.000000,4306.153809,4298.974121,4309.615234,4301.410156,4295.256348,4311.666504,4307.948730,4329.358887,4317.948730,4312.307617,4452.692383,4481.922852,4349.487305,4470.000000,1.000000,0.000000,6.000000,,,,0.000000,2.000000,2.000000,0.000000,2.000000,2.000000,2.000000,0.000000,2.000000,4.000000,4.000000,4.000000,4.000000,2.000000,4.000000,16.666666,,,,,,,,,,,,,,,,,,,,,,,,,,,,
1732083282.103642,1732083282.105399,71.000000,0.000000,4305.384766,4296.922852,4311.282227,4304.102539,4294.358887,4311.538574,4306.153809,4328.205078,4314.487305,4315.256348,4455.641113,4478.077148,4348.974121,4470.256348,1184.000000,0.000000,6.000000,,,,0.000000,2.000000,2.000000,0.000000,2.000000,2.000000,2.000000,0.000000,2.000000,4.000000,4.000000,4.000000,4.000000,2.000000,4.000000,16.666666,,,,,,,,,,,,,,,,,,,,,,,,,,,,
1732083282.111450,1732083282.113308,72.000000,0.000000,4304.743652,4295.512695,4312.563965,4307.820313,4306.666504,4308.077148,4305.769043,4325.512695,4313.846191,4312.179688,4455.000000,4475.128418,4345.512695,4467.051270,1371.000000,0.000000,6.000000,,,,0.000000,2.000000,2.000000,0.000000,2.000000,2.000000,2.000000,0.000000,2.000000,4.000000,4.000000,4.000000,4.000000,2.000000,4.000000,16.666666,,,,,,,,,,,,,,,,,18.000000,0.000000,0.579118,0.384460,-0.629883,0.346497,0.974728,0.015627,-0.085460,-77.913177,56.656979,24.553980
1732083282.119259,1732083282.121116,73.000000,0.000000,4303.461426,4294.871582,4312.436035,4307.563965,4301.538574,4310.256348,4306.922852,4324.615234,4316.538574,4314.487305,4453.205078,4471.794922,4344.743652,4462.436035,1516.000000,0.000000,6.000000,,,,0.000000,2.000000,2.000000,0.000000,2.000000,2.000000,2.000000,0.000000,2.000000,4.000000,4.000000,4.000000,4.000000,2.000000,4.000000,16.666666,,,,,,,,,,,,,,,,,,,,,,,,,,,,
1732083282.127067,1732083282.129124,74.000000,0.000000,4307.179688,4296.025879,4311.153809,4307.948730,4299.230957,4310.256348,4304.743652,4326.282227,4314.871582,4313.589844,4457.051270,4473.077148,4347.948730,4468.846191,1362.000000,0.000000,6.000000,,,,0.000000,2.000000,2.000000,0.000000,2.000000,2.000000,2.000000,0.000000,2.000000,4.000000,4.000000,4.000000,4.000000,2.000000,4.000000,16.666666,,,,,,,,,,,,,,,,,,,,,,,,,,,,
1732083282.134875,1732083282.136932,75.000000,0.000000,4311.922852,4298.333496,4309.615234,4311.410156,4311.538574,4302.436035,4306.538574,4325.000000,4311.153809,4308.333496,4461.666504,4477.692383,4351.666504,4477.436035,1504.000000,0.000000,6.000000,,,,0.000000,2.000000,2.000000,0.000000,2.000000,2.000000,2.000000,0.000000,2.000000,4.000000,4.000000,4.000000,4.000000,2.000000,4.000000,16.666666,,,,,,,,,,,,,,,,,,,,,,,,,,,,
1732083282.142683,1732083282.144840,76.000000,0.000000,4309.358887,4300.000000,4310.000000,4312.436035,4306.922852,4305.384766,4310.256348,4326.410156,4312.948730,4317.436035,4462.948730,4476.410156,4353.333496,4476.666504,1736.000000,0.000000,6.000000,,,,0.000000,2.000000,2.000000,0.000000,2.000000,2.000000,2.000000,0.000000,2.000000,4.000000,4.000000,4.000000,4.000000,2.000000,4.000000,16.666666,,,,,,,,,,,,,,,,,19.000000,0.000000,0.579069,0.384399,-0.630066,0.346313,0.992797,0.013674,-0.081553,-78.183006,56.563816,24.322058
1732083282.150492,1732083282.152648,77.000000,0.000000,4306.153809,4297.692383,4309.615234,4308.333496,4296.666504,4310.897461,4311.794922,4333.846191,4317.563965,4320.897461,4460.384766,4472.563965,4349.487305,4471.922852,1593.000000,0.000000,6.000000,,,,0.000000,2.000000,2.000000,0.000000,2.000000,2.000000,2.000000,0.000000,2.000000,4.000000,4.000000,4.000000,4.000000,2.000000,4.000000,16.666666,,,,,,,,,,,,,,,,,,,,,,,,,,,,
1732083282.158300,1732083282.160656,78.000000,0.000000,4311.922852,4296.153809,4309.102539,4304.487305,4308.461426,4304.358887,4309.871582,4335.641113,4315.641113,4307.307617,4459.743652,4473.846191,4347.051270,4473.974121,1362.000000,0.000000,6.000000,,,,0.000000,2.000000,2.000000,0.000000,2.000000,2.000000,2.000000,0.000000,2.000000,4.000000,4.000000,4.000000,4.000000,2.000000,4.000000,16.666666,1.000000,16.666666,2.000000,2.000000,0.000000,2.000000,2.000000,2.000000,0.000000,2.000000,4.000000,4.000000,4.000000,4.000000,2.000000,4.000000,,,,,,,,,,,,
1732083282.166108,1732083282.168464,79.000000,0.000000,4313.717773,4298.333496,4311.153809,4307.051270,4312.563965,4300.128418,4308.333496,4330.512695,4313.974121,4305.384766,4457.692383,4477.051270,4348.461426,4475.512695,1504.000000,0.000000,6.000000,,,,0.000000,2.000000,2.000000,0.000000,2.000000,2.000000,2.000000,0.000000,2.000000,4.000000,4.000000,4.000000,4.000000,2.000000,4.000000,16.666666,,,,,,,,,,,,,,,,,,,,,,,,,,,,
1732083282.173916,1732083282.176173,80.000000,0.000000,4315.128418,4299.487305,4310.641113,4311.538574,4293.461426,4301.410156,4305.769043,4319.487305,4313.205078,4316.922852,4456.922852,4476.922852,4350.128418,4475.769043,1736.000000,0.000000,6.000000,,,,0.000000,2.000000,2.000000,0.000000,2.000000,2.000000,2.000000,0.000000,2.000000,4.000000,4.000000,4.000000,4.000000,2.000000,4.000000,16.666666,,,,,,,,,,,,,,,,,20.000000,0.000000,0.578998,0.384216,-0.630310,0.346191,0.968868,0.001953,-0.090831,-78.243240,56.583359,24.292532
1732083282.181725,1732083282.183981,81.000000,0.000000,4319.615234,4301.153809,4311.410156,4310.384766,4292.820313,4300.897461,4307.307617,4312.820313,4307.820313,4315.256348,4458.974121,4473.461426,4351.538574,4476.794922,1593.000000,0.000000,6.000000,,,,0.000000,2.000000,2.000000,0.000000,2.000000,2.000000,2.000000,0.000000,2.000000,4.000000,4.000000,4.000000,4.000000,2.000000,4.000000,16.666666,,,,,,,,,,,,,,,,,,,,,,,,,,,,
1732083282.189533,1732083282.191989,82.000000,0.000000,4315.641113,4300.256348,4312.179688,4307.948730,4305.000000,4302.436035,4307.563965,4320.128418,4305.897461,4308.333496,4458.333496,4471.410156,4350.000000,4474.358887,1362.000000,0.000000,6.000000,,,,0.000000,2.000000,2.000000,0.000000,2.000000,2.000000,2.000000,0.000000,2.000000,4.000000,4.000000,4.000000,4.000000,2.000000,4.000000,16.666666,,,,,,,,,,,,,,,,,,,,,,,,,,,,
1732083282.197341,1732083282.199797,83.000000,0.000000,4310.256348,4300.128418,4313.461426,4308.589844,4305.128418,4301.922852,4305.512695,4323.205078,4309.487305,4312.307617,4458.589844,4474.230957,4351.153809,4470.897461,1504.000000,0.000000,6.000000,,,,0.000000,2.000000,2.000000,0.000000,2.000000,2.000000,2.000000,0.000000,2.000000,4.000000,4.000000,4.000000,4.000000,2.000000,4.000000,16.666666,,,,,,,,,,,,,,,,,,,,,,,,,,,,
1732083282.205150,1732083282.207705,84.000000,0.000000,4318.077148,4307.563965,4312.307617,4315.256348,4313.589844,4293.974121,4303.205078,4308.974121,4306.538574,4310.641113,4461.794922,4476.666504,4355.641113,4478.589844,1736.000000,0.000000,6.000000,,,,0.000000,2.000000,2.000000,0.000000,2.000000,2.000000,2.000000,0.000000,2.000000,4.000000,4.000000,4.000000,4.000000,2.000000,4.000000,16.666666,,,,,,,,,,,,,,,,,21.000000,0.000000,0.579543,0.383179,-0.631042,0.345093,0.984007,0.008790,-0.102063,-78.140358,56.400856,24.141951
1732083282.212958,1732083282.215514,85.000000,0.000000,4321.538574,4310.128418,4312.563965,4319.871582,4315.512695,4297.820313,4306.538574,4307.179688,4301.410156,4303.589844,4461.538574,4476.666504,4356.538574,4487.563965,1593.000000,0.000000,6.000000,,,,0.000000,2.000000,2.000000,0.000000,2.000000,2.000000,2.000000,0.000000,2.000000,4.000000,4.000000,4.000000,4.000000,2.000000,4.000000,16.666666,,,,,,,,,,,,,,,,,,,,,,,,,,,,
1732083282.220766,1732083282.223522,86.000000,0.000000,4313.461426,4304.230957,4313.077148,4315.641113,4305.256348,4307.179688,4306.282227,4321.794922,4308.846191,4308.205078,4459.743652,4476.922852,4353.846191,4480.512695,1362.000000,0.000000,6.000000,,,,0.000000,2.000000,2.000000,0.000000,2.000000,2.000000,2.000000,0.000000,2.000000,4.000000,4.000000,4.000000,4.000000,2.000000,4.000000,16.666666,,,,,,,,,,,,,,,,,,,,,,,,,,,,
1732083282.228574,1732083282.231330,87.000000,0.000000,4308.077148,4297.179688,4312.307617,4306.025879,4305.000000,4301.153809,4304.487305,4323.077148,4318.461426,4316.153809,4460.256348,4478.077148,4352.692383,4473.589844,1504.000000,0.000000,6.000000,,,,0.000000,2.000000,2.000000,0.000000,2.000000,2.000000,2.000000,0.000000,2.000000,4.000000,4.000000,4.000000,4.000000,2.000000,4.000000,16.666666,,,,,,,,,,,,,,,,,,,,,,,,,,,,
1732083282.236383,1732083282.239238,88.000000,0.000000,4308.717773,4295.769043,4309.871582,4303.717773,4302.436035,4299.102539,4305.769043,4320.128418,4315.641113,4316.922852,4460.897461,4476.410156,4352.563965,4477.820313,1736.000000,0.000000,6.000000,,,,0.000000,2.000000,2.000000,0.000000,2.000000,2.000000,2.000000,0.000000,2.000000,4.000000,4.000000,4.000000,4.000000,2.000000,4.000000,16.666666,,,,,,,,,,,,,,,,,22.000000,0.000000,0.579943,0.382813,-0.631165,0.344604,0.948358,0.008302,-0.095226,-77.940353,56.436359,24.086647
1732083282.244191,1732083282.247046,89.000000,0.000000,4311.538574,4300.256348,4311.025879,4309.487305,4299.743652,4302.948730,4307.307617,4325.384766,4308.589844,4313.077148,4461.282227,4474.102539,4352.051270,4478.974121,1593.000000,0.000000,6.000000,,,,0.000000,2.000000,2.000000,0.000000,2.000000,2.000000,2.000000,0.000000,2.000000,4.000000,4.000000,4.000000,4.000000,2.000000,4.000000,16.666666,,,,,,,,,,,,,,,,,,,,,,,,,,,,
1732083282.251999,1732083282.255054,90.000000,0.000000,4313.461426,4301.666504,4312.051270,4312.307617,4314.358887,4299.615234,4305.512695,4327.948730,4313.205078,4310.128418,4462.179688,4481.410156,4353.077148,4476.410156,1362.000000,0.000000,6.000000,,,,0.000000,2.000000,2.000000,0.000000,2.000000,2.000000,2.000000,0.000000,2.000000,4.000000,4.000000,4.000000,4.000000,2.000000,4.000000,16.666666,,,,,,,,,,,,,,,,,,,,,,,,,,,,
1732083282.259807,1732083282.262862,91.000000,0.000000,4312.820313,4297.563965,4311.794922,4311.922852,4314.102539,4301.153809,4306.794922,4327.820313,4322.051270,4312.692383,4461.538574,4490.000000,4353.205078,4476.025879,1504.000000,0.000000,6.000000,,,,0.000000,2.000000,2.000000,0.000000,2.000000,2.000000,2.000000,0.000000,2.000000,4.000000,4.000000,4.000000,4.000000,2.000000,4.000000,16.666666,,,,,,,,,,,,,,,,,,,,,,,,,,,,
1732083282.267616,1732083282.270770,92.000000,0.000000,4315.256348,4303.077148,4313.589844,4316.025879,4296.153809,4312.563965,4310.128418,4326.794922,4319.743652,4316.794922,4461.666504,4484.743652,4351.538574,4478.333496,1736.000000,0.000000,6.000000,,,,0.000000,2.000000,2.000000,0.000000,2.000000,2.000000,2.000000,0.000000,2.000000,4.000000,4.000000,4.000000,4.000000,2.000000,4.000000,16.666666,,,,,,,,,,,,,,,,,23.000000,0.000000,0.580104,0.382935,-0.631042,0.344421,0.996215,0.010255,-0.088878,-77.888351,56.226784,23.785185
1732083282.275424,1732083282.278579,93.000000,0.000000,4318.717773,4311.410156,4313.974121,4320.512695,4303.589844,4311.538574,4307.948730,4317.948730,4308.717773,4312.051270,4459.871582,4474.871582,4349.358887,4478.717773,1593.000000,0.000000,6.000000,,,,0.000000,2.000000,2.000000,0.000000,2.000000,2.000000,2.000000,0.000000,2.000000,4.000000,4.000000,4.000000,4.000000,2.000000,4.000000,16.666666,,,,,,,,,,,,,,,,,,,,,,,,,,,,
1732083282.283232,1732083282.286587,94.000000,0.000000,4319.743652,4307.563965,4312.051270,4317.692383,4313.461426,4298.077148,4306.410156,4312.692383,4301.922852,4302.307617,4454.743652,4475.128418,4348.717773,4479.487305,1362.000000,0.000000,6.000000,,,,0.000000,2.000000,2.000000,0.000000,2.000000,2.000000,2.000000,0.000000,2.000000,4.000000,4.000000,4.000000,4.000000,2.000000,4.000000,16.666666,,,,,,,,,,,,,,,,,,,,,,,,,,,,
1732083282.291041,1732083282.294395,95.000000,0.000000,4322.948730,4304.358887,4311.666504,4313.461426,4301.794922,4297.948730,4305.384766,4321.794922,4307.820313,4302.436035,4456.410156,4479.358887,4353.077148,4481.025879,1504.000000,0.000000,6.000000,,,,0.000000,2.000000,2.000000,0.000000,2.000000,2.000000,2.000000,0.000000,2.000000,4.000000,4.000000,4.000000,4.000000,2.000000,4.000000,16.666666,,,,,,,,,,,,,,,,,,,,,,,,,,,,
1732083282.298849,1732083282.302303,96.000000,0.000000,4323.333496,4305.384766,4313.333496,4311.153809,4301.282227,4311.666504,4308.205078,4328.846191,4315.641113,4312.563965,4462.051270,4480.128418,4353.589844,4480.000000,1736.000000,0.000000,6.000000,,,,0.000000,2.000000,2.000000,0.000000,2.000000,2.000000,2.000000,0.000000,2.000000,4.000000,4.000000,4.000000,4.000000,2.000000,4.000000,16.666666,,,,,,,,,,,,,,,,,24.000000,0.000000,0.580393,0.382385,-0.631409,0.343872,0.974240,0.009278,-0.090343,-78.014565,56.242027,23.864332
1732083282.306657,1732083282.310111,97.000000,0.000000,4317.563965,4302.179688,4312.307617,4308.333496,4310.897461,4315.384766,4311.794922,4327.051270,4314.102539,4319.102539,4459.487305,4476.666504,4349.487305,4480.512695,1593.000000,0.000000,6.000000,,,,0.000000,2.000000,2.000000,0.000000,2.000000,2.000000,2.000000,0.000000,2.000000,4.000000,4.000000,4.000000,4.000000,2.000000,4.000000,16.666666,,,,,,,,,,,,,,,,,,,,,,,,,,,,
1732083282.314465,1732083282.317720,98.000000,0.000000,4318.077148,4300.128418,4312.179688,4307.051270,4301.794922,4305.128418,4312.436035,4326.282227,4311.538574,4315.512695,4460.256348,4476.666504,4351.794922,4485.384766,1362.000000,0.000000,6.000000,,,,0.000000,2.000000,2.000000,0.000000,2.000000,2.000000,2.000000,0.000000,2.000000,4.000000,4.000000,4.000000,4.000000,2.000000,4.000000,16.666666,,,,,,,,,,,,,,,,,,,,,,,,,,,,
1732083282.322274,1732083282.325528,99.000000,0.000000,4321.922852,4301.922852,4310.897461,4307.179688,4303.461426,4301.282227,4307.307617,4328.974121,4315.769043,4317.179688,4468.461426,4484.615234,4354.358887,4488.974121,1504.000000,0.000000,6.000000,,,,0.000000,2.000000,2.000000,0.000000,2.000000,2.000000,2.000000,0.000000,2.000000,4.000000,4.000000,4.000000,4.000000,2.000000,4.000000,16.666666,,,,,,,,,,,,,,,,,,,,,,,,,,,,
1732083282.330082,1732083282.333236,100.000000,0.000000,4321.666504,4303.461426,4311.794922,4308.589844,4320.000000,4305.000000,4307.563965,4327.179688,4315.641113,4321.153809,4468.589844,4489.615234,4351.538574,4488.974121,1736.000000,0.000000,6.000000,,,,0.000000,2.000000,2.000000,0.000000,2.000000,2.000000,2.000000,0.000000,2.000000,4.000000,4.000000,4.000000,4.000000,2.000000,4.000000,16.666666,,,,,,,,,,,,,,,,,25.000000,0.000000,0.580540,0.382080,-0.631592,0.343628,0.980588,0.010743,-0.092785,-77.990135,56.264378,24.096777
1732083282.337890,1732083282.341044,101.000000,0.000000,4322.692383,4306.666504,4312.307617,4310.256348,4308.717773,4307.051270,4309.743652,4321.922852,4313.589844,4312.563965,4466.794922,4488.333496,4352.563965,4491.153809,1593.000000,0.000000,6.000000,,,,0.000000,2.000000,2.000000,0.000000,2.000000,2.000000,2.000000,0.000000,2.000000,4.000000,4.000000,4.000000,4.000000,2.000000,4.000000,16.666666,,,,,,,,,,,,,,,,,,,,,,,,,,,,
1732083282.345698,1732083282.348653,102.000000,0.000000,4323.461426,4305.512695,4312.820313,4307.051270,4292.307617,4308.333496,4310.641113,4321.538574,4315.000000,4306.794922,4467.051270,4487.436035,4353.461426,4493.077148,1362.000000,0.000000,6.000000,,,,0.000000,2.000000,2.000000,0.000000,2.000000,2.000000,2.000000,0.000000,2.000000,4.000000,4.000000,4.000000,4.000000,2.000000,4.000000,16.666666,,,,,,,,,,,,,,,,,,,,,,,,,,,,
1732083282.353507,1732083282.356461,103.000000,0.000000,4322.563965,4300.128418,4314.487305,4304.871582,4300.512695,4310.384766,4311.922852,4326.153809,4314.487305,4314.743652,4462.820313,4488.205078,4349.615234,4491.538574,1504.000000,0.000000,6.000000,,,,0.000000,2.000000,2.000000,0.000000,2.000000,2.000000,2.000000,0.000000,2.000000,4.000000,4.000000,4.000000,4.000000,2.000000,4.000000,16.666666,,,,,,,,,,,,,,,,,,,,,,,,,,,,
1732083282.361315,1732083282.364169,104.000000,0.000000,4318.717773,4297.179688,4314.615234,4304.743652,4312.179688,4311.410156,4313.589844,4331.666504,4315.384766,4317.563965,4459.615234,4489.487305,4346.410156,4487.820313,1736.000000,0.000000,6.000000,,,,0.000000,2.000000,2.000000,0.000000,2.000000,2.000000,2.000000,0.000000,2.000000,4.000000,4.000000,4.000000,4.000000,2.000000,4.000000,16.666666,,,,,,,,,,,,,,,,,26.000000,0.000000,0.580540,0.382080,-0.631592,0.343628,0.980588,0.010255,-0.091808,-78.120338,56.432480,24.210054
1732083282.369123,1732083282.371977,105.000000,0.000000,4315.000000,4296.666504,4311.538574,4299.871582,4314.358887,4310.000000,4310.641113,4335.512695,4318.846191,4315.128418,4461.282227,4491.666504,4346.538574,4485.769043,1593.000000,0.000000,6.000000,,,,0.000000,2.000000,2.000000,0.000000,2.000000,2.000000,2.000000,0.000000,2.000000,4.000000,4.000000,4.000000,4.000000,2.000000,4.000000,16.666666,,,,,,,,,,,,,,,,,,,,,,,,,,,,
1732083282.376932,1732083282.379586,106.000000,0.000000,4315.000000,4298.205078,4311.794922,4298.077148,4308.846191,4309.230957,4310.641113,4335.897461,4320.512695,4319.871582,4461.153809,4493.077148,4347.820313,4486.282227,1362.000000,0.000000,6.000000,,,,0.000000,2.000000,2.000000,0.000000,2.000000,2.000000,2.000000,0.000000,2.000000,4.000000,4.000000,4.000000,4.000000,2.000000,4.000000,16.666666,,,,,,,,,,,,,,,,,,,,,,,,,,,,
1732083282.384740,1732083282.387394,107.000000,0.000000,4317.307617,4298.205078,4313.077148,4304.102539,4298.461426,4313.461426,4317.179688,4335.641113,4321.538574,4322.692383,4462.051270,4491.282227,4349.230957,4483.333496,1504.000000,0.000000,6.000000,,,,0.000000,2.000000,2.000000,0.000000,2.000000,2.000000,2.000000,0.000000,2.000000,4.000000,4.000000,4.000000,4.000000,2.000000,4.000000,16.666666,,,,,,,,,,,,,,,,,,,,,,,,,,,,
1732083282.392548,1732083282.395102,108.000000,0.000000,4318.333496,4297.307617,4310.641113,4305.256348,4298.333496,4317.051270,4316.153809,4335.384766,4320.897461,4318.846191,4465.000000,4494.615234,4350.512695,4485.384766,1736.000000,0.000000,6.000000,,,,0.000000,2.000000,2.000000,0.000000,2.000000,2.000000,2.000000,0.000000,2.000000,4.000000,4.000000,4.000000,4.000000,2.000000,4.000000,16.666666,,,,,,,,,,,,,,,,,27.000000,0.000000,0.580797,0.381531,-0.632019,0.343018,0.983518,0.003907,-0.090343,-78.130806,56.256973,24.173479
1732083282.400356,1732083282.402911,109.000000,0.000000,4318.717773,4297.820313,4311.538574,4302.820313,4304.615234,4311.410156,4310.512695,4331.922852,4316.666504,4317.307617,4466.282227,4500.641113,4350.897461,4491.282227,1593.000000,0.000000,6.000000,,,,0.000000,2.000000,2.000000,0.000000,2.000000,2.000000,2.000000,0.000000,2.000000,4.000000,4.000000,4.000000,4.000000,2.000000,4.000000,16.666666,,,,,,,,,,,,,,,,,,,,,,,,,,,,
1732083282.408164,1732083282.410519,110.000000,0.000000,4320.512695,4298.717773,4315.641113,4305.769043,4299.487305,4308.717773,4312.051270,4327.307617,4317.051270,4322.179688,4471.153809,4498.717773,4352.051270,4490.769043,1362.000000,0.000000,6.000000,,,,0.000000,2.000000,2.000000,0.000000,2.000000,2.000000,2.000000,0.000000,2.000000,4.000000,4.000000,4.000000,4.000000,2.000000,4.000000,16.666666,,,,,,,,,,,,,,,,,,,,,,,,,,,,
1732083282.415973,1732083282.418327,111.000000,0.000000,4318.205078,4297.436035,4317.307617,4308.461426,4298.974121,4312.563965,4316.922852,4325.897461,4317.948730,4322.307617,4470.128418,4492.692383,4351.794922,4490.256348,1504.000000,0.000000,6.000000,,,,0.000000,2.000000,2.000000,0.000000,2.000000,2.000000,2.000000,0.000000,2.000000,4.000000,4.000000,4.000000,4.000000,2.000000,4.000000,16.666666,,,,,,,,,,,,,,,,,,,,,,,,,,,,
1732083282.423781,1732083282.426035,112.000000,0.000000,4313.974121,4296.538574,4314.102539,4306.922852,4302.436035,4311.410156,4313.333496,4326.410156,4315.897461,4310.641113,4461.410156,4492.820313,4348.974121,4488.974121,1736.000000,0.000000,6.000000,,,,0.000000,2.000000,2.000000,0.000000,2.000000,2.000000,2.000000,0.000000,2.000000,4.000000,4.000000,4.000000,4.000000,2.000000,4.000000,16.666666,,,,,,,,,,,,,,,,,28.000000,0.000000,0.580952,0.381165,-0.632263,0.342712,0.962520,0.002442,-0.099622,-78.135956,56.111481,24.220518
1732083282.431589,1732083282.433844,113.000000,0.000000,4310.384766,4293.333496,4313.333496,4304.102539,4302.051270,4309.743652,4312.820313,4331.410156,4320.256348,4303.717773,4457.307617,4494.871582,4345.256348,4480.000000,1593.000000,0.000000,6.000000,,,,0.000000,2.000000,2.000000,0.000000,2.000000,2.000000,2.000000,0.000000,2.000000,4.000000,4.000000,4.000000,4.000000,2.000000,4.000000,16.666666,,,,,,,,,,,,,,,,,,,,,,,,,,,,
1732083282.439397,1732083282.441452,114.000000,0.000000,4307.692383,4290.897461,4314.102539,4301.538574,4301.922852,4315.512695,4315.897461,4336.153809,4323.589844,4310.384766,4458.205078,4492.179688,4342.307617,4474.743652,1362.000000,0.000000,6.000000,,,,0.000000,2.000000,2.000000,0.000000,2.000000,2.000000,2.000000,0.000000,2.000000,4.000000,4.000000,4.000000,4.000000,2.000000,4.000000,16.666666,,,,,,,,,,,,,,,,,,,,,,,,,,,,
1732083282.447206,1732083282.449260,115.000000,0.000000,4306.794922,4293.077148,4316.410156,4303.589844,4303.333496,4318.589844,4319.102539,4332.692383,4318.205078,4315.000000,4456.794922,4491.025879,4341.922852,4476.410156,1504.000000,0.000000,6.000000,,,,0.000000,2.000000,2.000000,0.000000,2.000000,2.000000,2.000000,0.000000,2.000000,4.000000,4.000000,4.000000,4.000000,2.000000,4.000000,16.666666,,,,,,,,,,,,,,,,,,,,,,,,,,,,
1732083282.455014,1732083282.457168,116.000000,0.000000,4308.589844,4294.743652,4314.487305,4302.307617,4315.128418,4311.666504,4315.128418,4327.436035,4314.487305,4312.307617,4455.769043,4492.563965,4341.153809,4476.922852,1736.000000,0.000000,6.000000,,,,0.000000,2.000000,2.000000,0.000000,2.000000,2.000000,2.000000,0.000000,2.000000,4.000000,4.000000,4.000000,4.000000,2.000000,4.000000,16.666666,,,,,,,,,,,,,,,,,29.000000,0.000000,0.581185,0.380981,-0.632324,0.342407,0.974728,0.001953,-0.092296,-78.143456,56.196968,24.223619
1732083282.462822,1732083282.464977,117.000000,0.000000,4311.025879,4293.461426,4312.307617,4298.974121,4316.922852,4308.846191,4313.205078,4326.922852,4318.589844,4313.077148,4458.077148,4493.205078,4338.717773,4479.615234,1593.000000,0.000000,6.000000,,,,0.000000,2.000000,2.000000,0.000000,2.000000,2.000000,2.000000,0.000000,2.000000,4.000000,4.000000,4.000000,4.000000,2.000000,4.000000,16.666666,,,,,,,,,,,,,,,,,,,,,,,,,,,,
1732083282.470631,1732083282.472585,118.000000,0.000000,4310.769043,4294.358887,4313.333496,4301.666504,4300.000000,4314.615234,4316.153809,4331.025879,4324.615234,4318.717773,4459.230957,4494.743652,4340.384766,4485.512695,1362.000000,0.000000,6.000000,,,,0.000000,2.000000,2.000000,0.000000,2.000000,2.000000,2.000000,0.000000,2.000000,4.000000,4.000000,4.000000,4.000000,2.000000,4.000000,16.666666,,,,,,,,,,,,,,,,,,,,,,,,,,,,
1732083282.478439,1732083282.480393,119.000000,0.000000,4311.666504,4295.512695,4315.000000,4304.743652,4293.846191,4312.563965,4317.051270,4336.538574,4323.461426,4319.871582,4459.487305,4488.205078,4340.769043,4485.512695,1504.000000,0.000000,6.000000,,,,0.000000,2.000000,2.000000,0.000000,2.000000,2.000000,2.000000,0.000000,2.000000,4.000000,4.000000,4.000000,4.000000,2.000000,4.000000,16.666666,,,,,,,,,,,,,,,,,,,,,,,,,,,,
1732083282.486247,1732083282.488102,120.000000,0.000000,4310.512695,4293.333496,4312.563965,4304.487305,4306.025879,4307.179688,4313.333496,4333.461426,4316.538574,4311.666504,4457.051270,4477.436035,4334.102539,4478.333496,1736.000000,0.000000,6.000000,,,,0.000000,2.000000,2.000000,0.000000,2.000000,2.000000,2.000000,0.000000,2.000000,4.000000,4.000000,4.000000,4.000000,2.000000,4.000000,16.666666,,,,,,,,,,,,,,,,,30.000000,0.000000,0.581364,0.380920,-0.632263,0.342285,0.974728,0.001953,-0.092296,-78.527870,56.191212,24.117798
1732083282.494055,1732083282.495910,121.000000,0.000000,4310.000000,4293.846191,4313.589844,4308.205078,4312.948730,4314.102539,4313.717773,4326.153809,4314.102539,4305.641113,4455.000000,4479.358887,4332.692383,4473.589844,1593.000000,0.000000,6.000000,,,,0.000000,2.000000,2.000000,0.000000,2.000000,2.000000,2.000000,0.000000,2.000000,4.000000,4.000000,4.000000,4.000000,2.000000,4.000000,16.666666,,,,,,,,,,,,,,,,,,,,,,,,,,,,
1732083282.501864,1732083282.503918,122.000000,0.000000,4314.487305,4297.820313,4317.820313,4313.717773,4307.948730,4321.153809,4316.794922,4328.589844,4316.538574,4313.333496,4457.820313,4490.000000,4342.820313,4481.410156,1362.000000,0.000000,6.000000,,,,0.000000,2.000000,2.000000,0.000000,2.000000,2.000000,2.000000,0.000000,2.000000,4.000000,4.000000,4.000000,4.000000,2.000000,4.000000,16.666666,,,,,,,,,,,,,,,,,,,,,,,,,,,,
1732083282.509672,1732083282.511726,123.000000,0.000000,4315.512695,4298.461426,4316.153809,4314.871582,4311.922852,4318.077148,4316.025879,4335.641113,4318.974121,4317.179688,4460.128418,4491.153809,4346.794922,4486.282227,1504.000000,0.000000,6.000000,,,,0.000000,2.000000,2.000000,0.000000,2.000000,2.000000,2.000000,0.000000,2.000000,4.000000,4.000000,4.000000,4.000000,2.000000,4.000000,16.666666,,,,,,,,,,,,,,,,,,,,,,,,,,,,
1732083282.517480,1732083282.519434,124.000000,0.000000,4313.077148,4297.820313,4312.820313,4311.025879,4324.743652,4317.692383,4314.871582,4336.794922,4322.307617,4312.563965,4461.666504,4487.051270,4342.820313,4476.922852,1736.000000,0.000000,6.000000,,,,0.000000,2.000000,2.000000,0.000000,2.000000,2.000000,2.000000,0.000000,2.000000,4.000000,4.000000,4.000000,4.000000,2.000000,4.000000,16.666666,,,,,,,,,,,,,,,,,31.000000,0.000000,0.581646,0.380615,-0.632385,0.341919,0.985472,0.021975,-0.095226,-78.674240,56.416546,24.053749
1732083282.525288,1732083282.527242,125.000000,0.000000,4315.384766,4300.769043,4315.384766,4308.846191,4322.820313,4320.512695,4313.717773,4333.717773,4321.410156,4314.102539,4462.179688,4488.846191,4345.512695,4478.077148,1593.000000,0.000000,6.000000,,,,0.000000,2.000000,2.000000,0.000000,2.000000,2.000000,2.000000,0.000000,2.000000,4.000000,4.000000,4.000000,4.000000,2.000000,4.000000,16.666666,,,,,,,,,,,,,,,,,,,,,,,,,,,,
1732083282.533097,1732083282.535250,126.000000,0.000000,4318.205078,4301.410156,4317.563965,4310.769043,4300.384766,4314.487305,4315.256348,4329.230957,4316.538574,4318.077148,4463.333496,4488.077148,4350.512695,4491.025879,1362.000000,0.000000,6.000000,,,,0.000000,2.000000,2.000000,0.000000,2.000000,2.000000,2.000000,0.000000,2.000000,4.000000,4.000000,4.000000,4.000000,2.000000,4.000000,16.666666,,,,,,,,,,,,,,,,,,,,,,,,,,,,
1732083282.540905,1732083282.543059,127.000000,0.000000,4315.769043,4296.282227,4313.589844,4311.410156,4288.717773,4309.743652,4316.922852,4328.205078,4318.461426,4320.128418,4469.102539,4491.153809,4352.948730,4494.230957,6.000000,0.000000,6.000000,,,,0.000000,2.000000,2.000000,0.000000,2.000000,2.000000,2.000000,0.000000,2.000000,4.000000,4.000000,4.000000,4.000000,2.000000,4.000000,16.666666,,,,,,,,,,,,,,,,,,,,,,,,,,,,
1732083282.548713,1732083282.550967,0.000000,0.000000,4312.436035,4294.615234,4312.563965,4304.871582,4305.641113,4311.794922,4316.410156,4331.282227,4320.384766,4321.538574,4471.153809,4502.692383,4354.102539,4490.769043,0.000000,0.000000,6.000000,,,,0.000000,2.000000,2.000000,0.000000,2.000000,2.000000,2.000000,0.000000,2.000000,4.000000,4.000000,4.000000,4.000000,2.000000,4.000000,16.666666,,,,,,,,,,,,,,,,,0.000000,0.000000,0.581682,0.380615,-0.632385,0.341858,0.984495,0.011720,-0.090831,-78.684464,56.599072,24.106871
1732083282.556522,1732083282.558775,1.000000,0.000000,4312.307617,4296.538574,4313.846191,4302.820313,4317.051270,4310.384766,4314.230957,4333.974121,4318.461426,4320.512695,4466.025879,4503.974121,4350.256348,4488.461426,1322.000000,0.000000,6.000000,,,,0.000000,2.000000,2.000000,0.000000,2.000000,2.000000,2.000000,0.000000,2.000000,4.000000,4.000000,4.000000,4.000000,2.000000,4.000000,16.666666,,,,,,,,,,,,,,,,,,,,,,,,,,,,
1732083282.564330,1732083282.566783,2.000000,0.000000,4312.179688,4294.871582,4312.820313,4306.666504,4304.102539,4312.436035,4318.077148,4335.641113,4320.512695,4320.384766,4462.179688,4498.717773,4348.589844,4481.538574,1252.000000,0.000000,6.000000,,,,0.000000,2.000000,2.000000,0.000000,2.000000,2.000000,2.000000,0.000000,2.000000,4.000000,4.000000,4.000000,4.000000,2.000000,4.000000,16.666666,,,,,,,,,,,,,,,,,,,,,,,,,,,,
1732083282.572138,1732083282.574591,3.000000,0.000000,4310.000000,4293.589844,4308.846191,4308.589844,4294.230957,4316.666504,4317.051270,4332.307617,4321.282227,4321.410156,4461.922852,4502.051270,4348.846191,4476.922852,1187.000000,0.000000,6.000000,,,,0.000000,2.000000,2.000000,0.000000,2.000000,2.000000,2.000000,0.000000,2.000000,4.000000,4.000000,4.000000,4.000000,2.000000,4.000000,16.666666,,,,,,,,,,,,,,,,,,,,,,,,,,,,
1732083282.579946,1732083282.582300,4.000000,0.000000,4308.077148,4296.538574,4310.256348,4307.948730,4303.333496,4312.948730,4315.256348,4326.922852,4315.128418,4320.384766,4459.871582,4506.794922,4344.743652,4478.461426,1207.000000,0.000000,6.000000,,,,0.000000,2.000000,2.000000,0.000000,2.000000,2.000000,2.000000,0.000000,2.000000,4.000000,4.000000,4.000000,4.000000,2.000000,4.000000,16.666666,,,,,,,,,,,,,,,,,1.000000,0.000000,0.581696,0.380493,-0.632446,0.341858,0.984495,0.011720,-0.090831,-78.507751,56.551914,23.991566
1732083282.587755,1732083282.590108,5.000000,0.000000,4310.512695,4298.846191,4313.717773,4308.461426,4310.384766,4310.641113,4315.000000,4327.692383,4310.512695,4320.512695,4458.589844,4505.000000,4343.589844,4477.436035,1083.000000,0.000000,6.000000,,,,0.000000,2.000000,2.000000,0.000000,2.000000,2.000000,2.000000,0.000000,2.000000,4.000000,4.000000,4.000000,4.000000,2.000000,4.000000,16.666666,,,,,,,,,,,,,,,,,,,,,,,,,,,,
1732083282.595563,1732083282.597716,6.000000,0.000000,4309.615234,4297.692383,4314.487305,4306.282227,4305.000000,4312.179688,4315.897461,4328.333496,4311.153809,4313.333496,4455.384766,4504.871582,4343.077148,4477.307617,6.000000,0.000000,6.000000,,,,0.000000,2.000000,2.000000,0.000000,2.000000,2.000000,2.000000,0.000000,2.000000,4.000000,4.000000,4.000000,4.000000,2.000000,4.000000,16.666666,,,,,,,,,,,,,,,,,,,,,,,,,,,,
1732083282.603371,1732083282.605524,7.000000,0.000000,4301.153809,4296.794922,4309.358887,4301.538574,4307.436035,4309.487305,4315.000000,4324.743652,4313.333496,4303.717773,4450.256348,4500.769043,4333.461426,4477.179688,1170.000000,0.000000,6.000000,,,,0.000000,2.000000,2.000000,0.000000,2.000000,2.000000,2.000000,0.000000,2.000000,4.000000,4.000000,4.000000,4.000000,2.000000,4.000000,16.666666,,,,,,,,,,,,,,,,,,,,,,,,,,,,
1732083282.611179,1732083282.613432,8.000000,0.000000,4294.230957,4293.333496,4307.692383,4299.102539,4308.846191,4310.769043,4314.871582,4329.487305,4314.871582,4308.205078,4448.333496,4492.051270,4322.051270,4469.487305,1366.000000,0.000000,6.000000,,,,0.000000,2.000000,2.000000,0.000000,2.000000,2.000000,2.000000,0.000000,2.000000,4.000000,4.000000,4.000000,4.000000,2.000000,4.000000,16.666666,,,,,,,,,,,,,,,,,2.000000,0.000000,0.582009,0.379944,-0.632751,0.341370,0.982053,0.017580,-0.085948,-78.252945,56.320381,24.341501
1732083282.618988,1732083282.621241,9.000000,0.000000,4296.794922,4291.282227,4310.256348,4299.615234,4305.897461,4316.794922,4316.025879,4335.384766,4314.230957,4314.615234,4448.461426,4489.871582,4321.282227,4466.025879,1516.000000,0.000000,6.000000,,,,0.000000,2.000000,2.000000,0.000000,2.000000,2.000000,2.000000,0.000000,2.000000,4.000000,4.000000,4.000000,4.000000,2.000000,4.000000,16.666666,,,,,,,,,,,,,,,,,,,,,,,,,,,,
1732083282.626796,1732083282.629249,10.000000,0.000000,4304.102539,4294.743652,4311.666504,4300.512695,4315.769043,4307.563965,4316.922852,4332.820313,4312.692383,4309.615234,4451.794922,4493.589844,4329.743652,4474.102539,1369.000000,0.000000,6.000000,,,,0.000000,2.000000,2.000000,0.000000,2.000000,2.000000,2.000000,0.000000,2.000000,4.000000,4.000000,4.000000,4.000000,2.000000,4.000000,16.666666,,,,,,,,,,,,,,,,,,,,,,,,,,,,
1732083282.634604,1732083282.637057,11.000000,0.000000,4309.230957,4300.641113,4313.205078,4304.615234,4314.358887,4297.820313,4316.153809,4330.641113,4309.487305,4308.205078,4455.512695,4500.512695,4335.128418,4482.436035,1504.000000,0.000000,6.000000,,,,0.000000,2.000000,2.000000,0.000000,2.000000,2.000000,2.000000,0.000000,2.000000,4.000000,4.000000,4.000000,4.000000,2.000000,4.000000,16.666666,,,,,,,,,,,,,,,,,,,,,,,,,,,,
1732083282.642413,1732083282.644965,12.000000,0.000000,4311.282227,4301.922852,4315.512695,4308.974121,4295.897461,4305.897461,4313.846191,4326.922852,4309.358887,4314.487305,4456.538574,4507.436035,4333.077148,4487.563965,1740.000000,0.000000,6.000000,,,,0.000000,2.000000,2.000000,0.000000,2.000000,2.000000,2.000000,0.000000,2.000000,4.000000,4.000000,4.000000,4.000000,2.000000,4.000000,16.666666,,,,,,,,,,,,,,,,,3.000000,0.000000,0.582415,0.379456,-0.632935,0.340881,0.983518,0.019045,-0.087901,-78.113220,56.249512,24.391617
1732083282.650221,1732083282.652773,13.000000,0.000000,4313.205078,4298.333496,4314.102539,4307.692383,4293.589844,4313.846191,4314.743652,4323.333496,4310.897461,4315.256348,4456.666504,4508.205078,4333.461426,4489.358887,1593.000000,0.000000,6.000000,,,,0.000000,2.000000,2.000000,0.000000,2.000000,2.000000,2.000000,0.000000,2.000000,4.000000,4.000000,4.000000,4.000000,2.000000,4.000000,16.666666,,,,,,,,,,,,,,,,,,,,,,,,,,,,
1732083282.658029,1732083282.660781,14.000000,0.000000,4310.769043,4298.205078,4310.000000,4305.256348,4301.666504,4310.769043,4313.717773,4326.538574,4310.384766,4313.974121,4458.589844,4506.410156,4339.615234,4489.358887,1369.000000,0.000000,6.000000,,,,0.000000,2.000000,2.000000,0.000000,2.000000,2.000000,2.000000,0.000000,2.000000,4.000000,4.000000,4.000000,4.000000,2.000000,4.000000,16.666666,1.000000,16.666666,2.000000,2.000000,0.000000,2.000000,2.000000,2.000000,0.000000,2.000000,4.000000,4.000000,4.000000,4.000000,2.000000,4.000000,,,,,,,,,,,,
1732083282.665837,1732083282.668589,15.000000,0.000000,4305.897461,4301.410156,4310.897461,4306.153809,4298.846191,4310.384766,4313.461426,4327.307617,4312.692383,4316.794922,4462.436035,4506.538574,4339.871582,4489.358887,1504.000000,0.000000,6.000000,,,,0.000000,2.000000,2.000000,0.000000,2.000000,2.000000,2.000000,0.000000,2.000000,4.000000,4.000000,4.000000,4.000000,2.000000,4.000000,16.666666,,,,,,,,,,,,,,,,,,,,,,,,,,,,
1732083282.673645,1732083282.676298,16.000000,0.000000,4303.461426,4299.230957,4309.615234,4305.256348,4306.922852,4310.512695,4313.717773,4321.538574,4313.846191,4320.512695,4463.589844,4504.230957,4337.563965,4489.102539,0.000000,0.000000,6.000000,,,,0.000000,2.000000,2.000000,0.000000,2.000000,2.000000,2.000000,0.000000,2.000000,4.000000,4.000000,4.000000,4.000000,2.000000,4.000000,16.666666,,,,,,,,,,,,,,,,,4.000000,0.000000,0.582415,0.379456,-0.632935,0.340881,0.991820,-0.001465,-0.088390,-78.240044,56.462105,24.312208
1732083282.681454,1732083282.684106,17.000000,0.000000,4303.717773,4294.743652,4309.230957,4300.512695,4312.436035,4303.974121,4315.512695,4325.384766,4311.794922,4314.871582,4461.025879,4503.205078,4339.230957,4489.358887,0.000000,0.000000,6.000000,,,,0.000000,2.000000,2.000000,0.000000,2.000000,2.000000,2.000000,0.000000,2.000000,4.000000,4.000000,4.000000,4.000000,2.000000,4.000000,16.666666,,,,,,,,,,,,,,,,,,,,,,,,,,,,
1732083282.689262,1732083282.691714,18.000000,0.000000,4303.077148,4297.051270,4312.436035,4297.563965,4295.256348,4306.025879,4316.282227,4334.743652,4317.051270,4313.205078,4464.487305,4508.846191,4339.871582,4490.512695,0.000000,0.000000,6.000000,,,,0.000000,2.000000,2.000000,0.000000,2.000000,2.000000,2.000000,0.000000,2.000000,4.000000,4.000000,4.000000,4.000000,2.000000,4.000000,16.666666,,,,,,,,,,,,,,,,,,,,,,,,,,,,
1732083282.697070,1732083282.699523,19.000000,0.000000,4301.794922,4301.538574,4314.487305,4299.230957,4288.846191,4311.410156,4317.307617,4333.077148,4321.282227,4324.358887,4470.897461,4510.512695,4340.256348,4489.743652,0.000000,0.000000,6.000000,,,,0.000000,2.000000,2.000000,0.000000,2.000000,2.000000,2.000000,0.000000,2.000000,4.000000,4.000000,4.000000,4.000000,2.000000,4.000000,16.666666,,,,,,,,,,,,,,,,,,,,,,,,,,,,
1732083282.704878,1732083282.707231,20.000000,0.000000,4301.922852,4300.384766,4310.256348,4300.641113,4300.641113,4306.922852,4313.717773,4325.512695,4313.461426,4327.436035,4469.615234,4505.769043,4343.589844,4491.025879,0.000000,0.000000,6.000000,,,,0.000000,2.000000,2.000000,0.000000,2.000000,2.000000,2.000000,0.000000,2.000000,4.000000,4.000000,4.000000,4.000000,2.000000,4.000000,16.666666,,,,,,,,,,,,,,,,,5.000000,0.000000,0.582664,0.379395,-0.632874,0.340637,0.982053,0.000000,-0.080088,-78.352768,56.500969,24.347889
1732083282.712687,1732083282.715039,21.000000,0.000000,4300.641113,4298.077148,4311.025879,4301.282227,4305.256348,4307.179688,4315.512695,4325.897461,4310.769043,4319.102539,4462.307617,4503.589844,4340.769043,4488.461426,0.000000,0.000000,6.000000,,,,0.000000,2.000000,2.000000,0.000000,2.000000,2.000000,2.000000,0.000000,2.000000,4.000000,4.000000,4.000000,4.000000,2.000000,4.000000,16.666666,,,,,,,,,,,,,,,,,,,,,,,,,,,,
1732083282.720495,1732083282.722647,22.000000,0.000000,4299.871582,4299.743652,4316.153809,4304.743652,4304.230957,4316.282227,4319.230957,4333.717773,4320.000000,4320.000000,4462.051270,4504.487305,4333.974121,4481.153809,0.000000,0.000000,6.000000,,,,0.000000,2.000000,2.000000,0.000000,2.000000,2.000000,2.000000,0.000000,2.000000,4.000000,4.000000,4.000000,4.000000,2.000000,4.000000,16.666666,,,,,,,,,,,,,,,,,,,,,,,,,,,,
1732083282.728303,1732083282.730456,23.000000,0.000000,4302.820313,4300.000000,4315.769043,4304.102539,4313.974121,4315.256348,4318.589844,4337.051270,4320.384766,4323.974121,4466.282227,4502.820313,4336.666504,4484.358887,0.000000,0.000000,6.000000,,,,0.000000,2.000000,2.000000,0.000000,2.000000,2.000000,2.000000,0.000000,2.000000,4.000000,4.000000,4.000000,4.000000,2.000000,4.000000,16.666666,,,,,,,,,,,,,,,,,,,,,,,,,,,,
1732083282.736112,1732083282.738164,24.000000,0.000000,4307.179688,4299.871582,4310.897461,4300.000000,4318.717773,4307.948730,4316.666504,4334.358887,4313.077148,4318.333496,4464.743652,4502.692383,4343.589844,4493.589844,0.000000,0.000000,6.000000,,,,0.000000,2.000000,2.000000,0.000000,2.000000,2.000000,2.000000,0.000000,2.000000,4.000000,4.000000,4.000000,4.000000,2.000000,4.000000,16.666666,,,,,,,,,,,,,,,,,6.000000,0.000000,0.583125,0.378967,-0.632935,0.340210,0.984984,0.008302,-0.074716,-78.357407,56.517452,24.203457
1732083282.743920,1732083282.745972,25.000000,0.000000,4307.436035,4303.077148,4311.153809,4303.717773,4303.461426,4309.487305,4316.025879,4332.692383,4311.282227,4313.461426,4460.384766,4503.974121,4341.538574,4488.333496,0.000000,0.000000,6.000000,,,,0.000000,2.000000,2.000000,0.000000,2.000000,2.000000,2.000000,0.000000,2.000000,4.000000,4.000000,4.000000,4.000000,2.000000,4.000000,16.666666,,,,,,,,,,,,,,,,,,,,,,,,,,,,
1732083282.751728,1732083282.753581,26.000000,0.000000,4306.282227,4301.153809,4315.128418,4309.743652,4289.102539,4311.282227,4316.153809,4333.974121,4313.717773,4311.922852,4458.589844,4503.717773,4336.153809,4481.025879,0.000000,0.000000,6.000000,,,,0.000000,2.000000,2.000000,0.000000,2.000000,2.000000,2.000000,0.000000,2.000000,4.000000,4.000000,4.000000,4.000000,2.000000,4.000000,16.666666,,,,,,,,,,,,,,,,,,,,,,,,,,,,
1732083282.759536,1732083282.761389,27.000000,0.000000,4306.282227,4297.179688,4313.717773,4309.743652,4305.384766,4310.769043,4315.256348,4333.846191,4313.333496,4313.333496,4459.358887,4504.743652,4336.666504,4480.897461,0.000000,0.000000,6.000000,,,,0.000000,2.000000,2.000000,0.000000,2.000000,2.000000,2.000000,0.000000,2.000000,4.000000,4.000000,4.000000,4.000000,2.000000,4.000000,16.666666,,,,,,,,,,,,,,,,,,,,,,,,,,,,
1732083282.767345,1732083282.769097,28.000000,0.000000,4303.717773,4298.333496,4310.256348,4308.205078,4328.077148,4312.948730,4313.589844,4333.589844,4313.077148,4316.153809,4458.974121,4507.436035,4338.974121,4480.256348,0.000000,0.000000,6.000000,,,,0.000000,2.000000,2.000000,0.000000,2.000000,2.000000,2.000000,0.000000,2.000000,4.000000,4.000000,4.000000,4.000000,2.000000,4.000000,16.666666,,,,,,,,,,,,,,,,,7.000000,0.000000,0.583443,0.378540,-0.632996,0.340027,0.968868,0.014650,-0.085460,-78.326164,56.395802,24.001467
1732083282.775153,1732083282.776905,29.000000,0.000000,4302.948730,4297.179688,4310.000000,4307.820313,4311.666504,4310.769043,4312.051270,4332.948730,4315.000000,4313.589844,4460.512695,4507.820313,4340.641113,4480.384766,0.000000,0.000000,6.000000,,,,0.000000,2.000000,2.000000,0.000000,2.000000,2.000000,2.000000,0.000000,2.000000,4.000000,4.000000,4.000000,4.000000,2.000000,4.000000,16.666666,,,,,,,,,,,,,,,,,,,,,,,,,,,,
1732083282.782961,1732083282.784514,30.000000,0.000000,4303.717773,4295.641113,4312.307617,4307.307617,4292.563965,4308.205078,4316.538574,4329.871582,4315.384766,4309.487305,4461.666504,4505.256348,4340.641113,4481.922852,0.000000,0.000000,6.000000,,,,0.000000,2.000000,2.000000,0.000000,2.000000,2.000000,2.000000,0.000000,2.000000,4.000000,4.000000,4.000000,4.000000,2.000000,4.000000,16.666666,,,,,,,,,,,,,,,,,,,,,,,,,,,,
1732083282.790769,1732083282.792322,31.000000,0.000000,4304.487305,4303.717773,4312.820313,4308.846191,4305.384766,4316.153809,4320.384766,4327.436035,4314.871582,4312.692383,4461.666504,4502.948730,4338.846191,4477.692383,0.000000,0.000000,6.000000,,,,0.000000,2.000000,2.000000,0.000000,2.000000,2.000000,2.000000,0.000000,2.000000,4.000000,4.000000,4.000000,4.000000,2.000000,4.000000,16.666666,,,,,,,,,,,,,,,,,,,,,,,,,,,,
1732083282.798578,1732083282.800030,32.000000,0.000000,4305.128418,4307.179688,4311.922852,4306.153809,4312.563965,4318.846191,4320.512695,4327.179688,4314.102539,4316.025879,4459.743652,4503.461426,4337.820313,4474.871582,0.000000,0.000000,6.000000,,,,0.000000,2.000000,2.000000,0.000000,2.000000,2.000000,2.000000,0.000000,2.000000,4.000000,4.000000,4.000000,4.000000,2.000000,4.000000,16.666666,,,,,,,,,,,,,,,,,8.000000,0.000000,0.583558,0.378418,-0.632996,0.339966,0.979123,0.009278,-0.086436,-78.315865,56.440601,24.076189
1732083282.806386,1732083282.807838,33.000000,0.000000,4304.871582,4297.820313,4310.769043,4301.025879,4297.820313,4311.666504,4315.641113,4331.025879,4315.769043,4319.230957,4457.563965,4505.128418,4339.487305,4482.948730,0.000000,0.000000,6.000000,,,,0.000000,2.000000,2.000000,0.000000,2.000000,2.000000,2.000000,0.000000,2.000000,4.000000,4.000000,4.000000,4.000000,2.000000,4.000000,16.666666,,,,,,,,,,,,,,,,,,,,,,,,,,,,
