title:1eight, start timestamp:1732158610.772737, stop timestamp:1732158669.553266, headset type:EPOCX, headset serial:E5020C3A, headset firmware:730, channels:67, sampling rate:eeg_128;mot_32, samples:7529      , version:2.2, 
Timestamp,OriginalTimestamp,EEG.Counter,EEG.Interpolated,EEG.AF3,EEG.F7,EEG.F3,EEG.FC5,EEG.T7,EEG.P7,EEG.O1,EEG.O2,EEG.P8,EEG.T8,EEG.FC6,EEG.F4,EEG.F8,EEG.AF4,EEG.RawCq,EEG.Battery,EEG.BatteryPercent,MarkerIndex,MarkerType,MarkerValueInt,EEG.MarkerHardware,CQ.AF3,CQ.F7,CQ.F3,CQ.FC5,CQ.T7,CQ.P7,CQ.O1,CQ.O2,CQ.P8,CQ.T8,CQ.FC6,CQ.F4,CQ.F8,CQ.AF4,CQ.Overall,EQ.SampleRateQuality,EQ.OVERALL,EQ.AF3,EQ.F7,EQ.F3,EQ.FC5,EQ.T7,EQ.P7,EQ.O1,EQ.O2,EQ.P8,EQ.T8,EQ.FC6,EQ.F4,EQ.F8,EQ.AF4,MOT.CounterMems,MOT.InterpolatedMems,MOT.Q0,MOT.Q1,MOT.Q2,MOT.Q3,MOT.AccX,MOT.AccY,MOT.AccZ,MOT.MagX,MOT.MagY,MOT.MagZ
1732158610.772737,1732158610.775337,49.000000,0.000000,4282.948730,4249.230957,4308.717773,4272.692383,4264.358887,4279.102539,4335.897461,4398.717773,4315.512695,4304.615234,4495.897461,4519.102539,4365.000000,4431.410156,0.000000,1.000000,20.000000,,,,0.000000,2.000000,2.000000,0.000000,4.000000,2.000000,2.000000,0.000000,0.000000,4.000000,4.000000,4.000000,4.000000,4.000000,4.000000,0.000000,,,,,,,,,,,,,,,,,,,,,,,,,,,,
1732158610.780545,1732158610.783345,50.000000,0.000000,4281.538574,4248.846191,4310.000000,4271.794922,4262.948730,4278.333496,4335.769043,4400.000000,4307.179688,4305.512695,4493.589844,4512.436035,4366.025879,4427.051270,0.000000,1.000000,20.000000,,,,0.000000,2.000000,2.000000,0.000000,4.000000,2.000000,2.000000,0.000000,0.000000,4.000000,4.000000,4.000000,4.000000,4.000000,4.000000,0.000000,,,,,,,,,,,,,,,,,,,,,,,,,,,,
1732158610.788354,1732158610.791153,51.000000,0.000000,4280.256348,4250.512695,4311.410156,4275.256348,4265.000000,4280.000000,4335.512695,4402.051270,4295.384766,4285.641113,4486.410156,4510.641113,4362.051270,4424.871582,0.000000,1.000000,20.000000,,,,0.000000,2.000000,2.000000,0.000000,4.000000,2.000000,2.000000,0.000000,0.000000,4.000000,4.000000,4.000000,4.000000,4.000000,4.000000,0.000000,,,,,,,,,,,,,,,,,,,,,,,,,,,,
1732158610.796162,1732158610.799061,52.000000,0.000000,4280.641113,4257.692383,4308.461426,4278.461426,4266.025879,4281.666504,4334.871582,4403.717773,4301.538574,4281.538574,4493.846191,4518.974121,4360.512695,4428.846191,0.000000,1.000000,20.000000,,,,0.000000,2.000000,2.000000,0.000000,4.000000,2.000000,2.000000,0.000000,0.000000,4.000000,4.000000,4.000000,4.000000,4.000000,4.000000,0.000000,,,,,,,,,,,,,,,,,13.000000,0.000000,0.530966,0.480713,-0.550110,0.429382,0.966915,0.019534,-0.081553,-35.107288,45.975594,31.923109
1732158610.803970,1732158610.806869,53.000000,0.000000,4281.922852,4259.102539,4310.256348,4279.230957,4264.487305,4281.922852,4334.743652,4402.563965,4315.000000,4300.769043,4500.256348,4512.436035,4363.846191,4427.692383,0.000000,1.000000,20.000000,,,,0.000000,2.000000,2.000000,0.000000,4.000000,2.000000,2.000000,0.000000,0.000000,4.000000,4.000000,4.000000,4.000000,4.000000,4.000000,0.000000,,,,,,,,,,,,,,,,,,,,,,,,,,,,
1732158610.811778,1732158610.814877,54.000000,0.000000,4282.051270,4249.871582,4313.077148,4278.717773,4263.589844,4282.307617,4334.871582,4399.743652,4311.153809,4303.333496,4491.666504,4500.897461,4360.897461,4419.871582,0.000000,1.000000,20.000000,,,,0.000000,2.000000,2.000000,0.000000,4.000000,2.000000,2.000000,0.000000,0.000000,4.000000,4.000000,4.000000,4.000000,4.000000,4.000000,0.000000,,,,,,,,,,,,,,,,,,,,,,,,,,,,
1732158610.819587,1732158610.822686,55.000000,0.000000,4280.769043,4247.051270,4310.512695,4275.641113,4264.487305,4280.512695,4334.743652,4400.128418,4303.589844,4296.025879,4487.307617,4503.333496,4354.743652,4417.692383,0.000000,1.000000,20.000000,,,,0.000000,2.000000,2.000000,0.000000,4.000000,2.000000,2.000000,0.000000,0.000000,4.000000,4.000000,4.000000,4.000000,4.000000,4.000000,0.000000,,,,,,,,,,,,,,,,,,,,,,,,,,,,
1732158610.827395,1732158610.830594,56.000000,0.000000,4279.615234,4251.666504,4307.948730,4275.000000,4268.461426,4278.461426,4334.743652,4402.692383,4305.512695,4292.820313,4492.563965,4511.666504,4356.025879,4420.641113,0.000000,1.000000,20.000000,,,,0.000000,2.000000,2.000000,0.000000,4.000000,2.000000,2.000000,0.000000,0.000000,4.000000,4.000000,4.000000,4.000000,4.000000,4.000000,0.000000,,,,,,,,,,,,,,,,,14.000000,0.000000,0.533156,0.479919,-0.549255,0.428650,0.978635,0.041997,-0.051276,-34.961903,46.140232,31.711050
1732158610.835203,1732158610.838402,57.000000,0.000000,4279.230957,4250.641113,4308.589844,4280.000000,4270.128418,4281.025879,4334.743652,4400.256348,4302.820313,4285.512695,4493.205078,4509.743652,4356.922852,4417.692383,0.000000,1.000000,20.000000,,,,0.000000,2.000000,2.000000,0.000000,4.000000,2.000000,2.000000,0.000000,0.000000,4.000000,4.000000,4.000000,4.000000,4.000000,4.000000,0.000000,,,,,,,,,,,,,,,,,,,,,,,,,,,,
1732158610.843011,1732158610.846410,58.000000,0.000000,4277.051270,4248.974121,4311.410156,4279.102539,4264.487305,4282.051270,4334.743652,4397.436035,4295.641113,4290.384766,4482.563965,4503.589844,4350.256348,4410.769043,0.000000,1.000000,20.000000,,,,0.000000,2.000000,2.000000,0.000000,4.000000,2.000000,2.000000,0.000000,0.000000,4.000000,4.000000,4.000000,4.000000,4.000000,4.000000,0.000000,,,,,,,,,,,,,,,,,,,,,,,,,,,,
1732158610.850819,1732158610.854218,59.000000,0.000000,4276.410156,4255.641113,4313.333496,4277.307617,4264.743652,4278.846191,4334.743652,4399.871582,4297.692383,4296.922852,4474.230957,4506.025879,4347.436035,4412.051270,0.000000,1.000000,20.000000,,,,0.000000,2.000000,2.000000,0.000000,4.000000,2.000000,2.000000,0.000000,0.000000,4.000000,4.000000,4.000000,4.000000,4.000000,4.000000,0.000000,,,,,,,,,,,,,,,,,,,,,,,,,,,,
1732158610.858628,1732158610.862126,60.000000,0.000000,4278.077148,4263.589844,4312.820313,4281.538574,4275.769043,4279.487305,4334.743652,4402.692383,4303.717773,4282.307617,4479.743652,4506.666504,4352.692383,4414.102539,0.000000,1.000000,20.000000,,,,0.000000,2.000000,2.000000,0.000000,4.000000,2.000000,2.000000,0.000000,0.000000,4.000000,4.000000,4.000000,4.000000,4.000000,4.000000,0.000000,,,,,,,,,,,,,,,,,15.000000,0.000000,0.534587,0.479919,-0.548340,0.428040,0.977170,0.049811,-0.041021,-34.882473,45.911919,31.590952
1732158610.866436,1732158610.869934,61.000000,0.000000,4276.794922,4264.615234,4311.410156,4283.846191,4280.000000,4283.205078,4334.743652,4401.794922,4300.897461,4284.615234,4488.461426,4495.641113,4357.051270,4404.230957,0.000000,1.000000,20.000000,,,,0.000000,2.000000,2.000000,0.000000,4.000000,2.000000,2.000000,0.000000,0.000000,4.000000,4.000000,4.000000,4.000000,4.000000,4.000000,0.000000,,,,,,,,,,,,,,,,,,,,,,,,,,,,
1732158610.874244,1732158610.877842,62.000000,0.000000,4274.615234,4260.000000,4310.384766,4280.769043,4274.743652,4283.333496,4334.743652,4400.256348,4296.666504,4297.179688,4478.974121,4496.410156,4355.256348,4400.256348,0.000000,1.000000,20.000000,,,,0.000000,2.000000,2.000000,0.000000,4.000000,2.000000,2.000000,0.000000,0.000000,4.000000,4.000000,4.000000,4.000000,4.000000,4.000000,0.000000,,,,,,,,,,,,,,,,,,,,,,,,,,,,
1732158610.882053,1732158610.885651,63.000000,0.000000,4276.666504,4259.743652,4310.384766,4279.487305,4274.743652,4281.282227,4334.743652,4400.641113,4295.512695,4282.179688,4470.769043,4508.461426,4353.846191,4410.256348,0.000000,1.000000,20.000000,,,,0.000000,2.000000,2.000000,0.000000,4.000000,2.000000,2.000000,0.000000,0.000000,4.000000,4.000000,4.000000,4.000000,4.000000,4.000000,0.000000,,,,,,,,,,,,,,,,,,,,,,,,,,,,
1732158610.889861,1732158610.893359,64.000000,0.000000,4280.128418,4266.025879,4309.358887,4282.436035,4281.153809,4281.794922,4334.871582,4400.512695,4294.871582,4277.051270,4483.974121,4507.307617,4356.025879,4415.641113,0.000000,1.000000,20.000000,,,,0.000000,2.000000,2.000000,0.000000,4.000000,2.000000,2.000000,0.000000,0.000000,4.000000,4.000000,4.000000,4.000000,4.000000,4.000000,0.000000,,,,,,,,,,,,,,,,,16.000000,0.000000,0.534587,0.479919,-0.548340,0.428040,0.980100,0.079600,-0.043951,-34.788139,45.696987,31.553671
1732158610.897669,1732158610.901167,65.000000,0.000000,4277.692383,4263.333496,4306.410156,4282.692383,4277.436035,4282.179688,4334.615234,4400.769043,4302.051270,4298.589844,4493.717773,4505.769043,4361.538574,4414.615234,1611.000000,1.000000,20.000000,,,,0.000000,2.000000,2.000000,0.000000,4.000000,2.000000,2.000000,0.000000,0.000000,4.000000,4.000000,4.000000,4.000000,4.000000,4.000000,0.000000,,,,,,,,,,,,,,,,,,,,,,,,,,,,
1732158610.905477,1732158610.908776,66.000000,0.000000,4274.615234,4251.794922,4306.410156,4279.230957,4265.641113,4280.256348,4334.871582,4401.538574,4312.820313,4301.794922,4491.666504,4515.769043,4364.615234,4416.025879,1361.000000,1.000000,20.000000,,,,0.000000,2.000000,2.000000,0.000000,4.000000,2.000000,2.000000,0.000000,0.000000,4.000000,4.000000,4.000000,4.000000,4.000000,4.000000,0.000000,,,,,,,,,,,,,,,,,,,,,,,,,,,,
1732158610.913286,1732158610.916584,67.000000,0.000000,4278.205078,4253.205078,4308.974121,4279.743652,4266.282227,4279.615234,4335.512695,4400.256348,4310.769043,4291.153809,4489.102539,4524.230957,4363.077148,4417.948730,1429.000000,1.000000,20.000000,,,,0.000000,2.000000,2.000000,0.000000,4.000000,2.000000,2.000000,0.000000,0.000000,4.000000,4.000000,4.000000,4.000000,4.000000,4.000000,0.000000,,,,,,,,,,,,,,,,,,,,,,,,,,,,
1732158610.921094,1732158610.924292,68.000000,0.000000,4281.666504,4262.179688,4308.461426,4282.436035,4271.922852,4281.538574,4336.025879,4397.307617,4303.589844,4294.358887,4488.846191,4524.615234,4363.589844,4422.436035,1434.000000,1.000000,20.000000,,,,0.000000,2.000000,2.000000,0.000000,4.000000,2.000000,2.000000,0.000000,0.000000,4.000000,4.000000,4.000000,4.000000,4.000000,4.000000,0.000000,,,,,,,,,,,,,,,,,17.000000,0.000000,0.536764,0.481445,-0.546631,0.425781,0.958125,0.086925,-0.059578,-34.875057,45.902893,31.466806
1732158610.928902,1732158610.932100,69.000000,0.000000,4280.512695,4261.282227,4304.743652,4282.436035,4266.153809,4281.538574,4335.897461,4397.563965,4305.384766,4294.230957,4490.512695,4517.692383,4366.282227,4425.641113,1197.000000,1.000000,20.000000,,,,0.000000,2.000000,2.000000,0.000000,4.000000,2.000000,2.000000,0.000000,0.000000,4.000000,4.000000,4.000000,4.000000,4.000000,4.000000,0.000000,,,,,,,,,,,,,,,,,,,,,,,,,,,,
1732158610.936710,1732158610.939709,70.000000,0.000000,4277.948730,4260.128418,4304.230957,4280.641113,4265.512695,4280.897461,4335.897461,4400.641113,4307.563965,4287.692383,4491.153809,4512.948730,4366.153809,4420.000000,0.000000,1.000000,20.000000,,,,0.000000,2.000000,2.000000,0.000000,4.000000,2.000000,2.000000,0.000000,0.000000,4.000000,4.000000,4.000000,4.000000,4.000000,4.000000,0.000000,,,,,,,,,,,,,,,,,,,,,,,,,,,,
1732158610.944519,1732158610.947517,71.000000,0.000000,4277.436035,4264.358887,4302.179688,4282.051270,4271.538574,4282.179688,4336.410156,4400.641113,4308.846191,4288.717773,4489.743652,4513.205078,4365.512695,4416.282227,0.000000,1.000000,20.000000,,,,0.000000,2.000000,2.000000,0.000000,4.000000,2.000000,2.000000,0.000000,0.000000,4.000000,4.000000,4.000000,4.000000,4.000000,4.000000,0.000000,,,,,,,,,,,,,,,,,,,,,,,,,,,,
1732158610.952327,1732158610.955225,72.000000,0.000000,4278.717773,4264.487305,4300.256348,4285.897461,4267.692383,4283.077148,4335.769043,4398.974121,4312.563965,4296.922852,4491.922852,4515.641113,4366.666504,4419.615234,1539.000000,1.000000,20.000000,,,,0.000000,2.000000,2.000000,0.000000,4.000000,2.000000,2.000000,0.000000,0.000000,4.000000,4.000000,4.000000,4.000000,4.000000,4.000000,0.000000,,,,,,,,,,,,,,,,,18.000000,0.000000,0.536680,0.482178,-0.546448,0.425293,0.962031,0.051276,-0.063973,-34.780464,46.006344,31.341446
1732158610.960135,1732158610.963033,73.000000,0.000000,4280.256348,4262.948730,4297.948730,4289.615234,4270.384766,4283.205078,4335.769043,4398.589844,4305.769043,4302.563965,4496.025879,4513.333496,4367.179688,4418.461426,1700.000000,1.000000,20.000000,,,,0.000000,2.000000,2.000000,0.000000,4.000000,2.000000,2.000000,0.000000,0.000000,4.000000,4.000000,4.000000,4.000000,4.000000,4.000000,0.000000,,,,,,,,,,,,,,,,,,,,,,,,,,,,
1732158610.967943,1732158610.970642,74.000000,0.000000,4281.410156,4265.897461,4297.948730,4294.102539,4279.743652,4282.948730,4337.436035,4399.102539,4295.128418,4294.487305,4493.974121,4510.128418,4367.563965,4419.615234,1559.000000,1.000000,20.000000,,,,0.000000,2.000000,2.000000,0.000000,4.000000,2.000000,2.000000,0.000000,0.000000,4.000000,4.000000,4.000000,4.000000,4.000000,4.000000,0.000000,,,,,,,,,,,,,,,,,,,,,,,,,,,,
1732158610.975752,1732158610.978450,75.000000,0.000000,4281.538574,4267.436035,4300.512695,4296.922852,4272.820313,4281.153809,4333.589844,4400.897461,4300.000000,4285.769043,4493.846191,4510.769043,4368.589844,4426.922852,1553.000000,1.000000,20.000000,,,,0.000000,2.000000,2.000000,0.000000,4.000000,2.000000,2.000000,0.000000,0.000000,4.000000,4.000000,4.000000,4.000000,4.000000,4.000000,0.000000,,,,,,,,,,,,,,,,,,,,,,,,,,,,
1732158610.983560,1732158610.986158,76.000000,0.000000,4281.666504,4265.641113,4301.538574,4290.769043,4263.461426,4282.051270,4330.641113,4400.384766,4305.384766,4288.974121,4494.358887,4512.948730,4367.948730,4426.794922,1715.000000,1.000000,20.000000,,,,0.000000,2.000000,2.000000,0.000000,4.000000,2.000000,2.000000,0.000000,0.000000,4.000000,4.000000,4.000000,4.000000,4.000000,4.000000,0.000000,,,,,,,,,,,,,,,,,19.000000,0.000000,0.535290,0.480896,-0.548035,0.426453,0.973752,0.038091,-0.058113,-34.568844,46.111805,31.199905
1732158610.991368,1732158610.993967,77.000000,0.000000,4281.282227,4264.358887,4301.153809,4282.820313,4266.025879,4282.820313,4332.051270,4397.563965,4296.794922,4298.717773,4488.077148,4510.769043,4365.128418,4422.051270,1566.000000,1.000000,20.000000,,,,0.000000,2.000000,2.000000,0.000000,4.000000,2.000000,2.000000,0.000000,0.000000,4.000000,4.000000,4.000000,4.000000,4.000000,4.000000,0.000000,,,,,,,,,,,,,,,,,,,,,,,,,,,,
1732158610.999176,1732158611.001575,78.000000,0.000000,4280.641113,4263.333496,4301.153809,4280.000000,4265.897461,4276.538574,4328.461426,4397.051270,4293.077148,4294.871582,4487.820313,4509.230957,4362.563965,4422.948730,1559.000000,1.000000,20.000000,,,,0.000000,2.000000,2.000000,0.000000,4.000000,2.000000,2.000000,0.000000,0.000000,4.000000,4.000000,4.000000,4.000000,4.000000,4.000000,0.000000,1.000000,0.000000,2.000000,2.000000,0.000000,4.000000,2.000000,1.000000,0.000000,0.000000,4.000000,4.000000,4.000000,4.000000,4.000000,4.000000,,,,,,,,,,,,
1732158611.006985,1732158611.009383,79.000000,0.000000,4284.358887,4266.410156,4302.820313,4284.230957,4262.307617,4273.846191,4326.538574,4399.871582,4298.846191,4283.333496,4494.487305,4515.641113,4364.358887,4425.769043,1553.000000,1.000000,20.000000,,,,0.000000,2.000000,2.000000,0.000000,4.000000,2.000000,2.000000,0.000000,0.000000,4.000000,4.000000,4.000000,4.000000,4.000000,4.000000,0.000000,,,,,,,,,,,,,,,,,,,,,,,,,,,,
1732158611.014793,1732158611.017092,80.000000,0.000000,4286.794922,4269.871582,4303.077148,4288.974121,4264.230957,4279.487305,4333.461426,4400.128418,4299.358887,4284.871582,4492.563965,4517.307617,4367.436035,4424.871582,1715.000000,1.000000,20.000000,,,,0.000000,2.000000,2.000000,0.000000,4.000000,2.000000,2.000000,0.000000,0.000000,4.000000,4.000000,4.000000,4.000000,4.000000,4.000000,0.000000,,,,,,,,,,,,,,,,,20.000000,0.000000,0.534979,0.479980,-0.548950,0.426697,0.973752,0.038091,-0.058113,-34.809097,46.027229,31.510256
1732158611.022601,1732158611.024900,81.000000,0.000000,4286.794922,4271.794922,4303.205078,4289.102539,4264.615234,4280.512695,4335.897461,4399.102539,4297.436035,4288.717773,4487.179688,4513.461426,4365.128418,4425.769043,1566.000000,1.000000,20.000000,,,,0.000000,2.000000,2.000000,0.000000,4.000000,2.000000,2.000000,0.000000,0.000000,4.000000,4.000000,4.000000,4.000000,4.000000,4.000000,0.000000,,,,,,,,,,,,,,,,,,,,,,,,,,,,
1732158611.030409,1732158611.032908,82.000000,0.000000,4291.410156,4272.948730,4305.256348,4290.641113,4265.000000,4278.205078,4331.794922,4399.358887,4298.205078,4289.230957,4491.282227,4513.205078,4367.179688,4427.820313,1559.000000,1.000000,20.000000,,,,0.000000,2.000000,2.000000,0.000000,4.000000,2.000000,2.000000,0.000000,0.000000,4.000000,4.000000,4.000000,4.000000,4.000000,4.000000,0.000000,,,,,,,,,,,,,,,,,,,,,,,,,,,,
1732158611.038218,1732158611.040716,83.000000,0.000000,4296.794922,4271.538574,4306.666504,4296.025879,4264.230957,4280.256348,4333.589844,4398.717773,4297.948730,4294.358887,4493.846191,4515.512695,4374.230957,4428.077148,1553.000000,1.000000,20.000000,,,,0.000000,2.000000,2.000000,0.000000,4.000000,2.000000,2.000000,0.000000,0.000000,4.000000,4.000000,4.000000,4.000000,4.000000,4.000000,0.000000,,,,,,,,,,,,,,,,,,,,,,,,,,,,
1732158611.046026,1732158611.048624,84.000000,0.000000,4295.000000,4272.307617,4305.512695,4297.179688,4262.948730,4280.641113,4335.512695,4398.333496,4298.205078,4293.717773,4494.871582,4514.358887,4376.538574,4433.974121,1715.000000,1.000000,20.000000,,,,0.000000,2.000000,2.000000,0.000000,4.000000,2.000000,2.000000,0.000000,0.000000,4.000000,4.000000,4.000000,4.000000,4.000000,4.000000,0.000000,,,,,,,,,,,,,,,,,21.000000,0.000000,0.533343,0.476563,-0.552368,0.428162,0.972775,0.043951,-0.062996,-34.908699,45.920387,31.624975
1732158611.053834,1732158611.056432,85.000000,0.000000,4296.153809,4274.871582,4307.563965,4293.846191,4262.948730,4273.717773,4333.333496,4399.871582,4297.051270,4280.256348,4493.333496,4517.179688,4374.358887,4442.436035,1566.000000,1.000000,20.000000,,,,0.000000,2.000000,2.000000,0.000000,4.000000,2.000000,2.000000,0.000000,0.000000,4.000000,4.000000,4.000000,4.000000,4.000000,4.000000,0.000000,,,,,,,,,,,,,,,,,,,,,,,,,,,,
1732158611.061642,1732158611.064041,86.000000,0.000000,4305.897461,4275.897461,4311.410156,4291.282227,4256.153809,4267.307617,4333.717773,4399.871582,4297.563965,4281.025879,4491.794922,4522.051270,4376.666504,4447.692383,1559.000000,1.000000,20.000000,,,,0.000000,2.000000,2.000000,0.000000,4.000000,2.000000,2.000000,0.000000,0.000000,4.000000,4.000000,4.000000,4.000000,4.000000,4.000000,0.000000,,,,,,,,,,,,,,,,,,,,,,,,,,,,
1732158611.069451,1732158611.071849,87.000000,0.000000,4310.384766,4276.410156,4311.538574,4287.563965,4248.717773,4264.615234,4334.871582,4399.615234,4302.692383,4295.897461,4499.487305,4518.974121,4382.179688,4451.794922,1553.000000,1.000000,20.000000,,,,0.000000,2.000000,2.000000,0.000000,4.000000,2.000000,2.000000,0.000000,0.000000,4.000000,4.000000,4.000000,4.000000,4.000000,4.000000,0.000000,,,,,,,,,,,,,,,,,,,,,,,,,,,,
1732158611.077259,1732158611.079557,88.000000,0.000000,4311.282227,4279.230957,4312.179688,4287.820313,4248.974121,4263.974121,4335.000000,4401.153809,4303.717773,4288.717773,4507.179688,4519.230957,4382.179688,4455.769043,1715.000000,1.000000,20.000000,,,,0.000000,2.000000,2.000000,0.000000,4.000000,2.000000,2.000000,0.000000,0.000000,4.000000,4.000000,4.000000,4.000000,4.000000,4.000000,0.000000,,,,,,,,,,,,,,,,,22.000000,0.000000,0.533325,0.475891,-0.552917,0.428223,0.967892,0.061531,-0.078623,-34.924381,45.932182,31.689562
1732158611.085067,1732158611.087365,89.000000,0.000000,4317.307617,4280.384766,4316.666504,4291.538574,4249.487305,4264.358887,4334.487305,4402.051270,4290.897461,4276.922852,4505.641113,4522.820313,4381.922852,4457.563965,1566.000000,1.000000,20.000000,,,,0.000000,2.000000,2.000000,0.000000,4.000000,2.000000,2.000000,0.000000,0.000000,4.000000,4.000000,4.000000,4.000000,4.000000,4.000000,0.000000,,,,,,,,,,,,,,,,,,,,,,,,,,,,
1732158611.092875,1732158611.094974,90.000000,0.000000,4323.461426,4279.615234,4317.948730,4290.384766,4247.051270,4265.256348,4334.743652,4400.769043,4278.461426,4285.769043,4503.077148,4522.948730,4385.128418,4459.230957,1559.000000,1.000000,20.000000,,,,0.000000,2.000000,2.000000,0.000000,4.000000,2.000000,2.000000,0.000000,0.000000,4.000000,4.000000,4.000000,4.000000,4.000000,4.000000,0.000000,,,,,,,,,,,,,,,,,,,,,,,,,,,,
1732158611.100684,1732158611.102782,91.000000,0.000000,4326.282227,4281.410156,4317.051270,4289.487305,4247.948730,4265.641113,4335.000000,4400.897461,4282.179688,4288.846191,4505.256348,4522.436035,4387.436035,4466.153809,1553.000000,1.000000,20.000000,,,,0.000000,2.000000,2.000000,0.000000,4.000000,2.000000,2.000000,0.000000,0.000000,4.000000,4.000000,4.000000,4.000000,4.000000,4.000000,0.000000,,,,,,,,,,,,,,,,,,,,,,,,,,,,
1732158611.108492,1732158611.110690,92.000000,0.000000,4329.871582,4281.153809,4317.563965,4292.563965,4248.333496,4263.077148,4334.358887,4401.538574,4290.128418,4280.128418,4507.307617,4522.948730,4390.897461,4471.922852,1715.000000,1.000000,20.000000,,,,0.000000,2.000000,2.000000,0.000000,4.000000,2.000000,2.000000,0.000000,0.000000,4.000000,4.000000,4.000000,4.000000,4.000000,4.000000,0.000000,,,,,,,,,,,,,,,,,23.000000,0.000000,0.533384,0.475525,-0.553223,0.428162,0.967892,0.061531,-0.078623,-34.883747,45.700066,31.725212
1732158611.116300,1732158611.118498,93.000000,0.000000,4335.256348,4283.205078,4318.333496,4295.897461,4247.436035,4261.922852,4334.615234,4402.820313,4286.666504,4283.461426,4507.692383,4522.563965,4396.153809,4472.820313,1566.000000,1.000000,20.000000,,,,0.000000,2.000000,2.000000,0.000000,4.000000,2.000000,2.000000,0.000000,0.000000,4.000000,4.000000,4.000000,4.000000,4.000000,4.000000,0.000000,,,,,,,,,,,,,,,,,,,,,,,,,,,,
1732158611.124108,1732158611.126506,94.000000,0.000000,4337.179688,4284.871582,4320.384766,4295.897461,4247.692383,4262.948730,4336.025879,4404.358887,4284.487305,4287.051270,4505.512695,4532.051270,4398.205078,4474.615234,1559.000000,1.000000,20.000000,,,,0.000000,2.000000,2.000000,0.000000,4.000000,2.000000,2.000000,0.000000,0.000000,4.000000,4.000000,4.000000,4.000000,4.000000,4.000000,0.000000,,,,,,,,,,,,,,,,,,,,,,,,,,,,
1732158611.131917,1732158611.134315,95.000000,0.000000,4336.410156,4282.051270,4319.230957,4295.512695,4246.410156,4260.000000,4335.000000,4403.461426,4291.410156,4277.948730,4504.871582,4542.307617,4394.487305,4477.948730,1553.000000,1.000000,20.000000,,,,0.000000,2.000000,2.000000,0.000000,4.000000,2.000000,2.000000,0.000000,0.000000,4.000000,4.000000,4.000000,4.000000,4.000000,4.000000,0.000000,,,,,,,,,,,,,,,,,,,,,,,,,,,,
1732158611.139725,1732158611.142223,96.000000,0.000000,4335.512695,4279.615234,4316.922852,4296.282227,4246.025879,4257.307617,4333.205078,4405.000000,4287.948730,4275.000000,4509.230957,4539.871582,4395.897461,4479.743652,1715.000000,1.000000,20.000000,,,,0.000000,2.000000,2.000000,0.000000,4.000000,2.000000,2.000000,0.000000,0.000000,4.000000,4.000000,4.000000,4.000000,4.000000,4.000000,0.000000,,,,,,,,,,,,,,,,,24.000000,0.000000,0.533403,0.474487,-0.553528,0.428894,0.989867,0.039556,-0.078135,-34.715836,45.685387,31.735756
1732158611.147533,1732158611.150031,97.000000,0.000000,4335.641113,4280.384766,4321.025879,4298.077148,4246.666504,4259.615234,4335.000000,4409.487305,4280.769043,4281.410156,4507.692383,4536.922852,4398.077148,4478.846191,1566.000000,1.000000,20.000000,,,,0.000000,2.000000,2.000000,0.000000,4.000000,2.000000,2.000000,0.000000,0.000000,4.000000,4.000000,4.000000,4.000000,4.000000,4.000000,0.000000,,,,,,,,,,,,,,,,,,,,,,,,,,,,
1732158611.155342,1732158611.158039,98.000000,0.000000,4334.743652,4282.820313,4326.538574,4296.025879,4245.897461,4260.000000,4336.025879,4408.333496,4287.692383,4282.563965,4505.384766,4533.974121,4394.230957,4475.641113,1559.000000,1.000000,20.000000,,,,0.000000,2.000000,2.000000,0.000000,4.000000,2.000000,2.000000,0.000000,0.000000,4.000000,4.000000,4.000000,4.000000,4.000000,4.000000,0.000000,,,,,,,,,,,,,,,,,,,,,,,,,,,,
1732158611.163150,1732158611.165847,99.000000,0.000000,4334.358887,4280.000000,4323.333496,4293.333496,4247.307617,4261.794922,4335.128418,4407.563965,4296.538574,4281.282227,4507.563965,4527.948730,4392.051270,4475.128418,1553.000000,1.000000,20.000000,,,,0.000000,2.000000,2.000000,0.000000,4.000000,2.000000,2.000000,0.000000,0.000000,4.000000,4.000000,4.000000,4.000000,4.000000,4.000000,0.000000,,,,,,,,,,,,,,,,,,,,,,,,,,,,
1732158611.170958,1732158611.173755,100.000000,0.000000,4336.282227,4280.128418,4320.897461,4296.794922,4249.871582,4269.358887,4337.948730,4408.717773,4296.153809,4280.897461,4509.358887,4531.025879,4397.436035,4478.974121,1715.000000,1.000000,20.000000,,,,0.000000,2.000000,2.000000,0.000000,4.000000,2.000000,2.000000,0.000000,0.000000,4.000000,4.000000,4.000000,4.000000,4.000000,4.000000,0.000000,,,,,,,,,,,,,,,,,25.000000,0.000000,0.531809,0.473572,-0.554565,0.430542,0.971798,0.029789,-0.079111,-34.729828,45.706829,31.830961
1732158611.178766,1732158611.181563,101.000000,0.000000,4338.589844,4286.922852,4325.769043,4298.846191,4250.128418,4270.897461,4339.358887,4406.153809,4291.666504,4279.871582,4508.974121,4534.487305,4398.205078,4478.205078,1566.000000,1.000000,20.000000,,,,0.000000,2.000000,2.000000,0.000000,4.000000,2.000000,2.000000,0.000000,0.000000,4.000000,4.000000,4.000000,4.000000,4.000000,4.000000,0.000000,,,,,,,,,,,,,,,,,,,,,,,,,,,,
1732158611.186574,1732158611.189571,102.000000,0.000000,4338.333496,4288.205078,4327.820313,4296.410156,4247.692383,4263.589844,4338.333496,4407.307617,4285.641113,4279.487305,4506.153809,4532.307617,4390.000000,4473.205078,1559.000000,1.000000,20.000000,,,,0.000000,2.000000,2.000000,0.000000,4.000000,2.000000,2.000000,0.000000,0.000000,4.000000,4.000000,4.000000,4.000000,4.000000,4.000000,0.000000,,,,,,,,,,,,,,,,,,,,,,,,,,,,
1732158611.194383,1732158611.197380,103.000000,0.000000,4338.461426,4284.743652,4322.563965,4294.743652,4245.512695,4260.769043,4340.000000,4409.102539,4280.256348,4278.717773,4501.922852,4534.487305,4390.128418,4474.743652,1553.000000,1.000000,20.000000,,,,0.000000,2.000000,2.000000,0.000000,4.000000,2.000000,2.000000,0.000000,0.000000,4.000000,4.000000,4.000000,4.000000,4.000000,4.000000,0.000000,,,,,,,,,,,,,,,,,,,,,,,,,,,,
1732158611.202191,1732158611.205288,104.000000,0.000000,4341.538574,4286.410156,4320.128418,4295.384766,4247.307617,4264.871582,4342.179688,4405.512695,4283.205078,4275.256348,4504.743652,4537.436035,4398.333496,4478.974121,1715.000000,1.000000,20.000000,,,,0.000000,2.000000,2.000000,0.000000,4.000000,2.000000,2.000000,0.000000,0.000000,4.000000,4.000000,4.000000,4.000000,4.000000,4.000000,0.000000,,,,,,,,,,,,,,,,,26.000000,0.000000,0.531809,0.473572,-0.554565,0.430542,0.975705,0.018557,-0.069833,-34.996159,45.784199,32.073078
1732158611.209999,1732158611.213096,105.000000,0.000000,4342.563965,4289.230957,4325.769043,4294.615234,4249.102539,4262.563965,4339.615234,4405.128418,4283.589844,4268.717773,4509.871582,4529.871582,4397.563965,4477.307617,1566.000000,1.000000,20.000000,,,,0.000000,2.000000,2.000000,0.000000,4.000000,2.000000,2.000000,0.000000,0.000000,4.000000,4.000000,4.000000,4.000000,4.000000,4.000000,0.000000,,,,,,,,,,,,,,,,,,,,,,,,,,,,
1732158611.217807,1732158611.221104,106.000000,0.000000,4340.897461,4291.153809,4329.230957,4294.230957,4246.153809,4251.282227,4336.025879,4407.051270,4281.794922,4270.128418,4507.436035,4523.974121,4393.589844,4474.743652,1559.000000,1.000000,20.000000,,,,0.000000,2.000000,2.000000,0.000000,4.000000,2.000000,2.000000,0.000000,0.000000,4.000000,4.000000,4.000000,4.000000,4.000000,4.000000,0.000000,,,,,,,,,,,,,,,,,,,,,,,,,,,,
1732158611.225616,1732158611.228912,107.000000,0.000000,4341.282227,4296.282227,4323.589844,4297.436035,4246.922852,4249.487305,4335.256348,4402.948730,4287.692383,4279.487305,4503.717773,4527.051270,4396.025879,4477.051270,1553.000000,1.000000,20.000000,,,,0.000000,2.000000,2.000000,0.000000,4.000000,2.000000,2.000000,0.000000,0.000000,4.000000,4.000000,4.000000,4.000000,4.000000,4.000000,0.000000,,,,,,,,,,,,,,,,,,,,,,,,,,,,
1732158611.233424,1732158611.236820,108.000000,0.000000,4342.051270,4297.307617,4319.102539,4299.615234,4249.487305,4258.333496,4336.025879,4400.384766,4291.794922,4282.820313,4502.820313,4530.256348,4396.025879,4477.948730,1715.000000,1.000000,20.000000,,,,0.000000,2.000000,2.000000,0.000000,4.000000,2.000000,2.000000,0.000000,0.000000,4.000000,4.000000,4.000000,4.000000,4.000000,4.000000,0.000000,,,,,,,,,,,,,,,,,27.000000,0.000000,0.531027,0.472717,-0.555237,0.431580,0.976682,0.010255,-0.059578,-35.060223,45.920200,32.154194
1732158611.241232,1732158611.244628,109.000000,0.000000,4341.794922,4298.333496,4321.025879,4302.820313,4248.974121,4259.743652,4338.589844,4402.436035,4292.948730,4280.769043,4509.615234,4529.358887,4393.589844,4475.897461,1566.000000,1.000000,20.000000,,,,0.000000,2.000000,2.000000,0.000000,4.000000,2.000000,2.000000,0.000000,0.000000,4.000000,4.000000,4.000000,4.000000,4.000000,4.000000,0.000000,,,,,,,,,,,,,,,,,,,,,,,,,,,,
1732158611.249040,1732158611.252437,110.000000,0.000000,4343.333496,4306.794922,4321.666504,4307.948730,4254.102539,4258.077148,4339.871582,4401.410156,4292.179688,4279.358887,4514.615234,4529.871582,4396.153809,4477.563965,1559.000000,1.000000,20.000000,,,,0.000000,2.000000,2.000000,0.000000,4.000000,2.000000,2.000000,0.000000,0.000000,4.000000,4.000000,4.000000,4.000000,4.000000,4.000000,0.000000,,,,,,,,,,,,,,,,,,,,,,,,,,,,
1732158611.256849,1732158611.260245,111.000000,0.000000,4343.846191,4306.410156,4319.615234,4305.641113,4258.846191,4263.205078,4340.641113,4404.487305,4285.512695,4283.589844,4509.743652,4536.794922,4398.205078,4481.025879,1553.000000,1.000000,20.000000,,,,0.000000,2.000000,2.000000,0.000000,4.000000,2.000000,2.000000,0.000000,0.000000,4.000000,4.000000,4.000000,4.000000,4.000000,4.000000,0.000000,,,,,,,,,,,,,,,,,,,,,,,,,,,,
1732158611.264657,1732158611.268153,112.000000,0.000000,4339.615234,4298.461426,4319.102539,4301.666504,4252.948730,4264.615234,4338.974121,4407.948730,4284.487305,4283.461426,4508.077148,4540.256348,4397.692383,4478.846191,1715.000000,1.000000,20.000000,,,,0.000000,2.000000,2.000000,0.000000,4.000000,2.000000,2.000000,0.000000,0.000000,4.000000,4.000000,4.000000,4.000000,4.000000,4.000000,0.000000,,,,,,,,,,,,,,,,,28.000000,0.000000,0.530916,0.471069,-0.556030,0.432495,0.981077,0.005372,-0.068368,-35.055447,46.032028,32.126564
1732158611.272465,1732158611.275961,113.000000,0.000000,4338.974121,4301.025879,4322.436035,4308.077148,4254.487305,4263.333496,4335.384766,4406.666504,4293.333496,4270.897461,4513.205078,4538.205078,4396.922852,4477.307617,1566.000000,1.000000,20.000000,,,,0.000000,2.000000,2.000000,0.000000,4.000000,2.000000,2.000000,0.000000,0.000000,4.000000,4.000000,4.000000,4.000000,4.000000,4.000000,0.000000,,,,,,,,,,,,,,,,,,,,,,,,,,,,
1732158611.280274,1732158611.283969,114.000000,0.000000,4342.436035,4308.846191,4323.974121,4315.256348,4264.871582,4266.282227,4334.743652,4406.410156,4295.512695,4267.563965,4510.512695,4538.205078,4396.025879,4478.846191,1559.000000,1.000000,20.000000,,,,0.000000,2.000000,2.000000,0.000000,4.000000,2.000000,2.000000,0.000000,0.000000,4.000000,4.000000,4.000000,4.000000,4.000000,4.000000,0.000000,,,,,,,,,,,,,,,,,,,,,,,,,,,,
1732158611.288082,1732158611.291777,115.000000,0.000000,4337.307617,4304.230957,4321.153809,4307.820313,4259.871582,4265.384766,4334.487305,4409.871582,4291.922852,4281.922852,4504.487305,4538.717773,4391.410156,4476.410156,1553.000000,1.000000,20.000000,,,,0.000000,2.000000,2.000000,0.000000,4.000000,2.000000,2.000000,0.000000,0.000000,4.000000,4.000000,4.000000,4.000000,4.000000,4.000000,0.000000,,,,,,,,,,,,,,,,,,,,,,,,,,,,
1732158611.295890,1732158611.299486,116.000000,0.000000,4328.077148,4295.256348,4319.102539,4298.333496,4252.563965,4262.179688,4333.717773,4409.230957,4294.871582,4286.538574,4508.846191,4536.282227,4387.948730,4472.820313,1715.000000,1.000000,20.000000,,,,0.000000,2.000000,2.000000,0.000000,4.000000,2.000000,2.000000,0.000000,0.000000,4.000000,4.000000,4.000000,4.000000,4.000000,4.000000,0.000000,,,,,,,,,,,,,,,,,29.000000,0.000000,0.530061,0.469360,-0.557434,0.433594,0.970333,0.015627,-0.067391,-34.936581,45.869278,32.100849
1732158611.303698,1732158611.307294,117.000000,0.000000,4327.307617,4295.897461,4323.461426,4301.282227,4260.512695,4266.282227,4334.615234,4406.410156,4296.153809,4279.871582,4510.512695,4534.487305,4387.179688,4472.051270,1566.000000,1.000000,20.000000,,,,0.000000,2.000000,2.000000,0.000000,4.000000,2.000000,2.000000,0.000000,0.000000,4.000000,4.000000,4.000000,4.000000,4.000000,4.000000,0.000000,,,,,,,,,,,,,,,,,,,,,,,,,,,,
1732158611.311506,1732158611.314902,118.000000,0.000000,4330.384766,4298.717773,4324.358887,4305.256348,4264.871582,4270.769043,4336.282227,4408.077148,4295.128418,4284.615234,4504.230957,4538.461426,4383.974121,4473.205078,1559.000000,1.000000,20.000000,,,,0.000000,2.000000,2.000000,0.000000,4.000000,2.000000,2.000000,0.000000,0.000000,4.000000,4.000000,4.000000,4.000000,4.000000,4.000000,0.000000,,,,,,,,,,,,,,,,,,,,,,,,,,,,
1732158611.319315,1732158611.322711,119.000000,0.000000,4330.000000,4295.641113,4319.615234,4302.436035,4259.871582,4267.948730,4335.256348,4406.666504,4295.256348,4295.000000,4502.563965,4534.487305,4380.769043,4473.589844,1553.000000,1.000000,20.000000,,,,0.000000,2.000000,2.000000,0.000000,4.000000,2.000000,2.000000,0.000000,0.000000,4.000000,4.000000,4.000000,4.000000,4.000000,4.000000,0.000000,,,,,,,,,,,,,,,,,,,,,,,,,,,,
1732158611.327123,1732158611.330419,120.000000,0.000000,4329.358887,4295.897461,4318.077148,4305.000000,4259.871582,4268.974121,4334.487305,4401.410156,4294.615234,4291.153809,4507.179688,4523.333496,4382.692383,4470.256348,1715.000000,1.000000,20.000000,,,,0.000000,2.000000,2.000000,0.000000,4.000000,2.000000,2.000000,0.000000,0.000000,4.000000,4.000000,4.000000,4.000000,4.000000,4.000000,0.000000,,,,,,,,,,,,,,,,,30.000000,0.000000,0.530061,0.469360,-0.557434,0.433594,0.970333,0.015627,-0.067391,-34.930294,45.707447,32.005020
1732158611.334931,1732158611.338227,121.000000,0.000000,4329.230957,4300.384766,4320.512695,4311.282227,4263.846191,4275.256348,4335.128418,4401.794922,4296.153809,4277.692383,4508.717773,4524.743652,4383.589844,4464.358887,1566.000000,1.000000,20.000000,,,,0.000000,2.000000,2.000000,0.000000,4.000000,2.000000,2.000000,0.000000,0.000000,4.000000,4.000000,4.000000,4.000000,4.000000,4.000000,0.000000,,,,,,,,,,,,,,,,,,,,,,,,,,,,
1732158611.342739,1732158611.345835,122.000000,0.000000,4327.051270,4299.615234,4322.563965,4306.794922,4263.461426,4273.589844,4335.000000,4404.615234,4297.436035,4273.717773,4505.769043,4530.256348,4380.384766,4460.641113,1559.000000,1.000000,20.000000,,,,0.000000,2.000000,2.000000,0.000000,4.000000,2.000000,2.000000,0.000000,0.000000,4.000000,4.000000,4.000000,4.000000,4.000000,4.000000,0.000000,,,,,,,,,,,,,,,,,,,,,,,,,,,,
1732158611.350548,1732158611.353644,123.000000,0.000000,4325.769043,4297.436035,4323.589844,4299.487305,4263.205078,4263.461426,4334.871582,4403.205078,4296.922852,4283.589844,4505.256348,4528.077148,4382.051270,4461.282227,1553.000000,1.000000,20.000000,,,,0.000000,2.000000,2.000000,0.000000,4.000000,2.000000,2.000000,0.000000,0.000000,4.000000,4.000000,4.000000,4.000000,4.000000,4.000000,0.000000,,,,,,,,,,,,,,,,,,,,,,,,,,,,
1732158611.358356,1732158611.361352,124.000000,0.000000,4324.615234,4299.358887,4321.410156,4302.179688,4263.333496,4262.179688,4335.000000,4404.102539,4296.666504,4287.948730,4504.871582,4528.717773,4383.461426,4461.410156,1715.000000,1.000000,20.000000,,,,0.000000,2.000000,2.000000,0.000000,4.000000,2.000000,2.000000,0.000000,0.000000,4.000000,4.000000,4.000000,4.000000,4.000000,4.000000,0.000000,,,,,,,,,,,,,,,,,31.000000,0.000000,0.529256,0.468567,-0.558105,0.434570,0.972287,-0.010255,-0.058601,-35.288540,45.578033,32.237400
1732158611.366164,1732158611.369160,125.000000,0.000000,4323.333496,4301.794922,4318.333496,4308.461426,4263.077148,4269.743652,4335.000000,4407.436035,4296.153809,4283.589844,4505.000000,4529.230957,4379.358887,4462.692383,1566.000000,1.000000,20.000000,,,,0.000000,2.000000,2.000000,0.000000,4.000000,2.000000,2.000000,0.000000,0.000000,4.000000,4.000000,4.000000,4.000000,4.000000,4.000000,0.000000,,,,,,,,,,,,,,,,,,,,,,,,,,,,
1732158611.373973,1732158611.376769,126.000000,0.000000,4325.000000,4304.615234,4320.897461,4311.025879,4264.102539,4270.512695,4335.000000,4405.769043,4295.128418,4282.692383,4506.153809,4522.436035,4379.871582,4467.820313,1559.000000,1.000000,20.000000,,,,0.000000,2.000000,2.000000,0.000000,4.000000,2.000000,2.000000,0.000000,0.000000,4.000000,4.000000,4.000000,4.000000,4.000000,4.000000,0.000000,,,,,,,,,,,,,,,,,,,,,,,,,,,,
1732158611.381781,1732158611.384577,127.000000,0.000000,4326.282227,4309.871582,4321.538574,4310.769043,4265.769043,4265.384766,4335.000000,4402.436035,4293.846191,4281.025879,4507.307617,4521.153809,4384.358887,4466.794922,20.000000,1.000000,20.000000,,,,0.000000,2.000000,2.000000,0.000000,4.000000,2.000000,2.000000,0.000000,0.000000,4.000000,4.000000,4.000000,4.000000,4.000000,4.000000,0.000000,,,,,,,,,,,,,,,,,,,,,,,,,,,,
1732158611.389589,1732158611.392285,0.000000,0.000000,4321.410156,4311.410156,4318.589844,4310.000000,4266.410156,4265.384766,4335.000000,4401.666504,4292.692383,4281.282227,4508.461426,4524.358887,4382.179688,4459.615234,0.000000,1.000000,20.000000,,,,0.000000,2.000000,2.000000,0.000000,4.000000,2.000000,2.000000,0.000000,0.000000,4.000000,4.000000,4.000000,4.000000,4.000000,4.000000,0.000000,,,,,,,,,,,,,,,,,0.000000,0.000000,0.527982,0.467346,-0.558716,0.436646,0.972287,0.005372,-0.058601,-35.252048,45.478207,32.053963
1732158611.397397,1732158611.400093,1.000000,0.000000,4317.563965,4308.717773,4319.487305,4310.384766,4266.282227,4269.871582,4335.000000,4401.666504,4293.589844,4290.000000,4501.538574,4521.153809,4374.358887,4457.179688,1611.000000,1.000000,20.000000,,,,0.000000,2.000000,2.000000,0.000000,4.000000,2.000000,2.000000,0.000000,0.000000,4.000000,4.000000,4.000000,4.000000,4.000000,4.000000,0.000000,,,,,,,,,,,,,,,,,,,,,,,,,,,,
1732158611.405206,1732158611.407702,2.000000,0.000000,4320.128418,4307.563965,4322.051270,4308.077148,4266.153809,4269.871582,4335.000000,4404.871582,4296.025879,4291.410156,4495.769043,4518.846191,4372.307617,4457.436035,1361.000000,1.000000,20.000000,,,,0.000000,2.000000,2.000000,0.000000,4.000000,2.000000,2.000000,0.000000,0.000000,4.000000,4.000000,4.000000,4.000000,4.000000,4.000000,0.000000,,,,,,,,,,,,,,,,,,,,,,,,,,,,
1732158611.413014,1732158611.415510,3.000000,0.000000,4320.641113,4306.666504,4318.974121,4304.358887,4265.769043,4265.384766,4335.000000,4408.974121,4291.922852,4280.512695,4502.307617,4521.153809,4376.153809,4456.922852,1427.000000,1.000000,20.000000,,,,0.000000,2.000000,2.000000,0.000000,4.000000,2.000000,2.000000,0.000000,0.000000,4.000000,4.000000,4.000000,4.000000,4.000000,4.000000,0.000000,,,,,,,,,,,,,,,,,,,,,,,,,,,,
1732158611.420822,1732158611.423218,4.000000,0.000000,4318.589844,4307.051270,4317.179688,4306.794922,4265.128418,4266.153809,4335.000000,4406.666504,4284.743652,4276.922852,4507.563965,4524.358887,4376.025879,4460.641113,1434.000000,1.000000,20.000000,,,,0.000000,2.000000,2.000000,0.000000,4.000000,2.000000,2.000000,0.000000,0.000000,4.000000,4.000000,4.000000,4.000000,4.000000,4.000000,0.000000,,,,,,,,,,,,,,,,,1.000000,0.000000,0.527563,0.467102,-0.558838,0.437256,0.972287,0.005372,-0.058601,-35.400829,45.375679,31.930376
1732158611.428630,1732158611.431027,5.000000,0.000000,4318.333496,4309.615234,4317.820313,4309.743652,4267.692383,4272.692383,4335.000000,4401.922852,4284.102539,4281.410156,4503.974121,4522.051270,4370.641113,4461.282227,1204.000000,1.000000,20.000000,,,,0.000000,2.000000,2.000000,0.000000,4.000000,2.000000,2.000000,0.000000,0.000000,4.000000,4.000000,4.000000,4.000000,4.000000,4.000000,0.000000,,,,,,,,,,,,,,,,,,,,,,,,,,,,
1732158611.436438,1732158611.439035,6.000000,0.000000,4317.436035,4304.615234,4317.820313,4302.179688,4270.512695,4276.922852,4335.000000,4401.025879,4286.922852,4281.025879,4499.615234,4516.282227,4368.333496,4451.794922,0.000000,1.000000,20.000000,,,,0.000000,2.000000,2.000000,0.000000,4.000000,2.000000,2.000000,0.000000,0.000000,4.000000,4.000000,4.000000,4.000000,4.000000,4.000000,0.000000,,,,,,,,,,,,,,,,,,,,,,,,,,,,
1732158611.444247,1732158611.446843,7.000000,0.000000,4316.794922,4295.384766,4316.410156,4295.256348,4267.692383,4279.487305,4335.000000,4401.922852,4290.000000,4280.000000,4494.743652,4515.000000,4367.051270,4445.641113,0.000000,1.000000,20.000000,,,,0.000000,2.000000,2.000000,0.000000,4.000000,2.000000,2.000000,0.000000,0.000000,4.000000,4.000000,4.000000,4.000000,4.000000,4.000000,0.000000,,,,,,,,,,,,,,,,,,,,,,,,,,,,
1732158611.452055,1732158611.454551,8.000000,0.000000,4318.974121,4298.205078,4316.666504,4302.692383,4266.922852,4276.153809,4335.000000,4402.692383,4293.589844,4279.743652,4496.922852,4515.384766,4364.102539,4450.512695,1539.000000,1.000000,20.000000,,,,0.000000,2.000000,2.000000,0.000000,4.000000,2.000000,2.000000,0.000000,0.000000,4.000000,4.000000,4.000000,4.000000,4.000000,4.000000,0.000000,,,,,,,,,,,,,,,,,2.000000,0.000000,0.526564,0.465942,-0.559265,0.439148,0.998169,-0.022952,-0.060554,-35.546337,45.272636,32.101936
1732158611.459863,1732158611.462359,9.000000,0.000000,4319.871582,4306.025879,4318.589844,4311.282227,4273.974121,4271.922852,4335.000000,4403.333496,4297.179688,4278.205078,4502.051270,4518.077148,4371.282227,4451.410156,1703.000000,1.000000,20.000000,,,,0.000000,2.000000,2.000000,0.000000,4.000000,2.000000,2.000000,0.000000,0.000000,4.000000,4.000000,4.000000,4.000000,4.000000,4.000000,0.000000,,,,,,,,,,,,,,,,,,,,,,,,,,,,
1732158611.467672,1732158611.470367,10.000000,0.000000,4320.641113,4304.615234,4319.102539,4309.102539,4275.000000,4273.974121,4335.000000,4401.922852,4297.820313,4284.743652,4492.563965,4527.051270,4381.282227,4450.641113,1556.000000,1.000000,20.000000,,,,0.000000,2.000000,2.000000,0.000000,4.000000,2.000000,2.000000,0.000000,0.000000,4.000000,4.000000,4.000000,4.000000,4.000000,4.000000,0.000000,,,,,,,,,,,,,,,,,,,,,,,,,,,,
1732158611.475480,1732158611.478175,11.000000,0.000000,4319.615234,4302.179688,4319.358887,4305.256348,4269.615234,4272.179688,4335.000000,4400.897461,4295.256348,4296.153809,4491.794922,4523.589844,4378.589844,4450.512695,1553.000000,1.000000,20.000000,,,,0.000000,2.000000,2.000000,0.000000,4.000000,2.000000,2.000000,0.000000,0.000000,4.000000,4.000000,4.000000,4.000000,4.000000,4.000000,0.000000,,,,,,,,,,,,,,,,,,,,,,,,,,,,
1732158611.483288,1732158611.486084,12.000000,0.000000,4312.692383,4306.025879,4318.333496,4305.641113,4269.615234,4268.846191,4335.000000,4401.025879,4293.077148,4296.282227,4508.717773,4510.897461,4371.922852,4445.384766,1718.000000,1.000000,20.000000,,,,0.000000,2.000000,2.000000,0.000000,4.000000,2.000000,2.000000,0.000000,0.000000,4.000000,4.000000,4.000000,4.000000,4.000000,4.000000,0.000000,,,,,,,,,,,,,,,,,3.000000,0.000000,0.525924,0.464172,-0.559753,0.441162,0.995727,-0.016115,-0.051276,-35.297531,45.205833,32.157570
1732158611.491096,1732158611.493892,13.000000,0.000000,4312.307617,4312.307617,4315.897461,4309.358887,4276.410156,4278.589844,4335.000000,4401.025879,4292.051270,4283.205078,4510.897461,4515.128418,4373.589844,4447.563965,1571.000000,1.000000,20.000000,,,,0.000000,2.000000,2.000000,0.000000,4.000000,2.000000,2.000000,0.000000,0.000000,4.000000,4.000000,4.000000,4.000000,4.000000,4.000000,0.000000,,,,,,,,,,,,,,,,,,,,,,,,,,,,
1732158611.498905,1732158611.501500,14.000000,0.000000,4319.743652,4311.025879,4316.282227,4309.871582,4276.282227,4280.897461,4335.000000,4401.410156,4292.820313,4276.282227,4502.051270,4527.307617,4375.897461,4456.666504,1556.000000,1.000000,20.000000,,,,0.000000,2.000000,2.000000,0.000000,4.000000,2.000000,2.000000,0.000000,0.000000,4.000000,4.000000,4.000000,4.000000,4.000000,4.000000,0.000000,1.000000,0.000000,2.000000,2.000000,0.000000,4.000000,2.000000,2.000000,0.000000,0.000000,4.000000,3.000000,4.000000,4.000000,4.000000,4.000000,,,,,,,,,,,,
1732158611.506713,1732158611.509308,15.000000,0.000000,4317.051270,4304.358887,4320.384766,4305.000000,4270.384766,4268.717773,4335.000000,4402.051270,4293.974121,4288.077148,4506.153809,4525.256348,4376.666504,4453.717773,1553.000000,1.000000,20.000000,,,,0.000000,2.000000,2.000000,0.000000,4.000000,2.000000,2.000000,0.000000,0.000000,4.000000,4.000000,4.000000,4.000000,4.000000,4.000000,0.000000,,,,,,,,,,,,,,,,,,,,,,,,,,,,
1732158611.514521,1732158611.517216,16.000000,0.000000,4309.102539,4305.512695,4320.512695,4305.128418,4271.538574,4271.410156,4335.128418,4401.922852,4297.307617,4298.974121,4505.384766,4514.102539,4374.358887,4441.282227,0.000000,1.000000,20.000000,,,,0.000000,2.000000,2.000000,0.000000,4.000000,2.000000,2.000000,0.000000,0.000000,4.000000,4.000000,4.000000,4.000000,4.000000,4.000000,0.000000,,,,,,,,,,,,,,,,,4.000000,0.000000,0.526061,0.463684,-0.559692,0.441589,0.987914,-0.008302,-0.060554,-35.267670,45.065060,32.210964
1732158611.522329,1732158611.525025,17.000000,0.000000,4310.769043,4306.410156,4318.589844,4307.179688,4275.256348,4277.692383,4334.871582,4400.512695,4297.563965,4290.897461,4488.846191,4513.846191,4367.051270,4444.743652,0.000000,1.000000,20.000000,,,,0.000000,2.000000,2.000000,0.000000,4.000000,2.000000,2.000000,0.000000,0.000000,4.000000,4.000000,4.000000,4.000000,4.000000,4.000000,0.000000,,,,,,,,,,,,,,,,,,,,,,,,,,,,
1732158611.530138,1732158611.533033,18.000000,0.000000,4314.615234,4304.358887,4318.717773,4304.358887,4272.307617,4268.846191,4334.743652,4402.692383,4292.820313,4285.256348,4489.358887,4522.692383,4370.256348,4456.538574,0.000000,1.000000,20.000000,,,,0.000000,2.000000,2.000000,0.000000,4.000000,2.000000,2.000000,0.000000,0.000000,4.000000,4.000000,4.000000,4.000000,4.000000,4.000000,0.000000,,,,,,,,,,,,,,,,,,,,,,,,,,,,
1732158611.537946,1732158611.540841,19.000000,0.000000,4312.051270,4307.179688,4318.077148,4304.743652,4271.282227,4265.384766,4335.512695,4410.000000,4293.846191,4292.436035,4505.128418,4525.000000,4378.461426,4457.948730,0.000000,1.000000,20.000000,,,,0.000000,2.000000,2.000000,0.000000,4.000000,2.000000,2.000000,0.000000,0.000000,4.000000,4.000000,4.000000,4.000000,4.000000,4.000000,0.000000,,,,,,,,,,,,,,,,,,,,,,,,,,,,
1732158611.545754,1732158611.548749,20.000000,0.000000,4310.512695,4302.179688,4318.077148,4308.846191,4272.692383,4272.436035,4334.230957,4410.641113,4298.333496,4298.333496,4510.384766,4519.230957,4377.692383,4453.461426,0.000000,1.000000,20.000000,,,,0.000000,2.000000,2.000000,0.000000,4.000000,2.000000,2.000000,0.000000,0.000000,4.000000,4.000000,4.000000,4.000000,4.000000,4.000000,0.000000,,,,,,,,,,,,,,,,,5.000000,0.000000,0.525997,0.463745,-0.559509,0.441833,0.985960,-0.011720,-0.054694,-35.185146,45.274364,31.949215
1732158611.553562,1732158611.556557,21.000000,0.000000,4311.025879,4294.615234,4319.743652,4307.948730,4275.512695,4272.307617,4333.077148,4402.051270,4294.871582,4293.205078,4502.692383,4517.692383,4372.307617,4447.307617,0.000000,1.000000,20.000000,,,,0.000000,2.000000,2.000000,0.000000,4.000000,2.000000,2.000000,0.000000,0.000000,4.000000,4.000000,4.000000,4.000000,4.000000,4.000000,0.000000,,,,,,,,,,,,,,,,,,,,,,,,,,,,
1732158611.561370,1732158611.564565,22.000000,0.000000,4309.358887,4302.820313,4317.820313,4305.128418,4288.205078,4266.153809,4333.846191,4399.102539,4288.589844,4281.282227,4499.487305,4514.358887,4368.333496,4444.230957,0.000000,1.000000,20.000000,,,,0.000000,2.000000,2.000000,0.000000,4.000000,2.000000,2.000000,0.000000,0.000000,4.000000,4.000000,4.000000,4.000000,4.000000,4.000000,0.000000,,,,,,,,,,,,,,,,,,,,,,,,,,,,
1732158611.569179,1732158611.572373,23.000000,0.000000,4307.436035,4306.922852,4315.897461,4302.820313,4288.589844,4270.128418,4334.230957,4402.051270,4288.589844,4276.282227,4497.436035,4511.538574,4366.666504,4444.487305,0.000000,1.000000,20.000000,,,,0.000000,2.000000,2.000000,0.000000,4.000000,2.000000,2.000000,0.000000,0.000000,4.000000,4.000000,4.000000,4.000000,4.000000,4.000000,0.000000,,,,,,,,,,,,,,,,,,,,,,,,,,,,
1732158611.576987,1732158611.580282,24.000000,0.000000,4307.820313,4300.128418,4317.179688,4305.256348,4266.410156,4281.282227,4333.974121,4402.179688,4290.000000,4278.717773,4485.641113,4519.615234,4366.666504,4447.820313,0.000000,1.000000,20.000000,,,,0.000000,2.000000,2.000000,0.000000,4.000000,2.000000,2.000000,0.000000,0.000000,4.000000,4.000000,4.000000,4.000000,4.000000,4.000000,0.000000,,,,,,,,,,,,,,,,,6.000000,0.000000,0.526266,0.464172,-0.557983,0.442993,0.977170,-0.004883,-0.054206,-35.258301,45.107235,31.850531
1732158611.584795,1732158611.588090,25.000000,0.000000,4311.538574,4300.769043,4317.948730,4310.769043,4259.871582,4281.153809,4336.025879,4401.025879,4288.589844,4287.307617,4487.948730,4520.769043,4367.307617,4447.563965,0.000000,1.000000,20.000000,,,,0.000000,2.000000,2.000000,0.000000,4.000000,2.000000,2.000000,0.000000,0.000000,4.000000,4.000000,4.000000,4.000000,4.000000,4.000000,0.000000,,,,,,,,,,,,,,,,,,,,,,,,,,,,
1732158611.592604,1732158611.596098,26.000000,0.000000,4310.256348,4300.256348,4318.589844,4303.333496,4267.436035,4269.487305,4336.794922,4400.512695,4287.820313,4294.102539,4503.846191,4511.025879,4367.307617,4443.461426,0.000000,1.000000,20.000000,,,,0.000000,2.000000,2.000000,0.000000,4.000000,2.000000,2.000000,0.000000,0.000000,4.000000,4.000000,4.000000,4.000000,4.000000,4.000000,0.000000,,,,,,,,,,,,,,,,,,,,,,,,,,,,
1732158611.600412,1732158611.603906,27.000000,0.000000,4300.641113,4295.769043,4318.589844,4294.871582,4267.436035,4270.512695,4333.717773,4402.820313,4289.743652,4287.307617,4502.948730,4505.512695,4365.000000,4437.563965,0.000000,1.000000,20.000000,,,,0.000000,2.000000,2.000000,0.000000,4.000000,2.000000,2.000000,0.000000,0.000000,4.000000,4.000000,4.000000,4.000000,4.000000,4.000000,0.000000,,,,,,,,,,,,,,,,,,,,,,,,,,,,
1732158611.608220,1732158611.611814,28.000000,0.000000,4295.384766,4299.615234,4317.051270,4302.820313,4270.512695,4277.692383,4333.205078,4406.025879,4292.563965,4277.436035,4487.948730,4505.897461,4359.743652,4431.282227,0.000000,1.000000,20.000000,,,,0.000000,2.000000,2.000000,0.000000,4.000000,2.000000,2.000000,0.000000,0.000000,4.000000,4.000000,4.000000,4.000000,4.000000,4.000000,0.000000,,,,,,,,,,,,,,,,,7.000000,0.000000,0.526288,0.464355,-0.557373,0.443542,0.986937,-0.020510,-0.035649,-35.205891,44.963528,31.915596
1732158611.616028,1732158611.619622,29.000000,0.000000,4299.871582,4303.077148,4318.077148,4308.205078,4280.128418,4277.692383,4335.384766,4403.461426,4295.000000,4285.256348,4487.051270,4504.487305,4361.538574,4430.000000,0.000000,1.000000,20.000000,,,,0.000000,2.000000,2.000000,0.000000,4.000000,2.000000,2.000000,0.000000,0.000000,4.000000,4.000000,4.000000,4.000000,4.000000,4.000000,0.000000,,,,,,,,,,,,,,,,,,,,,,,,,,,,
1732158611.623837,1732158611.627630,30.000000,0.000000,4305.000000,4298.589844,4320.256348,4303.205078,4280.512695,4276.538574,4334.743652,4399.871582,4295.512695,4300.128418,4496.153809,4503.846191,4364.615234,4431.153809,0.000000,1.000000,20.000000,,,,0.000000,2.000000,2.000000,0.000000,4.000000,2.000000,2.000000,0.000000,0.000000,4.000000,4.000000,4.000000,4.000000,4.000000,4.000000,0.000000,,,,,,,,,,,,,,,,,,,,,,,,,,,,
1732158611.631645,1732158611.635438,31.000000,0.000000,4302.692383,4295.641113,4318.333496,4304.102539,4280.000000,4278.077148,4333.461426,4400.128418,4292.051270,4292.563965,4486.538574,4506.538574,4357.563965,4430.384766,0.000000,1.000000,20.000000,,,,0.000000,2.000000,2.000000,0.000000,4.000000,2.000000,2.000000,0.000000,0.000000,4.000000,4.000000,4.000000,4.000000,4.000000,4.000000,0.000000,,,,,,,,,,,,,,,,,,,,,,,,,,,,
1732158611.639453,1732158611.643347,32.000000,0.000000,4297.179688,4294.487305,4317.820313,4306.282227,4282.051270,4280.384766,4334.358887,4401.282227,4288.717773,4277.436035,4472.307617,4507.948730,4352.820313,4429.358887,0.000000,1.000000,20.000000,,,,0.000000,2.000000,2.000000,0.000000,4.000000,2.000000,2.000000,0.000000,0.000000,4.000000,4.000000,4.000000,4.000000,4.000000,4.000000,0.000000,,,,,,,,,,,,,,,,,8.000000,0.000000,0.526274,0.464417,-0.557190,0.443726,0.985960,-0.002930,-0.052252,-35.103439,44.862125,31.983299
1732158611.647261,1732158611.651155,33.000000,0.000000,4296.025879,4293.717773,4318.846191,4305.769043,4282.948730,4283.205078,4335.384766,4405.000000,4292.948730,4282.948730,4480.384766,4501.538574,4358.333496,4428.589844,0.000000,1.000000,20.000000,,,,0.000000,2.000000,2.000000,0.000000,4.000000,2.000000,2.000000,0.000000,0.000000,4.000000,4.000000,4.000000,4.000000,4.000000,4.000000,0.000000,,,,,,,,,,,,,,,,,,,,,,,,,,,,
1732158611.655070,1732158611.659163,34.000000,0.000000,4298.077148,4295.897461,4317.563965,4308.205078,4295.641113,4283.333496,4334.487305,4409.743652,4299.230957,4297.692383,4495.769043,4496.282227,4360.256348,4427.436035,0.000000,1.000000,20.000000,,,,0.000000,2.000000,2.000000,0.000000,4.000000,2.000000,2.000000,0.000000,0.000000,4.000000,4.000000,4.000000,4.000000,4.000000,4.000000,0.000000,,,,,,,,,,,,,,,,,,,,,,,,,,,,
1732158611.662878,1732158611.666971,35.000000,0.000000,4295.641113,4293.846191,4315.256348,4306.538574,4300.256348,4277.948730,4334.743652,4404.615234,4296.666504,4297.820313,4493.077148,4505.000000,4360.512695,4427.692383,0.000000,1.000000,20.000000,,,,0.000000,2.000000,2.000000,0.000000,4.000000,2.000000,2.000000,0.000000,0.000000,4.000000,4.000000,4.000000,4.000000,4.000000,4.000000,0.000000,,,,,,,,,,,,,,,,,,,,,,,,,,,,
1732158611.670686,1732158611.674679,36.000000,0.000000,4293.717773,4287.307617,4316.025879,4302.436035,4276.538574,4277.692383,4335.000000,4401.282227,4291.922852,4290.384766,4486.025879,4510.000000,4362.436035,4427.820313,0.000000,1.000000,20.000000,,,,0.000000,2.000000,2.000000,0.000000,4.000000,2.000000,2.000000,0.000000,0.000000,4.000000,4.000000,4.000000,4.000000,4.000000,4.000000,0.000000,,,,,,,,,,,,,,,,,9.000000,0.000000,0.525978,0.464783,-0.556580,0.444458,0.967892,-0.001953,-0.041997,-34.988785,44.951653,31.986473
1732158611.678494,1732158611.682488,37.000000,0.000000,4299.358887,4289.358887,4317.820313,4306.922852,4263.589844,4281.666504,4334.230957,4405.897461,4293.846191,4292.179688,4491.666504,4501.922852,4358.333496,4427.307617,0.000000,1.000000,20.000000,,,,0.000000,2.000000,2.000000,0.000000,4.000000,2.000000,2.000000,0.000000,0.000000,4.000000,4.000000,4.000000,4.000000,4.000000,4.000000,0.000000,,,,,,,,,,,,,,,,,,,,,,,,,,,,
1732158611.686303,1732158611.690096,38.000000,0.000000,4302.820313,4297.179688,4317.948730,4313.333496,4281.666504,4281.666504,4333.846191,4404.871582,4294.102539,4291.922852,4485.641113,4498.974121,4352.692383,4427.307617,0.000000,1.000000,20.000000,,,,0.000000,2.000000,2.000000,0.000000,4.000000,2.000000,2.000000,0.000000,0.000000,4.000000,4.000000,4.000000,4.000000,4.000000,4.000000,0.000000,,,,,,,,,,,,,,,,,,,,,,,,,,,,
1732158611.694111,1732158611.697904,39.000000,0.000000,4301.410156,4296.410156,4316.025879,4311.410156,4286.153809,4279.743652,4333.974121,4400.384766,4291.794922,4290.641113,4476.025879,4506.410156,4353.974121,4426.922852,0.000000,1.000000,20.000000,,,,0.000000,2.000000,2.000000,0.000000,4.000000,2.000000,2.000000,0.000000,0.000000,4.000000,4.000000,4.000000,4.000000,4.000000,4.000000,0.000000,,,,,,,,,,,,,,,,,,,,,,,,,,,,
1732158611.701919,1732158611.705612,40.000000,0.000000,4298.077148,4293.077148,4316.025879,4307.820313,4272.179688,4279.358887,4334.487305,4401.153809,4292.948730,4292.820313,4485.000000,4507.436035,4355.512695,4428.461426,0.000000,1.000000,20.000000,,,,0.000000,2.000000,2.000000,0.000000,4.000000,2.000000,2.000000,0.000000,0.000000,4.000000,4.000000,4.000000,4.000000,4.000000,4.000000,0.000000,,,,,,,,,,,,,,,,,10.000000,0.000000,0.525250,0.465576,-0.555725,0.445557,0.973752,-0.004883,-0.041997,-35.130917,45.085838,31.982376
1732158611.709727,1732158611.713421,41.000000,0.000000,4297.307617,4294.358887,4316.922852,4305.512695,4285.769043,4279.230957,4335.128418,4402.436035,4294.487305,4291.794922,4491.922852,4500.641113,4351.153809,4429.615234,0.000000,1.000000,20.000000,,,,0.000000,2.000000,2.000000,0.000000,4.000000,2.000000,2.000000,0.000000,0.000000,4.000000,4.000000,4.000000,4.000000,4.000000,4.000000,0.000000,,,,,,,,,,,,,,,,,,,,,,,,,,,,
1732158611.717536,1732158611.721029,42.000000,0.000000,4301.666504,4295.641113,4316.410156,4309.102539,4300.512695,4278.205078,4333.846191,4401.153809,4294.871582,4293.461426,4486.666504,4506.794922,4350.512695,4429.871582,0.000000,1.000000,20.000000,,,,0.000000,2.000000,2.000000,0.000000,4.000000,2.000000,2.000000,0.000000,0.000000,4.000000,4.000000,4.000000,4.000000,4.000000,4.000000,0.000000,,,,,,,,,,,,,,,,,,,,,,,,,,,,
1732158611.725344,1732158611.728837,43.000000,0.000000,4305.000000,4296.538574,4318.333496,4313.846191,4279.871582,4278.461426,4331.794922,4401.410156,4296.794922,4293.205078,4483.974121,4518.589844,4351.794922,4435.897461,0.000000,1.000000,20.000000,,,,0.000000,2.000000,2.000000,0.000000,4.000000,2.000000,2.000000,0.000000,0.000000,4.000000,4.000000,4.000000,4.000000,4.000000,4.000000,0.000000,,,,,,,,,,,,,,,,,,,,,,,,,,,,
1732158611.733152,1732158611.736546,44.000000,0.000000,4303.205078,4296.410156,4318.589844,4313.333496,4267.820313,4280.512695,4333.333496,4400.128418,4294.615234,4293.589844,4491.922852,4514.743652,4350.641113,4444.743652,0.000000,1.000000,20.000000,,,,0.000000,2.000000,2.000000,0.000000,4.000000,2.000000,2.000000,0.000000,0.000000,4.000000,4.000000,4.000000,4.000000,4.000000,4.000000,0.000000,,,,,,,,,,,,,,,,,11.000000,0.000000,0.524307,0.466125,-0.555420,0.446472,0.992797,-0.009767,-0.041997,-35.317707,45.147861,31.892391
1732158611.740960,1732158611.744354,45.000000,0.000000,4301.794922,4295.000000,4317.692383,4312.051270,4279.230957,4280.897461,4334.615234,4398.974121,4295.897461,4300.641113,4497.436035,4506.922852,4352.436035,4443.333496,0.000000,1.000000,20.000000,,,,0.000000,2.000000,2.000000,0.000000,4.000000,2.000000,2.000000,0.000000,0.000000,4.000000,4.000000,4.000000,4.000000,4.000000,4.000000,0.000000,,,,,,,,,,,,,,,,,,,,,,,,,,,,
1732158611.748769,1732158611.751962,46.000000,0.000000,4304.230957,4299.230957,4318.589844,4312.436035,4283.205078,4278.589844,4333.589844,4400.769043,4307.436035,4300.384766,4487.820313,4512.307617,4353.461426,4433.077148,0.000000,1.000000,20.000000,,,,0.000000,2.000000,2.000000,0.000000,4.000000,2.000000,2.000000,0.000000,0.000000,4.000000,4.000000,4.000000,4.000000,4.000000,4.000000,0.000000,,,,,,,,,,,,,,,,,,,,,,,,,,,,
1732158611.756577,1732158611.759770,47.000000,0.000000,4302.692383,4300.384766,4319.358887,4311.410156,4277.948730,4277.820313,4333.077148,4400.769043,4308.846191,4291.410156,4480.256348,4518.589844,4347.820313,4428.589844,0.000000,1.000000,20.000000,,,,0.000000,2.000000,2.000000,0.000000,4.000000,2.000000,2.000000,0.000000,0.000000,4.000000,4.000000,4.000000,4.000000,4.000000,4.000000,0.000000,,,,,,,,,,,,,,,,,,,,,,,,,,,,
1732158611.764385,1732158611.767479,48.000000,0.000000,4297.436035,4293.717773,4316.666504,4308.461426,4276.794922,4280.641113,4334.230957,4400.641113,4298.333496,4291.666504,4487.307617,4511.282227,4342.563965,4431.538574,0.000000,1.000000,20.000000,,,,0.000000,2.000000,2.000000,0.000000,4.000000,2.000000,2.000000,0.000000,0.000000,4.000000,4.000000,4.000000,4.000000,4.000000,4.000000,0.000000,,,,,,,,,,,,,,,,,12.000000,0.000000,0.523937,0.466309,-0.555420,0.446716,0.984984,-0.010743,-0.039067,-35.289009,45.056435,31.881170
1732158611.772193,1732158611.775287,49.000000,0.000000,4294.102539,4289.615234,4317.179688,4305.897461,4282.820313,4283.077148,4335.256348,4406.666504,4300.384766,4297.820313,4491.922852,4503.205078,4342.948730,4429.358887,0.000000,1.000000,20.000000,,,,0.000000,2.000000,2.000000,0.000000,4.000000,2.000000,2.000000,0.000000,0.000000,4.000000,4.000000,4.000000,4.000000,4.000000,4.000000,0.000000,,,,,,,,,,,,,,,,,,,,,,,,,,,,
1732158611.780002,1732158611.782895,50.000000,0.000000,4293.717773,4290.897461,4317.820313,4304.871582,4297.563965,4281.410156,4334.230957,4410.128418,4308.077148,4297.563965,4488.205078,4502.820313,4342.820313,4421.025879,0.000000,1.000000,20.000000,,,,0.000000,2.000000,2.000000,0.000000,4.000000,2.000000,2.000000,0.000000,0.000000,4.000000,4.000000,4.000000,4.000000,4.000000,4.000000,0.000000,,,,,,,,,,,,,,,,,,,,,,,,,,,,
1732158611.787810,1732158611.790704,51.000000,0.000000,4297.692383,4293.846191,4316.666504,4310.641113,4295.128418,4281.282227,4332.820313,4404.487305,4300.512695,4294.487305,4487.179688,4508.846191,4343.205078,4423.205078,0.000000,1.000000,20.000000,,,,0.000000,2.000000,2.000000,0.000000,4.000000,2.000000,2.000000,0.000000,0.000000,4.000000,4.000000,4.000000,4.000000,4.000000,4.000000,0.000000,,,,,,,,,,,,,,,,,,,,,,,,,,,,
1732158611.795618,1732158611.798412,52.000000,0.000000,4302.692383,4298.589844,4316.538574,4318.333496,4275.512695,4286.282227,4333.974121,4399.230957,4291.538574,4290.256348,4479.230957,4513.333496,4343.077148,4430.000000,0.000000,1.000000,20.000000,,,,0.000000,2.000000,2.000000,0.000000,4.000000,2.000000,2.000000,0.000000,0.000000,4.000000,4.000000,4.000000,4.000000,4.000000,4.000000,0.000000,,,,,,,,,,,,,,,,,13.000000,0.000000,0.523017,0.467163,-0.555176,0.447205,0.974240,-0.005860,-0.054694,-35.335766,45.089046,31.757082
1732158611.803426,1732158611.806220,53.000000,0.000000,4301.025879,4296.153809,4317.307617,4317.692383,4274.871582,4287.692383,4334.487305,4401.153809,4293.974121,4290.512695,4472.820313,4509.871582,4339.358887,4425.000000,0.000000,1.000000,20.000000,,,,0.000000,2.000000,2.000000,0.000000,4.000000,2.000000,2.000000,0.000000,0.000000,4.000000,4.000000,4.000000,4.000000,4.000000,4.000000,0.000000,,,,,,,,,,,,,,,,,,,,,,,,,,,,
1732158611.811235,1732158611.814228,54.000000,0.000000,4295.641113,4283.077148,4317.692383,4310.384766,4285.512695,4282.436035,4333.717773,4402.179688,4296.794922,4297.563965,4483.589844,4505.128418,4338.333496,4417.820313,0.000000,1.000000,20.000000,,,,0.000000,2.000000,2.000000,0.000000,4.000000,2.000000,2.000000,0.000000,0.000000,4.000000,4.000000,4.000000,4.000000,4.000000,4.000000,0.000000,,,,,,,,,,,,,,,,,,,,,,,,,,,,
1732158611.819043,1732158611.822036,55.000000,0.000000,4295.512695,4277.436035,4316.922852,4304.230957,4278.333496,4279.871582,4335.128418,4401.153809,4300.000000,4296.153809,4493.717773,4507.307617,4335.384766,4416.794922,0.000000,1.000000,20.000000,,,,0.000000,2.000000,2.000000,0.000000,4.000000,2.000000,2.000000,0.000000,0.000000,4.000000,4.000000,4.000000,4.000000,4.000000,4.000000,0.000000,,,,,,,,,,,,,,,,,,,,,,,,,,,,
1732158611.826851,1732158611.829944,56.000000,0.000000,4296.794922,4285.769043,4316.025879,4308.589844,4274.358887,4281.666504,4336.666504,4401.666504,4304.358887,4295.128418,4486.794922,4507.051270,4328.589844,4415.000000,0.000000,1.000000,20.000000,,,,0.000000,2.000000,2.000000,0.000000,4.000000,2.000000,2.000000,0.000000,0.000000,4.000000,4.000000,4.000000,4.000000,4.000000,4.000000,0.000000,,,,,,,,,,,,,,,,,14.000000,0.000000,0.522296,0.468140,-0.554688,0.447632,0.980100,-0.008790,-0.051276,-35.360302,45.207127,31.698236
1732158611.834659,1732158611.837753,57.000000,0.000000,4294.871582,4289.743652,4317.820313,4309.743652,4292.948730,4281.922852,4335.000000,4400.769043,4302.307617,4300.256348,4476.922852,4498.717773,4330.256348,4414.871582,0.000000,1.000000,20.000000,,,,0.000000,2.000000,2.000000,0.000000,4.000000,2.000000,2.000000,0.000000,0.000000,4.000000,4.000000,4.000000,4.000000,4.000000,4.000000,0.000000,,,,,,,,,,,,,,,,,,,,,,,,,,,,
1732158611.842468,1732158611.845761,58.000000,0.000000,4294.615234,4285.256348,4319.230957,4302.948730,4297.820313,4281.922852,4334.487305,4400.641113,4298.077148,4291.025879,4482.820313,4500.512695,4336.282227,4417.692383,0.000000,1.000000,20.000000,,,,0.000000,2.000000,2.000000,0.000000,4.000000,2.000000,2.000000,0.000000,0.000000,4.000000,4.000000,4.000000,4.000000,4.000000,4.000000,0.000000,,,,,,,,,,,,,,,,,,,,,,,,,,,,
1732158611.850276,1732158611.853569,59.000000,0.000000,4295.384766,4284.743652,4316.666504,4300.769043,4278.077148,4282.948730,4335.128418,4401.282227,4296.282227,4278.589844,4487.436035,4507.820313,4333.461426,4417.820313,0.000000,1.000000,20.000000,,,,0.000000,2.000000,2.000000,0.000000,4.000000,2.000000,2.000000,0.000000,0.000000,4.000000,4.000000,4.000000,4.000000,4.000000,4.000000,0.000000,,,,,,,,,,,,,,,,,,,,,,,,,,,,
1732158611.858084,1732158611.861477,60.000000,0.000000,4294.102539,4286.794922,4316.410156,4305.384766,4268.205078,4282.179688,4334.871582,4400.769043,4295.384766,4286.794922,4479.871582,4506.282227,4331.153809,4422.051270,0.000000,1.000000,20.000000,,,,0.000000,2.000000,2.000000,0.000000,4.000000,2.000000,2.000000,0.000000,0.000000,4.000000,4.000000,4.000000,4.000000,4.000000,4.000000,0.000000,,,,,,,,,,,,,,,,,15.000000,0.000000,0.522303,0.468262,-0.554626,0.447571,0.980100,-0.008790,-0.051276,-35.293510,45.186108,31.822237
1732158611.865893,1732158611.869285,61.000000,0.000000,4294.871582,4282.179688,4319.230957,4306.153809,4278.589844,4281.666504,4334.743652,4401.282227,4300.512695,4297.692383,4479.358887,4504.358887,4338.589844,4429.102539,0.000000,1.000000,20.000000,,,,0.000000,2.000000,2.000000,0.000000,4.000000,2.000000,2.000000,0.000000,0.000000,4.000000,4.000000,4.000000,4.000000,4.000000,4.000000,0.000000,,,,,,,,,,,,,,,,,,,,,,,,,,,,
1732158611.873701,1732158611.876894,62.000000,0.000000,4296.538574,4278.717773,4318.974121,4301.410156,4284.615234,4282.563965,4334.871582,4402.307617,4312.563965,4299.615234,4489.487305,4505.769043,4344.487305,4428.205078,0.000000,1.000000,20.000000,,,,0.000000,2.000000,2.000000,0.000000,4.000000,2.000000,2.000000,0.000000,0.000000,4.000000,4.000000,4.000000,4.000000,4.000000,4.000000,0.000000,,,,,,,,,,,,,,,,,,,,,,,,,,,,
1732158611.881509,1732158611.884702,63.000000,0.000000,4297.307617,4285.000000,4316.538574,4302.179688,4277.179688,4283.846191,4334.871582,4401.153809,4315.000000,4303.974121,4494.743652,4507.051270,4344.871582,4428.077148,0.000000,1.000000,20.000000,,,,0.000000,2.000000,2.000000,0.000000,4.000000,2.000000,2.000000,0.000000,0.000000,4.000000,4.000000,4.000000,4.000000,4.000000,4.000000,0.000000,,,,,,,,,,,,,,,,,,,,,,,,,,,,
1732158611.889317,1732158611.892610,64.000000,0.000000,4296.794922,4286.922852,4315.641113,4305.128418,4278.589844,4284.102539,4334.871582,4403.205078,4303.589844,4302.820313,4492.051270,4508.717773,4342.948730,4430.897461,0.000000,1.000000,20.000000,,,,0.000000,2.000000,2.000000,0.000000,4.000000,2.000000,2.000000,0.000000,0.000000,4.000000,4.000000,4.000000,4.000000,4.000000,4.000000,0.000000,,,,,,,,,,,,,,,,,16.000000,0.000000,0.522234,0.468384,-0.554688,0.447449,0.981077,-0.014162,-0.050787,-35.346077,45.202412,31.942678
1732158611.897125,1732158611.900418,65.000000,0.000000,4294.743652,4280.897461,4315.128418,4305.897461,4294.102539,4279.358887,4334.871582,4406.410156,4295.256348,4292.436035,4484.230957,4507.436035,4339.487305,4427.307617,1606.000000,1.000000,20.000000,,,,0.000000,2.000000,2.000000,0.000000,4.000000,2.000000,2.000000,0.000000,0.000000,4.000000,4.000000,4.000000,4.000000,4.000000,4.000000,0.000000,,,,,,,,,,,,,,,,,,,,,,,,,,,,
1732158611.904934,1732158611.908426,66.000000,0.000000,4292.948730,4282.051270,4316.922852,4307.692383,4296.666504,4279.615234,4334.871582,4402.307617,4295.641113,4292.820313,4476.922852,4504.487305,4337.820313,4423.205078,1361.000000,1.000000,20.000000,,,,0.000000,2.000000,2.000000,0.000000,4.000000,2.000000,2.000000,0.000000,0.000000,4.000000,4.000000,4.000000,4.000000,4.000000,4.000000,0.000000,,,,,,,,,,,,,,,,,,,,,,,,,,,,
1732158611.912742,1732158611.916234,67.000000,0.000000,4291.922852,4282.948730,4317.563965,4308.846191,4281.025879,4288.846191,4334.871582,4397.563965,4295.769043,4296.410156,4483.589844,4505.512695,4339.358887,4423.205078,1427.000000,1.000000,20.000000,,,,0.000000,2.000000,2.000000,0.000000,4.000000,2.000000,2.000000,0.000000,0.000000,4.000000,4.000000,4.000000,4.000000,4.000000,4.000000,0.000000,,,,,,,,,,,,,,,,,,,,,,,,,,,,
1732158611.920550,1732158611.924142,68.000000,0.000000,4292.563965,4282.820313,4317.051270,4307.179688,4271.538574,4289.615234,4334.871582,4400.384766,4293.461426,4292.820313,4491.153809,4507.692383,4341.666504,4426.538574,1436.000000,1.000000,20.000000,,,,0.000000,2.000000,2.000000,0.000000,4.000000,2.000000,2.000000,0.000000,0.000000,4.000000,4.000000,4.000000,4.000000,4.000000,4.000000,0.000000,,,,,,,,,,,,,,,,,17.000000,0.000000,0.521935,0.469177,-0.554199,0.447571,0.979612,-0.006837,-0.062019,-35.480324,45.193954,32.003571
1732158611.928358,1732158611.931951,69.000000,0.000000,4293.205078,4290.384766,4318.333496,4306.666504,4280.384766,4285.897461,4334.871582,4402.820313,4294.743652,4299.615234,4490.641113,4508.717773,4341.025879,4425.512695,1197.000000,1.000000,20.000000,,,,0.000000,2.000000,2.000000,0.000000,4.000000,2.000000,2.000000,0.000000,0.000000,4.000000,4.000000,4.000000,4.000000,4.000000,4.000000,0.000000,,,,,,,,,,,,,,,,,,,,,,,,,,,,
1732158611.936167,1732158611.939959,70.000000,0.000000,4292.051270,4291.794922,4319.102539,4309.487305,4299.230957,4288.717773,4334.871582,4400.512695,4297.692383,4302.051270,4485.512695,4507.948730,4340.897461,4419.230957,0.000000,1.000000,20.000000,,,,0.000000,2.000000,2.000000,0.000000,4.000000,2.000000,2.000000,0.000000,0.000000,4.000000,4.000000,4.000000,4.000000,4.000000,4.000000,0.000000,,,,,,,,,,,,,,,,,,,,,,,,,,,,
1732158611.943975,1732158611.947767,71.000000,0.000000,4291.410156,4288.974121,4317.179688,4308.333496,4303.205078,4292.051270,4334.871582,4400.128418,4297.692383,4287.563965,4476.410156,4506.538574,4342.051270,4418.205078,0.000000,1.000000,20.000000,,,,0.000000,2.000000,2.000000,0.000000,4.000000,2.000000,2.000000,0.000000,0.000000,4.000000,4.000000,4.000000,4.000000,4.000000,4.000000,0.000000,,,,,,,,,,,,,,,,,,,,,,,,,,,,
1732158611.951783,1732158611.955675,72.000000,0.000000,4294.358887,4294.743652,4317.179688,4309.615234,4284.487305,4291.922852,4334.871582,4401.922852,4295.128418,4286.282227,4475.897461,4505.256348,4338.974121,4420.000000,1536.000000,1.000000,20.000000,,,,0.000000,2.000000,2.000000,0.000000,4.000000,2.000000,2.000000,0.000000,0.000000,4.000000,4.000000,4.000000,4.000000,4.000000,4.000000,0.000000,,,,,,,,,,,,,,,,,18.000000,0.000000,0.521655,0.469543,-0.553955,0.447815,0.984495,-0.005860,-0.057136,-35.534061,45.290436,31.929558
1732158611.959592,1732158611.963483,73.000000,0.000000,4292.820313,4292.820313,4318.205078,4312.692383,4275.128418,4295.128418,4334.871582,4400.769043,4298.974121,4300.384766,4478.589844,4504.487305,4334.487305,4416.538574,1693.000000,1.000000,20.000000,,,,0.000000,2.000000,2.000000,0.000000,4.000000,2.000000,2.000000,0.000000,0.000000,4.000000,4.000000,4.000000,4.000000,4.000000,4.000000,0.000000,,,,,,,,,,,,,,,,,,,,,,,,,,,,
1732158611.967400,1732158611.971491,74.000000,0.000000,4282.692383,4280.897461,4316.025879,4309.615234,4282.179688,4297.307617,4334.871582,4401.025879,4308.333496,4296.794922,4479.743652,4505.128418,4337.563965,4414.102539,1554.000000,1.000000,20.000000,,,,0.000000,2.000000,2.000000,0.000000,4.000000,2.000000,2.000000,0.000000,0.000000,4.000000,4.000000,4.000000,4.000000,4.000000,4.000000,0.000000,,,,,,,,,,,,,,,,,,,,,,,,,,,,
1732158611.975208,1732158611.979299,75.000000,0.000000,4280.897461,4281.410156,4314.871582,4304.871582,4291.538574,4294.102539,4334.871582,4405.769043,4304.102539,4282.563965,4479.487305,4507.307617,4340.384766,4414.230957,1553.000000,1.000000,20.000000,,,,0.000000,2.000000,2.000000,0.000000,4.000000,2.000000,2.000000,0.000000,0.000000,4.000000,4.000000,4.000000,4.000000,4.000000,4.000000,0.000000,,,,,,,,,,,,,,,,,,,,,,,,,,,,
1732158611.983016,1732158611.987207,76.000000,0.000000,4289.230957,4285.256348,4316.538574,4305.512695,4300.384766,4291.410156,4334.871582,4405.128418,4296.922852,4287.436035,4475.641113,4507.948730,4337.563965,4413.974121,1691.000000,1.000000,20.000000,,,,0.000000,2.000000,2.000000,0.000000,4.000000,2.000000,2.000000,0.000000,0.000000,4.000000,4.000000,4.000000,4.000000,4.000000,4.000000,0.000000,,,,,,,,,,,,,,,,,19.000000,0.000000,0.521678,0.469604,-0.553833,0.447876,0.972775,-0.013185,-0.054206,-35.210922,45.235252,31.657942
1732158611.990825,1732158611.995016,77.000000,0.000000,4293.589844,4281.794922,4318.205078,4308.589844,4292.307617,4290.384766,4334.871582,4400.128418,4300.128418,4298.846191,4480.000000,4507.820313,4340.384766,4421.410156,1574.000000,1.000000,20.000000,,,,0.000000,2.000000,2.000000,0.000000,4.000000,2.000000,2.000000,0.000000,0.000000,4.000000,4.000000,4.000000,4.000000,4.000000,4.000000,0.000000,,,,,,,,,,,,,,,,,,,,,,,,,,,,
1732158611.998633,1732158612.003024,78.000000,0.000000,4293.461426,4282.948730,4317.563965,4310.000000,4274.871582,4293.589844,4334.871582,4400.897461,4299.743652,4298.717773,4489.871582,4508.589844,4343.974121,4424.102539,1554.000000,1.000000,20.000000,,,,0.000000,2.000000,2.000000,0.000000,4.000000,2.000000,2.000000,0.000000,0.000000,4.000000,4.000000,4.000000,4.000000,4.000000,4.000000,0.000000,1.000000,0.000000,2.000000,2.000000,0.000000,4.000000,2.000000,2.000000,0.000000,0.000000,4.000000,4.000000,4.000000,4.000000,4.000000,4.000000,,,,,,,,,,,,
1732158612.006441,1732158612.010832,79.000000,0.000000,4295.256348,4283.333496,4317.563965,4307.436035,4278.589844,4294.615234,4334.743652,4402.948730,4295.897461,4294.358887,4485.512695,4510.000000,4338.461426,4417.563965,1553.000000,1.000000,20.000000,,,,0.000000,2.000000,2.000000,0.000000,4.000000,2.000000,2.000000,0.000000,0.000000,4.000000,4.000000,4.000000,4.000000,4.000000,4.000000,0.000000,,,,,,,,,,,,,,,,,,,,,,,,,,,,
1732158612.014249,1732158612.018740,80.000000,0.000000,4294.358887,4280.641113,4317.051270,4305.512695,4285.256348,4292.563965,4334.743652,4402.692383,4297.692383,4295.128418,4472.051270,4510.512695,4333.077148,4417.692383,1691.000000,1.000000,20.000000,,,,0.000000,2.000000,2.000000,0.000000,4.000000,2.000000,2.000000,0.000000,0.000000,4.000000,4.000000,4.000000,4.000000,4.000000,4.000000,0.000000,,,,,,,,,,,,,,,,,20.000000,0.000000,0.521433,0.469788,-0.553711,0.448120,0.976193,-0.004883,-0.062508,-35.180847,45.220554,31.656267
1732158612.022057,1732158612.026548,81.000000,0.000000,4290.512695,4280.384766,4318.461426,4305.769043,4289.743652,4291.666504,4334.871582,4402.051270,4296.538574,4298.333496,4475.000000,4505.000000,4334.487305,4416.282227,1574.000000,1.000000,20.000000,,,,0.000000,2.000000,2.000000,0.000000,4.000000,2.000000,2.000000,0.000000,0.000000,4.000000,4.000000,4.000000,4.000000,4.000000,4.000000,0.000000,,,,,,,,,,,,,,,,,,,,,,,,,,,,
1732158612.029866,1732158612.034556,82.000000,0.000000,4293.333496,4280.384766,4319.615234,4307.436035,4298.461426,4292.563965,4334.871582,4400.256348,4299.871582,4296.153809,4488.974121,4502.436035,4338.589844,4412.820313,1554.000000,1.000000,20.000000,,,,0.000000,2.000000,2.000000,0.000000,4.000000,2.000000,2.000000,0.000000,0.000000,4.000000,4.000000,4.000000,4.000000,4.000000,4.000000,0.000000,,,,,,,,,,,,,,,,,,,,,,,,,,,,
1732158612.037674,1732158612.042364,83.000000,0.000000,4292.436035,4281.282227,4317.820313,4309.871582,4287.948730,4295.384766,4334.871582,4402.692383,4313.077148,4293.717773,4486.025879,4512.563965,4340.897461,4416.922852,1553.000000,1.000000,20.000000,,,,0.000000,2.000000,2.000000,0.000000,4.000000,2.000000,2.000000,0.000000,0.000000,4.000000,4.000000,4.000000,4.000000,4.000000,4.000000,0.000000,,,,,,,,,,,,,,,,,,,,,,,,,,,,
1732158612.045482,1732158612.050073,84.000000,0.000000,4283.846191,4281.410156,4316.794922,4307.436035,4272.436035,4294.487305,4335.769043,4405.641113,4309.615234,4292.563965,4478.974121,4515.256348,4336.282227,4417.948730,1691.000000,1.000000,20.000000,,,,0.000000,2.000000,2.000000,0.000000,4.000000,2.000000,2.000000,0.000000,0.000000,4.000000,4.000000,4.000000,4.000000,4.000000,4.000000,0.000000,,,,,,,,,,,,,,,,,21.000000,0.000000,0.521368,0.469788,-0.553772,0.448120,0.995239,0.003418,-0.055183,-35.203152,45.178650,31.761576
1732158612.053290,1732158612.057881,85.000000,0.000000,4279.871582,4279.358887,4318.846191,4300.769043,4278.974121,4290.512695,4336.666504,4401.922852,4297.948730,4292.563965,4485.256348,4504.487305,4334.102539,4412.436035,1574.000000,1.000000,20.000000,,,,0.000000,2.000000,2.000000,0.000000,4.000000,2.000000,2.000000,0.000000,0.000000,4.000000,4.000000,4.000000,4.000000,4.000000,4.000000,0.000000,,,,,,,,,,,,,,,,,,,,,,,,,,,,
1732158612.061099,1732158612.065489,86.000000,0.000000,4282.948730,4277.051270,4318.461426,4299.871582,4282.563965,4290.769043,4336.666504,4399.615234,4302.563965,4295.256348,4486.153809,4504.487305,4335.641113,4414.230957,1554.000000,1.000000,20.000000,,,,0.000000,2.000000,2.000000,0.000000,4.000000,2.000000,2.000000,0.000000,0.000000,4.000000,4.000000,4.000000,4.000000,4.000000,4.000000,0.000000,,,,,,,,,,,,,,,,,,,,,,,,,,,,
1732158612.068907,1732158612.073298,87.000000,0.000000,4281.794922,4277.051270,4316.538574,4300.641113,4279.358887,4290.641113,4336.922852,4401.922852,4304.743652,4294.230957,4473.589844,4510.512695,4328.461426,4414.230957,1553.000000,1.000000,20.000000,,,,0.000000,2.000000,2.000000,0.000000,4.000000,2.000000,2.000000,0.000000,0.000000,4.000000,4.000000,4.000000,4.000000,4.000000,4.000000,0.000000,,,,,,,,,,,,,,,,,,,,,,,,,,,,
1732158612.076715,1732158612.081006,88.000000,0.000000,4279.743652,4277.436035,4318.461426,4297.563965,4285.128418,4290.769043,4336.410156,4401.282227,4295.256348,4290.256348,4472.820313,4500.256348,4324.743652,4409.615234,1691.000000,1.000000,20.000000,,,,0.000000,2.000000,2.000000,0.000000,4.000000,2.000000,2.000000,0.000000,0.000000,4.000000,4.000000,4.000000,4.000000,4.000000,4.000000,0.000000,,,,,,,,,,,,,,,,,22.000000,0.000000,0.521368,0.469788,-0.553772,0.448120,0.990355,-0.012209,-0.054694,-35.236221,45.324707,31.801876
1732158612.084524,1732158612.088814,89.000000,0.000000,4281.666504,4279.615234,4317.948730,4296.794922,4284.743652,4293.461426,4334.871582,4400.384766,4294.871582,4291.922852,4480.769043,4494.358887,4333.205078,4410.512695,1574.000000,1.000000,20.000000,,,,0.000000,2.000000,2.000000,0.000000,4.000000,2.000000,2.000000,0.000000,0.000000,4.000000,4.000000,4.000000,4.000000,4.000000,4.000000,0.000000,,,,,,,,,,,,,,,,,,,,,,,,,,,,
1732158612.092332,1732158612.096422,90.000000,0.000000,4282.051270,4280.000000,4315.641113,4299.487305,4291.538574,4290.897461,4334.871582,4402.051270,4301.153809,4295.384766,4475.128418,4504.871582,4336.538574,4411.922852,1554.000000,1.000000,20.000000,,,,0.000000,2.000000,2.000000,0.000000,4.000000,2.000000,2.000000,0.000000,0.000000,4.000000,4.000000,4.000000,4.000000,4.000000,4.000000,0.000000,,,,,,,,,,,,,,,,,,,,,,,,,,,,
1732158612.100140,1732158612.104231,91.000000,0.000000,4285.384766,4277.563965,4317.692383,4301.666504,4307.563965,4288.077148,4335.897461,4401.025879,4299.615234,4293.077148,4478.589844,4513.077148,4333.205078,4412.563965,1553.000000,1.000000,20.000000,,,,0.000000,2.000000,2.000000,0.000000,4.000000,2.000000,2.000000,0.000000,0.000000,4.000000,4.000000,4.000000,4.000000,4.000000,4.000000,0.000000,,,,,,,,,,,,,,,,,,,,,,,,,,,,
1732158612.107948,1732158612.111939,92.000000,0.000000,4287.948730,4280.512695,4318.589844,4304.743652,4293.846191,4295.256348,4336.153809,4400.000000,4294.615234,4294.487305,4489.487305,4512.179688,4335.256348,4413.589844,1691.000000,1.000000,20.000000,,,,0.000000,2.000000,2.000000,0.000000,4.000000,2.000000,2.000000,0.000000,0.000000,4.000000,4.000000,4.000000,4.000000,4.000000,4.000000,0.000000,,,,,,,,,,,,,,,,,23.000000,0.000000,0.521283,0.469666,-0.553955,0.448120,0.984984,0.014162,-0.063484,-35.208004,45.081345,31.839520
1732158612.115757,1732158612.119747,93.000000,0.000000,4284.102539,4282.307617,4315.384766,4306.922852,4271.282227,4295.897461,4336.025879,4400.769043,4294.743652,4297.692383,4482.948730,4509.871582,4337.948730,4411.794922,1574.000000,1.000000,20.000000,,,,0.000000,2.000000,2.000000,0.000000,4.000000,2.000000,2.000000,0.000000,0.000000,4.000000,4.000000,4.000000,4.000000,4.000000,4.000000,0.000000,,,,,,,,,,,,,,,,,,,,,,,,,,,,
1732158612.123565,1732158612.127356,94.000000,0.000000,4281.538574,4277.692383,4315.384766,4301.922852,4273.461426,4287.436035,4336.410156,4401.538574,4296.922852,4286.922852,4471.794922,4508.461426,4330.769043,4406.153809,1554.000000,1.000000,20.000000,,,,0.000000,2.000000,2.000000,0.000000,4.000000,2.000000,2.000000,0.000000,0.000000,4.000000,4.000000,4.000000,4.000000,4.000000,4.000000,0.000000,,,,,,,,,,,,,,,,,,,,,,,,,,,,
1732158612.131373,1732158612.135164,95.000000,0.000000,4280.512695,4273.717773,4315.128418,4295.897461,4280.769043,4285.641113,4336.666504,4401.922852,4296.794922,4275.256348,4472.820313,4502.692383,4324.487305,4401.282227,1553.000000,1.000000,20.000000,,,,0.000000,2.000000,2.000000,0.000000,4.000000,2.000000,2.000000,0.000000,0.000000,4.000000,4.000000,4.000000,4.000000,4.000000,4.000000,0.000000,,,,,,,,,,,,,,,,,,,,,,,,,,,,
1732158612.139181,1732158612.143072,96.000000,0.000000,4280.000000,4274.615234,4314.487305,4296.666504,4289.358887,4287.948730,4335.897461,4401.538574,4296.794922,4282.307617,4478.205078,4500.256348,4329.871582,4403.846191,1691.000000,1.000000,20.000000,,,,0.000000,2.000000,2.000000,0.000000,4.000000,2.000000,2.000000,0.000000,0.000000,4.000000,4.000000,4.000000,4.000000,4.000000,4.000000,0.000000,,,,,,,,,,,,,,,,,24.000000,0.000000,0.521206,0.469421,-0.554382,0.447937,0.976682,-0.011232,-0.045416,-35.140152,45.145889,31.795012
1732158612.146989,1732158612.150880,97.000000,0.000000,4283.974121,4276.153809,4315.384766,4300.641113,4295.384766,4289.871582,4334.487305,4401.794922,4296.538574,4293.333496,4476.794922,4505.000000,4338.077148,4411.282227,1574.000000,1.000000,20.000000,,,,0.000000,2.000000,2.000000,0.000000,4.000000,2.000000,2.000000,0.000000,0.000000,4.000000,4.000000,4.000000,4.000000,4.000000,4.000000,0.000000,,,,,,,,,,,,,,,,,,,,,,,,,,,,
1732158612.154798,1732158612.158888,98.000000,0.000000,4286.153809,4272.179688,4316.282227,4299.615234,4278.974121,4291.410156,4334.743652,4403.589844,4299.102539,4292.820313,4478.333496,4506.538574,4334.615234,4415.256348,1554.000000,1.000000,20.000000,,,,0.000000,2.000000,2.000000,0.000000,4.000000,2.000000,2.000000,0.000000,0.000000,4.000000,4.000000,4.000000,4.000000,4.000000,4.000000,0.000000,,,,,,,,,,,,,,,,,,,,,,,,,,,,
1732158612.162606,1732158612.166696,99.000000,0.000000,4280.897461,4269.871582,4313.333496,4297.051270,4263.589844,4293.333496,4336.282227,4404.230957,4303.974121,4293.589844,4480.641113,4503.205078,4327.692383,4409.230957,1553.000000,1.000000,20.000000,,,,0.000000,2.000000,2.000000,0.000000,4.000000,2.000000,2.000000,0.000000,0.000000,4.000000,4.000000,4.000000,4.000000,4.000000,4.000000,0.000000,,,,,,,,,,,,,,,,,,,,,,,,,,,,
1732158612.170414,1732158612.174405,100.000000,0.000000,4278.333496,4271.282227,4312.820313,4295.128418,4278.461426,4295.256348,4336.410156,4401.666504,4303.461426,4295.000000,4474.615234,4505.000000,4327.563965,4400.128418,1691.000000,1.000000,20.000000,,,,0.000000,2.000000,2.000000,0.000000,4.000000,2.000000,2.000000,0.000000,0.000000,4.000000,4.000000,4.000000,4.000000,4.000000,4.000000,0.000000,,,,,,,,,,,,,,,,,25.000000,0.000000,0.521194,0.469421,-0.554443,0.447876,0.981565,-0.007325,-0.058113,-34.958523,45.279839,31.893959
1732158612.178223,1732158612.182213,101.000000,0.000000,4279.102539,4267.307617,4317.692383,4292.051270,4298.077148,4294.487305,4335.641113,4400.128418,4297.820313,4288.333496,4472.948730,4502.563965,4326.922852,4396.666504,1574.000000,1.000000,20.000000,,,,0.000000,2.000000,2.000000,0.000000,4.000000,2.000000,2.000000,0.000000,0.000000,4.000000,4.000000,4.000000,4.000000,4.000000,4.000000,0.000000,,,,,,,,,,,,,,,,,,,,,,,,,,,,
1732158612.186031,1732158612.189821,102.000000,0.000000,4277.692383,4261.666504,4319.102539,4293.846191,4289.743652,4294.743652,4335.769043,4405.256348,4293.077148,4279.102539,4475.256348,4494.487305,4323.846191,4397.179688,1554.000000,1.000000,20.000000,,,,0.000000,2.000000,2.000000,0.000000,4.000000,2.000000,2.000000,0.000000,0.000000,4.000000,4.000000,4.000000,4.000000,4.000000,4.000000,0.000000,,,,,,,,,,,,,,,,,,,,,,,,,,,,
1732158612.193839,1732158612.197630,103.000000,0.000000,4277.179688,4262.307617,4314.743652,4296.282227,4267.051270,4295.384766,4335.641113,4409.102539,4293.077148,4274.743652,4471.538574,4494.358887,4325.897461,4400.641113,1553.000000,1.000000,20.000000,,,,0.000000,2.000000,2.000000,0.000000,4.000000,2.000000,2.000000,0.000000,0.000000,4.000000,4.000000,4.000000,4.000000,4.000000,4.000000,0.000000,,,,,,,,,,,,,,,,,,,,,,,,,,,,
1732158612.201647,1732158612.205338,104.000000,0.000000,4278.589844,4265.512695,4313.077148,4297.179688,4265.128418,4292.051270,4334.871582,4404.358887,4298.717773,4289.358887,4474.230957,4497.692383,4332.051270,4406.153809,1691.000000,1.000000,20.000000,,,,0.000000,2.000000,2.000000,0.000000,4.000000,2.000000,2.000000,0.000000,0.000000,4.000000,4.000000,4.000000,4.000000,4.000000,4.000000,0.000000,,,,,,,,,,,,,,,,,26.000000,0.000000,0.521194,0.469421,-0.554443,0.447876,0.974240,-0.015627,-0.056648,-34.961403,45.418335,31.824106
1732158612.209456,1732158612.213146,105.000000,0.000000,4279.743652,4265.512695,4317.307617,4297.563965,4283.589844,4289.102539,4334.615234,4399.743652,4303.077148,4303.589844,4491.410156,4502.307617,4335.769043,4412.051270,1574.000000,1.000000,20.000000,,,,0.000000,2.000000,2.000000,0.000000,4.000000,2.000000,2.000000,0.000000,0.000000,4.000000,4.000000,4.000000,4.000000,4.000000,4.000000,0.000000,,,,,,,,,,,,,,,,,,,,,,,,,,,,
1732158612.217264,1732158612.221154,106.000000,0.000000,4281.410156,4266.666504,4318.974121,4295.641113,4285.769043,4292.179688,4334.871582,4400.256348,4295.769043,4287.820313,4489.487305,4509.102539,4334.871582,4413.717773,1554.000000,1.000000,20.000000,,,,0.000000,2.000000,2.000000,0.000000,4.000000,2.000000,2.000000,0.000000,0.000000,4.000000,4.000000,4.000000,4.000000,4.000000,4.000000,0.000000,,,,,,,,,,,,,,,,,,,,,,,,,,,,
1732158612.225072,1732158612.228962,107.000000,0.000000,4282.692383,4268.205078,4316.410156,4296.538574,4275.128418,4295.128418,4334.871582,4401.410156,4292.820313,4275.256348,4473.846191,4511.025879,4335.384766,4415.000000,1553.000000,1.000000,20.000000,,,,0.000000,2.000000,2.000000,0.000000,4.000000,2.000000,2.000000,0.000000,0.000000,4.000000,4.000000,4.000000,4.000000,4.000000,4.000000,0.000000,,,,,,,,,,,,,,,,,,,,,,,,,,,,
1732158612.232880,1732158612.236870,108.000000,0.000000,4281.025879,4267.307617,4315.641113,4298.846191,4286.794922,4293.077148,4335.384766,4401.666504,4301.282227,4286.153809,4479.102539,4507.051270,4334.743652,4413.589844,1691.000000,1.000000,20.000000,,,,0.000000,2.000000,2.000000,0.000000,4.000000,2.000000,2.000000,0.000000,0.000000,4.000000,4.000000,4.000000,4.000000,4.000000,4.000000,0.000000,,,,,,,,,,,,,,,,,27.000000,0.000000,0.520618,0.469910,-0.554077,0.448486,0.971310,-0.016115,-0.056159,-35.088737,45.338852,31.750860
1732158612.240689,1732158612.244679,109.000000,0.000000,4279.358887,4265.256348,4316.538574,4298.589844,4303.077148,4288.717773,4335.897461,4402.307617,4300.128418,4288.846191,4485.641113,4505.128418,4332.820313,4413.333496,1574.000000,1.000000,20.000000,,,,0.000000,2.000000,2.000000,0.000000,4.000000,2.000000,2.000000,0.000000,0.000000,4.000000,4.000000,4.000000,4.000000,4.000000,4.000000,0.000000,,,,,,,,,,,,,,,,,,,,,,,,,,,,
1732158612.248497,1732158612.252687,110.000000,0.000000,4285.000000,4267.179688,4316.282227,4300.641113,4289.615234,4288.846191,4335.897461,4403.205078,4293.589844,4284.358887,4478.846191,4508.846191,4336.794922,4419.230957,1554.000000,1.000000,20.000000,,,,0.000000,2.000000,2.000000,0.000000,4.000000,2.000000,2.000000,0.000000,0.000000,4.000000,4.000000,4.000000,4.000000,4.000000,4.000000,0.000000,,,,,,,,,,,,,,,,,,,,,,,,,,,,
1732158612.256305,1732158612.260495,111.000000,0.000000,4288.461426,4270.256348,4315.128418,4303.205078,4266.922852,4293.333496,4335.769043,4406.025879,4296.794922,4289.358887,4476.794922,4508.846191,4335.384766,4418.333496,1553.000000,1.000000,20.000000,,,,0.000000,2.000000,2.000000,0.000000,4.000000,2.000000,2.000000,0.000000,0.000000,4.000000,4.000000,4.000000,4.000000,4.000000,4.000000,0.000000,,,,,,,,,,,,,,,,,,,,,,,,,,,,
1732158612.264113,1732158612.268403,112.000000,0.000000,4283.974121,4269.230957,4314.615234,4300.512695,4271.666504,4296.025879,4335.897461,4404.358887,4297.563965,4288.589844,4480.641113,4499.230957,4328.205078,4411.025879,1691.000000,1.000000,20.000000,,,,0.000000,2.000000,2.000000,0.000000,4.000000,2.000000,2.000000,0.000000,0.000000,4.000000,4.000000,4.000000,4.000000,4.000000,4.000000,0.000000,,,,,,,,,,,,,,,,,28.000000,0.000000,0.520526,0.469971,-0.554260,0.448303,0.977658,-0.011720,-0.072274,-35.173542,45.191135,31.966530
1732158612.271922,1732158612.276211,113.000000,0.000000,4281.025879,4267.307617,4315.512695,4298.589844,4291.282227,4291.153809,4336.025879,4399.487305,4295.128418,4284.615234,4476.025879,4499.102539,4327.948730,4411.410156,1574.000000,1.000000,20.000000,,,,0.000000,2.000000,2.000000,0.000000,4.000000,2.000000,2.000000,0.000000,0.000000,4.000000,4.000000,4.000000,4.000000,4.000000,4.000000,0.000000,,,,,,,,,,,,,,,,,,,,,,,,,,,,
1732158612.279730,1732158612.283819,114.000000,0.000000,4281.153809,4265.384766,4315.512695,4295.897461,4295.000000,4283.077148,4335.641113,4399.743652,4302.563965,4289.230957,4475.000000,4503.461426,4333.205078,4413.333496,1554.000000,1.000000,20.000000,,,,0.000000,2.000000,2.000000,0.000000,4.000000,2.000000,2.000000,0.000000,0.000000,4.000000,4.000000,4.000000,4.000000,4.000000,4.000000,0.000000,,,,,,,,,,,,,,,,,,,,,,,,,,,,
1732158612.287538,1732158612.291628,115.000000,0.000000,4279.743652,4264.102539,4316.538574,4291.794922,4283.077148,4283.589844,4336.025879,4402.179688,4306.282227,4296.025879,4483.333496,4496.282227,4335.000000,4410.897461,1553.000000,1.000000,20.000000,,,,0.000000,2.000000,2.000000,0.000000,4.000000,2.000000,2.000000,0.000000,0.000000,4.000000,4.000000,4.000000,4.000000,4.000000,4.000000,0.000000,,,,,,,,,,,,,,,,,,,,,,,,,,,,
1732158612.295346,1732158612.299336,116.000000,0.000000,4280.512695,4270.256348,4315.897461,4296.794922,4273.846191,4293.205078,4336.794922,4403.589844,4296.153809,4296.538574,4486.025879,4498.205078,4336.538574,4414.230957,1691.000000,1.000000,20.000000,,,,0.000000,2.000000,2.000000,0.000000,4.000000,2.000000,2.000000,0.000000,0.000000,4.000000,4.000000,4.000000,4.000000,4.000000,4.000000,0.000000,,,,,,,,,,,,,,,,,29.000000,0.000000,0.520370,0.470215,-0.554199,0.448303,0.972775,-0.016115,-0.064461,-35.298904,45.059822,31.751223
1732158612.303155,1732158612.307144,117.000000,0.000000,4281.922852,4273.077148,4312.436035,4300.256348,4277.051270,4296.666504,4335.897461,4402.820313,4290.384766,4285.769043,4479.615234,4508.461426,4334.871582,4414.487305,1574.000000,1.000000,20.000000,,,,0.000000,2.000000,2.000000,0.000000,4.000000,2.000000,2.000000,0.000000,0.000000,4.000000,4.000000,4.000000,4.000000,4.000000,4.000000,0.000000,,,,,,,,,,,,,,,,,,,,,,,,,,,,
1732158612.310963,1732158612.315152,118.000000,0.000000,4277.563965,4265.256348,4311.922852,4294.102539,4282.179688,4290.128418,4335.000000,4399.358887,4295.256348,4275.641113,4472.948730,4499.871582,4328.205078,4402.563965,1554.000000,1.000000,20.000000,,,,0.000000,2.000000,2.000000,0.000000,4.000000,2.000000,2.000000,0.000000,0.000000,4.000000,4.000000,4.000000,4.000000,4.000000,4.000000,0.000000,,,,,,,,,,,,,,,,,,,,,,,,,,,,
1732158612.318771,1732158612.322960,119.000000,0.000000,4274.871582,4263.205078,4315.897461,4293.717773,4278.846191,4286.666504,4335.256348,4398.461426,4297.820313,4279.230957,4478.077148,4488.077148,4329.358887,4399.487305,1553.000000,1.000000,20.000000,,,,0.000000,2.000000,2.000000,0.000000,4.000000,2.000000,2.000000,0.000000,0.000000,4.000000,4.000000,4.000000,4.000000,4.000000,4.000000,0.000000,,,,,,,,,,,,,,,,,,,,,,,,,,,,
1732158612.326579,1732158612.330869,120.000000,0.000000,4277.307617,4267.563965,4318.077148,4297.051270,4279.230957,4288.846191,4335.897461,4402.948730,4296.794922,4286.025879,4484.487305,4489.230957,4335.256348,4405.384766,1691.000000,1.000000,20.000000,,,,0.000000,2.000000,2.000000,0.000000,4.000000,2.000000,2.000000,0.000000,0.000000,4.000000,4.000000,4.000000,4.000000,4.000000,4.000000,0.000000,,,,,,,,,,,,,,,,,30.000000,0.000000,0.520305,0.470215,-0.554260,0.448303,0.985472,-0.012697,-0.060554,-35.135445,45.186787,31.723490
1732158612.334388,1732158612.338677,121.000000,0.000000,4278.846191,4267.307617,4316.410156,4293.974121,4284.615234,4291.666504,4336.282227,4402.436035,4296.794922,4291.410156,4479.487305,4492.692383,4333.333496,4403.589844,1574.000000,1.000000,20.000000,,,,0.000000,2.000000,2.000000,0.000000,4.000000,2.000000,2.000000,0.000000,0.000000,4.000000,4.000000,4.000000,4.000000,4.000000,4.000000,0.000000,,,,,,,,,,,,,,,,,,,,,,,,,,,,
1732158612.342196,1732158612.346685,122.000000,0.000000,4277.948730,4264.871582,4316.282227,4295.128418,4278.717773,4289.102539,4335.128418,4398.589844,4298.589844,4294.871582,4473.077148,4497.820313,4331.410156,4402.820313,1554.000000,1.000000,20.000000,,,,0.000000,2.000000,2.000000,0.000000,4.000000,2.000000,2.000000,0.000000,0.000000,4.000000,4.000000,4.000000,4.000000,4.000000,4.000000,0.000000,,,,,,,,,,,,,,,,,,,,,,,,,,,,
1732158612.350004,1732158612.354493,123.000000,0.000000,4277.436035,4266.794922,4314.871582,4297.820313,4280.769043,4283.077148,4333.846191,4399.871582,4302.436035,4294.358887,4475.769043,4502.692383,4337.820313,4412.179688,1553.000000,1.000000,20.000000,,,,0.000000,2.000000,2.000000,0.000000,4.000000,2.000000,2.000000,0.000000,0.000000,4.000000,4.000000,4.000000,4.000000,4.000000,4.000000,0.000000,,,,,,,,,,,,,,,,,,,,,,,,,,,,
1732158612.357812,1732158612.362401,124.000000,0.000000,4278.205078,4266.666504,4314.358887,4288.461426,4293.077148,4281.666504,4335.128418,4401.922852,4301.666504,4295.897461,4481.666504,4496.153809,4341.025879,4412.436035,1691.000000,1.000000,20.000000,,,,0.000000,2.000000,2.000000,0.000000,4.000000,2.000000,2.000000,0.000000,0.000000,4.000000,4.000000,4.000000,4.000000,4.000000,4.000000,0.000000,,,,,,,,,,,,,,,,,31.000000,0.000000,0.519817,0.470337,-0.554565,0.448364,0.976682,-0.007813,-0.063484,-35.314709,45.111298,31.646027
1732158612.365621,1732158612.370209,125.000000,0.000000,4278.077148,4262.051270,4315.512695,4284.743652,4282.820313,4281.538574,4336.794922,4401.025879,4296.153809,4296.025879,4474.358887,4494.615234,4332.692383,4402.436035,1574.000000,1.000000,20.000000,,,,0.000000,2.000000,2.000000,0.000000,4.000000,2.000000,2.000000,0.000000,0.000000,4.000000,4.000000,4.000000,4.000000,4.000000,4.000000,0.000000,,,,,,,,,,,,,,,,,,,,,,,,,,,,
1732158612.373429,1732158612.377818,126.000000,0.000000,4278.205078,4260.512695,4314.102539,4293.974121,4258.205078,4281.538574,4335.641113,4400.512695,4294.358887,4292.051270,4469.487305,4502.948730,4332.051270,4404.230957,1554.000000,1.000000,20.000000,,,,0.000000,2.000000,2.000000,0.000000,4.000000,2.000000,2.000000,0.000000,0.000000,4.000000,4.000000,4.000000,4.000000,4.000000,4.000000,0.000000,,,,,,,,,,,,,,,,,,,,,,,,,,,,
1732158612.381237,1732158612.385626,127.000000,0.000000,4278.077148,4260.769043,4313.717773,4295.512695,4265.256348,4285.769043,4334.615234,4401.025879,4296.153809,4296.666504,4481.666504,4498.974121,4339.743652,4411.025879,20.000000,1.000000,20.000000,,,,0.000000,2.000000,2.000000,0.000000,4.000000,2.000000,2.000000,0.000000,0.000000,4.000000,4.000000,4.000000,4.000000,4.000000,4.000000,0.000000,,,,,,,,,,,,,,,,,,,,,,,,,,,,
1732158612.389045,1732158612.393534,0.000000,0.000000,4278.461426,4260.000000,4317.179688,4292.307617,4292.436035,4288.333496,4334.743652,4401.666504,4296.025879,4300.512695,4484.743652,4495.256348,4337.051270,4411.666504,0.000000,1.000000,20.000000,,,,0.000000,2.000000,2.000000,0.000000,4.000000,2.000000,2.000000,0.000000,0.000000,4.000000,4.000000,4.000000,4.000000,4.000000,4.000000,0.000000,,,,,,,,,,,,,,,,,0.000000,0.000000,0.519913,0.470276,-0.554626,0.448242,0.982542,-0.011720,-0.063484,-35.378250,45.335152,31.589949
1732158612.396854,1732158612.401342,1.000000,0.000000,4278.974121,4262.563965,4317.179688,4299.487305,4288.461426,4289.871582,4334.871582,4400.641113,4293.589844,4295.128418,4472.436035,4502.051270,4333.077148,4411.025879,1619.000000,1.000000,20.000000,,,,0.000000,2.000000,2.000000,0.000000,4.000000,2.000000,2.000000,0.000000,0.000000,4.000000,4.000000,4.000000,4.000000,4.000000,4.000000,0.000000,,,,,,,,,,,,,,,,,,,,,,,,,,,,
1732158612.404662,1732158612.408951,2.000000,0.000000,4278.846191,4265.897461,4314.743652,4302.436035,4267.948730,4294.743652,4335.512695,4400.512695,4297.436035,4290.256348,4473.333496,4499.871582,4337.820313,4410.641113,1361.000000,1.000000,20.000000,,,,0.000000,2.000000,2.000000,0.000000,4.000000,2.000000,2.000000,0.000000,0.000000,4.000000,4.000000,4.000000,4.000000,4.000000,4.000000,0.000000,,,,,,,,,,,,,,,,,,,,,,,,,,,,
1732158612.412470,1732158612.416759,3.000000,0.000000,4279.871582,4263.205078,4314.743652,4296.025879,4267.307617,4291.025879,4336.025879,4400.769043,4303.461426,4295.641113,4482.307617,4490.256348,4340.897461,4407.563965,1441.000000,1.000000,20.000000,,,,0.000000,2.000000,2.000000,0.000000,4.000000,2.000000,2.000000,0.000000,0.000000,4.000000,4.000000,4.000000,4.000000,4.000000,4.000000,0.000000,,,,,,,,,,,,,,,,,,,,,,,,,,,,
1732158612.420278,1732158612.424467,4.000000,0.000000,4274.871582,4257.692383,4314.743652,4294.487305,4278.717773,4286.153809,4334.743652,4400.769043,4301.538574,4306.666504,4477.563965,4490.641113,4337.307617,4404.487305,1439.000000,1.000000,20.000000,,,,0.000000,2.000000,2.000000,0.000000,4.000000,2.000000,2.000000,0.000000,0.000000,4.000000,4.000000,4.000000,4.000000,4.000000,4.000000,0.000000,,,,,,,,,,,,,,,,,1.000000,0.000000,0.519805,0.470337,-0.554626,0.448303,0.982542,-0.011720,-0.063484,-35.404716,45.308140,31.411192
1732158612.428087,1732158612.432275,5.000000,0.000000,4270.897461,4258.461426,4314.871582,4293.974121,4284.102539,4290.641113,4334.230957,4402.307617,4296.922852,4305.897461,4471.538574,4495.000000,4337.563965,4406.282227,1200.000000,1.000000,20.000000,,,,0.000000,2.000000,2.000000,0.000000,4.000000,2.000000,2.000000,0.000000,0.000000,4.000000,4.000000,4.000000,4.000000,4.000000,4.000000,0.000000,,,,,,,,,,,,,,,,,,,,,,,,,,,,
1732158612.435895,1732158612.439884,6.000000,0.000000,4273.846191,4264.615234,4315.769043,4294.358887,4276.410156,4288.461426,4335.641113,4400.512695,4302.436035,4296.282227,4474.615234,4494.230957,4339.487305,4408.589844,0.000000,1.000000,20.000000,,,,0.000000,2.000000,2.000000,0.000000,4.000000,2.000000,2.000000,0.000000,0.000000,4.000000,4.000000,4.000000,4.000000,4.000000,4.000000,0.000000,,,,,,,,,,,,,,,,,,,,,,,,,,,,
1732158612.443703,1732158612.447692,7.000000,0.000000,4270.512695,4264.487305,4313.846191,4295.512695,4280.897461,4283.717773,4335.641113,4396.794922,4309.230957,4293.717773,4474.358887,4492.563965,4335.641113,4402.820313,0.000000,1.000000,20.000000,,,,0.000000,2.000000,2.000000,0.000000,4.000000,2.000000,2.000000,0.000000,0.000000,4.000000,4.000000,4.000000,4.000000,4.000000,4.000000,0.000000,,,,,,,,,,,,,,,,,,,,,,,,,,,,
1732158612.451512,1732158612.455400,8.000000,0.000000,4263.974121,4256.794922,4312.948730,4290.128418,4301.025879,4289.102539,4334.487305,4398.717773,4304.230957,4296.410156,4473.974121,4483.717773,4332.051270,4395.128418,1534.000000,1.000000,20.000000,,,,0.000000,2.000000,2.000000,0.000000,4.000000,2.000000,2.000000,0.000000,0.000000,4.000000,4.000000,4.000000,4.000000,4.000000,4.000000,0.000000,,,,,,,,,,,,,,,,,2.000000,0.000000,0.519285,0.470764,-0.554504,0.448608,0.965450,-0.012697,-0.064461,-35.472820,45.324593,31.446398
1732158612.459320,1732158612.463208,9.000000,0.000000,4269.743652,4256.666504,4316.282227,4288.589844,4297.179688,4293.333496,4335.128418,4402.179688,4296.538574,4294.615234,4474.358887,4483.461426,4335.000000,4400.769043,1693.000000,1.000000,20.000000,,,,0.000000,2.000000,2.000000,0.000000,4.000000,2.000000,2.000000,0.000000,0.000000,4.000000,4.000000,4.000000,4.000000,4.000000,4.000000,0.000000,,,,,,,,,,,,,,,,,,,,,,,,,,,,
1732158612.467128,1732158612.471216,10.000000,0.000000,4279.230957,4266.282227,4317.563965,4300.256348,4272.563965,4292.948730,4335.769043,4400.128418,4295.641113,4293.205078,4473.333496,4501.025879,4342.307617,4413.974121,1564.000000,1.000000,20.000000,,,,0.000000,2.000000,2.000000,0.000000,4.000000,2.000000,2.000000,0.000000,0.000000,4.000000,4.000000,4.000000,4.000000,4.000000,4.000000,0.000000,,,,,,,,,,,,,,,,,,,,,,,,,,,,
1732158612.474936,1732158612.479025,11.000000,0.000000,4278.717773,4268.461426,4317.051270,4304.743652,4272.692383,4291.666504,4335.128418,4398.717773,4297.051270,4295.128418,4476.538574,4504.358887,4343.846191,4411.538574,1553.000000,1.000000,20.000000,,,,0.000000,2.000000,2.000000,0.000000,4.000000,2.000000,2.000000,0.000000,0.000000,4.000000,4.000000,4.000000,4.000000,4.000000,4.000000,0.000000,,,,,,,,,,,,,,,,,,,,,,,,,,,,
1732158612.482744,1732158612.486733,12.000000,0.000000,4277.692383,4264.615234,4315.256348,4297.051270,4284.615234,4288.461426,4335.384766,4400.897461,4297.179688,4297.820313,4481.666504,4491.922852,4341.410156,4402.051270,1716.000000,1.000000,20.000000,,,,0.000000,2.000000,2.000000,0.000000,4.000000,2.000000,2.000000,0.000000,0.000000,4.000000,4.000000,4.000000,4.000000,4.000000,4.000000,0.000000,,,,,,,,,,,,,,,,,3.000000,0.000000,0.519277,0.470642,-0.554565,0.448669,0.996704,-0.015139,-0.063973,-35.544651,45.321255,31.458250
1732158612.490553,1732158612.494541,13.000000,0.000000,4280.384766,4264.102539,4314.743652,4292.820313,4276.922852,4285.512695,4336.153809,4401.410156,4297.820313,4301.410156,4480.769043,4496.666504,4342.179688,4403.461426,1574.000000,1.000000,20.000000,,,,0.000000,2.000000,2.000000,0.000000,4.000000,2.000000,2.000000,0.000000,0.000000,4.000000,4.000000,4.000000,4.000000,4.000000,4.000000,0.000000,,,,,,,,,,,,,,,,,,,,,,,,,,,,
1732158612.498361,1732158612.502150,14.000000,0.000000,4277.820313,4265.256348,4313.461426,4293.846191,4283.717773,4282.051270,4335.769043,4401.025879,4299.230957,4293.077148,4478.205078,4503.846191,4343.589844,4407.051270,1564.000000,1.000000,20.000000,,,,0.000000,2.000000,2.000000,0.000000,4.000000,2.000000,2.000000,0.000000,0.000000,4.000000,4.000000,4.000000,4.000000,4.000000,4.000000,0.000000,1.000000,0.000000,2.000000,2.000000,0.000000,4.000000,2.000000,2.000000,0.000000,0.000000,4.000000,3.000000,4.000000,4.000000,4.000000,4.000000,,,,,,,,,,,,
1732158612.506169,1732158612.509958,15.000000,0.000000,4274.102539,4264.743652,4310.000000,4294.871582,4299.230957,4281.153809,4335.769043,4402.692383,4296.794922,4281.794922,4477.051270,4492.948730,4341.282227,4403.461426,1553.000000,1.000000,20.000000,,,,0.000000,2.000000,2.000000,0.000000,4.000000,2.000000,2.000000,0.000000,0.000000,4.000000,4.000000,4.000000,4.000000,4.000000,4.000000,0.000000,,,,,,,,,,,,,,,,,,,,,,,,,,,,
1732158612.513977,1732158612.517666,16.000000,0.000000,4275.256348,4263.974121,4310.769043,4297.179688,4286.153809,4291.538574,4335.897461,4402.820313,4293.974121,4282.948730,4473.846191,4489.743652,4333.846191,4402.948730,0.000000,1.000000,20.000000,,,,0.000000,2.000000,2.000000,0.000000,4.000000,2.000000,2.000000,0.000000,0.000000,4.000000,4.000000,4.000000,4.000000,4.000000,4.000000,0.000000,,,,,,,,,,,,,,,,,4.000000,0.000000,0.519212,0.470642,-0.554626,0.448669,0.990844,-0.014162,-0.059089,-35.377834,45.101883,31.434515
1732158612.521786,1732158612.525474,17.000000,0.000000,4272.692383,4263.461426,4316.538574,4297.307617,4271.538574,4294.743652,4335.897461,4401.153809,4291.025879,4286.922852,4474.871582,4498.974121,4331.538574,4406.922852,0.000000,1.000000,20.000000,,,,0.000000,2.000000,2.000000,0.000000,4.000000,2.000000,2.000000,0.000000,0.000000,4.000000,4.000000,4.000000,4.000000,4.000000,4.000000,0.000000,,,,,,,,,,,,,,,,,,,,,,,,,,,,
1732158612.529594,1732158612.533083,18.000000,0.000000,4263.974121,4262.948730,4313.974121,4295.128418,4278.589844,4284.615234,4335.897461,4401.153809,4290.512695,4289.743652,4479.743652,4494.871582,4336.922852,4403.333496,0.000000,1.000000,20.000000,,,,0.000000,2.000000,2.000000,0.000000,4.000000,2.000000,2.000000,0.000000,0.000000,4.000000,4.000000,4.000000,4.000000,4.000000,4.000000,0.000000,,,,,,,,,,,,,,,,,,,,,,,,,,,,
1732158612.537402,1732158612.540891,19.000000,0.000000,4265.256348,4264.102539,4311.794922,4296.410156,4281.922852,4287.692383,4335.897461,4402.948730,4295.641113,4291.666504,4477.179688,4488.333496,4338.717773,4400.384766,0.000000,1.000000,20.000000,,,,0.000000,2.000000,2.000000,0.000000,4.000000,2.000000,2.000000,0.000000,0.000000,4.000000,4.000000,4.000000,4.000000,4.000000,4.000000,0.000000,,,,,,,,,,,,,,,,,,,,,,,,,,,,
1732158612.545210,1732158612.548599,20.000000,0.000000,4276.153809,4265.897461,4318.846191,4297.692383,4278.717773,4296.153809,4335.897461,4402.179688,4298.077148,4292.563965,4473.205078,4494.230957,4334.358887,4403.589844,0.000000,1.000000,20.000000,,,,0.000000,2.000000,2.000000,0.000000,4.000000,2.000000,2.000000,0.000000,0.000000,4.000000,4.000000,4.000000,4.000000,4.000000,4.000000,0.000000,,,,,,,,,,,,,,,,,5.000000,0.000000,0.519079,0.470703,-0.554749,0.448608,0.972287,-0.007325,-0.059578,-35.147713,45.082523,31.510290
1732158612.553019,1732158612.556408,21.000000,0.000000,4279.358887,4264.230957,4318.333496,4294.230957,4292.563965,4287.436035,4335.897461,4399.358887,4295.512695,4293.974121,4476.538574,4494.615234,4337.051270,4401.666504,0.000000,1.000000,20.000000,,,,0.000000,2.000000,2.000000,0.000000,4.000000,2.000000,2.000000,0.000000,0.000000,4.000000,4.000000,4.000000,4.000000,4.000000,4.000000,0.000000,,,,,,,,,,,,,,,,,,,,,,,,,,,,
1732158612.560827,1732158612.564416,22.000000,0.000000,4276.922852,4268.333496,4311.410156,4294.487305,4297.820313,4282.051270,4335.897461,4400.000000,4298.717773,4293.589844,4480.256348,4491.153809,4345.384766,4398.846191,0.000000,1.000000,20.000000,,,,0.000000,2.000000,2.000000,0.000000,4.000000,2.000000,2.000000,0.000000,0.000000,4.000000,4.000000,4.000000,4.000000,4.000000,4.000000,0.000000,,,,,,,,,,,,,,,,,,,,,,,,,,,,
1732158612.568635,1732158612.572224,23.000000,0.000000,4276.794922,4273.333496,4313.846191,4299.871582,4280.000000,4291.153809,4335.769043,4402.051270,4304.487305,4297.436035,4476.410156,4491.794922,4341.922852,4400.000000,0.000000,1.000000,20.000000,,,,0.000000,2.000000,2.000000,0.000000,4.000000,2.000000,2.000000,0.000000,0.000000,4.000000,4.000000,4.000000,4.000000,4.000000,4.000000,0.000000,,,,,,,,,,,,,,,,,,,,,,,,,,,,
1732158612.576444,1732158612.579932,24.000000,0.000000,4277.948730,4270.256348,4317.692383,4298.846191,4272.563965,4291.282227,4335.769043,4402.563965,4300.512695,4298.205078,4473.717773,4492.692383,4332.563965,4400.512695,0.000000,1.000000,20.000000,,,,0.000000,2.000000,2.000000,0.000000,4.000000,2.000000,2.000000,0.000000,0.000000,4.000000,4.000000,4.000000,4.000000,4.000000,4.000000,0.000000,,,,,,,,,,,,,,,,,6.000000,0.000000,0.518988,0.470947,-0.554626,0.448608,0.977170,0.006837,-0.065926,-35.196312,45.055180,31.648336
1732158612.584252,1732158612.587740,25.000000,0.000000,4280.384766,4270.128418,4313.077148,4294.358887,4281.538574,4280.512695,4336.025879,4402.179688,4292.820313,4286.666504,4482.436035,4490.641113,4335.512695,4400.897461,0.000000,1.000000,20.000000,,,,0.000000,2.000000,2.000000,0.000000,4.000000,2.000000,2.000000,0.000000,0.000000,4.000000,4.000000,4.000000,4.000000,4.000000,4.000000,0.000000,,,,,,,,,,,,,,,,,,,,,,,,,,,,
1732158612.592060,1732158612.595349,26.000000,0.000000,4280.000000,4278.461426,4309.102539,4296.666504,4279.358887,4280.512695,4335.769043,4402.307617,4297.948730,4284.615234,4491.153809,4489.743652,4343.846191,4402.563965,0.000000,1.000000,20.000000,,,,0.000000,2.000000,2.000000,0.000000,4.000000,2.000000,2.000000,0.000000,0.000000,4.000000,4.000000,4.000000,4.000000,4.000000,4.000000,0.000000,,,,,,,,,,,,,,,,,,,,,,,,,,,,
1732158612.599868,1732158612.603157,27.000000,0.000000,4277.948730,4275.256348,4310.256348,4297.051270,4276.025879,4286.794922,4335.641113,4401.666504,4307.436035,4298.974121,4484.358887,4492.051270,4342.820313,4401.410156,0.000000,1.000000,20.000000,,,,0.000000,2.000000,2.000000,0.000000,4.000000,2.000000,2.000000,0.000000,0.000000,4.000000,4.000000,4.000000,4.000000,4.000000,4.000000,0.000000,,,,,,,,,,,,,,,,,,,,,,,,,,,,
1732158612.607676,1732158612.611065,28.000000,0.000000,4277.563965,4265.769043,4314.230957,4292.692383,4293.333496,4282.948730,4336.666504,4400.128418,4303.205078,4296.922852,4475.512695,4490.897461,4339.102539,4397.948730,0.000000,1.000000,20.000000,,,,0.000000,2.000000,2.000000,0.000000,4.000000,2.000000,2.000000,0.000000,0.000000,4.000000,4.000000,4.000000,4.000000,4.000000,4.000000,0.000000,,,,,,,,,,,,,,,,,7.000000,0.000000,0.519008,0.471069,-0.554504,0.448608,0.972775,0.007325,-0.047857,-35.425682,45.024693,31.631819
1732158612.615485,1732158612.618873,29.000000,0.000000,4278.717773,4270.384766,4313.846191,4294.358887,4291.794922,4283.846191,4336.025879,4399.871582,4294.871582,4285.000000,4475.641113,4489.230957,4340.000000,4398.077148,0.000000,1.000000,20.000000,,,,0.000000,2.000000,2.000000,0.000000,4.000000,2.000000,2.000000,0.000000,0.000000,4.000000,4.000000,4.000000,4.000000,4.000000,4.000000,0.000000,,,,,,,,,,,,,,,,,,,,,,,,,,,,
1732158612.623293,1732158612.626482,30.000000,0.000000,4280.512695,4278.846191,4309.743652,4299.102539,4267.051270,4297.179688,4333.717773,4401.538574,4295.897461,4293.205078,4474.615234,4496.282227,4341.410156,4403.333496,0.000000,1.000000,20.000000,,,,0.000000,2.000000,2.000000,0.000000,4.000000,2.000000,2.000000,0.000000,0.000000,4.000000,4.000000,4.000000,4.000000,4.000000,4.000000,0.000000,,,,,,,,,,,,,,,,,,,,,,,,,,,,
1732158612.631101,1732158612.634290,31.000000,0.000000,4280.641113,4277.948730,4309.615234,4298.461426,4268.461426,4296.282227,4333.461426,4401.666504,4296.538574,4296.410156,4476.153809,4500.256348,4341.538574,4404.871582,0.000000,1.000000,20.000000,,,,0.000000,2.000000,2.000000,0.000000,4.000000,2.000000,2.000000,0.000000,0.000000,4.000000,4.000000,4.000000,4.000000,4.000000,4.000000,0.000000,,,,,,,,,,,,,,,,,,,,,,,,,,,,
1732158612.638909,1732158612.642198,32.000000,0.000000,4279.615234,4269.487305,4313.846191,4294.487305,4281.922852,4284.358887,4334.487305,4400.256348,4294.615234,4285.641113,4476.025879,4493.974121,4336.794922,4399.871582,0.000000,1.000000,20.000000,,,,0.000000,2.000000,2.000000,0.000000,4.000000,2.000000,2.000000,0.000000,0.000000,4.000000,4.000000,4.000000,4.000000,4.000000,4.000000,0.000000,,,,,,,,,,,,,,,,,8.000000,0.000000,0.518887,0.471130,-0.554565,0.448608,0.970822,-0.009767,-0.067879,-35.281467,45.020004,31.628439
1732158612.646718,1732158612.650006,33.000000,0.000000,4277.820313,4265.000000,4314.487305,4294.358887,4279.487305,4288.461426,4335.000000,4404.102539,4297.820313,4285.897461,4467.948730,4492.051270,4330.384766,4397.948730,0.000000,1.000000,20.000000,,,,0.000000,2.000000,2.000000,0.000000,4.000000,2.000000,2.000000,0.000000,0.000000,4.000000,4.000000,4.000000,4.000000,4.000000,4.000000,0.000000,,,,,,,,,,,,,,,,,,,,,,,,,,,,
1732158612.654526,1732158612.658014,34.000000,0.000000,4276.922852,4268.077148,4311.410156,4294.358887,4289.743652,4292.563965,4335.256348,4409.102539,4298.461426,4290.128418,4473.461426,4494.743652,4333.461426,4399.615234,0.000000,1.000000,20.000000,,,,0.000000,2.000000,2.000000,0.000000,4.000000,2.000000,2.000000,0.000000,0.000000,4.000000,4.000000,4.000000,4.000000,4.000000,4.000000,0.000000,,,,,,,,,,,,,,,,,,,,,,,,,,,,
1732158612.662334,1732158612.665822,35.000000,0.000000,4278.205078,4271.794922,4310.128418,4292.563965,4299.230957,4283.077148,4335.641113,4405.256348,4298.461426,4289.358887,4486.153809,4493.333496,4341.025879,4401.025879,0.000000,1.000000,20.000000,,,,0.000000,2.000000,2.000000,0.000000,4.000000,2.000000,2.000000,0.000000,0.000000,4.000000,4.000000,4.000000,4.000000,4.000000,4.000000,0.000000,,,,,,,,,,,,,,,,,,,,,,,,,,,,
1732158612.670143,1732158612.673730,36.000000,0.000000,4280.256348,4268.333496,4313.974121,4290.897461,4272.692383,4283.589844,4336.153809,4400.641113,4303.205078,4295.128418,4485.512695,4493.461426,4342.179688,4402.820313,0.000000,1.000000,20.000000,,,,0.000000,2.000000,2.000000,0.000000,4.000000,2.000000,2.000000,0.000000,0.000000,4.000000,4.000000,4.000000,4.000000,4.000000,4.000000,0.000000,,,,,,,,,,,,,,,,,9.000000,0.000000,0.519026,0.471008,-0.554688,0.448425,0.969357,-0.009767,-0.062508,-35.187988,44.967869,31.727369
1732158612.677951,1732158612.681539,37.000000,0.000000,4281.025879,4267.051270,4315.897461,4293.717773,4263.077148,4293.717773,4336.410156,4402.820313,4301.153809,4303.077148,4483.205078,4492.436035,4343.846191,4404.230957,0.000000,1.000000,20.000000,,,,0.000000,2.000000,2.000000,0.000000,4.000000,2.000000,2.000000,0.000000,0.000000,4.000000,4.000000,4.000000,4.000000,4.000000,4.000000,0.000000,,,,,,,,,,,,,,,,,,,,,,,,,,,,
1732158612.685759,1732158612.689147,38.000000,0.000000,4281.922852,4273.589844,4311.794922,4297.948730,4286.282227,4294.230957,4335.512695,4403.717773,4296.922852,4290.256348,4481.153809,4493.077148,4343.717773,4406.794922,0.000000,1.000000,20.000000,,,,0.000000,2.000000,2.000000,0.000000,4.000000,2.000000,2.000000,0.000000,0.000000,4.000000,4.000000,4.000000,4.000000,4.000000,4.000000,0.000000,,,,,,,,,,,,,,,,,,,,,,,,,,,,
1732158612.693567,1732158612.696955,39.000000,0.000000,4282.179688,4273.974121,4311.538574,4297.436035,4285.256348,4294.358887,4334.871582,4400.000000,4299.743652,4278.077148,4472.179688,4500.256348,4337.563965,4410.512695,0.000000,1.000000,20.000000,,,,0.000000,2.000000,2.000000,0.000000,4.000000,2.000000,2.000000,0.000000,0.000000,4.000000,4.000000,4.000000,4.000000,4.000000,4.000000,0.000000,,,,,,,,,,,,,,,,,,,,,,,,,,,,
1732158612.701376,1732158612.704664,40.000000,0.000000,4279.230957,4265.256348,4316.025879,4294.358887,4281.922852,4300.000000,4335.769043,4400.512695,4302.948730,4286.282227,4474.743652,4500.769043,4336.282227,4405.384766,0.000000,1.000000,20.000000,,,,0.000000,2.000000,2.000000,0.000000,4.000000,2.000000,2.000000,0.000000,0.000000,4.000000,4.000000,4.000000,4.000000,4.000000,4.000000,0.000000,,,,,,,,,,,,,,,,,10.000000,0.000000,0.518974,0.470703,-0.554749,0.448730,0.987425,-0.018069,-0.042486,-35.347271,44.943974,31.747503
1732158612.709184,1732158612.712472,41.000000,0.000000,4277.948730,4262.692383,4315.897461,4292.436035,4305.512695,4292.820313,4335.897461,4403.589844,4303.077148,4292.051270,4482.179688,4491.282227,4337.692383,4395.897461,0.000000,1.000000,20.000000,,,,0.000000,2.000000,2.000000,0.000000,4.000000,2.000000,2.000000,0.000000,0.000000,4.000000,4.000000,4.000000,4.000000,4.000000,4.000000,0.000000,,,,,,,,,,,,,,,,,,,,,,,,,,,,
1732158612.716992,1732158612.720480,42.000000,0.000000,4278.589844,4268.846191,4312.436035,4294.358887,4300.384766,4280.897461,4335.512695,4402.436035,4300.512695,4286.666504,4477.436035,4489.743652,4338.077148,4398.717773,0.000000,1.000000,20.000000,,,,0.000000,2.000000,2.000000,0.000000,4.000000,2.000000,2.000000,0.000000,0.000000,4.000000,4.000000,4.000000,4.000000,4.000000,4.000000,0.000000,,,,,,,,,,,,,,,,,,,,,,,,,,,,
1732158612.724800,1732158612.728288,43.000000,0.000000,4278.846191,4270.769043,4311.922852,4295.897461,4268.461426,4284.358887,4335.769043,4400.256348,4295.641113,4284.230957,4481.666504,4498.461426,4340.897461,4408.974121,0.000000,1.000000,20.000000,,,,0.000000,2.000000,2.000000,0.000000,4.000000,2.000000,2.000000,0.000000,0.000000,4.000000,4.000000,4.000000,4.000000,4.000000,4.000000,0.000000,,,,,,,,,,,,,,,,,,,,,,,,,,,,
1732158612.732608,1732158612.736196,44.000000,0.000000,4280.000000,4268.974121,4312.820313,4296.153809,4269.487305,4297.563965,4335.897461,4400.512695,4299.615234,4290.128418,4490.128418,4504.487305,4343.974121,4413.077148,0.000000,1.000000,20.000000,,,,0.000000,2.000000,2.000000,0.000000,4.000000,2.000000,2.000000,0.000000,0.000000,4.000000,4.000000,4.000000,4.000000,4.000000,4.000000,0.000000,,,,,,,,,,,,,,,,,11.000000,0.000000,0.518974,0.470703,-0.554749,0.448730,0.981077,-0.013674,-0.053717,-35.536289,44.939617,31.853811
1732158612.740417,1732158612.744004,45.000000,0.000000,4280.512695,4270.512695,4314.230957,4294.871582,4287.307617,4292.692383,4335.769043,4401.922852,4306.025879,4292.692383,4487.051270,4501.153809,4342.692383,4408.461426,0.000000,1.000000,20.000000,,,,0.000000,2.000000,2.000000,0.000000,4.000000,2.000000,2.000000,0.000000,0.000000,4.000000,4.000000,4.000000,4.000000,4.000000,4.000000,0.000000,,,,,,,,,,,,,,,,,,,,,,,,,,,,
1732158612.748225,1732158612.752012,46.000000,0.000000,4280.512695,4274.615234,4314.102539,4293.974121,4282.948730,4280.512695,4335.769043,4401.666504,4300.512695,4291.025879,4486.538574,4493.077148,4340.897461,4404.487305,0.000000,1.000000,20.000000,,,,0.000000,2.000000,2.000000,0.000000,4.000000,2.000000,2.000000,0.000000,0.000000,4.000000,4.000000,4.000000,4.000000,4.000000,4.000000,0.000000,,,,,,,,,,,,,,,,,,,,,,,,,,,,
1732158612.756033,1732158612.759821,47.000000,0.000000,4281.282227,4278.333496,4312.307617,4296.922852,4273.461426,4283.205078,4335.769043,4400.769043,4293.846191,4284.102539,4488.333496,4494.358887,4343.461426,4408.205078,0.000000,1.000000,20.000000,,,,0.000000,2.000000,2.000000,0.000000,4.000000,2.000000,2.000000,0.000000,0.000000,4.000000,4.000000,4.000000,4.000000,4.000000,4.000000,0.000000,,,,,,,,,,,,,,,,,,,,,,,,,,,,
1732158612.763842,1732158612.767729,48.000000,0.000000,4282.307617,4276.538574,4313.333496,4295.897461,4288.077148,4286.025879,4335.384766,4399.615234,4296.538574,4279.487305,4476.282227,4500.641113,4344.230957,4414.615234,0.000000,1.000000,20.000000,,,,0.000000,2.000000,2.000000,0.000000,4.000000,2.000000,2.000000,0.000000,0.000000,4.000000,4.000000,4.000000,4.000000,4.000000,4.000000,0.000000,,,,,,,,,,,,,,,,,12.000000,0.000000,0.519100,0.470276,-0.554993,0.448730,0.991332,-0.012697,-0.056159,-35.737728,45.052757,31.818253
1732158612.771650,1732158612.775537,49.000000,0.000000,4282.051270,4269.871582,4317.179688,4291.666504,4300.000000,4280.000000,4334.743652,4400.641113,4295.769043,4281.922852,4471.025879,4500.769043,4337.948730,4413.589844,0.000000,1.000000,20.000000,,,,0.000000,2.000000,2.000000,0.000000,4.000000,2.000000,2.000000,0.000000,0.000000,4.000000,4.000000,4.000000,4.000000,4.000000,4.000000,0.000000,,,,,,,,,,,,,,,,,,,,,,,,,,,,
1732158612.779458,1732158612.783145,50.000000,0.000000,4281.282227,4265.000000,4315.769043,4293.333496,4278.974121,4281.666504,4334.615234,4402.051270,4294.615234,4282.179688,4487.820313,4501.025879,4335.769043,4407.179688,0.000000,1.000000,20.000000,,,,0.000000,2.000000,2.000000,0.000000,4.000000,2.000000,2.000000,0.000000,0.000000,4.000000,4.000000,4.000000,4.000000,4.000000,4.000000,0.000000,,,,,,,,,,,,,,,,,,,,,,,,,,,,
1732158612.787266,1732158612.790953,51.000000,0.000000,4280.769043,4266.153809,4310.641113,4294.487305,4254.615234,4287.948730,4334.871582,4400.384766,4302.179688,4281.410156,4490.256348,4504.743652,4341.666504,4406.153809,0.000000,1.000000,20.000000,,,,0.000000,2.000000,2.000000,0.000000,4.000000,2.000000,2.000000,0.000000,0.000000,4.000000,4.000000,4.000000,4.000000,4.000000,4.000000,0.000000,,,,,,,,,,,,,,,,,,,,,,,,,,,,
1732158612.795075,1732158612.798662,52.000000,0.000000,4281.282227,4268.846191,4309.358887,4292.820313,4263.589844,4283.461426,4335.256348,4399.615234,4306.282227,4281.153809,4474.358887,4509.615234,4339.102539,4410.769043,0.000000,1.000000,20.000000,,,,0.000000,2.000000,2.000000,0.000000,4.000000,2.000000,2.000000,0.000000,0.000000,4.000000,4.000000,4.000000,4.000000,4.000000,4.000000,0.000000,,,,,,,,,,,,,,,,,13.000000,0.000000,0.519183,0.470215,-0.555115,0.448547,0.989867,-0.009278,-0.055183,-35.610893,45.047733,31.789452
1732158612.802883,1732158612.806470,53.000000,0.000000,4281.794922,4267.436035,4314.487305,4288.461426,4282.948730,4279.871582,4336.922852,4401.410156,4304.487305,4283.846191,4479.102539,4511.794922,4334.871582,4413.717773,0.000000,1.000000,20.000000,,,,0.000000,2.000000,2.000000,0.000000,4.000000,2.000000,2.000000,0.000000,0.000000,4.000000,4.000000,4.000000,4.000000,4.000000,4.000000,0.000000,,,,,,,,,,,,,,,,,,,,,,,,,,,,
