title:2eight, start timestamp:1732158675.487280, stop timestamp:1732158732.799849, headset type:EPOCX, headset serial:E5020C3A, headset firmware:730, channels:67, sampling rate:eeg_128;mot_32, samples:7341      , version:2.2, 
Timestamp,OriginalTimestamp,EEG.Counter,EEG.Interpolated,EEG.AF3,EEG.F7,EEG.F3,EEG.FC5,EEG.T7,EEG.P7,EEG.O1,EEG.O2,EEG.P8,EEG.T8,EEG.FC6,EEG.F4,EEG.F8,EEG.AF4,EEG.RawCq,EEG.Battery,EEG.BatteryPercent,MarkerIndex,MarkerType,MarkerValueInt,EEG.MarkerHardware,CQ.AF3,CQ.F7,CQ.F3,CQ.FC5,CQ.T7,CQ.P7,CQ.O1,CQ.O2,CQ.P8,CQ.T8,CQ.FC6,CQ.F4,CQ.F8,CQ.AF4,CQ.Overall,EQ.SampleRateQuality,EQ.OVERALL,EQ.AF3,EQ.F7,EQ.F3,EQ.FC5,EQ.T7,EQ.P7,EQ.O1,EQ.O2,EQ.P8,EQ.T8,EQ.FC6,EQ.F4,EQ.F8,EQ.AF4,MOT.CounterMems,MOT.InterpolatedMems,MOT.Q0,MOT.Q1,MOT.Q2,MOT.Q3,MOT.AccX,MOT.AccY,MOT.AccZ,MOT.MagX,MOT.MagY,MOT.MagZ
1732158675.487280,1732158675.492266,17.000000,0.000000,4265.769043,4253.974121,4311.794922,4289.615234,4286.153809,4279.487305,4340.256348,4398.846191,4279.230957,4273.461426,4461.794922,4499.230957,4340.512695,4390.128418,0.000000,1.000000,19.000000,,,,0.000000,2.000000,2.000000,0.000000,4.000000,2.000000,2.000000,0.000000,0.000000,4.000000,4.000000,4.000000,4.000000,4.000000,4.000000,0.000000,,,,,,,,,,,,,,,,,,,,,,,,,,,,
1732158675.495088,1732158675.499874,18.000000,0.000000,4267.820313,4257.563965,4312.436035,4292.948730,4279.358887,4277.948730,4340.256348,4398.846191,4280.000000,4288.589844,4463.461426,4496.410156,4342.948730,4393.077148,0.000000,1.000000,19.000000,,,,0.000000,2.000000,2.000000,0.000000,4.000000,2.000000,2.000000,0.000000,0.000000,4.000000,4.000000,4.000000,4.000000,4.000000,4.000000,0.000000,,,,,,,,,,,,,,,,,,,,,,,,,,,,
1732158675.502897,1732158675.507683,19.000000,0.000000,4276.282227,4262.179688,4312.179688,4297.307617,4249.871582,4277.179688,4340.641113,4399.615234,4281.025879,4298.589844,4470.641113,4502.436035,4342.563965,4398.974121,0.000000,1.000000,19.000000,,,,0.000000,2.000000,2.000000,0.000000,4.000000,2.000000,2.000000,0.000000,0.000000,4.000000,4.000000,4.000000,4.000000,4.000000,4.000000,0.000000,,,,,,,,,,,,,,,,,,,,,,,,,,,,
1732158675.510705,1732158675.515391,20.000000,0.000000,4279.358887,4258.333496,4311.025879,4297.563965,4251.794922,4278.846191,4340.384766,4399.487305,4278.974121,4291.922852,4475.769043,4509.615234,4341.794922,4399.487305,0.000000,1.000000,19.000000,,,,0.000000,2.000000,2.000000,0.000000,4.000000,2.000000,2.000000,0.000000,0.000000,4.000000,4.000000,4.000000,4.000000,4.000000,4.000000,0.000000,,,,,,,,,,,,,,,,,5.000000,0.000000,0.522715,0.503601,-0.514404,0.456665,0.946893,0.062019,-0.039556,-34.924084,45.947464,31.403986
1732158675.518513,1732158675.523199,21.000000,0.000000,4270.641113,4250.128418,4309.102539,4295.256348,4268.333496,4279.102539,4340.000000,4399.358887,4277.179688,4289.102539,4472.436035,4500.128418,4342.692383,4397.563965,0.000000,1.000000,19.000000,,,,0.000000,2.000000,2.000000,0.000000,4.000000,2.000000,2.000000,0.000000,0.000000,4.000000,4.000000,4.000000,4.000000,4.000000,4.000000,0.000000,,,,,,,,,,,,,,,,,,,,,,,,,,,,
1732158675.526321,1732158675.530808,22.000000,0.000000,4264.871582,4248.461426,4310.000000,4295.897461,4265.384766,4278.077148,4341.025879,4398.461426,4281.153809,4288.077148,4461.410156,4492.948730,4341.538574,4398.077148,0.000000,1.000000,19.000000,,,,0.000000,2.000000,2.000000,0.000000,4.000000,2.000000,2.000000,0.000000,0.000000,4.000000,4.000000,4.000000,4.000000,4.000000,4.000000,0.000000,,,,,,,,,,,,,,,,,,,,,,,,,,,,
1732158675.534130,1732158675.538616,23.000000,0.000000,4267.692383,4251.666504,4311.922852,4297.179688,4263.461426,4278.589844,4339.615234,4397.692383,4281.282227,4283.589844,4455.384766,4497.179688,4340.000000,4398.846191,0.000000,1.000000,19.000000,,,,0.000000,2.000000,2.000000,0.000000,4.000000,2.000000,2.000000,0.000000,0.000000,4.000000,4.000000,4.000000,4.000000,4.000000,4.000000,0.000000,,,,,,,,,,,,,,,,,,,,,,,,,,,,
1732158675.541938,1732158675.546324,24.000000,0.000000,4266.410156,4252.307617,4311.153809,4297.692383,4269.743652,4276.538574,4335.769043,4399.615234,4271.025879,4279.358887,4466.538574,4496.666504,4340.128418,4396.025879,0.000000,1.000000,19.000000,,,,0.000000,2.000000,2.000000,0.000000,4.000000,2.000000,2.000000,0.000000,0.000000,4.000000,4.000000,4.000000,4.000000,4.000000,4.000000,0.000000,,,,,,,,,,,,,,,,,6.000000,0.000000,0.524016,0.504089,-0.513306,0.455872,0.964473,0.069833,-0.035161,-34.851841,45.997448,31.525560
1732158675.549746,1732158675.554132,25.000000,0.000000,4264.615234,4248.333496,4309.615234,4294.743652,4265.384766,4275.641113,4334.102539,4401.282227,4271.410156,4277.307617,4477.051270,4495.128418,4340.641113,4397.692383,0.000000,1.000000,19.000000,,,,0.000000,2.000000,2.000000,0.000000,4.000000,2.000000,2.000000,0.000000,0.000000,4.000000,4.000000,4.000000,4.000000,4.000000,4.000000,0.000000,,,,,,,,,,,,,,,,,,,,,,,,,,,,
1732158675.557554,1732158675.561741,26.000000,0.000000,4269.743652,4250.512695,4309.871582,4295.128418,4262.948730,4275.769043,4335.384766,4399.230957,4285.128418,4285.512695,4472.436035,4497.436035,4344.871582,4402.692383,0.000000,1.000000,19.000000,,,,0.000000,2.000000,2.000000,0.000000,4.000000,2.000000,2.000000,0.000000,0.000000,4.000000,4.000000,4.000000,4.000000,4.000000,4.000000,0.000000,,,,,,,,,,,,,,,,,,,,,,,,,,,,
1732158675.565363,1732158675.569549,27.000000,0.000000,4273.846191,4258.461426,4311.666504,4301.922852,4265.384766,4271.025879,4337.051270,4398.846191,4283.974121,4295.641113,4469.743652,4495.384766,4349.230957,4402.307617,0.000000,1.000000,19.000000,,,,0.000000,2.000000,2.000000,0.000000,4.000000,2.000000,2.000000,0.000000,0.000000,4.000000,4.000000,4.000000,4.000000,4.000000,4.000000,0.000000,,,,,,,,,,,,,,,,,,,,,,,,,,,,
1732158675.573171,1732158675.577257,28.000000,0.000000,4275.512695,4262.820313,4313.717773,4302.563965,4265.897461,4266.282227,4337.179688,4399.487305,4278.589844,4290.512695,4475.128418,4493.846191,4349.487305,4404.358887,0.000000,1.000000,19.000000,,,,0.000000,2.000000,2.000000,0.000000,4.000000,2.000000,2.000000,0.000000,0.000000,4.000000,4.000000,4.000000,4.000000,4.000000,4.000000,0.000000,,,,,,,,,,,,,,,,,7.000000,0.000000,0.524016,0.504089,-0.513306,0.455872,0.975705,0.101575,-0.024905,-34.673325,45.962933,31.519037
1732158675.580979,1732158675.585065,29.000000,0.000000,4281.025879,4259.487305,4313.589844,4298.589844,4266.025879,4266.794922,4336.282227,4398.589844,4289.358887,4280.641113,4479.230957,4499.358887,4351.153809,4411.922852,0.000000,1.000000,19.000000,,,,0.000000,2.000000,2.000000,0.000000,4.000000,2.000000,2.000000,0.000000,0.000000,4.000000,4.000000,4.000000,4.000000,4.000000,4.000000,0.000000,,,,,,,,,,,,,,,,,,,,,,,,,,,,
1732158675.588787,1732158675.593073,30.000000,0.000000,4283.846191,4258.846191,4311.025879,4301.794922,4265.000000,4264.230957,4335.512695,4397.563965,4293.205078,4280.384766,4476.794922,4496.794922,4350.128418,4408.333496,0.000000,1.000000,19.000000,,,,0.000000,2.000000,2.000000,0.000000,4.000000,2.000000,2.000000,0.000000,0.000000,4.000000,4.000000,4.000000,4.000000,4.000000,4.000000,0.000000,,,,,,,,,,,,,,,,,,,,,,,,,,,,
1732158675.596596,1732158675.600882,31.000000,0.000000,4279.102539,4261.410156,4309.358887,4303.846191,4266.922852,4264.615234,4335.512695,4397.820313,4279.871582,4279.871582,4470.256348,4490.641113,4341.025879,4397.436035,0.000000,1.000000,19.000000,,,,0.000000,2.000000,2.000000,0.000000,4.000000,2.000000,2.000000,0.000000,0.000000,4.000000,4.000000,4.000000,4.000000,4.000000,4.000000,0.000000,,,,,,,,,,,,,,,,,,,,,,,,,,,,
1732158675.604404,1732158675.608590,32.000000,0.000000,4276.922852,4260.128418,4309.102539,4296.538574,4265.384766,4272.563965,4335.384766,4398.461426,4276.666504,4275.641113,4471.538574,4491.153809,4339.487305,4399.615234,0.000000,1.000000,19.000000,,,,0.000000,2.000000,2.000000,0.000000,4.000000,2.000000,2.000000,0.000000,0.000000,4.000000,4.000000,4.000000,4.000000,4.000000,4.000000,0.000000,,,,,,,,,,,,,,,,,8.000000,0.000000,0.526036,0.505737,-0.510803,0.454529,0.982542,0.102552,-0.040532,-34.253727,46.101643,31.585421
1732158675.612212,1732158675.616398,33.000000,0.000000,4279.615234,4263.589844,4308.205078,4295.641113,4265.128418,4276.794922,4335.128418,4398.333496,4287.179688,4276.794922,4471.410156,4490.384766,4342.948730,4404.615234,0.000000,1.000000,19.000000,,,,0.000000,2.000000,2.000000,0.000000,4.000000,2.000000,2.000000,0.000000,0.000000,4.000000,4.000000,4.000000,4.000000,4.000000,4.000000,0.000000,,,,,,,,,,,,,,,,,,,,,,,,,,,,
1732158675.620020,1732158675.624007,34.000000,0.000000,4278.461426,4262.563965,4308.205078,4301.922852,4272.563965,4279.615234,4336.538574,4400.256348,4287.436035,4277.051270,4461.282227,4494.615234,4334.615234,4400.641113,0.000000,1.000000,19.000000,,,,0.000000,2.000000,2.000000,0.000000,4.000000,2.000000,2.000000,0.000000,0.000000,4.000000,4.000000,4.000000,4.000000,4.000000,4.000000,0.000000,,,,,,,,,,,,,,,,,,,,,,,,,,,,
1732158675.627829,1732158675.631815,35.000000,0.000000,4277.436035,4255.128418,4307.307617,4303.846191,4276.153809,4281.410156,4336.282227,4398.974121,4278.846191,4271.538574,4463.333496,4502.692383,4333.589844,4403.461426,0.000000,1.000000,19.000000,,,,0.000000,2.000000,2.000000,0.000000,4.000000,2.000000,2.000000,0.000000,0.000000,4.000000,4.000000,4.000000,4.000000,4.000000,4.000000,0.000000,,,,,,,,,,,,,,,,,,,,,,,,,,,,
1732158675.635637,1732158675.639523,36.000000,0.000000,4280.000000,4257.820313,4301.666504,4306.025879,4274.102539,4278.974121,4333.974121,4394.743652,4276.025879,4272.563965,4475.641113,4501.153809,4354.102539,4413.205078,0.000000,1.000000,19.000000,,,,0.000000,2.000000,2.000000,0.000000,4.000000,2.000000,2.000000,0.000000,0.000000,4.000000,4.000000,4.000000,4.000000,4.000000,4.000000,0.000000,,,,,,,,,,,,,,,,,9.000000,0.000000,0.526173,0.507263,-0.510071,0.453491,0.969357,0.062996,-0.045904,-33.993851,46.002331,31.525858
1732158675.643445,1732158675.647331,37.000000,0.000000,4281.410156,4260.128418,4297.179688,4304.358887,4270.897461,4278.461426,4334.871582,4393.974121,4279.743652,4278.717773,4482.563965,4496.666504,4368.461426,4414.871582,0.000000,1.000000,19.000000,,,,0.000000,2.000000,2.000000,0.000000,4.000000,2.000000,2.000000,0.000000,0.000000,4.000000,4.000000,4.000000,4.000000,4.000000,4.000000,0.000000,,,,,,,,,,,,,,,,,,,,,,,,,,,,
1732158675.651253,1732158675.654940,38.000000,0.000000,4281.153809,4249.487305,4296.153809,4296.025879,4267.563965,4275.641113,4335.641113,4392.563965,4281.282227,4281.538574,4486.666504,4499.871582,4365.384766,4415.512695,0.000000,1.000000,19.000000,,,,0.000000,2.000000,2.000000,0.000000,4.000000,2.000000,2.000000,0.000000,0.000000,4.000000,4.000000,4.000000,4.000000,4.000000,4.000000,0.000000,,,,,,,,,,,,,,,,,,,,,,,,,,,,
1732158675.659062,1732158675.662748,39.000000,0.000000,4282.307617,4244.743652,4295.000000,4294.230957,4263.846191,4267.307617,4330.256348,4391.410156,4281.794922,4286.153809,4491.153809,4502.179688,4370.384766,4422.820313,0.000000,1.000000,19.000000,,,,0.000000,2.000000,2.000000,0.000000,4.000000,2.000000,2.000000,0.000000,0.000000,4.000000,4.000000,4.000000,4.000000,4.000000,4.000000,0.000000,,,,,,,,,,,,,,,,,,,,,,,,,,,,
1732158675.666870,1732158675.670456,40.000000,0.000000,4282.307617,4249.487305,4290.641113,4293.077148,4263.205078,4263.974121,4327.051270,4393.077148,4287.563965,4297.179688,4497.307617,4499.358887,4384.615234,4428.205078,0.000000,1.000000,19.000000,,,,0.000000,2.000000,2.000000,0.000000,4.000000,2.000000,2.000000,0.000000,0.000000,4.000000,4.000000,4.000000,4.000000,4.000000,4.000000,0.000000,,,,,,,,,,,,,,,,,10.000000,0.000000,0.525746,0.507507,-0.510376,0.453369,0.969357,0.062996,-0.045904,-34.130020,46.206886,31.350945
1732158675.674678,1732158675.678264,41.000000,0.000000,4281.666504,4248.077148,4289.615234,4286.153809,4263.974121,4266.794922,4331.025879,4395.512695,4296.282227,4300.641113,4506.153809,4499.743652,4387.436035,4430.128418,0.000000,1.000000,19.000000,,,,0.000000,2.000000,2.000000,0.000000,4.000000,2.000000,2.000000,0.000000,0.000000,4.000000,4.000000,4.000000,4.000000,4.000000,4.000000,0.000000,,,,,,,,,,,,,,,,,,,,,,,,,,,,
1732158675.682486,1732158675.686272,42.000000,0.000000,4281.410156,4245.384766,4287.692383,4288.717773,4263.974121,4267.563965,4333.077148,4392.051270,4298.205078,4293.846191,4505.128418,4506.410156,4383.461426,4432.307617,0.000000,1.000000,19.000000,,,,0.000000,2.000000,2.000000,0.000000,4.000000,2.000000,2.000000,0.000000,0.000000,4.000000,4.000000,4.000000,4.000000,4.000000,4.000000,0.000000,,,,,,,,,,,,,,,,,,,,,,,,,,,,
1732158675.690295,1732158675.694081,43.000000,0.000000,4281.410156,4245.128418,4287.051270,4292.179688,4264.615234,4269.102539,4331.538574,4391.922852,4286.025879,4295.512695,4494.358887,4509.230957,4381.153809,4430.000000,0.000000,1.000000,19.000000,,,,0.000000,2.000000,2.000000,0.000000,4.000000,2.000000,2.000000,0.000000,0.000000,4.000000,4.000000,4.000000,4.000000,4.000000,4.000000,0.000000,,,,,,,,,,,,,,,,,,,,,,,,,,,,
1732158675.698103,1732158675.701989,44.000000,0.000000,4280.897461,4243.846191,4288.077148,4282.948730,4264.230957,4276.025879,4331.922852,4394.102539,4284.615234,4296.794922,4491.282227,4504.487305,4377.563965,4426.922852,0.000000,1.000000,19.000000,,,,0.000000,2.000000,2.000000,0.000000,4.000000,2.000000,2.000000,0.000000,0.000000,4.000000,4.000000,4.000000,4.000000,4.000000,4.000000,0.000000,,,,,,,,,,,,,,,,,11.000000,0.000000,0.525081,0.506836,-0.511780,0.453308,0.961543,0.033207,-0.038091,-34.061985,46.147579,31.347599
1732158675.705911,1732158675.709797,45.000000,0.000000,4279.743652,4242.436035,4289.358887,4279.230957,4263.205078,4278.974121,4332.436035,4391.538574,4295.256348,4284.358887,4491.153809,4500.384766,4371.666504,4427.051270,0.000000,1.000000,19.000000,,,,0.000000,2.000000,2.000000,0.000000,4.000000,2.000000,2.000000,0.000000,0.000000,4.000000,4.000000,4.000000,4.000000,4.000000,4.000000,0.000000,,,,,,,,,,,,,,,,,,,,,,,,,,,,
1732158675.713719,1732158675.717405,46.000000,0.000000,4280.000000,4239.615234,4291.666504,4289.230957,4260.769043,4272.948730,4332.051270,4391.794922,4292.563965,4279.230957,4488.461426,4505.897461,4367.692383,4427.948730,0.000000,1.000000,19.000000,,,,0.000000,2.000000,2.000000,0.000000,4.000000,2.000000,2.000000,0.000000,0.000000,4.000000,4.000000,4.000000,4.000000,4.000000,4.000000,0.000000,,,,,,,,,,,,,,,,,,,,,,,,,,,,
1732158675.721528,1732158675.725214,47.000000,0.000000,4280.769043,4241.282227,4296.153809,4291.538574,4260.512695,4267.563965,4331.794922,4395.641113,4284.743652,4287.692383,4490.512695,4506.922852,4367.948730,4427.307617,0.000000,1.000000,19.000000,,,,0.000000,2.000000,2.000000,0.000000,4.000000,2.000000,2.000000,0.000000,0.000000,4.000000,4.000000,4.000000,4.000000,4.000000,4.000000,0.000000,,,,,,,,,,,,,,,,,,,,,,,,,,,,
1732158675.729336,1732158675.732922,48.000000,0.000000,4281.153809,4247.563965,4301.794922,4283.461426,4261.410156,4271.410156,4331.922852,4397.820313,4290.128418,4291.282227,4493.589844,4502.563965,4372.692383,4426.538574,0.000000,1.000000,19.000000,,,,0.000000,2.000000,2.000000,0.000000,4.000000,2.000000,2.000000,0.000000,0.000000,4.000000,4.000000,4.000000,4.000000,4.000000,4.000000,0.000000,,,,,,,,,,,,,,,,,12.000000,0.000000,0.524320,0.503052,-0.516113,0.453491,0.961055,0.042974,-0.045416,-34.026875,46.249538,31.244888
1732158675.737144,1732158675.740730,49.000000,0.000000,4281.538574,4249.102539,4303.461426,4282.948730,4260.000000,4271.153809,4332.179688,4395.128418,4296.410156,4291.666504,4491.025879,4505.128418,4373.974121,4426.794922,0.000000,1.000000,19.000000,,,,0.000000,2.000000,2.000000,0.000000,4.000000,2.000000,2.000000,0.000000,0.000000,4.000000,4.000000,4.000000,4.000000,4.000000,4.000000,0.000000,,,,,,,,,,,,,,,,,,,,,,,,,,,,
1732158675.744952,1732158675.748738,50.000000,0.000000,4280.769043,4246.410156,4302.179688,4285.769043,4260.641113,4266.538574,4331.282227,4394.487305,4294.871582,4295.769043,4489.871582,4508.205078,4369.358887,4427.563965,0.000000,1.000000,19.000000,,,,0.000000,2.000000,2.000000,0.000000,4.000000,2.000000,2.000000,0.000000,0.000000,4.000000,4.000000,4.000000,4.000000,4.000000,4.000000,0.000000,,,,,,,,,,,,,,,,,,,,,,,,,,,,
1732158675.752761,1732158675.756546,51.000000,0.000000,4278.077148,4246.025879,4301.025879,4282.179688,4263.717773,4272.051270,4332.820313,4397.051270,4295.641113,4297.307617,4493.717773,4505.000000,4367.563965,4427.436035,0.000000,1.000000,19.000000,,,,0.000000,2.000000,2.000000,0.000000,4.000000,2.000000,2.000000,0.000000,0.000000,4.000000,4.000000,4.000000,4.000000,4.000000,4.000000,0.000000,,,,,,,,,,,,,,,,,,,,,,,,,,,,
1732158675.760569,1732158675.764454,52.000000,0.000000,4278.589844,4245.512695,4304.487305,4279.358887,4263.077148,4277.820313,4335.000000,4398.461426,4297.051270,4296.282227,4490.641113,4510.512695,4369.358887,4427.179688,0.000000,1.000000,19.000000,,,,0.000000,2.000000,2.000000,0.000000,4.000000,2.000000,2.000000,0.000000,0.000000,4.000000,4.000000,4.000000,4.000000,4.000000,4.000000,0.000000,,,,,,,,,,,,,,,,,13.000000,0.000000,0.524787,0.500732,-0.517944,0.453430,0.967403,0.083018,-0.042486,-34.196766,46.192127,31.171692
1732158675.768377,1732158675.772263,53.000000,0.000000,4280.769043,4245.641113,4309.487305,4283.717773,4261.666504,4276.025879,4335.384766,4397.307617,4296.794922,4291.794922,4484.615234,4518.333496,4367.820313,4426.666504,0.000000,1.000000,19.000000,,,,0.000000,2.000000,2.000000,0.000000,4.000000,2.000000,2.000000,0.000000,0.000000,4.000000,4.000000,4.000000,4.000000,4.000000,4.000000,0.000000,,,,,,,,,,,,,,,,,,,,,,,,,,,,
1732158675.776185,1732158675.780271,54.000000,0.000000,4280.769043,4247.692383,4313.589844,4286.025879,4263.205078,4278.717773,4337.563965,4396.025879,4290.769043,4285.256348,4489.358887,4513.589844,4361.282227,4426.025879,0.000000,1.000000,19.000000,,,,0.000000,2.000000,2.000000,0.000000,4.000000,2.000000,2.000000,0.000000,0.000000,4.000000,4.000000,4.000000,4.000000,4.000000,4.000000,0.000000,,,,,,,,,,,,,,,,,,,,,,,,,,,,
1732158675.783994,1732158675.788079,55.000000,0.000000,4283.717773,4248.333496,4316.025879,4285.000000,4263.589844,4281.794922,4339.487305,4398.717773,4287.307617,4292.179688,4493.846191,4511.410156,4358.205078,4428.589844,0.000000,1.000000,19.000000,,,,0.000000,2.000000,2.000000,0.000000,4.000000,2.000000,2.000000,0.000000,0.000000,4.000000,4.000000,4.000000,4.000000,4.000000,4.000000,0.000000,,,,,,,,,,,,,,,,,,,,,,,,,,,,
1732158675.791802,1732158675.795987,56.000000,0.000000,4286.794922,4247.820313,4317.307617,4286.025879,4262.563965,4272.563965,4336.538574,4399.871582,4289.743652,4302.436035,4489.358887,4522.051270,4363.205078,4431.538574,0.000000,1.000000,19.000000,,,,0.000000,2.000000,2.000000,0.000000,4.000000,2.000000,2.000000,0.000000,0.000000,4.000000,4.000000,4.000000,4.000000,4.000000,4.000000,0.000000,,,,,,,,,,,,,,,,,14.000000,0.000000,0.525276,0.499817,-0.518494,0.453247,0.967403,0.083018,-0.042486,-34.191048,46.198956,31.455738
1732158675.799610,1732158675.803795,57.000000,0.000000,4282.820313,4248.205078,4316.922852,4285.897461,4261.794922,4265.256348,4332.307617,4398.205078,4282.307617,4289.871582,4488.717773,4516.922852,4365.897461,4431.282227,0.000000,1.000000,19.000000,,,,0.000000,2.000000,2.000000,0.000000,4.000000,2.000000,2.000000,0.000000,0.000000,4.000000,4.000000,4.000000,4.000000,4.000000,4.000000,0.000000,,,,,,,,,,,,,,,,,,,,,,,,,,,,
1732158675.807418,1732158675.811803,58.000000,0.000000,4280.384766,4250.000000,4318.974121,4281.922852,4259.487305,4269.615234,4335.897461,4397.563965,4277.051270,4275.128418,4493.717773,4506.538574,4363.589844,4429.743652,0.000000,1.000000,19.000000,,,,0.000000,2.000000,2.000000,0.000000,4.000000,2.000000,2.000000,0.000000,0.000000,4.000000,4.000000,4.000000,4.000000,4.000000,4.000000,0.000000,,,,,,,,,,,,,,,,,,,,,,,,,,,,
1732158675.815227,1732158675.819611,59.000000,0.000000,4289.230957,4250.769043,4322.436035,4284.487305,4261.410156,4270.128418,4340.641113,4398.974121,4289.743652,4283.974121,4494.358887,4510.512695,4364.743652,4428.974121,0.000000,1.000000,19.000000,,,,0.000000,2.000000,2.000000,0.000000,4.000000,2.000000,2.000000,0.000000,0.000000,4.000000,4.000000,4.000000,4.000000,4.000000,4.000000,0.000000,,,,,,,,,,,,,,,,,,,,,,,,,,,,
1732158675.823035,1732158675.827519,60.000000,0.000000,4296.666504,4251.153809,4320.256348,4290.897461,4262.563965,4265.897461,4338.846191,4400.128418,4298.077148,4297.692383,4493.333496,4516.410156,4367.820313,4429.871582,0.000000,1.000000,19.000000,,,,0.000000,2.000000,2.000000,0.000000,4.000000,2.000000,2.000000,0.000000,0.000000,4.000000,4.000000,4.000000,4.000000,4.000000,4.000000,0.000000,,,,,,,,,,,,,,,,,15.000000,0.000000,0.526361,0.497681,-0.519287,0.453430,0.980100,0.086436,-0.039067,-34.154751,46.064487,31.417480
1732158675.830843,1732158675.835328,61.000000,0.000000,4293.077148,4250.897461,4315.897461,4289.230957,4255.000000,4262.563965,4333.461426,4401.282227,4289.615234,4294.230957,4493.974121,4513.205078,4367.051270,4430.000000,0.000000,1.000000,19.000000,,,,0.000000,2.000000,2.000000,0.000000,4.000000,2.000000,2.000000,0.000000,0.000000,4.000000,4.000000,4.000000,4.000000,4.000000,4.000000,0.000000,,,,,,,,,,,,,,,,,,,,,,,,,,,,
1732158675.838652,1732158675.842936,62.000000,0.000000,4291.025879,4250.000000,4318.333496,4289.102539,4254.743652,4268.589844,4333.717773,4401.538574,4285.256348,4282.948730,4493.846191,4510.512695,4364.358887,4428.717773,0.000000,1.000000,19.000000,,,,0.000000,2.000000,2.000000,0.000000,4.000000,2.000000,2.000000,0.000000,0.000000,4.000000,4.000000,4.000000,4.000000,4.000000,4.000000,0.000000,,,,,,,,,,,,,,,,,,,,,,,,,,,,
1732158675.846460,1732158675.850744,63.000000,0.000000,4292.436035,4249.871582,4322.307617,4292.820313,4265.769043,4276.410156,4339.743652,4399.871582,4290.769043,4280.256348,4493.717773,4511.282227,4363.077148,4429.487305,0.000000,1.000000,19.000000,,,,0.000000,2.000000,2.000000,0.000000,4.000000,2.000000,2.000000,0.000000,0.000000,4.000000,4.000000,4.000000,4.000000,4.000000,4.000000,0.000000,,,,,,,,,,,,,,,,,,,,,,,,,,,,
1732158675.854268,1732158675.858453,64.000000,0.000000,4291.538574,4250.897461,4318.205078,4286.922852,4266.282227,4272.051270,4341.666504,4400.000000,4294.230957,4282.563965,4494.102539,4510.384766,4365.128418,4430.641113,0.000000,1.000000,19.000000,,,,0.000000,2.000000,2.000000,0.000000,4.000000,2.000000,2.000000,0.000000,0.000000,4.000000,4.000000,4.000000,4.000000,4.000000,4.000000,0.000000,,,,,,,,,,,,,,,,,16.000000,0.000000,0.526747,0.496826,-0.519287,0.453918,1.005494,0.083506,-0.029300,-34.125347,46.038902,31.269827
1732158675.862076,1732158675.866261,65.000000,0.000000,4290.512695,4251.410156,4319.102539,4279.743652,4260.256348,4263.589844,4340.256348,4400.769043,4294.102539,4283.589844,4492.820313,4515.384766,4364.615234,4428.589844,1611.000000,1.000000,19.000000,,,,0.000000,2.000000,2.000000,0.000000,4.000000,2.000000,2.000000,0.000000,0.000000,4.000000,4.000000,4.000000,4.000000,4.000000,4.000000,0.000000,,,,,,,,,,,,,,,,,,,,,,,,,,,,
1732158675.869884,1732158675.873869,66.000000,0.000000,4287.820313,4249.871582,4325.256348,4285.000000,4263.461426,4264.230957,4339.615234,4399.487305,4294.487305,4280.000000,4491.538574,4518.974121,4359.230957,4425.128418,1364.000000,1.000000,19.000000,,,,0.000000,2.000000,2.000000,0.000000,4.000000,2.000000,2.000000,0.000000,0.000000,4.000000,4.000000,4.000000,4.000000,4.000000,4.000000,0.000000,,,,,,,,,,,,,,,,,,,,,,,,,,,,
1732158675.877693,1732158675.881677,67.000000,0.000000,4281.666504,4247.436035,4324.358887,4285.897461,4264.615234,4267.820313,4339.871582,4399.743652,4291.025879,4277.051270,4490.256348,4511.922852,4355.000000,4421.922852,1427.000000,1.000000,19.000000,,,,0.000000,2.000000,2.000000,0.000000,4.000000,2.000000,2.000000,0.000000,0.000000,4.000000,4.000000,4.000000,4.000000,4.000000,4.000000,0.000000,,,,,,,,,,,,,,,,,,,,,,,,,,,,
1732158675.885501,1732158675.889386,68.000000,0.000000,4280.384766,4247.179688,4318.461426,4280.128418,4260.641113,4271.153809,4340.897461,4401.025879,4281.922852,4279.871582,4489.615234,4507.692383,4352.692383,4416.794922,1427.000000,1.000000,19.000000,,,,0.000000,2.000000,2.000000,0.000000,4.000000,2.000000,2.000000,0.000000,0.000000,4.000000,4.000000,4.000000,4.000000,4.000000,4.000000,0.000000,,,,,,,,,,,,,,,,,17.000000,0.000000,0.526667,0.496521,-0.519287,0.454346,0.984984,0.068856,-0.028324,-34.133198,46.094845,31.376892
1732158675.893309,1732158675.897194,69.000000,0.000000,4283.077148,4249.871582,4318.205078,4280.641113,4263.205078,4278.974121,4341.410156,4401.410156,4276.153809,4277.436035,4490.897461,4512.948730,4351.025879,4417.179688,1200.000000,1.000000,19.000000,,,,0.000000,2.000000,2.000000,0.000000,4.000000,2.000000,2.000000,0.000000,0.000000,4.000000,4.000000,4.000000,4.000000,4.000000,4.000000,0.000000,,,,,,,,,,,,,,,,,,,,,,,,,,,,
1732158675.901117,1732158675.904802,70.000000,0.000000,4281.794922,4249.871582,4320.384766,4281.025879,4266.794922,4280.641113,4339.230957,4400.897461,4280.384766,4271.794922,4488.717773,4517.436035,4351.282227,4423.461426,0.000000,1.000000,19.000000,,,,0.000000,2.000000,2.000000,0.000000,4.000000,2.000000,2.000000,0.000000,0.000000,4.000000,4.000000,4.000000,4.000000,4.000000,4.000000,0.000000,,,,,,,,,,,,,,,,,,,,,,,,,,,,
1732158675.908926,1732158675.912611,71.000000,0.000000,4281.922852,4249.230957,4319.871582,4280.641113,4265.384766,4276.410156,4335.384766,4401.922852,4290.000000,4275.384766,4485.641113,4518.205078,4352.307617,4429.743652,0.000000,1.000000,19.000000,,,,0.000000,2.000000,2.000000,0.000000,4.000000,2.000000,2.000000,0.000000,0.000000,4.000000,4.000000,4.000000,4.000000,4.000000,4.000000,0.000000,,,,,,,,,,,,,,,,,,,,,,,,,,,,
1732158675.916734,1732158675.920319,72.000000,0.000000,4283.846191,4250.256348,4320.512695,4283.077148,4264.615234,4279.615234,4335.641113,4403.589844,4296.153809,4284.615234,4490.897461,4516.922852,4352.563965,4428.717773,1543.000000,1.000000,19.000000,,,,0.000000,2.000000,2.000000,0.000000,4.000000,2.000000,2.000000,0.000000,0.000000,4.000000,4.000000,4.000000,4.000000,4.000000,4.000000,0.000000,,,,,,,,,,,,,,,,,18.000000,0.000000,0.525935,0.495850,-0.519226,0.455994,0.977658,0.056648,-0.022952,-34.202888,45.855156,31.336950
1732158675.924542,1732158675.928127,73.000000,0.000000,4282.436035,4248.461426,4320.897461,4285.000000,4264.871582,4281.025879,4336.538574,4402.820313,4299.487305,4287.051270,4495.897461,4514.743652,4353.589844,4423.077148,1696.000000,1.000000,19.000000,,,,0.000000,2.000000,2.000000,0.000000,4.000000,2.000000,2.000000,0.000000,0.000000,4.000000,4.000000,4.000000,4.000000,4.000000,4.000000,0.000000,,,,,,,,,,,,,,,,,,,,,,,,,,,,
1732158675.932351,1732158675.935736,74.000000,0.000000,4283.717773,4253.974121,4319.615234,4286.410156,4263.461426,4273.717773,4336.153809,4400.128418,4294.102539,4279.615234,4492.692383,4514.871582,4353.974121,4419.615234,1549.000000,1.000000,19.000000,,,,0.000000,2.000000,2.000000,0.000000,4.000000,2.000000,2.000000,0.000000,0.000000,4.000000,4.000000,4.000000,4.000000,4.000000,4.000000,0.000000,,,,,,,,,,,,,,,,,,,,,,,,,,,,
1732158675.940159,1732158675.943544,75.000000,0.000000,4286.922852,4261.410156,4320.897461,4289.487305,4262.692383,4263.205078,4336.794922,4398.717773,4281.282227,4268.846191,4488.974121,4513.205078,4348.974121,4419.358887,1554.000000,1.000000,19.000000,,,,0.000000,2.000000,2.000000,0.000000,4.000000,2.000000,2.000000,0.000000,0.000000,4.000000,4.000000,4.000000,4.000000,4.000000,4.000000,0.000000,,,,,,,,,,,,,,,,,,,,,,,,,,,,
1732158675.947967,1732158675.951252,76.000000,0.000000,4288.846191,4258.846191,4323.205078,4291.282227,4263.461426,4266.666504,4336.153809,4400.512695,4283.974121,4268.974121,4490.128418,4515.769043,4344.358887,4422.307617,1701.000000,1.000000,19.000000,,,,0.000000,2.000000,2.000000,0.000000,4.000000,2.000000,2.000000,0.000000,0.000000,4.000000,4.000000,4.000000,4.000000,4.000000,4.000000,0.000000,,,,,,,,,,,,,,,,,19.000000,0.000000,0.525243,0.494751,-0.519470,0.457703,0.975705,0.059578,-0.029789,-34.362675,45.959343,31.564596
1732158675.955775,1732158675.959060,77.000000,0.000000,4289.615234,4253.589844,4321.025879,4293.077148,4265.000000,4275.769043,4335.512695,4403.205078,4295.000000,4280.000000,4492.051270,4522.692383,4349.487305,4427.051270,1569.000000,1.000000,19.000000,,,,0.000000,2.000000,2.000000,0.000000,4.000000,2.000000,2.000000,0.000000,0.000000,4.000000,4.000000,4.000000,4.000000,4.000000,4.000000,0.000000,,,,,,,,,,,,,,,,,,,,,,,,,,,,
1732158675.963583,1732158675.966669,78.000000,0.000000,4292.307617,4258.717773,4320.000000,4294.102539,4265.897461,4272.179688,4337.563965,4403.077148,4287.051270,4277.179688,4489.615234,4525.000000,4350.769043,4427.692383,1549.000000,1.000000,19.000000,,,,0.000000,2.000000,2.000000,0.000000,4.000000,2.000000,2.000000,0.000000,0.000000,4.000000,4.000000,4.000000,4.000000,4.000000,4.000000,0.000000,1.000000,0.000000,2.000000,2.000000,0.000000,4.000000,2.000000,2.000000,0.000000,0.000000,4.000000,4.000000,4.000000,4.000000,4.000000,4.000000,,,,,,,,,,,,
1732158675.971392,1732158675.974477,79.000000,0.000000,4293.846191,4261.153809,4321.538574,4294.871582,4266.538574,4268.974121,4341.410156,4401.153809,4277.051270,4271.153809,4489.743652,4522.179688,4342.820313,4423.589844,1554.000000,1.000000,19.000000,,,,0.000000,2.000000,2.000000,0.000000,4.000000,2.000000,2.000000,0.000000,0.000000,4.000000,4.000000,4.000000,4.000000,4.000000,4.000000,0.000000,,,,,,,,,,,,,,,,,,,,,,,,,,,,
1732158675.979200,1732158675.982385,80.000000,0.000000,4292.179688,4256.153809,4320.897461,4296.538574,4266.666504,4271.922852,4342.179688,4403.077148,4288.846191,4282.820313,4492.563965,4520.897461,4344.358887,4418.461426,1701.000000,1.000000,19.000000,,,,0.000000,2.000000,2.000000,0.000000,4.000000,2.000000,2.000000,0.000000,0.000000,4.000000,4.000000,4.000000,4.000000,4.000000,4.000000,0.000000,,,,,,,,,,,,,,,,,20.000000,0.000000,0.524193,0.494934,-0.519226,0.458984,0.984984,0.048346,-0.033696,-34.575432,45.882069,31.683989
1732158675.987008,1732158675.990193,81.000000,0.000000,4292.692383,4254.743652,4320.128418,4297.692383,4264.871582,4270.641113,4338.974121,4405.128418,4299.615234,4281.025879,4483.974121,4522.179688,4348.077148,4418.589844,1569.000000,1.000000,19.000000,,,,0.000000,2.000000,2.000000,0.000000,4.000000,2.000000,2.000000,0.000000,0.000000,4.000000,4.000000,4.000000,4.000000,4.000000,4.000000,0.000000,,,,,,,,,,,,,,,,,,,,,,,,,,,,
1732158675.994816,1732158675.997802,82.000000,0.000000,4294.358887,4253.974121,4321.025879,4296.794922,4262.051270,4268.717773,4334.358887,4402.820313,4293.461426,4263.333496,4475.641113,4522.436035,4343.717773,4423.717773,1549.000000,1.000000,19.000000,,,,0.000000,2.000000,2.000000,0.000000,4.000000,2.000000,2.000000,0.000000,0.000000,4.000000,4.000000,4.000000,4.000000,4.000000,4.000000,0.000000,,,,,,,,,,,,,,,,,,,,,,,,,,,,
1732158676.002625,1732158676.005610,83.000000,0.000000,4293.717773,4256.025879,4319.102539,4296.025879,4261.794922,4273.461426,4335.641113,4400.641113,4292.179688,4270.512695,4489.230957,4521.025879,4345.769043,4426.282227,1554.000000,1.000000,19.000000,,,,0.000000,2.000000,2.000000,0.000000,4.000000,2.000000,2.000000,0.000000,0.000000,4.000000,4.000000,4.000000,4.000000,4.000000,4.000000,0.000000,,,,,,,,,,,,,,,,,,,,,,,,,,,,
1732158676.010433,1732158676.013318,84.000000,0.000000,4295.128418,4261.666504,4319.487305,4297.051270,4264.358887,4281.794922,4339.871582,4401.153809,4296.794922,4281.794922,4499.487305,4520.897461,4354.743652,4426.153809,1701.000000,1.000000,19.000000,,,,0.000000,2.000000,2.000000,0.000000,4.000000,2.000000,2.000000,0.000000,0.000000,4.000000,4.000000,4.000000,4.000000,4.000000,4.000000,0.000000,,,,,,,,,,,,,,,,,21.000000,0.000000,0.523829,0.494873,-0.519165,0.459534,0.980100,0.050299,-0.017580,-34.674435,45.777809,31.585697
1732158676.018241,1732158676.021126,85.000000,0.000000,4300.384766,4263.205078,4320.512695,4297.179688,4262.051270,4279.743652,4335.897461,4401.794922,4290.256348,4268.077148,4486.794922,4520.384766,4352.820313,4428.461426,1569.000000,1.000000,19.000000,,,,0.000000,2.000000,2.000000,0.000000,4.000000,2.000000,2.000000,0.000000,0.000000,4.000000,4.000000,4.000000,4.000000,4.000000,4.000000,0.000000,,,,,,,,,,,,,,,,,,,,,,,,,,,,
1732158676.026050,1732158676.028735,86.000000,0.000000,4299.358887,4262.307617,4318.589844,4296.282227,4258.205078,4268.717773,4333.461426,4401.922852,4279.102539,4259.230957,4474.358887,4516.538574,4343.846191,4429.743652,1549.000000,1.000000,19.000000,,,,0.000000,2.000000,2.000000,0.000000,4.000000,2.000000,2.000000,0.000000,0.000000,4.000000,4.000000,4.000000,4.000000,4.000000,4.000000,0.000000,,,,,,,,,,,,,,,,,,,,,,,,,,,,
1732158676.033858,1732158676.036543,87.000000,0.000000,4295.641113,4260.384766,4317.692383,4294.743652,4259.615234,4268.974121,4340.000000,4401.538574,4278.589844,4265.384766,4475.512695,4513.717773,4344.230957,4426.282227,1554.000000,1.000000,19.000000,,,,0.000000,2.000000,2.000000,0.000000,4.000000,2.000000,2.000000,0.000000,0.000000,4.000000,4.000000,4.000000,4.000000,4.000000,4.000000,0.000000,,,,,,,,,,,,,,,,,,,,,,,,,,,,
1732158676.041666,1732158676.044251,88.000000,0.000000,4299.230957,4260.000000,4318.589844,4291.282227,4260.128418,4278.461426,4341.922852,4401.025879,4283.461426,4262.692383,4483.974121,4514.871582,4347.692383,4428.077148,1701.000000,1.000000,19.000000,,,,0.000000,2.000000,2.000000,0.000000,4.000000,2.000000,2.000000,0.000000,0.000000,4.000000,4.000000,4.000000,4.000000,4.000000,4.000000,0.000000,,,,,,,,,,,,,,,,,22.000000,0.000000,0.521414,0.494446,-0.519348,0.462524,0.972287,0.029789,-0.032230,-34.867958,45.830025,31.707748
1732158676.049474,1732158676.052059,89.000000,0.000000,4305.897461,4259.487305,4317.307617,4290.000000,4258.974121,4271.538574,4338.846191,4401.794922,4281.666504,4266.410156,4485.769043,4519.230957,4348.974121,4435.897461,1569.000000,1.000000,19.000000,,,,0.000000,2.000000,2.000000,0.000000,4.000000,2.000000,2.000000,0.000000,0.000000,4.000000,4.000000,4.000000,4.000000,4.000000,4.000000,0.000000,,,,,,,,,,,,,,,,,,,,,,,,,,,,
1732158676.057283,1732158676.059668,90.000000,0.000000,4310.641113,4262.307617,4317.436035,4295.128418,4255.641113,4259.487305,4339.871582,4400.769043,4280.384766,4278.077148,4483.974121,4525.897461,4357.179688,4444.487305,1549.000000,1.000000,19.000000,,,,0.000000,2.000000,2.000000,0.000000,4.000000,2.000000,2.000000,0.000000,0.000000,4.000000,4.000000,4.000000,4.000000,4.000000,4.000000,0.000000,,,,,,,,,,,,,,,,,,,,,,,,,,,,
1732158676.065091,1732158676.067476,91.000000,0.000000,4316.538574,4268.846191,4319.743652,4299.743652,4255.128418,4264.743652,4341.153809,4399.743652,4282.692383,4272.307617,4496.025879,4523.589844,4368.974121,4453.974121,1554.000000,1.000000,19.000000,,,,0.000000,2.000000,2.000000,0.000000,4.000000,2.000000,2.000000,0.000000,0.000000,4.000000,4.000000,4.000000,4.000000,4.000000,4.000000,0.000000,,,,,,,,,,,,,,,,,,,,,,,,,,,,
1732158676.072899,1732158676.075184,92.000000,0.000000,4322.692383,4277.948730,4318.333496,4297.820313,4256.794922,4267.307617,4338.589844,4400.769043,4281.410156,4258.717773,4506.153809,4517.563965,4368.077148,4457.820313,1701.000000,1.000000,19.000000,,,,0.000000,2.000000,2.000000,0.000000,4.000000,2.000000,2.000000,0.000000,0.000000,4.000000,4.000000,4.000000,4.000000,4.000000,4.000000,0.000000,,,,,,,,,,,,,,,,,23.000000,0.000000,0.519981,0.494019,-0.519775,0.464111,0.971310,0.018557,-0.029789,-34.679714,45.617321,31.831610
1732158676.080707,1732158676.082993,93.000000,0.000000,4326.794922,4274.743652,4315.384766,4297.051270,4253.717773,4253.846191,4339.615234,4401.282227,4280.128418,4260.128418,4503.077148,4525.128418,4365.384766,4460.769043,1569.000000,1.000000,19.000000,,,,0.000000,2.000000,2.000000,0.000000,4.000000,2.000000,2.000000,0.000000,0.000000,4.000000,4.000000,4.000000,4.000000,4.000000,4.000000,0.000000,,,,,,,,,,,,,,,,,,,,,,,,,,,,
1732158676.088515,1732158676.091001,94.000000,0.000000,4331.538574,4264.615234,4314.743652,4295.256348,4248.461426,4245.897461,4341.282227,4401.025879,4283.333496,4271.153809,4504.230957,4529.615234,4375.897461,4466.025879,1549.000000,1.000000,19.000000,,,,0.000000,2.000000,2.000000,0.000000,4.000000,2.000000,2.000000,0.000000,0.000000,4.000000,4.000000,4.000000,4.000000,4.000000,4.000000,0.000000,,,,,,,,,,,,,,,,,,,,,,,,,,,,
1732158676.096324,1732158676.098809,95.000000,0.000000,4334.487305,4270.128418,4316.410156,4294.615234,4248.461426,4250.384766,4338.846191,4401.538574,4286.282227,4270.769043,4504.230957,4521.794922,4378.974121,4470.128418,1554.000000,1.000000,19.000000,,,,0.000000,2.000000,2.000000,0.000000,4.000000,2.000000,2.000000,0.000000,0.000000,4.000000,4.000000,4.000000,4.000000,4.000000,4.000000,0.000000,,,,,,,,,,,,,,,,,,,,,,,,,,,,
1732158676.104132,1732158676.106717,96.000000,0.000000,4334.487305,4282.692383,4316.153809,4300.641113,4249.487305,4252.563965,4335.384766,4401.538574,4282.051270,4261.025879,4496.025879,4520.384766,4370.128418,4472.307617,1701.000000,1.000000,19.000000,,,,0.000000,2.000000,2.000000,0.000000,4.000000,2.000000,2.000000,0.000000,0.000000,4.000000,4.000000,4.000000,4.000000,4.000000,4.000000,0.000000,,,,,,,,,,,,,,,,,24.000000,0.000000,0.519981,0.494019,-0.519775,0.464111,0.975705,0.016115,-0.016115,-34.662235,45.355030,31.916937
1732158676.111940,1732158676.114525,97.000000,0.000000,4336.282227,4282.307617,4314.871582,4301.922852,4246.410156,4247.692383,4333.589844,4400.384766,4274.102539,4258.846191,4499.871582,4526.282227,4371.794922,4474.358887,1569.000000,1.000000,19.000000,,,,0.000000,2.000000,2.000000,0.000000,4.000000,2.000000,2.000000,0.000000,0.000000,4.000000,4.000000,4.000000,4.000000,4.000000,4.000000,0.000000,,,,,,,,,,,,,,,,,,,,,,,,,,,,
1732158676.119748,1732158676.122134,98.000000,0.000000,4338.717773,4278.205078,4316.410156,4295.128418,4247.948730,4248.717773,4333.333496,4401.025879,4274.615234,4266.282227,4509.102539,4526.153809,4380.512695,4475.128418,1549.000000,1.000000,19.000000,,,,0.000000,2.000000,2.000000,0.000000,4.000000,2.000000,2.000000,0.000000,0.000000,4.000000,4.000000,4.000000,4.000000,4.000000,4.000000,0.000000,,,,,,,,,,,,,,,,,,,,,,,,,,,,
1732158676.127557,1732158676.129942,99.000000,0.000000,4338.974121,4280.256348,4318.077148,4294.743652,4252.179688,4253.717773,4334.358887,4401.666504,4282.179688,4267.820313,4503.205078,4522.179688,4376.538574,4471.922852,1554.000000,1.000000,19.000000,,,,0.000000,2.000000,2.000000,0.000000,4.000000,2.000000,2.000000,0.000000,0.000000,4.000000,4.000000,4.000000,4.000000,4.000000,4.000000,0.000000,,,,,,,,,,,,,,,,,,,,,,,,,,,,
1732158676.135365,1732158676.137650,100.000000,0.000000,4345.384766,4282.179688,4316.794922,4302.692383,4252.307617,4251.282227,4335.256348,4399.615234,4282.692383,4260.769043,4498.717773,4523.077148,4370.256348,4472.563965,1701.000000,1.000000,19.000000,,,,0.000000,2.000000,2.000000,0.000000,4.000000,2.000000,2.000000,0.000000,0.000000,4.000000,4.000000,4.000000,4.000000,4.000000,4.000000,0.000000,,,,,,,,,,,,,,,,,25.000000,0.000000,0.517151,0.493347,-0.520447,0.467224,0.974240,-0.014650,-0.019534,-34.661411,45.255909,31.607719
1732158676.143173,1732158676.145458,101.000000,0.000000,4351.666504,4282.563965,4317.307617,4305.641113,4250.128418,4247.948730,4334.487305,4399.487305,4273.974121,4263.974121,4505.769043,4528.205078,4378.461426,4475.897461,1569.000000,1.000000,19.000000,,,,0.000000,2.000000,2.000000,0.000000,4.000000,2.000000,2.000000,0.000000,0.000000,4.000000,4.000000,4.000000,4.000000,4.000000,4.000000,0.000000,,,,,,,,,,,,,,,,,,,,,,,,,,,,
1732158676.150982,1732158676.153466,102.000000,0.000000,4346.153809,4281.410156,4317.820313,4299.358887,4247.692383,4248.205078,4333.461426,4402.179688,4272.563965,4269.102539,4502.948730,4530.384766,4382.436035,4477.563965,1549.000000,1.000000,19.000000,,,,0.000000,2.000000,2.000000,0.000000,4.000000,2.000000,2.000000,0.000000,0.000000,4.000000,4.000000,4.000000,4.000000,4.000000,4.000000,0.000000,,,,,,,,,,,,,,,,,,,,,,,,,,,,
1732158676.158790,1732158676.161274,103.000000,0.000000,4344.230957,4280.384766,4317.179688,4292.948730,4248.333496,4250.000000,4334.615234,4401.922852,4279.871582,4263.333496,4488.077148,4528.461426,4374.358887,4476.666504,1554.000000,1.000000,19.000000,,,,0.000000,2.000000,2.000000,0.000000,4.000000,2.000000,2.000000,0.000000,0.000000,4.000000,4.000000,4.000000,4.000000,4.000000,4.000000,0.000000,,,,,,,,,,,,,,,,,,,,,,,,,,,,
1732158676.166598,1732158676.169183,104.000000,0.000000,4351.666504,4289.230957,4317.563965,4301.153809,4249.615234,4248.974121,4335.128418,4399.871582,4280.256348,4258.333496,4488.589844,4524.230957,4370.641113,4475.128418,1701.000000,1.000000,19.000000,,,,0.000000,2.000000,2.000000,0.000000,4.000000,2.000000,2.000000,0.000000,0.000000,4.000000,4.000000,4.000000,4.000000,4.000000,4.000000,0.000000,,,,,,,,,,,,,,,,,26.000000,0.000000,0.515368,0.492126,-0.521118,0.469727,0.991332,-0.024417,-0.020510,-34.664074,45.258953,31.373919
1732158676.174406,1732158676.176991,105.000000,0.000000,4353.333496,4294.615234,4317.051270,4311.025879,4248.589844,4248.461426,4334.487305,4404.102539,4276.666504,4263.717773,4501.025879,4523.717773,4374.102539,4472.692383,1569.000000,1.000000,19.000000,,,,0.000000,2.000000,2.000000,0.000000,4.000000,2.000000,2.000000,0.000000,0.000000,4.000000,4.000000,4.000000,4.000000,4.000000,4.000000,0.000000,,,,,,,,,,,,,,,,,,,,,,,,,,,,
1732158676.182215,1732158676.184999,106.000000,0.000000,4349.487305,4286.025879,4315.641113,4304.871582,4248.333496,4249.615234,4334.615234,4406.153809,4280.128418,4266.922852,4498.974121,4527.307617,4374.615234,4472.563965,1549.000000,1.000000,19.000000,,,,0.000000,2.000000,2.000000,0.000000,4.000000,2.000000,2.000000,0.000000,0.000000,4.000000,4.000000,4.000000,4.000000,4.000000,4.000000,0.000000,,,,,,,,,,,,,,,,,,,,,,,,,,,,
1732158676.190023,1732158676.192807,107.000000,0.000000,4350.897461,4283.333496,4315.512695,4300.384766,4247.820313,4249.871582,4335.000000,4401.282227,4282.436035,4262.948730,4489.871582,4530.512695,4372.179688,4476.282227,1554.000000,1.000000,19.000000,,,,0.000000,2.000000,2.000000,0.000000,4.000000,2.000000,2.000000,0.000000,0.000000,4.000000,4.000000,4.000000,4.000000,4.000000,4.000000,0.000000,,,,,,,,,,,,,,,,,,,,,,,,,,,,
1732158676.197831,1732158676.200715,108.000000,0.000000,4351.666504,4293.461426,4315.769043,4307.820313,4250.769043,4251.282227,4334.743652,4401.153809,4270.384766,4262.307617,4492.307617,4526.922852,4372.948730,4476.410156,1701.000000,1.000000,19.000000,,,,0.000000,2.000000,2.000000,0.000000,4.000000,2.000000,2.000000,0.000000,0.000000,4.000000,4.000000,4.000000,4.000000,4.000000,4.000000,0.000000,,,,,,,,,,,,,,,,,27.000000,0.000000,0.514353,0.489990,-0.522644,0.471375,0.999145,-0.015139,-0.027347,-34.829567,45.119751,31.417875
1732158676.205639,1732158676.208523,109.000000,0.000000,4350.256348,4296.794922,4315.128418,4311.922852,4254.358887,4249.358887,4334.871582,4403.077148,4260.897461,4262.051270,4498.974121,4526.410156,4378.461426,4473.589844,1569.000000,1.000000,19.000000,,,,0.000000,2.000000,2.000000,0.000000,4.000000,2.000000,2.000000,0.000000,0.000000,4.000000,4.000000,4.000000,4.000000,4.000000,4.000000,0.000000,,,,,,,,,,,,,,,,,,,,,,,,,,,,
1732158676.213447,1732158676.216531,110.000000,0.000000,4351.794922,4294.102539,4316.538574,4311.538574,4255.128418,4250.769043,4335.128418,4399.743652,4270.000000,4264.358887,4495.384766,4536.410156,4380.769043,4475.769043,1549.000000,1.000000,19.000000,,,,0.000000,2.000000,2.000000,0.000000,4.000000,2.000000,2.000000,0.000000,0.000000,4.000000,4.000000,4.000000,4.000000,4.000000,4.000000,0.000000,,,,,,,,,,,,,,,,,,,,,,,,,,,,
1732158676.221256,1732158676.224340,111.000000,0.000000,4350.512695,4296.153809,4316.153809,4314.102539,4255.256348,4256.025879,4336.410156,4398.333496,4278.846191,4273.077148,4491.025879,4533.077148,4378.461426,4476.538574,1554.000000,1.000000,19.000000,,,,0.000000,2.000000,2.000000,0.000000,4.000000,2.000000,2.000000,0.000000,0.000000,4.000000,4.000000,4.000000,4.000000,4.000000,4.000000,0.000000,,,,,,,,,,,,,,,,,,,,,,,,,,,,
1732158676.229064,1732158676.232248,112.000000,0.000000,4347.563965,4295.512695,4316.282227,4315.769043,4254.102539,4256.282227,4333.205078,4401.153809,4277.692383,4274.102539,4500.128418,4520.256348,4377.179688,4471.666504,1701.000000,1.000000,19.000000,,,,0.000000,2.000000,2.000000,0.000000,4.000000,2.000000,2.000000,0.000000,0.000000,4.000000,4.000000,4.000000,4.000000,4.000000,4.000000,0.000000,,,,,,,,,,,,,,,,,28.000000,0.000000,0.514148,0.489319,-0.523254,0.471619,0.999145,-0.015139,-0.027347,-34.956951,45.413666,31.560144
1732158676.236872,1732158676.240056,113.000000,0.000000,4349.615234,4295.384766,4316.922852,4312.820313,4255.256348,4255.384766,4330.256348,4399.871582,4277.948730,4264.743652,4505.128418,4519.358887,4376.282227,4472.051270,1569.000000,1.000000,19.000000,,,,0.000000,2.000000,2.000000,0.000000,4.000000,2.000000,2.000000,0.000000,0.000000,4.000000,4.000000,4.000000,4.000000,4.000000,4.000000,0.000000,,,,,,,,,,,,,,,,,,,,,,,,,,,,
1732158676.244681,1732158676.248064,114.000000,0.000000,4351.538574,4299.230957,4317.179688,4313.974121,4261.025879,4261.922852,4331.666504,4399.487305,4277.051270,4262.436035,4493.846191,4523.205078,4373.205078,4472.563965,1549.000000,1.000000,19.000000,,,,0.000000,2.000000,2.000000,0.000000,4.000000,2.000000,2.000000,0.000000,0.000000,4.000000,4.000000,4.000000,4.000000,4.000000,4.000000,0.000000,,,,,,,,,,,,,,,,,,,,,,,,,,,,
1732158676.252489,1732158676.255872,115.000000,0.000000,4347.307617,4296.153809,4317.436035,4317.307617,4264.743652,4263.846191,4330.641113,4401.922852,4274.743652,4273.333496,4487.307617,4521.922852,4372.307617,4465.512695,1554.000000,1.000000,19.000000,,,,0.000000,2.000000,2.000000,0.000000,4.000000,2.000000,2.000000,0.000000,0.000000,4.000000,4.000000,4.000000,4.000000,4.000000,4.000000,0.000000,,,,,,,,,,,,,,,,,,,,,,,,,,,,
1732158676.260297,1732158676.263580,116.000000,0.000000,4349.102539,4290.897461,4317.563965,4313.846191,4261.153809,4254.871582,4328.846191,4401.410156,4278.846191,4276.922852,4490.512695,4521.282227,4373.077148,4466.794922,1701.000000,1.000000,19.000000,,,,0.000000,2.000000,2.000000,0.000000,4.000000,2.000000,2.000000,0.000000,0.000000,4.000000,4.000000,4.000000,4.000000,4.000000,4.000000,0.000000,,,,,,,,,,,,,,,,,29.000000,0.000000,0.514145,0.487061,-0.525085,0.471924,0.988402,-0.007813,-0.010255,-35.153461,45.395069,31.702051
1732158676.268105,1732158676.271389,117.000000,0.000000,4352.820313,4294.358887,4316.025879,4311.922852,4259.871582,4254.487305,4332.307617,4400.128418,4282.051270,4268.974121,4488.333496,4522.307617,4370.000000,4472.179688,1569.000000,1.000000,19.000000,,,,0.000000,2.000000,2.000000,0.000000,4.000000,2.000000,2.000000,0.000000,0.000000,4.000000,4.000000,4.000000,4.000000,4.000000,4.000000,0.000000,,,,,,,,,,,,,,,,,,,,,,,,,,,,
1732158676.275914,1732158676.278997,118.000000,0.000000,4345.000000,4297.436035,4315.897461,4316.153809,4262.307617,4263.077148,4335.769043,4400.897461,4277.307617,4265.128418,4488.333496,4519.358887,4367.051270,4464.871582,1549.000000,1.000000,19.000000,,,,0.000000,2.000000,2.000000,0.000000,4.000000,2.000000,2.000000,0.000000,0.000000,4.000000,4.000000,4.000000,4.000000,4.000000,4.000000,0.000000,,,,,,,,,,,,,,,,,,,,,,,,,,,,
1732158676.283722,1732158676.286805,119.000000,0.000000,4342.051270,4295.512695,4316.538574,4316.538574,4261.922852,4266.025879,4333.589844,4401.666504,4276.794922,4266.666504,4488.974121,4521.410156,4370.128418,4459.230957,1554.000000,1.000000,19.000000,,,,0.000000,2.000000,2.000000,0.000000,4.000000,2.000000,2.000000,0.000000,0.000000,4.000000,4.000000,4.000000,4.000000,4.000000,4.000000,0.000000,,,,,,,,,,,,,,,,,,,,,,,,,,,,
1732158676.291530,1732158676.294514,120.000000,0.000000,4347.820313,4296.794922,4316.282227,4311.025879,4260.256348,4255.512695,4333.846191,4400.384766,4276.794922,4265.000000,4490.256348,4524.871582,4374.102539,4466.282227,1701.000000,1.000000,19.000000,,,,0.000000,2.000000,2.000000,0.000000,4.000000,2.000000,2.000000,0.000000,0.000000,4.000000,4.000000,4.000000,4.000000,4.000000,4.000000,0.000000,,,,,,,,,,,,,,,,,30.000000,0.000000,0.514129,0.486755,-0.525330,0.471985,0.991332,-0.003907,-0.021487,-35.195972,45.413338,31.833662
1732158676.299338,1732158676.302322,121.000000,0.000000,4347.948730,4299.615234,4315.512695,4310.769043,4257.436035,4247.563965,4333.589844,4399.230957,4266.666504,4271.922852,4501.794922,4523.461426,4375.128418,4468.461426,1569.000000,1.000000,19.000000,,,,0.000000,2.000000,2.000000,0.000000,4.000000,2.000000,2.000000,0.000000,0.000000,4.000000,4.000000,4.000000,4.000000,4.000000,4.000000,0.000000,,,,,,,,,,,,,,,,,,,,,,,,,,,,
1732158676.307146,1732158676.309930,122.000000,0.000000,4343.717773,4298.717773,4316.282227,4315.000000,4257.436035,4257.307617,4330.000000,4399.487305,4261.922852,4280.256348,4502.820313,4524.487305,4375.128418,4462.820313,1549.000000,1.000000,19.000000,,,,0.000000,2.000000,2.000000,0.000000,4.000000,2.000000,2.000000,0.000000,0.000000,4.000000,4.000000,4.000000,4.000000,4.000000,4.000000,0.000000,,,,,,,,,,,,,,,,,,,,,,,,,,,,
1732158676.314955,1732158676.317738,123.000000,0.000000,4346.153809,4296.538574,4318.461426,4313.974121,4260.641113,4264.871582,4330.512695,4400.897461,4273.205078,4270.256348,4492.051270,4527.692383,4375.128418,4462.436035,1554.000000,1.000000,19.000000,,,,0.000000,2.000000,2.000000,0.000000,4.000000,2.000000,2.000000,0.000000,0.000000,4.000000,4.000000,4.000000,4.000000,4.000000,4.000000,0.000000,,,,,,,,,,,,,,,,,,,,,,,,,,,,
1732158676.322763,1732158676.325447,124.000000,0.000000,4347.820313,4294.102539,4320.128418,4311.666504,4263.717773,4261.410156,4328.589844,4400.384766,4283.077148,4265.128418,4490.769043,4529.743652,4372.436035,4464.487305,1701.000000,1.000000,19.000000,,,,0.000000,2.000000,2.000000,0.000000,4.000000,2.000000,2.000000,0.000000,0.000000,4.000000,4.000000,4.000000,4.000000,4.000000,4.000000,0.000000,,,,,,,,,,,,,,,,,31.000000,0.000000,0.514180,0.486694,-0.525391,0.471924,0.982053,0.008302,-0.023440,-35.200405,45.041470,31.776932
1732158676.330571,1732158676.333255,125.000000,0.000000,4344.743652,4296.153809,4320.256348,4312.436035,4265.769043,4261.153809,4326.410156,4399.102539,4281.282227,4279.102539,4495.512695,4529.743652,4368.461426,4463.717773,1569.000000,1.000000,19.000000,,,,0.000000,2.000000,2.000000,0.000000,4.000000,2.000000,2.000000,0.000000,0.000000,4.000000,4.000000,4.000000,4.000000,4.000000,4.000000,0.000000,,,,,,,,,,,,,,,,,,,,,,,,,,,,
1732158676.338380,1732158676.340863,126.000000,0.000000,4342.692383,4300.384766,4318.205078,4318.717773,4262.436035,4266.025879,4330.512695,4398.717773,4279.102539,4280.897461,4492.563965,4528.589844,4365.769043,4461.410156,1549.000000,1.000000,19.000000,,,,0.000000,2.000000,2.000000,0.000000,4.000000,2.000000,2.000000,0.000000,0.000000,4.000000,4.000000,4.000000,4.000000,4.000000,4.000000,0.000000,,,,,,,,,,,,,,,,,,,,,,,,,,,,
1732158676.346188,1732158676.348671,127.000000,0.000000,4336.538574,4296.666504,4317.563965,4313.974121,4262.051270,4263.589844,4336.153809,4399.358887,4280.897461,4268.717773,4488.589844,4525.000000,4363.333496,4459.358887,19.000000,1.000000,19.000000,,,,0.000000,2.000000,2.000000,0.000000,4.000000,2.000000,2.000000,0.000000,0.000000,4.000000,4.000000,4.000000,4.000000,4.000000,4.000000,0.000000,,,,,,,,,,,,,,,,,,,,,,,,,,,,
1732158676.353996,1732158676.356380,0.000000,0.000000,4328.205078,4292.179688,4317.051270,4298.205078,4273.717773,4260.128418,4336.666504,4401.153809,4283.205078,4264.102539,4489.615234,4518.717773,4363.461426,4453.077148,0.000000,1.000000,19.000000,,,,0.000000,2.000000,2.000000,0.000000,4.000000,2.000000,2.000000,0.000000,0.000000,4.000000,4.000000,4.000000,4.000000,4.000000,4.000000,0.000000,,,,,,,,,,,,,,,,,0.000000,0.000000,0.513995,0.486633,-0.525574,0.471985,0.990844,-0.000488,-0.030277,-34.908993,44.938591,31.977648
1732158676.361804,1732158676.364188,1.000000,0.000000,4324.487305,4294.743652,4315.384766,4297.436035,4276.538574,4262.436035,4334.743652,4400.897461,4283.077148,4263.589844,4490.128418,4518.974121,4365.384766,4446.153809,1614.000000,1.000000,19.000000,,,,0.000000,2.000000,2.000000,0.000000,4.000000,2.000000,2.000000,0.000000,0.000000,4.000000,4.000000,4.000000,4.000000,4.000000,4.000000,0.000000,,,,,,,,,,,,,,,,,,,,,,,,,,,,
1732158676.369613,1732158676.371796,2.000000,0.000000,4326.794922,4295.000000,4315.769043,4306.794922,4257.948730,4264.487305,4333.717773,4398.589844,4280.128418,4272.692383,4490.384766,4518.974121,4365.769043,4445.769043,1361.000000,1.000000,19.000000,,,,0.000000,2.000000,2.000000,0.000000,4.000000,2.000000,2.000000,0.000000,0.000000,4.000000,4.000000,4.000000,4.000000,4.000000,4.000000,0.000000,,,,,,,,,,,,,,,,,,,,,,,,,,,,
1732158676.377421,1732158676.379605,3.000000,0.000000,4325.384766,4288.717773,4317.436035,4304.102539,4247.692383,4266.025879,4332.436035,4399.230957,4289.871582,4286.282227,4490.256348,4515.897461,4366.153809,4445.384766,1436.000000,1.000000,19.000000,,,,0.000000,2.000000,2.000000,0.000000,4.000000,2.000000,2.000000,0.000000,0.000000,4.000000,4.000000,4.000000,4.000000,4.000000,4.000000,0.000000,,,,,,,,,,,,,,,,,,,,,,,,,,,,
1732158676.385229,1732158676.387513,4.000000,0.000000,4322.563965,4289.358887,4315.256348,4300.769043,4257.820313,4265.256348,4333.846191,4401.153809,4295.769043,4273.077148,4490.256348,4516.410156,4365.000000,4442.436035,1434.000000,1.000000,19.000000,,,,0.000000,2.000000,2.000000,0.000000,4.000000,2.000000,2.000000,0.000000,0.000000,4.000000,4.000000,4.000000,4.000000,4.000000,4.000000,0.000000,,,,,,,,,,,,,,,,,1.000000,0.000000,0.513238,0.487366,-0.525635,0.471985,0.978635,-0.001465,-0.031254,-35.169617,44.953594,31.775229
1732158676.393037,1732158676.395321,5.000000,0.000000,4329.871582,4296.922852,4314.615234,4309.230957,4264.743652,4264.871582,4335.128418,4398.461426,4284.871582,4260.384766,4488.846191,4522.179688,4360.128418,4445.769043,1204.000000,1.000000,19.000000,,,,0.000000,2.000000,2.000000,0.000000,4.000000,2.000000,2.000000,0.000000,0.000000,4.000000,4.000000,4.000000,4.000000,4.000000,4.000000,0.000000,,,,,,,,,,,,,,,,,,,,,,,,,,,,
1732158676.400846,1732158676.403329,6.000000,0.000000,4335.769043,4296.410156,4318.333496,4312.436035,4263.205078,4267.307617,4332.948730,4396.538574,4285.000000,4276.282227,4490.641113,4526.282227,4360.000000,4449.230957,0.000000,1.000000,19.000000,,,,0.000000,2.000000,2.000000,0.000000,4.000000,2.000000,2.000000,0.000000,0.000000,4.000000,4.000000,4.000000,4.000000,4.000000,4.000000,0.000000,,,,,,,,,,,,,,,,,,,,,,,,,,,,
1732158676.408654,1732158676.411137,7.000000,0.000000,4331.666504,4293.846191,4319.615234,4308.974121,4263.205078,4266.538574,4332.692383,4399.230957,4293.717773,4281.922852,4494.743652,4524.487305,4366.538574,4447.948730,0.000000,1.000000,19.000000,,,,0.000000,2.000000,2.000000,0.000000,4.000000,2.000000,2.000000,0.000000,0.000000,4.000000,4.000000,4.000000,4.000000,4.000000,4.000000,0.000000,,,,,,,,,,,,,,,,,,,,,,,,,,,,
1732158676.416462,1732158676.419045,8.000000,0.000000,4326.410156,4297.820313,4318.205078,4311.282227,4263.717773,4263.589844,4334.615234,4399.230957,4284.743652,4263.461426,4490.641113,4520.000000,4363.077148,4444.487305,1548.000000,1.000000,19.000000,,,,0.000000,2.000000,2.000000,0.000000,4.000000,2.000000,2.000000,0.000000,0.000000,4.000000,4.000000,4.000000,4.000000,4.000000,4.000000,0.000000,,,,,,,,,,,,,,,,,2.000000,0.000000,0.513238,0.487366,-0.525635,0.471985,0.963985,-0.007325,-0.027347,-35.095722,45.040745,31.716269
1732158676.424270,1732158676.426853,9.000000,0.000000,4326.922852,4298.077148,4318.077148,4311.666504,4268.077148,4270.256348,4330.769043,4397.307617,4274.871582,4257.948730,4485.769043,4515.000000,4349.743652,4438.205078,1703.000000,1.000000,19.000000,,,,0.000000,2.000000,2.000000,0.000000,4.000000,2.000000,2.000000,0.000000,0.000000,4.000000,4.000000,4.000000,4.000000,4.000000,4.000000,0.000000,,,,,,,,,,,,,,,,,,,,,,,,,,,,
1732158676.432078,1732158676.434861,10.000000,0.000000,4327.820313,4294.743652,4317.692383,4308.461426,4266.538574,4278.589844,4326.410156,4399.230957,4279.743652,4266.153809,4487.948730,4516.794922,4346.794922,4436.153809,1564.000000,1.000000,19.000000,,,,0.000000,2.000000,2.000000,0.000000,4.000000,2.000000,2.000000,0.000000,0.000000,4.000000,4.000000,4.000000,4.000000,4.000000,4.000000,0.000000,,,,,,,,,,,,,,,,,,,,,,,,,,,,
1732158676.439887,1732158676.442670,11.000000,0.000000,4324.743652,4297.051270,4317.820313,4306.025879,4265.641113,4272.948730,4331.282227,4402.436035,4280.512695,4263.077148,4490.769043,4519.102539,4353.333496,4441.922852,1554.000000,1.000000,19.000000,,,,0.000000,2.000000,2.000000,0.000000,4.000000,2.000000,2.000000,0.000000,0.000000,4.000000,4.000000,4.000000,4.000000,4.000000,4.000000,0.000000,,,,,,,,,,,,,,,,,,,,,,,,,,,,
1732158676.447695,1732158676.450378,12.000000,0.000000,4322.307617,4301.025879,4318.974121,4303.846191,4277.948730,4262.436035,4333.077148,4401.538574,4278.717773,4262.307617,4487.948730,4518.846191,4353.846191,4444.871582,1710.000000,1.000000,19.000000,,,,0.000000,2.000000,2.000000,0.000000,4.000000,2.000000,2.000000,0.000000,0.000000,4.000000,4.000000,4.000000,4.000000,4.000000,4.000000,0.000000,,,,,,,,,,,,,,,,,3.000000,0.000000,0.512803,0.487671,-0.525940,0.471802,0.979612,0.002930,-0.024905,-34.824203,45.159668,31.548512
1732158676.455503,1732158676.458186,13.000000,0.000000,4324.358887,4300.641113,4317.563965,4305.256348,4273.717773,4265.256348,4328.589844,4399.487305,4281.922852,4275.641113,4490.641113,4526.922852,4353.333496,4444.615234,1581.000000,1.000000,19.000000,,,,0.000000,2.000000,2.000000,0.000000,4.000000,2.000000,2.000000,0.000000,0.000000,4.000000,4.000000,4.000000,4.000000,4.000000,4.000000,0.000000,,,,,,,,,,,,,,,,,,,,,,,,,,,,
1732158676.463312,1732158676.465795,14.000000,0.000000,4329.358887,4300.000000,4315.769043,4312.307617,4250.000000,4275.128418,4330.641113,4401.153809,4282.948730,4277.563965,4496.410156,4531.666504,4359.358887,4448.846191,1564.000000,1.000000,19.000000,,,,0.000000,2.000000,2.000000,0.000000,4.000000,2.000000,2.000000,0.000000,0.000000,4.000000,4.000000,4.000000,4.000000,4.000000,4.000000,0.000000,1.000000,0.000000,2.000000,2.000000,0.000000,4.000000,2.000000,2.000000,0.000000,0.000000,4.000000,4.000000,4.000000,4.000000,4.000000,4.000000,,,,,,,,,,,,
1732158676.471120,1732158676.473603,15.000000,0.000000,4327.563965,4300.128418,4316.794922,4313.333496,4251.025879,4278.333496,4336.282227,4402.436035,4285.769043,4262.820313,4485.128418,4527.179688,4357.563965,4447.820313,1554.000000,1.000000,19.000000,,,,0.000000,2.000000,2.000000,0.000000,4.000000,2.000000,2.000000,0.000000,0.000000,4.000000,4.000000,4.000000,4.000000,4.000000,4.000000,0.000000,,,,,,,,,,,,,,,,,,,,,,,,,,,,
1732158676.478928,1732158676.481511,16.000000,0.000000,4318.077148,4298.333496,4317.307617,4305.897461,4267.307617,4276.538574,4333.461426,4401.153809,4290.384766,4262.436035,4476.666504,4520.897461,4345.641113,4434.871582,0.000000,1.000000,19.000000,,,,0.000000,2.000000,2.000000,0.000000,4.000000,2.000000,2.000000,0.000000,0.000000,4.000000,4.000000,4.000000,4.000000,4.000000,4.000000,0.000000,,,,,,,,,,,,,,,,,4.000000,0.000000,0.511898,0.488403,-0.526306,0.471619,0.973752,0.014162,-0.013185,-34.822605,45.440998,31.465960
1732158676.486736,1732158676.489319,17.000000,0.000000,4312.051270,4295.128418,4316.025879,4302.820313,4263.461426,4274.743652,4327.051270,4398.974121,4292.436035,4274.102539,4489.871582,4513.717773,4345.384766,4427.051270,0.000000,1.000000,19.000000,,,,0.000000,2.000000,2.000000,0.000000,4.000000,2.000000,2.000000,0.000000,0.000000,4.000000,4.000000,4.000000,4.000000,4.000000,4.000000,0.000000,,,,,,,,,,,,,,,,,,,,,,,,,,,,
1732158676.494545,1732158676.497327,18.000000,0.000000,4313.205078,4295.000000,4317.436035,4307.307617,4259.102539,4269.743652,4328.333496,4397.692383,4292.051270,4270.256348,4491.922852,4504.743652,4351.410156,4428.205078,0.000000,1.000000,19.000000,,,,0.000000,2.000000,2.000000,0.000000,4.000000,2.000000,2.000000,0.000000,0.000000,4.000000,4.000000,4.000000,4.000000,4.000000,4.000000,0.000000,,,,,,,,,,,,,,,,,,,,,,,,,,,,
1732158676.502353,1732158676.505135,19.000000,0.000000,4313.846191,4298.589844,4319.743652,4308.717773,4268.717773,4267.692383,4333.205078,4398.589844,4294.102539,4263.461426,4477.948730,4504.615234,4345.384766,4428.974121,0.000000,1.000000,19.000000,,,,0.000000,2.000000,2.000000,0.000000,4.000000,2.000000,2.000000,0.000000,0.000000,4.000000,4.000000,4.000000,4.000000,4.000000,4.000000,0.000000,,,,,,,,,,,,,,,,,,,,,,,,,,,,
1732158676.510161,1732158676.513043,20.000000,0.000000,4310.769043,4297.563965,4318.846191,4303.333496,4272.307617,4275.641113,4335.000000,4398.974121,4295.512695,4265.769043,4480.256348,4512.563965,4338.461426,4425.769043,0.000000,1.000000,19.000000,,,,0.000000,2.000000,2.000000,0.000000,4.000000,2.000000,2.000000,0.000000,0.000000,4.000000,4.000000,4.000000,4.000000,4.000000,4.000000,0.000000,,,,,,,,,,,,,,,,,5.000000,0.000000,0.510627,0.489563,-0.526245,0.471863,0.974728,-0.001465,-0.030277,-34.711311,45.312210,31.370762
1732158676.517969,1732158676.520852,21.000000,0.000000,4308.974121,4293.077148,4316.410156,4302.179688,4269.358887,4280.256348,4334.230957,4397.948730,4289.871582,4264.743652,4484.487305,4519.358887,4343.974121,4425.128418,0.000000,1.000000,19.000000,,,,0.000000,2.000000,2.000000,0.000000,4.000000,2.000000,2.000000,0.000000,0.000000,4.000000,4.000000,4.000000,4.000000,4.000000,4.000000,0.000000,,,,,,,,,,,,,,,,,,,,,,,,,,,,
1732158676.525778,1732158676.528860,22.000000,0.000000,4310.256348,4294.102539,4316.025879,4309.102539,4268.589844,4278.717773,4334.487305,4398.589844,4287.307617,4264.230957,4478.333496,4526.538574,4349.615234,4428.461426,0.000000,1.000000,19.000000,,,,0.000000,2.000000,2.000000,0.000000,4.000000,2.000000,2.000000,0.000000,0.000000,4.000000,4.000000,4.000000,4.000000,4.000000,4.000000,0.000000,,,,,,,,,,,,,,,,,,,,,,,,,,,,
1732158676.533586,1732158676.536668,23.000000,0.000000,4313.461426,4296.794922,4317.820313,4311.025879,4279.102539,4281.282227,4334.743652,4400.641113,4295.769043,4265.512695,4483.333496,4528.846191,4344.743652,4429.102539,0.000000,1.000000,19.000000,,,,0.000000,2.000000,2.000000,0.000000,4.000000,2.000000,2.000000,0.000000,0.000000,4.000000,4.000000,4.000000,4.000000,4.000000,4.000000,0.000000,,,,,,,,,,,,,,,,,,,,,,,,,,,,
1732158676.541394,1732158676.544576,24.000000,0.000000,4316.025879,4296.410156,4319.230957,4306.153809,4282.563965,4274.102539,4333.974121,4399.743652,4301.153809,4270.769043,4486.410156,4523.974121,4339.487305,4427.820313,0.000000,1.000000,19.000000,,,,0.000000,2.000000,2.000000,0.000000,4.000000,2.000000,2.000000,0.000000,0.000000,4.000000,4.000000,4.000000,4.000000,4.000000,4.000000,0.000000,,,,,,,,,,,,,,,,,6.000000,0.000000,0.510273,0.489807,-0.526306,0.471924,0.974728,-0.001465,-0.030277,-34.956161,45.031223,31.521984
1732158676.549202,1732158676.552384,25.000000,0.000000,4314.230957,4295.512695,4317.436035,4305.641113,4265.769043,4263.461426,4333.974121,4398.205078,4294.615234,4277.179688,4484.615234,4522.436035,4342.563965,4429.358887,0.000000,1.000000,19.000000,,,,0.000000,2.000000,2.000000,0.000000,4.000000,2.000000,2.000000,0.000000,0.000000,4.000000,4.000000,4.000000,4.000000,4.000000,4.000000,0.000000,,,,,,,,,,,,,,,,,,,,,,,,,,,,
1732158676.557011,1732158676.560392,26.000000,0.000000,4312.692383,4297.051270,4316.153809,4310.512695,4256.794922,4272.692383,4332.820313,4399.230957,4290.000000,4269.487305,4487.051270,4525.256348,4345.384766,4431.153809,0.000000,1.000000,19.000000,,,,0.000000,2.000000,2.000000,0.000000,4.000000,2.000000,2.000000,0.000000,0.000000,4.000000,4.000000,4.000000,4.000000,4.000000,4.000000,0.000000,,,,,,,,,,,,,,,,,,,,,,,,,,,,
1732158676.564819,1732158676.568200,27.000000,0.000000,4313.717773,4297.820313,4317.563965,4311.666504,4264.743652,4284.230957,4332.820313,4400.256348,4294.102539,4258.717773,4480.641113,4520.384766,4339.743652,4429.230957,0.000000,1.000000,19.000000,,,,0.000000,2.000000,2.000000,0.000000,4.000000,2.000000,2.000000,0.000000,0.000000,4.000000,4.000000,4.000000,4.000000,4.000000,4.000000,0.000000,,,,,,,,,,,,,,,,,,,,,,,,,,,,
1732158676.572627,1732158676.576109,28.000000,0.000000,4313.974121,4297.436035,4317.563965,4308.077148,4271.922852,4281.666504,4333.461426,4400.000000,4296.282227,4261.282227,4476.538574,4512.051270,4337.563965,4426.666504,0.000000,1.000000,19.000000,,,,0.000000,2.000000,2.000000,0.000000,4.000000,2.000000,2.000000,0.000000,0.000000,4.000000,4.000000,4.000000,4.000000,4.000000,4.000000,0.000000,,,,,,,,,,,,,,,,,7.000000,0.000000,0.509861,0.490112,-0.526367,0.471985,0.971798,-0.007325,-0.035649,-34.999489,45.201958,31.704473
1732158676.580435,1732158676.583917,29.000000,0.000000,4311.410156,4296.410156,4316.922852,4304.230957,4277.436035,4280.769043,4332.692383,4398.846191,4294.743652,4265.769043,4486.153809,4512.692383,4341.538574,4426.025879,0.000000,1.000000,19.000000,,,,0.000000,2.000000,2.000000,0.000000,4.000000,2.000000,2.000000,0.000000,0.000000,4.000000,4.000000,4.000000,4.000000,4.000000,4.000000,0.000000,,,,,,,,,,,,,,,,,,,,,,,,,,,,
1732158676.588244,1732158676.591925,30.000000,0.000000,4310.769043,4294.743652,4317.179688,4305.641113,4278.589844,4284.615234,4332.820313,4399.743652,4297.692383,4270.000000,4490.000000,4514.102539,4342.563965,4427.692383,0.000000,1.000000,19.000000,,,,0.000000,2.000000,2.000000,0.000000,4.000000,2.000000,2.000000,0.000000,0.000000,4.000000,4.000000,4.000000,4.000000,4.000000,4.000000,0.000000,,,,,,,,,,,,,,,,,,,,,,,,,,,,
1732158676.596052,1732158676.599733,31.000000,0.000000,4314.487305,4294.358887,4317.179688,4307.179688,4276.538574,4282.692383,4334.615234,4401.794922,4303.589844,4274.358887,4487.179688,4515.897461,4342.307617,4430.128418,0.000000,1.000000,19.000000,,,,0.000000,2.000000,2.000000,0.000000,4.000000,2.000000,2.000000,0.000000,0.000000,4.000000,4.000000,4.000000,4.000000,4.000000,4.000000,0.000000,,,,,,,,,,,,,,,,,,,,,,,,,,,,
1732158676.603860,1732158676.607641,32.000000,0.000000,4319.743652,4295.769043,4317.436035,4306.282227,4286.153809,4278.461426,4334.487305,4401.025879,4305.000000,4270.256348,4490.897461,4523.077148,4343.077148,4430.641113,0.000000,1.000000,19.000000,,,,0.000000,2.000000,2.000000,0.000000,4.000000,2.000000,2.000000,0.000000,0.000000,4.000000,4.000000,4.000000,4.000000,4.000000,4.000000,0.000000,,,,,,,,,,,,,,,,,8.000000,0.000000,0.508790,0.490662,-0.526672,0.472229,0.975217,-0.015627,-0.036626,-34.811253,45.175251,31.750624
1732158676.611668,1732158676.615449,33.000000,0.000000,4320.128418,4295.769043,4320.384766,4305.384766,4286.153809,4275.897461,4332.051270,4398.974121,4301.025879,4269.358887,4486.153809,4527.948730,4343.077148,4430.256348,0.000000,1.000000,19.000000,,,,0.000000,2.000000,2.000000,0.000000,4.000000,2.000000,2.000000,0.000000,0.000000,4.000000,4.000000,4.000000,4.000000,4.000000,4.000000,0.000000,,,,,,,,,,,,,,,,,,,,,,,,,,,,
1732158676.619477,1732158676.623357,34.000000,0.000000,4314.102539,4291.538574,4318.846191,4306.922852,4263.974121,4277.436035,4333.461426,4397.692383,4298.205078,4271.794922,4483.077148,4518.205078,4338.461426,4429.743652,0.000000,1.000000,19.000000,,,,0.000000,2.000000,2.000000,0.000000,4.000000,2.000000,2.000000,0.000000,0.000000,4.000000,4.000000,4.000000,4.000000,4.000000,4.000000,0.000000,,,,,,,,,,,,,,,,,,,,,,,,,,,,
1732158676.627285,1732158676.631166,35.000000,0.000000,4311.794922,4290.384766,4316.666504,4309.615234,4258.589844,4281.153809,4335.384766,4399.230957,4296.538574,4268.205078,4488.717773,4510.512695,4331.922852,4427.436035,0.000000,1.000000,19.000000,,,,0.000000,2.000000,2.000000,0.000000,4.000000,2.000000,2.000000,0.000000,0.000000,4.000000,4.000000,4.000000,4.000000,4.000000,4.000000,0.000000,,,,,,,,,,,,,,,,,,,,,,,,,,,,
1732158676.635093,1732158676.638874,36.000000,0.000000,4317.307617,4295.641113,4318.589844,4311.025879,4273.717773,4280.769043,4332.820313,4402.051270,4294.871582,4270.384766,4488.333496,4517.307617,4328.077148,4425.512695,0.000000,1.000000,19.000000,,,,0.000000,2.000000,2.000000,0.000000,4.000000,2.000000,2.000000,0.000000,0.000000,4.000000,4.000000,4.000000,4.000000,4.000000,4.000000,0.000000,,,,,,,,,,,,,,,,,9.000000,0.000000,0.508655,0.490723,-0.526855,0.472107,0.975217,-0.015627,-0.036626,-34.670448,45.280289,31.809671
1732158676.642901,1732158676.646682,37.000000,0.000000,4318.717773,4296.153809,4320.000000,4311.410156,4280.769043,4280.512695,4332.051270,4401.794922,4295.384766,4272.051270,4487.051270,4521.410156,4327.820313,4426.794922,0.000000,1.000000,19.000000,,,,0.000000,2.000000,2.000000,0.000000,4.000000,2.000000,2.000000,0.000000,0.000000,4.000000,4.000000,4.000000,4.000000,4.000000,4.000000,0.000000,,,,,,,,,,,,,,,,,,,,,,,,,,,,
1732158676.650710,1732158676.654290,38.000000,0.000000,4313.205078,4294.102539,4318.717773,4311.282227,4281.538574,4282.948730,4335.000000,4400.256348,4297.692383,4263.974121,4486.153809,4518.717773,4328.974121,4426.794922,0.000000,1.000000,19.000000,,,,0.000000,2.000000,2.000000,0.000000,4.000000,2.000000,2.000000,0.000000,0.000000,4.000000,4.000000,4.000000,4.000000,4.000000,4.000000,0.000000,,,,,,,,,,,,,,,,,,,,,,,,,,,,
1732158676.658518,1732158676.662099,39.000000,0.000000,4312.436035,4295.000000,4318.205078,4314.102539,4278.974121,4283.589844,4335.128418,4401.794922,4296.794922,4261.282227,4474.358887,4522.307617,4324.487305,4425.128418,0.000000,1.000000,19.000000,,,,0.000000,2.000000,2.000000,0.000000,4.000000,2.000000,2.000000,0.000000,0.000000,4.000000,4.000000,4.000000,4.000000,4.000000,4.000000,0.000000,,,,,,,,,,,,,,,,,,,,,,,,,,,,
1732158676.666326,1732158676.669807,40.000000,0.000000,4315.384766,4290.000000,4318.974121,4312.179688,4280.769043,4280.512695,4333.077148,4402.563965,4294.102539,4267.948730,4470.128418,4523.077148,4323.589844,4425.641113,0.000000,1.000000,19.000000,,,,0.000000,2.000000,2.000000,0.000000,4.000000,2.000000,2.000000,0.000000,0.000000,4.000000,4.000000,4.000000,4.000000,4.000000,4.000000,0.000000,,,,,,,,,,,,,,,,,10.000000,0.000000,0.508421,0.490906,-0.526855,0.472168,0.965938,-0.007813,-0.041509,-34.479729,45.195366,31.940834
1732158676.674134,1732158676.677615,41.000000,0.000000,4311.282227,4280.384766,4318.205078,4302.179688,4293.333496,4280.512695,4333.846191,4400.769043,4298.589844,4273.077148,4484.487305,4512.179688,4331.025879,4425.897461,0.000000,1.000000,19.000000,,,,0.000000,2.000000,2.000000,0.000000,4.000000,2.000000,2.000000,0.000000,0.000000,4.000000,4.000000,4.000000,4.000000,4.000000,4.000000,0.000000,,,,,,,,,,,,,,,,,,,,,,,,,,,,
1732158676.681943,1732158676.685224,42.000000,0.000000,4307.436035,4280.000000,4317.051270,4299.487305,4284.102539,4283.333496,4335.128418,4401.282227,4304.487305,4278.461426,4492.051270,4513.333496,4333.461426,4424.615234,0.000000,1.000000,19.000000,,,,0.000000,2.000000,2.000000,0.000000,4.000000,2.000000,2.000000,0.000000,0.000000,4.000000,4.000000,4.000000,4.000000,4.000000,4.000000,0.000000,,,,,,,,,,,,,,,,,,,,,,,,,,,,
1732158676.689751,1732158676.693032,43.000000,0.000000,4310.512695,4284.615234,4315.512695,4308.461426,4260.256348,4282.820313,4334.102539,4400.641113,4303.461426,4280.000000,4488.717773,4523.333496,4331.922852,4426.282227,0.000000,1.000000,19.000000,,,,0.000000,2.000000,2.000000,0.000000,4.000000,2.000000,2.000000,0.000000,0.000000,4.000000,4.000000,4.000000,4.000000,4.000000,4.000000,0.000000,,,,,,,,,,,,,,,,,,,,,,,,,,,,
1732158676.697559,1732158676.700740,44.000000,0.000000,4313.589844,4283.333496,4317.692383,4311.282227,4263.333496,4279.871582,4333.717773,4398.205078,4298.333496,4271.794922,4488.077148,4524.743652,4335.384766,4430.128418,0.000000,1.000000,19.000000,,,,0.000000,2.000000,2.000000,0.000000,4.000000,2.000000,2.000000,0.000000,0.000000,4.000000,4.000000,4.000000,4.000000,4.000000,4.000000,0.000000,,,,,,,,,,,,,,,,,11.000000,0.000000,0.508569,0.490784,-0.527100,0.471863,0.982053,0.006348,-0.038091,-34.708580,45.321579,31.902075
1732158676.705367,1732158676.708548,45.000000,0.000000,4312.948730,4279.487305,4321.410156,4305.128418,4283.717773,4279.358887,4334.743652,4398.589844,4294.358887,4270.128418,4490.641113,4523.589844,4334.871582,4428.461426,0.000000,1.000000,19.000000,,,,0.000000,2.000000,2.000000,0.000000,4.000000,2.000000,2.000000,0.000000,0.000000,4.000000,4.000000,4.000000,4.000000,4.000000,4.000000,0.000000,,,,,,,,,,,,,,,,,,,,,,,,,,,,
1732158676.713176,1732158676.716157,46.000000,0.000000,4312.948730,4280.000000,4320.897461,4308.589844,4285.384766,4282.820313,4334.743652,4400.641113,4298.205078,4277.307617,4492.051270,4524.230957,4327.436035,4427.436035,0.000000,1.000000,19.000000,,,,0.000000,2.000000,2.000000,0.000000,4.000000,2.000000,2.000000,0.000000,0.000000,4.000000,4.000000,4.000000,4.000000,4.000000,4.000000,0.000000,,,,,,,,,,,,,,,,,,,,,,,,,,,,
1732158676.720984,1732158676.723965,47.000000,0.000000,4311.666504,4282.051270,4317.436035,4312.051270,4274.230957,4284.743652,4334.871582,4400.769043,4305.384766,4278.333496,4487.051270,4524.358887,4326.153809,4427.692383,0.000000,1.000000,19.000000,,,,0.000000,2.000000,2.000000,0.000000,4.000000,2.000000,2.000000,0.000000,0.000000,4.000000,4.000000,4.000000,4.000000,4.000000,4.000000,0.000000,,,,,,,,,,,,,,,,,,,,,,,,,,,,
1732158676.728792,1732158676.731673,48.000000,0.000000,4308.974121,4278.077148,4316.410156,4304.743652,4286.153809,4284.358887,4335.000000,4401.025879,4307.436035,4278.333496,4481.282227,4522.436035,4327.563965,4421.282227,0.000000,1.000000,19.000000,,,,0.000000,2.000000,2.000000,0.000000,4.000000,2.000000,2.000000,0.000000,0.000000,4.000000,4.000000,4.000000,4.000000,4.000000,4.000000,0.000000,,,,,,,,,,,,,,,,,12.000000,0.000000,0.508500,0.490784,-0.527222,0.471802,0.977658,0.006837,-0.038091,-34.803951,45.197147,31.927347
1732158676.736600,1732158676.739481,49.000000,0.000000,4309.487305,4273.717773,4317.307617,4301.153809,4303.205078,4281.282227,4333.077148,4401.666504,4309.743652,4281.794922,4476.153809,4515.769043,4325.897461,4415.000000,0.000000,1.000000,19.000000,,,,0.000000,2.000000,2.000000,0.000000,4.000000,2.000000,2.000000,0.000000,0.000000,4.000000,4.000000,4.000000,4.000000,4.000000,4.000000,0.000000,,,,,,,,,,,,,,,,,,,,,,,,,,,,
1732158676.744409,1732158676.747090,50.000000,0.000000,4309.358887,4277.948730,4317.820313,4304.487305,4281.153809,4283.589844,4332.948730,4399.358887,4314.487305,4275.897461,4477.436035,4512.820313,4327.948730,4416.153809,0.000000,1.000000,19.000000,,,,0.000000,2.000000,2.000000,0.000000,4.000000,2.000000,2.000000,0.000000,0.000000,4.000000,4.000000,4.000000,4.000000,4.000000,4.000000,0.000000,,,,,,,,,,,,,,,,,,,,,,,,,,,,
1732158676.752217,1732158676.754898,51.000000,0.000000,4304.871582,4281.538574,4315.641113,4303.205078,4262.563965,4290.897461,4334.871582,4397.692383,4306.282227,4262.051270,4480.512695,4514.615234,4329.102539,4415.512695,0.000000,1.000000,19.000000,,,,0.000000,2.000000,2.000000,0.000000,4.000000,2.000000,2.000000,0.000000,0.000000,4.000000,4.000000,4.000000,4.000000,4.000000,4.000000,0.000000,,,,,,,,,,,,,,,,,,,,,,,,,,,,
1732158676.760025,1732158676.762806,52.000000,0.000000,4305.256348,4279.871582,4316.025879,4301.153809,4283.333496,4287.307617,4334.615234,4400.641113,4292.436035,4260.769043,4476.282227,4512.436035,4329.230957,4410.769043,0.000000,1.000000,19.000000,,,,0.000000,2.000000,2.000000,0.000000,4.000000,2.000000,2.000000,0.000000,0.000000,4.000000,4.000000,4.000000,4.000000,4.000000,4.000000,0.000000,,,,,,,,,,,,,,,,,13.000000,0.000000,0.508325,0.490906,-0.527222,0.471863,0.968868,-0.003907,-0.035649,-34.809532,45.286354,31.782818
1732158676.767833,1732158676.770614,53.000000,0.000000,4311.538574,4281.025879,4317.436035,4306.922852,4281.922852,4278.974121,4334.358887,4402.563965,4295.384766,4271.153809,4476.666504,4513.077148,4339.871582,4416.538574,0.000000,1.000000,19.000000,,,,0.000000,2.000000,2.000000,0.000000,4.000000,2.000000,2.000000,0.000000,0.000000,4.000000,4.000000,4.000000,4.000000,4.000000,4.000000,0.000000,,,,,,,,,,,,,,,,,,,,,,,,,,,,
1732158676.775642,1732158676.778223,54.000000,0.000000,4312.179688,4280.384766,4313.974121,4305.512695,4254.487305,4277.436035,4336.025879,4400.769043,4298.333496,4273.461426,4489.102539,4521.025879,4350.128418,4428.974121,0.000000,1.000000,19.000000,,,,0.000000,2.000000,2.000000,0.000000,4.000000,2.000000,2.000000,0.000000,0.000000,4.000000,4.000000,4.000000,4.000000,4.000000,4.000000,0.000000,,,,,,,,,,,,,,,,,,,,,,,,,,,,
1732158676.783450,1732158676.786031,55.000000,0.000000,4307.948730,4275.256348,4310.897461,4297.179688,4261.922852,4279.102539,4336.538574,4399.487305,4292.179688,4266.153809,4491.025879,4518.205078,4345.000000,4426.922852,0.000000,1.000000,19.000000,,,,0.000000,2.000000,2.000000,0.000000,4.000000,2.000000,2.000000,0.000000,0.000000,4.000000,4.000000,4.000000,4.000000,4.000000,4.000000,0.000000,,,,,,,,,,,,,,,,,,,,,,,,,,,,
1732158676.791258,1732158676.793739,56.000000,0.000000,4308.461426,4275.769043,4315.256348,4301.794922,4280.641113,4279.487305,4335.897461,4401.025879,4294.871582,4266.538574,4477.179688,4511.794922,4338.846191,4418.333496,0.000000,1.000000,19.000000,,,,0.000000,2.000000,2.000000,0.000000,4.000000,2.000000,2.000000,0.000000,0.000000,4.000000,4.000000,4.000000,4.000000,4.000000,4.000000,0.000000,,,,,,,,,,,,,,,,,14.000000,0.000000,0.508076,0.490784,-0.527466,0.471985,0.978147,-0.004883,-0.042486,-34.842388,45.450279,31.807417
1732158676.799066,1732158676.801548,57.000000,0.000000,4310.641113,4279.871582,4319.487305,4312.820313,4278.589844,4282.307617,4336.282227,4401.666504,4300.384766,4275.128418,4480.641113,4518.717773,4341.922852,4422.307617,0.000000,1.000000,19.000000,,,,0.000000,2.000000,2.000000,0.000000,4.000000,2.000000,2.000000,0.000000,0.000000,4.000000,4.000000,4.000000,4.000000,4.000000,4.000000,0.000000,,,,,,,,,,,,,,,,,,,,,,,,,,,,
1732158676.806875,1732158676.809556,58.000000,0.000000,4310.641113,4280.384766,4318.333496,4312.179688,4279.615234,4283.461426,4336.153809,4400.641113,4298.974121,4280.897461,4495.256348,4523.461426,4343.974121,4426.282227,0.000000,1.000000,19.000000,,,,0.000000,2.000000,2.000000,0.000000,4.000000,2.000000,2.000000,0.000000,0.000000,4.000000,4.000000,4.000000,4.000000,4.000000,4.000000,0.000000,,,,,,,,,,,,,,,,,,,,,,,,,,,,
1732158676.814683,1732158676.817364,59.000000,0.000000,4308.846191,4279.615234,4318.461426,4307.692383,4284.871582,4278.846191,4335.897461,4400.384766,4295.769043,4278.846191,4490.769043,4520.769043,4342.307617,4416.282227,0.000000,1.000000,19.000000,,,,0.000000,2.000000,2.000000,0.000000,4.000000,2.000000,2.000000,0.000000,0.000000,4.000000,4.000000,4.000000,4.000000,4.000000,4.000000,0.000000,,,,,,,,,,,,,,,,,,,,,,,,,,,,
1732158676.822491,1732158676.825272,60.000000,0.000000,4310.128418,4277.563965,4318.077148,4311.922852,4281.538574,4279.487305,4336.538574,4400.512695,4294.871582,4270.641113,4479.743652,4520.641113,4342.051270,4411.922852,0.000000,1.000000,19.000000,,,,0.000000,2.000000,2.000000,0.000000,4.000000,2.000000,2.000000,0.000000,0.000000,4.000000,4.000000,4.000000,4.000000,4.000000,4.000000,0.000000,,,,,,,,,,,,,,,,,15.000000,0.000000,0.508097,0.490479,-0.527893,0.471802,0.980588,-0.000488,-0.042486,-34.940670,45.319729,31.889008
1732158676.830300,1732158676.833080,61.000000,0.000000,4311.282227,4276.922852,4316.282227,4309.358887,4279.102539,4283.077148,4336.025879,4400.512695,4295.769043,4262.179688,4474.871582,4522.051270,4340.384766,4418.717773,0.000000,1.000000,19.000000,,,,0.000000,2.000000,2.000000,0.000000,4.000000,2.000000,2.000000,0.000000,0.000000,4.000000,4.000000,4.000000,4.000000,4.000000,4.000000,0.000000,,,,,,,,,,,,,,,,,,,,,,,,,,,,
1732158676.838108,1732158676.840689,62.000000,0.000000,4303.077148,4278.205078,4315.897461,4296.410156,4292.436035,4279.230957,4334.102539,4400.128418,4296.410156,4267.179688,4480.641113,4520.000000,4341.538574,4417.179688,0.000000,1.000000,19.000000,,,,0.000000,2.000000,2.000000,0.000000,4.000000,2.000000,2.000000,0.000000,0.000000,4.000000,4.000000,4.000000,4.000000,4.000000,4.000000,0.000000,,,,,,,,,,,,,,,,,,,,,,,,,,,,
1732158676.845916,1732158676.848497,63.000000,0.000000,4297.692383,4275.512695,4316.794922,4294.871582,4297.307617,4272.051270,4333.717773,4400.000000,4297.948730,4277.692383,4491.538574,4523.717773,4342.307617,4413.589844,0.000000,1.000000,19.000000,,,,0.000000,2.000000,2.000000,0.000000,4.000000,2.000000,2.000000,0.000000,0.000000,4.000000,4.000000,4.000000,4.000000,4.000000,4.000000,0.000000,,,,,,,,,,,,,,,,,,,,,,,,,,,,
1732158676.853724,1732158676.856405,64.000000,0.000000,4307.051270,4274.871582,4315.384766,4306.538574,4271.410156,4275.128418,4334.230957,4401.282227,4303.077148,4278.205078,4489.487305,4531.153809,4336.538574,4418.846191,0.000000,1.000000,19.000000,,,,0.000000,2.000000,2.000000,0.000000,4.000000,2.000000,2.000000,0.000000,0.000000,4.000000,4.000000,4.000000,4.000000,4.000000,4.000000,0.000000,,,,,,,,,,,,,,,,,16.000000,0.000000,0.508086,0.490417,-0.528015,0.471741,0.978147,-0.005860,-0.041997,-34.871941,45.212311,31.766762
1732158676.861532,1732158676.864213,65.000000,0.000000,4311.153809,4280.000000,4315.256348,4307.051270,4257.563965,4282.820313,4333.461426,4402.692383,4305.512695,4277.948730,4482.051270,4525.512695,4333.205078,4418.333496,1611.000000,1.000000,19.000000,,,,0.000000,2.000000,2.000000,0.000000,4.000000,2.000000,2.000000,0.000000,0.000000,4.000000,4.000000,4.000000,4.000000,4.000000,4.000000,0.000000,,,,,,,,,,,,,,,,,,,,,,,,,,,,
1732158676.869341,1732158676.872221,66.000000,0.000000,4302.436035,4278.717773,4317.436035,4300.641113,4274.102539,4282.563965,4332.948730,4400.641113,4298.589844,4280.256348,4487.948730,4518.717773,4336.282227,4412.436035,1357.000000,1.000000,19.000000,,,,0.000000,2.000000,2.000000,0.000000,4.000000,2.000000,2.000000,0.000000,0.000000,4.000000,4.000000,4.000000,4.000000,4.000000,4.000000,0.000000,,,,,,,,,,,,,,,,,,,,,,,,,,,,
1732158676.877149,1732158676.880029,67.000000,0.000000,4299.615234,4276.794922,4317.948730,4304.358887,4282.820313,4280.384766,4332.692383,4398.589844,4292.436035,4274.487305,4491.025879,4519.743652,4336.922852,4413.205078,1434.000000,1.000000,19.000000,,,,0.000000,2.000000,2.000000,0.000000,4.000000,2.000000,2.000000,0.000000,0.000000,4.000000,4.000000,4.000000,4.000000,4.000000,4.000000,0.000000,,,,,,,,,,,,,,,,,,,,,,,,,,,,
1732158676.884957,1732158676.887937,68.000000,0.000000,4303.974121,4280.128418,4316.538574,4303.974121,4285.641113,4279.230957,4333.974121,4400.384766,4291.025879,4261.538574,4477.563965,4513.974121,4329.743652,4410.000000,1434.000000,1.000000,19.000000,,,,0.000000,2.000000,2.000000,0.000000,4.000000,2.000000,2.000000,0.000000,0.000000,4.000000,4.000000,4.000000,4.000000,4.000000,4.000000,0.000000,,,,,,,,,,,,,,,,,17.000000,0.000000,0.508016,0.490234,-0.528198,0.471802,0.987914,-0.002442,-0.053229,-35.212940,45.298641,31.811077
1732158676.892765,1732158676.895746,69.000000,0.000000,4303.717773,4276.922852,4317.307617,4296.025879,4292.948730,4277.692383,4335.769043,4400.000000,4292.436035,4266.666504,4471.410156,4506.794922,4326.153809,4403.077148,1195.000000,1.000000,19.000000,,,,0.000000,2.000000,2.000000,0.000000,4.000000,2.000000,2.000000,0.000000,0.000000,4.000000,4.000000,4.000000,4.000000,4.000000,4.000000,0.000000,,,,,,,,,,,,,,,,,,,,,,,,,,,,
1732158676.900574,1732158676.903754,70.000000,0.000000,4301.410156,4272.948730,4317.948730,4299.102539,4277.948730,4278.333496,4332.820313,4398.077148,4295.769043,4283.205078,4475.256348,4509.230957,4330.769043,4406.922852,0.000000,1.000000,19.000000,,,,0.000000,2.000000,2.000000,0.000000,4.000000,2.000000,2.000000,0.000000,0.000000,4.000000,4.000000,4.000000,4.000000,4.000000,4.000000,0.000000,,,,,,,,,,,,,,,,,,,,,,,,,,,,
1732158676.908382,1732158676.911562,71.000000,0.000000,4302.051270,4276.922852,4317.692383,4306.538574,4262.436035,4279.615234,4330.512695,4400.128418,4293.846191,4273.077148,4474.358887,4515.384766,4331.282227,4413.461426,0.000000,1.000000,19.000000,,,,0.000000,2.000000,2.000000,0.000000,4.000000,2.000000,2.000000,0.000000,0.000000,4.000000,4.000000,4.000000,4.000000,4.000000,4.000000,0.000000,,,,,,,,,,,,,,,,,,,,,,,,,,,,
1732158676.916190,1732158676.919470,72.000000,0.000000,4304.743652,4279.487305,4318.077148,4302.051270,4268.461426,4278.589844,4334.102539,4401.922852,4292.179688,4261.666504,4480.128418,4513.846191,4329.743652,4413.974121,1538.000000,1.000000,19.000000,,,,0.000000,2.000000,2.000000,0.000000,4.000000,2.000000,2.000000,0.000000,0.000000,4.000000,4.000000,4.000000,4.000000,4.000000,4.000000,0.000000,,,,,,,,,,,,,,,,,18.000000,0.000000,0.507693,0.489990,-0.528625,0.471924,0.977170,0.002442,-0.046392,-35.204147,45.370232,31.806973
1732158676.923998,1732158676.927278,73.000000,0.000000,4302.820313,4276.153809,4317.179688,4296.282227,4278.461426,4278.333496,4336.410156,4401.922852,4295.897461,4277.436035,4486.666504,4513.333496,4334.487305,4416.025879,1703.000000,1.000000,19.000000,,,,0.000000,2.000000,2.000000,0.000000,4.000000,2.000000,2.000000,0.000000,0.000000,4.000000,4.000000,4.000000,4.000000,4.000000,4.000000,0.000000,,,,,,,,,,,,,,,,,,,,,,,,,,,,
1732158676.931807,1732158676.935286,74.000000,0.000000,4297.307617,4270.769043,4315.128418,4296.410156,4289.871582,4280.641113,4333.846191,4402.179688,4297.948730,4287.948730,4478.846191,4517.051270,4335.897461,4416.922852,1566.000000,1.000000,19.000000,,,,0.000000,2.000000,2.000000,0.000000,4.000000,2.000000,2.000000,0.000000,0.000000,4.000000,4.000000,4.000000,4.000000,4.000000,4.000000,0.000000,,,,,,,,,,,,,,,,,,,,,,,,,,,,
1732158676.939615,1732158676.943094,75.000000,0.000000,4294.487305,4265.128418,4316.282227,4296.025879,4287.436035,4280.512695,4333.077148,4401.666504,4297.820313,4280.641113,4472.051270,4514.358887,4328.333496,4414.743652,1554.000000,1.000000,19.000000,,,,0.000000,2.000000,2.000000,0.000000,4.000000,2.000000,2.000000,0.000000,0.000000,4.000000,4.000000,4.000000,4.000000,4.000000,4.000000,0.000000,,,,,,,,,,,,,,,,,,,,,,,,,,,,
1732158676.947423,1732158676.951002,76.000000,0.000000,4290.769043,4264.487305,4318.461426,4296.282227,4265.897461,4281.282227,4334.487305,4400.384766,4296.025879,4279.102539,4476.794922,4508.589844,4325.128418,4410.897461,1701.000000,1.000000,19.000000,,,,0.000000,2.000000,2.000000,0.000000,4.000000,2.000000,2.000000,0.000000,0.000000,4.000000,4.000000,4.000000,4.000000,4.000000,4.000000,0.000000,,,,,,,,,,,,,,,,,19.000000,0.000000,0.507630,0.489990,-0.528687,0.471924,0.973263,0.000488,-0.041021,-35.197025,45.374889,31.820314
1732158676.955232,1732158676.958811,77.000000,0.000000,4284.230957,4266.282227,4317.051270,4296.794922,4262.692383,4288.461426,4334.743652,4400.769043,4292.563965,4281.410156,4477.692383,4505.897461,4326.794922,4406.410156,1554.000000,1.000000,19.000000,,,,0.000000,2.000000,2.000000,0.000000,4.000000,2.000000,2.000000,0.000000,0.000000,4.000000,4.000000,4.000000,4.000000,4.000000,4.000000,0.000000,,,,,,,,,,,,,,,,,,,,,,,,,,,,
1732158676.963040,1732158676.966819,78.000000,0.000000,4282.948730,4265.641113,4316.794922,4295.128418,4282.051270,4290.769043,4335.000000,4402.051270,4293.205078,4281.282227,4472.692383,4506.282227,4327.948730,4408.589844,1566.000000,1.000000,19.000000,,,,0.000000,2.000000,2.000000,0.000000,4.000000,2.000000,2.000000,0.000000,0.000000,4.000000,4.000000,4.000000,4.000000,4.000000,4.000000,0.000000,1.000000,0.000000,2.000000,2.000000,0.000000,4.000000,2.000000,2.000000,0.000000,0.000000,4.000000,4.000000,4.000000,4.000000,4.000000,4.000000,,,,,,,,,,,,
1732158676.970848,1732158676.974627,79.000000,0.000000,4287.179688,4266.153809,4316.922852,4295.000000,4278.077148,4284.102539,4334.871582,4401.922852,4297.563965,4283.333496,4476.153809,4507.948730,4331.410156,4413.846191,1554.000000,1.000000,19.000000,,,,0.000000,2.000000,2.000000,0.000000,4.000000,2.000000,2.000000,0.000000,0.000000,4.000000,4.000000,4.000000,4.000000,4.000000,4.000000,0.000000,,,,,,,,,,,,,,,,,,,,,,,,,,,,
1732158676.978656,1732158676.982535,80.000000,0.000000,4291.153809,4268.205078,4316.538574,4295.897461,4272.692383,4279.615234,4334.615234,4400.641113,4296.282227,4281.410156,4478.589844,4513.205078,4333.077148,4412.692383,1701.000000,1.000000,19.000000,,,,0.000000,2.000000,2.000000,0.000000,4.000000,2.000000,2.000000,0.000000,0.000000,4.000000,4.000000,4.000000,4.000000,4.000000,4.000000,0.000000,,,,,,,,,,,,,,,,,20.000000,0.000000,0.507741,0.489868,-0.528748,0.471863,0.969845,-0.004395,-0.035161,-35.349590,45.715324,31.727789
1732158676.986464,1732158676.990343,81.000000,0.000000,4294.102539,4273.717773,4315.641113,4296.538574,4293.077148,4280.000000,4334.230957,4401.153809,4292.692383,4283.717773,4474.743652,4517.051270,4335.897461,4412.563965,1554.000000,1.000000,19.000000,,,,0.000000,2.000000,2.000000,0.000000,4.000000,2.000000,2.000000,0.000000,0.000000,4.000000,4.000000,4.000000,4.000000,4.000000,4.000000,0.000000,,,,,,,,,,,,,,,,,,,,,,,,,,,,
1732158676.994273,1732158676.998051,82.000000,0.000000,4291.666504,4273.333496,4314.358887,4296.153809,4291.153809,4278.461426,4332.820313,4402.820313,4293.974121,4287.948730,4483.461426,4511.282227,4343.077148,4415.384766,1566.000000,1.000000,19.000000,,,,0.000000,2.000000,2.000000,0.000000,4.000000,2.000000,2.000000,0.000000,0.000000,4.000000,4.000000,4.000000,4.000000,4.000000,4.000000,0.000000,,,,,,,,,,,,,,,,,,,,,,,,,,,,
1732158677.002081,1732158677.005860,83.000000,0.000000,4287.692383,4263.589844,4313.846191,4294.230957,4260.512695,4278.589844,4332.051270,4400.512695,4297.436035,4282.820313,4494.102539,4504.743652,4339.743652,4413.205078,1554.000000,1.000000,19.000000,,,,0.000000,2.000000,2.000000,0.000000,4.000000,2.000000,2.000000,0.000000,0.000000,4.000000,4.000000,4.000000,4.000000,4.000000,4.000000,0.000000,,,,,,,,,,,,,,,,,,,,,,,,,,,,
1732158677.009889,1732158677.013568,84.000000,0.000000,4289.871582,4263.974121,4316.666504,4292.948730,4256.410156,4279.743652,4335.256348,4398.205078,4298.077148,4278.205078,4484.358887,4508.974121,4329.487305,4411.922852,1701.000000,1.000000,19.000000,,,,0.000000,2.000000,2.000000,0.000000,4.000000,2.000000,2.000000,0.000000,0.000000,4.000000,4.000000,4.000000,4.000000,4.000000,4.000000,0.000000,,,,,,,,,,,,,,,,,21.000000,0.000000,0.507516,0.489990,-0.528687,0.472046,0.980588,-0.007325,-0.035649,-35.404835,45.517746,31.391174
1732158677.017697,1732158677.021376,85.000000,0.000000,4292.051270,4277.563965,4318.717773,4294.743652,4286.025879,4276.922852,4335.000000,4399.615234,4292.948730,4279.615234,4470.512695,4514.871582,4330.128418,4410.128418,1554.000000,1.000000,19.000000,,,,0.000000,2.000000,2.000000,0.000000,4.000000,2.000000,2.000000,0.000000,0.000000,4.000000,4.000000,4.000000,4.000000,4.000000,4.000000,0.000000,,,,,,,,,,,,,,,,,,,,,,,,,,,,
1732158677.025506,1732158677.028985,86.000000,0.000000,4293.205078,4282.179688,4316.538574,4296.666504,4286.794922,4278.077148,4331.282227,4400.384766,4292.692383,4281.153809,4480.897461,4509.102539,4336.282227,4405.641113,1566.000000,1.000000,19.000000,,,,0.000000,2.000000,2.000000,0.000000,4.000000,2.000000,2.000000,0.000000,0.000000,4.000000,4.000000,4.000000,4.000000,4.000000,4.000000,0.000000,,,,,,,,,,,,,,,,,,,,,,,,,,,,
1732158677.033314,1732158677.036793,87.000000,0.000000,4295.897461,4277.820313,4314.358887,4298.974121,4263.077148,4281.282227,4331.538574,4398.717773,4294.230957,4280.641113,4492.948730,4504.230957,4336.410156,4408.077148,1554.000000,1.000000,19.000000,,,,0.000000,2.000000,2.000000,0.000000,4.000000,2.000000,2.000000,0.000000,0.000000,4.000000,4.000000,4.000000,4.000000,4.000000,4.000000,0.000000,,,,,,,,,,,,,,,,,,,,,,,,,,,,
1732158677.041122,1732158677.044501,88.000000,0.000000,4298.333496,4280.769043,4315.256348,4303.077148,4267.436035,4280.384766,4335.256348,4399.102539,4285.512695,4278.846191,4479.615234,4508.077148,4333.589844,4413.846191,1701.000000,1.000000,19.000000,,,,0.000000,2.000000,2.000000,0.000000,4.000000,2.000000,2.000000,0.000000,0.000000,4.000000,4.000000,4.000000,4.000000,4.000000,4.000000,0.000000,,,,,,,,,,,,,,,,,22.000000,0.000000,0.507298,0.490112,-0.528564,0.472290,0.979612,0.002442,-0.029300,-35.266251,45.224377,31.368519
1732158677.048931,1732158677.052309,89.000000,0.000000,4297.436035,4283.205078,4316.922852,4302.692383,4281.538574,4279.487305,4332.179688,4401.538574,4281.794922,4277.563965,4474.102539,4506.153809,4333.333496,4412.692383,1554.000000,1.000000,19.000000,,,,0.000000,2.000000,2.000000,0.000000,4.000000,2.000000,2.000000,0.000000,0.000000,4.000000,4.000000,4.000000,4.000000,4.000000,4.000000,0.000000,,,,,,,,,,,,,,,,,,,,,,,,,,,,
1732158677.056739,1732158677.059918,90.000000,0.000000,4296.666504,4279.743652,4316.410156,4298.205078,4280.512695,4280.128418,4327.820313,4399.871582,4292.307617,4279.743652,4487.948730,4507.948730,4340.256348,4412.692383,1566.000000,1.000000,19.000000,,,,0.000000,2.000000,2.000000,0.000000,4.000000,2.000000,2.000000,0.000000,0.000000,4.000000,4.000000,4.000000,4.000000,4.000000,4.000000,0.000000,,,,,,,,,,,,,,,,,,,,,,,,,,,,
1732158677.064547,1732158677.067726,91.000000,0.000000,4296.666504,4278.461426,4316.666504,4299.358887,4280.256348,4279.230957,4331.922852,4398.461426,4297.051270,4278.717773,4482.948730,4521.922852,4343.333496,4414.615234,1554.000000,1.000000,19.000000,,,,0.000000,2.000000,2.000000,0.000000,4.000000,2.000000,2.000000,0.000000,0.000000,4.000000,4.000000,4.000000,4.000000,4.000000,4.000000,0.000000,,,,,,,,,,,,,,,,,,,,,,,,,,,,
1732158677.072355,1732158677.075434,92.000000,0.000000,4291.282227,4280.256348,4317.179688,4302.436035,4279.615234,4279.871582,4336.794922,4400.897461,4292.051270,4280.256348,4472.436035,4519.615234,4335.000000,4410.512695,1701.000000,1.000000,19.000000,,,,0.000000,2.000000,2.000000,0.000000,4.000000,2.000000,2.000000,0.000000,0.000000,4.000000,4.000000,4.000000,4.000000,4.000000,4.000000,0.000000,,,,,,,,,,,,,,,,,23.000000,0.000000,0.507351,0.490051,-0.528625,0.472229,0.979612,0.002442,-0.029300,-35.382328,45.253410,31.208500
1732158677.080164,1732158677.083242,93.000000,0.000000,4282.563965,4280.000000,4316.025879,4299.487305,4276.282227,4283.333496,4332.692383,4401.922852,4295.512695,4282.436035,4485.128418,4505.384766,4333.077148,4407.820313,1554.000000,1.000000,19.000000,,,,0.000000,2.000000,2.000000,0.000000,4.000000,2.000000,2.000000,0.000000,0.000000,4.000000,4.000000,4.000000,4.000000,4.000000,4.000000,0.000000,,,,,,,,,,,,,,,,,,,,,,,,,,,,
1732158677.087972,1732158677.090851,94.000000,0.000000,4282.179688,4279.358887,4315.128418,4293.717773,4292.692383,4279.230957,4328.717773,4399.615234,4296.538574,4270.256348,4488.846191,4504.358887,4339.487305,4407.436035,1566.000000,1.000000,19.000000,,,,0.000000,2.000000,2.000000,0.000000,4.000000,2.000000,2.000000,0.000000,0.000000,4.000000,4.000000,4.000000,4.000000,4.000000,4.000000,0.000000,,,,,,,,,,,,,,,,,,,,,,,,,,,,
1732158677.095780,1732158677.098659,95.000000,0.000000,4289.358887,4281.922852,4315.512695,4298.461426,4292.820313,4277.820313,4333.077148,4400.000000,4287.179688,4260.641113,4475.256348,4509.615234,4335.641113,4405.128418,1554.000000,1.000000,19.000000,,,,0.000000,2.000000,2.000000,0.000000,4.000000,2.000000,2.000000,0.000000,0.000000,4.000000,4.000000,4.000000,4.000000,4.000000,4.000000,0.000000,,,,,,,,,,,,,,,,,,,,,,,,,,,,
1732158677.103588,1732158677.106567,96.000000,0.000000,4287.948730,4282.692383,4313.461426,4306.282227,4272.179688,4290.769043,4336.025879,4402.307617,4288.077148,4272.307617,4474.743652,4507.563965,4332.948730,4403.589844,1701.000000,1.000000,19.000000,,,,0.000000,2.000000,2.000000,0.000000,4.000000,2.000000,2.000000,0.000000,0.000000,4.000000,4.000000,4.000000,4.000000,4.000000,4.000000,0.000000,,,,,,,,,,,,,,,,,24.000000,0.000000,0.507235,0.490112,-0.528625,0.472290,0.973263,-0.004395,-0.044439,-35.366352,45.280262,31.157219
1732158677.111396,1732158677.114375,97.000000,0.000000,4285.897461,4281.282227,4313.461426,4304.358887,4284.487305,4295.256348,4333.846191,4401.794922,4295.641113,4281.922852,4479.487305,4509.102539,4341.666504,4406.666504,1554.000000,1.000000,19.000000,,,,0.000000,2.000000,2.000000,0.000000,4.000000,2.000000,2.000000,0.000000,0.000000,4.000000,4.000000,4.000000,4.000000,4.000000,4.000000,0.000000,,,,,,,,,,,,,,,,,,,,,,,,,,,,
1732158677.119205,1732158677.121984,98.000000,0.000000,4293.205078,4282.179688,4315.000000,4302.307617,4295.512695,4283.205078,4334.743652,4400.641113,4296.538574,4277.307617,4479.743652,4518.461426,4344.615234,4412.179688,1566.000000,1.000000,19.000000,,,,0.000000,2.000000,2.000000,0.000000,4.000000,2.000000,2.000000,0.000000,0.000000,4.000000,4.000000,4.000000,4.000000,4.000000,4.000000,0.000000,,,,,,,,,,,,,,,,,,,,,,,,,,,,
1732158677.127013,1732158677.129792,99.000000,0.000000,4291.153809,4282.563965,4314.358887,4302.307617,4267.563965,4278.077148,4336.025879,4401.410156,4296.666504,4280.256348,4491.282227,4521.666504,4340.641113,4410.512695,1554.000000,1.000000,19.000000,,,,0.000000,2.000000,2.000000,0.000000,4.000000,2.000000,2.000000,0.000000,0.000000,4.000000,4.000000,4.000000,4.000000,4.000000,4.000000,0.000000,,,,,,,,,,,,,,,,,,,,,,,,,,,,
1732158677.134821,1732158677.137500,100.000000,0.000000,4283.589844,4280.897461,4316.025879,4297.948730,4258.205078,4280.512695,4335.641113,4401.153809,4298.974121,4286.282227,4492.692383,4517.692383,4341.410156,4403.846191,1701.000000,1.000000,19.000000,,,,0.000000,2.000000,2.000000,0.000000,4.000000,2.000000,2.000000,0.000000,0.000000,4.000000,4.000000,4.000000,4.000000,4.000000,4.000000,0.000000,,,,,,,,,,,,,,,,,25.000000,0.000000,0.507223,0.490051,-0.528748,0.472229,0.993774,-0.008302,-0.041509,-35.470081,45.285347,31.182346
1732158677.142630,1732158677.145309,101.000000,0.000000,4289.230957,4279.487305,4317.820313,4294.487305,4275.641113,4280.897461,4336.282227,4400.256348,4294.615234,4277.948730,4477.051270,4519.358887,4340.897461,4400.769043,1554.000000,1.000000,19.000000,,,,0.000000,2.000000,2.000000,0.000000,4.000000,2.000000,2.000000,0.000000,0.000000,4.000000,4.000000,4.000000,4.000000,4.000000,4.000000,0.000000,,,,,,,,,,,,,,,,,,,,,,,,,,,,
1732158677.150438,1732158677.152917,102.000000,0.000000,4295.769043,4278.974121,4315.384766,4298.974121,4280.128418,4285.769043,4335.384766,4401.282227,4292.307617,4273.717773,4477.436035,4519.743652,4336.153809,4404.487305,1566.000000,1.000000,19.000000,,,,0.000000,2.000000,2.000000,0.000000,4.000000,2.000000,2.000000,0.000000,0.000000,4.000000,4.000000,4.000000,4.000000,4.000000,4.000000,0.000000,,,,,,,,,,,,,,,,,,,,,,,,,,,,
1732158677.158246,1732158677.160725,103.000000,0.000000,4293.461426,4278.589844,4315.256348,4301.025879,4289.871582,4285.897461,4334.102539,4402.307617,4295.128418,4284.871582,4489.743652,4513.077148,4335.128418,4408.077148,1554.000000,1.000000,19.000000,,,,0.000000,2.000000,2.000000,0.000000,4.000000,2.000000,2.000000,0.000000,0.000000,4.000000,4.000000,4.000000,4.000000,4.000000,4.000000,0.000000,,,,,,,,,,,,,,,,,,,,,,,,,,,,
1732158677.166054,1732158677.168433,104.000000,0.000000,4294.871582,4281.666504,4317.436035,4300.384766,4294.615234,4281.410156,4335.000000,4400.897461,4294.358887,4286.282227,4490.000000,4513.333496,4339.615234,4411.025879,1701.000000,1.000000,19.000000,,,,0.000000,2.000000,2.000000,0.000000,4.000000,2.000000,2.000000,0.000000,0.000000,4.000000,4.000000,4.000000,4.000000,4.000000,4.000000,0.000000,,,,,,,,,,,,,,,,,26.000000,0.000000,0.507382,0.489807,-0.528931,0.472107,0.985960,-0.005372,-0.035649,-35.405766,45.499462,31.304367
1732158677.173863,1732158677.176242,105.000000,0.000000,4297.948730,4281.025879,4313.461426,4301.410156,4274.615234,4287.436035,4334.102539,4402.179688,4297.563965,4275.897461,4485.641113,4519.743652,4342.436035,4413.077148,1554.000000,1.000000,19.000000,,,,0.000000,2.000000,2.000000,0.000000,4.000000,2.000000,2.000000,0.000000,0.000000,4.000000,4.000000,4.000000,4.000000,4.000000,4.000000,0.000000,,,,,,,,,,,,,,,,,,,,,,,,,,,,
1732158677.181671,1732158677.184250,106.000000,0.000000,4294.102539,4272.179688,4310.128418,4301.922852,4269.871582,4294.358887,4333.717773,4404.487305,4305.897461,4277.051270,4487.307617,4523.461426,4340.384766,4411.410156,1566.000000,1.000000,19.000000,,,,0.000000,2.000000,2.000000,0.000000,4.000000,2.000000,2.000000,0.000000,0.000000,4.000000,4.000000,4.000000,4.000000,4.000000,4.000000,0.000000,,,,,,,,,,,,,,,,,,,,,,,,,,,,
1732158677.189479,1732158677.192058,107.000000,0.000000,4290.256348,4264.358887,4313.333496,4299.102539,4282.563965,4290.000000,4334.615234,4402.179688,4306.025879,4284.102539,4491.025879,4522.179688,4337.692383,4405.897461,1554.000000,1.000000,19.000000,,,,0.000000,2.000000,2.000000,0.000000,4.000000,2.000000,2.000000,0.000000,0.000000,4.000000,4.000000,4.000000,4.000000,4.000000,4.000000,0.000000,,,,,,,,,,,,,,,,,,,,,,,,,,,,
1732158677.197287,1732158677.199966,108.000000,0.000000,4291.922852,4265.641113,4315.384766,4296.538574,4282.948730,4287.307617,4333.333496,4400.256348,4297.436035,4281.153809,4490.641113,4518.974121,4336.922852,4402.820313,1701.000000,1.000000,19.000000,,,,0.000000,2.000000,2.000000,0.000000,4.000000,2.000000,2.000000,0.000000,0.000000,4.000000,4.000000,4.000000,4.000000,4.000000,4.000000,0.000000,,,,,,,,,,,,,,,,,27.000000,0.000000,0.507268,0.489807,-0.528931,0.472229,0.985960,-0.005372,-0.035649,-35.487003,45.056232,31.119871
1732158677.205095,1732158677.207774,109.000000,0.000000,4292.436035,4270.256348,4314.358887,4303.846191,4282.436035,4292.436035,4331.153809,4402.051270,4293.461426,4278.333496,4483.589844,4518.974121,4335.512695,4409.615234,1554.000000,1.000000,19.000000,,,,0.000000,2.000000,2.000000,0.000000,4.000000,2.000000,2.000000,0.000000,0.000000,4.000000,4.000000,4.000000,4.000000,4.000000,4.000000,0.000000,,,,,,,,,,,,,,,,,,,,,,,,,,,,
1732158677.212904,1732158677.215782,110.000000,0.000000,4287.051270,4268.846191,4316.794922,4308.333496,4293.974121,4291.410156,4330.897461,4401.666504,4295.128418,4281.538574,4480.897461,4522.563965,4334.743652,4412.179688,1566.000000,1.000000,19.000000,,,,0.000000,2.000000,2.000000,0.000000,4.000000,2.000000,2.000000,0.000000,0.000000,4.000000,4.000000,4.000000,4.000000,4.000000,4.000000,0.000000,,,,,,,,,,,,,,,,,,,,,,,,,,,,
1732158677.220712,1732158677.223590,111.000000,0.000000,4284.743652,4263.589844,4318.333496,4298.846191,4302.563965,4282.820313,4331.666504,4399.102539,4294.487305,4281.666504,4489.871582,4522.436035,4334.615234,4405.384766,1554.000000,1.000000,19.000000,,,,0.000000,2.000000,2.000000,0.000000,4.000000,2.000000,2.000000,0.000000,0.000000,4.000000,4.000000,4.000000,4.000000,4.000000,4.000000,0.000000,,,,,,,,,,,,,,,,,,,,,,,,,,,,
1732158677.228520,1732158677.231499,112.000000,0.000000,4289.871582,4261.666504,4316.538574,4293.205078,4292.051270,4279.230957,4333.717773,4400.384766,4293.846191,4282.563965,4493.589844,4519.358887,4334.102539,4404.871582,1701.000000,1.000000,19.000000,,,,0.000000,2.000000,2.000000,0.000000,4.000000,2.000000,2.000000,0.000000,0.000000,4.000000,4.000000,4.000000,4.000000,4.000000,4.000000,0.000000,,,,,,,,,,,,,,,,,28.000000,0.000000,0.507146,0.489868,-0.528992,0.472229,0.982542,-0.004395,-0.045904,-35.462807,45.063881,30.873762
1732158677.236328,1732158677.239307,113.000000,0.000000,4293.333496,4261.666504,4315.256348,4299.871582,4274.358887,4286.025879,4336.538574,4402.179688,4298.205078,4288.717773,4487.692383,4517.436035,4337.948730,4410.384766,1554.000000,1.000000,19.000000,,,,0.000000,2.000000,2.000000,0.000000,4.000000,2.000000,2.000000,0.000000,0.000000,4.000000,4.000000,4.000000,4.000000,4.000000,4.000000,0.000000,,,,,,,,,,,,,,,,,,,,,,,,,,,,
1732158677.244137,1732158677.247315,114.000000,0.000000,4293.333496,4261.282227,4317.948730,4303.205078,4276.922852,4294.743652,4336.153809,4401.794922,4303.205078,4296.153809,4488.461426,4517.820313,4341.153809,4413.589844,1566.000000,1.000000,19.000000,,,,0.000000,2.000000,2.000000,0.000000,4.000000,2.000000,2.000000,0.000000,0.000000,4.000000,4.000000,4.000000,4.000000,4.000000,4.000000,0.000000,,,,,,,,,,,,,,,,,,,,,,,,,,,,
1732158677.251945,1732158677.255123,115.000000,0.000000,4295.000000,4262.948730,4319.230957,4304.358887,4282.563965,4295.769043,4336.153809,4400.897461,4304.358887,4292.948730,4490.384766,4518.589844,4336.666504,4410.897461,1554.000000,1.000000,19.000000,,,,0.000000,2.000000,2.000000,0.000000,4.000000,2.000000,2.000000,0.000000,0.000000,4.000000,4.000000,4.000000,4.000000,4.000000,4.000000,0.000000,,,,,,,,,,,,,,,,,,,,,,,,,,,,
1732158677.259753,1732158677.263031,116.000000,0.000000,4294.615234,4265.000000,4317.820313,4305.641113,4282.051270,4288.589844,4336.794922,4402.179688,4302.948730,4281.282227,4482.948730,4514.487305,4332.948730,4406.282227,1701.000000,1.000000,19.000000,,,,0.000000,2.000000,2.000000,0.000000,4.000000,2.000000,2.000000,0.000000,0.000000,4.000000,4.000000,4.000000,4.000000,4.000000,4.000000,0.000000,,,,,,,,,,,,,,,,,29.000000,0.000000,0.507079,0.489746,-0.529114,0.472290,0.977658,-0.008790,-0.032719,-35.416538,45.131744,30.946081
1732158677.267562,1732158677.270839,117.000000,0.000000,4291.666504,4262.179688,4316.794922,4302.948730,4294.230957,4279.743652,4335.000000,4403.974121,4297.692383,4276.410156,4483.205078,4511.538574,4333.717773,4407.179688,1554.000000,1.000000,19.000000,,,,0.000000,2.000000,2.000000,0.000000,4.000000,2.000000,2.000000,0.000000,0.000000,4.000000,4.000000,4.000000,4.000000,4.000000,4.000000,0.000000,,,,,,,,,,,,,,,,,,,,,,,,,,,,
1732158677.275370,1732158677.278847,118.000000,0.000000,4294.230957,4263.461426,4318.333496,4307.051270,4292.820313,4281.153809,4334.102539,4404.487305,4295.769043,4283.717773,4486.153809,4521.666504,4334.615234,4413.846191,1566.000000,1.000000,19.000000,,,,0.000000,2.000000,2.000000,0.000000,4.000000,2.000000,2.000000,0.000000,0.000000,4.000000,4.000000,4.000000,4.000000,4.000000,4.000000,0.000000,,,,,,,,,,,,,,,,,,,,,,,,,,,,
1732158677.283178,1732158677.286655,119.000000,0.000000,4297.179688,4265.641113,4316.666504,4313.846191,4270.384766,4284.487305,4335.128418,4404.743652,4303.461426,4294.871582,4482.307617,4524.615234,4335.384766,4411.025879,1554.000000,1.000000,19.000000,,,,0.000000,2.000000,2.000000,0.000000,4.000000,2.000000,2.000000,0.000000,0.000000,4.000000,4.000000,4.000000,4.000000,4.000000,4.000000,0.000000,,,,,,,,,,,,,,,,,,,,,,,,,,,,
1732158677.290986,1732158677.294564,120.000000,0.000000,4296.025879,4258.974121,4311.410156,4306.282227,4270.769043,4281.410156,4334.487305,4403.461426,4303.589844,4295.384766,4484.102539,4516.410156,4333.589844,4404.487305,1701.000000,1.000000,19.000000,,,,0.000000,2.000000,2.000000,0.000000,4.000000,2.000000,2.000000,0.000000,0.000000,4.000000,4.000000,4.000000,4.000000,4.000000,4.000000,0.000000,,,,,,,,,,,,,,,,,30.000000,0.000000,0.507079,0.489746,-0.529114,0.472290,0.984495,-0.007813,-0.035161,-35.379063,45.021713,30.974659
1732158677.298795,1732158677.302372,121.000000,0.000000,4293.974121,4257.436035,4312.307617,4299.487305,4284.743652,4282.436035,4333.333496,4401.410156,4297.436035,4290.512695,4491.666504,4515.000000,4331.153809,4405.897461,1554.000000,1.000000,19.000000,,,,0.000000,2.000000,2.000000,0.000000,4.000000,2.000000,2.000000,0.000000,0.000000,4.000000,4.000000,4.000000,4.000000,4.000000,4.000000,0.000000,,,,,,,,,,,,,,,,,,,,,,,,,,,,
1732158677.306603,1732158677.310380,122.000000,0.000000,4292.179688,4260.641113,4316.410156,4303.846191,4284.615234,4285.769043,4334.358887,4401.922852,4304.230957,4293.205078,4490.128418,4518.717773,4333.205078,4408.717773,1566.000000,1.000000,19.000000,,,,0.000000,2.000000,2.000000,0.000000,4.000000,2.000000,2.000000,0.000000,0.000000,4.000000,4.000000,4.000000,4.000000,4.000000,4.000000,0.000000,,,,,,,,,,,,,,,,,,,,,,,,,,,,
1732158677.314411,1732158677.318188,123.000000,0.000000,4291.282227,4256.666504,4317.051270,4303.717773,4296.666504,4283.333496,4335.128418,4405.128418,4308.461426,4295.512695,4486.153809,4517.179688,4335.384766,4407.307617,1554.000000,1.000000,19.000000,,,,0.000000,2.000000,2.000000,0.000000,4.000000,2.000000,2.000000,0.000000,0.000000,4.000000,4.000000,4.000000,4.000000,4.000000,4.000000,0.000000,,,,,,,,,,,,,,,,,,,,,,,,,,,,
1732158677.322219,1732158677.326096,124.000000,0.000000,4293.077148,4255.769043,4315.512695,4300.384766,4303.846191,4283.077148,4334.487305,4404.871582,4297.563965,4292.948730,4489.615234,4512.692383,4332.820313,4405.769043,1701.000000,1.000000,19.000000,,,,0.000000,2.000000,2.000000,0.000000,4.000000,2.000000,2.000000,0.000000,0.000000,4.000000,4.000000,4.000000,4.000000,4.000000,4.000000,0.000000,,,,,,,,,,,,,,,,,31.000000,0.000000,0.507122,0.489563,-0.529297,0.472229,0.981565,-0.003907,-0.045904,-35.718708,45.397587,31.106140
1732158677.330027,1732158677.333904,125.000000,0.000000,4296.410156,4263.846191,4315.769043,4305.256348,4282.563965,4288.846191,4334.615234,4400.769043,4292.307617,4289.615234,4485.897461,4516.922852,4329.102539,4408.333496,1554.000000,1.000000,19.000000,,,,0.000000,2.000000,2.000000,0.000000,4.000000,2.000000,2.000000,0.000000,0.000000,4.000000,4.000000,4.000000,4.000000,4.000000,4.000000,0.000000,,,,,,,,,,,,,,,,,,,,,,,,,,,,
1732158677.337836,1732158677.341912,126.000000,0.000000,4293.205078,4261.538574,4316.666504,4308.333496,4272.948730,4290.000000,4334.871582,4401.025879,4295.769043,4279.871582,4475.128418,4524.230957,4327.179688,4408.974121,1566.000000,1.000000,19.000000,,,,0.000000,2.000000,2.000000,0.000000,4.000000,2.000000,2.000000,0.000000,0.000000,4.000000,4.000000,4.000000,4.000000,4.000000,4.000000,0.000000,,,,,,,,,,,,,,,,,,,,,,,,,,,,
1732158677.345644,1732158677.349721,127.000000,0.000000,4285.897461,4251.794922,4317.948730,4302.179688,4282.179688,4287.051270,4334.743652,4402.436035,4296.794922,4273.205078,4475.256348,4522.307617,4326.410156,4407.948730,19.000000,1.000000,19.000000,,,,0.000000,2.000000,2.000000,0.000000,4.000000,2.000000,2.000000,0.000000,0.000000,4.000000,4.000000,4.000000,4.000000,4.000000,4.000000,0.000000,,,,,,,,,,,,,,,,,,,,,,,,,,,,
1732158677.353452,1732158677.357629,0.000000,0.000000,4290.897461,4258.589844,4316.922852,4300.769043,4285.128418,4291.794922,4335.128418,4400.897461,4299.230957,4286.025879,4488.846191,4516.666504,4328.077148,4412.051270,0.000000,1.000000,19.000000,,,,0.000000,2.000000,2.000000,0.000000,4.000000,2.000000,2.000000,0.000000,0.000000,4.000000,4.000000,4.000000,4.000000,4.000000,4.000000,0.000000,,,,,,,,,,,,,,,,,0.000000,0.000000,0.506879,0.489624,-0.529419,0.472290,0.966427,-0.003418,-0.048834,-35.638821,45.600380,31.115974
1732158677.361261,1732158677.365437,1.000000,0.000000,4294.487305,4263.077148,4315.512695,4303.205078,4291.922852,4291.666504,4335.769043,4400.384766,4300.384766,4292.820313,4491.794922,4515.384766,4328.846191,4410.641113,1613.000000,1.000000,19.000000,,,,0.000000,2.000000,2.000000,0.000000,4.000000,2.000000,2.000000,0.000000,0.000000,4.000000,4.000000,4.000000,4.000000,4.000000,4.000000,0.000000,,,,,,,,,,,,,,,,,,,,,,,,,,,,
1732158677.369069,1732158677.373045,2.000000,0.000000,4284.615234,4251.794922,4315.641113,4299.615234,4302.051270,4281.282227,4336.153809,4401.922852,4297.692383,4280.000000,4474.615234,4517.307617,4325.769043,4401.794922,1359.000000,1.000000,19.000000,,,,0.000000,2.000000,2.000000,0.000000,4.000000,2.000000,2.000000,0.000000,0.000000,4.000000,4.000000,4.000000,4.000000,4.000000,4.000000,0.000000,,,,,,,,,,,,,,,,,,,,,,,,,,,,
1732158677.376877,1732158677.380853,3.000000,0.000000,4285.641113,4251.538574,4313.077148,4301.666504,4288.717773,4280.897461,4335.769043,4401.153809,4297.820313,4280.384766,4473.333496,4520.128418,4325.384766,4403.717773,1439.000000,1.000000,19.000000,,,,0.000000,2.000000,2.000000,0.000000,4.000000,2.000000,2.000000,0.000000,0.000000,4.000000,4.000000,4.000000,4.000000,4.000000,4.000000,0.000000,,,,,,,,,,,,,,,,,,,,,,,,,,,,
1732158677.384685,1732158677.388562,4.000000,0.000000,4296.794922,4264.871582,4310.641113,4308.717773,4272.692383,4293.205078,4335.641113,4400.641113,4298.461426,4293.461426,4492.948730,4518.589844,4330.128418,4412.436035,1432.000000,1.000000,19.000000,,,,0.000000,2.000000,2.000000,0.000000,4.000000,2.000000,2.000000,0.000000,0.000000,4.000000,4.000000,4.000000,4.000000,4.000000,4.000000,0.000000,,,,,,,,,,,,,,,,,1.000000,0.000000,0.506872,0.489624,-0.529480,0.472229,0.987425,-0.006348,-0.044439,-35.602444,45.724640,30.992271
1732158677.392494,1732158677.396370,5.000000,0.000000,4290.384766,4258.333496,4316.153809,4302.051270,4283.205078,4296.153809,4336.282227,4402.820313,4296.538574,4290.384766,4491.666504,4508.333496,4327.948730,4405.000000,1195.000000,1.000000,19.000000,,,,0.000000,2.000000,2.000000,0.000000,4.000000,2.000000,2.000000,0.000000,0.000000,4.000000,4.000000,4.000000,4.000000,4.000000,4.000000,0.000000,,,,,,,,,,,,,,,,,,,,,,,,,,,,
1732158677.400302,1732158677.403978,6.000000,0.000000,4280.512695,4247.948730,4318.846191,4293.589844,4293.461426,4291.153809,4335.641113,4402.436035,4297.692383,4279.358887,4472.692383,4506.153809,4320.897461,4396.025879,0.000000,1.000000,19.000000,,,,0.000000,2.000000,2.000000,0.000000,4.000000,2.000000,2.000000,0.000000,0.000000,4.000000,4.000000,4.000000,4.000000,4.000000,4.000000,0.000000,,,,,,,,,,,,,,,,,,,,,,,,,,,,
1732158677.408110,1732158677.411787,7.000000,0.000000,4284.230957,4257.563965,4311.153809,4298.974121,4291.538574,4293.974121,4333.846191,4400.897461,4297.307617,4277.436035,4471.666504,4510.641113,4319.358887,4398.461426,0.000000,1.000000,19.000000,,,,0.000000,2.000000,2.000000,0.000000,4.000000,2.000000,2.000000,0.000000,0.000000,4.000000,4.000000,4.000000,4.000000,4.000000,4.000000,0.000000,,,,,,,,,,,,,,,,,,,,,,,,,,,,
1732158677.415918,1732158677.419495,8.000000,0.000000,4284.743652,4259.102539,4310.512695,4300.128418,4297.820313,4297.820313,4334.743652,4401.410156,4293.589844,4279.230957,4477.436035,4505.512695,4314.871582,4398.461426,1534.000000,1.000000,19.000000,,,,0.000000,2.000000,2.000000,0.000000,4.000000,2.000000,2.000000,0.000000,0.000000,4.000000,4.000000,4.000000,4.000000,4.000000,4.000000,0.000000,,,,,,,,,,,,,,,,,2.000000,0.000000,0.506872,0.489624,-0.529480,0.472229,0.978635,0.002930,-0.037602,-35.512981,45.720291,31.132074
1732158677.423727,1732158677.427303,9.000000,0.000000,4284.743652,4252.436035,4316.025879,4297.436035,4298.846191,4296.282227,4336.666504,4400.769043,4297.051270,4278.589844,4471.153809,4503.717773,4311.666504,4393.974121,1698.000000,1.000000,19.000000,,,,0.000000,2.000000,2.000000,0.000000,4.000000,2.000000,2.000000,0.000000,0.000000,4.000000,4.000000,4.000000,4.000000,4.000000,4.000000,0.000000,,,,,,,,,,,,,,,,,,,,,,,,,,,,
1732158677.431535,1732158677.435311,10.000000,0.000000,4291.153809,4258.589844,4313.077148,4304.102539,4281.794922,4294.102539,4335.897461,4400.641113,4304.871582,4277.179688,4476.153809,4511.410156,4324.102539,4399.743652,1558.000000,1.000000,19.000000,,,,0.000000,2.000000,2.000000,0.000000,4.000000,2.000000,2.000000,0.000000,0.000000,4.000000,4.000000,4.000000,4.000000,4.000000,4.000000,0.000000,,,,,,,,,,,,,,,,,,,,,,,,,,,,
1732158677.439343,1732158677.443119,11.000000,0.000000,4294.230957,4265.256348,4310.384766,4308.717773,4275.000000,4294.358887,4334.615234,4401.153809,4304.358887,4279.358887,4489.615234,4513.205078,4337.948730,4410.000000,1554.000000,1.000000,19.000000,,,,0.000000,2.000000,2.000000,0.000000,4.000000,2.000000,2.000000,0.000000,0.000000,4.000000,4.000000,4.000000,4.000000,4.000000,4.000000,0.000000,,,,,,,,,,,,,,,,,,,,,,,,,,,,
1732158677.447151,1732158677.450828,12.000000,0.000000,4296.282227,4264.102539,4314.102539,4305.384766,4282.307617,4289.615234,4334.615234,4401.025879,4298.077148,4283.717773,4480.512695,4515.641113,4336.410156,4412.692383,1703.000000,1.000000,19.000000,,,,0.000000,2.000000,2.000000,0.000000,4.000000,2.000000,2.000000,0.000000,0.000000,4.000000,4.000000,4.000000,4.000000,4.000000,4.000000,0.000000,,,,,,,,,,,,,,,,,3.000000,0.000000,0.506352,0.490051,-0.529419,0.472412,0.983518,0.004883,-0.044439,-35.500515,45.843437,31.046980
1732158677.454960,1732158677.458636,13.000000,0.000000,4297.692383,4264.871582,4312.948730,4306.282227,4282.179688,4281.410156,4334.871582,4401.025879,4295.769043,4281.666504,4469.487305,4517.692383,4332.179688,4411.666504,1574.000000,1.000000,19.000000,,,,0.000000,2.000000,2.000000,0.000000,4.000000,2.000000,2.000000,0.000000,0.000000,4.000000,4.000000,4.000000,4.000000,4.000000,4.000000,0.000000,,,,,,,,,,,,,,,,,,,,,,,,,,,,
1732158677.462768,1732158677.466244,14.000000,0.000000,4294.487305,4264.871582,4312.307617,4307.692383,4279.358887,4278.589844,4334.615234,4400.769043,4296.153809,4276.538574,4483.077148,4508.333496,4335.128418,4413.461426,1558.000000,1.000000,19.000000,,,,0.000000,2.000000,2.000000,0.000000,4.000000,2.000000,2.000000,0.000000,0.000000,4.000000,4.000000,4.000000,4.000000,4.000000,4.000000,0.000000,1.000000,0.000000,2.000000,2.000000,0.000000,4.000000,2.000000,2.000000,0.000000,0.000000,4.000000,3.000000,4.000000,4.000000,4.000000,4.000000,,,,,,,,,,,,
1732158677.470576,1732158677.474052,15.000000,0.000000,4295.128418,4262.563965,4314.871582,4306.538574,4283.077148,4281.282227,4333.846191,4400.384766,4296.922852,4280.000000,4494.487305,4502.820313,4337.051270,4413.333496,1554.000000,1.000000,19.000000,,,,0.000000,2.000000,2.000000,0.000000,4.000000,2.000000,2.000000,0.000000,0.000000,4.000000,4.000000,4.000000,4.000000,4.000000,4.000000,0.000000,,,,,,,,,,,,,,,,,,,,,,,,,,,,
1732158677.478384,1732158677.481761,16.000000,0.000000,4297.051270,4263.717773,4312.436035,4304.358887,4282.692383,4286.538574,4333.205078,4402.563965,4298.333496,4283.077148,4486.538574,4511.025879,4331.922852,4410.256348,0.000000,1.000000,19.000000,,,,0.000000,2.000000,2.000000,0.000000,4.000000,2.000000,2.000000,0.000000,0.000000,4.000000,4.000000,4.000000,4.000000,4.000000,4.000000,0.000000,,,,,,,,,,,,,,,,,4.000000,0.000000,0.505883,0.490417,-0.529419,0.472534,0.985472,-0.006837,-0.056648,-35.578751,45.711517,30.888054
1732158677.486193,1732158677.489569,17.000000,0.000000,4295.000000,4264.230957,4309.230957,4300.769043,4283.205078,4289.615234,4334.230957,4403.333496,4296.025879,4280.000000,4482.051270,4514.487305,4327.948730,4411.025879,0.000000,1.000000,19.000000,,,,0.000000,2.000000,2.000000,0.000000,4.000000,2.000000,2.000000,0.000000,0.000000,4.000000,4.000000,4.000000,4.000000,4.000000,4.000000,0.000000,,,,,,,,,,,,,,,,,,,,,,,,,,,,
1732158677.494001,1732158677.497177,18.000000,0.000000,4295.000000,4262.436035,4312.563965,4300.128418,4298.461426,4284.743652,4336.025879,4401.025879,4293.205078,4277.051270,4489.102539,4512.692383,4332.948730,4413.461426,0.000000,1.000000,19.000000,,,,0.000000,2.000000,2.000000,0.000000,4.000000,2.000000,2.000000,0.000000,0.000000,4.000000,4.000000,4.000000,4.000000,4.000000,4.000000,0.000000,,,,,,,,,,,,,,,,,,,,,,,,,,,,
1732158677.501809,1732158677.504986,19.000000,0.000000,4297.692383,4262.179688,4315.897461,4304.358887,4304.615234,4278.589844,4335.769043,4400.256348,4293.717773,4276.025879,4489.871582,4517.179688,4337.179688,4414.230957,0.000000,1.000000,19.000000,,,,0.000000,2.000000,2.000000,0.000000,4.000000,2.000000,2.000000,0.000000,0.000000,4.000000,4.000000,4.000000,4.000000,4.000000,4.000000,0.000000,,,,,,,,,,,,,,,,,,,,,,,,,,,,
1732158677.509617,1732158677.512894,20.000000,0.000000,4297.948730,4265.256348,4317.436035,4311.153809,4278.974121,4284.871582,4333.846191,4401.666504,4295.641113,4284.871582,4482.307617,4523.974121,4331.922852,4414.871582,0.000000,1.000000,19.000000,,,,0.000000,2.000000,2.000000,0.000000,4.000000,2.000000,2.000000,0.000000,0.000000,4.000000,4.000000,4.000000,4.000000,4.000000,4.000000,0.000000,,,,,,,,,,,,,,,,,5.000000,0.000000,0.505537,0.490723,-0.529358,0.472656,0.979123,-0.007325,-0.049322,-35.443787,45.627995,30.874323
1732158677.517426,1732158677.520702,21.000000,0.000000,4295.897461,4264.102539,4315.256348,4312.436035,4262.307617,4292.051270,4333.589844,4400.897461,4296.410156,4290.769043,4476.153809,4522.179688,4328.846191,4412.948730,0.000000,1.000000,19.000000,,,,0.000000,2.000000,2.000000,0.000000,4.000000,2.000000,2.000000,0.000000,0.000000,4.000000,4.000000,4.000000,4.000000,4.000000,4.000000,0.000000,,,,,,,,,,,,,,,,,,,,,,,,,,,,
