title:3eight, start timestamp:1732158741.795190, stop timestamp:1732158791.112116, headset type:EPOCX, headset serial:E5020C3A, headset firmware:730, channels:67, sampling rate:eeg_128;mot_32, samples:6317      , version:2.2, 
Timestamp,OriginalTimestamp,EEG.Counter,EEG.Interpolated,EEG.AF3,EEG.F7,EEG.F3,EEG.FC5,EEG.T7,EEG.P7,EEG.O1,EEG.O2,EEG.P8,EEG.T8,EEG.FC6,EEG.F4,EEG.F8,EEG.AF4,EEG.RawCq,EEG.Battery,EEG.BatteryPercent,MarkerIndex,MarkerType,MarkerValueInt,EEG.MarkerHardware,CQ.AF3,CQ.F7,CQ.F3,CQ.FC5,CQ.T7,CQ.P7,CQ.O1,CQ.O2,CQ.P8,CQ.T8,CQ.FC6,CQ.F4,CQ.F8,CQ.AF4,CQ.Overall,EQ.SampleRateQuality,EQ.OVERALL,EQ.AF3,EQ.F7,EQ.F3,EQ.FC5,EQ.T7,EQ.P7,EQ.O1,EQ.O2,EQ.P8,EQ.T8,EQ.FC6,EQ.F4,EQ.F8,EQ.AF4,MOT.CounterMems,MOT.InterpolatedMems,MOT.Q0,MOT.Q1,MOT.Q2,MOT.Q3,MOT.AccX,MOT.AccY,MOT.AccZ,MOT.MagX,MOT.MagY,MOT.MagZ
1732158741.795190,1732158741.797674,61.000000,0.000000,4297.692383,4309.358887,4313.846191,4300.256348,4278.333496,4283.205078,4333.974121,4402.179688,4311.666504,4279.102539,4482.820313,4486.410156,4341.410156,4402.692383,0.000000,1.000000,19.000000,,,,0.000000,2.000000,2.000000,0.000000,4.000000,2.000000,2.000000,0.000000,0.000000,4.000000,4.000000,4.000000,4.000000,4.000000,4.000000,0.000000,,,,,,,,,,,,,,,,,,,,,,,,,,,,
1732158741.802999,1732158741.805682,62.000000,0.000000,4302.692383,4311.410156,4312.820313,4305.641113,4271.666504,4284.102539,4334.871582,4400.384766,4311.153809,4281.153809,4488.717773,4496.410156,4343.205078,4410.384766,0.000000,1.000000,19.000000,,,,0.000000,2.000000,2.000000,0.000000,4.000000,2.000000,2.000000,0.000000,0.000000,4.000000,4.000000,4.000000,4.000000,4.000000,4.000000,0.000000,,,,,,,,,,,,,,,,,,,,,,,,,,,,
1732158741.810807,1732158741.813490,63.000000,0.000000,4303.589844,4312.051270,4314.743652,4310.384766,4270.897461,4280.128418,4336.666504,4400.897461,4311.538574,4281.153809,4481.025879,4494.743652,4342.820313,4412.820313,0.000000,1.000000,19.000000,,,,0.000000,2.000000,2.000000,0.000000,4.000000,2.000000,2.000000,0.000000,0.000000,4.000000,4.000000,4.000000,4.000000,4.000000,4.000000,0.000000,,,,,,,,,,,,,,,,,,,,,,,,,,,,
1732158741.818615,1732158741.821199,64.000000,0.000000,4304.615234,4313.077148,4316.794922,4311.922852,4271.153809,4277.307617,4335.769043,4403.205078,4310.512695,4279.230957,4480.897461,4492.051270,4342.436035,4412.307617,0.000000,1.000000,19.000000,,,,0.000000,2.000000,2.000000,0.000000,4.000000,2.000000,2.000000,0.000000,0.000000,4.000000,4.000000,4.000000,4.000000,4.000000,4.000000,0.000000,,,,,,,,,,,,,,,,,16.000000,0.000000,0.534638,0.549011,-0.454651,0.453918,0.948846,0.196313,-0.007813,-32.419617,47.320011,30.915216
1732158741.826424,1732158741.829007,65.000000,0.000000,4309.230957,4312.948730,4315.128418,4310.897461,4273.461426,4279.615234,4334.615234,4403.589844,4310.897461,4281.025879,4489.230957,4502.563965,4341.794922,4415.000000,1609.000000,1.000000,19.000000,,,,0.000000,2.000000,2.000000,0.000000,4.000000,2.000000,2.000000,0.000000,0.000000,4.000000,4.000000,4.000000,4.000000,4.000000,4.000000,0.000000,,,,,,,,,,,,,,,,,,,,,,,,,,,,
1732158741.834232,1732158741.837015,66.000000,0.000000,4311.410156,4311.410156,4316.025879,4310.897461,4276.794922,4280.512695,4334.743652,4401.666504,4311.794922,4281.922852,4486.410156,4508.077148,4343.205078,4416.025879,1361.000000,1.000000,19.000000,,,,0.000000,2.000000,2.000000,0.000000,4.000000,2.000000,2.000000,0.000000,0.000000,4.000000,4.000000,4.000000,4.000000,4.000000,4.000000,0.000000,,,,,,,,,,,,,,,,,,,,,,,,,,,,
1732158741.842040,1732158741.844823,67.000000,0.000000,4308.461426,4311.666504,4318.333496,4311.538574,4272.179688,4279.871582,4334.871582,4401.282227,4305.384766,4275.641113,4478.205078,4502.948730,4343.846191,4414.358887,1426.000000,1.000000,19.000000,,,,0.000000,2.000000,2.000000,0.000000,4.000000,2.000000,2.000000,0.000000,0.000000,4.000000,4.000000,4.000000,4.000000,4.000000,4.000000,0.000000,,,,,,,,,,,,,,,,,,,,,,,,,,,,
1732158741.849848,1732158741.852731,68.000000,0.000000,4308.333496,4309.487305,4316.538574,4310.769043,4273.205078,4280.000000,4335.641113,4401.538574,4302.820313,4272.948730,4480.384766,4497.436035,4342.051270,4415.128418,1432.000000,1.000000,19.000000,,,,0.000000,2.000000,2.000000,0.000000,4.000000,2.000000,2.000000,0.000000,0.000000,4.000000,4.000000,4.000000,4.000000,4.000000,4.000000,0.000000,,,,,,,,,,,,,,,,,17.000000,0.000000,0.536243,0.548706,-0.454163,0.452881,0.952265,0.220730,0.000488,-32.388222,47.175873,30.912992
1732158741.857656,1732158741.860539,69.000000,0.000000,4310.512695,4304.358887,4315.512695,4306.538574,4278.205078,4280.512695,4335.897461,4401.282227,4312.820313,4279.615234,4482.563965,4498.589844,4342.051270,4415.128418,1200.000000,1.000000,19.000000,,,,0.000000,2.000000,2.000000,0.000000,4.000000,2.000000,2.000000,0.000000,0.000000,4.000000,4.000000,4.000000,4.000000,4.000000,4.000000,0.000000,,,,,,,,,,,,,,,,,,,,,,,,,,,,
1732158741.865465,1732158741.868547,70.000000,0.000000,4308.846191,4304.871582,4316.538574,4303.846191,4276.538574,4280.000000,4335.000000,4402.820313,4310.512695,4277.051270,4478.589844,4504.743652,4342.563965,4414.102539,0.000000,1.000000,19.000000,,,,0.000000,2.000000,2.000000,0.000000,4.000000,2.000000,2.000000,0.000000,0.000000,4.000000,4.000000,4.000000,4.000000,4.000000,4.000000,0.000000,,,,,,,,,,,,,,,,,,,,,,,,,,,,
1732158741.873273,1732158741.876356,71.000000,0.000000,4309.871582,4310.897461,4316.666504,4310.769043,4277.820313,4280.000000,4334.487305,4405.000000,4298.077148,4266.025879,4480.641113,4507.179688,4342.692383,4415.641113,0.000000,1.000000,19.000000,,,,0.000000,2.000000,2.000000,0.000000,4.000000,2.000000,2.000000,0.000000,0.000000,4.000000,4.000000,4.000000,4.000000,4.000000,4.000000,0.000000,,,,,,,,,,,,,,,,,,,,,,,,,,,,
1732158741.881081,1732158741.884264,72.000000,0.000000,4311.410156,4312.820313,4317.563965,4312.948730,4281.282227,4281.153809,4334.871582,4402.948730,4304.358887,4265.384766,4486.666504,4506.282227,4342.692383,4418.717773,1536.000000,1.000000,19.000000,,,,0.000000,2.000000,2.000000,0.000000,4.000000,2.000000,2.000000,0.000000,0.000000,4.000000,4.000000,4.000000,4.000000,4.000000,4.000000,0.000000,,,,,,,,,,,,,,,,,18.000000,0.000000,0.536647,0.548462,-0.454224,0.452637,0.952265,0.220730,0.000488,-32.612793,47.302460,31.067858
1732158741.888889,1732158741.892072,73.000000,0.000000,4310.897461,4308.077148,4318.846191,4301.153809,4276.666504,4280.000000,4334.871582,4400.256348,4313.461426,4268.717773,4485.000000,4507.179688,4343.077148,4420.256348,1696.000000,1.000000,19.000000,,,,0.000000,2.000000,2.000000,0.000000,4.000000,2.000000,2.000000,0.000000,0.000000,4.000000,4.000000,4.000000,4.000000,4.000000,4.000000,0.000000,,,,,,,,,,,,,,,,,,,,,,,,,,,,
1732158741.896698,1732158741.900080,74.000000,0.000000,4310.512695,4301.410156,4316.153809,4295.512695,4272.179688,4278.205078,4334.615234,4401.282227,4306.153809,4265.256348,4478.589844,4505.000000,4342.307617,4419.102539,1563.000000,1.000000,19.000000,,,,0.000000,2.000000,2.000000,0.000000,4.000000,2.000000,2.000000,0.000000,0.000000,4.000000,4.000000,4.000000,4.000000,4.000000,4.000000,0.000000,,,,,,,,,,,,,,,,,,,,,,,,,,,,
1732158741.904506,1732158741.907888,75.000000,0.000000,4306.666504,4296.410156,4313.589844,4302.307617,4277.563965,4278.333496,4334.743652,4402.436035,4306.025879,4264.615234,4482.051270,4498.589844,4341.922852,4415.128418,1554.000000,1.000000,19.000000,,,,0.000000,2.000000,2.000000,0.000000,4.000000,2.000000,2.000000,0.000000,0.000000,4.000000,4.000000,4.000000,4.000000,4.000000,4.000000,0.000000,,,,,,,,,,,,,,,,,,,,,,,,,,,,
1732158741.912314,1732158741.915796,76.000000,0.000000,4302.051270,4297.051270,4314.358887,4304.358887,4279.102539,4279.487305,4334.871582,4401.794922,4316.153809,4267.179688,4488.717773,4496.153809,4342.436035,4411.666504,1706.000000,1.000000,19.000000,,,,0.000000,2.000000,2.000000,0.000000,4.000000,2.000000,2.000000,0.000000,0.000000,4.000000,4.000000,4.000000,4.000000,4.000000,4.000000,0.000000,,,,,,,,,,,,,,,,,19.000000,0.000000,0.536885,0.548279,-0.454590,0.452209,0.975217,0.258332,-0.001953,-32.693027,47.361656,31.048298
1732158741.920123,1732158741.923605,77.000000,0.000000,4307.563965,4301.282227,4315.769043,4299.230957,4276.410156,4279.358887,4334.615234,4399.358887,4310.128418,4265.769043,4488.717773,4502.307617,4343.333496,4419.102539,1561.000000,1.000000,19.000000,,,,0.000000,2.000000,2.000000,0.000000,4.000000,2.000000,2.000000,0.000000,0.000000,4.000000,4.000000,4.000000,4.000000,4.000000,4.000000,0.000000,,,,,,,,,,,,,,,,,,,,,,,,,,,,
1732158741.927931,1732158741.931613,78.000000,0.000000,4311.410156,4303.717773,4313.461426,4302.820313,4277.820313,4279.871582,4333.589844,4397.179688,4296.410156,4264.102539,4485.769043,4506.410156,4343.589844,4425.769043,1563.000000,1.000000,19.000000,,,,0.000000,2.000000,2.000000,0.000000,4.000000,2.000000,2.000000,0.000000,0.000000,4.000000,4.000000,4.000000,4.000000,4.000000,4.000000,0.000000,1.000000,0.000000,2.000000,2.000000,0.000000,4.000000,2.000000,2.000000,0.000000,0.000000,4.000000,4.000000,4.000000,4.000000,4.000000,3.000000,,,,,,,,,,,,
1732158741.935739,1732158741.939421,79.000000,0.000000,4302.948730,4303.077148,4309.615234,4307.563965,4278.333496,4280.769043,4332.948730,4397.692383,4295.000000,4263.846191,4480.384766,4499.871582,4340.384766,4418.717773,1554.000000,1.000000,19.000000,,,,0.000000,2.000000,2.000000,0.000000,4.000000,2.000000,2.000000,0.000000,0.000000,4.000000,4.000000,4.000000,4.000000,4.000000,4.000000,0.000000,,,,,,,,,,,,,,,,,,,,,,,,,,,,
1732158741.943547,1732158741.947329,80.000000,0.000000,4299.358887,4301.025879,4307.179688,4304.102539,4276.538574,4280.128418,4333.077148,4398.589844,4298.461426,4263.589844,4477.692383,4498.717773,4338.461426,4413.461426,1706.000000,1.000000,19.000000,,,,0.000000,2.000000,2.000000,0.000000,4.000000,2.000000,2.000000,0.000000,0.000000,4.000000,4.000000,4.000000,4.000000,4.000000,4.000000,0.000000,,,,,,,,,,,,,,,,,20.000000,0.000000,0.534276,0.548645,-0.457153,0.452271,0.973752,0.191430,-0.006348,-32.656353,47.482944,30.880787
1732158741.951356,1732158741.955137,81.000000,0.000000,4304.871582,4300.256348,4307.051270,4302.307617,4277.820313,4278.589844,4333.333496,4398.077148,4300.769043,4264.230957,4476.922852,4506.025879,4340.000000,4417.051270,1561.000000,1.000000,19.000000,,,,0.000000,2.000000,2.000000,0.000000,4.000000,2.000000,2.000000,0.000000,0.000000,4.000000,4.000000,4.000000,4.000000,4.000000,4.000000,0.000000,,,,,,,,,,,,,,,,,,,,,,,,,,,,
1732158741.959164,1732158741.963145,82.000000,0.000000,4307.563965,4303.717773,4305.256348,4303.974121,4278.717773,4278.589844,4333.333496,4397.948730,4306.538574,4268.974121,4477.436035,4506.538574,4341.282227,4416.538574,1563.000000,1.000000,19.000000,,,,0.000000,2.000000,2.000000,0.000000,4.000000,2.000000,2.000000,0.000000,0.000000,4.000000,4.000000,4.000000,4.000000,4.000000,4.000000,0.000000,,,,,,,,,,,,,,,,,,,,,,,,,,,,
1732158741.966972,1732158741.970953,83.000000,0.000000,4308.205078,4307.307617,4304.615234,4308.205078,4277.179688,4280.641113,4332.436035,4398.974121,4312.436035,4276.282227,4484.358887,4505.512695,4345.897461,4415.000000,1554.000000,1.000000,19.000000,,,,0.000000,2.000000,2.000000,0.000000,4.000000,2.000000,2.000000,0.000000,0.000000,4.000000,4.000000,4.000000,4.000000,4.000000,4.000000,0.000000,,,,,,,,,,,,,,,,,,,,,,,,,,,,
1732158741.974780,1732158741.978861,84.000000,0.000000,4307.563965,4304.743652,4305.769043,4311.025879,4277.051270,4281.025879,4333.461426,4398.333496,4311.666504,4275.384766,4486.922852,4505.000000,4349.358887,4417.692383,1706.000000,1.000000,19.000000,,,,0.000000,2.000000,2.000000,0.000000,4.000000,2.000000,2.000000,0.000000,0.000000,4.000000,4.000000,4.000000,4.000000,4.000000,4.000000,0.000000,,,,,,,,,,,,,,,,,21.000000,0.000000,0.532043,0.547913,-0.460083,0.452820,0.938591,0.152851,-0.026370,-32.759979,47.581184,30.861771
1732158741.982588,1732158741.986670,85.000000,0.000000,4306.538574,4304.358887,4302.692383,4309.487305,4278.846191,4279.487305,4333.589844,4394.743652,4309.102539,4266.153809,4478.717773,4497.948730,4345.128418,4415.897461,1561.000000,1.000000,19.000000,,,,0.000000,2.000000,2.000000,0.000000,4.000000,2.000000,2.000000,0.000000,0.000000,4.000000,4.000000,4.000000,4.000000,4.000000,4.000000,0.000000,,,,,,,,,,,,,,,,,,,,,,,,,,,,
1732158741.990397,1732158741.994678,86.000000,0.000000,4310.512695,4307.820313,4300.641113,4310.512695,4279.615234,4280.512695,4330.000000,4393.461426,4306.282227,4263.846191,4474.358887,4497.436035,4340.000000,4416.538574,1563.000000,1.000000,19.000000,,,,0.000000,2.000000,2.000000,0.000000,4.000000,2.000000,2.000000,0.000000,0.000000,4.000000,4.000000,4.000000,4.000000,4.000000,4.000000,0.000000,,,,,,,,,,,,,,,,,,,,,,,,,,,,
1732158741.998205,1732158742.002486,87.000000,0.000000,4312.307617,4305.128418,4301.153809,4313.461426,4277.948730,4281.282227,4329.230957,4396.025879,4302.307617,4272.563965,4479.230957,4502.692383,4341.153809,4420.512695,1554.000000,1.000000,19.000000,,,,0.000000,2.000000,2.000000,0.000000,4.000000,2.000000,2.000000,0.000000,0.000000,4.000000,4.000000,4.000000,4.000000,4.000000,4.000000,0.000000,,,,,,,,,,,,,,,,,,,,,,,,,,,,
1732158742.006013,1732158742.010194,88.000000,0.000000,4302.051270,4300.897461,4302.948730,4308.077148,4277.179688,4280.512695,4333.589844,4397.948730,4304.487305,4278.717773,4479.487305,4495.641113,4343.205078,4417.307617,1706.000000,1.000000,19.000000,,,,0.000000,2.000000,2.000000,0.000000,4.000000,2.000000,2.000000,0.000000,0.000000,4.000000,4.000000,4.000000,4.000000,4.000000,4.000000,0.000000,,,,,,,,,,,,,,,,,22.000000,0.000000,0.531022,0.547058,-0.461975,0.453125,0.938591,0.152851,-0.026370,-32.843918,47.660759,31.034702
1732158742.013821,1732158742.018002,89.000000,0.000000,4295.897461,4303.077148,4305.000000,4300.384766,4277.820313,4282.563965,4335.897461,4398.077148,4311.922852,4278.846191,4476.410156,4489.230957,4342.179688,4412.692383,1561.000000,1.000000,19.000000,,,,0.000000,2.000000,2.000000,0.000000,4.000000,2.000000,2.000000,0.000000,0.000000,4.000000,4.000000,4.000000,4.000000,4.000000,4.000000,0.000000,,,,,,,,,,,,,,,,,,,,,,,,,,,,
1732158742.021630,1732158742.025611,90.000000,0.000000,4299.102539,4304.102539,4310.000000,4301.153809,4277.436035,4284.358887,4334.871582,4398.333496,4312.820313,4278.589844,4475.641113,4490.000000,4338.461426,4412.179688,1563.000000,1.000000,19.000000,,,,0.000000,2.000000,2.000000,0.000000,4.000000,2.000000,2.000000,0.000000,0.000000,4.000000,4.000000,4.000000,4.000000,4.000000,4.000000,0.000000,,,,,,,,,,,,,,,,,,,,,,,,,,,,
1732158742.029438,1732158742.033419,91.000000,0.000000,4298.077148,4301.538574,4313.974121,4304.487305,4275.897461,4280.128418,4334.487305,4397.692383,4309.230957,4279.487305,4475.641113,4488.846191,4337.436035,4412.436035,1554.000000,1.000000,19.000000,,,,0.000000,2.000000,2.000000,0.000000,4.000000,2.000000,2.000000,0.000000,0.000000,4.000000,4.000000,4.000000,4.000000,4.000000,4.000000,0.000000,,,,,,,,,,,,,,,,,,,,,,,,,,,,
1732158742.037246,1732158742.041127,92.000000,0.000000,4296.666504,4302.692383,4314.615234,4305.384766,4274.871582,4277.820313,4334.615234,4398.205078,4310.384766,4281.922852,4478.589844,4493.589844,4342.436035,4413.333496,1706.000000,1.000000,19.000000,,,,0.000000,2.000000,2.000000,0.000000,4.000000,2.000000,2.000000,0.000000,0.000000,4.000000,4.000000,4.000000,4.000000,4.000000,4.000000,0.000000,,,,,,,,,,,,,,,,,23.000000,0.000000,0.527821,0.542419,-0.469788,0.454407,0.927848,0.149432,-0.056159,-33.116905,47.573547,31.109776
1732158742.045055,1732158742.048935,93.000000,0.000000,4302.692383,4304.487305,4315.256348,4305.641113,4277.307617,4280.256348,4334.615234,4400.256348,4309.230957,4282.820313,4480.512695,4505.384766,4344.230957,4415.769043,1561.000000,1.000000,19.000000,,,,0.000000,2.000000,2.000000,0.000000,4.000000,2.000000,2.000000,0.000000,0.000000,4.000000,4.000000,4.000000,4.000000,4.000000,4.000000,0.000000,,,,,,,,,,,,,,,,,,,,,,,,,,,,
1732158742.052863,1732158742.056943,94.000000,0.000000,4306.666504,4304.615234,4317.563965,4302.692383,4277.051270,4278.333496,4335.000000,4400.128418,4302.436035,4278.846191,4479.230957,4507.948730,4341.410156,4416.153809,1563.000000,1.000000,19.000000,,,,0.000000,2.000000,2.000000,0.000000,4.000000,2.000000,2.000000,0.000000,0.000000,4.000000,4.000000,4.000000,4.000000,4.000000,4.000000,0.000000,,,,,,,,,,,,,,,,,,,,,,,,,,,,
1732158742.060671,1732158742.064752,95.000000,0.000000,4303.333496,4305.769043,4319.487305,4302.179688,4270.897461,4274.615234,4334.487305,4401.025879,4303.077148,4279.358887,4477.179688,4505.256348,4341.794922,4416.538574,1554.000000,1.000000,19.000000,,,,0.000000,2.000000,2.000000,0.000000,4.000000,2.000000,2.000000,0.000000,0.000000,4.000000,4.000000,4.000000,4.000000,4.000000,4.000000,0.000000,,,,,,,,,,,,,,,,,,,,,,,,,,,,
1732158742.068479,1732158742.072460,96.000000,0.000000,4301.025879,4306.922852,4318.077148,4304.871582,4271.538574,4277.436035,4334.615234,4402.436035,4310.256348,4289.358887,4477.436035,4504.615234,4342.051270,4416.794922,1706.000000,1.000000,19.000000,,,,0.000000,2.000000,2.000000,0.000000,4.000000,2.000000,2.000000,0.000000,0.000000,4.000000,4.000000,4.000000,4.000000,4.000000,4.000000,0.000000,,,,,,,,,,,,,,,,,24.000000,0.000000,0.527053,0.539673,-0.473328,0.454895,0.948846,0.164083,-0.042486,-33.221359,47.369576,31.120584
1732158742.076288,1732158742.080268,97.000000,0.000000,4302.436035,4306.282227,4317.179688,4304.615234,4278.589844,4281.410156,4334.871582,4399.487305,4310.897461,4290.256348,4479.230957,4506.410156,4340.641113,4413.974121,1561.000000,1.000000,19.000000,,,,0.000000,2.000000,2.000000,0.000000,4.000000,2.000000,2.000000,0.000000,0.000000,4.000000,4.000000,4.000000,4.000000,4.000000,4.000000,0.000000,,,,,,,,,,,,,,,,,,,,,,,,,,,,
1732158742.084096,1732158742.087877,98.000000,0.000000,4308.333496,4305.641113,4318.846191,4305.769043,4278.333496,4280.897461,4334.743652,4399.487305,4307.051270,4282.563965,4478.333496,4506.153809,4341.794922,4414.487305,1563.000000,1.000000,19.000000,,,,0.000000,2.000000,2.000000,0.000000,4.000000,2.000000,2.000000,0.000000,0.000000,4.000000,4.000000,4.000000,4.000000,4.000000,4.000000,0.000000,,,,,,,,,,,,,,,,,,,,,,,,,,,,
1732158742.091904,1732158742.095685,99.000000,0.000000,4311.666504,4308.717773,4320.897461,4309.871582,4277.820313,4280.897461,4334.358887,4403.205078,4311.794922,4283.205078,4477.307617,4505.000000,4342.563965,4418.461426,1554.000000,1.000000,19.000000,,,,0.000000,2.000000,2.000000,0.000000,4.000000,2.000000,2.000000,0.000000,0.000000,4.000000,4.000000,4.000000,4.000000,4.000000,4.000000,0.000000,,,,,,,,,,,,,,,,,,,,,,,,,,,,
1732158742.099712,1732158742.103393,100.000000,0.000000,4305.641113,4310.512695,4321.794922,4308.077148,4278.974121,4280.897461,4335.641113,4402.692383,4314.358887,4285.512695,4477.692383,4506.794922,4339.743652,4415.769043,1706.000000,1.000000,19.000000,,,,0.000000,2.000000,2.000000,0.000000,4.000000,2.000000,2.000000,0.000000,0.000000,4.000000,4.000000,4.000000,4.000000,4.000000,4.000000,0.000000,,,,,,,,,,,,,,,,,25.000000,0.000000,0.526658,0.538452,-0.475037,0.455017,0.959590,0.182639,-0.047857,-33.400970,47.172688,31.256006
1732158742.107520,1732158742.111201,101.000000,0.000000,4303.846191,4305.384766,4322.692383,4303.717773,4271.794922,4279.487305,4336.922852,4401.410156,4302.563965,4280.641113,4475.384766,4507.179688,4337.563965,4413.461426,1561.000000,1.000000,19.000000,,,,0.000000,2.000000,2.000000,0.000000,4.000000,2.000000,2.000000,0.000000,0.000000,4.000000,4.000000,4.000000,4.000000,4.000000,4.000000,0.000000,,,,,,,,,,,,,,,,,,,,,,,,,,,,
1732158742.115329,1732158742.118810,102.000000,0.000000,4310.769043,4305.256348,4324.102539,4307.563965,4268.461426,4279.871582,4335.641113,4402.307617,4294.358887,4277.051270,4475.000000,4505.641113,4338.589844,4422.307617,1563.000000,1.000000,19.000000,,,,0.000000,2.000000,2.000000,0.000000,4.000000,2.000000,2.000000,0.000000,0.000000,4.000000,4.000000,4.000000,4.000000,4.000000,4.000000,0.000000,,,,,,,,,,,,,,,,,,,,,,,,,,,,
1732158742.123137,1732158742.126618,103.000000,0.000000,4313.717773,4310.128418,4323.205078,4308.974121,4272.692383,4281.025879,4334.487305,4403.077148,4305.000000,4279.230957,4481.666504,4510.128418,4341.282227,4429.743652,1554.000000,1.000000,19.000000,,,,0.000000,2.000000,2.000000,0.000000,4.000000,2.000000,2.000000,0.000000,0.000000,4.000000,4.000000,4.000000,4.000000,4.000000,4.000000,0.000000,,,,,,,,,,,,,,,,,,,,,,,,,,,,
1732158742.130945,1732158742.134326,104.000000,0.000000,4310.641113,4301.410156,4319.102539,4300.384766,4270.128418,4280.384766,4336.794922,4402.307617,4318.461426,4287.436035,4489.102539,4513.589844,4347.563965,4426.666504,1706.000000,1.000000,19.000000,,,,0.000000,2.000000,2.000000,0.000000,4.000000,2.000000,2.000000,0.000000,0.000000,4.000000,4.000000,4.000000,4.000000,4.000000,4.000000,0.000000,,,,,,,,,,,,,,,,,26.000000,0.000000,0.525161,0.534973,-0.479492,0.456177,0.948358,0.172384,-0.038579,-33.546452,46.854877,30.954033
1732158742.138754,1732158742.142134,105.000000,0.000000,4309.743652,4293.205078,4317.563965,4298.846191,4265.384766,4274.102539,4338.717773,4401.666504,4316.666504,4292.948730,4490.641113,4512.051270,4351.538574,4427.563965,1561.000000,1.000000,19.000000,,,,0.000000,2.000000,2.000000,0.000000,4.000000,2.000000,2.000000,0.000000,0.000000,4.000000,4.000000,4.000000,4.000000,4.000000,4.000000,0.000000,,,,,,,,,,,,,,,,,,,,,,,,,,,,
1732158742.146562,1732158742.150142,106.000000,0.000000,4312.436035,4302.436035,4317.948730,4307.179688,4267.820313,4270.256348,4337.436035,4400.897461,4311.922852,4286.922852,4486.153809,4511.410156,4344.358887,4431.153809,1563.000000,1.000000,19.000000,,,,0.000000,2.000000,2.000000,0.000000,4.000000,2.000000,2.000000,0.000000,0.000000,4.000000,4.000000,4.000000,4.000000,4.000000,4.000000,0.000000,,,,,,,,,,,,,,,,,,,,,,,,,,,,
1732158742.154370,1732158742.157951,107.000000,0.000000,4317.179688,4309.358887,4317.820313,4310.641113,4269.615234,4278.846191,4336.538574,4401.538574,4311.282227,4279.743652,4483.846191,4516.025879,4337.179688,4429.487305,1554.000000,1.000000,19.000000,,,,0.000000,2.000000,2.000000,0.000000,4.000000,2.000000,2.000000,0.000000,0.000000,4.000000,4.000000,4.000000,4.000000,4.000000,4.000000,0.000000,,,,,,,,,,,,,,,,,,,,,,,,,,,,
1732158742.162178,1732158742.165859,108.000000,0.000000,4322.307617,4306.666504,4319.102539,4308.974121,4267.436035,4281.666504,4336.794922,4401.922852,4308.205078,4280.897461,4487.563965,4520.769043,4345.128418,4434.615234,1706.000000,1.000000,19.000000,,,,0.000000,2.000000,2.000000,0.000000,4.000000,2.000000,2.000000,0.000000,0.000000,4.000000,4.000000,4.000000,4.000000,4.000000,4.000000,0.000000,,,,,,,,,,,,,,,,,27.000000,0.000000,0.522560,0.529968,-0.484253,0.459961,0.946405,0.143572,-0.029300,-33.775959,46.810783,31.059433
1732158742.169987,1732158742.173667,109.000000,0.000000,4324.358887,4310.641113,4320.641113,4307.820313,4266.153809,4269.230957,4335.256348,4401.666504,4307.563965,4283.461426,4491.922852,4522.307617,4355.641113,4443.974121,1561.000000,1.000000,19.000000,,,,0.000000,2.000000,2.000000,0.000000,4.000000,2.000000,2.000000,0.000000,0.000000,4.000000,4.000000,4.000000,4.000000,4.000000,4.000000,0.000000,,,,,,,,,,,,,,,,,,,,,,,,,,,,
1732158742.177795,1732158742.181675,110.000000,0.000000,4328.077148,4314.230957,4321.282227,4305.512695,4265.256348,4262.948730,4334.743652,4400.897461,4305.384766,4286.538574,4490.897461,4521.025879,4358.077148,4445.641113,1563.000000,1.000000,19.000000,,,,0.000000,2.000000,2.000000,0.000000,4.000000,2.000000,2.000000,0.000000,0.000000,4.000000,4.000000,4.000000,4.000000,4.000000,4.000000,0.000000,,,,,,,,,,,,,,,,,,,,,,,,,,,,
1732158742.185603,1732158742.189483,111.000000,0.000000,4334.358887,4305.512695,4321.410156,4303.974121,4265.769043,4265.512695,4337.436035,4403.846191,4299.358887,4287.179688,4489.487305,4521.794922,4360.769043,4446.538574,1554.000000,1.000000,19.000000,,,,0.000000,2.000000,2.000000,0.000000,4.000000,2.000000,2.000000,0.000000,0.000000,4.000000,4.000000,4.000000,4.000000,4.000000,4.000000,0.000000,,,,,,,,,,,,,,,,,,,,,,,,,,,,
1732158742.193411,1732158742.197391,112.000000,0.000000,4336.153809,4301.666504,4323.461426,4304.487305,4265.128418,4266.538574,4339.358887,4406.538574,4295.769043,4277.692383,4488.717773,4520.641113,4364.358887,4446.666504,1706.000000,1.000000,19.000000,,,,0.000000,2.000000,2.000000,0.000000,4.000000,2.000000,2.000000,0.000000,0.000000,4.000000,4.000000,4.000000,4.000000,4.000000,4.000000,0.000000,,,,,,,,,,,,,,,,,28.000000,0.000000,0.520677,0.526611,-0.487549,0.462463,0.987914,0.108900,-0.037114,-33.876862,46.943401,31.308140
1732158742.201220,1732158742.205200,113.000000,0.000000,4334.358887,4308.589844,4325.769043,4308.333496,4265.128418,4267.307617,4339.102539,4404.358887,4296.410156,4273.205078,4489.743652,4515.641113,4366.282227,4444.871582,1561.000000,1.000000,19.000000,,,,0.000000,2.000000,2.000000,0.000000,4.000000,2.000000,2.000000,0.000000,0.000000,4.000000,4.000000,4.000000,4.000000,4.000000,4.000000,0.000000,,,,,,,,,,,,,,,,,,,,,,,,,,,,
1732158742.209028,1732158742.213208,114.000000,0.000000,4338.589844,4309.615234,4325.000000,4309.487305,4267.436035,4270.000000,4338.974121,4405.641113,4298.461426,4279.615234,4498.717773,4517.179688,4372.307617,4452.692383,1563.000000,1.000000,19.000000,,,,0.000000,2.000000,2.000000,0.000000,4.000000,2.000000,2.000000,0.000000,0.000000,4.000000,4.000000,4.000000,4.000000,4.000000,4.000000,0.000000,,,,,,,,,,,,,,,,,,,,,,,,,,,,
1732158742.216836,1732158742.221016,115.000000,0.000000,4343.077148,4303.077148,4320.384766,4305.769043,4268.461426,4275.128418,4339.230957,4407.948730,4307.307617,4285.897461,4505.384766,4523.589844,4379.487305,4460.769043,1554.000000,1.000000,19.000000,,,,0.000000,2.000000,2.000000,0.000000,4.000000,2.000000,2.000000,0.000000,0.000000,4.000000,4.000000,4.000000,4.000000,4.000000,4.000000,0.000000,,,,,,,,,,,,,,,,,,,,,,,,,,,,
1732158742.224644,1732158742.228924,116.000000,0.000000,4340.641113,4298.717773,4321.153809,4301.153809,4265.256348,4273.333496,4339.102539,4403.717773,4311.025879,4290.641113,4505.641113,4527.307617,4382.051270,4460.384766,1706.000000,1.000000,19.000000,,,,0.000000,2.000000,2.000000,0.000000,4.000000,2.000000,2.000000,0.000000,0.000000,4.000000,4.000000,4.000000,4.000000,4.000000,4.000000,0.000000,,,,,,,,,,,,,,,,,29.000000,0.000000,0.519101,0.524902,-0.489502,0.464111,0.983030,0.064949,-0.038579,-33.861923,46.637489,31.176260
1732158742.232453,1732158742.236732,117.000000,0.000000,4344.230957,4301.410156,4325.641113,4298.461426,4260.641113,4264.487305,4339.102539,4402.179688,4305.512695,4295.256348,4508.205078,4527.563965,4386.282227,4467.051270,1561.000000,1.000000,19.000000,,,,0.000000,2.000000,2.000000,0.000000,4.000000,2.000000,2.000000,0.000000,0.000000,4.000000,4.000000,4.000000,4.000000,4.000000,4.000000,0.000000,,,,,,,,,,,,,,,,,,,,,,,,,,,,
1732158742.240261,1732158742.244740,118.000000,0.000000,4353.205078,4301.666504,4324.743652,4297.692383,4262.692383,4267.179688,4339.102539,4410.769043,4310.256348,4297.179688,4511.794922,4530.512695,4390.000000,4475.897461,1563.000000,1.000000,19.000000,,,,0.000000,2.000000,2.000000,0.000000,4.000000,2.000000,2.000000,0.000000,0.000000,4.000000,4.000000,4.000000,4.000000,4.000000,4.000000,0.000000,,,,,,,,,,,,,,,,,,,,,,,,,,,,
1732158742.248069,1732158742.252548,119.000000,0.000000,4353.205078,4295.000000,4322.307617,4294.487305,4263.974121,4274.487305,4339.102539,4410.641113,4307.692383,4291.538574,4509.102539,4532.948730,4386.666504,4474.102539,1554.000000,1.000000,19.000000,,,,0.000000,2.000000,2.000000,0.000000,4.000000,2.000000,2.000000,0.000000,0.000000,4.000000,4.000000,4.000000,4.000000,4.000000,4.000000,0.000000,,,,,,,,,,,,,,,,,,,,,,,,,,,,
1732158742.255877,1732158742.260456,120.000000,0.000000,4348.461426,4291.282227,4323.205078,4292.179688,4255.384766,4267.051270,4339.102539,4401.666504,4291.922852,4287.179688,4507.307617,4532.051270,4387.563965,4474.102539,1706.000000,1.000000,19.000000,,,,0.000000,2.000000,2.000000,0.000000,4.000000,2.000000,2.000000,0.000000,0.000000,4.000000,4.000000,4.000000,4.000000,4.000000,4.000000,0.000000,,,,,,,,,,,,,,,,,30.000000,0.000000,0.512685,0.517029,-0.497925,0.471069,0.948358,0.036626,-0.053229,-34.104824,46.511364,31.457771
1732158742.263686,1732158742.268265,121.000000,0.000000,4349.615234,4292.051270,4323.205078,4290.512695,4248.589844,4259.615234,4339.102539,4402.436035,4297.948730,4292.563965,4508.846191,4532.948730,4392.307617,4477.563965,1561.000000,1.000000,19.000000,,,,0.000000,2.000000,2.000000,0.000000,4.000000,2.000000,2.000000,0.000000,0.000000,4.000000,4.000000,4.000000,4.000000,4.000000,4.000000,0.000000,,,,,,,,,,,,,,,,,,,,,,,,,,,,
1732158742.271494,1732158742.276273,122.000000,0.000000,4350.384766,4287.563965,4323.589844,4286.282227,4250.000000,4265.897461,4339.102539,4411.025879,4313.461426,4297.307617,4507.179688,4536.282227,4387.563965,4476.025879,1563.000000,1.000000,19.000000,,,,0.000000,2.000000,2.000000,0.000000,4.000000,2.000000,2.000000,0.000000,0.000000,4.000000,4.000000,4.000000,4.000000,4.000000,4.000000,0.000000,,,,,,,,,,,,,,,,,,,,,,,,,,,,
1732158742.279302,1732158742.284081,123.000000,0.000000,4349.102539,4279.230957,4325.128418,4282.563965,4251.153809,4266.794922,4339.102539,4412.948730,4308.333496,4293.205078,4510.897461,4539.358887,4383.717773,4481.153809,1554.000000,1.000000,19.000000,,,,0.000000,2.000000,2.000000,0.000000,4.000000,2.000000,2.000000,0.000000,0.000000,4.000000,4.000000,4.000000,4.000000,4.000000,4.000000,0.000000,,,,,,,,,,,,,,,,,,,,,,,,,,,,
1732158742.287110,1732158742.291989,124.000000,0.000000,4350.897461,4280.897461,4325.512695,4281.410156,4248.333496,4257.179688,4339.102539,4407.307617,4297.563965,4297.179688,4519.615234,4538.589844,4393.589844,4491.282227,1706.000000,1.000000,19.000000,,,,0.000000,2.000000,2.000000,0.000000,4.000000,2.000000,2.000000,0.000000,0.000000,4.000000,4.000000,4.000000,4.000000,4.000000,4.000000,0.000000,,,,,,,,,,,,,,,,,31.000000,0.000000,0.510285,0.512939,-0.501709,0.474121,0.954218,0.024417,-0.035649,-34.183243,46.365871,31.500795
1732158742.294919,1732158742.299797,125.000000,0.000000,4355.769043,4288.717773,4324.871582,4283.846191,4247.307617,4254.615234,4339.102539,4404.871582,4301.922852,4305.769043,4524.102539,4540.512695,4402.179688,4495.000000,1561.000000,1.000000,19.000000,,,,0.000000,2.000000,2.000000,0.000000,4.000000,2.000000,2.000000,0.000000,0.000000,4.000000,4.000000,4.000000,4.000000,4.000000,4.000000,0.000000,,,,,,,,,,,,,,,,,,,,,,,,,,,,
1732158742.302727,1732158742.307805,126.000000,0.000000,4358.333496,4291.153809,4324.358887,4289.102539,4250.512695,4262.948730,4339.102539,4406.282227,4308.846191,4298.589844,4522.820313,4542.563965,4400.128418,4494.230957,1563.000000,1.000000,19.000000,,,,0.000000,2.000000,2.000000,0.000000,4.000000,2.000000,2.000000,0.000000,0.000000,4.000000,4.000000,4.000000,4.000000,4.000000,4.000000,0.000000,,,,,,,,,,,,,,,,,,,,,,,,,,,,
1732158742.310535,1732158742.315613,127.000000,0.000000,4352.692383,4286.153809,4325.769043,4288.717773,4251.794922,4265.000000,4339.102539,4408.589844,4305.384766,4291.922852,4521.410156,4538.333496,4397.948730,4493.333496,19.000000,1.000000,19.000000,,,,0.000000,2.000000,2.000000,0.000000,4.000000,2.000000,2.000000,0.000000,0.000000,4.000000,4.000000,4.000000,4.000000,4.000000,4.000000,0.000000,,,,,,,,,,,,,,,,,,,,,,,,,,,,
1732158742.318343,1732158742.323322,0.000000,0.000000,4349.102539,4281.794922,4327.179688,4281.922852,4248.974121,4259.871582,4339.102539,4410.641113,4301.794922,4298.333496,4521.282227,4537.820313,4398.717773,4492.179688,0.000000,1.000000,19.000000,,,,0.000000,2.000000,2.000000,0.000000,4.000000,2.000000,2.000000,0.000000,0.000000,4.000000,4.000000,4.000000,4.000000,4.000000,4.000000,0.000000,,,,,,,,,,,,,,,,,0.000000,0.000000,0.510285,0.512939,-0.501709,0.474121,0.979612,0.022952,-0.044439,-34.306759,46.203022,31.595644
1732158742.326152,1732158742.331130,1.000000,0.000000,4355.512695,4287.692383,4326.538574,4285.256348,4250.512695,4260.512695,4339.102539,4409.871582,4301.282227,4300.384766,4521.666504,4543.717773,4399.230957,4493.589844,1609.000000,1.000000,19.000000,,,,0.000000,2.000000,2.000000,0.000000,4.000000,2.000000,2.000000,0.000000,0.000000,4.000000,4.000000,4.000000,4.000000,4.000000,4.000000,0.000000,,,,,,,,,,,,,,,,,,,,,,,,,,,,
1732158742.333960,1732158742.338738,2.000000,0.000000,4359.743652,4292.948730,4324.871582,4293.589844,4259.743652,4262.820313,4339.102539,4408.717773,4300.384766,4297.307617,4522.692383,4545.128418,4400.769043,4496.410156,1357.000000,1.000000,19.000000,,,,0.000000,2.000000,2.000000,0.000000,4.000000,2.000000,2.000000,0.000000,0.000000,4.000000,4.000000,4.000000,4.000000,4.000000,4.000000,0.000000,,,,,,,,,,,,,,,,,,,,,,,,,,,,
1732158742.341768,1732158742.346546,3.000000,0.000000,4354.487305,4287.820313,4324.615234,4289.615234,4265.000000,4263.077148,4338.846191,4410.000000,4307.179688,4303.974121,4522.179688,4543.846191,4401.025879,4494.487305,1426.000000,1.000000,19.000000,,,,0.000000,2.000000,2.000000,0.000000,4.000000,2.000000,2.000000,0.000000,0.000000,4.000000,4.000000,4.000000,4.000000,4.000000,4.000000,0.000000,,,,,,,,,,,,,,,,,,,,,,,,,,,,
1732158742.349576,1732158742.354255,4.000000,0.000000,4351.282227,4286.666504,4322.820313,4290.384766,4263.589844,4265.769043,4338.589844,4410.128418,4315.384766,4309.743652,4520.769043,4543.717773,4398.333496,4490.897461,1432.000000,1.000000,19.000000,,,,0.000000,2.000000,2.000000,0.000000,4.000000,2.000000,2.000000,0.000000,0.000000,4.000000,4.000000,4.000000,4.000000,4.000000,4.000000,0.000000,,,,,,,,,,,,,,,,,1.000000,0.000000,0.506049,0.505798,-0.507874,0.479736,0.986937,-0.013185,-0.041021,-34.470142,46.099449,31.787472
1732158742.357385,1732158742.362063,5.000000,0.000000,4352.307617,4293.461426,4325.384766,4296.922852,4260.897461,4263.589844,4339.871582,4407.948730,4304.230957,4303.461426,4520.256348,4542.436035,4397.692383,4490.897461,1200.000000,1.000000,19.000000,,,,0.000000,2.000000,2.000000,0.000000,4.000000,2.000000,2.000000,0.000000,0.000000,4.000000,4.000000,4.000000,4.000000,4.000000,4.000000,0.000000,,,,,,,,,,,,,,,,,,,,,,,,,,,,
1732158742.365193,1732158742.369671,6.000000,0.000000,4350.384766,4296.153809,4324.487305,4295.384766,4261.153809,4264.102539,4339.358887,4408.077148,4293.077148,4298.205078,4523.077148,4543.205078,4402.563965,4492.820313,0.000000,1.000000,19.000000,,,,0.000000,2.000000,2.000000,0.000000,4.000000,2.000000,2.000000,0.000000,0.000000,4.000000,4.000000,4.000000,4.000000,4.000000,4.000000,0.000000,,,,,,,,,,,,,,,,,,,,,,,,,,,,
1732158742.373001,1732158742.377480,7.000000,0.000000,4349.230957,4289.743652,4321.666504,4293.333496,4262.563965,4267.692383,4337.563965,4409.871582,4305.000000,4303.461426,4524.230957,4547.307617,4402.692383,4492.179688,0.000000,1.000000,19.000000,,,,0.000000,2.000000,2.000000,0.000000,4.000000,2.000000,2.000000,0.000000,0.000000,4.000000,4.000000,4.000000,4.000000,4.000000,4.000000,0.000000,,,,,,,,,,,,,,,,,,,,,,,,,,,,
1732158742.380809,1732158742.385188,8.000000,0.000000,4350.769043,4284.743652,4343.717773,4287.563965,4255.769043,4256.666504,4343.589844,4413.205078,4305.384766,4309.871582,4520.256348,4545.512695,4396.794922,4491.025879,1533.000000,1.000000,19.000000,,,,0.000000,2.000000,2.000000,0.000000,4.000000,2.000000,2.000000,0.000000,0.000000,4.000000,4.000000,4.000000,4.000000,4.000000,4.000000,0.000000,,,,,,,,,,,,,,,,,2.000000,0.000000,0.502534,0.500671,-0.512024,0.484375,0.990355,-0.041997,-0.016115,-34.502480,45.902222,31.851185
1732158742.388618,1732158742.392996,9.000000,0.000000,4350.000000,4282.563965,4362.307617,4280.256348,4247.051270,4247.948730,4347.692383,4415.769043,4293.461426,4303.333496,4519.230957,4546.282227,4395.641113,4491.282227,1693.000000,1.000000,19.000000,,,,0.000000,2.000000,2.000000,0.000000,4.000000,2.000000,2.000000,0.000000,0.000000,4.000000,4.000000,4.000000,4.000000,4.000000,4.000000,0.000000,,,,,,,,,,,,,,,,,,,,,,,,,,,,
1732158742.396426,1732158742.400605,10.000000,0.000000,4348.974121,4282.307617,4337.179688,4285.000000,4253.077148,4260.256348,4339.358887,4413.589844,4303.846191,4298.077148,4522.179688,4547.948730,4398.461426,4491.794922,1554.000000,1.000000,19.000000,,,,0.000000,2.000000,2.000000,0.000000,4.000000,2.000000,2.000000,0.000000,0.000000,4.000000,4.000000,4.000000,4.000000,4.000000,4.000000,0.000000,,,,,,,,,,,,,,,,,,,,,,,,,,,,
1732158742.404234,1732158742.408413,11.000000,0.000000,4351.666504,4285.897461,4311.153809,4294.743652,4264.615234,4268.974121,4332.179688,4404.871582,4317.051270,4305.769043,4523.333496,4545.000000,4399.358887,4493.846191,1546.000000,1.000000,19.000000,,,,0.000000,2.000000,2.000000,0.000000,4.000000,2.000000,2.000000,0.000000,0.000000,4.000000,4.000000,4.000000,4.000000,4.000000,4.000000,0.000000,,,,,,,,,,,,,,,,,,,,,,,,,,,,
1732158742.412043,1732158742.416121,12.000000,0.000000,4349.615234,4289.487305,4318.717773,4295.384766,4265.769043,4263.846191,4334.487305,4400.641113,4309.871582,4314.487305,4522.563965,4545.000000,4399.230957,4494.102539,1701.000000,1.000000,19.000000,,,,0.000000,2.000000,2.000000,0.000000,4.000000,2.000000,2.000000,0.000000,0.000000,4.000000,4.000000,4.000000,4.000000,4.000000,4.000000,0.000000,,,,,,,,,,,,,,,,,3.000000,0.000000,0.499243,0.495544,-0.515808,0.489014,0.987425,-0.057624,-0.014650,-34.388676,45.850800,31.736126
1732158742.419851,1732158742.423929,13.000000,0.000000,4343.461426,4292.051270,4324.230957,4292.820313,4262.948730,4263.846191,4335.384766,4400.897461,4303.717773,4311.794922,4522.436035,4545.256348,4399.102539,4490.769043,1563.000000,1.000000,19.000000,,,,0.000000,2.000000,2.000000,0.000000,4.000000,2.000000,2.000000,0.000000,0.000000,4.000000,4.000000,4.000000,4.000000,4.000000,4.000000,0.000000,,,,,,,,,,,,,,,,,,,,,,,,,,,,
1732158742.427659,1732158742.431538,14.000000,0.000000,4345.384766,4290.128418,4318.846191,4291.025879,4263.717773,4267.436035,4333.333496,4403.205078,4311.666504,4307.948730,4522.948730,4543.461426,4398.717773,4488.333496,1554.000000,1.000000,19.000000,,,,0.000000,2.000000,2.000000,0.000000,4.000000,2.000000,2.000000,0.000000,0.000000,4.000000,4.000000,4.000000,4.000000,4.000000,4.000000,0.000000,1.000000,0.000000,2.000000,2.000000,0.000000,4.000000,2.000000,2.000000,0.000000,0.000000,4.000000,4.000000,4.000000,4.000000,3.000000,3.000000,,,,,,,,,,,,
1732158742.435467,1732158742.439346,15.000000,0.000000,4348.205078,4289.615234,4322.051270,4290.000000,4264.871582,4265.000000,4334.615234,4403.974121,4316.282227,4316.153809,4522.820313,4547.436035,4400.384766,4489.871582,1546.000000,1.000000,19.000000,,,,0.000000,2.000000,2.000000,0.000000,4.000000,2.000000,2.000000,0.000000,0.000000,4.000000,4.000000,4.000000,4.000000,4.000000,4.000000,0.000000,,,,,,,,,,,,,,,,,,,,,,,,,,,,
1732158742.443275,1732158742.447054,16.000000,0.000000,4344.743652,4295.128418,4323.846191,4294.743652,4264.487305,4265.128418,4335.128418,4403.205078,4311.666504,4318.589844,4523.846191,4550.256348,4400.769043,4492.563965,0.000000,1.000000,19.000000,,,,0.000000,2.000000,2.000000,0.000000,4.000000,2.000000,2.000000,0.000000,0.000000,4.000000,4.000000,4.000000,4.000000,4.000000,4.000000,0.000000,,,,,,,,,,,,,,,,,4.000000,0.000000,0.498168,0.493896,-0.517151,0.490356,0.987425,-0.057624,-0.014650,-34.916496,45.752480,31.881262
1732158742.451084,1732158742.454862,17.000000,0.000000,4339.743652,4299.615234,4317.820313,4293.974121,4265.128418,4266.538574,4333.717773,4405.512695,4308.333496,4311.282227,4523.974121,4544.230957,4397.436035,4487.948730,0.000000,1.000000,19.000000,,,,0.000000,2.000000,2.000000,0.000000,4.000000,2.000000,2.000000,0.000000,0.000000,4.000000,4.000000,4.000000,4.000000,4.000000,4.000000,0.000000,,,,,,,,,,,,,,,,,,,,,,,,,,,,
1732158742.458892,1732158742.462471,18.000000,0.000000,4336.282227,4290.384766,4316.153809,4286.538574,4265.641113,4265.769043,4332.692383,4404.743652,4310.897461,4309.102539,4515.256348,4540.384766,4395.000000,4475.769043,0.000000,1.000000,19.000000,,,,0.000000,2.000000,2.000000,0.000000,4.000000,2.000000,2.000000,0.000000,0.000000,4.000000,4.000000,4.000000,4.000000,4.000000,4.000000,0.000000,,,,,,,,,,,,,,,,,,,,,,,,,,,,
1732158742.466700,1732158742.470279,19.000000,0.000000,4336.794922,4280.769043,4319.743652,4288.205078,4265.128418,4266.666504,4332.436035,4401.025879,4312.563965,4316.794922,4512.179688,4543.205078,4395.256348,4475.128418,0.000000,1.000000,19.000000,,,,0.000000,2.000000,2.000000,0.000000,4.000000,2.000000,2.000000,0.000000,0.000000,4.000000,4.000000,4.000000,4.000000,4.000000,4.000000,0.000000,,,,,,,,,,,,,,,,,,,,,,,,,,,,
1732158742.474508,1732158742.478187,20.000000,0.000000,4342.563965,4283.974121,4321.922852,4292.307617,4263.717773,4262.948730,4332.692383,4403.846191,4309.615234,4321.025879,4518.717773,4540.384766,4398.461426,4487.563965,0.000000,1.000000,19.000000,,,,0.000000,2.000000,2.000000,0.000000,4.000000,2.000000,2.000000,0.000000,0.000000,4.000000,4.000000,4.000000,4.000000,4.000000,4.000000,0.000000,,,,,,,,,,,,,,,,,5.000000,0.000000,0.494240,0.487976,-0.522156,0.494934,0.985472,-0.101087,-0.019045,-34.885693,45.726177,31.885489
1732158742.482317,1732158742.485995,21.000000,0.000000,4342.948730,4284.358887,4320.769043,4292.179688,4263.717773,4263.333496,4332.563965,4408.461426,4309.615234,4317.051270,4516.282227,4536.410156,4397.948730,4486.153809,0.000000,1.000000,19.000000,,,,0.000000,2.000000,2.000000,0.000000,4.000000,2.000000,2.000000,0.000000,0.000000,4.000000,4.000000,4.000000,4.000000,4.000000,4.000000,0.000000,,,,,,,,,,,,,,,,,,,,,,,,,,,,
1732158742.490125,1732158742.494003,22.000000,0.000000,4336.153809,4281.153809,4321.025879,4295.128418,4266.538574,4273.461426,4332.563965,4409.615234,4312.563965,4322.051270,4507.948730,4543.717773,4390.128418,4475.000000,0.000000,1.000000,19.000000,,,,0.000000,2.000000,2.000000,0.000000,4.000000,2.000000,2.000000,0.000000,0.000000,4.000000,4.000000,4.000000,4.000000,4.000000,4.000000,0.000000,,,,,,,,,,,,,,,,,,,,,,,,,,,,
1732158742.497933,1732158742.501812,23.000000,0.000000,4333.846191,4281.153809,4322.820313,4297.692383,4267.563965,4274.871582,4332.692383,4408.974121,4314.487305,4325.769043,4510.000000,4550.769043,4386.538574,4479.871582,0.000000,1.000000,19.000000,,,,0.000000,2.000000,2.000000,0.000000,4.000000,2.000000,2.000000,0.000000,0.000000,4.000000,4.000000,4.000000,4.000000,4.000000,4.000000,0.000000,,,,,,,,,,,,,,,,,,,,,,,,,,,,
1732158742.505741,1732158742.509520,24.000000,0.000000,4337.436035,4284.743652,4322.820313,4294.615234,4267.436035,4264.743652,4332.692383,4405.641113,4311.538574,4313.589844,4511.666504,4549.358887,4388.077148,4491.666504,0.000000,1.000000,19.000000,,,,0.000000,2.000000,2.000000,0.000000,4.000000,2.000000,2.000000,0.000000,0.000000,4.000000,4.000000,4.000000,4.000000,4.000000,4.000000,0.000000,,,,,,,,,,,,,,,,,6.000000,0.000000,0.492858,0.485413,-0.524109,0.496765,0.987914,-0.105970,-0.020999,-35.189079,45.624870,32.058914
1732158742.513550,1732158742.517328,25.000000,0.000000,4339.230957,4287.948730,4322.179688,4292.820313,4266.410156,4261.410156,4332.692383,4399.487305,4302.179688,4305.512695,4508.077148,4546.538574,4387.436035,4490.256348,0.000000,1.000000,19.000000,,,,0.000000,2.000000,2.000000,0.000000,4.000000,2.000000,2.000000,0.000000,0.000000,4.000000,4.000000,4.000000,4.000000,4.000000,4.000000,0.000000,,,,,,,,,,,,,,,,,,,,,,,,,,,,
1732158742.521358,1732158742.524936,26.000000,0.000000,4336.922852,4288.205078,4321.282227,4296.410156,4264.230957,4264.230957,4332.692383,4400.000000,4301.794922,4317.563965,4514.871582,4546.666504,4387.563965,4486.922852,0.000000,1.000000,19.000000,,,,0.000000,2.000000,2.000000,0.000000,4.000000,2.000000,2.000000,0.000000,0.000000,4.000000,4.000000,4.000000,4.000000,4.000000,4.000000,0.000000,,,,,,,,,,,,,,,,,,,,,,,,,,,,
1732158742.529166,1732158742.532745,27.000000,0.000000,4334.615234,4284.102539,4321.153809,4295.641113,4263.461426,4263.717773,4332.692383,4402.820313,4311.922852,4324.615234,4521.025879,4549.230957,4391.153809,4489.487305,0.000000,1.000000,19.000000,,,,0.000000,2.000000,2.000000,0.000000,4.000000,2.000000,2.000000,0.000000,0.000000,4.000000,4.000000,4.000000,4.000000,4.000000,4.000000,0.000000,,,,,,,,,,,,,,,,,,,,,,,,,,,,
1732158742.536975,1732158742.540453,28.000000,0.000000,4333.205078,4280.384766,4321.410156,4287.820313,4264.102539,4265.128418,4332.692383,4401.922852,4313.846191,4316.666504,4520.897461,4551.538574,4390.897461,4484.743652,0.000000,1.000000,19.000000,,,,0.000000,2.000000,2.000000,0.000000,4.000000,2.000000,2.000000,0.000000,0.000000,4.000000,4.000000,4.000000,4.000000,4.000000,4.000000,0.000000,,,,,,,,,,,,,,,,,7.000000,0.000000,0.492397,0.484070,-0.525146,0.497437,0.975705,-0.104993,-0.023440,-35.156487,45.276142,31.796053
1732158742.544783,1732158742.548261,29.000000,0.000000,4327.179688,4280.000000,4319.230957,4282.051270,4268.846191,4272.051270,4332.692383,4402.307617,4311.538574,4318.846191,4520.000000,4547.563965,4384.615234,4475.384766,0.000000,1.000000,19.000000,,,,0.000000,2.000000,2.000000,0.000000,4.000000,2.000000,2.000000,0.000000,0.000000,4.000000,4.000000,4.000000,4.000000,4.000000,4.000000,0.000000,,,,,,,,,,,,,,,,,,,,,,,,,,,,
1732158742.552591,1732158742.556269,30.000000,0.000000,4322.563965,4282.307617,4317.179688,4287.692383,4271.025879,4274.615234,4332.563965,4401.794922,4315.897461,4326.025879,4512.563965,4540.000000,4381.025879,4471.410156,0.000000,1.000000,19.000000,,,,0.000000,2.000000,2.000000,0.000000,4.000000,2.000000,2.000000,0.000000,0.000000,4.000000,4.000000,4.000000,4.000000,4.000000,4.000000,0.000000,,,,,,,,,,,,,,,,,,,,,,,,,,,,
1732158742.560399,1732158742.564077,31.000000,0.000000,4328.589844,4287.692383,4320.512695,4297.051270,4276.025879,4271.538574,4332.436035,4401.538574,4316.153809,4320.641113,4507.820313,4541.794922,4383.974121,4474.230957,0.000000,1.000000,19.000000,,,,0.000000,2.000000,2.000000,0.000000,4.000000,2.000000,2.000000,0.000000,0.000000,4.000000,4.000000,4.000000,4.000000,4.000000,4.000000,0.000000,,,,,,,,,,,,,,,,,,,,,,,,,,,,
1732158742.568207,1732158742.571986,32.000000,0.000000,4335.769043,4290.769043,4323.077148,4296.410156,4288.077148,4264.102539,4332.563965,4404.230957,4311.666504,4310.897461,4515.897461,4546.410156,4385.384766,4477.948730,0.000000,1.000000,19.000000,,,,0.000000,2.000000,2.000000,0.000000,4.000000,2.000000,2.000000,0.000000,0.000000,4.000000,4.000000,4.000000,4.000000,4.000000,4.000000,0.000000,,,,,,,,,,,,,,,,,8.000000,0.000000,0.491816,0.481812,-0.526550,0.498718,0.980100,-0.109388,-0.015139,-35.570087,45.160343,31.803137
1732158742.576016,1732158742.579794,33.000000,0.000000,4336.282227,4292.948730,4322.051270,4295.769043,4283.717773,4262.436035,4332.820313,4402.948730,4310.769043,4310.769043,4522.948730,4550.384766,4382.436035,4477.307617,0.000000,1.000000,19.000000,,,,0.000000,2.000000,2.000000,0.000000,4.000000,2.000000,2.000000,0.000000,0.000000,4.000000,4.000000,4.000000,4.000000,4.000000,4.000000,0.000000,,,,,,,,,,,,,,,,,,,,,,,,,,,,
1732158742.583824,1732158742.587802,34.000000,0.000000,4335.512695,4296.410156,4319.102539,4301.538574,4263.461426,4272.179688,4332.051270,4399.871582,4309.358887,4317.948730,4521.282227,4555.384766,4386.922852,4478.077148,0.000000,1.000000,19.000000,,,,0.000000,2.000000,2.000000,0.000000,4.000000,2.000000,2.000000,0.000000,0.000000,4.000000,4.000000,4.000000,4.000000,4.000000,4.000000,0.000000,,,,,,,,,,,,,,,,,,,,,,,,,,,,
1732158742.591632,1732158742.595610,35.000000,0.000000,4333.846191,4292.820313,4318.333496,4299.871582,4259.487305,4279.102539,4332.692383,4404.102539,4316.282227,4319.358887,4517.051270,4551.538574,4388.846191,4478.589844,0.000000,1.000000,19.000000,,,,0.000000,2.000000,2.000000,0.000000,4.000000,2.000000,2.000000,0.000000,0.000000,4.000000,4.000000,4.000000,4.000000,4.000000,4.000000,0.000000,,,,,,,,,,,,,,,,,,,,,,,,,,,,
1732158742.599440,1732158742.603518,36.000000,0.000000,4329.102539,4285.128418,4318.717773,4294.102539,4273.974121,4279.230957,4335.384766,4410.641113,4325.128418,4313.589844,4509.358887,4540.000000,4378.717773,4471.282227,0.000000,1.000000,19.000000,,,,0.000000,2.000000,2.000000,0.000000,4.000000,2.000000,2.000000,0.000000,0.000000,4.000000,4.000000,4.000000,4.000000,4.000000,4.000000,0.000000,,,,,,,,,,,,,,,,,9.000000,0.000000,0.491382,0.478210,-0.528381,0.500671,0.989867,-0.085948,-0.012209,-35.553436,44.911545,31.690540
1732158742.607249,1732158742.611326,37.000000,0.000000,4321.666504,4282.179688,4321.153809,4293.717773,4278.461426,4281.153809,4335.256348,4407.563965,4318.333496,4311.794922,4503.077148,4531.410156,4372.436035,4459.487305,0.000000,1.000000,19.000000,,,,0.000000,2.000000,2.000000,0.000000,4.000000,2.000000,2.000000,0.000000,0.000000,4.000000,4.000000,4.000000,4.000000,4.000000,4.000000,0.000000,,,,,,,,,,,,,,,,,,,,,,,,,,,,
1732158742.615057,1732158742.619334,38.000000,0.000000,4320.512695,4283.461426,4322.436035,4294.871582,4277.179688,4282.563965,4333.974121,4404.487305,4312.692383,4314.102539,4503.461426,4533.589844,4376.666504,4457.820313,0.000000,1.000000,19.000000,,,,0.000000,2.000000,2.000000,0.000000,4.000000,2.000000,2.000000,0.000000,0.000000,4.000000,4.000000,4.000000,4.000000,4.000000,4.000000,0.000000,,,,,,,,,,,,,,,,,,,,,,,,,,,,
1732158742.622865,1732158742.627142,39.000000,0.000000,4325.769043,4288.974121,4322.179688,4298.205078,4280.769043,4274.230957,4335.769043,4409.743652,4319.615234,4311.538574,4506.794922,4543.461426,4381.025879,4467.436035,0.000000,1.000000,19.000000,,,,0.000000,2.000000,2.000000,0.000000,4.000000,2.000000,2.000000,0.000000,0.000000,4.000000,4.000000,4.000000,4.000000,4.000000,4.000000,0.000000,,,,,,,,,,,,,,,,,,,,,,,,,,,,
1732158742.630674,1732158742.634851,40.000000,0.000000,4329.102539,4294.487305,4321.922852,4307.436035,4280.384766,4263.461426,4336.282227,4408.974121,4321.922852,4308.205078,4508.846191,4549.743652,4382.948730,4473.205078,0.000000,1.000000,19.000000,,,,0.000000,2.000000,2.000000,0.000000,4.000000,2.000000,2.000000,0.000000,0.000000,4.000000,4.000000,4.000000,4.000000,4.000000,4.000000,0.000000,,,,,,,,,,,,,,,,,10.000000,0.000000,0.491382,0.478210,-0.528381,0.500671,0.983518,-0.095226,-0.002442,-35.494953,44.710018,31.569338
1732158742.638482,1732158742.642659,41.000000,0.000000,4327.307617,4294.487305,4320.512695,4307.820313,4277.307617,4264.102539,4333.974121,4403.717773,4315.769043,4308.461426,4508.205078,4542.948730,4381.282227,4468.461426,0.000000,1.000000,19.000000,,,,0.000000,2.000000,2.000000,0.000000,4.000000,2.000000,2.000000,0.000000,0.000000,4.000000,4.000000,4.000000,4.000000,4.000000,4.000000,0.000000,,,,,,,,,,,,,,,,,,,,,,,,,,,,
1732158742.646290,1732158742.650667,42.000000,0.000000,4321.794922,4293.717773,4322.179688,4301.282227,4280.384766,4273.717773,4333.717773,4406.153809,4313.205078,4306.025879,4505.256348,4533.077148,4375.641113,4458.974121,0.000000,1.000000,19.000000,,,,0.000000,2.000000,2.000000,0.000000,4.000000,2.000000,2.000000,0.000000,0.000000,4.000000,4.000000,4.000000,4.000000,4.000000,4.000000,0.000000,,,,,,,,,,,,,,,,,,,,,,,,,,,,
1732158742.654098,1732158742.658475,43.000000,0.000000,4313.333496,4295.128418,4325.128418,4299.487305,4291.025879,4281.538574,4334.615234,4408.717773,4312.692383,4299.871582,4504.102539,4529.743652,4371.153809,4452.307617,0.000000,1.000000,19.000000,,,,0.000000,2.000000,2.000000,0.000000,4.000000,2.000000,2.000000,0.000000,0.000000,4.000000,4.000000,4.000000,4.000000,4.000000,4.000000,0.000000,,,,,,,,,,,,,,,,,,,,,,,,,,,,
1732158742.661907,1732158742.666383,44.000000,0.000000,4311.666504,4295.256348,4323.205078,4302.179688,4291.666504,4284.358887,4333.461426,4403.461426,4312.436035,4297.948730,4503.974121,4529.102539,4367.436035,4448.077148,0.000000,1.000000,19.000000,,,,0.000000,2.000000,2.000000,0.000000,4.000000,2.000000,2.000000,0.000000,0.000000,4.000000,4.000000,4.000000,4.000000,4.000000,4.000000,0.000000,,,,,,,,,,,,,,,,,11.000000,0.000000,0.491770,0.476379,-0.528748,0.501648,0.988890,-0.078623,-0.010743,-35.685909,44.701782,31.524496
1732158742.669715,1732158742.674192,45.000000,0.000000,4317.820313,4294.743652,4320.897461,4307.051270,4286.025879,4288.077148,4331.922852,4400.000000,4313.205078,4298.846191,4503.589844,4530.769043,4366.538574,4449.358887,0.000000,1.000000,19.000000,,,,0.000000,2.000000,2.000000,0.000000,4.000000,2.000000,2.000000,0.000000,0.000000,4.000000,4.000000,4.000000,4.000000,4.000000,4.000000,0.000000,,,,,,,,,,,,,,,,,,,,,,,,,,,,
1732158742.677523,1732158742.682200,46.000000,0.000000,4315.384766,4291.794922,4322.051270,4304.102539,4297.948730,4286.025879,4333.461426,4403.589844,4310.384766,4297.436035,4504.358887,4532.179688,4369.487305,4455.000000,0.000000,1.000000,19.000000,,,,0.000000,2.000000,2.000000,0.000000,4.000000,2.000000,2.000000,0.000000,0.000000,4.000000,4.000000,4.000000,4.000000,4.000000,4.000000,0.000000,,,,,,,,,,,,,,,,,,,,,,,,,,,,
1732158742.685331,1732158742.690008,47.000000,0.000000,4312.051270,4288.974121,4321.025879,4294.743652,4299.358887,4277.179688,4333.846191,4403.974121,4310.897461,4304.358887,4506.410156,4531.666504,4374.615234,4455.769043,0.000000,1.000000,19.000000,,,,0.000000,2.000000,2.000000,0.000000,4.000000,2.000000,2.000000,0.000000,0.000000,4.000000,4.000000,4.000000,4.000000,4.000000,4.000000,0.000000,,,,,,,,,,,,,,,,,,,,,,,,,,,,
1732158742.693139,1732158742.697916,48.000000,0.000000,4320.769043,4293.205078,4318.846191,4299.230957,4273.333496,4276.666504,4329.743652,4401.410156,4313.333496,4311.666504,4509.615234,4536.282227,4381.922852,4460.000000,0.000000,1.000000,19.000000,,,,0.000000,2.000000,2.000000,0.000000,4.000000,2.000000,2.000000,0.000000,0.000000,4.000000,4.000000,4.000000,4.000000,4.000000,4.000000,0.000000,,,,,,,,,,,,,,,,,12.000000,0.000000,0.492446,0.475464,-0.528015,0.502625,0.983030,-0.073739,-0.002930,-35.672253,44.540108,31.473175
1732158742.700948,1732158742.705724,49.000000,0.000000,4322.692383,4297.179688,4321.282227,4310.897461,4263.333496,4278.846191,4329.615234,4400.769043,4310.512695,4303.846191,4508.717773,4542.692383,4381.666504,4464.615234,0.000000,1.000000,19.000000,,,,0.000000,2.000000,2.000000,0.000000,4.000000,2.000000,2.000000,0.000000,0.000000,4.000000,4.000000,4.000000,4.000000,4.000000,4.000000,0.000000,,,,,,,,,,,,,,,,,,,,,,,,,,,,
1732158742.708756,1732158742.713332,50.000000,0.000000,4315.512695,4294.358887,4321.282227,4308.846191,4279.487305,4276.153809,4334.871582,4401.153809,4309.102539,4297.692383,4502.179688,4536.666504,4372.051270,4456.282227,0.000000,1.000000,19.000000,,,,0.000000,2.000000,2.000000,0.000000,4.000000,2.000000,2.000000,0.000000,0.000000,4.000000,4.000000,4.000000,4.000000,4.000000,4.000000,0.000000,,,,,,,,,,,,,,,,,,,,,,,,,,,,
1732158742.716564,1732158742.721141,51.000000,0.000000,4314.743652,4293.974121,4317.051270,4303.974121,4283.333496,4278.077148,4336.153809,4402.692383,4321.538574,4307.820313,4501.282227,4524.743652,4371.153809,4445.256348,0.000000,1.000000,19.000000,,,,0.000000,2.000000,2.000000,0.000000,4.000000,2.000000,2.000000,0.000000,0.000000,4.000000,4.000000,4.000000,4.000000,4.000000,4.000000,0.000000,,,,,,,,,,,,,,,,,,,,,,,,,,,,
1732158742.724373,1732158742.728849,52.000000,0.000000,4315.000000,4296.410156,4318.589844,4303.589844,4278.077148,4282.692383,4334.358887,4407.436035,4330.128418,4314.230957,4504.358887,4526.153809,4375.128418,4445.256348,0.000000,1.000000,19.000000,,,,0.000000,2.000000,2.000000,0.000000,4.000000,2.000000,2.000000,0.000000,0.000000,4.000000,4.000000,4.000000,4.000000,4.000000,4.000000,0.000000,,,,,,,,,,,,,,,,,13.000000,0.000000,0.493286,0.475403,-0.527344,0.502563,0.977170,-0.066903,-0.004883,-35.547859,44.502487,31.513273
1732158742.732181,1732158742.736657,53.000000,0.000000,4310.000000,4295.641113,4320.512695,4300.897461,4285.512695,4284.230957,4335.384766,4409.230957,4318.205078,4309.871582,4497.051270,4530.000000,4367.820313,4446.922852,0.000000,1.000000,19.000000,,,,0.000000,2.000000,2.000000,0.000000,4.000000,2.000000,2.000000,0.000000,0.000000,4.000000,4.000000,4.000000,4.000000,4.000000,4.000000,0.000000,,,,,,,,,,,,,,,,,,,,,,,,,,,,
1732158742.739989,1732158742.744266,54.000000,0.000000,4309.487305,4295.000000,4318.333496,4304.487305,4293.974121,4290.256348,4336.282227,4409.487305,4312.563965,4304.487305,4489.487305,4527.692383,4362.051270,4442.948730,0.000000,1.000000,19.000000,,,,0.000000,2.000000,2.000000,0.000000,4.000000,2.000000,2.000000,0.000000,0.000000,4.000000,4.000000,4.000000,4.000000,4.000000,4.000000,0.000000,,,,,,,,,,,,,,,,,,,,,,,,,,,,
1732158742.747797,1732158742.752074,55.000000,0.000000,4310.128418,4296.153809,4318.333496,4311.153809,4296.153809,4295.641113,4335.897461,4409.615234,4318.461426,4296.025879,4496.410156,4532.563965,4365.512695,4443.333496,0.000000,1.000000,19.000000,,,,0.000000,2.000000,2.000000,0.000000,4.000000,2.000000,2.000000,0.000000,0.000000,4.000000,4.000000,4.000000,4.000000,4.000000,4.000000,0.000000,,,,,,,,,,,,,,,,,,,,,,,,,,,,
1732158742.755606,1732158742.759782,56.000000,0.000000,4310.384766,4295.769043,4320.000000,4308.333496,4295.000000,4288.333496,4336.282227,4405.000000,4313.333496,4291.922852,4506.153809,4541.794922,4368.589844,4451.153809,0.000000,1.000000,19.000000,,,,0.000000,2.000000,2.000000,0.000000,4.000000,2.000000,2.000000,0.000000,0.000000,4.000000,4.000000,4.000000,4.000000,4.000000,4.000000,0.000000,,,,,,,,,,,,,,,,,14.000000,0.000000,0.493609,0.475403,-0.527100,0.502502,0.977170,-0.066903,-0.004883,-35.602100,44.502014,31.447418
1732158742.763414,1732158742.767590,57.000000,0.000000,4315.000000,4295.512695,4318.717773,4305.384766,4287.179688,4281.410156,4335.000000,4401.153809,4307.948730,4298.717773,4506.794922,4540.384766,4368.846191,4454.487305,0.000000,1.000000,19.000000,,,,0.000000,2.000000,2.000000,0.000000,4.000000,2.000000,2.000000,0.000000,0.000000,4.000000,4.000000,4.000000,4.000000,4.000000,4.000000,0.000000,,,,,,,,,,,,,,,,,,,,,,,,,,,,
1732158742.771222,1732158742.775199,58.000000,0.000000,4315.897461,4296.922852,4319.102539,4304.615234,4291.538574,4280.641113,4334.487305,4403.461426,4314.871582,4302.948730,4499.487305,4536.666504,4363.717773,4448.333496,0.000000,1.000000,19.000000,,,,0.000000,2.000000,2.000000,0.000000,4.000000,2.000000,2.000000,0.000000,0.000000,4.000000,4.000000,4.000000,4.000000,4.000000,4.000000,0.000000,,,,,,,,,,,,,,,,,,,,,,,,,,,,
1732158742.779030,1732158742.783007,59.000000,0.000000,4306.666504,4295.000000,4319.487305,4301.922852,4305.384766,4279.102539,4335.000000,4403.974121,4320.897461,4303.846191,4492.436035,4535.512695,4356.794922,4442.051270,0.000000,1.000000,19.000000,,,,0.000000,2.000000,2.000000,0.000000,4.000000,2.000000,2.000000,0.000000,0.000000,4.000000,4.000000,4.000000,4.000000,4.000000,4.000000,0.000000,,,,,,,,,,,,,,,,,,,,,,,,,,,,
1732158742.786839,1732158742.790715,60.000000,0.000000,4302.820313,4293.589844,4317.179688,4301.666504,4298.717773,4285.769043,4334.871582,4400.256348,4322.307617,4306.025879,4493.717773,4531.282227,4359.230957,4444.102539,0.000000,1.000000,19.000000,,,,0.000000,2.000000,2.000000,0.000000,4.000000,2.000000,2.000000,0.000000,0.000000,4.000000,4.000000,4.000000,4.000000,4.000000,4.000000,0.000000,,,,,,,,,,,,,,,,,15.000000,0.000000,0.493817,0.475586,-0.526855,0.502380,0.978147,-0.067879,-0.003907,-35.646034,44.451633,31.394075
1732158742.794647,1732158742.798523,61.000000,0.000000,4307.820313,4296.538574,4317.307617,4303.077148,4278.077148,4295.512695,4334.743652,4401.153809,4320.769043,4304.871582,4496.153809,4535.641113,4363.846191,4447.563965,0.000000,1.000000,19.000000,,,,0.000000,2.000000,2.000000,0.000000,4.000000,2.000000,2.000000,0.000000,0.000000,4.000000,4.000000,4.000000,4.000000,4.000000,4.000000,0.000000,,,,,,,,,,,,,,,,,,,,,,,,,,,,
1732158742.802455,1732158742.806531,62.000000,0.000000,4308.333496,4297.948730,4319.487305,4303.461426,4274.358887,4293.717773,4334.871582,4402.307617,4315.769043,4298.846191,4490.641113,4540.897461,4357.179688,4444.487305,0.000000,1.000000,19.000000,,,,0.000000,2.000000,2.000000,0.000000,4.000000,2.000000,2.000000,0.000000,0.000000,4.000000,4.000000,4.000000,4.000000,4.000000,4.000000,0.000000,,,,,,,,,,,,,,,,,,,,,,,,,,,,
1732158742.810263,1732158742.814340,63.000000,0.000000,4305.128418,4296.282227,4319.230957,4305.641113,4286.794922,4291.282227,4334.871582,4400.384766,4316.153809,4294.743652,4495.128418,4535.897461,4352.179688,4440.769043,0.000000,1.000000,19.000000,,,,0.000000,2.000000,2.000000,0.000000,4.000000,2.000000,2.000000,0.000000,0.000000,4.000000,4.000000,4.000000,4.000000,4.000000,4.000000,0.000000,,,,,,,,,,,,,,,,,,,,,,,,,,,,
1732158742.818071,1732158742.822248,64.000000,0.000000,4306.666504,4296.025879,4318.333496,4309.230957,4293.205078,4295.641113,4334.871582,4400.512695,4319.871582,4300.769043,4505.641113,4533.077148,4359.102539,4443.077148,0.000000,1.000000,19.000000,,,,0.000000,2.000000,2.000000,0.000000,4.000000,2.000000,2.000000,0.000000,0.000000,4.000000,4.000000,4.000000,4.000000,4.000000,4.000000,0.000000,,,,,,,,,,,,,,,,,16.000000,0.000000,0.494830,0.476196,-0.525818,0.501892,0.976682,-0.047369,0.001465,-35.648289,44.560822,31.500868
1732158742.825880,1732158742.830056,65.000000,0.000000,4309.871582,4296.794922,4319.871582,4306.538574,4286.025879,4289.743652,4334.871582,4402.436035,4318.974121,4312.051270,4498.461426,4540.641113,4363.333496,4446.538574,1606.000000,1.000000,19.000000,,,,0.000000,2.000000,2.000000,0.000000,4.000000,2.000000,2.000000,0.000000,0.000000,4.000000,4.000000,4.000000,4.000000,4.000000,4.000000,0.000000,,,,,,,,,,,,,,,,,,,,,,,,,,,,
1732158742.833688,1732158742.837664,66.000000,0.000000,4310.769043,4295.897461,4319.102539,4301.794922,4287.179688,4279.615234,4334.871582,4402.179688,4317.436035,4307.820313,4493.205078,4545.000000,4359.871582,4445.641113,1357.000000,1.000000,19.000000,,,,0.000000,2.000000,2.000000,0.000000,4.000000,2.000000,2.000000,0.000000,0.000000,4.000000,4.000000,4.000000,4.000000,4.000000,4.000000,0.000000,,,,,,,,,,,,,,,,,,,,,,,,,,,,
1732158742.841496,1732158742.845473,67.000000,0.000000,4310.897461,4295.384766,4315.641113,4303.589844,4300.512695,4281.025879,4334.871582,4401.666504,4316.794922,4292.179688,4503.077148,4540.000000,4358.077148,4446.025879,1426.000000,1.000000,19.000000,,,,0.000000,2.000000,2.000000,0.000000,4.000000,2.000000,2.000000,0.000000,0.000000,4.000000,4.000000,4.000000,4.000000,4.000000,4.000000,0.000000,,,,,,,,,,,,,,,,,,,,,,,,,,,,
1732158742.849305,1732158742.853181,68.000000,0.000000,4310.512695,4296.410156,4315.128418,4308.717773,4293.846191,4281.153809,4334.615234,4406.025879,4318.077148,4291.794922,4508.077148,4537.179688,4359.487305,4448.205078,1432.000000,1.000000,19.000000,,,,0.000000,2.000000,2.000000,0.000000,4.000000,2.000000,2.000000,0.000000,0.000000,4.000000,4.000000,4.000000,4.000000,4.000000,4.000000,0.000000,,,,,,,,,,,,,,,,,17.000000,0.000000,0.495093,0.476318,-0.525635,0.501709,0.976682,-0.047369,0.001465,-35.736778,44.589268,31.655703
1732158742.857113,1732158742.860989,69.000000,0.000000,4309.743652,4298.461426,4319.615234,4306.153809,4270.769043,4281.153809,4335.128418,4407.820313,4324.358887,4304.743652,4501.410156,4538.846191,4360.000000,4444.743652,1199.000000,1.000000,19.000000,,,,0.000000,2.000000,2.000000,0.000000,4.000000,2.000000,2.000000,0.000000,0.000000,4.000000,4.000000,4.000000,4.000000,4.000000,4.000000,0.000000,,,,,,,,,,,,,,,,,,,,,,,,,,,,
1732158742.864921,1732158742.868598,70.000000,0.000000,4309.358887,4299.230957,4320.256348,4300.769043,4279.743652,4288.205078,4334.871582,4406.025879,4326.922852,4304.743652,4494.487305,4539.487305,4358.333496,4440.000000,0.000000,1.000000,19.000000,,,,0.000000,2.000000,2.000000,0.000000,4.000000,2.000000,2.000000,0.000000,0.000000,4.000000,4.000000,4.000000,4.000000,4.000000,4.000000,0.000000,,,,,,,,,,,,,,,,,,,,,,,,,,,,
1732158742.872729,1732158742.876406,71.000000,0.000000,4309.487305,4302.436035,4317.692383,4308.974121,4307.948730,4292.563965,4333.333496,4408.461426,4326.153809,4296.922852,4491.025879,4536.922852,4354.102539,4442.948730,0.000000,1.000000,19.000000,,,,0.000000,2.000000,2.000000,0.000000,4.000000,2.000000,2.000000,0.000000,0.000000,4.000000,4.000000,4.000000,4.000000,4.000000,4.000000,0.000000,,,,,,,,,,,,,,,,,,,,,,,,,,,,
1732158742.880538,1732158742.884114,72.000000,0.000000,4310.000000,4309.615234,4319.487305,4315.384766,4305.000000,4292.307617,4334.358887,4407.563965,4326.410156,4297.692383,4491.538574,4535.897461,4348.974121,4443.717773,1533.000000,1.000000,19.000000,,,,0.000000,2.000000,2.000000,0.000000,4.000000,2.000000,2.000000,0.000000,0.000000,4.000000,4.000000,4.000000,4.000000,4.000000,4.000000,0.000000,,,,,,,,,,,,,,,,,18.000000,0.000000,0.495409,0.477051,-0.524963,0.501404,0.971798,-0.051276,-0.003418,-35.755123,44.730640,31.879452
1732158742.888346,1732158742.891922,73.000000,0.000000,4309.743652,4308.846191,4321.794922,4311.538574,4282.436035,4294.487305,4336.282227,4400.897461,4324.358887,4304.743652,4492.307617,4537.563965,4352.436035,4438.333496,1693.000000,1.000000,19.000000,,,,0.000000,2.000000,2.000000,0.000000,4.000000,2.000000,2.000000,0.000000,0.000000,4.000000,4.000000,4.000000,4.000000,4.000000,4.000000,0.000000,,,,,,,,,,,,,,,,,,,,,,,,,,,,
1732158742.896154,1732158742.899930,74.000000,0.000000,4307.820313,4303.205078,4318.589844,4310.256348,4277.820313,4294.743652,4335.000000,4400.897461,4325.769043,4308.846191,4493.974121,4540.384766,4357.820313,4436.922852,1554.000000,1.000000,19.000000,,,,0.000000,2.000000,2.000000,0.000000,4.000000,2.000000,2.000000,0.000000,0.000000,4.000000,4.000000,4.000000,4.000000,4.000000,4.000000,0.000000,,,,,,,,,,,,,,,,,,,,,,,,,,,,
1732158742.903962,1732158742.907738,75.000000,0.000000,4307.820313,4301.153809,4317.179688,4311.025879,4284.102539,4287.051270,4333.205078,4405.384766,4327.948730,4302.692383,4499.230957,4541.922852,4356.282227,4441.794922,1546.000000,1.000000,19.000000,,,,0.000000,2.000000,2.000000,0.000000,4.000000,2.000000,2.000000,0.000000,0.000000,4.000000,4.000000,4.000000,4.000000,4.000000,4.000000,0.000000,,,,,,,,,,,,,,,,,,,,,,,,,,,,
1732158742.911771,1732158742.915647,76.000000,0.000000,4309.230957,4303.974121,4321.025879,4308.205078,4283.077148,4280.769043,4334.358887,4402.820313,4319.487305,4300.512695,4499.102539,4536.666504,4356.282227,4443.974121,1701.000000,1.000000,19.000000,,,,0.000000,2.000000,2.000000,0.000000,4.000000,2.000000,2.000000,0.000000,0.000000,4.000000,4.000000,4.000000,4.000000,4.000000,4.000000,0.000000,,,,,,,,,,,,,,,,,19.000000,0.000000,0.495638,0.477600,-0.524597,0.501038,0.974240,-0.053229,-0.000977,-35.829983,44.943485,31.887356
1732158742.919579,1732158742.923455,77.000000,0.000000,4305.897461,4308.333496,4320.769043,4307.307617,4287.436035,4279.743652,4335.128418,4399.743652,4310.512695,4308.077148,4494.615234,4531.153809,4356.922852,4440.897461,1559.000000,1.000000,19.000000,,,,0.000000,2.000000,2.000000,0.000000,4.000000,2.000000,2.000000,0.000000,0.000000,4.000000,4.000000,4.000000,4.000000,4.000000,4.000000,0.000000,,,,,,,,,,,,,,,,,,,,,,,,,,,,
1732158742.927387,1732158742.931063,78.000000,0.000000,4300.000000,4305.897461,4317.307617,4305.256348,4292.179688,4283.846191,4334.615234,4403.461426,4316.922852,4304.615234,4494.743652,4535.000000,4356.538574,4437.051270,1554.000000,1.000000,19.000000,,,,0.000000,2.000000,2.000000,0.000000,4.000000,2.000000,2.000000,0.000000,0.000000,4.000000,4.000000,4.000000,4.000000,4.000000,4.000000,0.000000,1.000000,0.000000,2.000000,2.000000,0.000000,4.000000,2.000000,2.000000,0.000000,0.000000,4.000000,4.000000,4.000000,4.000000,4.000000,4.000000,,,,,,,,,,,,
1732158742.935195,1732158742.938871,79.000000,0.000000,4296.794922,4300.256348,4317.307617,4298.846191,4289.358887,4287.436035,4334.615234,4405.000000,4327.051270,4295.512695,4495.128418,4538.589844,4357.436035,4432.948730,1546.000000,1.000000,19.000000,,,,0.000000,2.000000,2.000000,0.000000,4.000000,2.000000,2.000000,0.000000,0.000000,4.000000,4.000000,4.000000,4.000000,4.000000,4.000000,0.000000,,,,,,,,,,,,,,,,,,,,,,,,,,,,
1732158742.943004,1732158742.946580,80.000000,0.000000,4295.000000,4302.051270,4318.461426,4295.769043,4297.948730,4283.717773,4334.871582,4401.025879,4328.333496,4297.692383,4491.153809,4531.153809,4353.589844,4429.743652,1701.000000,1.000000,19.000000,,,,0.000000,2.000000,2.000000,0.000000,4.000000,2.000000,2.000000,0.000000,0.000000,4.000000,4.000000,4.000000,4.000000,4.000000,4.000000,0.000000,,,,,,,,,,,,,,,,,20.000000,0.000000,0.495776,0.477783,-0.524475,0.500854,0.973263,-0.043462,-0.004395,-35.897285,45.025890,31.925425
1732158742.950812,1732158742.954388,81.000000,0.000000,4293.974121,4305.128418,4317.563965,4295.769043,4300.769043,4286.794922,4334.871582,4400.384766,4326.794922,4303.077148,4489.871582,4526.025879,4348.077148,4430.000000,1559.000000,1.000000,19.000000,,,,0.000000,2.000000,2.000000,0.000000,4.000000,2.000000,2.000000,0.000000,0.000000,4.000000,4.000000,4.000000,4.000000,4.000000,4.000000,0.000000,,,,,,,,,,,,,,,,,,,,,,,,,,,,
1732158742.958620,1732158742.961996,82.000000,0.000000,4295.128418,4297.948730,4317.820313,4300.384766,4285.384766,4296.538574,4334.615234,4402.436035,4323.717773,4298.846191,4492.820313,4532.692383,4350.897461,4432.820313,1554.000000,1.000000,19.000000,,,,0.000000,2.000000,2.000000,0.000000,4.000000,2.000000,2.000000,0.000000,0.000000,4.000000,4.000000,4.000000,4.000000,4.000000,4.000000,0.000000,,,,,,,,,,,,,,,,,,,,,,,,,,,,
1732158742.966428,1732158742.969805,83.000000,0.000000,4297.563965,4293.717773,4318.333496,4306.410156,4276.282227,4297.179688,4334.615234,4401.025879,4320.641113,4296.666504,4492.820313,4538.077148,4351.666504,4432.179688,1546.000000,1.000000,19.000000,,,,0.000000,2.000000,2.000000,0.000000,4.000000,2.000000,2.000000,0.000000,0.000000,4.000000,4.000000,4.000000,4.000000,4.000000,4.000000,0.000000,,,,,,,,,,,,,,,,,,,,,,,,,,,,
1732158742.974237,1732158742.977713,84.000000,0.000000,4298.461426,4297.692383,4319.743652,4303.974121,4282.051270,4294.102539,4335.256348,4403.461426,4320.256348,4297.692383,4489.358887,4538.333496,4342.820313,4428.333496,1701.000000,1.000000,19.000000,,,,0.000000,2.000000,2.000000,0.000000,4.000000,2.000000,2.000000,0.000000,0.000000,4.000000,4.000000,4.000000,4.000000,4.000000,4.000000,0.000000,,,,,,,,,,,,,,,,,21.000000,0.000000,0.495779,0.477844,-0.524475,0.500793,0.977170,-0.038579,0.003907,-36.011803,45.179302,31.971262
1732158742.982045,1732158742.985521,85.000000,0.000000,4297.307617,4296.538574,4320.128418,4297.820313,4296.025879,4293.461426,4334.871582,4407.563965,4319.743652,4295.128418,4487.692383,4534.358887,4342.436035,4428.461426,1559.000000,1.000000,19.000000,,,,0.000000,2.000000,2.000000,0.000000,4.000000,2.000000,2.000000,0.000000,0.000000,4.000000,4.000000,4.000000,4.000000,4.000000,4.000000,0.000000,,,,,,,,,,,,,,,,,,,,,,,,,,,,
1732158742.989853,1732158742.993529,86.000000,0.000000,4298.205078,4297.179688,4320.641113,4299.615234,4299.871582,4286.538574,4333.589844,4404.102539,4319.358887,4296.153809,4490.128418,4531.666504,4350.384766,4430.384766,1554.000000,1.000000,19.000000,,,,0.000000,2.000000,2.000000,0.000000,4.000000,2.000000,2.000000,0.000000,0.000000,4.000000,4.000000,4.000000,4.000000,4.000000,4.000000,0.000000,,,,,,,,,,,,,,,,,,,,,,,,,,,,
1732158742.997661,1732158743.001337,87.000000,0.000000,4303.846191,4303.717773,4321.282227,4306.794922,4282.051270,4278.589844,4334.743652,4400.512695,4318.461426,4299.102539,4493.333496,4536.410156,4351.410156,4432.179688,1546.000000,1.000000,19.000000,,,,0.000000,2.000000,2.000000,0.000000,4.000000,2.000000,2.000000,0.000000,0.000000,4.000000,4.000000,4.000000,4.000000,4.000000,4.000000,0.000000,,,,,,,,,,,,,,,,,,,,,,,,,,,,
1732158743.005470,1732158743.009245,88.000000,0.000000,4304.871582,4305.128418,4320.128418,4306.282227,4274.230957,4281.794922,4336.538574,4404.487305,4318.846191,4301.538574,4495.128418,4540.256348,4349.487305,4431.666504,1701.000000,1.000000,19.000000,,,,0.000000,2.000000,2.000000,0.000000,4.000000,2.000000,2.000000,0.000000,0.000000,4.000000,4.000000,4.000000,4.000000,4.000000,4.000000,0.000000,,,,,,,,,,,,,,,,,22.000000,0.000000,0.495852,0.477966,-0.524353,0.500732,0.979123,-0.037114,-0.003907,-35.787895,45.208569,31.976721
1732158743.013278,1732158743.017053,89.000000,0.000000,4298.589844,4299.230957,4320.000000,4299.487305,4285.256348,4289.487305,4335.641113,4407.436035,4322.692383,4305.128418,4494.358887,4532.820313,4349.358887,4427.436035,1559.000000,1.000000,19.000000,,,,0.000000,2.000000,2.000000,0.000000,4.000000,2.000000,2.000000,0.000000,0.000000,4.000000,4.000000,4.000000,4.000000,4.000000,4.000000,0.000000,,,,,,,,,,,,,,,,,,,,,,,,,,,,
1732158743.021086,1732158743.025061,90.000000,0.000000,4295.769043,4296.282227,4321.282227,4298.205078,4283.717773,4293.846191,4334.487305,4406.025879,4326.794922,4303.974121,4493.589844,4528.974121,4350.512695,4427.307617,1554.000000,1.000000,19.000000,,,,0.000000,2.000000,2.000000,0.000000,4.000000,2.000000,2.000000,0.000000,0.000000,4.000000,4.000000,4.000000,4.000000,4.000000,4.000000,0.000000,,,,,,,,,,,,,,,,,,,,,,,,,,,,
1732158743.028894,1732158743.032870,91.000000,0.000000,4297.307617,4296.922852,4321.410156,4302.051270,4281.922852,4295.128418,4334.871582,4403.974121,4324.871582,4295.128418,4493.717773,4532.692383,4348.333496,4431.025879,1546.000000,1.000000,19.000000,,,,0.000000,2.000000,2.000000,0.000000,4.000000,2.000000,2.000000,0.000000,0.000000,4.000000,4.000000,4.000000,4.000000,4.000000,4.000000,0.000000,,,,,,,,,,,,,,,,,,,,,,,,,,,,
1732158743.036703,1732158743.040778,92.000000,0.000000,4295.769043,4295.256348,4319.615234,4300.897461,4295.641113,4294.743652,4335.000000,4402.820313,4319.358887,4291.794922,4492.563965,4530.641113,4342.307617,4425.512695,1701.000000,1.000000,19.000000,,,,0.000000,2.000000,2.000000,0.000000,4.000000,2.000000,2.000000,0.000000,0.000000,4.000000,4.000000,4.000000,4.000000,4.000000,4.000000,0.000000,,,,,,,,,,,,,,,,,23.000000,0.000000,0.495989,0.478149,-0.524231,0.500549,0.960566,-0.053229,-0.003907,-36.008194,45.115608,31.934477
1732158743.044511,1732158743.048586,93.000000,0.000000,4295.512695,4297.051270,4319.358887,4300.128418,4296.025879,4289.615234,4334.743652,4403.077148,4319.358887,4296.282227,4492.436035,4526.538574,4344.102539,4419.871582,1559.000000,1.000000,19.000000,,,,0.000000,2.000000,2.000000,0.000000,4.000000,2.000000,2.000000,0.000000,0.000000,4.000000,4.000000,4.000000,4.000000,4.000000,4.000000,0.000000,,,,,,,,,,,,,,,,,,,,,,,,,,,,
1732158743.052319,1732158743.056594,94.000000,0.000000,4297.563965,4298.589844,4320.512695,4304.615234,4291.410156,4282.563965,4334.871582,4401.538574,4319.102539,4295.641113,4492.307617,4525.384766,4348.333496,4424.102539,1554.000000,1.000000,19.000000,,,,0.000000,2.000000,2.000000,0.000000,4.000000,2.000000,2.000000,0.000000,0.000000,4.000000,4.000000,4.000000,4.000000,4.000000,4.000000,0.000000,,,,,,,,,,,,,,,,,,,,,,,,,,,,
1732158743.060127,1732158743.064402,95.000000,0.000000,4296.153809,4299.358887,4321.153809,4302.179688,4302.307617,4281.666504,4334.871582,4399.230957,4314.102539,4292.692383,4490.641113,4523.846191,4344.358887,4428.333496,1546.000000,1.000000,19.000000,,,,0.000000,2.000000,2.000000,0.000000,4.000000,2.000000,2.000000,0.000000,0.000000,4.000000,4.000000,4.000000,4.000000,4.000000,4.000000,0.000000,,,,,,,,,,,,,,,,,,,,,,,,,,,,
1732158743.067936,1732158743.072310,96.000000,0.000000,4296.025879,4304.358887,4319.743652,4302.948730,4300.512695,4283.846191,4334.871582,4399.615234,4315.897461,4296.538574,4491.922852,4529.230957,4343.717773,4429.487305,1701.000000,1.000000,19.000000,,,,0.000000,2.000000,2.000000,0.000000,4.000000,2.000000,2.000000,0.000000,0.000000,4.000000,4.000000,4.000000,4.000000,4.000000,4.000000,0.000000,,,,,,,,,,,,,,,,,24.000000,0.000000,0.496065,0.478333,-0.524109,0.500427,0.975705,-0.047857,-0.015627,-35.728302,45.030308,31.945261
1732158743.075744,1732158743.080118,97.000000,0.000000,4299.230957,4306.922852,4319.358887,4309.871582,4278.846191,4283.205078,4334.871582,4406.410156,4320.641113,4298.077148,4493.589844,4537.179688,4350.000000,4431.153809,1559.000000,1.000000,19.000000,,,,0.000000,2.000000,2.000000,0.000000,4.000000,2.000000,2.000000,0.000000,0.000000,4.000000,4.000000,4.000000,4.000000,4.000000,4.000000,0.000000,,,,,,,,,,,,,,,,,,,,,,,,,,,,
1732158743.083552,1732158743.087727,98.000000,0.000000,4299.487305,4305.769043,4319.230957,4310.128418,4272.563965,4283.205078,4334.871582,4411.538574,4319.102539,4297.948730,4491.153809,4533.333496,4351.153809,4430.897461,1554.000000,1.000000,19.000000,,,,0.000000,2.000000,2.000000,0.000000,4.000000,2.000000,2.000000,0.000000,0.000000,4.000000,4.000000,4.000000,4.000000,4.000000,4.000000,0.000000,,,,,,,,,,,,,,,,,,,,,,,,,,,,
1732158743.091360,1732158743.095535,99.000000,0.000000,4297.692383,4306.025879,4317.948730,4307.948730,4286.153809,4285.769043,4334.871582,4404.487305,4318.461426,4298.717773,4490.384766,4530.641113,4348.333496,4428.846191,1546.000000,1.000000,19.000000,,,,0.000000,2.000000,2.000000,0.000000,4.000000,2.000000,2.000000,0.000000,0.000000,4.000000,4.000000,4.000000,4.000000,4.000000,4.000000,0.000000,,,,,,,,,,,,,,,,,,,,,,,,,,,,
1732158743.099169,1732158743.103243,100.000000,0.000000,4299.102539,4308.077148,4319.102539,4310.000000,4290.000000,4287.051270,4334.871582,4400.256348,4321.666504,4294.615234,4493.333496,4533.846191,4349.102539,4429.358887,1701.000000,1.000000,19.000000,,,,0.000000,2.000000,2.000000,0.000000,4.000000,2.000000,2.000000,0.000000,0.000000,4.000000,4.000000,4.000000,4.000000,4.000000,4.000000,0.000000,,,,,,,,,,,,,,,,,25.000000,0.000000,0.496339,0.477966,-0.524475,0.500122,0.978635,-0.061043,-0.006837,-35.653259,44.929550,31.892328
1732158743.106977,1732158743.111052,101.000000,0.000000,4298.077148,4309.102539,4322.820313,4307.179688,4291.025879,4284.743652,4334.871582,4408.461426,4318.461426,4295.128418,4492.820313,4532.179688,4351.025879,4428.974121,1559.000000,1.000000,19.000000,,,,0.000000,2.000000,2.000000,0.000000,4.000000,2.000000,2.000000,0.000000,0.000000,4.000000,4.000000,4.000000,4.000000,4.000000,4.000000,0.000000,,,,,,,,,,,,,,,,,,,,,,,,,,,,
1732158743.114785,1732158743.118660,102.000000,0.000000,4294.102539,4307.563965,4321.922852,4303.205078,4295.897461,4285.897461,4334.871582,4411.282227,4313.205078,4303.717773,4489.871582,4529.102539,4349.230957,4427.692383,1554.000000,1.000000,19.000000,,,,0.000000,2.000000,2.000000,0.000000,4.000000,2.000000,2.000000,0.000000,0.000000,4.000000,4.000000,4.000000,4.000000,4.000000,4.000000,0.000000,,,,,,,,,,,,,,,,,,,,,,,,,,,,
1732158743.122594,1732158743.126468,103.000000,0.000000,4295.000000,4302.820313,4318.461426,4308.846191,4292.948730,4288.333496,4334.871582,4406.794922,4312.563965,4298.974121,4489.358887,4531.153809,4343.974121,4427.563965,1546.000000,1.000000,19.000000,,,,0.000000,2.000000,2.000000,0.000000,4.000000,2.000000,2.000000,0.000000,0.000000,4.000000,4.000000,4.000000,4.000000,4.000000,4.000000,0.000000,,,,,,,,,,,,,,,,,,,,,,,,,,,,
1732158743.130402,1732158743.134376,104.000000,0.000000,4297.820313,4305.128418,4319.230957,4310.769043,4302.436035,4284.358887,4334.871582,4408.333496,4315.256348,4286.282227,4490.512695,4529.358887,4345.000000,4427.436035,1701.000000,1.000000,19.000000,,,,0.000000,2.000000,2.000000,0.000000,4.000000,2.000000,2.000000,0.000000,0.000000,4.000000,4.000000,4.000000,4.000000,4.000000,4.000000,0.000000,,,,,,,,,,,,,,,,,26.000000,0.000000,0.495981,0.478027,-0.524292,0.500610,0.974728,-0.061043,0.001953,-35.854141,44.882935,31.616119
1732158743.138210,1732158743.142185,105.000000,0.000000,4297.051270,4311.794922,4320.384766,4309.358887,4310.897461,4286.922852,4334.871582,4412.563965,4324.615234,4294.871582,4491.410156,4526.794922,4352.051270,4427.179688,1559.000000,1.000000,19.000000,,,,0.000000,2.000000,2.000000,0.000000,4.000000,2.000000,2.000000,0.000000,0.000000,4.000000,4.000000,4.000000,4.000000,4.000000,4.000000,0.000000,,,,,,,,,,,,,,,,,,,,,,,,,,,,
1732158743.146018,1732158743.149793,106.000000,0.000000,4294.487305,4305.897461,4319.871582,4310.384766,4292.563965,4296.922852,4334.871582,4408.717773,4325.512695,4305.128418,4489.743652,4530.256348,4350.897461,4425.256348,1554.000000,1.000000,19.000000,,,,0.000000,2.000000,2.000000,0.000000,4.000000,2.000000,2.000000,0.000000,0.000000,4.000000,4.000000,4.000000,4.000000,4.000000,4.000000,0.000000,,,,,,,,,,,,,,,,,,,,,,,,,,,,
1732158743.153826,1732158743.157601,107.000000,0.000000,4292.948730,4303.205078,4320.769043,4307.179688,4271.794922,4292.436035,4334.871582,4401.666504,4315.000000,4296.538574,4487.179688,4527.692383,4347.948730,4426.282227,1546.000000,1.000000,19.000000,,,,0.000000,2.000000,2.000000,0.000000,4.000000,2.000000,2.000000,0.000000,0.000000,4.000000,4.000000,4.000000,4.000000,4.000000,4.000000,0.000000,,,,,,,,,,,,,,,,,,,,,,,,,,,,
1732158743.161635,1732158743.165309,108.000000,0.000000,4292.307617,4309.487305,4320.641113,4303.333496,4278.333496,4279.615234,4334.871582,4398.846191,4309.743652,4292.820313,4486.922852,4523.589844,4350.512695,4426.922852,1701.000000,1.000000,19.000000,,,,0.000000,2.000000,2.000000,0.000000,4.000000,2.000000,2.000000,0.000000,0.000000,4.000000,4.000000,4.000000,4.000000,4.000000,4.000000,0.000000,,,,,,,,,,,,,,,,,27.000000,0.000000,0.495731,0.478027,-0.524353,0.500793,0.974728,-0.062019,-0.013185,-35.966854,45.006844,31.650723
1732158743.169443,1732158743.173118,109.000000,0.000000,4293.846191,4310.384766,4317.307617,4305.769043,4300.512695,4276.410156,4335.000000,4402.948730,4310.128418,4296.282227,4485.512695,4521.794922,4349.230957,4423.205078,1559.000000,1.000000,19.000000,,,,0.000000,2.000000,2.000000,0.000000,4.000000,2.000000,2.000000,0.000000,0.000000,4.000000,4.000000,4.000000,4.000000,4.000000,4.000000,0.000000,,,,,,,,,,,,,,,,,,,,,,,,,,,,
1732158743.177251,1732158743.180726,110.000000,0.000000,4297.436035,4311.282227,4317.307617,4312.307617,4304.487305,4282.436035,4334.743652,4406.410156,4309.358887,4294.487305,4485.512695,4522.307617,4348.717773,4422.692383,1554.000000,1.000000,19.000000,,,,0.000000,2.000000,2.000000,0.000000,4.000000,2.000000,2.000000,0.000000,0.000000,4.000000,4.000000,4.000000,4.000000,4.000000,4.000000,0.000000,,,,,,,,,,,,,,,,,,,,,,,,,,,,
1732158743.185059,1732158743.188534,111.000000,0.000000,4297.436035,4317.820313,4321.538574,4316.025879,4284.358887,4290.897461,4334.615234,4404.230957,4310.256348,4297.436035,4489.487305,4522.307617,4354.230957,4424.487305,1546.000000,1.000000,19.000000,,,,0.000000,2.000000,2.000000,0.000000,4.000000,2.000000,2.000000,0.000000,0.000000,4.000000,4.000000,4.000000,4.000000,4.000000,4.000000,0.000000,,,,,,,,,,,,,,,,,,,,,,,,,,,,
1732158743.192868,1732158743.196243,112.000000,0.000000,4296.922852,4319.871582,4323.333496,4314.230957,4273.589844,4292.051270,4335.512695,4406.666504,4311.538574,4303.974121,4490.897461,4521.922852,4355.000000,4423.461426,1701.000000,1.000000,19.000000,,,,0.000000,2.000000,2.000000,0.000000,4.000000,2.000000,2.000000,0.000000,0.000000,4.000000,4.000000,4.000000,4.000000,4.000000,4.000000,0.000000,,,,,,,,,,,,,,,,,28.000000,0.000000,0.495782,0.477905,-0.524475,0.500732,0.961543,-0.061043,0.003418,-35.719818,44.847210,31.685419
1732158743.200676,1732158743.204051,113.000000,0.000000,4299.615234,4317.307617,4320.769043,4313.333496,4288.974121,4286.794922,4334.487305,4409.871582,4310.128418,4304.102539,4487.948730,4521.666504,4351.538574,4424.615234,1559.000000,1.000000,19.000000,,,,0.000000,2.000000,2.000000,0.000000,4.000000,2.000000,2.000000,0.000000,0.000000,4.000000,4.000000,4.000000,4.000000,4.000000,4.000000,0.000000,,,,,,,,,,,,,,,,,,,,,,,,,,,,
1732158743.208484,1732158743.211659,114.000000,0.000000,4300.128418,4318.589844,4320.512695,4315.384766,4297.051270,4287.692383,4332.948730,4407.948730,4310.256348,4303.461426,4487.563965,4522.948730,4348.077148,4426.794922,1554.000000,1.000000,19.000000,,,,0.000000,2.000000,2.000000,0.000000,4.000000,2.000000,2.000000,0.000000,0.000000,4.000000,4.000000,4.000000,4.000000,4.000000,4.000000,0.000000,,,,,,,,,,,,,,,,,,,,,,,,,,,,
1732158743.216293,1732158743.219467,115.000000,0.000000,4295.256348,4317.948730,4319.871582,4313.974121,4292.820313,4295.256348,4334.871582,4407.948730,4310.897461,4298.205078,4487.692383,4524.743652,4346.153809,4422.820313,1546.000000,1.000000,19.000000,,,,0.000000,2.000000,2.000000,0.000000,4.000000,2.000000,2.000000,0.000000,0.000000,4.000000,4.000000,4.000000,4.000000,4.000000,4.000000,0.000000,,,,,,,,,,,,,,,,,,,,,,,,,,,,
1732158743.224101,1732158743.227376,116.000000,0.000000,4292.948730,4314.102539,4317.820313,4309.871582,4295.897461,4294.487305,4335.384766,4410.512695,4310.641113,4291.922852,4486.153809,4521.538574,4348.461426,4422.307617,1701.000000,1.000000,19.000000,,,,0.000000,2.000000,2.000000,0.000000,4.000000,2.000000,2.000000,0.000000,0.000000,4.000000,4.000000,4.000000,4.000000,4.000000,4.000000,0.000000,,,,,,,,,,,,,,,,,29.000000,0.000000,0.495838,0.477844,-0.524536,0.500671,0.983518,-0.051764,-0.010255,-35.904720,44.722908,31.711855
1732158743.231909,1732158743.235184,117.000000,0.000000,4296.538574,4308.974121,4317.307617,4310.384766,4297.307617,4283.717773,4332.436035,4408.717773,4312.563965,4302.692383,4487.051270,4522.307617,4351.153809,4427.820313,1559.000000,1.000000,19.000000,,,,0.000000,2.000000,2.000000,0.000000,4.000000,2.000000,2.000000,0.000000,0.000000,4.000000,4.000000,4.000000,4.000000,4.000000,4.000000,0.000000,,,,,,,,,,,,,,,,,,,,,,,,,,,,
1732158743.239717,1732158743.242792,118.000000,0.000000,4298.077148,4305.769043,4318.077148,4310.769043,4295.897461,4279.358887,4332.692383,4408.205078,4314.743652,4309.871582,4491.025879,4532.563965,4350.512695,4430.128418,1554.000000,1.000000,19.000000,,,,0.000000,2.000000,2.000000,0.000000,4.000000,2.000000,2.000000,0.000000,0.000000,4.000000,4.000000,4.000000,4.000000,4.000000,4.000000,0.000000,,,,,,,,,,,,,,,,,,,,,,,,,,,,
1732158743.247526,1732158743.250600,119.000000,0.000000,4297.307617,4311.025879,4318.333496,4310.128418,4289.743652,4288.077148,4334.871582,4411.538574,4317.692383,4297.692383,4493.205078,4537.307617,4352.307617,4430.897461,1546.000000,1.000000,19.000000,,,,0.000000,2.000000,2.000000,0.000000,4.000000,2.000000,2.000000,0.000000,0.000000,4.000000,4.000000,4.000000,4.000000,4.000000,4.000000,0.000000,,,,,,,,,,,,,,,,,,,,,,,,,,,,
1732158743.255334,1732158743.258309,120.000000,0.000000,4297.179688,4313.846191,4318.461426,4310.897461,4289.487305,4290.897461,4333.717773,4409.871582,4320.769043,4292.179688,4491.922852,4528.717773,4355.256348,4429.743652,1701.000000,1.000000,19.000000,,,,0.000000,2.000000,2.000000,0.000000,4.000000,2.000000,2.000000,0.000000,0.000000,4.000000,4.000000,4.000000,4.000000,4.000000,4.000000,0.000000,,,,,,,,,,,,,,,,,30.000000,0.000000,0.495820,0.477661,-0.524719,0.500671,0.979612,-0.060066,-0.008302,-35.937824,44.888889,31.783270
1732158743.263142,1732158743.266117,121.000000,0.000000,4296.153809,4306.153809,4317.948730,4307.307617,4306.410156,4282.563965,4332.307617,4406.794922,4317.051270,4299.487305,4490.128418,4521.922852,4352.051270,4426.666504,1559.000000,1.000000,19.000000,,,,0.000000,2.000000,2.000000,0.000000,4.000000,2.000000,2.000000,0.000000,0.000000,4.000000,4.000000,4.000000,4.000000,4.000000,4.000000,0.000000,,,,,,,,,,,,,,,,,,,,,,,,,,,,
1732158743.270950,1732158743.273725,122.000000,0.000000,4296.538574,4304.358887,4317.563965,4307.948730,4306.282227,4285.128418,4333.077148,4407.948730,4310.128418,4298.717773,4488.846191,4524.230957,4349.743652,4426.794922,1554.000000,1.000000,19.000000,,,,0.000000,2.000000,2.000000,0.000000,4.000000,2.000000,2.000000,0.000000,0.000000,4.000000,4.000000,4.000000,4.000000,4.000000,4.000000,0.000000,,,,,,,,,,,,,,,,,,,,,,,,,,,,
1732158743.278758,1732158743.281534,123.000000,0.000000,4301.922852,4310.512695,4318.589844,4313.717773,4279.230957,4291.794922,4333.205078,4408.589844,4315.897461,4295.000000,4488.461426,4524.358887,4350.897461,4429.102539,1546.000000,1.000000,19.000000,,,,0.000000,2.000000,2.000000,0.000000,4.000000,2.000000,2.000000,0.000000,0.000000,4.000000,4.000000,4.000000,4.000000,4.000000,4.000000,0.000000,,,,,,,,,,,,,,,,,,,,,,,,,,,,
1732158743.286567,1732158743.289242,124.000000,0.000000,4307.051270,4309.743652,4319.102539,4314.487305,4278.717773,4285.384766,4332.820313,4406.153809,4322.051270,4296.794922,4489.358887,4524.230957,4350.769043,4430.256348,1701.000000,1.000000,19.000000,,,,0.000000,2.000000,2.000000,0.000000,4.000000,2.000000,2.000000,0.000000,0.000000,4.000000,4.000000,4.000000,4.000000,4.000000,4.000000,0.000000,,,,,,,,,,,,,,,,,31.000000,0.000000,0.495932,0.477539,-0.524841,0.500549,0.979612,-0.060066,-0.008302,-35.984634,44.939999,31.786116
1732158743.294375,1732158743.297050,125.000000,0.000000,4310.000000,4307.948730,4318.846191,4311.538574,4299.358887,4278.717773,4332.948730,4406.794922,4315.384766,4296.922852,4491.025879,4531.153809,4351.922852,4433.205078,1559.000000,1.000000,19.000000,,,,0.000000,2.000000,2.000000,0.000000,4.000000,2.000000,2.000000,0.000000,0.000000,4.000000,4.000000,4.000000,4.000000,4.000000,4.000000,0.000000,,,,,,,,,,,,,,,,,,,,,,,,,,,,
1732158743.302183,1732158743.305058,126.000000,0.000000,4310.000000,4308.589844,4319.743652,4310.769043,4291.794922,4283.717773,4334.358887,4411.025879,4313.717773,4294.871582,4492.179688,4539.743652,4352.179688,4433.205078,1554.000000,1.000000,19.000000,,,,0.000000,2.000000,2.000000,0.000000,4.000000,2.000000,2.000000,0.000000,0.000000,4.000000,4.000000,4.000000,4.000000,4.000000,4.000000,0.000000,,,,,,,,,,,,,,,,,,,,,,,,,,,,
1732158743.309991,1732158743.312866,127.000000,0.000000,4302.563965,4301.538574,4319.743652,4311.153809,4271.282227,4287.307617,4336.025879,4413.077148,4319.487305,4297.563965,4493.846191,4542.051270,4350.128418,4430.000000,19.000000,1.000000,19.000000,,,,0.000000,2.000000,2.000000,0.000000,4.000000,2.000000,2.000000,0.000000,0.000000,4.000000,4.000000,4.000000,4.000000,4.000000,4.000000,0.000000,,,,,,,,,,,,,,,,,,,,,,,,,,,,
1732158743.317800,1732158743.320774,0.000000,0.000000,4295.641113,4297.307617,4318.077148,4309.743652,4276.666504,4282.051270,4335.897461,4409.102539,4315.512695,4304.871582,4493.589844,4533.717773,4352.436035,4430.000000,0.000000,1.000000,19.000000,,,,0.000000,2.000000,2.000000,0.000000,4.000000,2.000000,2.000000,0.000000,0.000000,4.000000,4.000000,4.000000,4.000000,4.000000,4.000000,0.000000,,,,,,,,,,,,,,,,,0.000000,0.000000,0.496158,0.477295,-0.525024,0.500366,0.980100,-0.061531,-0.011232,-35.817554,44.843067,32.045086
1732158743.325608,1732158743.328583,1.000000,0.000000,4295.769043,4302.436035,4318.974121,4305.641113,4291.922852,4278.717773,4335.769043,4406.025879,4310.000000,4303.333496,4493.333496,4528.333496,4354.487305,4429.871582,1611.000000,1.000000,19.000000,,,,0.000000,2.000000,2.000000,0.000000,4.000000,2.000000,2.000000,0.000000,0.000000,4.000000,4.000000,4.000000,4.000000,4.000000,4.000000,0.000000,,,,,,,,,,,,,,,,,,,,,,,,,,,,
1732158743.333416,1732158743.336591,2.000000,0.000000,4298.846191,4307.563965,4319.358887,4305.256348,4287.948730,4281.025879,4336.410156,4407.179688,4315.256348,4295.256348,4499.615234,4535.641113,4353.205078,4430.000000,1357.000000,1.000000,19.000000,,,,0.000000,2.000000,2.000000,0.000000,4.000000,2.000000,2.000000,0.000000,0.000000,4.000000,4.000000,4.000000,4.000000,4.000000,4.000000,0.000000,,,,,,,,,,,,,,,,,,,,,,,,,,,,
1732158743.341225,1732158743.344399,3.000000,0.000000,4304.487305,4311.666504,4318.717773,4311.922852,4273.589844,4281.922852,4335.384766,4407.307617,4321.922852,4295.384766,4500.769043,4539.358887,4352.436035,4434.230957,1426.000000,1.000000,19.000000,,,,0.000000,2.000000,2.000000,0.000000,4.000000,2.000000,2.000000,0.000000,0.000000,4.000000,4.000000,4.000000,4.000000,4.000000,4.000000,0.000000,,,,,,,,,,,,,,,,,,,,,,,,,,,,
1732158743.349033,1732158743.352107,4.000000,0.000000,4305.000000,4312.948730,4319.358887,4314.871582,4274.358887,4284.743652,4334.358887,4408.077148,4319.230957,4297.563965,4491.922852,4530.000000,4351.922852,4431.153809,1434.000000,1.000000,19.000000,,,,0.000000,2.000000,2.000000,0.000000,4.000000,2.000000,2.000000,0.000000,0.000000,4.000000,4.000000,4.000000,4.000000,4.000000,4.000000,0.000000,,,,,,,,,,,,,,,,,1.000000,0.000000,0.496205,0.477112,-0.525146,0.500366,0.973263,-0.066414,-0.011232,-35.837219,44.674549,31.894854
1732158743.356841,1732158743.359915,5.000000,0.000000,4299.743652,4310.641113,4320.384766,4311.922852,4286.025879,4288.333496,4335.256348,4409.230957,4312.436035,4293.589844,4488.077148,4526.025879,4350.384766,4422.692383,1195.000000,1.000000,19.000000,,,,0.000000,2.000000,2.000000,0.000000,4.000000,2.000000,2.000000,0.000000,0.000000,4.000000,4.000000,4.000000,4.000000,4.000000,4.000000,0.000000,,,,,,,,,,,,,,,,,,,,,,,,,,,,
1732158743.364649,1732158743.367524,6.000000,0.000000,4301.153809,4311.794922,4319.358887,4312.307617,4285.256348,4283.717773,4335.000000,4405.769043,4314.102539,4293.461426,4492.307617,4528.461426,4350.128418,4423.974121,0.000000,1.000000,19.000000,,,,0.000000,2.000000,2.000000,0.000000,4.000000,2.000000,2.000000,0.000000,0.000000,4.000000,4.000000,4.000000,4.000000,4.000000,4.000000,0.000000,,,,,,,,,,,,,,,,,,,,,,,,,,,,
1732158743.372458,1732158743.375332,7.000000,0.000000,4304.102539,4313.974121,4319.871582,4313.077148,4288.333496,4280.512695,4333.589844,4404.615234,4321.025879,4295.641113,4492.820313,4525.384766,4351.922852,4430.384766,0.000000,1.000000,19.000000,,,,0.000000,2.000000,2.000000,0.000000,4.000000,2.000000,2.000000,0.000000,0.000000,4.000000,4.000000,4.000000,4.000000,4.000000,4.000000,0.000000,,,,,,,,,,,,,,,,,,,,,,,,,,,,
1732158743.380266,1732158743.383240,8.000000,0.000000,4297.307617,4312.051270,4320.641113,4310.897461,4305.641113,4285.128418,4333.589844,4408.846191,4317.051270,4292.948730,4490.000000,4523.589844,4351.282227,4428.974121,1534.000000,1.000000,19.000000,,,,0.000000,2.000000,2.000000,0.000000,4.000000,2.000000,2.000000,0.000000,0.000000,4.000000,4.000000,4.000000,4.000000,4.000000,4.000000,0.000000,,,,,,,,,,,,,,,,,2.000000,0.000000,0.496026,0.477173,-0.525085,0.500549,0.971798,-0.062996,-0.007813,-35.951481,44.673054,31.871498
1732158743.388074,1732158743.391048,9.000000,0.000000,4294.871582,4311.410156,4319.871582,4310.128418,4300.641113,4284.743652,4333.461426,4409.358887,4308.846191,4293.077148,4491.410156,4522.051270,4349.743652,4425.897461,1691.000000,1.000000,19.000000,,,,0.000000,2.000000,2.000000,0.000000,4.000000,2.000000,2.000000,0.000000,0.000000,4.000000,4.000000,4.000000,4.000000,4.000000,4.000000,0.000000,,,,,,,,,,,,,,,,,,,,,,,,,,,,
1732158743.395882,1732158743.399056,10.000000,0.000000,4298.717773,4313.077148,4321.410156,4313.205078,4274.487305,4281.666504,4333.974121,4406.538574,4311.025879,4292.820313,4493.461426,4519.615234,4353.974121,4428.077148,1554.000000,1.000000,19.000000,,,,0.000000,2.000000,2.000000,0.000000,4.000000,2.000000,2.000000,0.000000,0.000000,4.000000,4.000000,4.000000,4.000000,4.000000,4.000000,0.000000,,,,,,,,,,,,,,,,,,,,,,,,,,,,
1732158743.403690,1732158743.406864,11.000000,0.000000,4297.563965,4312.307617,4321.666504,4312.307617,4271.282227,4283.846191,4336.025879,4410.000000,4318.333496,4293.974121,4493.333496,4522.692383,4357.948730,4429.615234,1546.000000,1.000000,19.000000,,,,0.000000,2.000000,2.000000,0.000000,4.000000,2.000000,2.000000,0.000000,0.000000,4.000000,4.000000,4.000000,4.000000,4.000000,4.000000,0.000000,,,,,,,,,,,,,,,,,,,,,,,,,,,,
1732158743.411499,1732158743.414773,12.000000,0.000000,4295.897461,4309.871582,4320.384766,4304.487305,4289.230957,4282.307617,4336.666504,4410.128418,4320.256348,4299.487305,4492.051270,4526.282227,4354.615234,4429.743652,1701.000000,1.000000,19.000000,,,,0.000000,2.000000,2.000000,0.000000,4.000000,2.000000,2.000000,0.000000,0.000000,4.000000,4.000000,4.000000,4.000000,4.000000,4.000000,0.000000,,,,,,,,,,,,,,,,,3.000000,0.000000,0.496076,0.477051,-0.525208,0.500488,0.971798,-0.062996,-0.007813,-35.929031,44.640171,32.054245
1732158743.419307,1732158743.422581,13.000000,0.000000,4296.922852,4310.641113,4320.128418,4303.846191,4289.230957,4280.769043,4335.769043,4404.358887,4318.846191,4297.307617,4491.538574,4523.589844,4352.820313,4428.333496,1561.000000,1.000000,19.000000,,,,0.000000,2.000000,2.000000,0.000000,4.000000,2.000000,2.000000,0.000000,0.000000,4.000000,4.000000,4.000000,4.000000,4.000000,4.000000,0.000000,,,,,,,,,,,,,,,,,,,,,,,,,,,,
1732158743.427115,1732158743.430589,14.000000,0.000000,4295.256348,4313.974121,4320.512695,4311.794922,4276.025879,4288.717773,4335.512695,4405.256348,4320.897461,4290.256348,4492.307617,4521.153809,4354.230957,4420.128418,1554.000000,1.000000,19.000000,,,,0.000000,2.000000,2.000000,0.000000,4.000000,2.000000,2.000000,0.000000,0.000000,4.000000,4.000000,4.000000,4.000000,4.000000,4.000000,0.000000,1.000000,0.000000,2.000000,2.000000,0.000000,4.000000,2.000000,2.000000,0.000000,0.000000,4.000000,4.000000,4.000000,4.000000,4.000000,4.000000,,,,,,,,,,,,
1732158743.434924,1732158743.438397,15.000000,0.000000,4292.692383,4312.307617,4319.743652,4311.666504,4273.846191,4290.384766,4335.256348,4408.333496,4320.000000,4291.922852,4492.436035,4518.589844,4350.512695,4413.077148,1546.000000,1.000000,19.000000,,,,0.000000,2.000000,2.000000,0.000000,4.000000,2.000000,2.000000,0.000000,0.000000,4.000000,4.000000,4.000000,4.000000,4.000000,4.000000,0.000000,,,,,,,,,,,,,,,,,,,,,,,,,,,,
1732158743.442732,1732158743.446305,16.000000,0.000000,4288.077148,4307.948730,4321.282227,4306.538574,4288.461426,4281.282227,4334.615234,4407.948730,4313.974121,4296.538574,4491.153809,4517.820313,4348.589844,4418.846191,0.000000,1.000000,19.000000,,,,0.000000,2.000000,2.000000,0.000000,4.000000,2.000000,2.000000,0.000000,0.000000,4.000000,4.000000,4.000000,4.000000,4.000000,4.000000,0.000000,,,,,,,,,,,,,,,,,4.000000,0.000000,0.496175,0.476807,-0.525452,0.500366,0.976682,-0.074716,-0.002930,-35.999184,44.760208,31.980606
1732158743.450540,1732158743.454113,17.000000,0.000000,4283.077148,4307.307617,4320.897461,4306.538574,4300.769043,4280.000000,4334.743652,4406.666504,4314.871582,4296.025879,4492.692383,4523.974121,4354.743652,4428.589844,0.000000,1.000000,19.000000,,,,0.000000,2.000000,2.000000,0.000000,4.000000,2.000000,2.000000,0.000000,0.000000,4.000000,4.000000,4.000000,4.000000,4.000000,4.000000,0.000000,,,,,,,,,,,,,,,,,,,,,,,,,,,,
1732158743.458348,1732158743.462121,18.000000,0.000000,4283.077148,4305.641113,4320.384766,4305.769043,4286.153809,4284.230957,4334.743652,4406.922852,4320.256348,4295.897461,4496.538574,4526.410156,4359.102539,4428.077148,0.000000,1.000000,19.000000,,,,0.000000,2.000000,2.000000,0.000000,4.000000,2.000000,2.000000,0.000000,0.000000,4.000000,4.000000,4.000000,4.000000,4.000000,4.000000,0.000000,,,,,,,,,,,,,,,,,,,,,,,,,,,,
1732158743.466157,1732158743.469930,19.000000,0.000000,4282.692383,4302.179688,4322.820313,4304.871582,4271.282227,4286.922852,4334.615234,4406.922852,4322.692383,4300.641113,4496.025879,4522.563965,4358.846191,4421.025879,0.000000,1.000000,19.000000,,,,0.000000,2.000000,2.000000,0.000000,4.000000,2.000000,2.000000,0.000000,0.000000,4.000000,4.000000,4.000000,4.000000,4.000000,4.000000,0.000000,,,,,,,,,,,,,,,,,,,,,,,,,,,,
1732158743.473965,1732158743.477738,20.000000,0.000000,4281.282227,4298.717773,4320.000000,4307.692383,4278.077148,4287.820313,4334.743652,4407.179688,4323.974121,4301.153809,4492.051270,4522.051270,4355.641113,4413.974121,0.000000,1.000000,19.000000,,,,0.000000,2.000000,2.000000,0.000000,4.000000,2.000000,2.000000,0.000000,0.000000,4.000000,4.000000,4.000000,4.000000,4.000000,4.000000,0.000000,,,,,,,,,,,,,,,,,5.000000,0.000000,0.496400,0.476563,-0.525635,0.500183,0.984984,-0.052741,-0.019534,-35.954338,44.715767,31.920958
1732158743.481773,1732158743.485546,21.000000,0.000000,4283.205078,4298.333496,4314.615234,4307.307617,4284.743652,4281.922852,4334.615234,4408.333496,4323.077148,4299.871582,4492.307617,4521.666504,4355.000000,4412.307617,0.000000,1.000000,19.000000,,,,0.000000,2.000000,2.000000,0.000000,4.000000,2.000000,2.000000,0.000000,0.000000,4.000000,4.000000,4.000000,4.000000,4.000000,4.000000,0.000000,,,,,,,,,,,,,,,,,,,,,,,,,,,,
1732158743.489581,1732158743.493154,22.000000,0.000000,4285.000000,4300.641113,4318.077148,4306.410156,4281.282227,4278.974121,4334.871582,4409.358887,4318.333496,4304.358887,4494.871582,4521.538574,4357.436035,4419.102539,0.000000,1.000000,19.000000,,,,0.000000,2.000000,2.000000,0.000000,4.000000,2.000000,2.000000,0.000000,0.000000,4.000000,4.000000,4.000000,4.000000,4.000000,4.000000,0.000000,,,,,,,,,,,,,,,,,,,,,,,,,,,,
1732158743.497390,1732158743.500963,23.000000,0.000000,4285.897461,4299.487305,4321.025879,4309.487305,4287.051270,4288.077148,4334.743652,4408.589844,4317.563965,4304.230957,4492.436035,4525.000000,4354.871582,4420.641113,0.000000,1.000000,19.000000,,,,0.000000,2.000000,2.000000,0.000000,4.000000,2.000000,2.000000,0.000000,0.000000,4.000000,4.000000,4.000000,4.000000,4.000000,4.000000,0.000000,,,,,,,,,,,,,,,,,,,,,,,,,,,,
1732158743.505198,1732158743.508671,24.000000,0.000000,4285.769043,4295.128418,4317.051270,4308.077148,4294.102539,4293.333496,4334.487305,4407.692383,4321.666504,4294.487305,4488.846191,4524.871582,4351.794922,4413.846191,0.000000,1.000000,19.000000,,,,0.000000,2.000000,2.000000,0.000000,4.000000,2.000000,2.000000,0.000000,0.000000,4.000000,4.000000,4.000000,4.000000,4.000000,4.000000,0.000000,,,,,,,,,,,,,,,,,6.000000,0.000000,0.496400,0.476563,-0.525635,0.500183,0.966427,-0.046392,-0.006837,-35.858013,44.619770,31.962643
1732158743.513006,1732158743.516479,25.000000,0.000000,4283.974121,4295.256348,4318.589844,4305.256348,4290.000000,4292.948730,4335.128418,4407.820313,4324.102539,4293.333496,4491.153809,4524.102539,4352.563965,4412.436035,0.000000,1.000000,19.000000,,,,0.000000,2.000000,2.000000,0.000000,4.000000,2.000000,2.000000,0.000000,0.000000,4.000000,4.000000,4.000000,4.000000,4.000000,4.000000,0.000000,,,,,,,,,,,,,,,,,,,,,,,,,,,,
1732158743.520814,1732158743.524087,26.000000,0.000000,4281.153809,4296.410156,4324.230957,4305.128418,4293.846191,4289.615234,4336.025879,4406.410156,4318.461426,4298.846191,4492.179688,4524.487305,4349.358887,4413.589844,0.000000,1.000000,19.000000,,,,0.000000,2.000000,2.000000,0.000000,4.000000,2.000000,2.000000,0.000000,0.000000,4.000000,4.000000,4.000000,4.000000,4.000000,4.000000,0.000000,,,,,,,,,,,,,,,,,,,,,,,,,,,,
1732158743.528623,1732158743.531896,27.000000,0.000000,4281.153809,4295.000000,4320.897461,4301.922852,4301.410156,4284.358887,4335.512695,4405.384766,4312.179688,4293.205078,4487.692383,4520.641113,4343.589844,4411.025879,0.000000,1.000000,19.000000,,,,0.000000,2.000000,2.000000,0.000000,4.000000,2.000000,2.000000,0.000000,0.000000,4.000000,4.000000,4.000000,4.000000,4.000000,4.000000,0.000000,,,,,,,,,,,,,,,,,,,,,,,,,,,,
1732158743.536431,1732158743.539604,28.000000,0.000000,4283.461426,4297.307617,4316.410156,4302.051270,4290.641113,4287.948730,4335.384766,4408.077148,4316.410156,4290.384766,4487.179688,4522.179688,4346.538574,4413.846191,0.000000,1.000000,19.000000,,,,0.000000,2.000000,2.000000,0.000000,4.000000,2.000000,2.000000,0.000000,0.000000,4.000000,4.000000,4.000000,4.000000,4.000000,4.000000,0.000000,,,,,,,,,,,,,,,,,7.000000,0.000000,0.496566,0.476379,-0.525818,0.500000,0.974728,-0.055183,-0.013674,-35.879993,44.820347,31.918074
1732158743.544239,1732158743.547412,29.000000,0.000000,4286.922852,4299.743652,4319.615234,4310.128418,4273.589844,4292.820313,4335.897461,4408.205078,4322.436035,4297.563965,4492.692383,4530.128418,4352.820313,4420.128418,0.000000,1.000000,19.000000,,,,0.000000,2.000000,2.000000,0.000000,4.000000,2.000000,2.000000,0.000000,0.000000,4.000000,4.000000,4.000000,4.000000,4.000000,4.000000,0.000000,,,,,,,,,,,,,,,,,,,,,,,,,,,,
1732158743.552047,1732158743.555021,30.000000,0.000000,4292.820313,4299.102539,4321.794922,4310.897461,4275.641113,4283.333496,4335.384766,4403.846191,4319.230957,4297.563965,4493.333496,4528.717773,4351.666504,4417.051270,0.000000,1.000000,19.000000,,,,0.000000,2.000000,2.000000,0.000000,4.000000,2.000000,2.000000,0.000000,0.000000,4.000000,4.000000,4.000000,4.000000,4.000000,4.000000,0.000000,,,,,,,,,,,,,,,,,,,,,,,,,,,,
1732158743.559856,1732158743.562829,31.000000,0.000000,4293.846191,4298.717773,4320.128418,4304.358887,4283.717773,4277.436035,4334.358887,4407.820313,4313.205078,4294.743652,4490.897461,4521.153809,4350.641113,4413.974121,0.000000,1.000000,19.000000,,,,0.000000,2.000000,2.000000,0.000000,4.000000,2.000000,2.000000,0.000000,0.000000,4.000000,4.000000,4.000000,4.000000,4.000000,4.000000,0.000000,,,,,,,,,,,,,,,,,,,,,,,,,,,,
1732158743.567664,1732158743.570537,32.000000,0.000000,4291.794922,4296.410156,4319.358887,4307.179688,4277.948730,4288.846191,4334.615234,4412.307617,4313.717773,4293.846191,4490.897461,4521.282227,4350.512695,4417.051270,0.000000,1.000000,19.000000,,,,0.000000,2.000000,2.000000,0.000000,4.000000,2.000000,2.000000,0.000000,0.000000,4.000000,4.000000,4.000000,4.000000,4.000000,4.000000,0.000000,,,,,,,,,,,,,,,,,8.000000,0.000000,0.496954,0.475891,-0.526184,0.499695,0.985960,-0.052252,-0.003418,-35.997795,44.737816,31.956974
1732158743.575472,1732158743.578345,33.000000,0.000000,4291.538574,4294.487305,4321.153809,4309.615234,4286.922852,4290.897461,4335.128418,4404.743652,4315.897461,4293.846191,4489.230957,4521.794922,4345.384766,4415.897461,0.000000,1.000000,19.000000,,,,0.000000,2.000000,2.000000,0.000000,4.000000,2.000000,2.000000,0.000000,0.000000,4.000000,4.000000,4.000000,4.000000,4.000000,4.000000,0.000000,,,,,,,,,,,,,,,,,,,,,,,,,,,,
1732158743.583280,1732158743.585954,34.000000,0.000000,4293.846191,4299.230957,4318.717773,4306.025879,4308.077148,4280.128418,4334.102539,4398.846191,4312.436035,4296.153809,4488.846191,4517.948730,4343.846191,4413.205078,0.000000,1.000000,19.000000,,,,0.000000,2.000000,2.000000,0.000000,4.000000,2.000000,2.000000,0.000000,0.000000,4.000000,4.000000,4.000000,4.000000,4.000000,4.000000,0.000000,,,,,,,,,,,,,,,,,,,,,,,,,,,,
1732158743.591089,1732158743.593762,35.000000,0.000000,4295.000000,4302.948730,4316.666504,4310.000000,4292.563965,4280.769043,4332.948730,4406.025879,4312.179688,4291.025879,4491.410156,4524.358887,4349.871582,4415.512695,0.000000,1.000000,19.000000,,,,0.000000,2.000000,2.000000,0.000000,4.000000,2.000000,2.000000,0.000000,0.000000,4.000000,4.000000,4.000000,4.000000,4.000000,4.000000,0.000000,,,,,,,,,,,,,,,,,,,,,,,,,,,,
1732158743.598897,1732158743.601470,36.000000,0.000000,4294.358887,4298.717773,4319.102539,4314.358887,4269.743652,4284.358887,4334.487305,4407.820313,4314.358887,4281.410156,4490.256348,4531.025879,4351.794922,4415.769043,0.000000,1.000000,19.000000,,,,0.000000,2.000000,2.000000,0.000000,4.000000,2.000000,2.000000,0.000000,0.000000,4.000000,4.000000,4.000000,4.000000,4.000000,4.000000,0.000000,,,,,,,,,,,,,,,,,9.000000,0.000000,0.496837,0.475952,-0.526123,0.499817,0.971310,-0.065926,-0.008790,-35.923214,44.649296,31.925148
1732158743.606705,1732158743.609278,37.000000,0.000000,4294.743652,4294.743652,4321.025879,4308.077148,4286.666504,4281.666504,4336.410156,4400.897461,4312.051270,4284.871582,4486.410156,4527.179688,4346.794922,4410.769043,0.000000,1.000000,19.000000,,,,0.000000,2.000000,2.000000,0.000000,4.000000,2.000000,2.000000,0.000000,0.000000,4.000000,4.000000,4.000000,4.000000,4.000000,4.000000,0.000000,,,,,,,,,,,,,,,,,,,,,,,,,,,,
1732158743.614513,1732158743.617286,38.000000,0.000000,4293.333496,4297.436035,4320.256348,4306.025879,4297.820313,4283.077148,4336.282227,4405.256348,4313.333496,4296.153809,4487.948730,4525.641113,4346.922852,4410.641113,0.000000,1.000000,19.000000,,,,0.000000,2.000000,2.000000,0.000000,4.000000,2.000000,2.000000,0.000000,0.000000,4.000000,4.000000,4.000000,4.000000,4.000000,4.000000,0.000000,,,,,,,,,,,,,,,,,,,,,,,,,,,,
1732158743.622321,1732158743.625095,39.000000,0.000000,4292.948730,4302.179688,4319.743652,4313.077148,4275.897461,4287.436035,4335.256348,4412.051270,4319.743652,4294.743652,4488.846191,4531.538574,4349.487305,4415.512695,0.000000,1.000000,19.000000,,,,0.000000,2.000000,2.000000,0.000000,4.000000,2.000000,2.000000,0.000000,0.000000,4.000000,4.000000,4.000000,4.000000,4.000000,4.000000,0.000000,,,,,,,,,,,,,,,,,,,,,,,,,,,,
1732158743.630130,1732158743.632803,40.000000,0.000000,4292.179688,4299.615234,4319.615234,4314.487305,4271.410156,4283.717773,4335.000000,4408.077148,4313.461426,4285.256348,4481.153809,4530.256348,4344.358887,4411.922852,0.000000,1.000000,19.000000,,,,0.000000,2.000000,2.000000,0.000000,4.000000,2.000000,2.000000,0.000000,0.000000,4.000000,4.000000,4.000000,4.000000,4.000000,4.000000,0.000000,,,,,,,,,,,,,,,,,10.000000,0.000000,0.496837,0.475952,-0.526123,0.499817,0.984007,-0.051276,-0.008790,-35.877804,44.667599,31.839371
1732158743.637938,1732158743.640611,41.000000,0.000000,4286.410156,4296.666504,4319.615234,4310.897461,4286.025879,4279.743652,4334.871582,4405.256348,4301.282227,4277.820313,4474.102539,4521.282227,4339.871582,4399.615234,0.000000,1.000000,19.000000,,,,0.000000,2.000000,2.000000,0.000000,4.000000,2.000000,2.000000,0.000000,0.000000,4.000000,4.000000,4.000000,4.000000,4.000000,4.000000,0.000000,,,,,,,,,,,,,,,,,,,,,,,,,,,,
1732158743.645746,1732158743.648220,42.000000,0.000000,4277.948730,4295.256348,4320.128418,4303.974121,4283.846191,4287.051270,4334.871582,4409.358887,4304.358887,4280.641113,4477.179688,4517.948730,4342.051270,4394.487305,0.000000,1.000000,19.000000,,,,0.000000,2.000000,2.000000,0.000000,4.000000,2.000000,2.000000,0.000000,0.000000,4.000000,4.000000,4.000000,4.000000,4.000000,4.000000,0.000000,,,,,,,,,,,,,,,,,,,,,,,,,,,,
1732158743.653555,1732158743.656028,43.000000,0.000000,4275.000000,4289.615234,4318.461426,4295.000000,4279.743652,4294.615234,4334.871582,4410.000000,4314.102539,4288.846191,4481.666504,4521.153809,4341.538574,4397.179688,0.000000,1.000000,19.000000,,,,0.000000,2.000000,2.000000,0.000000,4.000000,2.000000,2.000000,0.000000,0.000000,4.000000,4.000000,4.000000,4.000000,4.000000,4.000000,0.000000,,,,,,,,,,,,,,,,,,,,,,,,,,,,
1732158743.661363,1732158743.663736,44.000000,0.000000,4279.871582,4289.487305,4316.666504,4295.897461,4294.358887,4288.205078,4334.743652,4404.743652,4311.538574,4283.333496,4478.333496,4520.897461,4336.282227,4396.025879,0.000000,1.000000,19.000000,,,,0.000000,2.000000,2.000000,0.000000,4.000000,2.000000,2.000000,0.000000,0.000000,4.000000,4.000000,4.000000,4.000000,4.000000,4.000000,0.000000,,,,,,,,,,,,,,,,,11.000000,0.000000,0.497033,0.476135,-0.526062,0.499512,0.963985,-0.055183,-0.003907,-35.736019,44.690754,31.974890
1732158743.669171,1732158743.671544,45.000000,0.000000,4281.025879,4296.282227,4317.948730,4305.641113,4302.948730,4280.000000,4334.871582,4403.461426,4306.025879,4289.743652,4477.820313,4516.538574,4341.794922,4395.128418,0.000000,1.000000,19.000000,,,,0.000000,2.000000,2.000000,0.000000,4.000000,2.000000,2.000000,0.000000,0.000000,4.000000,4.000000,4.000000,4.000000,4.000000,4.000000,0.000000,,,,,,,,,,,,,,,,,,,,,,,,,,,,
1732158743.676979,1732158743.679153,46.000000,0.000000,4283.077148,4297.179688,4319.615234,4306.410156,4287.563965,4281.538574,4334.871582,4406.025879,4311.153809,4306.794922,4486.025879,4517.563965,4350.769043,4401.410156,0.000000,1.000000,19.000000,,,,0.000000,2.000000,2.000000,0.000000,4.000000,2.000000,2.000000,0.000000,0.000000,4.000000,4.000000,4.000000,4.000000,4.000000,4.000000,0.000000,,,,,,,,,,,,,,,,,,,,,,,,,,,,
1732158743.684788,1732158743.686961,47.000000,0.000000,4292.179688,4297.563965,4317.820313,4305.128418,4271.410156,4282.307617,4334.871582,4406.153809,4314.487305,4294.615234,4491.025879,4522.692383,4349.743652,4406.282227,0.000000,1.000000,19.000000,,,,0.000000,2.000000,2.000000,0.000000,4.000000,2.000000,2.000000,0.000000,0.000000,4.000000,4.000000,4.000000,4.000000,4.000000,4.000000,0.000000,,,,,,,,,,,,,,,,,,,,,,,,,,,,
1732158743.692596,1732158743.694669,48.000000,0.000000,4290.897461,4301.666504,4316.153809,4311.410156,4276.282227,4278.589844,4334.871582,4407.436035,4306.794922,4276.153809,4486.282227,4523.461426,4348.333496,4400.641113,0.000000,1.000000,19.000000,,,,0.000000,2.000000,2.000000,0.000000,4.000000,2.000000,2.000000,0.000000,0.000000,4.000000,4.000000,4.000000,4.000000,4.000000,4.000000,0.000000,,,,,,,,,,,,,,,,,12.000000,0.000000,0.496806,0.476379,-0.525940,0.499634,0.975705,-0.056648,-0.013674,-35.717842,44.559509,32.029659
1732158743.700404,1732158743.702478,49.000000,0.000000,4285.769043,4299.358887,4316.922852,4310.769043,4284.487305,4278.589844,4334.871582,4410.256348,4305.769043,4287.692383,4479.102539,4517.563965,4352.179688,4394.102539,0.000000,1.000000,19.000000,,,,0.000000,2.000000,2.000000,0.000000,4.000000,2.000000,2.000000,0.000000,0.000000,4.000000,4.000000,4.000000,4.000000,4.000000,4.000000,0.000000,,,,,,,,,,,,,,,,,,,,,,,,,,,,
1732158743.708213,1732158743.710486,50.000000,0.000000,4287.307617,4293.589844,4318.717773,4303.846191,4279.358887,4281.538574,4334.871582,4409.487305,4312.692383,4298.974121,4478.077148,4512.051270,4350.384766,4398.717773,0.000000,1.000000,19.000000,,,,0.000000,2.000000,2.000000,0.000000,4.000000,2.000000,2.000000,0.000000,0.000000,4.000000,4.000000,4.000000,4.000000,4.000000,4.000000,0.000000,,,,,,,,,,,,,,,,,,,,,,,,,,,,
1732158743.716021,1732158743.718294,51.000000,0.000000,4285.256348,4294.102539,4319.102539,4306.410156,4284.358887,4286.794922,4334.871582,4407.692383,4312.307617,4290.897461,4483.974121,4513.077148,4343.589844,4403.974121,0.000000,1.000000,19.000000,,,,0.000000,2.000000,2.000000,0.000000,4.000000,2.000000,2.000000,0.000000,0.000000,4.000000,4.000000,4.000000,4.000000,4.000000,4.000000,0.000000,,,,,,,,,,,,,,,,,,,,,,,,,,,,
1732158743.723829,1732158743.726202,52.000000,0.000000,4283.461426,4296.922852,4319.743652,4310.641113,4306.153809,4287.820313,4334.871582,4410.641113,4308.077148,4289.743652,4488.077148,4519.230957,4344.871582,4403.077148,0.000000,1.000000,19.000000,,,,0.000000,2.000000,2.000000,0.000000,4.000000,2.000000,2.000000,0.000000,0.000000,4.000000,4.000000,4.000000,4.000000,4.000000,4.000000,0.000000,,,,,,,,,,,,,,,,,13.000000,0.000000,0.496870,0.476440,-0.525940,0.499512,0.982053,-0.053229,-0.017092,-35.881451,44.469872,32.135693
1732158743.731637,1732158743.734010,53.000000,0.000000,4291.410156,4298.333496,4319.358887,4307.436035,4302.307617,4279.615234,4334.743652,4409.743652,4307.692383,4294.102539,4487.307617,4522.692383,4351.794922,4407.179688,0.000000,1.000000,19.000000,,,,0.000000,2.000000,2.000000,0.000000,4.000000,2.000000,2.000000,0.000000,0.000000,4.000000,4.000000,4.000000,4.000000,4.000000,4.000000,0.000000,,,,,,,,,,,,,,,,,,,,,,,,,,,,
1732158743.739445,1732158743.742018,54.000000,0.000000,4297.820313,4297.307617,4318.333496,4307.307617,4267.179688,4278.205078,4334.871582,4406.666504,4311.025879,4293.461426,4491.410156,4522.692383,4352.051270,4413.846191,0.000000,1.000000,19.000000,,,,0.000000,2.000000,2.000000,0.000000,4.000000,2.000000,2.000000,0.000000,0.000000,4.000000,4.000000,4.000000,4.000000,4.000000,4.000000,0.000000,,,,,,,,,,,,,,,,,,,,,,,,,,,,
1732158743.747254,1732158743.749826,55.000000,0.000000,4291.410156,4294.102539,4318.205078,4310.000000,4264.487305,4283.205078,4334.743652,4408.717773,4311.922852,4292.051270,4487.563965,4523.846191,4343.589844,4406.794922,0.000000,1.000000,19.000000,,,,0.000000,2.000000,2.000000,0.000000,4.000000,2.000000,2.000000,0.000000,0.000000,4.000000,4.000000,4.000000,4.000000,4.000000,4.000000,0.000000,,,,,,,,,,,,,,,,,,,,,,,,,,,,
1732158743.755062,1732158743.757535,56.000000,0.000000,4284.743652,4293.461426,4316.922852,4306.922852,4294.487305,4281.538574,4334.615234,4406.282227,4303.974121,4294.487305,4475.512695,4525.256348,4340.384766,4399.487305,0.000000,1.000000,19.000000,,,,0.000000,2.000000,2.000000,0.000000,4.000000,2.000000,2.000000,0.000000,0.000000,4.000000,4.000000,4.000000,4.000000,4.000000,4.000000,0.000000,,,,,,,,,,,,,,,,,14.000000,0.000000,0.496870,0.476440,-0.525940,0.499512,0.982053,-0.053229,-0.017092,-35.998978,44.382263,32.161575
1732158743.762870,1732158743.765343,57.000000,0.000000,4287.436035,4294.358887,4315.256348,4305.384766,4292.179688,4282.563965,4335.641113,4401.025879,4300.641113,4291.410156,4480.128418,4526.666504,4349.487305,4406.538574,0.000000,1.000000,19.000000,,,,0.000000,2.000000,2.000000,0.000000,4.000000,2.000000,2.000000,0.000000,0.000000,4.000000,4.000000,4.000000,4.000000,4.000000,4.000000,0.000000,,,,,,,,,,,,,,,,,,,,,,,,,,,,
1732158743.770678,1732158743.772951,58.000000,0.000000,4295.128418,4295.641113,4317.307617,4310.641113,4267.820313,4287.307617,4336.538574,4404.871582,4310.256348,4281.282227,4492.051270,4528.333496,4352.692383,4409.487305,0.000000,1.000000,19.000000,,,,0.000000,2.000000,2.000000,0.000000,4.000000,2.000000,2.000000,0.000000,0.000000,4.000000,4.000000,4.000000,4.000000,4.000000,4.000000,0.000000,,,,,,,,,,,,,,,,,,,,,,,,,,,,
1732158743.778487,1732158743.780759,59.000000,0.000000,4295.769043,4295.769043,4319.615234,4313.974121,4273.717773,4287.563965,4336.153809,4409.871582,4313.589844,4283.717773,4489.230957,4528.461426,4342.820313,4402.179688,0.000000,1.000000,19.000000,,,,0.000000,2.000000,2.000000,0.000000,4.000000,2.000000,2.000000,0.000000,0.000000,4.000000,4.000000,4.000000,4.000000,4.000000,4.000000,0.000000,,,,,,,,,,,,,,,,,,,,,,,,,,,,
1732158743.786295,1732158743.788667,60.000000,0.000000,4290.897461,4295.512695,4318.717773,4309.358887,4298.333496,4283.974121,4335.641113,4408.205078,4306.153809,4293.717773,4485.769043,4529.615234,4341.410156,4402.948730,0.000000,1.000000,19.000000,,,,0.000000,2.000000,2.000000,0.000000,4.000000,2.000000,2.000000,0.000000,0.000000,4.000000,4.000000,4.000000,4.000000,4.000000,4.000000,0.000000,,,,,,,,,,,,,,,,,15.000000,0.000000,0.497030,0.476196,-0.526184,0.499329,0.988890,-0.047369,-0.002930,-35.850838,44.362965,31.989210
1732158743.794103,1732158743.796476,61.000000,0.000000,4290.897461,4296.025879,4318.461426,4304.230957,4292.307617,4282.820313,4335.512695,4409.487305,4309.487305,4296.666504,4491.794922,4531.922852,4352.436035,4408.846191,0.000000,1.000000,19.000000,,,,0.000000,2.000000,2.000000,0.000000,4.000000,2.000000,2.000000,0.000000,0.000000,4.000000,4.000000,4.000000,4.000000,4.000000,4.000000,0.000000,,,,,,,,,,,,,,,,,,,,,,,,,,,,
1732158743.801911,1732158743.804484,62.000000,0.000000,4292.051270,4295.256348,4318.333496,4307.820313,4272.563965,4287.307617,4335.000000,4411.153809,4317.179688,4294.230957,4490.384766,4530.512695,4352.307617,4408.333496,0.000000,1.000000,19.000000,,,,0.000000,2.000000,2.000000,0.000000,4.000000,2.000000,2.000000,0.000000,0.000000,4.000000,4.000000,4.000000,4.000000,4.000000,4.000000,0.000000,,,,,,,,,,,,,,,,,,,,,,,,,,,,
1732158743.809720,1732158743.812292,63.000000,0.000000,4294.230957,4296.025879,4319.102539,4312.948730,4284.102539,4290.256348,4334.615234,4408.077148,4309.487305,4289.230957,4481.410156,4523.333496,4345.384766,4409.743652,0.000000,1.000000,19.000000,,,,0.000000,2.000000,2.000000,0.000000,4.000000,2.000000,2.000000,0.000000,0.000000,4.000000,4.000000,4.000000,4.000000,4.000000,4.000000,0.000000,,,,,,,,,,,,,,,,,,,,,,,,,,,,
1732158743.817528,1732158743.820200,64.000000,0.000000,4293.077148,4297.179688,4321.538574,4310.256348,4297.436035,4290.512695,4334.871582,4407.563965,4303.974121,4288.333496,4477.948730,4515.897461,4344.743652,4410.897461,0.000000,1.000000,19.000000,,,,0.000000,2.000000,2.000000,0.000000,4.000000,2.000000,2.000000,0.000000,0.000000,4.000000,4.000000,4.000000,4.000000,4.000000,4.000000,0.000000,,,,,,,,,,,,,,,,,16.000000,0.000000,0.497198,0.476013,-0.526306,0.499207,0.970822,-0.055183,-0.003907,-35.825844,44.367336,31.931261
1732158743.825336,1732158743.828008,65.000000,0.000000,4289.743652,4295.384766,4321.794922,4307.563965,4277.307617,4290.128418,4334.743652,4408.205078,4312.948730,4292.692383,4476.794922,4515.000000,4343.589844,4405.769043,1609.000000,1.000000,19.000000,,,,0.000000,2.000000,2.000000,0.000000,4.000000,2.000000,2.000000,0.000000,0.000000,4.000000,4.000000,4.000000,4.000000,4.000000,4.000000,0.000000,,,,,,,,,,,,,,,,,,,,,,,,,,,,
