title:4eight, start timestamp:1732158805.948199, stop timestamp:1732158849.143463, headset type:EPOCX, headset serial:E5020C3A, headset firmware:730, channels:67, sampling rate:eeg_128;mot_32, samples:5533      , version:2.2, 
Timestamp,OriginalTimestamp,EEG.Counter,EEG.Interpolated,EEG.AF3,EEG.F7,EEG.F3,EEG.FC5,EEG.T7,EEG.P7,EEG.O1,EEG.O2,EEG.P8,EEG.T8,EEG.FC6,EEG.F4,EEG.F8,EEG.AF4,EEG.RawCq,EEG.Battery,EEG.BatteryPercent,MarkerIndex,MarkerType,MarkerValueInt,EEG.MarkerHardware,CQ.AF3,CQ.F7,CQ.F3,CQ.FC5,CQ.T7,CQ.P7,CQ.O1,CQ.O2,CQ.P8,CQ.T8,CQ.FC6,CQ.F4,CQ.F8,CQ.AF4,CQ.Overall,EQ.SampleRateQuality,EQ.OVERALL,EQ.AF3,EQ.F7,EQ.F3,EQ.FC5,EQ.T7,EQ.P7,EQ.O1,EQ.O2,EQ.P8,EQ.T8,EQ.FC6,EQ.F4,EQ.F8,EQ.AF4,MOT.CounterMems,MOT.InterpolatedMems,MOT.Q0,MOT.Q1,MOT.Q2,MOT.Q3,MOT.AccX,MOT.AccY,MOT.AccZ,MOT.MagX,MOT.MagY,MOT.MagZ
1732158805.948199,1732158805.951014,85.000000,0.000000,4275.128418,4279.871582,4319.871582,4307.436035,4290.512695,4296.538574,4340.384766,4406.794922,4310.641113,4311.410156,4503.077148,4518.077148,4368.077148,4431.153809,1563.000000,1.000000,19.000000,,,,0.000000,2.000000,2.000000,0.000000,4.000000,2.000000,2.000000,0.000000,0.000000,4.000000,4.000000,4.000000,4.000000,4.000000,4.000000,0.000000,,,,,,,,,,,,,,,,,,,,,,,,,,,,
1732158805.956007,1732158805.958622,86.000000,0.000000,4273.461426,4278.846191,4319.230957,4309.487305,4285.512695,4292.436035,4341.410156,4406.922852,4314.230957,4311.153809,4502.692383,4518.461426,4364.615234,4429.743652,1561.000000,1.000000,19.000000,,,,0.000000,2.000000,2.000000,0.000000,4.000000,2.000000,2.000000,0.000000,0.000000,4.000000,4.000000,4.000000,4.000000,4.000000,4.000000,0.000000,,,,,,,,,,,,,,,,,,,,,,,,,,,,
1732158805.963816,1732158805.966430,87.000000,0.000000,4276.153809,4278.589844,4320.000000,4307.436035,4291.410156,4289.615234,4341.282227,4406.153809,4315.769043,4311.282227,4503.974121,4520.256348,4365.256348,4430.128418,1551.000000,1.000000,19.000000,,,,0.000000,2.000000,2.000000,0.000000,4.000000,2.000000,2.000000,0.000000,0.000000,4.000000,4.000000,4.000000,4.000000,4.000000,4.000000,0.000000,,,,,,,,,,,,,,,,,,,,,,,,,,,,
1732158805.971624,1732158805.974139,88.000000,0.000000,4277.948730,4278.589844,4319.102539,4309.230957,4293.846191,4293.077148,4339.615234,4403.077148,4313.589844,4310.256348,4502.948730,4518.461426,4363.077148,4430.512695,1705.000000,1.000000,19.000000,,,,0.000000,2.000000,2.000000,0.000000,4.000000,2.000000,2.000000,0.000000,0.000000,4.000000,4.000000,4.000000,4.000000,4.000000,4.000000,0.000000,,,,,,,,,,,,,,,,,22.000000,0.000000,0.523540,0.500916,-0.518066,0.454529,0.944451,0.076181,-0.023440,-34.621849,45.634979,31.251616
1732158805.979432,1732158805.981947,89.000000,0.000000,4276.410156,4279.358887,4317.307617,4310.384766,4293.717773,4295.384766,4338.974121,4405.384766,4311.666504,4308.846191,4502.307617,4518.846191,4362.051270,4431.922852,1563.000000,1.000000,19.000000,,,,0.000000,2.000000,2.000000,0.000000,4.000000,2.000000,2.000000,0.000000,0.000000,4.000000,4.000000,4.000000,4.000000,4.000000,4.000000,0.000000,,,,,,,,,,,,,,,,,,,,,,,,,,,,
1732158805.987240,1732158805.989555,90.000000,0.000000,4275.897461,4278.846191,4314.230957,4308.846191,4294.871582,4293.589844,4339.102539,4407.179688,4311.794922,4308.333496,4505.641113,4526.282227,4365.000000,4435.384766,1561.000000,1.000000,19.000000,,,,0.000000,2.000000,2.000000,0.000000,4.000000,2.000000,2.000000,0.000000,0.000000,4.000000,4.000000,4.000000,4.000000,4.000000,4.000000,0.000000,,,,,,,,,,,,,,,,,,,,,,,,,,,,
1732158805.995049,1732158805.997364,91.000000,0.000000,4276.153809,4278.589844,4312.563965,4307.307617,4294.102539,4292.563965,4338.974121,4403.205078,4310.897461,4308.077148,4506.538574,4528.846191,4367.948730,4434.230957,1551.000000,1.000000,19.000000,,,,0.000000,2.000000,2.000000,0.000000,4.000000,2.000000,2.000000,0.000000,0.000000,4.000000,4.000000,4.000000,4.000000,4.000000,4.000000,0.000000,,,,,,,,,,,,,,,,,,,,,,,,,,,,
1732158806.002857,1732158806.005072,92.000000,0.000000,4277.563965,4283.846191,4314.230957,4310.384766,4294.358887,4292.307617,4339.230957,4400.384766,4311.153809,4307.307617,4506.922852,4527.820313,4371.153809,4436.025879,1705.000000,1.000000,19.000000,,,,0.000000,2.000000,2.000000,0.000000,4.000000,2.000000,2.000000,0.000000,0.000000,4.000000,4.000000,4.000000,4.000000,4.000000,4.000000,0.000000,,,,,,,,,,,,,,,,,23.000000,0.000000,0.523540,0.500916,-0.518066,0.454529,0.945916,0.086925,-0.029300,-34.555367,45.875999,31.287142
1732158806.010665,1732158806.012880,93.000000,0.000000,4279.358887,4285.897461,4317.051270,4312.051270,4293.717773,4291.410156,4339.102539,4402.307617,4311.666504,4302.948730,4509.102539,4533.717773,4372.307617,4442.820313,1563.000000,1.000000,19.000000,,,,0.000000,2.000000,2.000000,0.000000,4.000000,2.000000,2.000000,0.000000,0.000000,4.000000,4.000000,4.000000,4.000000,4.000000,4.000000,0.000000,,,,,,,,,,,,,,,,,,,,,,,,,,,,
1732158806.018473,1732158806.020888,94.000000,0.000000,4279.487305,4280.641113,4315.897461,4310.384766,4293.717773,4291.538574,4338.846191,4402.948730,4309.871582,4300.128418,4507.563965,4540.384766,4368.717773,4441.922852,1561.000000,1.000000,19.000000,,,,0.000000,2.000000,2.000000,0.000000,4.000000,2.000000,2.000000,0.000000,0.000000,4.000000,4.000000,4.000000,4.000000,4.000000,4.000000,0.000000,,,,,,,,,,,,,,,,,,,,,,,,,,,,
1732158806.026282,1732158806.028696,95.000000,0.000000,4277.692383,4278.846191,4314.487305,4308.717773,4296.538574,4292.179688,4339.743652,4405.641113,4310.384766,4301.282227,4504.743652,4536.153809,4367.051270,4435.000000,1551.000000,1.000000,19.000000,,,,0.000000,2.000000,2.000000,0.000000,4.000000,2.000000,2.000000,0.000000,0.000000,4.000000,4.000000,4.000000,4.000000,4.000000,4.000000,0.000000,,,,,,,,,,,,,,,,,,,,,,,,,,,,
1732158806.034090,1732158806.036604,96.000000,0.000000,4277.563965,4282.051270,4314.487305,4309.743652,4292.051270,4293.333496,4342.436035,4410.897461,4315.897461,4302.179688,4505.897461,4525.384766,4369.102539,4432.179688,1705.000000,1.000000,19.000000,,,,0.000000,2.000000,2.000000,0.000000,4.000000,2.000000,2.000000,0.000000,0.000000,4.000000,4.000000,4.000000,4.000000,4.000000,4.000000,0.000000,,,,,,,,,,,,,,,,,24.000000,0.000000,0.525509,0.502930,-0.515076,0.453430,0.982053,0.101087,-0.030765,-34.776512,45.821228,31.320919
1732158806.041898,1732158806.044413,97.000000,0.000000,4280.512695,4281.794922,4313.589844,4311.794922,4290.000000,4294.743652,4340.769043,4408.846191,4314.358887,4297.563965,4507.307617,4522.820313,4367.307617,4429.358887,1563.000000,1.000000,19.000000,,,,0.000000,2.000000,2.000000,0.000000,4.000000,2.000000,2.000000,0.000000,0.000000,4.000000,4.000000,4.000000,4.000000,4.000000,4.000000,0.000000,,,,,,,,,,,,,,,,,,,,,,,,,,,,
1732158806.049706,1732158806.052421,98.000000,0.000000,4282.179688,4279.487305,4310.769043,4311.025879,4307.307617,4293.717773,4337.307617,4402.820313,4308.846191,4292.051270,4506.153809,4524.230957,4366.538574,4430.256348,1561.000000,1.000000,19.000000,,,,0.000000,2.000000,2.000000,0.000000,4.000000,2.000000,2.000000,0.000000,0.000000,4.000000,4.000000,4.000000,4.000000,4.000000,4.000000,0.000000,,,,,,,,,,,,,,,,,,,,,,,,,,,,
1732158806.057515,1732158806.060229,99.000000,0.000000,4280.128418,4281.794922,4309.871582,4309.358887,4307.820313,4294.358887,4341.025879,4404.871582,4315.128418,4297.820313,4507.307617,4522.436035,4371.410156,4437.820313,1551.000000,1.000000,19.000000,,,,0.000000,2.000000,2.000000,0.000000,4.000000,2.000000,2.000000,0.000000,0.000000,4.000000,4.000000,4.000000,4.000000,4.000000,4.000000,0.000000,,,,,,,,,,,,,,,,,,,,,,,,,,,,
1732158806.065323,1732158806.067937,100.000000,0.000000,4279.743652,4284.615234,4310.769043,4313.333496,4280.641113,4293.846191,4341.410156,4409.487305,4319.230957,4306.282227,4510.641113,4523.846191,4376.025879,4442.820313,1705.000000,1.000000,19.000000,,,,0.000000,2.000000,2.000000,0.000000,4.000000,2.000000,2.000000,0.000000,0.000000,4.000000,4.000000,4.000000,4.000000,4.000000,4.000000,0.000000,,,,,,,,,,,,,,,,,25.000000,0.000000,0.524994,0.504395,-0.514221,0.453369,0.983518,0.071786,-0.046881,-34.885643,45.858528,31.244944
1732158806.073131,1732158806.075745,101.000000,0.000000,4281.410156,4283.589844,4310.128418,4316.282227,4271.666504,4289.358887,4335.897461,4407.692383,4310.256348,4301.538574,4510.897461,4526.538574,4375.128418,4441.282227,1563.000000,1.000000,19.000000,,,,0.000000,2.000000,2.000000,0.000000,4.000000,2.000000,2.000000,0.000000,0.000000,4.000000,4.000000,4.000000,4.000000,4.000000,4.000000,0.000000,,,,,,,,,,,,,,,,,,,,,,,,,,,,
1732158806.080939,1732158806.083753,102.000000,0.000000,4281.153809,4281.922852,4307.820313,4312.179688,4284.102539,4289.487305,4338.717773,4405.000000,4307.051270,4293.461426,4507.307617,4524.358887,4368.333496,4435.769043,1561.000000,1.000000,19.000000,,,,0.000000,2.000000,2.000000,0.000000,4.000000,2.000000,2.000000,0.000000,0.000000,4.000000,4.000000,4.000000,4.000000,4.000000,4.000000,0.000000,,,,,,,,,,,,,,,,,,,,,,,,,,,,
1732158806.088748,1732158806.091562,103.000000,0.000000,4281.282227,4285.769043,4306.282227,4311.410156,4287.307617,4293.461426,4342.948730,4404.743652,4313.461426,4297.436035,4506.538574,4522.563965,4371.153809,4434.871582,1551.000000,1.000000,19.000000,,,,0.000000,2.000000,2.000000,0.000000,4.000000,2.000000,2.000000,0.000000,0.000000,4.000000,4.000000,4.000000,4.000000,4.000000,4.000000,0.000000,,,,,,,,,,,,,,,,,,,,,,,,,,,,
1732158806.096556,1732158806.099470,104.000000,0.000000,4282.179688,4289.230957,4303.205078,4313.846191,4286.922852,4290.769043,4337.051270,4402.563965,4314.230957,4299.230957,4510.128418,4523.846191,4380.641113,4441.538574,1705.000000,1.000000,19.000000,,,,0.000000,2.000000,2.000000,0.000000,4.000000,2.000000,2.000000,0.000000,0.000000,4.000000,4.000000,4.000000,4.000000,4.000000,4.000000,0.000000,,,,,,,,,,,,,,,,,26.000000,0.000000,0.522747,0.504395,-0.515808,0.454163,0.954706,0.035161,-0.059578,-34.665703,46.082073,31.198404
1732158806.104364,1732158806.107278,105.000000,0.000000,4282.051270,4284.743652,4302.948730,4312.051270,4286.153809,4284.871582,4333.205078,4401.282227,4311.666504,4296.538574,4512.179688,4525.512695,4380.256348,4444.102539,1563.000000,1.000000,19.000000,,,,0.000000,2.000000,2.000000,0.000000,4.000000,2.000000,2.000000,0.000000,0.000000,4.000000,4.000000,4.000000,4.000000,4.000000,4.000000,0.000000,,,,,,,,,,,,,,,,,,,,,,,,,,,,
1732158806.112172,1732158806.115286,106.000000,0.000000,4281.666504,4282.820313,4303.717773,4311.282227,4283.077148,4287.051270,4334.358887,4401.922852,4310.384766,4299.487305,4510.769043,4522.820313,4373.461426,4436.025879,1561.000000,1.000000,19.000000,,,,0.000000,2.000000,2.000000,0.000000,4.000000,2.000000,2.000000,0.000000,0.000000,4.000000,4.000000,4.000000,4.000000,4.000000,4.000000,0.000000,,,,,,,,,,,,,,,,,,,,,,,,,,,,
1732158806.119981,1732158806.123094,107.000000,0.000000,4281.025879,4283.974121,4304.871582,4311.794922,4290.000000,4291.410156,4335.769043,4402.692383,4310.897461,4299.487305,4507.307617,4516.538574,4370.000000,4427.307617,1551.000000,1.000000,19.000000,,,,0.000000,2.000000,2.000000,0.000000,4.000000,2.000000,2.000000,0.000000,0.000000,4.000000,4.000000,4.000000,4.000000,4.000000,4.000000,0.000000,,,,,,,,,,,,,,,,,,,,,,,,,,,,
1732158806.127789,1732158806.131002,108.000000,0.000000,4280.128418,4286.025879,4306.153809,4312.436035,4295.384766,4290.384766,4338.717773,4405.000000,4313.077148,4300.384766,4506.282227,4517.436035,4371.025879,4431.410156,1705.000000,1.000000,19.000000,,,,0.000000,2.000000,2.000000,0.000000,4.000000,2.000000,2.000000,0.000000,0.000000,4.000000,4.000000,4.000000,4.000000,4.000000,4.000000,0.000000,,,,,,,,,,,,,,,,,27.000000,0.000000,0.522747,0.504395,-0.515808,0.454163,0.954706,0.035161,-0.059578,-34.517551,46.203144,31.175709
1732158806.135597,1732158806.138810,109.000000,0.000000,4282.307617,4290.000000,4309.230957,4316.153809,4292.820313,4291.666504,4337.820313,4404.358887,4311.922852,4306.922852,4508.461426,4524.230957,4373.974121,4440.128418,1563.000000,1.000000,19.000000,,,,0.000000,2.000000,2.000000,0.000000,4.000000,2.000000,2.000000,0.000000,0.000000,4.000000,4.000000,4.000000,4.000000,4.000000,4.000000,0.000000,,,,,,,,,,,,,,,,,,,,,,,,,,,,
1732158806.143406,1732158806.146818,110.000000,0.000000,4283.717773,4291.153809,4313.717773,4318.717773,4293.077148,4295.769043,4336.922852,4401.922852,4311.794922,4308.461426,4509.102539,4523.333496,4372.179688,4436.922852,1561.000000,1.000000,19.000000,,,,0.000000,2.000000,2.000000,0.000000,4.000000,2.000000,2.000000,0.000000,0.000000,4.000000,4.000000,4.000000,4.000000,4.000000,4.000000,0.000000,,,,,,,,,,,,,,,,,,,,,,,,,,,,
1732158806.151214,1732158806.154627,111.000000,0.000000,4280.641113,4286.538574,4315.512695,4315.384766,4295.128418,4295.641113,4341.282227,4403.461426,4313.077148,4302.820313,4506.410156,4516.538574,4365.769043,4430.128418,1551.000000,1.000000,19.000000,,,,0.000000,2.000000,2.000000,0.000000,4.000000,2.000000,2.000000,0.000000,0.000000,4.000000,4.000000,4.000000,4.000000,4.000000,4.000000,0.000000,,,,,,,,,,,,,,,,,,,,,,,,,,,,
1732158806.159022,1732158806.162435,112.000000,0.000000,4279.743652,4286.153809,4314.743652,4315.256348,4294.871582,4294.487305,4343.077148,4405.000000,4309.615234,4300.384766,4505.512695,4517.692383,4366.794922,4437.307617,1705.000000,1.000000,19.000000,,,,0.000000,2.000000,2.000000,0.000000,4.000000,2.000000,2.000000,0.000000,0.000000,4.000000,4.000000,4.000000,4.000000,4.000000,4.000000,0.000000,,,,,,,,,,,,,,,,,28.000000,0.000000,0.521520,0.498901,-0.521606,0.455017,0.926383,0.014162,-0.037602,-34.537552,45.969547,31.208990
1732158806.166830,1732158806.170243,113.000000,0.000000,4280.512695,4289.230957,4315.512695,4315.000000,4294.358887,4294.871582,4341.025879,4404.743652,4305.897461,4302.436035,4506.025879,4519.743652,4368.077148,4442.307617,1563.000000,1.000000,19.000000,,,,0.000000,2.000000,2.000000,0.000000,4.000000,2.000000,2.000000,0.000000,0.000000,4.000000,4.000000,4.000000,4.000000,4.000000,4.000000,0.000000,,,,,,,,,,,,,,,,,,,,,,,,,,,,
1732158806.174638,1732158806.177851,114.000000,0.000000,4279.358887,4285.512695,4319.102539,4310.641113,4293.974121,4291.410156,4340.641113,4407.563965,4308.205078,4305.512695,4506.538574,4519.358887,4365.769043,4439.487305,1561.000000,1.000000,19.000000,,,,0.000000,2.000000,2.000000,0.000000,4.000000,2.000000,2.000000,0.000000,0.000000,4.000000,4.000000,4.000000,4.000000,4.000000,4.000000,0.000000,,,,,,,,,,,,,,,,,,,,,,,,,,,,
1732158806.182447,1732158806.185660,115.000000,0.000000,4279.487305,4284.358887,4318.846191,4313.461426,4292.563965,4288.974121,4340.897461,4409.615234,4312.948730,4310.256348,4507.948730,4522.051270,4369.230957,4441.538574,1551.000000,1.000000,19.000000,,,,0.000000,2.000000,2.000000,0.000000,4.000000,2.000000,2.000000,0.000000,0.000000,4.000000,4.000000,4.000000,4.000000,4.000000,4.000000,0.000000,,,,,,,,,,,,,,,,,,,,,,,,,,,,
1732158806.190255,1732158806.193368,116.000000,0.000000,4281.025879,4288.974121,4316.794922,4318.974121,4291.153809,4289.871582,4341.025879,4408.205078,4312.820313,4311.025879,4508.846191,4524.487305,4371.538574,4441.922852,1705.000000,1.000000,19.000000,,,,0.000000,2.000000,2.000000,0.000000,4.000000,2.000000,2.000000,0.000000,0.000000,4.000000,4.000000,4.000000,4.000000,4.000000,4.000000,0.000000,,,,,,,,,,,,,,,,,29.000000,0.000000,0.521921,0.497498,-0.522705,0.454834,0.952265,0.070809,-0.053229,-34.570415,45.797001,31.252615
1732158806.198063,1732158806.201176,117.000000,0.000000,4283.589844,4289.615234,4316.794922,4317.820313,4293.077148,4292.051270,4341.922852,4408.333496,4310.897461,4308.205078,4509.102539,4524.743652,4369.743652,4439.487305,1563.000000,1.000000,19.000000,,,,0.000000,2.000000,2.000000,0.000000,4.000000,2.000000,2.000000,0.000000,0.000000,4.000000,4.000000,4.000000,4.000000,4.000000,4.000000,0.000000,,,,,,,,,,,,,,,,,,,,,,,,,,,,
1732158806.205871,1732158806.209184,118.000000,0.000000,4286.410156,4290.000000,4319.358887,4315.641113,4291.922852,4294.102539,4342.051270,4410.384766,4311.794922,4308.717773,4509.102539,4526.794922,4371.538574,4441.666504,1561.000000,1.000000,19.000000,,,,0.000000,2.000000,2.000000,0.000000,4.000000,2.000000,2.000000,0.000000,0.000000,4.000000,4.000000,4.000000,4.000000,4.000000,4.000000,0.000000,,,,,,,,,,,,,,,,,,,,,,,,,,,,
1732158806.213680,1732158806.216992,119.000000,0.000000,4284.230957,4291.538574,4320.256348,4315.000000,4283.846191,4287.820313,4341.922852,4410.256348,4314.871582,4313.205078,4509.487305,4527.692383,4374.358887,4442.820313,1551.000000,1.000000,19.000000,,,,0.000000,2.000000,2.000000,0.000000,4.000000,2.000000,2.000000,0.000000,0.000000,4.000000,4.000000,4.000000,4.000000,4.000000,4.000000,0.000000,,,,,,,,,,,,,,,,,,,,,,,,,,,,
1732158806.221488,1732158806.224701,120.000000,0.000000,4279.743652,4286.666504,4321.410156,4309.230957,4279.615234,4280.256348,4343.333496,4408.717773,4311.666504,4313.717773,4509.487305,4527.692383,4371.153809,4440.769043,1705.000000,1.000000,19.000000,,,,0.000000,2.000000,2.000000,0.000000,4.000000,2.000000,2.000000,0.000000,0.000000,4.000000,4.000000,4.000000,4.000000,4.000000,4.000000,0.000000,,,,,,,,,,,,,,,,,30.000000,0.000000,0.522545,0.496277,-0.523560,0.454468,0.952265,0.070809,-0.053229,-34.513702,45.645569,31.321285
1732158806.229296,1732158806.232509,121.000000,0.000000,4282.307617,4282.692383,4325.769043,4306.794922,4281.794922,4286.025879,4345.128418,4407.820313,4303.589844,4303.461426,4508.846191,4527.051270,4369.102539,4442.179688,1563.000000,1.000000,19.000000,,,,0.000000,2.000000,2.000000,0.000000,4.000000,2.000000,2.000000,0.000000,0.000000,4.000000,4.000000,4.000000,4.000000,4.000000,4.000000,0.000000,,,,,,,,,,,,,,,,,,,,,,,,,,,,
1732158806.237105,1732158806.240117,122.000000,0.000000,4288.333496,4286.666504,4327.692383,4312.948730,4283.077148,4293.717773,4344.230957,4409.102539,4302.563965,4295.641113,4506.410156,4527.179688,4364.615234,4442.307617,1561.000000,1.000000,19.000000,,,,0.000000,2.000000,2.000000,0.000000,4.000000,2.000000,2.000000,0.000000,0.000000,4.000000,4.000000,4.000000,4.000000,4.000000,4.000000,0.000000,,,,,,,,,,,,,,,,,,,,,,,,,,,,
1732158806.244913,1732158806.247926,123.000000,0.000000,4290.000000,4285.512695,4324.743652,4315.384766,4282.179688,4291.794922,4341.794922,4409.102539,4307.692383,4297.179688,4503.846191,4525.128418,4358.974121,4439.743652,1551.000000,1.000000,19.000000,,,,0.000000,2.000000,2.000000,0.000000,4.000000,2.000000,2.000000,0.000000,0.000000,4.000000,4.000000,4.000000,4.000000,4.000000,4.000000,0.000000,,,,,,,,,,,,,,,,,,,,,,,,,,,,
1732158806.252721,1732158806.255634,124.000000,0.000000,4289.487305,4281.666504,4324.230957,4311.922852,4281.410156,4288.461426,4344.487305,4407.436035,4303.461426,4296.410156,4503.974121,4524.102539,4362.692383,4438.461426,1705.000000,1.000000,19.000000,,,,0.000000,2.000000,2.000000,0.000000,4.000000,2.000000,2.000000,0.000000,0.000000,4.000000,4.000000,4.000000,4.000000,4.000000,4.000000,0.000000,,,,,,,,,,,,,,,,,31.000000,0.000000,0.523968,0.493164,-0.525024,0.454529,0.987425,0.092296,-0.022952,-34.614433,45.684578,31.326908
1732158806.260529,1732158806.263442,125.000000,0.000000,4291.153809,4282.948730,4327.820313,4308.589844,4278.589844,4283.717773,4345.769043,4410.384766,4297.179688,4292.563965,4506.666504,4526.538574,4368.205078,4440.897461,1563.000000,1.000000,19.000000,,,,0.000000,2.000000,2.000000,0.000000,4.000000,2.000000,2.000000,0.000000,0.000000,4.000000,4.000000,4.000000,4.000000,4.000000,4.000000,0.000000,,,,,,,,,,,,,,,,,,,,,,,,,,,,
1732158806.268338,1732158806.271051,126.000000,0.000000,4294.102539,4282.307617,4325.641113,4309.102539,4277.179688,4280.000000,4344.487305,4413.717773,4306.025879,4298.333496,4507.307617,4528.205078,4372.820313,4445.000000,1561.000000,1.000000,19.000000,,,,0.000000,2.000000,2.000000,0.000000,4.000000,2.000000,2.000000,0.000000,0.000000,4.000000,4.000000,4.000000,4.000000,4.000000,4.000000,0.000000,,,,,,,,,,,,,,,,,,,,,,,,,,,,
1732158806.276146,1732158806.278859,127.000000,0.000000,4295.128418,4280.384766,4323.717773,4310.000000,4278.333496,4282.051270,4347.051270,4411.282227,4311.153809,4302.563965,4507.692383,4531.025879,4377.051270,4446.538574,19.000000,1.000000,19.000000,,,,0.000000,2.000000,2.000000,0.000000,4.000000,2.000000,2.000000,0.000000,0.000000,4.000000,4.000000,4.000000,4.000000,4.000000,4.000000,0.000000,,,,,,,,,,,,,,,,,,,,,,,,,,,,
1732158806.283954,1732158806.286567,0.000000,0.000000,4300.128418,4286.922852,4325.000000,4310.897461,4277.563965,4281.666504,4346.666504,4408.461426,4298.589844,4297.563965,4513.461426,4535.641113,4380.769043,4445.128418,0.000000,1.000000,19.000000,,,,0.000000,2.000000,2.000000,0.000000,4.000000,2.000000,2.000000,0.000000,0.000000,4.000000,4.000000,4.000000,4.000000,4.000000,4.000000,0.000000,,,,,,,,,,,,,,,,,0.000000,0.000000,0.523937,0.491821,-0.525574,0.455383,1.001587,0.066903,-0.032719,-34.512691,45.749508,31.414795
1732158806.291762,1732158806.294375,1.000000,0.000000,4304.487305,4288.846191,4325.897461,4311.282227,4276.922852,4278.205078,4340.641113,4409.871582,4292.307617,4295.384766,4513.205078,4537.820313,4381.922852,4449.358887,1613.000000,1.000000,19.000000,,,,0.000000,2.000000,2.000000,0.000000,4.000000,2.000000,2.000000,0.000000,0.000000,4.000000,4.000000,4.000000,4.000000,4.000000,4.000000,0.000000,,,,,,,,,,,,,,,,,,,,,,,,,,,,
1732158806.299570,1732158806.301984,2.000000,0.000000,4302.692383,4280.384766,4326.282227,4308.846191,4276.282227,4278.077148,4338.974121,4409.871582,4300.897461,4295.384766,4508.461426,4536.666504,4381.666504,4456.025879,1361.000000,1.000000,19.000000,,,,0.000000,2.000000,2.000000,0.000000,4.000000,2.000000,2.000000,0.000000,0.000000,4.000000,4.000000,4.000000,4.000000,4.000000,4.000000,0.000000,,,,,,,,,,,,,,,,,,,,,,,,,,,,
1732158806.307379,1732158806.309792,3.000000,0.000000,4303.333496,4279.615234,4327.179688,4307.948730,4276.153809,4279.871582,4345.512695,4410.000000,4306.922852,4294.743652,4516.153809,4537.179688,4383.974121,4457.179688,1434.000000,1.000000,19.000000,,,,0.000000,2.000000,2.000000,0.000000,4.000000,2.000000,2.000000,0.000000,0.000000,4.000000,4.000000,4.000000,4.000000,4.000000,4.000000,0.000000,,,,,,,,,,,,,,,,,,,,,,,,,,,,
1732158806.315187,1732158806.317500,4.000000,0.000000,4309.358887,4287.179688,4326.025879,4310.641113,4276.538574,4278.846191,4348.717773,4410.512695,4306.410156,4296.666504,4524.743652,4537.436035,4390.641113,4458.461426,1436.000000,1.000000,19.000000,,,,0.000000,2.000000,2.000000,0.000000,4.000000,2.000000,2.000000,0.000000,0.000000,4.000000,4.000000,4.000000,4.000000,4.000000,4.000000,0.000000,,,,,,,,,,,,,,,,,1.000000,0.000000,0.523497,0.491089,-0.526062,0.456116,0.996215,0.050299,-0.037114,-34.890282,45.765434,31.335983
1732158806.322995,1732158806.325308,5.000000,0.000000,4311.025879,4286.538574,4324.230957,4305.769043,4271.410156,4276.282227,4343.974121,4408.717773,4301.282227,4296.794922,4521.538574,4533.846191,4398.846191,4461.282227,1197.000000,1.000000,19.000000,,,,0.000000,2.000000,2.000000,0.000000,4.000000,2.000000,2.000000,0.000000,0.000000,4.000000,4.000000,4.000000,4.000000,4.000000,4.000000,0.000000,,,,,,,,,,,,,,,,,,,,,,,,,,,,
1732158806.330804,1732158806.332917,6.000000,0.000000,4309.230957,4279.487305,4322.820313,4298.717773,4266.153809,4277.692383,4342.436035,4409.358887,4295.769043,4292.436035,4518.846191,4535.384766,4398.589844,4459.487305,0.000000,1.000000,19.000000,,,,0.000000,2.000000,2.000000,0.000000,4.000000,2.000000,2.000000,0.000000,0.000000,4.000000,4.000000,4.000000,4.000000,4.000000,4.000000,0.000000,,,,,,,,,,,,,,,,,,,,,,,,,,,,
1732158806.338612,1732158806.340725,7.000000,0.000000,4311.282227,4280.256348,4322.307617,4301.282227,4267.307617,4280.641113,4347.948730,4412.179688,4303.846191,4295.384766,4525.000000,4540.000000,4398.589844,4463.974121,0.000000,1.000000,19.000000,,,,0.000000,2.000000,2.000000,0.000000,4.000000,2.000000,2.000000,0.000000,0.000000,4.000000,4.000000,4.000000,4.000000,4.000000,4.000000,0.000000,,,,,,,,,,,,,,,,,,,,,,,,,,,,
1732158806.346420,1732158806.348633,8.000000,0.000000,4311.410156,4280.897461,4324.871582,4300.256348,4267.820313,4279.358887,4351.282227,4411.025879,4309.358887,4298.333496,4525.128418,4537.179688,4399.358887,4469.871582,1541.000000,1.000000,19.000000,,,,0.000000,2.000000,2.000000,0.000000,4.000000,2.000000,2.000000,0.000000,0.000000,4.000000,4.000000,4.000000,4.000000,4.000000,4.000000,0.000000,,,,,,,,,,,,,,,,,2.000000,0.000000,0.521059,0.489014,-0.528076,0.458801,0.982053,0.032719,-0.040532,-35.069462,45.746670,31.398813
1732158806.354228,1732158806.356441,9.000000,0.000000,4307.179688,4269.487305,4328.589844,4292.051270,4263.589844,4278.077148,4349.102539,4409.487305,4301.538574,4291.922852,4520.000000,4530.897461,4397.307617,4465.128418,1700.000000,1.000000,19.000000,,,,0.000000,2.000000,2.000000,0.000000,4.000000,2.000000,2.000000,0.000000,0.000000,4.000000,4.000000,4.000000,4.000000,4.000000,4.000000,0.000000,,,,,,,,,,,,,,,,,,,,,,,,,,,,
1732158806.362037,1732158806.364050,10.000000,0.000000,4307.820313,4263.846191,4326.153809,4291.922852,4262.179688,4279.871582,4347.051270,4410.000000,4304.615234,4297.179688,4525.512695,4532.948730,4404.358887,4466.666504,1563.000000,1.000000,19.000000,,,,0.000000,2.000000,2.000000,0.000000,4.000000,2.000000,2.000000,0.000000,0.000000,4.000000,4.000000,4.000000,4.000000,4.000000,4.000000,0.000000,,,,,,,,,,,,,,,,,,,,,,,,,,,,
1732158806.369845,1732158806.371858,11.000000,0.000000,4312.051270,4273.077148,4322.563965,4294.487305,4264.487305,4275.512695,4342.436035,4409.358887,4314.358887,4311.666504,4536.922852,4537.692383,4415.128418,4476.794922,1551.000000,1.000000,19.000000,,,,0.000000,2.000000,2.000000,0.000000,4.000000,2.000000,2.000000,0.000000,0.000000,4.000000,4.000000,4.000000,4.000000,4.000000,4.000000,0.000000,,,,,,,,,,,,,,,,,,,,,,,,,,,,
1732158806.377653,1732158806.379566,12.000000,0.000000,4314.487305,4279.487305,4321.282227,4293.077148,4264.871582,4268.205078,4340.384766,4409.230957,4307.307617,4312.820313,4540.128418,4536.538574,4419.230957,4479.615234,1700.000000,1.000000,19.000000,,,,0.000000,2.000000,2.000000,0.000000,4.000000,2.000000,2.000000,0.000000,0.000000,4.000000,4.000000,4.000000,4.000000,4.000000,4.000000,0.000000,,,,,,,,,,,,,,,,,3.000000,0.000000,0.518108,0.486816,-0.530823,0.461304,0.984495,0.025394,-0.047369,-35.129597,45.671471,31.419706
1732158806.385461,1732158806.387374,13.000000,0.000000,4316.666504,4278.974121,4319.230957,4295.000000,4264.487305,4263.846191,4343.974121,4408.974121,4302.307617,4308.461426,4537.692383,4540.256348,4422.948730,4482.436035,1558.000000,1.000000,19.000000,,,,0.000000,2.000000,2.000000,0.000000,4.000000,2.000000,2.000000,0.000000,0.000000,4.000000,4.000000,4.000000,4.000000,4.000000,4.000000,0.000000,,,,,,,,,,,,,,,,,,,,,,,,,,,,
1732158806.393270,1732158806.395382,14.000000,0.000000,4320.512695,4279.230957,4318.333496,4298.077148,4263.077148,4267.051270,4344.230957,4408.717773,4309.358887,4311.794922,4540.769043,4546.153809,4430.769043,4490.769043,1563.000000,1.000000,19.000000,,,,0.000000,2.000000,2.000000,0.000000,4.000000,2.000000,2.000000,0.000000,0.000000,4.000000,4.000000,4.000000,4.000000,4.000000,4.000000,0.000000,1.000000,0.000000,2.000000,2.000000,0.000000,4.000000,2.000000,2.000000,0.000000,0.000000,4.000000,4.000000,4.000000,4.000000,4.000000,4.000000,,,,,,,,,,,,
1732158806.401078,1732158806.403191,15.000000,0.000000,4319.871582,4278.077148,4318.974121,4298.333496,4263.717773,4273.461426,4341.025879,4408.205078,4311.666504,4314.743652,4543.846191,4543.077148,4433.205078,4490.000000,1551.000000,1.000000,19.000000,,,,0.000000,2.000000,2.000000,0.000000,4.000000,2.000000,2.000000,0.000000,0.000000,4.000000,4.000000,4.000000,4.000000,4.000000,4.000000,0.000000,,,,,,,,,,,,,,,,,,,,,,,,,,,,
1732158806.408886,1732158806.411099,16.000000,0.000000,4316.666504,4275.769043,4319.615234,4296.538574,4265.128418,4273.846191,4341.025879,4409.487305,4310.769043,4313.333496,4539.871582,4537.307617,4428.589844,4482.436035,0.000000,1.000000,19.000000,,,,0.000000,2.000000,2.000000,0.000000,4.000000,2.000000,2.000000,0.000000,0.000000,4.000000,4.000000,4.000000,4.000000,4.000000,4.000000,0.000000,,,,,,,,,,,,,,,,,4.000000,0.000000,0.516753,0.486023,-0.531860,0.462463,0.982542,0.039067,-0.060554,-35.173306,45.503891,31.466629
1732158806.416694,1732158806.418907,17.000000,0.000000,4316.794922,4274.358887,4319.487305,4294.102539,4262.563965,4272.692383,4339.487305,4412.692383,4307.051270,4310.769043,4537.307617,4537.179688,4427.820313,4483.205078,0.000000,1.000000,19.000000,,,,0.000000,2.000000,2.000000,0.000000,4.000000,2.000000,2.000000,0.000000,0.000000,4.000000,4.000000,4.000000,4.000000,4.000000,4.000000,0.000000,,,,,,,,,,,,,,,,,,,,,,,,,,,,
1732158806.424503,1732158806.426915,18.000000,0.000000,4318.589844,4271.282227,4320.512695,4293.974121,4263.205078,4271.666504,4340.384766,4413.589844,4297.051270,4305.641113,4537.436035,4543.717773,4428.205078,4489.102539,0.000000,1.000000,19.000000,,,,0.000000,2.000000,2.000000,0.000000,4.000000,2.000000,2.000000,0.000000,0.000000,4.000000,4.000000,4.000000,4.000000,4.000000,4.000000,0.000000,,,,,,,,,,,,,,,,,,,,,,,,,,,,
1732158806.432311,1732158806.434723,19.000000,0.000000,4320.512695,4270.000000,4319.871582,4295.641113,4261.794922,4267.820313,4344.743652,4411.666504,4296.922852,4305.384766,4539.102539,4548.589844,4426.538574,4490.512695,0.000000,1.000000,19.000000,,,,0.000000,2.000000,2.000000,0.000000,4.000000,2.000000,2.000000,0.000000,0.000000,4.000000,4.000000,4.000000,4.000000,4.000000,4.000000,0.000000,,,,,,,,,,,,,,,,,,,,,,,,,,,,
1732158806.440119,1732158806.442631,20.000000,0.000000,4323.846191,4272.820313,4321.666504,4295.641113,4254.871582,4265.000000,4344.871582,4411.025879,4304.615234,4311.538574,4545.641113,4549.358887,4432.692383,4491.794922,0.000000,1.000000,19.000000,,,,0.000000,2.000000,2.000000,0.000000,4.000000,2.000000,2.000000,0.000000,0.000000,4.000000,4.000000,4.000000,4.000000,4.000000,4.000000,0.000000,,,,,,,,,,,,,,,,,5.000000,0.000000,0.515796,0.485901,-0.532104,0.463379,0.984495,0.022464,-0.047369,-35.482044,45.704819,31.401302
1732158806.447927,1732158806.450440,21.000000,0.000000,4330.256348,4274.871582,4324.102539,4296.025879,4255.897461,4266.794922,4341.922852,4408.333496,4305.256348,4312.820313,4552.692383,4549.743652,4441.922852,4500.897461,0.000000,1.000000,19.000000,,,,0.000000,2.000000,2.000000,0.000000,4.000000,2.000000,2.000000,0.000000,0.000000,4.000000,4.000000,4.000000,4.000000,4.000000,4.000000,0.000000,,,,,,,,,,,,,,,,,,,,,,,,,,,,
1732158806.455736,1732158806.458448,22.000000,0.000000,4331.410156,4271.153809,4322.563965,4297.436035,4259.102539,4266.794922,4341.025879,4405.512695,4301.666504,4311.025879,4552.820313,4551.794922,4441.538574,4506.666504,0.000000,1.000000,19.000000,,,,0.000000,2.000000,2.000000,0.000000,4.000000,2.000000,2.000000,0.000000,0.000000,4.000000,4.000000,4.000000,4.000000,4.000000,4.000000,0.000000,,,,,,,,,,,,,,,,,,,,,,,,,,,,
1732158806.463544,1732158806.466256,23.000000,0.000000,4328.974121,4270.512695,4320.000000,4295.641113,4253.974121,4263.974121,4339.871582,4407.948730,4300.512695,4314.358887,4552.179688,4554.615234,4439.615234,4505.256348,0.000000,1.000000,19.000000,,,,0.000000,2.000000,2.000000,0.000000,4.000000,2.000000,2.000000,0.000000,0.000000,4.000000,4.000000,4.000000,4.000000,4.000000,4.000000,0.000000,,,,,,,,,,,,,,,,,,,,,,,,,,,,
1732158806.471352,1732158806.473964,24.000000,0.000000,4332.436035,4273.461426,4321.922852,4293.589844,4250.384766,4265.384766,4338.974121,4409.358887,4300.128418,4315.512695,4550.641113,4555.897461,4437.820313,4506.025879,0.000000,1.000000,19.000000,,,,0.000000,2.000000,2.000000,0.000000,4.000000,2.000000,2.000000,0.000000,0.000000,4.000000,4.000000,4.000000,4.000000,4.000000,4.000000,0.000000,,,,,,,,,,,,,,,,,6.000000,0.000000,0.512397,0.484314,-0.533203,0.467529,0.973752,-0.032719,-0.038091,-35.543789,45.499237,31.313389
1732158806.479160,1732158806.481772,25.000000,0.000000,4335.897461,4275.769043,4323.461426,4294.871582,4254.615234,4266.025879,4338.846191,4409.487305,4297.692383,4310.641113,4542.563965,4550.769043,4430.128418,4506.153809,0.000000,1.000000,19.000000,,,,0.000000,2.000000,2.000000,0.000000,4.000000,2.000000,2.000000,0.000000,0.000000,4.000000,4.000000,4.000000,4.000000,4.000000,4.000000,0.000000,,,,,,,,,,,,,,,,,,,,,,,,,,,,
1732158806.486969,1732158806.489780,26.000000,0.000000,4334.487305,4279.102539,4321.025879,4296.153809,4256.666504,4267.563965,4339.358887,4412.563965,4296.410156,4308.205078,4536.282227,4544.871582,4426.282227,4502.307617,0.000000,1.000000,19.000000,,,,0.000000,2.000000,2.000000,0.000000,4.000000,2.000000,2.000000,0.000000,0.000000,4.000000,4.000000,4.000000,4.000000,4.000000,4.000000,0.000000,,,,,,,,,,,,,,,,,,,,,,,,,,,,
1732158806.494777,1732158806.497588,27.000000,0.000000,4333.974121,4280.256348,4319.230957,4296.794922,4258.205078,4267.307617,4343.974121,4411.153809,4303.333496,4312.436035,4540.769043,4551.666504,4429.358887,4502.436035,0.000000,1.000000,19.000000,,,,0.000000,2.000000,2.000000,0.000000,4.000000,2.000000,2.000000,0.000000,0.000000,4.000000,4.000000,4.000000,4.000000,4.000000,4.000000,0.000000,,,,,,,,,,,,,,,,,,,,,,,,,,,,
1732158806.502585,1732158806.505497,28.000000,0.000000,4336.410156,4280.897461,4321.410156,4299.102539,4261.666504,4266.922852,4345.000000,4408.717773,4311.922852,4317.051270,4545.384766,4558.461426,4430.000000,4505.641113,0.000000,1.000000,19.000000,,,,0.000000,2.000000,2.000000,0.000000,4.000000,2.000000,2.000000,0.000000,0.000000,4.000000,4.000000,4.000000,4.000000,4.000000,4.000000,0.000000,,,,,,,,,,,,,,,,,7.000000,0.000000,0.510916,0.483154,-0.533691,0.469788,0.976193,-0.024905,-0.033696,-35.520470,45.631046,31.427177
1732158806.510394,1732158806.513305,29.000000,0.000000,4336.794922,4281.794922,4323.461426,4299.358887,4261.922852,4267.436035,4338.205078,4409.487305,4311.666504,4319.230957,4544.102539,4554.102539,4430.128418,4504.743652,0.000000,1.000000,19.000000,,,,0.000000,2.000000,2.000000,0.000000,4.000000,2.000000,2.000000,0.000000,0.000000,4.000000,4.000000,4.000000,4.000000,4.000000,4.000000,0.000000,,,,,,,,,,,,,,,,,,,,,,,,,,,,
1732158806.518202,1732158806.521313,30.000000,0.000000,4336.153809,4283.077148,4321.410156,4295.769043,4264.102539,4267.179688,4335.641113,4409.102539,4311.538574,4321.922852,4541.538574,4550.384766,4431.410156,4503.205078,0.000000,1.000000,19.000000,,,,0.000000,2.000000,2.000000,0.000000,4.000000,2.000000,2.000000,0.000000,0.000000,4.000000,4.000000,4.000000,4.000000,4.000000,4.000000,0.000000,,,,,,,,,,,,,,,,,,,,,,,,,,,,
1732158806.526010,1732158806.529121,31.000000,0.000000,4335.512695,4280.641113,4319.615234,4296.794922,4265.256348,4266.922852,4339.615234,4408.589844,4313.205078,4324.358887,4541.410156,4551.538574,4430.384766,4504.102539,0.000000,1.000000,19.000000,,,,0.000000,2.000000,2.000000,0.000000,4.000000,2.000000,2.000000,0.000000,0.000000,4.000000,4.000000,4.000000,4.000000,4.000000,4.000000,0.000000,,,,,,,,,,,,,,,,,,,,,,,,,,,,
1732158806.533818,1732158806.537029,32.000000,0.000000,4335.000000,4279.230957,4320.641113,4299.230957,4264.487305,4266.538574,4342.051270,4407.051270,4309.487305,4326.153809,4541.666504,4553.205078,4429.743652,4501.538574,0.000000,1.000000,19.000000,,,,0.000000,2.000000,2.000000,0.000000,4.000000,2.000000,2.000000,0.000000,0.000000,4.000000,4.000000,4.000000,4.000000,4.000000,4.000000,0.000000,,,,,,,,,,,,,,,,,8.000000,0.000000,0.510434,0.482300,-0.534119,0.470703,0.974728,-0.050299,-0.026370,-35.389915,45.796150,31.472681
1732158806.541626,1732158806.544837,33.000000,0.000000,4335.256348,4281.410156,4322.307617,4298.333496,4264.358887,4268.333496,4341.666504,4406.282227,4308.589844,4325.512695,4540.000000,4552.948730,4428.077148,4494.230957,0.000000,1.000000,19.000000,,,,0.000000,2.000000,2.000000,0.000000,4.000000,2.000000,2.000000,0.000000,0.000000,4.000000,4.000000,4.000000,4.000000,4.000000,4.000000,0.000000,,,,,,,,,,,,,,,,,,,,,,,,,,,,
1732158806.549435,1732158806.552645,34.000000,0.000000,4335.256348,4284.230957,4322.436035,4298.461426,4265.641113,4267.051270,4341.025879,4412.051270,4310.512695,4322.692383,4538.333496,4546.666504,4426.666504,4491.282227,0.000000,1.000000,19.000000,,,,0.000000,2.000000,2.000000,0.000000,4.000000,2.000000,2.000000,0.000000,0.000000,4.000000,4.000000,4.000000,4.000000,4.000000,4.000000,0.000000,,,,,,,,,,,,,,,,,,,,,,,,,,,,
1732158806.557243,1732158806.560454,35.000000,0.000000,4330.512695,4283.974121,4322.948730,4301.025879,4266.538574,4265.256348,4338.205078,4414.743652,4307.563965,4320.641113,4537.307617,4538.333496,4422.307617,4491.922852,0.000000,1.000000,19.000000,,,,0.000000,2.000000,2.000000,0.000000,4.000000,2.000000,2.000000,0.000000,0.000000,4.000000,4.000000,4.000000,4.000000,4.000000,4.000000,0.000000,,,,,,,,,,,,,,,,,,,,,,,,,,,,
1732158806.565051,1732158806.568162,36.000000,0.000000,4326.025879,4282.307617,4323.333496,4304.487305,4268.077148,4273.077148,4335.384766,4409.615234,4304.871582,4318.205078,4536.410156,4537.563965,4417.820313,4490.384766,0.000000,1.000000,19.000000,,,,0.000000,2.000000,2.000000,0.000000,4.000000,2.000000,2.000000,0.000000,0.000000,4.000000,4.000000,4.000000,4.000000,4.000000,4.000000,0.000000,,,,,,,,,,,,,,,,,9.000000,0.000000,0.509437,0.480530,-0.535156,0.472412,0.972287,-0.055183,-0.029789,-35.549164,45.633213,31.339539
1732158806.572859,1732158806.575970,37.000000,0.000000,4330.384766,4286.794922,4323.205078,4307.563965,4270.641113,4276.282227,4337.820313,4407.563965,4303.461426,4313.589844,4533.846191,4541.153809,4418.077148,4491.153809,0.000000,1.000000,19.000000,,,,0.000000,2.000000,2.000000,0.000000,4.000000,2.000000,2.000000,0.000000,0.000000,4.000000,4.000000,4.000000,4.000000,4.000000,4.000000,0.000000,,,,,,,,,,,,,,,,,,,,,,,,,,,,
1732158806.580668,1732158806.583579,38.000000,0.000000,4335.256348,4293.077148,4323.077148,4308.974121,4268.589844,4267.436035,4339.487305,4406.538574,4298.205078,4311.153809,4525.641113,4540.512695,4416.538574,4493.461426,0.000000,1.000000,19.000000,,,,0.000000,2.000000,2.000000,0.000000,4.000000,2.000000,2.000000,0.000000,0.000000,4.000000,4.000000,4.000000,4.000000,4.000000,4.000000,0.000000,,,,,,,,,,,,,,,,,,,,,,,,,,,,
1732158806.588476,1732158806.591387,39.000000,0.000000,4334.871582,4293.461426,4324.230957,4309.615234,4264.487305,4263.461426,4337.563965,4404.102539,4294.102539,4311.282227,4520.641113,4542.051270,4412.307617,4493.461426,0.000000,1.000000,19.000000,,,,0.000000,2.000000,2.000000,0.000000,4.000000,2.000000,2.000000,0.000000,0.000000,4.000000,4.000000,4.000000,4.000000,4.000000,4.000000,0.000000,,,,,,,,,,,,,,,,,,,,,,,,,,,,
1732158806.596284,1732158806.599095,40.000000,0.000000,4332.051270,4289.743652,4322.692383,4309.615234,4267.307617,4266.538574,4339.230957,4406.282227,4298.461426,4313.077148,4529.743652,4546.410156,4415.256348,4493.333496,0.000000,1.000000,19.000000,,,,0.000000,2.000000,2.000000,0.000000,4.000000,2.000000,2.000000,0.000000,0.000000,4.000000,4.000000,4.000000,4.000000,4.000000,4.000000,0.000000,,,,,,,,,,,,,,,,,10.000000,0.000000,0.507700,0.476929,-0.537537,0.475220,0.969845,-0.071786,-0.029789,-35.878155,45.517902,31.248360
1732158806.604092,1732158806.606903,41.000000,0.000000,4330.256348,4288.589844,4320.512695,4308.205078,4270.384766,4267.051270,4342.307617,4409.487305,4307.179688,4315.897461,4536.794922,4548.974121,4417.436035,4493.717773,0.000000,1.000000,19.000000,,,,0.000000,2.000000,2.000000,0.000000,4.000000,2.000000,2.000000,0.000000,0.000000,4.000000,4.000000,4.000000,4.000000,4.000000,4.000000,0.000000,,,,,,,,,,,,,,,,,,,,,,,,,,,,
1732158806.611901,1732158806.614512,42.000000,0.000000,4331.922852,4293.077148,4322.307617,4310.897461,4275.000000,4275.384766,4340.256348,4406.282227,4312.179688,4315.769043,4528.461426,4545.641113,4410.641113,4493.205078,0.000000,1.000000,19.000000,,,,0.000000,2.000000,2.000000,0.000000,4.000000,2.000000,2.000000,0.000000,0.000000,4.000000,4.000000,4.000000,4.000000,4.000000,4.000000,0.000000,,,,,,,,,,,,,,,,,,,,,,,,,,,,
1732158806.619709,1732158806.622320,43.000000,0.000000,4335.384766,4295.769043,4324.615234,4314.615234,4290.512695,4279.871582,4335.384766,4405.000000,4308.077148,4311.794922,4519.615234,4541.410156,4405.641113,4491.794922,0.000000,1.000000,19.000000,,,,0.000000,2.000000,2.000000,0.000000,4.000000,2.000000,2.000000,0.000000,0.000000,4.000000,4.000000,4.000000,4.000000,4.000000,4.000000,0.000000,,,,,,,,,,,,,,,,,,,,,,,,,,,,
1732158806.627517,1732158806.630028,44.000000,0.000000,4334.487305,4293.717773,4323.974121,4316.025879,4294.871582,4271.794922,4334.743652,4406.410156,4302.436035,4309.230957,4521.282227,4541.410156,4405.384766,4490.641113,0.000000,1.000000,19.000000,,,,0.000000,2.000000,2.000000,0.000000,4.000000,2.000000,2.000000,0.000000,0.000000,4.000000,4.000000,4.000000,4.000000,4.000000,4.000000,0.000000,,,,,,,,,,,,,,,,,11.000000,0.000000,0.506924,0.473633,-0.539612,0.476990,0.988402,-0.055183,-0.032230,-36.266308,45.414501,31.381170
1732158806.635326,1732158806.637837,45.000000,0.000000,4333.846191,4295.128418,4322.948730,4317.820313,4274.358887,4269.743652,4336.025879,4405.512695,4306.922852,4310.384766,4524.743652,4544.615234,4406.410156,4492.307617,0.000000,1.000000,19.000000,,,,0.000000,2.000000,2.000000,0.000000,4.000000,2.000000,2.000000,0.000000,0.000000,4.000000,4.000000,4.000000,4.000000,4.000000,4.000000,0.000000,,,,,,,,,,,,,,,,,,,,,,,,,,,,
1732158806.643134,1732158806.645445,46.000000,0.000000,4337.051270,4297.307617,4323.717773,4318.589844,4260.769043,4276.666504,4336.282227,4405.897461,4311.794922,4314.487305,4524.615234,4550.128418,4412.563965,4494.743652,0.000000,1.000000,19.000000,,,,0.000000,2.000000,2.000000,0.000000,4.000000,2.000000,2.000000,0.000000,0.000000,4.000000,4.000000,4.000000,4.000000,4.000000,4.000000,0.000000,,,,,,,,,,,,,,,,,,,,,,,,,,,,
1732158806.650942,1732158806.653253,47.000000,0.000000,4335.641113,4297.307617,4322.563965,4319.871582,4272.179688,4278.589844,4334.743652,4407.820313,4312.179688,4317.948730,4526.666504,4554.615234,4412.563965,4492.563965,0.000000,1.000000,19.000000,,,,0.000000,2.000000,2.000000,0.000000,4.000000,2.000000,2.000000,0.000000,0.000000,4.000000,4.000000,4.000000,4.000000,4.000000,4.000000,0.000000,,,,,,,,,,,,,,,,,,,,,,,,,,,,
1732158806.658750,1732158806.660961,48.000000,0.000000,4334.743652,4297.051270,4323.205078,4317.307617,4287.307617,4271.666504,4335.769043,4410.897461,4317.436035,4318.589844,4526.794922,4554.743652,4402.563965,4488.717773,0.000000,1.000000,19.000000,,,,0.000000,2.000000,2.000000,0.000000,4.000000,2.000000,2.000000,0.000000,0.000000,4.000000,4.000000,4.000000,4.000000,4.000000,4.000000,0.000000,,,,,,,,,,,,,,,,,12.000000,0.000000,0.506502,0.472595,-0.540161,0.477844,0.988402,-0.055183,-0.032230,-36.500710,45.240746,31.118748
1732158806.666559,1732158806.668770,49.000000,0.000000,4336.153809,4297.307617,4322.692383,4312.436035,4282.051270,4269.871582,4341.282227,4412.307617,4320.769043,4320.641113,4526.025879,4550.897461,4402.692383,4489.743652,0.000000,1.000000,19.000000,,,,0.000000,2.000000,2.000000,0.000000,4.000000,2.000000,2.000000,0.000000,0.000000,4.000000,4.000000,4.000000,4.000000,4.000000,4.000000,0.000000,,,,,,,,,,,,,,,,,,,,,,,,,,,,
1732158806.674367,1732158806.676378,50.000000,0.000000,4333.205078,4299.358887,4323.846191,4315.897461,4267.307617,4278.205078,4341.538574,4411.922852,4311.922852,4319.871582,4526.922852,4547.692383,4407.179688,4491.025879,0.000000,1.000000,19.000000,,,,0.000000,2.000000,2.000000,0.000000,4.000000,2.000000,2.000000,0.000000,0.000000,4.000000,4.000000,4.000000,4.000000,4.000000,4.000000,0.000000,,,,,,,,,,,,,,,,,,,,,,,,,,,,
1732158806.682175,1732158806.684186,51.000000,0.000000,4331.922852,4303.461426,4327.820313,4325.000000,4268.717773,4284.358887,4337.179688,4409.871582,4303.461426,4310.897461,4524.230957,4543.846191,4399.871582,4483.846191,0.000000,1.000000,19.000000,,,,0.000000,2.000000,2.000000,0.000000,4.000000,2.000000,2.000000,0.000000,0.000000,4.000000,4.000000,4.000000,4.000000,4.000000,4.000000,0.000000,,,,,,,,,,,,,,,,,,,,,,,,,,,,
1732158806.689983,1732158806.691895,52.000000,0.000000,4332.563965,4303.589844,4328.974121,4325.128418,4282.948730,4282.307617,4340.641113,4408.974121,4305.769043,4306.666504,4519.743652,4543.846191,4395.128418,4475.897461,0.000000,1.000000,19.000000,,,,0.000000,2.000000,2.000000,0.000000,4.000000,2.000000,2.000000,0.000000,0.000000,4.000000,4.000000,4.000000,4.000000,4.000000,4.000000,0.000000,,,,,,,,,,,,,,,,,13.000000,0.000000,0.505826,0.468018,-0.542664,0.480225,0.975217,-0.078135,-0.028812,-36.370575,45.191669,31.227854
1732158806.697791,1732158806.699703,53.000000,0.000000,4329.230957,4301.794922,4325.897461,4321.153809,4283.589844,4279.871582,4343.589844,4408.589844,4308.461426,4309.230957,4519.102539,4546.025879,4398.205078,4475.769043,0.000000,1.000000,19.000000,,,,0.000000,2.000000,2.000000,0.000000,4.000000,2.000000,2.000000,0.000000,0.000000,4.000000,4.000000,4.000000,4.000000,4.000000,4.000000,0.000000,,,,,,,,,,,,,,,,,,,,,,,,,,,,
1732158806.705600,1732158806.707311,54.000000,0.000000,4324.230957,4300.641113,4325.769043,4322.563965,4277.051270,4282.948730,4337.563965,4408.461426,4308.333496,4310.128418,4520.769043,4540.897461,4395.384766,4477.563965,0.000000,1.000000,19.000000,,,,0.000000,2.000000,2.000000,0.000000,4.000000,2.000000,2.000000,0.000000,0.000000,4.000000,4.000000,4.000000,4.000000,4.000000,4.000000,0.000000,,,,,,,,,,,,,,,,,,,,,,,,,,,,
1732158806.713408,1732158806.715119,55.000000,0.000000,4324.358887,4299.487305,4323.461426,4323.077148,4283.333496,4285.256348,4336.153809,4409.743652,4311.153809,4309.487305,4519.358887,4536.922852,4390.769043,4474.743652,0.000000,1.000000,19.000000,,,,0.000000,2.000000,2.000000,0.000000,4.000000,2.000000,2.000000,0.000000,0.000000,4.000000,4.000000,4.000000,4.000000,4.000000,4.000000,0.000000,,,,,,,,,,,,,,,,,,,,,,,,,,,,
1732158806.721216,1732158806.722828,56.000000,0.000000,4325.256348,4295.512695,4319.615234,4322.436035,4287.948730,4286.282227,4341.666504,4409.358887,4312.436035,4307.820313,4518.461426,4541.666504,4389.871582,4471.282227,0.000000,1.000000,19.000000,,,,0.000000,2.000000,2.000000,0.000000,4.000000,2.000000,2.000000,0.000000,0.000000,4.000000,4.000000,4.000000,4.000000,4.000000,4.000000,0.000000,,,,,,,,,,,,,,,,,14.000000,0.000000,0.506239,0.465576,-0.543945,0.480713,0.983030,-0.052741,-0.016604,-36.158497,45.146919,31.442894
1732158806.729025,1732158806.730636,57.000000,0.000000,4325.000000,4285.769043,4323.461426,4322.307617,4283.589844,4285.512695,4340.128418,4408.077148,4309.743652,4306.794922,4519.615234,4547.179688,4384.615234,4473.589844,0.000000,1.000000,19.000000,,,,0.000000,2.000000,2.000000,0.000000,4.000000,2.000000,2.000000,0.000000,0.000000,4.000000,4.000000,4.000000,4.000000,4.000000,4.000000,0.000000,,,,,,,,,,,,,,,,,,,,,,,,,,,,
1732158806.736833,1732158806.738244,58.000000,0.000000,4327.051270,4277.307617,4326.410156,4317.820313,4280.128418,4282.948730,4334.102539,4407.820313,4307.948730,4308.205078,4520.256348,4549.871582,4382.948730,4476.794922,0.000000,1.000000,19.000000,,,,0.000000,2.000000,2.000000,0.000000,4.000000,2.000000,2.000000,0.000000,0.000000,4.000000,4.000000,4.000000,4.000000,4.000000,4.000000,0.000000,,,,,,,,,,,,,,,,,,,,,,,,,,,,
1732158806.744641,1732158806.746053,59.000000,0.000000,4328.717773,4282.948730,4323.589844,4316.025879,4286.153809,4281.794922,4334.743652,4406.282227,4311.666504,4309.615234,4520.512695,4549.615234,4387.436035,4477.948730,0.000000,1.000000,19.000000,,,,0.000000,2.000000,2.000000,0.000000,4.000000,2.000000,2.000000,0.000000,0.000000,4.000000,4.000000,4.000000,4.000000,4.000000,4.000000,0.000000,,,,,,,,,,,,,,,,,,,,,,,,,,,,
1732158806.752449,1732158806.753961,60.000000,0.000000,4327.436035,4292.307617,4323.205078,4319.615234,4289.615234,4281.282227,4335.128418,4404.743652,4315.512695,4311.025879,4520.128418,4545.512695,4389.871582,4478.205078,0.000000,1.000000,19.000000,,,,0.000000,2.000000,2.000000,0.000000,4.000000,2.000000,2.000000,0.000000,0.000000,4.000000,4.000000,4.000000,4.000000,4.000000,4.000000,0.000000,,,,,,,,,,,,,,,,,15.000000,0.000000,0.506558,0.464539,-0.544373,0.480896,0.997192,-0.056159,-0.018069,-36.225048,45.104004,31.637077
1732158806.760258,1732158806.761769,61.000000,0.000000,4325.897461,4289.102539,4325.512695,4319.358887,4286.666504,4283.205078,4333.333496,4404.102539,4314.102539,4313.589844,4520.512695,4544.358887,4388.077148,4477.179688,0.000000,1.000000,19.000000,,,,0.000000,2.000000,2.000000,0.000000,4.000000,2.000000,2.000000,0.000000,0.000000,4.000000,4.000000,4.000000,4.000000,4.000000,4.000000,0.000000,,,,,,,,,,,,,,,,,,,,,,,,,,,,
1732158806.768066,1732158806.769777,62.000000,0.000000,4326.538574,4288.461426,4325.769043,4316.922852,4287.820313,4285.256348,4334.102539,4405.256348,4313.717773,4313.077148,4520.384766,4543.589844,4386.025879,4476.153809,0.000000,1.000000,19.000000,,,,0.000000,2.000000,2.000000,0.000000,4.000000,2.000000,2.000000,0.000000,0.000000,4.000000,4.000000,4.000000,4.000000,4.000000,4.000000,0.000000,,,,,,,,,,,,,,,,,,,,,,,,,,,,
1732158806.775874,1732158806.777585,63.000000,0.000000,4322.563965,4294.102539,4324.230957,4317.436035,4289.615234,4285.641113,4336.282227,4407.948730,4317.820313,4311.538574,4520.256348,4537.051270,4384.615234,4470.897461,0.000000,1.000000,19.000000,,,,0.000000,2.000000,2.000000,0.000000,4.000000,2.000000,2.000000,0.000000,0.000000,4.000000,4.000000,4.000000,4.000000,4.000000,4.000000,0.000000,,,,,,,,,,,,,,,,,,,,,,,,,,,,
1732158806.783682,1732158806.785293,64.000000,0.000000,4316.282227,4294.487305,4321.538574,4316.538574,4288.717773,4286.410156,4335.000000,4408.461426,4321.922852,4313.333496,4520.512695,4535.512695,4382.948730,4466.794922,0.000000,1.000000,19.000000,,,,0.000000,2.000000,2.000000,0.000000,4.000000,2.000000,2.000000,0.000000,0.000000,4.000000,4.000000,4.000000,4.000000,4.000000,4.000000,0.000000,,,,,,,,,,,,,,,,,16.000000,0.000000,0.506967,0.463013,-0.544861,0.481384,0.996215,-0.054694,-0.015139,-36.182289,45.337578,31.674366
1732158806.791491,1732158806.793102,65.000000,0.000000,4321.538574,4292.948730,4322.051270,4315.128418,4289.230957,4287.307617,4334.743652,4408.717773,4323.589844,4313.717773,4520.897461,4544.230957,4384.230957,4469.358887,1614.000000,1.000000,19.000000,,,,0.000000,2.000000,2.000000,0.000000,4.000000,2.000000,2.000000,0.000000,0.000000,4.000000,4.000000,4.000000,4.000000,4.000000,4.000000,0.000000,,,,,,,,,,,,,,,,,,,,,,,,,,,,
1732158806.799299,1732158806.800710,66.000000,0.000000,4327.820313,4295.641113,4324.230957,4320.769043,4290.512695,4292.436035,4340.000000,4408.846191,4318.461426,4310.512695,4521.025879,4547.179688,4387.948730,4475.128418,1359.000000,1.000000,19.000000,,,,0.000000,2.000000,2.000000,0.000000,4.000000,2.000000,2.000000,0.000000,0.000000,4.000000,4.000000,4.000000,4.000000,4.000000,4.000000,0.000000,,,,,,,,,,,,,,,,,,,,,,,,,,,,
1732158806.807107,1732158806.808518,67.000000,0.000000,4323.077148,4296.153809,4324.871582,4322.051270,4288.974121,4293.461426,4341.153809,4408.974121,4311.410156,4308.589844,4521.794922,4540.641113,4387.820313,4474.358887,1431.000000,1.000000,19.000000,,,,0.000000,2.000000,2.000000,0.000000,4.000000,2.000000,2.000000,0.000000,0.000000,4.000000,4.000000,4.000000,4.000000,4.000000,4.000000,0.000000,,,,,,,,,,,,,,,,,,,,,,,,,,,,
1732158806.814915,1732158806.816426,68.000000,0.000000,4318.846191,4293.717773,4323.846191,4315.512695,4289.102539,4286.153809,4338.461426,4409.487305,4316.410156,4308.974121,4520.512695,4536.025879,4383.589844,4465.897461,1437.000000,1.000000,19.000000,,,,0.000000,2.000000,2.000000,0.000000,4.000000,2.000000,2.000000,0.000000,0.000000,4.000000,4.000000,4.000000,4.000000,4.000000,4.000000,0.000000,,,,,,,,,,,,,,,,,17.000000,0.000000,0.507096,0.461060,-0.545532,0.482361,1.001099,-0.063484,-0.008302,-36.112656,45.175106,31.752903
1732158806.822724,1732158806.824235,69.000000,0.000000,4321.025879,4295.128418,4323.461426,4316.538574,4290.384766,4285.384766,4342.179688,4410.641113,4323.589844,4312.948730,4520.512695,4535.384766,4382.692383,4461.282227,1197.000000,1.000000,19.000000,,,,0.000000,2.000000,2.000000,0.000000,4.000000,2.000000,2.000000,0.000000,0.000000,4.000000,4.000000,4.000000,4.000000,4.000000,4.000000,0.000000,,,,,,,,,,,,,,,,,,,,,,,,,,,,
1732158806.830532,1732158806.832243,70.000000,0.000000,4320.897461,4295.384766,4323.589844,4322.820313,4290.256348,4292.307617,4342.179688,4408.974121,4315.000000,4311.410156,4523.333496,4532.436035,4383.461426,4460.128418,0.000000,1.000000,19.000000,,,,0.000000,2.000000,2.000000,0.000000,4.000000,2.000000,2.000000,0.000000,0.000000,4.000000,4.000000,4.000000,4.000000,4.000000,4.000000,0.000000,,,,,,,,,,,,,,,,,,,,,,,,,,,,
1732158806.838340,1732158806.840051,71.000000,0.000000,4317.692383,4296.153809,4323.333496,4321.794922,4292.307617,4289.871582,4336.538574,4407.307617,4306.666504,4301.282227,4517.179688,4530.769043,4382.563965,4459.358887,0.000000,1.000000,19.000000,,,,0.000000,2.000000,2.000000,0.000000,4.000000,2.000000,2.000000,0.000000,0.000000,4.000000,4.000000,4.000000,4.000000,4.000000,4.000000,0.000000,,,,,,,,,,,,,,,,,,,,,,,,,,,,
1732158806.846148,1732158806.847959,72.000000,0.000000,4316.153809,4298.077148,4322.179688,4315.641113,4290.769043,4280.512695,4337.051270,4410.256348,4309.487305,4298.333496,4507.307617,4530.641113,4382.692383,4458.589844,1541.000000,1.000000,19.000000,,,,0.000000,2.000000,2.000000,0.000000,4.000000,2.000000,2.000000,0.000000,0.000000,4.000000,4.000000,4.000000,4.000000,4.000000,4.000000,0.000000,,,,,,,,,,,,,,,,,18.000000,0.000000,0.506849,0.460876,-0.545593,0.482727,0.989867,-0.063973,-0.010743,-35.996250,44.900169,31.831518
1732158806.853957,1732158806.855767,73.000000,0.000000,4316.025879,4296.282227,4321.282227,4316.282227,4288.205078,4281.282227,4339.487305,4411.153809,4312.307617,4303.974121,4508.717773,4531.282227,4381.153809,4459.102539,1698.000000,1.000000,19.000000,,,,0.000000,2.000000,2.000000,0.000000,4.000000,2.000000,2.000000,0.000000,0.000000,4.000000,4.000000,4.000000,4.000000,4.000000,4.000000,0.000000,,,,,,,,,,,,,,,,,,,,,,,,,,,,
1732158806.861765,1732158806.863775,74.000000,0.000000,4317.179688,4293.846191,4321.538574,4321.922852,4292.179688,4286.153809,4335.641113,4408.846191,4314.743652,4307.820313,4512.820313,4533.333496,4376.794922,4458.717773,1556.000000,1.000000,19.000000,,,,0.000000,2.000000,2.000000,0.000000,4.000000,2.000000,2.000000,0.000000,0.000000,4.000000,4.000000,4.000000,4.000000,4.000000,4.000000,0.000000,,,,,,,,,,,,,,,,,,,,,,,,,,,,
1732158806.869573,1732158806.871583,75.000000,0.000000,4318.333496,4296.538574,4321.153809,4324.871582,4294.743652,4286.282227,4335.641113,4406.922852,4317.179688,4308.461426,4509.871582,4535.256348,4377.179688,4457.179688,1549.000000,1.000000,19.000000,,,,0.000000,2.000000,2.000000,0.000000,4.000000,2.000000,2.000000,0.000000,0.000000,4.000000,4.000000,4.000000,4.000000,4.000000,4.000000,0.000000,,,,,,,,,,,,,,,,,,,,,,,,,,,,
1732158806.877381,1732158806.879491,76.000000,0.000000,4319.487305,4299.615234,4322.820313,4322.948730,4291.538574,4283.717773,4338.717773,4408.077148,4313.205078,4305.128418,4507.820313,4534.230957,4383.205078,4459.487305,1700.000000,1.000000,19.000000,,,,0.000000,2.000000,2.000000,0.000000,4.000000,2.000000,2.000000,0.000000,0.000000,4.000000,4.000000,4.000000,4.000000,4.000000,4.000000,0.000000,,,,,,,,,,,,,,,,,19.000000,0.000000,0.506611,0.460938,-0.545654,0.482849,0.990844,-0.064949,-0.011720,-35.996964,45.077469,31.831863
1732158806.885190,1732158806.887300,77.000000,0.000000,4316.794922,4295.128418,4324.487305,4317.820313,4302.179688,4279.230957,4337.051270,4410.000000,4307.563965,4296.153809,4507.948730,4528.333496,4382.436035,4458.461426,1561.000000,1.000000,19.000000,,,,0.000000,2.000000,2.000000,0.000000,4.000000,2.000000,2.000000,0.000000,0.000000,4.000000,4.000000,4.000000,4.000000,4.000000,4.000000,0.000000,,,,,,,,,,,,,,,,,,,,,,,,,,,,
1732158806.892998,1732158806.895308,78.000000,0.000000,4314.230957,4294.487305,4322.307617,4318.846191,4308.461426,4281.410156,4337.692383,4409.102539,4309.487305,4294.871582,4507.307617,4528.846191,4375.641113,4457.179688,1556.000000,1.000000,19.000000,,,,0.000000,2.000000,2.000000,0.000000,4.000000,2.000000,2.000000,0.000000,0.000000,4.000000,4.000000,4.000000,4.000000,4.000000,4.000000,0.000000,1.000000,0.000000,2.000000,2.000000,0.000000,4.000000,2.000000,2.000000,0.000000,0.000000,4.000000,4.000000,4.000000,4.000000,4.000000,4.000000,,,,,,,,,,,,
1732158806.900806,1732158806.903116,79.000000,0.000000,4318.589844,4299.871582,4321.153809,4329.615234,4287.179688,4288.333496,4341.666504,4408.974121,4312.948730,4305.128418,4509.743652,4537.563965,4376.282227,4461.410156,1549.000000,1.000000,19.000000,,,,0.000000,2.000000,2.000000,0.000000,4.000000,2.000000,2.000000,0.000000,0.000000,4.000000,4.000000,4.000000,4.000000,4.000000,4.000000,0.000000,,,,,,,,,,,,,,,,,,,,,,,,,,,,
1732158806.908615,1732158806.911024,80.000000,0.000000,4318.589844,4298.205078,4323.333496,4328.333496,4275.512695,4288.333496,4341.666504,4411.025879,4311.282227,4307.436035,4510.897461,4540.256348,4382.436035,4463.589844,1700.000000,1.000000,19.000000,,,,0.000000,2.000000,2.000000,0.000000,4.000000,2.000000,2.000000,0.000000,0.000000,4.000000,4.000000,4.000000,4.000000,4.000000,4.000000,0.000000,,,,,,,,,,,,,,,,,20.000000,0.000000,0.505926,0.461426,-0.545715,0.483032,0.968868,-0.070809,-0.026370,-35.995872,45.134418,31.905476
1732158806.916423,1732158806.918832,81.000000,0.000000,4309.487305,4290.000000,4322.948730,4312.563965,4287.563965,4285.256348,4341.282227,4408.461426,4313.974121,4305.384766,4508.974121,4532.307617,4382.563965,4455.384766,1561.000000,1.000000,19.000000,,,,0.000000,2.000000,2.000000,0.000000,4.000000,2.000000,2.000000,0.000000,0.000000,4.000000,4.000000,4.000000,4.000000,4.000000,4.000000,0.000000,,,,,,,,,,,,,,,,,,,,,,,,,,,,
1732158806.924231,1732158806.926840,82.000000,0.000000,4303.846191,4285.641113,4322.051270,4308.461426,4289.102539,4285.128418,4341.282227,4404.743652,4321.410156,4310.769043,4508.077148,4531.153809,4377.948730,4445.000000,1556.000000,1.000000,19.000000,,,,0.000000,2.000000,2.000000,0.000000,4.000000,2.000000,2.000000,0.000000,0.000000,4.000000,4.000000,4.000000,4.000000,4.000000,4.000000,0.000000,,,,,,,,,,,,,,,,,,,,,,,,,,,,
1732158806.932039,1732158806.934648,83.000000,0.000000,4308.077148,4292.820313,4323.333496,4317.563965,4284.102539,4284.743652,4337.692383,4407.563965,4320.512695,4314.230957,4507.051270,4538.461426,4375.897461,4445.512695,1549.000000,1.000000,19.000000,,,,0.000000,2.000000,2.000000,0.000000,4.000000,2.000000,2.000000,0.000000,0.000000,4.000000,4.000000,4.000000,4.000000,4.000000,4.000000,0.000000,,,,,,,,,,,,,,,,,,,,,,,,,,,,
1732158806.939847,1732158806.942556,84.000000,0.000000,4310.128418,4299.230957,4324.358887,4320.256348,4291.153809,4282.563965,4336.410156,4411.538574,4315.641113,4303.974121,4504.102539,4537.563965,4370.897461,4448.846191,1700.000000,1.000000,19.000000,,,,0.000000,2.000000,2.000000,0.000000,4.000000,2.000000,2.000000,0.000000,0.000000,4.000000,4.000000,4.000000,4.000000,4.000000,4.000000,0.000000,,,,,,,,,,,,,,,,,21.000000,0.000000,0.505181,0.462097,-0.545837,0.483032,0.976682,-0.056648,-0.013674,-35.998325,44.980545,32.145103
1732158806.947656,1732158806.950365,85.000000,0.000000,4308.333496,4298.205078,4322.563965,4320.512695,4290.128418,4283.846191,4339.487305,4410.000000,4321.922852,4299.871582,4505.000000,4533.717773,4365.000000,4447.820313,1561.000000,1.000000,19.000000,,,,0.000000,2.000000,2.000000,0.000000,4.000000,2.000000,2.000000,0.000000,0.000000,4.000000,4.000000,4.000000,4.000000,4.000000,4.000000,0.000000,,,,,,,,,,,,,,,,,,,,,,,,,,,,
1732158806.955464,1732158806.958073,86.000000,0.000000,4310.512695,4300.000000,4322.179688,4323.589844,4292.563965,4286.666504,4337.436035,4408.205078,4321.538574,4302.948730,4502.820313,4535.384766,4366.666504,4447.051270,1556.000000,1.000000,19.000000,,,,0.000000,2.000000,2.000000,0.000000,4.000000,2.000000,2.000000,0.000000,0.000000,4.000000,4.000000,4.000000,4.000000,4.000000,4.000000,0.000000,,,,,,,,,,,,,,,,,,,,,,,,,,,,
1732158806.963272,1732158806.965881,87.000000,0.000000,4313.077148,4306.282227,4323.461426,4324.487305,4312.692383,4287.436035,4333.717773,4408.974121,4305.641113,4290.769043,4493.846191,4534.615234,4368.077148,4447.051270,1549.000000,1.000000,19.000000,,,,0.000000,2.000000,2.000000,0.000000,4.000000,2.000000,2.000000,0.000000,0.000000,4.000000,4.000000,4.000000,4.000000,4.000000,4.000000,0.000000,,,,,,,,,,,,,,,,,,,,,,,,,,,,
1732158806.971080,1732158806.973589,88.000000,0.000000,4310.000000,4308.461426,4323.589844,4326.153809,4308.717773,4291.410156,4334.358887,4408.333496,4300.128418,4283.333496,4493.717773,4532.563965,4365.897461,4444.615234,1700.000000,1.000000,19.000000,,,,0.000000,2.000000,2.000000,0.000000,4.000000,2.000000,2.000000,0.000000,0.000000,4.000000,4.000000,4.000000,4.000000,4.000000,4.000000,0.000000,,,,,,,,,,,,,,,,,22.000000,0.000000,0.504891,0.462341,-0.545898,0.483032,0.976682,-0.056648,-0.013674,-36.093643,44.762573,31.610867
1732158806.978889,1732158806.981398,89.000000,0.000000,4308.717773,4307.692383,4323.846191,4323.589844,4281.538574,4293.974121,4333.974121,4406.922852,4308.717773,4294.358887,4504.102539,4535.128418,4366.282227,4445.128418,1561.000000,1.000000,19.000000,,,,0.000000,2.000000,2.000000,0.000000,4.000000,2.000000,2.000000,0.000000,0.000000,4.000000,4.000000,4.000000,4.000000,4.000000,4.000000,0.000000,,,,,,,,,,,,,,,,,,,,,,,,,,,,
1732158806.986697,1732158806.989006,90.000000,0.000000,4312.307617,4306.025879,4326.153809,4315.897461,4278.589844,4294.102539,4336.025879,4406.666504,4310.641113,4299.871582,4504.871582,4533.333496,4366.666504,4448.846191,1556.000000,1.000000,19.000000,,,,0.000000,2.000000,2.000000,0.000000,4.000000,2.000000,2.000000,0.000000,0.000000,4.000000,4.000000,4.000000,4.000000,4.000000,4.000000,0.000000,,,,,,,,,,,,,,,,,,,,,,,,,,,,
1732158806.994505,1732158806.996814,91.000000,0.000000,4307.563965,4298.077148,4326.153809,4313.333496,4291.666504,4295.256348,4343.077148,4407.436035,4310.512695,4294.358887,4498.077148,4526.025879,4361.538574,4444.743652,1549.000000,1.000000,19.000000,,,,0.000000,2.000000,2.000000,0.000000,4.000000,2.000000,2.000000,0.000000,0.000000,4.000000,4.000000,4.000000,4.000000,4.000000,4.000000,0.000000,,,,,,,,,,,,,,,,,,,,,,,,,,,,
1732158807.002314,1732158807.004523,92.000000,0.000000,4299.230957,4294.358887,4321.538574,4313.846191,4291.153809,4297.692383,4343.205078,4409.102539,4317.307617,4295.256348,4495.128418,4526.282227,4353.717773,4436.922852,1700.000000,1.000000,19.000000,,,,0.000000,2.000000,2.000000,0.000000,4.000000,2.000000,2.000000,0.000000,0.000000,4.000000,4.000000,4.000000,4.000000,4.000000,4.000000,0.000000,,,,,,,,,,,,,,,,,23.000000,0.000000,0.504411,0.462891,-0.545715,0.483215,0.970822,-0.066903,-0.017580,-36.067516,44.686020,31.466469
1732158807.010122,1732158807.012331,93.000000,0.000000,4298.461426,4296.794922,4319.102539,4313.461426,4287.563965,4293.589844,4339.871582,4409.487305,4317.948730,4298.717773,4495.512695,4528.333496,4352.436035,4439.615234,1561.000000,1.000000,19.000000,,,,0.000000,2.000000,2.000000,0.000000,4.000000,2.000000,2.000000,0.000000,0.000000,4.000000,4.000000,4.000000,4.000000,4.000000,4.000000,0.000000,,,,,,,,,,,,,,,,,,,,,,,,,,,,
1732158807.017930,1732158807.019939,94.000000,0.000000,4300.512695,4294.743652,4320.897461,4315.897461,4295.128418,4291.538574,4341.538574,4407.179688,4311.025879,4300.897461,4501.410156,4527.436035,4357.692383,4445.641113,1556.000000,1.000000,19.000000,,,,0.000000,2.000000,2.000000,0.000000,4.000000,2.000000,2.000000,0.000000,0.000000,4.000000,4.000000,4.000000,4.000000,4.000000,4.000000,0.000000,,,,,,,,,,,,,,,,,,,,,,,,,,,,
1732158807.025738,1732158807.027747,95.000000,0.000000,4302.179688,4297.051270,4323.717773,4321.025879,4298.205078,4295.128418,4342.436035,4407.436035,4310.384766,4303.589844,4509.230957,4530.256348,4361.666504,4444.358887,1549.000000,1.000000,19.000000,,,,0.000000,2.000000,2.000000,0.000000,4.000000,2.000000,2.000000,0.000000,0.000000,4.000000,4.000000,4.000000,4.000000,4.000000,4.000000,0.000000,,,,,,,,,,,,,,,,,,,,,,,,,,,,
1732158807.033547,1732158807.035456,96.000000,0.000000,4308.589844,4306.538574,4324.743652,4325.128418,4291.538574,4295.128418,4341.282227,4410.897461,4317.051270,4306.794922,4508.333496,4531.666504,4363.205078,4444.615234,1700.000000,1.000000,19.000000,,,,0.000000,2.000000,2.000000,0.000000,4.000000,2.000000,2.000000,0.000000,0.000000,4.000000,4.000000,4.000000,4.000000,4.000000,4.000000,0.000000,,,,,,,,,,,,,,,,,24.000000,0.000000,0.503225,0.464355,-0.545349,0.483459,0.979123,-0.061043,-0.025394,-36.063023,44.640675,31.449507
1732158807.041355,1732158807.043264,97.000000,0.000000,4308.974121,4305.000000,4324.102539,4321.410156,4297.307617,4291.922852,4341.538574,4411.666504,4320.897461,4310.128418,4506.538574,4526.666504,4362.051270,4445.384766,1561.000000,1.000000,19.000000,,,,0.000000,2.000000,2.000000,0.000000,4.000000,2.000000,2.000000,0.000000,0.000000,4.000000,4.000000,4.000000,4.000000,4.000000,4.000000,0.000000,,,,,,,,,,,,,,,,,,,,,,,,,,,,
1732158807.049163,1732158807.050872,98.000000,0.000000,4297.820313,4294.743652,4321.025879,4309.487305,4310.128418,4291.666504,4340.512695,4410.000000,4320.000000,4306.410156,4502.563965,4522.307617,4357.051270,4438.846191,1556.000000,1.000000,19.000000,,,,0.000000,2.000000,2.000000,0.000000,4.000000,2.000000,2.000000,0.000000,0.000000,4.000000,4.000000,4.000000,4.000000,4.000000,4.000000,0.000000,,,,,,,,,,,,,,,,,,,,,,,,,,,,
1732158807.056971,1732158807.058681,99.000000,0.000000,4294.487305,4293.205078,4320.769043,4305.512695,4297.948730,4292.563965,4341.025879,4410.769043,4324.615234,4305.769043,4495.128418,4525.384766,4354.871582,4436.666504,1549.000000,1.000000,19.000000,,,,0.000000,2.000000,2.000000,0.000000,4.000000,2.000000,2.000000,0.000000,0.000000,4.000000,4.000000,4.000000,4.000000,4.000000,4.000000,0.000000,,,,,,,,,,,,,,,,,,,,,,,,,,,,
1732158807.064779,1732158807.066389,100.000000,0.000000,4301.538574,4296.025879,4321.410156,4312.179688,4278.461426,4293.589844,4342.436035,4410.256348,4327.307617,4309.230957,4496.922852,4529.102539,4357.563965,4441.282227,1700.000000,1.000000,19.000000,,,,0.000000,2.000000,2.000000,0.000000,4.000000,2.000000,2.000000,0.000000,0.000000,4.000000,4.000000,4.000000,4.000000,4.000000,4.000000,0.000000,,,,,,,,,,,,,,,,,25.000000,0.000000,0.502960,0.464722,-0.545227,0.483521,0.979123,-0.061043,-0.025394,-36.109383,44.608948,31.452433
1732158807.072588,1732158807.074197,101.000000,0.000000,4306.282227,4297.820313,4322.436035,4318.974121,4279.871582,4295.897461,4339.743652,4408.333496,4316.153809,4302.820313,4501.794922,4530.769043,4357.820313,4443.077148,1561.000000,1.000000,19.000000,,,,0.000000,2.000000,2.000000,0.000000,4.000000,2.000000,2.000000,0.000000,0.000000,4.000000,4.000000,4.000000,4.000000,4.000000,4.000000,0.000000,,,,,,,,,,,,,,,,,,,,,,,,,,,,
1732158807.080396,1732158807.081806,102.000000,0.000000,4304.743652,4302.307617,4322.307617,4321.794922,4294.743652,4295.000000,4339.743652,4408.589844,4308.846191,4293.589844,4500.128418,4533.333496,4356.794922,4441.282227,1556.000000,1.000000,19.000000,,,,0.000000,2.000000,2.000000,0.000000,4.000000,2.000000,2.000000,0.000000,0.000000,4.000000,4.000000,4.000000,4.000000,4.000000,4.000000,0.000000,,,,,,,,,,,,,,,,,,,,,,,,,,,,
1732158807.088204,1732158807.089614,103.000000,0.000000,4304.871582,4302.307617,4322.307617,4320.512695,4306.282227,4293.461426,4343.333496,4409.230957,4315.128418,4295.641113,4502.307617,4535.384766,4359.230957,4437.307617,1549.000000,1.000000,19.000000,,,,0.000000,2.000000,2.000000,0.000000,4.000000,2.000000,2.000000,0.000000,0.000000,4.000000,4.000000,4.000000,4.000000,4.000000,4.000000,0.000000,,,,,,,,,,,,,,,,,,,,,,,,,,,,
1732158807.096012,1732158807.097522,104.000000,0.000000,4307.692383,4300.128418,4323.077148,4318.846191,4298.589844,4294.487305,4341.538574,4408.077148,4317.820313,4300.641113,4507.307617,4535.256348,4358.846191,4434.102539,1700.000000,1.000000,19.000000,,,,0.000000,2.000000,2.000000,0.000000,4.000000,2.000000,2.000000,0.000000,0.000000,4.000000,4.000000,4.000000,4.000000,4.000000,4.000000,0.000000,,,,,,,,,,,,,,,,,26.000000,0.000000,0.502183,0.465942,-0.544739,0.483704,0.970822,-0.054206,-0.028324,-36.310265,44.746582,31.493137
1732158807.103821,1732158807.105330,105.000000,0.000000,4306.410156,4302.436035,4324.487305,4318.846191,4278.846191,4294.743652,4338.974121,4409.230957,4314.230957,4300.512695,4500.897461,4533.461426,4356.153809,4436.025879,1561.000000,1.000000,19.000000,,,,0.000000,2.000000,2.000000,0.000000,4.000000,2.000000,2.000000,0.000000,0.000000,4.000000,4.000000,4.000000,4.000000,4.000000,4.000000,0.000000,,,,,,,,,,,,,,,,,,,,,,,,,,,,
1732158807.111629,1732158807.113338,106.000000,0.000000,4299.487305,4299.871582,4325.256348,4315.897461,4278.974121,4294.615234,4337.948730,4411.794922,4313.846191,4298.077148,4491.666504,4530.897461,4352.820313,4435.000000,1556.000000,1.000000,19.000000,,,,0.000000,2.000000,2.000000,0.000000,4.000000,2.000000,2.000000,0.000000,0.000000,4.000000,4.000000,4.000000,4.000000,4.000000,4.000000,0.000000,,,,,,,,,,,,,,,,,,,,,,,,,,,,
1732158807.119437,1732158807.121146,107.000000,0.000000,4295.512695,4296.282227,4322.436035,4311.025879,4292.820313,4295.769043,4337.179688,4409.615234,4312.692383,4293.846191,4490.641113,4527.692383,4347.820313,4427.436035,1549.000000,1.000000,19.000000,,,,0.000000,2.000000,2.000000,0.000000,4.000000,2.000000,2.000000,0.000000,0.000000,4.000000,4.000000,4.000000,4.000000,4.000000,4.000000,0.000000,,,,,,,,,,,,,,,,,,,,,,,,,,,,
1732158807.127246,1732158807.128855,108.000000,0.000000,4300.641113,4298.077148,4320.000000,4314.487305,4291.922852,4296.282227,4339.871582,4406.922852,4310.769043,4291.922852,4489.743652,4527.179688,4344.358887,4426.410156,1700.000000,1.000000,19.000000,,,,0.000000,2.000000,2.000000,0.000000,4.000000,2.000000,2.000000,0.000000,0.000000,4.000000,4.000000,4.000000,4.000000,4.000000,4.000000,0.000000,,,,,,,,,,,,,,,,,27.000000,0.000000,0.501252,0.466858,-0.544434,0.484131,0.978147,-0.084483,-0.024417,-36.259647,44.828064,31.466108
1732158807.135054,1732158807.136663,109.000000,0.000000,4303.205078,4298.077148,4321.025879,4318.589844,4291.410156,4295.384766,4343.205078,4409.358887,4312.948730,4293.974121,4489.487305,4528.846191,4341.410156,4429.487305,1561.000000,1.000000,19.000000,,,,0.000000,2.000000,2.000000,0.000000,4.000000,2.000000,2.000000,0.000000,0.000000,4.000000,4.000000,4.000000,4.000000,4.000000,4.000000,0.000000,,,,,,,,,,,,,,,,,,,,,,,,,,,,
1732158807.142862,1732158807.144271,110.000000,0.000000,4297.563965,4297.563965,4323.461426,4318.333496,4297.051270,4296.025879,4342.051270,4410.769043,4312.179688,4293.205078,4490.000000,4529.615234,4342.692383,4427.307617,1556.000000,1.000000,19.000000,,,,0.000000,2.000000,2.000000,0.000000,4.000000,2.000000,2.000000,0.000000,0.000000,4.000000,4.000000,4.000000,4.000000,4.000000,4.000000,0.000000,,,,,,,,,,,,,,,,,,,,,,,,,,,,
1732158807.150670,1732158807.152079,111.000000,0.000000,4296.025879,4299.743652,4323.205078,4322.051270,4297.307617,4294.615234,4339.230957,4407.948730,4308.205078,4289.743652,4489.358887,4528.717773,4347.436035,4427.179688,1549.000000,1.000000,19.000000,,,,0.000000,2.000000,2.000000,0.000000,4.000000,2.000000,2.000000,0.000000,0.000000,4.000000,4.000000,4.000000,4.000000,4.000000,4.000000,0.000000,,,,,,,,,,,,,,,,,,,,,,,,,,,,
1732158807.158479,1732158807.159987,112.000000,0.000000,4297.948730,4295.384766,4323.461426,4320.512695,4296.666504,4292.051270,4340.256348,4408.205078,4308.077148,4290.128418,4488.717773,4524.615234,4347.692383,4428.846191,1700.000000,1.000000,19.000000,,,,0.000000,2.000000,2.000000,0.000000,4.000000,2.000000,2.000000,0.000000,0.000000,4.000000,4.000000,4.000000,4.000000,4.000000,4.000000,0.000000,,,,,,,,,,,,,,,,,28.000000,0.000000,0.501159,0.466736,-0.544678,0.484070,0.972287,-0.071786,-0.031254,-36.150314,44.940731,31.470881
1732158807.166287,1732158807.167796,113.000000,0.000000,4295.000000,4289.487305,4323.205078,4311.153809,4294.358887,4292.948730,4340.000000,4408.589844,4309.871582,4294.230957,4490.512695,4523.846191,4347.051270,4424.230957,1561.000000,1.000000,19.000000,,,,0.000000,2.000000,2.000000,0.000000,4.000000,2.000000,2.000000,0.000000,0.000000,4.000000,4.000000,4.000000,4.000000,4.000000,4.000000,0.000000,,,,,,,,,,,,,,,,,,,,,,,,,,,,
1732158807.174095,1732158807.175804,114.000000,0.000000,4288.717773,4285.769043,4322.563965,4307.179688,4292.563965,4295.512695,4335.641113,4408.846191,4313.077148,4298.717773,4492.179688,4530.128418,4350.384766,4421.922852,1556.000000,1.000000,19.000000,,,,0.000000,2.000000,2.000000,0.000000,4.000000,2.000000,2.000000,0.000000,0.000000,4.000000,4.000000,4.000000,4.000000,4.000000,4.000000,0.000000,,,,,,,,,,,,,,,,,,,,,,,,,,,,
1732158807.181903,1732158807.183612,115.000000,0.000000,4289.743652,4280.897461,4321.794922,4311.922852,4293.717773,4296.666504,4334.358887,4411.282227,4317.307617,4305.128418,4491.025879,4533.717773,4352.051270,4425.897461,1549.000000,1.000000,19.000000,,,,0.000000,2.000000,2.000000,0.000000,4.000000,2.000000,2.000000,0.000000,0.000000,4.000000,4.000000,4.000000,4.000000,4.000000,4.000000,0.000000,,,,,,,,,,,,,,,,,,,,,,,,,,,,
1732158807.189712,1732158807.191520,116.000000,0.000000,4294.230957,4279.871582,4321.794922,4311.410156,4295.512695,4296.922852,4338.205078,4412.179688,4318.846191,4307.051270,4491.410156,4533.589844,4347.820313,4428.974121,1700.000000,1.000000,19.000000,,,,0.000000,2.000000,2.000000,0.000000,4.000000,2.000000,2.000000,0.000000,0.000000,4.000000,4.000000,4.000000,4.000000,4.000000,4.000000,0.000000,,,,,,,,,,,,,,,,,29.000000,0.000000,0.501102,0.466797,-0.544678,0.484070,0.969845,-0.064461,-0.048346,-35.710087,44.730324,31.444746
1732158807.197520,1732158807.199328,117.000000,0.000000,4295.641113,4282.307617,4323.589844,4310.384766,4297.820313,4296.666504,4341.794922,4408.974121,4314.102539,4300.897461,4491.794922,4532.179688,4345.641113,4425.512695,1561.000000,1.000000,19.000000,,,,0.000000,2.000000,2.000000,0.000000,4.000000,2.000000,2.000000,0.000000,0.000000,4.000000,4.000000,4.000000,4.000000,4.000000,4.000000,0.000000,,,,,,,,,,,,,,,,,,,,,,,,,,,,
1732158807.205328,1732158807.207336,118.000000,0.000000,4295.769043,4281.922852,4324.743652,4315.641113,4292.436035,4295.128418,4340.128418,4408.717773,4306.666504,4296.538574,4489.615234,4526.410156,4345.897461,4423.205078,1556.000000,1.000000,19.000000,,,,0.000000,2.000000,2.000000,0.000000,4.000000,2.000000,2.000000,0.000000,0.000000,4.000000,4.000000,4.000000,4.000000,4.000000,4.000000,0.000000,,,,,,,,,,,,,,,,,,,,,,,,,,,,
1732158807.213136,1732158807.215144,119.000000,0.000000,4296.025879,4281.666504,4323.461426,4317.948730,4293.333496,4295.384766,4338.077148,4411.153809,4304.615234,4294.871582,4488.333496,4522.692383,4345.000000,4424.743652,1549.000000,1.000000,19.000000,,,,0.000000,2.000000,2.000000,0.000000,4.000000,2.000000,2.000000,0.000000,0.000000,4.000000,4.000000,4.000000,4.000000,4.000000,4.000000,0.000000,,,,,,,,,,,,,,,,,,,,,,,,,,,,
1732158807.220945,1732158807.223053,120.000000,0.000000,4295.384766,4282.307617,4321.922852,4315.512695,4310.897461,4293.077148,4339.358887,4409.102539,4308.974121,4293.077148,4487.436035,4526.025879,4341.410156,4422.820313,1700.000000,1.000000,19.000000,,,,0.000000,2.000000,2.000000,0.000000,4.000000,2.000000,2.000000,0.000000,0.000000,4.000000,4.000000,4.000000,4.000000,4.000000,4.000000,0.000000,,,,,,,,,,,,,,,,,30.000000,0.000000,0.500761,0.467163,-0.544678,0.484070,0.970822,-0.059089,-0.047857,-35.860172,44.718231,31.423578
1732158807.228753,1732158807.230861,121.000000,0.000000,4293.717773,4279.743652,4321.666504,4310.512695,4306.410156,4289.487305,4339.871582,4406.922852,4309.871582,4294.230957,4486.666504,4528.333496,4339.871582,4420.897461,1561.000000,1.000000,19.000000,,,,0.000000,2.000000,2.000000,0.000000,4.000000,2.000000,2.000000,0.000000,0.000000,4.000000,4.000000,4.000000,4.000000,4.000000,4.000000,0.000000,,,,,,,,,,,,,,,,,,,,,,,,,,,,
1732158807.236561,1732158807.238869,122.000000,0.000000,4293.717773,4279.230957,4321.410156,4309.358887,4277.051270,4292.948730,4336.794922,4408.589844,4310.128418,4296.666504,4488.205078,4529.230957,4343.717773,4425.384766,1556.000000,1.000000,19.000000,,,,0.000000,2.000000,2.000000,0.000000,4.000000,2.000000,2.000000,0.000000,0.000000,4.000000,4.000000,4.000000,4.000000,4.000000,4.000000,0.000000,,,,,,,,,,,,,,,,,,,,,,,,,,,,
1732158807.244369,1732158807.246677,123.000000,0.000000,4293.205078,4280.641113,4321.025879,4310.769043,4275.512695,4296.922852,4337.051270,4410.256348,4315.256348,4302.692383,4491.025879,4534.743652,4346.025879,4429.358887,1549.000000,1.000000,19.000000,,,,0.000000,2.000000,2.000000,0.000000,4.000000,2.000000,2.000000,0.000000,0.000000,4.000000,4.000000,4.000000,4.000000,4.000000,4.000000,0.000000,,,,,,,,,,,,,,,,,,,,,,,,,,,,
1732158807.252178,1732158807.254585,124.000000,0.000000,4290.897461,4281.153809,4321.025879,4311.922852,4294.743652,4298.974121,4340.897461,4410.000000,4316.410156,4308.974121,4490.512695,4531.025879,4345.000000,4420.384766,1700.000000,1.000000,19.000000,,,,0.000000,2.000000,2.000000,0.000000,4.000000,2.000000,2.000000,0.000000,0.000000,4.000000,4.000000,4.000000,4.000000,4.000000,4.000000,0.000000,,,,,,,,,,,,,,,,,31.000000,0.000000,0.500753,0.467834,-0.544434,0.483704,0.967892,-0.046392,-0.031742,-35.946739,44.553432,31.529764
1732158807.259986,1732158807.262393,125.000000,0.000000,4289.487305,4282.436035,4321.666504,4311.794922,4294.871582,4300.000000,4341.794922,4411.025879,4311.410156,4306.538574,4488.974121,4520.128418,4345.128418,4410.256348,1561.000000,1.000000,19.000000,,,,0.000000,2.000000,2.000000,0.000000,4.000000,2.000000,2.000000,0.000000,0.000000,4.000000,4.000000,4.000000,4.000000,4.000000,4.000000,0.000000,,,,,,,,,,,,,,,,,,,,,,,,,,,,
1732158807.267794,1732158807.270401,126.000000,0.000000,4289.743652,4283.589844,4321.666504,4311.794922,4287.179688,4297.307617,4341.666504,4411.153809,4310.256348,4304.615234,4491.282227,4522.563965,4346.282227,4414.487305,1556.000000,1.000000,19.000000,,,,0.000000,2.000000,2.000000,0.000000,4.000000,2.000000,2.000000,0.000000,0.000000,4.000000,4.000000,4.000000,4.000000,4.000000,4.000000,0.000000,,,,,,,,,,,,,,,,,,,,,,,,,,,,
1732158807.275602,1732158807.278209,127.000000,0.000000,4291.410156,4283.717773,4321.153809,4312.563965,4292.307617,4293.717773,4340.769043,4410.256348,4313.077148,4305.256348,4493.461426,4535.384766,4347.948730,4425.000000,19.000000,1.000000,19.000000,,,,0.000000,2.000000,2.000000,0.000000,4.000000,2.000000,2.000000,0.000000,0.000000,4.000000,4.000000,4.000000,4.000000,4.000000,4.000000,0.000000,,,,,,,,,,,,,,,,,,,,,,,,,,,,
1732158807.283411,1732158807.286118,0.000000,0.000000,4292.820313,4279.615234,4321.153809,4310.256348,4305.384766,4293.077148,4336.666504,4410.384766,4309.871582,4299.358887,4492.692383,4541.922852,4348.333496,4430.384766,0.000000,1.000000,19.000000,,,,0.000000,2.000000,2.000000,0.000000,4.000000,2.000000,2.000000,0.000000,0.000000,4.000000,4.000000,4.000000,4.000000,4.000000,4.000000,0.000000,,,,,,,,,,,,,,,,,0.000000,0.000000,0.500825,0.468018,-0.544373,0.483521,0.984007,-0.051276,-0.041021,-35.901859,44.348282,31.527443
1732158807.291219,1732158807.293926,1.000000,0.000000,4293.717773,4279.743652,4322.820313,4308.717773,4304.102539,4291.922852,4337.563965,4411.538574,4302.948730,4293.205078,4490.641113,4540.256348,4344.102539,4428.461426,1613.000000,1.000000,19.000000,,,,0.000000,2.000000,2.000000,0.000000,4.000000,2.000000,2.000000,0.000000,0.000000,4.000000,4.000000,4.000000,4.000000,4.000000,4.000000,0.000000,,,,,,,,,,,,,,,,,,,,,,,,,,,,
1732158807.299027,1732158807.301934,2.000000,0.000000,4295.769043,4285.769043,4322.307617,4313.077148,4284.230957,4292.436035,4342.820313,4410.128418,4304.871582,4295.897461,4492.307617,4535.384766,4344.358887,4429.230957,1359.000000,1.000000,19.000000,,,,0.000000,2.000000,2.000000,0.000000,4.000000,2.000000,2.000000,0.000000,0.000000,4.000000,4.000000,4.000000,4.000000,4.000000,4.000000,0.000000,,,,,,,,,,,,,,,,,,,,,,,,,,,,
1732158807.306835,1732158807.309742,3.000000,0.000000,4298.205078,4288.717773,4321.666504,4317.948730,4279.871582,4297.051270,4340.641113,4408.717773,4308.589844,4296.666504,4494.230957,4534.230957,4350.128418,4432.307617,1429.000000,1.000000,19.000000,,,,0.000000,2.000000,2.000000,0.000000,4.000000,2.000000,2.000000,0.000000,0.000000,4.000000,4.000000,4.000000,4.000000,4.000000,4.000000,0.000000,,,,,,,,,,,,,,,,,,,,,,,,,,,,
1732158807.314644,1732158807.317650,4.000000,0.000000,4297.436035,4288.205078,4320.512695,4317.692383,4294.871582,4296.025879,4335.256348,4411.025879,4311.794922,4294.358887,4493.205078,4532.436035,4350.384766,4430.384766,1436.000000,1.000000,19.000000,,,,0.000000,2.000000,2.000000,0.000000,4.000000,2.000000,2.000000,0.000000,0.000000,4.000000,4.000000,4.000000,4.000000,4.000000,4.000000,0.000000,,,,,,,,,,,,,,,,,1.000000,0.000000,0.500930,0.468079,-0.544495,0.483215,0.984495,-0.055671,-0.042486,-36.142174,44.377106,31.775562
1732158807.322452,1732158807.325458,5.000000,0.000000,4295.256348,4287.179688,4320.769043,4315.384766,4297.563965,4293.333496,4337.692383,4412.307617,4318.333496,4300.769043,4493.461426,4528.077148,4348.461426,4427.307617,1187.000000,1.000000,19.000000,,,,0.000000,2.000000,2.000000,0.000000,4.000000,2.000000,2.000000,0.000000,0.000000,4.000000,4.000000,4.000000,4.000000,4.000000,4.000000,0.000000,,,,,,,,,,,,,,,,,,,,,,,,,,,,
1732158807.330260,1732158807.333466,6.000000,0.000000,4294.230957,4285.512695,4321.922852,4314.358887,4292.692383,4295.256348,4343.846191,4410.512695,4318.077148,4311.025879,4494.102539,4526.282227,4347.820313,4425.512695,0.000000,1.000000,19.000000,,,,0.000000,2.000000,2.000000,0.000000,4.000000,2.000000,2.000000,0.000000,0.000000,4.000000,4.000000,4.000000,4.000000,4.000000,4.000000,0.000000,,,,,,,,,,,,,,,,,,,,,,,,,,,,
1732158807.338068,1732158807.341275,7.000000,0.000000,4294.230957,4285.512695,4321.025879,4312.563965,4295.000000,4297.436035,4345.000000,4410.000000,4313.461426,4307.307617,4491.922852,4526.282227,4344.615234,4421.794922,0.000000,1.000000,19.000000,,,,0.000000,2.000000,2.000000,0.000000,4.000000,2.000000,2.000000,0.000000,0.000000,4.000000,4.000000,4.000000,4.000000,4.000000,4.000000,0.000000,,,,,,,,,,,,,,,,,,,,,,,,,,,,
1732158807.345877,1732158807.348983,8.000000,0.000000,4295.384766,4292.051270,4320.256348,4314.102539,4296.410156,4297.563965,4342.692383,4413.974121,4316.666504,4293.461426,4491.666504,4526.410156,4342.436035,4418.589844,1541.000000,1.000000,19.000000,,,,0.000000,2.000000,2.000000,0.000000,4.000000,2.000000,2.000000,0.000000,0.000000,4.000000,4.000000,4.000000,4.000000,4.000000,4.000000,0.000000,,,,,,,,,,,,,,,,,2.000000,0.000000,0.500547,0.468811,-0.544434,0.482971,0.997192,-0.066903,-0.035649,-36.336826,44.550457,31.621538
1732158807.353685,1732158807.356791,9.000000,0.000000,4295.641113,4292.051270,4321.666504,4315.000000,4297.692383,4295.769043,4341.794922,4414.615234,4316.538574,4291.794922,4492.692383,4527.948730,4344.102539,4421.153809,1700.000000,1.000000,19.000000,,,,0.000000,2.000000,2.000000,0.000000,4.000000,2.000000,2.000000,0.000000,0.000000,4.000000,4.000000,4.000000,4.000000,4.000000,4.000000,0.000000,,,,,,,,,,,,,,,,,,,,,,,,,,,,
1732158807.361493,1732158807.364399,10.000000,0.000000,4293.461426,4287.948730,4321.410156,4311.922852,4299.358887,4299.102539,4339.615234,4412.179688,4308.333496,4297.307617,4490.641113,4526.410156,4345.256348,4421.666504,1556.000000,1.000000,19.000000,,,,0.000000,2.000000,2.000000,0.000000,4.000000,2.000000,2.000000,0.000000,0.000000,4.000000,4.000000,4.000000,4.000000,4.000000,4.000000,0.000000,,,,,,,,,,,,,,,,,,,,,,,,,,,,
1732158807.369301,1732158807.372208,11.000000,0.000000,4291.794922,4288.717773,4318.717773,4312.436035,4298.461426,4302.948730,4338.333496,4412.563965,4310.769043,4297.692383,4490.769043,4522.436035,4347.948730,4416.410156,1549.000000,1.000000,19.000000,,,,0.000000,2.000000,2.000000,0.000000,4.000000,2.000000,2.000000,0.000000,0.000000,4.000000,4.000000,4.000000,4.000000,4.000000,4.000000,0.000000,,,,,,,,,,,,,,,,,,,,,,,,,,,,
1732158807.377110,1732158807.379916,12.000000,0.000000,4292.051270,4290.512695,4320.769043,4317.179688,4299.615234,4299.615234,4340.641113,4410.897461,4315.128418,4297.179688,4491.922852,4520.384766,4346.666504,4412.692383,1703.000000,1.000000,19.000000,,,,0.000000,2.000000,2.000000,0.000000,4.000000,2.000000,2.000000,0.000000,0.000000,4.000000,4.000000,4.000000,4.000000,4.000000,4.000000,0.000000,,,,,,,,,,,,,,,,,3.000000,0.000000,0.500145,0.469421,-0.544006,0.483276,0.984007,-0.055183,-0.028812,-36.461163,44.640869,31.476780
1732158807.384918,1732158807.387724,13.000000,0.000000,4292.307617,4288.974121,4322.051270,4315.000000,4311.922852,4296.025879,4339.487305,4407.051270,4312.436035,4296.410156,4488.974121,4516.025879,4341.153809,4412.307617,1568.000000,1.000000,19.000000,,,,0.000000,2.000000,2.000000,0.000000,4.000000,2.000000,2.000000,0.000000,0.000000,4.000000,4.000000,4.000000,4.000000,4.000000,4.000000,0.000000,,,,,,,,,,,,,,,,,,,,,,,,,,,,
1732158807.392726,1732158807.395333,14.000000,0.000000,4292.820313,4286.666504,4320.512695,4310.384766,4316.153809,4297.948730,4335.384766,4407.563965,4311.666504,4294.743652,4488.974121,4513.589844,4341.666504,4413.077148,1556.000000,1.000000,19.000000,,,,0.000000,2.000000,2.000000,0.000000,4.000000,2.000000,2.000000,0.000000,0.000000,4.000000,4.000000,4.000000,4.000000,4.000000,4.000000,0.000000,1.000000,0.000000,2.000000,2.000000,0.000000,4.000000,2.000000,2.000000,0.000000,0.000000,4.000000,4.000000,4.000000,4.000000,4.000000,4.000000,,,,,,,,,,,,
1732158807.400535,1732158807.403141,15.000000,0.000000,4293.974121,4288.846191,4319.102539,4317.051270,4299.615234,4297.948730,4335.769043,4409.487305,4311.153809,4294.230957,4490.000000,4515.256348,4342.692383,4412.692383,1549.000000,1.000000,19.000000,,,,0.000000,2.000000,2.000000,0.000000,4.000000,2.000000,2.000000,0.000000,0.000000,4.000000,4.000000,4.000000,4.000000,4.000000,4.000000,0.000000,,,,,,,,,,,,,,,,,,,,,,,,,,,,
1732158807.408343,1732158807.410849,16.000000,0.000000,4291.282227,4287.179688,4319.615234,4320.128418,4289.743652,4296.282227,4338.589844,4409.743652,4315.384766,4295.384766,4488.846191,4513.846191,4339.743652,4409.871582,0.000000,1.000000,19.000000,,,,0.000000,2.000000,2.000000,0.000000,4.000000,2.000000,2.000000,0.000000,0.000000,4.000000,4.000000,4.000000,4.000000,4.000000,4.000000,0.000000,,,,,,,,,,,,,,,,,4.000000,0.000000,0.500030,0.469543,-0.544006,0.483276,0.981565,-0.066903,-0.039067,-35.993542,44.772438,31.576191
1732158807.416151,1732158807.418657,17.000000,0.000000,4290.000000,4285.128418,4318.846191,4312.179688,4293.205078,4301.282227,4339.743652,4411.410156,4319.871582,4297.563965,4491.666504,4515.384766,4343.077148,4409.743652,0.000000,1.000000,19.000000,,,,0.000000,2.000000,2.000000,0.000000,4.000000,2.000000,2.000000,0.000000,0.000000,4.000000,4.000000,4.000000,4.000000,4.000000,4.000000,0.000000,,,,,,,,,,,,,,,,,,,,,,,,,,,,
1732158807.423959,1732158807.426266,18.000000,0.000000,4291.794922,4285.256348,4318.589844,4308.717773,4301.538574,4301.922852,4341.922852,4412.948730,4311.794922,4293.205078,4490.384766,4521.025879,4344.871582,4412.179688,0.000000,1.000000,19.000000,,,,0.000000,2.000000,2.000000,0.000000,4.000000,2.000000,2.000000,0.000000,0.000000,4.000000,4.000000,4.000000,4.000000,4.000000,4.000000,0.000000,,,,,,,,,,,,,,,,,,,,,,,,,,,,
1732158807.431768,1732158807.434074,19.000000,0.000000,4290.384766,4282.948730,4318.589844,4311.538574,4312.692383,4296.153809,4341.794922,4410.128418,4304.743652,4285.769043,4483.461426,4518.333496,4335.512695,4411.282227,0.000000,1.000000,19.000000,,,,0.000000,2.000000,2.000000,0.000000,4.000000,2.000000,2.000000,0.000000,0.000000,4.000000,4.000000,4.000000,4.000000,4.000000,4.000000,0.000000,,,,,,,,,,,,,,,,,,,,,,,,,,,,
1732158807.439576,1732158807.441982,20.000000,0.000000,4288.974121,4280.897461,4318.846191,4311.794922,4308.205078,4296.538574,4337.820313,4408.077148,4308.205078,4289.743652,4485.256348,4515.000000,4335.000000,4411.410156,0.000000,1.000000,19.000000,,,,0.000000,2.000000,2.000000,0.000000,4.000000,2.000000,2.000000,0.000000,0.000000,4.000000,4.000000,4.000000,4.000000,4.000000,4.000000,0.000000,,,,,,,,,,,,,,,,,5.000000,0.000000,0.499915,0.469666,-0.544006,0.483276,0.976193,-0.050299,-0.027347,-35.763103,44.694008,31.663382
1732158807.447384,1732158807.449790,21.000000,0.000000,4291.794922,4280.512695,4319.230957,4310.256348,4289.102539,4299.615234,4339.230957,4408.589844,4313.205078,4298.333496,4490.769043,4519.230957,4343.717773,4415.512695,0.000000,1.000000,19.000000,,,,0.000000,2.000000,2.000000,0.000000,4.000000,2.000000,2.000000,0.000000,0.000000,4.000000,4.000000,4.000000,4.000000,4.000000,4.000000,0.000000,,,,,,,,,,,,,,,,,,,,,,,,,,,,
1732158807.455192,1732158807.457399,22.000000,0.000000,4293.717773,4282.436035,4319.615234,4311.538574,4287.436035,4296.922852,4342.820313,4409.358887,4315.512695,4297.692383,4491.410156,4521.025879,4345.000000,4416.410156,0.000000,1.000000,19.000000,,,,0.000000,2.000000,2.000000,0.000000,4.000000,2.000000,2.000000,0.000000,0.000000,4.000000,4.000000,4.000000,4.000000,4.000000,4.000000,0.000000,,,,,,,,,,,,,,,,,,,,,,,,,,,,
1732158807.463000,1732158807.465207,23.000000,0.000000,4293.717773,4280.897461,4321.666504,4310.512695,4297.051270,4293.205078,4342.692383,4408.589844,4312.179688,4293.461426,4490.769043,4521.282227,4341.666504,4415.128418,0.000000,1.000000,19.000000,,,,0.000000,2.000000,2.000000,0.000000,4.000000,2.000000,2.000000,0.000000,0.000000,4.000000,4.000000,4.000000,4.000000,4.000000,4.000000,0.000000,,,,,,,,,,,,,,,,,,,,,,,,,,,,
1732158807.470809,1732158807.472915,24.000000,0.000000,4292.948730,4280.897461,4323.077148,4309.230957,4295.128418,4293.717773,4340.769043,4408.077148,4307.179688,4293.461426,4488.461426,4522.179688,4343.077148,4415.897461,0.000000,1.000000,19.000000,,,,0.000000,2.000000,2.000000,0.000000,4.000000,2.000000,2.000000,0.000000,0.000000,4.000000,4.000000,4.000000,4.000000,4.000000,4.000000,0.000000,,,,,,,,,,,,,,,,,6.000000,0.000000,0.499867,0.469788,-0.543945,0.483276,0.986449,-0.053717,-0.042486,-35.776447,44.613815,31.634007
1732158807.478617,1732158807.480723,25.000000,0.000000,4292.307617,4280.128418,4322.692383,4310.641113,4295.897461,4294.615234,4337.307617,4409.358887,4313.974121,4296.282227,4486.794922,4520.641113,4344.102539,4415.000000,0.000000,1.000000,19.000000,,,,0.000000,2.000000,2.000000,0.000000,4.000000,2.000000,2.000000,0.000000,0.000000,4.000000,4.000000,4.000000,4.000000,4.000000,4.000000,0.000000,,,,,,,,,,,,,,,,,,,,,,,,,,,,
1732158807.486425,1732158807.488332,26.000000,0.000000,4292.436035,4280.128418,4322.692383,4309.871582,4298.974121,4295.256348,4336.153809,4410.769043,4320.641113,4300.000000,4490.384766,4514.487305,4342.051270,4412.179688,0.000000,1.000000,19.000000,,,,0.000000,2.000000,2.000000,0.000000,4.000000,2.000000,2.000000,0.000000,0.000000,4.000000,4.000000,4.000000,4.000000,4.000000,4.000000,0.000000,,,,,,,,,,,,,,,,,,,,,,,,,,,,
1732158807.494233,1732158807.496140,27.000000,0.000000,4288.077148,4280.769043,4322.820313,4305.641113,4297.307617,4296.153809,4340.000000,4407.948730,4314.230957,4297.692383,4491.025879,4508.846191,4342.051270,4411.410156,0.000000,1.000000,19.000000,,,,0.000000,2.000000,2.000000,0.000000,4.000000,2.000000,2.000000,0.000000,0.000000,4.000000,4.000000,4.000000,4.000000,4.000000,4.000000,0.000000,,,,,,,,,,,,,,,,,,,,,,,,,,,,
1732158807.502042,1732158807.503848,28.000000,0.000000,4280.256348,4280.000000,4322.051270,4305.769043,4297.820313,4295.897461,4338.589844,4404.487305,4310.384766,4293.333496,4489.230957,4510.256348,4344.487305,4412.179688,0.000000,1.000000,19.000000,,,,0.000000,2.000000,2.000000,0.000000,4.000000,2.000000,2.000000,0.000000,0.000000,4.000000,4.000000,4.000000,4.000000,4.000000,4.000000,0.000000,,,,,,,,,,,,,,,,,7.000000,0.000000,0.499751,0.469849,-0.543945,0.483337,0.979612,-0.045416,-0.036626,-35.727253,44.712189,31.485212
1732158807.509850,1732158807.511657,29.000000,0.000000,4281.794922,4278.077148,4321.153809,4308.205078,4300.512695,4296.282227,4333.846191,4408.589844,4312.820313,4295.128418,4490.256348,4514.743652,4346.922852,4412.307617,0.000000,1.000000,19.000000,,,,0.000000,2.000000,2.000000,0.000000,4.000000,2.000000,2.000000,0.000000,0.000000,4.000000,4.000000,4.000000,4.000000,4.000000,4.000000,0.000000,,,,,,,,,,,,,,,,,,,,,,,,,,,,
1732158807.517658,1732158807.519665,30.000000,0.000000,4291.538574,4278.589844,4321.153809,4308.333496,4297.051270,4299.358887,4335.512695,4414.102539,4311.922852,4294.871582,4488.974121,4512.563965,4345.384766,4412.307617,0.000000,1.000000,19.000000,,,,0.000000,2.000000,2.000000,0.000000,4.000000,2.000000,2.000000,0.000000,0.000000,4.000000,4.000000,4.000000,4.000000,4.000000,4.000000,0.000000,,,,,,,,,,,,,,,,,,,,,,,,,,,,
1732158807.525467,1732158807.527473,31.000000,0.000000,4296.025879,4281.794922,4322.051270,4311.538574,4293.974121,4302.179688,4337.820313,4412.436035,4311.025879,4291.666504,4487.692383,4508.717773,4344.230957,4412.948730,0.000000,1.000000,19.000000,,,,0.000000,2.000000,2.000000,0.000000,4.000000,2.000000,2.000000,0.000000,0.000000,4.000000,4.000000,4.000000,4.000000,4.000000,4.000000,0.000000,,,,,,,,,,,,,,,,,,,,,,,,,,,,
1732158807.533275,1732158807.535381,32.000000,0.000000,4291.922852,4278.974121,4319.615234,4310.512695,4306.666504,4298.461426,4335.384766,4408.205078,4311.410156,4297.307617,4490.256348,4508.589844,4346.538574,4412.563965,0.000000,1.000000,19.000000,,,,0.000000,2.000000,2.000000,0.000000,4.000000,2.000000,2.000000,0.000000,0.000000,4.000000,4.000000,4.000000,4.000000,4.000000,4.000000,0.000000,,,,,,,,,,,,,,,,,8.000000,0.000000,0.499484,0.470093,-0.543762,0.483582,0.972287,-0.058601,-0.023440,-35.667408,44.600204,31.334688
1732158807.541083,1732158807.543189,33.000000,0.000000,4288.974121,4276.666504,4318.974121,4304.230957,4312.692383,4294.230957,4336.666504,4409.871582,4315.897461,4303.205078,4492.563965,4514.230957,4350.641113,4412.948730,0.000000,1.000000,19.000000,,,,0.000000,2.000000,2.000000,0.000000,4.000000,2.000000,2.000000,0.000000,0.000000,4.000000,4.000000,4.000000,4.000000,4.000000,4.000000,0.000000,,,,,,,,,,,,,,,,,,,,,,,,,,,,
1732158807.548891,1732158807.551197,34.000000,0.000000,4293.205078,4280.128418,4320.641113,4308.333496,4293.974121,4299.230957,4340.769043,4410.897461,4321.153809,4297.051270,4492.948730,4518.589844,4353.974121,4415.384766,0.000000,1.000000,19.000000,,,,0.000000,2.000000,2.000000,0.000000,4.000000,2.000000,2.000000,0.000000,0.000000,4.000000,4.000000,4.000000,4.000000,4.000000,4.000000,0.000000,,,,,,,,,,,,,,,,,,,,,,,,,,,,
1732158807.556700,1732158807.559005,35.000000,0.000000,4296.282227,4282.563965,4319.487305,4315.256348,4281.025879,4302.692383,4340.769043,4409.102539,4316.282227,4292.307617,4491.025879,4514.871582,4352.692383,4415.769043,0.000000,1.000000,19.000000,,,,0.000000,2.000000,2.000000,0.000000,4.000000,2.000000,2.000000,0.000000,0.000000,4.000000,4.000000,4.000000,4.000000,4.000000,4.000000,0.000000,,,,,,,,,,,,,,,,,,,,,,,,,,,,
1732158807.564508,1732158807.566913,36.000000,0.000000,4292.948730,4285.769043,4317.820313,4312.307617,4290.769043,4298.205078,4338.974121,4409.230957,4312.307617,4296.538574,4489.487305,4515.641113,4350.256348,4414.487305,0.000000,1.000000,19.000000,,,,0.000000,2.000000,2.000000,0.000000,4.000000,2.000000,2.000000,0.000000,0.000000,4.000000,4.000000,4.000000,4.000000,4.000000,4.000000,0.000000,,,,,,,,,,,,,,,,,9.000000,0.000000,0.499346,0.469910,-0.543884,0.483765,0.975705,-0.083995,-0.024905,-35.542267,44.382835,31.447763
1732158807.572316,1732158807.574722,37.000000,0.000000,4291.922852,4287.051270,4319.230957,4310.512695,4297.820313,4296.282227,4336.410156,4409.615234,4316.153809,4298.077148,4491.538574,4526.025879,4350.897461,4415.000000,0.000000,1.000000,19.000000,,,,0.000000,2.000000,2.000000,0.000000,4.000000,2.000000,2.000000,0.000000,0.000000,4.000000,4.000000,4.000000,4.000000,4.000000,4.000000,0.000000,,,,,,,,,,,,,,,,,,,,,,,,,,,,
1732158807.580124,1732158807.582730,38.000000,0.000000,4295.384766,4284.487305,4320.897461,4311.410156,4292.692383,4296.922852,4334.743652,4408.974121,4314.871582,4296.538574,4492.820313,4523.333496,4350.897461,4413.846191,0.000000,1.000000,19.000000,,,,0.000000,2.000000,2.000000,0.000000,4.000000,2.000000,2.000000,0.000000,0.000000,4.000000,4.000000,4.000000,4.000000,4.000000,4.000000,0.000000,,,,,,,,,,,,,,,,,,,,,,,,,,,,
1732158807.587932,1732158807.590538,39.000000,0.000000,4296.153809,4283.205078,4321.282227,4310.384766,4295.897461,4296.538574,4337.692383,4411.025879,4309.615234,4294.743652,4489.871582,4510.512695,4349.358887,4412.179688,0.000000,1.000000,19.000000,,,,0.000000,2.000000,2.000000,0.000000,4.000000,2.000000,2.000000,0.000000,0.000000,4.000000,4.000000,4.000000,4.000000,4.000000,4.000000,0.000000,,,,,,,,,,,,,,,,,,,,,,,,,,,,
1732158807.595741,1732158807.598446,40.000000,0.000000,4294.615234,4282.948730,4322.436035,4311.410156,4299.871582,4297.692383,4340.897461,4411.282227,4311.153809,4292.307617,4489.487305,4515.897461,4348.974121,4414.871582,0.000000,1.000000,19.000000,,,,0.000000,2.000000,2.000000,0.000000,4.000000,2.000000,2.000000,0.000000,0.000000,4.000000,4.000000,4.000000,4.000000,4.000000,4.000000,0.000000,,,,,,,,,,,,,,,,,10.000000,0.000000,0.499452,0.469727,-0.543945,0.483765,0.979123,-0.062019,-0.035161,-35.657570,44.256763,31.506021
1732158807.603549,1732158807.606254,41.000000,0.000000,4293.333496,4279.615234,4322.436035,4307.820313,4291.282227,4297.948730,4340.384766,4405.897461,4313.077148,4294.487305,4492.563965,4526.538574,4350.128418,4417.179688,0.000000,1.000000,19.000000,,,,0.000000,2.000000,2.000000,0.000000,4.000000,2.000000,2.000000,0.000000,0.000000,4.000000,4.000000,4.000000,4.000000,4.000000,4.000000,0.000000,,,,,,,,,,,,,,,,,,,,,,,,,,,,
1732158807.611357,1732158807.614262,42.000000,0.000000,4288.717773,4278.205078,4321.410156,4298.077148,4295.256348,4293.974121,4340.641113,4404.615234,4312.692383,4296.282227,4492.820313,4520.512695,4350.128418,4416.410156,0.000000,1.000000,19.000000,,,,0.000000,2.000000,2.000000,0.000000,4.000000,2.000000,2.000000,0.000000,0.000000,4.000000,4.000000,4.000000,4.000000,4.000000,4.000000,0.000000,,,,,,,,,,,,,,,,,,,,,,,,,,,,
1732158807.619166,1732158807.622070,43.000000,0.000000,4284.615234,4279.230957,4320.000000,4296.282227,4309.615234,4294.487305,4341.794922,4409.615234,4312.820313,4293.974121,4491.922852,4512.436035,4351.922852,4414.743652,0.000000,1.000000,19.000000,,,,0.000000,2.000000,2.000000,0.000000,4.000000,2.000000,2.000000,0.000000,0.000000,4.000000,4.000000,4.000000,4.000000,4.000000,4.000000,0.000000,,,,,,,,,,,,,,,,,,,,,,,,,,,,
1732158807.626974,1732158807.629978,44.000000,0.000000,4292.051270,4280.128418,4317.948730,4303.717773,4296.282227,4298.333496,4340.128418,4410.769043,4313.333496,4296.666504,4492.820313,4513.717773,4353.974121,4414.358887,0.000000,1.000000,19.000000,,,,0.000000,2.000000,2.000000,0.000000,4.000000,2.000000,2.000000,0.000000,0.000000,4.000000,4.000000,4.000000,4.000000,4.000000,4.000000,0.000000,,,,,,,,,,,,,,,,,11.000000,0.000000,0.499493,0.469604,-0.544067,0.483704,0.979123,-0.062019,-0.035161,-35.595966,44.461311,31.536545
1732158807.634782,1732158807.637787,45.000000,0.000000,4294.871582,4281.410156,4318.077148,4307.436035,4275.384766,4297.563965,4340.512695,4407.563965,4316.794922,4296.794922,4491.282227,4516.153809,4348.077148,4413.205078,0.000000,1.000000,19.000000,,,,0.000000,2.000000,2.000000,0.000000,4.000000,2.000000,2.000000,0.000000,0.000000,4.000000,4.000000,4.000000,4.000000,4.000000,4.000000,0.000000,,,,,,,,,,,,,,,,,,,,,,,,,,,,
1732158807.642590,1732158807.645795,46.000000,0.000000,4283.461426,4280.512695,4321.025879,4303.205078,4285.128418,4297.692383,4342.820313,4409.230957,4316.922852,4286.538574,4488.077148,4513.205078,4341.666504,4409.358887,0.000000,1.000000,19.000000,,,,0.000000,2.000000,2.000000,0.000000,4.000000,2.000000,2.000000,0.000000,0.000000,4.000000,4.000000,4.000000,4.000000,4.000000,4.000000,0.000000,,,,,,,,,,,,,,,,,,,,,,,,,,,,
1732158807.650399,1732158807.653603,47.000000,0.000000,4282.563965,4282.179688,4321.410156,4303.461426,4300.128418,4298.333496,4342.436035,4411.282227,4312.051270,4284.743652,4487.563965,4508.077148,4343.974121,4408.461426,0.000000,1.000000,19.000000,,,,0.000000,2.000000,2.000000,0.000000,4.000000,2.000000,2.000000,0.000000,0.000000,4.000000,4.000000,4.000000,4.000000,4.000000,4.000000,0.000000,,,,,,,,,,,,,,,,,,,,,,,,,,,,
1732158807.658207,1732158807.661511,48.000000,0.000000,4294.615234,4287.820313,4320.256348,4313.077148,4292.179688,4296.666504,4340.000000,4408.846191,4312.436035,4294.871582,4490.128418,4510.897461,4348.461426,4413.077148,0.000000,1.000000,19.000000,,,,0.000000,2.000000,2.000000,0.000000,4.000000,2.000000,2.000000,0.000000,0.000000,4.000000,4.000000,4.000000,4.000000,4.000000,4.000000,0.000000,,,,,,,,,,,,,,,,,12.000000,0.000000,0.499484,0.469543,-0.544128,0.483704,0.980100,-0.054694,-0.033696,-35.667732,44.291996,31.464602
1732158807.666015,1732158807.669319,49.000000,0.000000,4296.153809,4290.641113,4318.333496,4316.153809,4290.128418,4295.128418,4337.820313,4406.666504,4313.717773,4297.948730,4490.512695,4515.769043,4351.922852,4414.487305,0.000000,1.000000,19.000000,,,,0.000000,2.000000,2.000000,0.000000,4.000000,2.000000,2.000000,0.000000,0.000000,4.000000,4.000000,4.000000,4.000000,4.000000,4.000000,0.000000,,,,,,,,,,,,,,,,,,,,,,,,,,,,
1732158807.673823,1732158807.677327,50.000000,0.000000,4290.384766,4287.179688,4319.358887,4307.948730,4306.410156,4291.025879,4338.717773,4407.820313,4307.948730,4292.948730,4489.230957,4509.615234,4353.077148,4410.769043,0.000000,1.000000,19.000000,,,,0.000000,2.000000,2.000000,0.000000,4.000000,2.000000,2.000000,0.000000,0.000000,4.000000,4.000000,4.000000,4.000000,4.000000,4.000000,0.000000,,,,,,,,,,,,,,,,,,,,,,,,,,,,
1732158807.681632,1732158807.685135,51.000000,0.000000,4290.897461,4282.948730,4321.538574,4306.794922,4303.205078,4290.769043,4339.743652,4408.974121,4309.102539,4291.410156,4489.615234,4504.230957,4346.794922,4410.000000,0.000000,1.000000,19.000000,,,,0.000000,2.000000,2.000000,0.000000,4.000000,2.000000,2.000000,0.000000,0.000000,4.000000,4.000000,4.000000,4.000000,4.000000,4.000000,0.000000,,,,,,,,,,,,,,,,,,,,,,,,,,,,
1732158807.689440,1732158807.693044,52.000000,0.000000,4291.410156,4282.692383,4322.051270,4311.794922,4282.307617,4297.820313,4338.333496,4409.871582,4315.897461,4292.948730,4486.282227,4512.436035,4339.871582,4411.410156,0.000000,1.000000,19.000000,,,,0.000000,2.000000,2.000000,0.000000,4.000000,2.000000,2.000000,0.000000,0.000000,4.000000,4.000000,4.000000,4.000000,4.000000,4.000000,0.000000,,,,,,,,,,,,,,,,,13.000000,0.000000,0.499416,0.469482,-0.544189,0.483765,0.974240,-0.060066,-0.035649,-35.635864,44.109848,31.376328
1732158807.697248,1732158807.700852,53.000000,0.000000,4292.051270,4284.230957,4320.256348,4311.025879,4280.769043,4300.897461,4338.717773,4409.102539,4317.820313,4295.128418,4480.128418,4517.179688,4341.922852,4411.153809,0.000000,1.000000,19.000000,,,,0.000000,2.000000,2.000000,0.000000,4.000000,2.000000,2.000000,0.000000,0.000000,4.000000,4.000000,4.000000,4.000000,4.000000,4.000000,0.000000,,,,,,,,,,,,,,,,,,,,,,,,,,,,
1732158807.705056,1732158807.708860,54.000000,0.000000,4294.487305,4282.820313,4320.000000,4308.974121,4290.000000,4296.410156,4344.615234,4406.794922,4316.410156,4292.820313,4476.538574,4508.461426,4342.179688,4411.025879,0.000000,1.000000,19.000000,,,,0.000000,2.000000,2.000000,0.000000,4.000000,2.000000,2.000000,0.000000,0.000000,4.000000,4.000000,4.000000,4.000000,4.000000,4.000000,0.000000,,,,,,,,,,,,,,,,,,,,,,,,,,,,
1732158807.712865,1732158807.716668,55.000000,0.000000,4292.179688,4275.897461,4321.922852,4307.948730,4297.563965,4294.487305,4342.436035,4405.000000,4312.692383,4281.410156,4474.487305,4503.205078,4335.641113,4410.384766,0.000000,1.000000,19.000000,,,,0.000000,2.000000,2.000000,0.000000,4.000000,2.000000,2.000000,0.000000,0.000000,4.000000,4.000000,4.000000,4.000000,4.000000,4.000000,0.000000,,,,,,,,,,,,,,,,,,,,,,,,,,,,
1732158807.720673,1732158807.724376,56.000000,0.000000,4291.538574,4270.256348,4320.512695,4308.717773,4305.128418,4296.153809,4335.384766,4404.871582,4307.563965,4276.410156,4477.692383,4507.820313,4336.922852,4411.922852,0.000000,1.000000,19.000000,,,,0.000000,2.000000,2.000000,0.000000,4.000000,2.000000,2.000000,0.000000,0.000000,4.000000,4.000000,4.000000,4.000000,4.000000,4.000000,0.000000,,,,,,,,,,,,,,,,,14.000000,0.000000,0.499515,0.469360,-0.544312,0.483643,0.979123,-0.054206,-0.027835,-35.898384,44.188976,31.403158
1732158807.728481,1732158807.732184,57.000000,0.000000,4297.051270,4264.615234,4319.743652,4313.333496,4295.000000,4297.436035,4338.589844,4406.666504,4310.128418,4284.102539,4487.179688,4513.205078,4345.128418,4416.153809,0.000000,1.000000,19.000000,,,,0.000000,2.000000,2.000000,0.000000,4.000000,2.000000,2.000000,0.000000,0.000000,4.000000,4.000000,4.000000,4.000000,4.000000,4.000000,0.000000,,,,,,,,,,,,,,,,,,,,,,,,,,,,
1732158807.736289,1732158807.739793,58.000000,0.000000,4292.948730,4254.871582,4320.000000,4311.922852,4279.871582,4296.666504,4345.000000,4406.282227,4317.563965,4289.871582,4489.871582,4511.410156,4344.615234,4415.000000,0.000000,1.000000,19.000000,,,,0.000000,2.000000,2.000000,0.000000,4.000000,2.000000,2.000000,0.000000,0.000000,4.000000,4.000000,4.000000,4.000000,4.000000,4.000000,0.000000,,,,,,,,,,,,,,,,,,,,,,,,,,,,
1732158807.744098,1732158807.747601,59.000000,0.000000,4281.922852,4242.179688,4318.205078,4303.717773,4290.000000,4294.743652,4341.282227,4402.692383,4319.487305,4290.128418,4485.128418,4510.897461,4337.692383,4410.641113,0.000000,1.000000,19.000000,,,,0.000000,2.000000,2.000000,0.000000,4.000000,2.000000,2.000000,0.000000,0.000000,4.000000,4.000000,4.000000,4.000000,4.000000,4.000000,0.000000,,,,,,,,,,,,,,,,,,,,,,,,,,,,
1732158807.751906,1732158807.755309,60.000000,0.000000,4287.820313,4236.410156,4318.589844,4302.563965,4294.230957,4296.922852,4339.615234,4403.461426,4318.333496,4293.333496,4490.000000,4520.128418,4343.717773,4412.179688,0.000000,1.000000,19.000000,,,,0.000000,2.000000,2.000000,0.000000,4.000000,2.000000,2.000000,0.000000,0.000000,4.000000,4.000000,4.000000,4.000000,4.000000,4.000000,0.000000,,,,,,,,,,,,,,,,,15.000000,0.000000,0.499565,0.469299,-0.544373,0.483582,0.985960,-0.061043,-0.030765,-36.266022,44.121407,31.484892
1732158807.759714,1732158807.763118,61.000000,0.000000,4295.256348,4230.769043,4321.794922,4304.358887,4293.461426,4301.025879,4346.794922,4410.769043,4319.871582,4296.666504,4494.871582,4522.051270,4352.179688,4414.743652,0.000000,1.000000,19.000000,,,,0.000000,2.000000,2.000000,0.000000,4.000000,2.000000,2.000000,0.000000,0.000000,4.000000,4.000000,4.000000,4.000000,4.000000,4.000000,0.000000,,,,,,,,,,,,,,,,,,,,,,,,,,,,
1732158807.767522,1732158807.771126,62.000000,0.000000,4285.641113,4218.974121,4319.743652,4299.487305,4312.820313,4300.128418,4346.282227,4411.794922,4322.051270,4294.871582,4489.487305,4512.948730,4347.948730,4412.307617,0.000000,1.000000,19.000000,,,,0.000000,2.000000,2.000000,0.000000,4.000000,2.000000,2.000000,0.000000,0.000000,4.000000,4.000000,4.000000,4.000000,4.000000,4.000000,0.000000,,,,,,,,,,,,,,,,,,,,,,,,,,,,
1732158807.775331,1732158807.778934,63.000000,0.000000,4279.358887,4215.897461,4318.077148,4297.563965,4306.538574,4302.820313,4340.769043,4408.205078,4323.077148,4296.922852,4488.717773,4515.256348,4346.410156,4411.666504,0.000000,1.000000,19.000000,,,,0.000000,2.000000,2.000000,0.000000,4.000000,2.000000,2.000000,0.000000,0.000000,4.000000,4.000000,4.000000,4.000000,4.000000,4.000000,0.000000,,,,,,,,,,,,,,,,,,,,,,,,,,,,
1732158807.783139,1732158807.786642,64.000000,0.000000,4283.846191,4216.282227,4320.641113,4301.922852,4286.794922,4308.846191,4342.051270,4408.974121,4322.563965,4300.641113,4494.102539,4518.717773,4351.025879,4413.077148,0.000000,1.000000,19.000000,,,,0.000000,2.000000,2.000000,0.000000,4.000000,2.000000,2.000000,0.000000,0.000000,4.000000,4.000000,4.000000,4.000000,4.000000,4.000000,0.000000,,,,,,,,,,,,,,,,,16.000000,0.000000,0.499275,0.468994,-0.544739,0.483765,0.982542,-0.064949,-0.051276,-36.187145,44.250004,31.439428
1732158807.790947,1732158807.794450,65.000000,0.000000,4283.077148,4206.410156,4321.282227,4301.282227,4298.974121,4305.897461,4342.563965,4410.128418,4321.538574,4298.333496,4494.102539,4513.333496,4351.538574,4413.077148,1613.000000,1.000000,19.000000,,,,0.000000,2.000000,2.000000,0.000000,4.000000,2.000000,2.000000,0.000000,0.000000,4.000000,4.000000,4.000000,4.000000,4.000000,4.000000,0.000000,,,,,,,,,,,,,,,,,,,,,,,,,,,,
1732158807.798756,1732158807.802059,66.000000,0.000000,4280.641113,4197.820313,4316.410156,4296.025879,4299.102539,4298.974121,4339.871582,4408.974121,4323.974121,4301.282227,4490.769043,4515.384766,4349.743652,4413.846191,1359.000000,1.000000,19.000000,,,,0.000000,2.000000,2.000000,0.000000,4.000000,2.000000,2.000000,0.000000,0.000000,4.000000,4.000000,4.000000,4.000000,4.000000,4.000000,0.000000,,,,,,,,,,,,,,,,,,,,,,,,,,,,
1732158807.806564,1732158807.809867,67.000000,0.000000,4282.692383,4198.974121,4314.615234,4296.282227,4275.897461,4297.563965,4343.974121,4408.974121,4327.563965,4309.743652,4492.436035,4521.025879,4352.563965,4414.871582,1434.000000,1.000000,19.000000,,,,0.000000,2.000000,2.000000,0.000000,4.000000,2.000000,2.000000,0.000000,0.000000,4.000000,4.000000,4.000000,4.000000,4.000000,4.000000,0.000000,,,,,,,,,,,,,,,,,,,,,,,,,,,,
1732158807.814372,1732158807.817575,68.000000,0.000000,4281.538574,4198.205078,4317.948730,4299.358887,4278.846191,4300.384766,4347.307617,4410.641113,4326.025879,4311.538574,4494.743652,4516.538574,4355.641113,4414.102539,1434.000000,1.000000,19.000000,,,,0.000000,2.000000,2.000000,0.000000,4.000000,2.000000,2.000000,0.000000,0.000000,4.000000,4.000000,4.000000,4.000000,4.000000,4.000000,0.000000,,,,,,,,,,,,,,,,,17.000000,0.000000,0.499333,0.468933,-0.544739,0.483765,0.974240,-0.061043,-0.035161,-36.041588,44.389172,31.507605
1732158807.822180,1732158807.825383,69.000000,0.000000,4281.153809,4192.179688,4322.820313,4297.692383,4298.205078,4298.846191,4342.820313,4408.846191,4325.512695,4310.000000,4494.102539,4513.333496,4355.256348,4413.205078,1190.000000,1.000000,19.000000,,,,0.000000,2.000000,2.000000,0.000000,4.000000,2.000000,2.000000,0.000000,0.000000,4.000000,4.000000,4.000000,4.000000,4.000000,4.000000,0.000000,,,,,,,,,,,,,,,,,,,,,,,,,,,,
1732158807.829988,1732158807.832992,70.000000,0.000000,4282.436035,4193.205078,4321.538574,4296.538574,4297.307617,4297.436035,4339.358887,4407.692383,4327.179688,4311.153809,4492.436035,4514.871582,4350.769043,4411.153809,0.000000,1.000000,19.000000,,,,0.000000,2.000000,2.000000,0.000000,4.000000,2.000000,2.000000,0.000000,0.000000,4.000000,4.000000,4.000000,4.000000,4.000000,4.000000,0.000000,,,,,,,,,,,,,,,,,,,,,,,,,,,,
1732158807.837797,1732158807.840800,71.000000,0.000000,4282.692383,4194.487305,4317.820313,4300.769043,4292.436035,4302.179688,4339.615234,4410.000000,4322.820313,4311.538574,4492.179688,4511.410156,4348.846191,4411.282227,0.000000,1.000000,19.000000,,,,0.000000,2.000000,2.000000,0.000000,4.000000,2.000000,2.000000,0.000000,0.000000,4.000000,4.000000,4.000000,4.000000,4.000000,4.000000,0.000000,,,,,,,,,,,,,,,,,,,,,,,,,,,,
1732158807.845605,1732158807.848508,72.000000,0.000000,4281.538574,4187.436035,4320.384766,4298.205078,4304.102539,4301.410156,4339.230957,4407.820313,4313.333496,4309.743652,4493.205078,4508.461426,4352.307617,4411.025879,1534.000000,1.000000,19.000000,,,,0.000000,2.000000,2.000000,0.000000,4.000000,2.000000,2.000000,0.000000,0.000000,4.000000,4.000000,4.000000,4.000000,4.000000,4.000000,0.000000,,,,,,,,,,,,,,,,,18.000000,0.000000,0.499333,0.468933,-0.544739,0.483765,0.977658,-0.060554,-0.044927,-35.983685,44.441895,31.682825
1732158807.853413,1732158807.856317,73.000000,0.000000,4280.128418,4180.897461,4322.051270,4293.461426,4315.384766,4295.384766,4340.769043,4403.461426,4308.333496,4306.666504,4491.153809,4507.948730,4348.205078,4407.948730,1693.000000,1.000000,19.000000,,,,0.000000,2.000000,2.000000,0.000000,4.000000,2.000000,2.000000,0.000000,0.000000,4.000000,4.000000,4.000000,4.000000,4.000000,4.000000,0.000000,,,,,,,,,,,,,,,,,,,,,,,,,,,,
1732158807.861221,1732158807.864325,74.000000,0.000000,4281.153809,4184.871582,4318.717773,4296.922852,4300.256348,4298.333496,4345.384766,4405.128418,4315.384766,4305.641113,4488.077148,4509.871582,4344.358887,4408.974121,1558.000000,1.000000,19.000000,,,,0.000000,2.000000,2.000000,0.000000,4.000000,2.000000,2.000000,0.000000,0.000000,4.000000,4.000000,4.000000,4.000000,4.000000,4.000000,0.000000,,,,,,,,,,,,,,,,,,,,,,,,,,,,
1732158807.869030,1732158807.872133,75.000000,0.000000,4282.563965,4184.230957,4316.538574,4299.230957,4280.512695,4301.922852,4346.538574,4409.102539,4328.333496,4309.615234,4488.461426,4510.384766,4350.128418,4413.333496,1549.000000,1.000000,19.000000,,,,0.000000,2.000000,2.000000,0.000000,4.000000,2.000000,2.000000,0.000000,0.000000,4.000000,4.000000,4.000000,4.000000,4.000000,4.000000,0.000000,,,,,,,,,,,,,,,,,,,,,,,,,,,,
1732158807.876838,1732158807.880041,76.000000,0.000000,4282.948730,4175.512695,4319.871582,4294.743652,4284.230957,4300.000000,4343.077148,4409.615234,4324.615234,4310.128418,4491.025879,4509.358887,4350.384766,4414.358887,1703.000000,1.000000,19.000000,,,,0.000000,2.000000,2.000000,0.000000,4.000000,2.000000,2.000000,0.000000,0.000000,4.000000,4.000000,4.000000,4.000000,4.000000,4.000000,0.000000,,,,,,,,,,,,,,,,,19.000000,0.000000,0.499357,0.468750,-0.544983,0.483643,0.979612,-0.052741,-0.037602,-35.991787,44.434601,31.616423
1732158807.884646,1732158807.887849,77.000000,0.000000,4282.179688,4173.717773,4320.000000,4293.205078,4298.846191,4303.461426,4340.897461,4408.717773,4310.512695,4309.230957,4491.153809,4508.077148,4341.922852,4412.692383,1563.000000,1.000000,19.000000,,,,0.000000,2.000000,2.000000,0.000000,4.000000,2.000000,2.000000,0.000000,0.000000,4.000000,4.000000,4.000000,4.000000,4.000000,4.000000,0.000000,,,,,,,,,,,,,,,,,,,,,,,,,,,,
1732158807.892455,1732158807.895857,78.000000,0.000000,4281.153809,4173.589844,4317.692383,4295.000000,4312.307617,4306.666504,4341.538574,4410.000000,4313.461426,4309.102539,4489.358887,4509.102539,4340.384766,4412.051270,1558.000000,1.000000,19.000000,,,,0.000000,2.000000,2.000000,0.000000,4.000000,2.000000,2.000000,0.000000,0.000000,4.000000,4.000000,4.000000,4.000000,4.000000,4.000000,0.000000,1.000000,0.000000,2.000000,2.000000,0.000000,4.000000,2.000000,2.000000,0.000000,0.000000,4.000000,4.000000,4.000000,4.000000,4.000000,4.000000,,,,,,,,,,,,
1732158807.900263,1732158807.903665,79.000000,0.000000,4281.410156,4173.077148,4318.717773,4295.769043,4308.205078,4304.615234,4342.179688,4410.128418,4326.538574,4305.384766,4488.717773,4508.974121,4343.461426,4411.922852,1549.000000,1.000000,19.000000,,,,0.000000,2.000000,2.000000,0.000000,4.000000,2.000000,2.000000,0.000000,0.000000,4.000000,4.000000,4.000000,4.000000,4.000000,4.000000,0.000000,,,,,,,,,,,,,,,,,,,,,,,,,,,,
1732158807.908071,1732158807.911374,80.000000,0.000000,4282.179688,4172.692383,4320.897461,4297.820313,4284.487305,4304.230957,4343.461426,4410.128418,4326.153809,4306.410156,4489.487305,4506.666504,4342.179688,4410.256348,1703.000000,1.000000,19.000000,,,,0.000000,2.000000,2.000000,0.000000,4.000000,2.000000,2.000000,0.000000,0.000000,4.000000,4.000000,4.000000,4.000000,4.000000,4.000000,0.000000,,,,,,,,,,,,,,,,,20.000000,0.000000,0.499140,0.468933,-0.544861,0.483826,0.990355,-0.062508,-0.033696,-35.905014,44.433693,31.562635
1732158807.915879,1732158807.919182,81.000000,0.000000,4280.897461,4170.641113,4319.102539,4298.846191,4280.128418,4301.794922,4343.974121,4409.358887,4319.102539,4311.922852,4490.897461,4507.436035,4346.538574,4410.512695,1563.000000,1.000000,19.000000,,,,0.000000,2.000000,2.000000,0.000000,4.000000,2.000000,2.000000,0.000000,0.000000,4.000000,4.000000,4.000000,4.000000,4.000000,4.000000,0.000000,,,,,,,,,,,,,,,,,,,,,,,,,,,,
1732158807.923688,1732158807.926790,82.000000,0.000000,4280.128418,4168.717773,4317.051270,4297.179688,4296.922852,4296.794922,4343.077148,4409.358887,4318.077148,4310.769043,4491.282227,4509.487305,4350.641113,4411.410156,1558.000000,1.000000,19.000000,,,,0.000000,2.000000,2.000000,0.000000,4.000000,2.000000,2.000000,0.000000,0.000000,4.000000,4.000000,4.000000,4.000000,4.000000,4.000000,0.000000,,,,,,,,,,,,,,,,,,,,,,,,,,,,
1732158807.931496,1732158807.934598,83.000000,0.000000,4282.307617,4170.000000,4318.589844,4299.615234,4300.128418,4298.974121,4344.102539,4409.230957,4320.256348,4309.230957,4488.974121,4509.230957,4347.436035,4407.948730,1549.000000,1.000000,19.000000,,,,0.000000,2.000000,2.000000,0.000000,4.000000,2.000000,2.000000,0.000000,0.000000,4.000000,4.000000,4.000000,4.000000,4.000000,4.000000,0.000000,,,,,,,,,,,,,,,,,,,,,,,,,,,,
1732158807.939304,1732158807.942507,84.000000,0.000000,4282.436035,4172.436035,4319.358887,4302.692383,4293.974121,4301.538574,4342.692383,4407.436035,4317.948730,4308.846191,4487.692383,4507.563965,4348.077148,4404.358887,1703.000000,1.000000,19.000000,,,,0.000000,2.000000,2.000000,0.000000,4.000000,2.000000,2.000000,0.000000,0.000000,4.000000,4.000000,4.000000,4.000000,4.000000,4.000000,0.000000,,,,,,,,,,,,,,,,,21.000000,0.000000,0.498988,0.468811,-0.545105,0.483826,0.978635,-0.056159,-0.032719,-35.686394,44.461292,31.552401
1732158807.947112,1732158807.950315,85.000000,0.000000,4278.846191,4171.538574,4317.692383,4298.333496,4301.410156,4296.538574,4338.846191,4407.692383,4311.282227,4304.102539,4489.615234,4507.563965,4353.077148,4406.025879,1563.000000,1.000000,19.000000,,,,0.000000,2.000000,2.000000,0.000000,4.000000,2.000000,2.000000,0.000000,0.000000,4.000000,4.000000,4.000000,4.000000,4.000000,4.000000,0.000000,,,,,,,,,,,,,,,,,,,,,,,,,,,,
1732158807.954920,1732158807.958323,86.000000,0.000000,4278.205078,4169.743652,4317.692383,4293.846191,4312.307617,4295.384766,4341.282227,4409.615234,4307.436035,4300.641113,4489.871582,4508.077148,4347.436035,4406.538574,1558.000000,1.000000,19.000000,,,,0.000000,2.000000,2.000000,0.000000,4.000000,2.000000,2.000000,0.000000,0.000000,4.000000,4.000000,4.000000,4.000000,4.000000,4.000000,0.000000,,,,,,,,,,,,,,,,,,,,,,,,,,,,
1732158807.962729,1732158807.966131,87.000000,0.000000,4280.384766,4170.769043,4318.461426,4298.077148,4305.000000,4300.512695,4345.641113,4411.153809,4312.307617,4303.333496,4487.820313,4507.563965,4341.153809,4405.897461,1549.000000,1.000000,19.000000,,,,0.000000,2.000000,2.000000,0.000000,4.000000,2.000000,2.000000,0.000000,0.000000,4.000000,4.000000,4.000000,4.000000,4.000000,4.000000,0.000000,,,,,,,,,,,,,,,,,,,,,,,,,,,,
1732158807.970537,1732158807.974039,88.000000,0.000000,4281.538574,4174.487305,4318.333496,4300.384766,4294.743652,4302.179688,4343.077148,4408.589844,4317.179688,4306.410156,4488.717773,4509.743652,4345.641113,4409.615234,1703.000000,1.000000,19.000000,,,,0.000000,2.000000,2.000000,0.000000,4.000000,2.000000,2.000000,0.000000,0.000000,4.000000,4.000000,4.000000,4.000000,4.000000,4.000000,0.000000,,,,,,,,,,,,,,,,,22.000000,0.000000,0.498931,0.468872,-0.545105,0.483826,0.978635,-0.056159,-0.032719,-35.745979,44.563648,31.352446
1732158807.978345,1732158807.981847,89.000000,0.000000,4282.307617,4176.922852,4318.974121,4300.384766,4298.333496,4300.769043,4341.794922,4406.282227,4316.282227,4308.974121,4490.128418,4511.025879,4347.051270,4411.794922,1563.000000,1.000000,19.000000,,,,0.000000,2.000000,2.000000,0.000000,4.000000,2.000000,2.000000,0.000000,0.000000,4.000000,4.000000,4.000000,4.000000,4.000000,4.000000,0.000000,,,,,,,,,,,,,,,,,,,,,,,,,,,,
