title:eight2, start timestamp:1732081946.405677, stop timestamp:1732081979.106663, headset type:EPOCX, headset serial:E5020C3A, headset firmware:730, channels:67, sampling rate:eeg_128;mot_32, samples:4189      , version:2.2, 
Timestamp,OriginalTimestamp,EEG.Counter,EEG.Interpolated,EEG.AF3,EEG.F7,EEG.F3,EEG.FC5,EEG.T7,EEG.P7,EEG.O1,EEG.O2,EEG.P8,EEG.T8,EEG.FC6,EEG.F4,EEG.F8,EEG.AF4,EEG.RawCq,EEG.Battery,EEG.BatteryPercent,MarkerIndex,MarkerType,MarkerValueInt,EEG.MarkerHardware,CQ.AF3,CQ.F7,CQ.F3,CQ.FC5,CQ.T7,CQ.P7,CQ.O1,CQ.O2,CQ.P8,CQ.T8,CQ.FC6,CQ.F4,CQ.F8,CQ.AF4,CQ.Overall,EQ.SampleRateQuality,EQ.OVERALL,EQ.AF3,EQ.F7,EQ.F3,EQ.FC5,EQ.T7,EQ.P7,EQ.O1,EQ.O2,EQ.P8,EQ.T8,EQ.FC6,EQ.F4,EQ.F8,EQ.AF4,MOT.CounterMems,MOT.InterpolatedMems,MOT.Q0,MOT.Q1,MOT.Q2,MOT.Q3,MOT.AccX,MOT.AccY,MOT.AccZ,MOT.MagX,MOT.MagY,MOT.MagZ
1732081946.405677,1732081946.406244,17.000000,0.000000,4299.871582,4293.974121,4312.563965,4300.256348,4275.256348,4283.461426,4324.487305,4322.820313,4292.948730,4271.025879,4382.820313,4440.256348,4303.846191,4352.179688,0.000000,0.000000,12.000000,,,,0.000000,2.000000,2.000000,0.000000,2.000000,2.000000,2.000000,1.000000,2.000000,4.000000,4.000000,4.000000,4.000000,2.000000,4.000000,25.000000,,,,,,,,,,,,,,,,,,,,,,,,,,,,
1732081946.413485,1732081946.414252,18.000000,0.000000,4300.641113,4297.692383,4313.461426,4305.769043,4289.871582,4286.282227,4323.461426,4323.205078,4297.563965,4272.436035,4392.820313,4441.538574,4305.128418,4360.000000,0.000000,0.000000,12.000000,,,,0.000000,2.000000,2.000000,0.000000,2.000000,2.000000,2.000000,1.000000,2.000000,4.000000,4.000000,4.000000,4.000000,2.000000,4.000000,25.000000,,,,,,,,,,,,,,,,,,,,,,,,,,,,
1732081946.421294,1732081946.422060,19.000000,0.000000,4293.077148,4293.974121,4313.205078,4305.641113,4287.051270,4287.051270,4325.256348,4322.563965,4301.282227,4276.538574,4392.948730,4443.077148,4305.512695,4361.153809,0.000000,0.000000,12.000000,,,,0.000000,2.000000,2.000000,0.000000,2.000000,2.000000,2.000000,1.000000,2.000000,4.000000,4.000000,4.000000,4.000000,2.000000,4.000000,25.000000,,,,,,,,,,,,,,,,,,,,,,,,,,,,
1732081946.429102,1732081946.429968,20.000000,0.000000,4292.820313,4291.410156,4314.358887,4303.717773,4267.436035,4287.051270,4329.102539,4321.666504,4298.461426,4273.974121,4384.487305,4443.461426,4303.461426,4360.384766,0.000000,0.000000,12.000000,,,,0.000000,2.000000,2.000000,0.000000,2.000000,2.000000,2.000000,1.000000,2.000000,4.000000,4.000000,4.000000,4.000000,2.000000,4.000000,25.000000,,,,,,,,,,,,,,,,,5.000000,0.000000,0.629796,0.401794,-0.598633,0.289063,0.973752,0.140154,-0.055671,-74.440247,65.756500,29.064871
1732081946.436910,1732081946.437776,21.000000,0.000000,4302.563965,4295.128418,4313.461426,4307.051270,4270.897461,4289.487305,4326.922852,4316.922852,4295.384766,4270.641113,4382.179688,4443.333496,4299.487305,4364.743652,0.000000,0.000000,12.000000,,,,0.000000,2.000000,2.000000,0.000000,2.000000,2.000000,2.000000,1.000000,2.000000,4.000000,4.000000,4.000000,4.000000,2.000000,4.000000,25.000000,,,,,,,,,,,,,,,,,,,,,,,,,,,,
1732081946.444718,1732081946.445784,22.000000,0.000000,4306.153809,4296.025879,4315.769043,4306.666504,4285.256348,4288.333496,4325.256348,4315.128418,4296.666504,4274.743652,4392.307617,4442.820313,4301.666504,4366.538574,0.000000,0.000000,12.000000,,,,0.000000,2.000000,2.000000,0.000000,2.000000,2.000000,2.000000,1.000000,2.000000,4.000000,4.000000,4.000000,4.000000,2.000000,4.000000,25.000000,,,,,,,,,,,,,,,,,,,,,,,,,,,,
1732081946.452527,1732081946.453592,23.000000,0.000000,4302.563965,4293.077148,4316.153809,4302.179688,4282.307617,4283.589844,4326.794922,4315.512695,4295.641113,4276.282227,4396.922852,4440.512695,4308.717773,4364.230957,0.000000,0.000000,12.000000,,,,0.000000,2.000000,2.000000,0.000000,2.000000,2.000000,2.000000,1.000000,2.000000,4.000000,4.000000,4.000000,4.000000,2.000000,4.000000,25.000000,,,,,,,,,,,,,,,,,,,,,,,,,,,,
1732081946.460335,1732081946.461500,24.000000,0.000000,4301.282227,4295.128418,4314.230957,4307.820313,4276.922852,4283.333496,4325.128418,4312.179688,4292.563965,4275.000000,4390.512695,4441.282227,4310.384766,4365.000000,0.000000,0.000000,12.000000,,,,0.000000,2.000000,2.000000,0.000000,2.000000,2.000000,2.000000,1.000000,2.000000,4.000000,4.000000,4.000000,4.000000,2.000000,4.000000,25.000000,,,,,,,,,,,,,,,,,6.000000,0.000000,0.629415,0.401672,-0.598938,0.289429,0.964473,0.150409,-0.062019,-74.603264,65.739433,29.095879
1732081946.468143,1732081946.469309,25.000000,0.000000,4303.846191,4298.846191,4315.512695,4315.000000,4278.974121,4284.743652,4324.615234,4310.384766,4293.846191,4276.922852,4394.358887,4445.256348,4308.333496,4366.153809,0.000000,0.000000,12.000000,,,,0.000000,2.000000,2.000000,0.000000,2.000000,2.000000,2.000000,1.000000,2.000000,4.000000,4.000000,4.000000,4.000000,2.000000,4.000000,25.000000,,,,,,,,,,,,,,,,,,,,,,,,,,,,
1732081946.475952,1732081946.477317,26.000000,0.000000,4303.846191,4297.692383,4316.538574,4310.641113,4287.948730,4281.153809,4325.769043,4311.282227,4292.692383,4274.358887,4396.794922,4442.820313,4305.384766,4364.615234,0.000000,0.000000,12.000000,,,,0.000000,2.000000,2.000000,0.000000,2.000000,2.000000,2.000000,1.000000,2.000000,4.000000,4.000000,4.000000,4.000000,2.000000,4.000000,25.000000,,,,,,,,,,,,,,,,,,,,,,,,,,,,
1732081946.483760,1732081946.485125,27.000000,0.000000,4302.948730,4296.922852,4315.641113,4306.025879,4292.820313,4277.436035,4326.666504,4309.871582,4288.974121,4271.025879,4385.769043,4443.333496,4301.538574,4365.128418,0.000000,0.000000,12.000000,,,,0.000000,2.000000,2.000000,0.000000,2.000000,2.000000,2.000000,1.000000,2.000000,4.000000,4.000000,4.000000,4.000000,2.000000,4.000000,25.000000,,,,,,,,,,,,,,,,,,,,,,,,,,,,
1732081946.491568,1732081946.493033,28.000000,0.000000,4305.128418,4299.615234,4314.358887,4305.512695,4277.051270,4280.128418,4324.102539,4310.256348,4291.410156,4276.282227,4387.307617,4446.538574,4301.922852,4366.794922,0.000000,0.000000,12.000000,,,,0.000000,2.000000,2.000000,0.000000,2.000000,2.000000,2.000000,1.000000,2.000000,4.000000,4.000000,4.000000,4.000000,2.000000,4.000000,25.000000,,,,,,,,,,,,,,,,,7.000000,0.000000,0.629340,0.401611,-0.598999,0.289551,0.952753,0.158711,-0.052741,-74.605316,65.647278,29.114328
1732081946.499376,1732081946.500841,29.000000,0.000000,4305.384766,4299.230957,4315.769043,4304.102539,4263.717773,4280.897461,4322.563965,4310.256348,4292.820313,4277.179688,4394.743652,4436.666504,4303.077148,4362.563965,0.000000,0.000000,12.000000,,,,0.000000,2.000000,2.000000,0.000000,2.000000,2.000000,2.000000,1.000000,2.000000,4.000000,4.000000,4.000000,4.000000,2.000000,4.000000,25.000000,,,,,,,,,,,,,,,,,,,,,,,,,,,,
1732081946.507184,1732081946.508849,30.000000,0.000000,4304.230957,4294.358887,4315.128418,4303.205078,4270.256348,4280.384766,4321.025879,4310.000000,4290.897461,4272.563965,4392.436035,4424.487305,4305.512695,4359.743652,0.000000,0.000000,12.000000,,,,0.000000,2.000000,2.000000,0.000000,2.000000,2.000000,2.000000,1.000000,2.000000,4.000000,4.000000,4.000000,4.000000,2.000000,4.000000,25.000000,,,,,,,,,,,,,,,,,,,,,,,,,,,,
1732081946.514993,1732081946.516657,31.000000,0.000000,4303.205078,4291.666504,4316.410156,4301.666504,4274.871582,4282.692383,4324.871582,4309.871582,4291.410156,4274.230957,4388.717773,4425.512695,4309.615234,4361.282227,0.000000,0.000000,12.000000,,,,0.000000,2.000000,2.000000,0.000000,2.000000,2.000000,2.000000,1.000000,2.000000,4.000000,4.000000,4.000000,4.000000,2.000000,4.000000,25.000000,,,,,,,,,,,,,,,,,,,,,,,,,,,,
1732081946.522801,1732081946.524566,32.000000,0.000000,4298.589844,4289.358887,4312.436035,4297.436035,4270.769043,4283.461426,4326.922852,4309.615234,4292.307617,4276.794922,4389.743652,4428.333496,4304.871582,4356.666504,0.000000,0.000000,12.000000,,,,0.000000,2.000000,2.000000,0.000000,2.000000,2.000000,2.000000,1.000000,2.000000,4.000000,4.000000,4.000000,4.000000,2.000000,4.000000,25.000000,,,,,,,,,,,,,,,,,8.000000,0.000000,0.629454,0.401794,-0.598816,0.289429,0.933708,0.181663,-0.067879,-74.616974,65.650963,29.377605
1732081946.530609,1732081946.532374,33.000000,0.000000,4290.000000,4288.333496,4311.410156,4296.794922,4273.461426,4284.487305,4325.384766,4313.461426,4292.692383,4273.077148,4389.358887,4427.563965,4297.436035,4353.205078,0.000000,0.000000,12.000000,,,,0.000000,2.000000,2.000000,0.000000,2.000000,2.000000,2.000000,1.000000,2.000000,4.000000,4.000000,4.000000,4.000000,2.000000,4.000000,25.000000,,,,,,,,,,,,,,,,,,,,,,,,,,,,
1732081946.538417,1732081946.539982,34.000000,0.000000,4289.615234,4294.102539,4310.384766,4303.974121,4271.025879,4288.974121,4325.897461,4315.384766,4294.871582,4274.230957,4389.230957,4426.922852,4303.589844,4353.846191,0.000000,0.000000,12.000000,,,,0.000000,2.000000,2.000000,0.000000,2.000000,2.000000,2.000000,1.000000,2.000000,4.000000,4.000000,4.000000,4.000000,2.000000,4.000000,25.000000,,,,,,,,,,,,,,,,,,,,,,,,,,,,
1732081946.546226,1732081946.547790,35.000000,0.000000,4290.897461,4294.743652,4309.871582,4303.333496,4268.461426,4291.153809,4328.846191,4314.230957,4293.333496,4274.487305,4390.769043,4426.282227,4307.179688,4352.307617,0.000000,0.000000,12.000000,,,,0.000000,2.000000,2.000000,0.000000,2.000000,2.000000,2.000000,1.000000,2.000000,4.000000,4.000000,4.000000,4.000000,2.000000,4.000000,25.000000,,,,,,,,,,,,,,,,,,,,,,,,,,,,
1732081946.554034,1732081946.555698,36.000000,0.000000,4290.897461,4285.897461,4312.820313,4298.205078,4277.820313,4287.820313,4325.641113,4314.230957,4289.230957,4265.000000,4386.666504,4426.922852,4297.307617,4352.692383,0.000000,0.000000,12.000000,,,,0.000000,2.000000,2.000000,0.000000,2.000000,2.000000,2.000000,1.000000,2.000000,4.000000,4.000000,4.000000,4.000000,2.000000,4.000000,25.000000,,,,,,,,,,,,,,,,,9.000000,0.000000,0.630701,0.405701,-0.596008,0.287048,0.949335,0.231474,-0.080576,-74.633080,65.675613,29.367527
1732081946.561842,1732081946.563507,37.000000,0.000000,4296.922852,4285.641113,4316.153809,4300.512695,4269.871582,4284.871582,4323.205078,4314.615234,4288.333496,4262.307617,4383.589844,4426.794922,4297.436035,4354.487305,0.000000,0.000000,12.000000,,,,0.000000,2.000000,2.000000,0.000000,2.000000,2.000000,2.000000,1.000000,2.000000,4.000000,4.000000,4.000000,4.000000,2.000000,4.000000,25.000000,,,,,,,,,,,,,,,,,,,,,,,,,,,,
1732081946.569651,1732081946.571115,38.000000,0.000000,4299.230957,4293.205078,4313.846191,4302.436035,4247.179688,4285.384766,4326.282227,4313.205078,4291.025879,4271.282227,4390.000000,4423.974121,4308.717773,4357.307617,0.000000,0.000000,12.000000,,,,0.000000,2.000000,2.000000,0.000000,2.000000,2.000000,2.000000,1.000000,2.000000,4.000000,4.000000,4.000000,4.000000,2.000000,4.000000,25.000000,,,,,,,,,,,,,,,,,,,,,,,,,,,,
1732081946.577459,1732081946.578923,39.000000,0.000000,4295.128418,4288.717773,4313.974121,4299.358887,4242.948730,4283.077148,4326.538574,4311.025879,4289.487305,4272.436035,4394.230957,4423.205078,4311.025879,4360.384766,0.000000,0.000000,12.000000,,,,0.000000,2.000000,2.000000,0.000000,2.000000,2.000000,2.000000,1.000000,2.000000,4.000000,4.000000,4.000000,4.000000,2.000000,4.000000,25.000000,,,,,,,,,,,,,,,,,,,,,,,,,,,,
1732081946.585267,1732081946.586632,40.000000,0.000000,4295.000000,4282.948730,4316.666504,4301.538574,4248.077148,4279.871582,4324.743652,4309.230957,4284.871582,4265.641113,4388.333496,4428.846191,4305.256348,4359.615234,0.000000,0.000000,12.000000,,,,0.000000,2.000000,2.000000,0.000000,2.000000,2.000000,2.000000,1.000000,2.000000,4.000000,4.000000,4.000000,4.000000,2.000000,4.000000,25.000000,,,,,,,,,,,,,,,,,10.000000,0.000000,0.631719,0.409485,-0.593567,0.284485,0.943963,0.211452,-0.063973,-74.732796,65.767242,29.412697
1732081946.593075,1732081946.594440,41.000000,0.000000,4304.102539,4289.102539,4315.000000,4306.025879,4244.871582,4281.153809,4326.922852,4310.256348,4286.025879,4267.820313,4390.256348,4433.717773,4309.743652,4362.948730,0.000000,0.000000,12.000000,,,,0.000000,2.000000,2.000000,0.000000,2.000000,2.000000,2.000000,1.000000,2.000000,4.000000,4.000000,4.000000,4.000000,2.000000,4.000000,25.000000,,,,,,,,,,,,,,,,,,,,,,,,,,,,
1732081946.600884,1732081946.602048,42.000000,0.000000,4311.410156,4292.692383,4314.615234,4304.615234,4242.436035,4281.922852,4330.384766,4311.153809,4287.948730,4271.794922,4393.333496,4432.563965,4314.487305,4371.153809,0.000000,0.000000,12.000000,,,,0.000000,2.000000,2.000000,0.000000,2.000000,2.000000,2.000000,1.000000,2.000000,4.000000,4.000000,4.000000,4.000000,2.000000,4.000000,25.000000,,,,,,,,,,,,,,,,,,,,,,,,,,,,
1732081946.608692,1732081946.609856,43.000000,0.000000,4307.820313,4287.179688,4315.384766,4304.230957,4245.897461,4282.051270,4327.948730,4309.102539,4286.666504,4267.436035,4384.871582,4430.000000,4308.077148,4365.769043,0.000000,0.000000,12.000000,,,,0.000000,2.000000,2.000000,0.000000,2.000000,2.000000,2.000000,1.000000,2.000000,4.000000,4.000000,4.000000,4.000000,2.000000,4.000000,25.000000,,,,,,,,,,,,,,,,,,,,,,,,,,,,
1732081946.616500,1732081946.617565,44.000000,0.000000,4299.743652,4280.128418,4315.897461,4303.846191,4245.641113,4281.410156,4327.820313,4310.000000,4290.128418,4267.051270,4385.641113,4432.820313,4304.358887,4355.384766,0.000000,0.000000,12.000000,,,,0.000000,2.000000,2.000000,0.000000,2.000000,2.000000,2.000000,1.000000,2.000000,4.000000,4.000000,4.000000,4.000000,2.000000,4.000000,25.000000,,,,,,,,,,,,,,,,,11.000000,0.000000,0.631719,0.409485,-0.593567,0.284485,0.948358,0.193871,-0.042486,-74.753563,65.856468,29.464285
1732081946.624308,1732081946.625373,45.000000,0.000000,4297.307617,4280.769043,4313.717773,4303.205078,4246.794922,4282.051270,4328.333496,4311.922852,4296.282227,4274.615234,4397.179688,4439.358887,4307.692383,4363.717773,0.000000,0.000000,12.000000,,,,0.000000,2.000000,2.000000,0.000000,2.000000,2.000000,2.000000,1.000000,2.000000,4.000000,4.000000,4.000000,4.000000,2.000000,4.000000,25.000000,,,,,,,,,,,,,,,,,,,,,,,,,,,,
1732081946.632117,1732081946.632981,46.000000,0.000000,4301.153809,4287.307617,4316.153809,4304.871582,4247.948730,4280.897461,4327.563965,4312.179688,4296.025879,4277.436035,4398.974121,4436.538574,4309.743652,4370.641113,0.000000,0.000000,12.000000,,,,0.000000,2.000000,2.000000,0.000000,2.000000,2.000000,2.000000,1.000000,2.000000,4.000000,4.000000,4.000000,4.000000,2.000000,4.000000,25.000000,,,,,,,,,,,,,,,,,,,,,,,,,,,,
1732081946.639925,1732081946.640790,47.000000,0.000000,4302.820313,4288.846191,4314.487305,4305.512695,4247.436035,4279.615234,4324.615234,4307.948730,4293.205078,4273.974121,4393.205078,4427.436035,4307.692383,4363.077148,0.000000,0.000000,12.000000,,,,0.000000,2.000000,2.000000,0.000000,2.000000,2.000000,2.000000,1.000000,2.000000,4.000000,4.000000,4.000000,4.000000,2.000000,4.000000,25.000000,,,,,,,,,,,,,,,,,,,,,,,,,,,,
1732081946.647733,1732081946.648498,48.000000,0.000000,4301.794922,4285.512695,4314.358887,4302.948730,4245.256348,4280.512695,4326.794922,4300.384766,4289.615234,4270.128418,4391.794922,4424.487305,4305.769043,4362.179688,0.000000,0.000000,12.000000,,,,0.000000,2.000000,2.000000,0.000000,2.000000,2.000000,2.000000,1.000000,2.000000,4.000000,4.000000,4.000000,4.000000,2.000000,4.000000,25.000000,,,,,,,,,,,,,,,,,12.000000,0.000000,0.635267,0.408691,-0.591431,0.282166,0.986449,0.131852,-0.010743,-74.583717,66.073738,29.464403
1732081946.655541,1732081946.656306,49.000000,0.000000,4306.282227,4287.179688,4318.717773,4301.410156,4239.871582,4281.666504,4331.025879,4302.307617,4287.692383,4270.256348,4397.051270,4426.153809,4309.102539,4372.051270,0.000000,0.000000,12.000000,,,,0.000000,2.000000,2.000000,0.000000,2.000000,2.000000,2.000000,1.000000,2.000000,4.000000,4.000000,4.000000,4.000000,2.000000,4.000000,25.000000,,,,,,,,,,,,,,,,,,,,,,,,,,,,
1732081946.663350,1732081946.663914,50.000000,0.000000,4315.769043,4291.410156,4324.871582,4303.974121,4239.871582,4281.410156,4331.025879,4310.000000,4289.358887,4268.461426,4399.358887,4428.974121,4309.615234,4372.948730,0.000000,0.000000,12.000000,,,,0.000000,2.000000,2.000000,0.000000,2.000000,2.000000,2.000000,1.000000,2.000000,4.000000,4.000000,4.000000,4.000000,2.000000,4.000000,25.000000,,,,,,,,,,,,,,,,,,,,,,,,,,,,
1732081946.671158,1732081946.671723,51.000000,0.000000,4317.948730,4290.000000,4325.897461,4309.743652,4246.922852,4279.487305,4328.974121,4310.897461,4291.794922,4264.871582,4394.487305,4434.230957,4307.563965,4370.769043,0.000000,0.000000,12.000000,,,,0.000000,2.000000,2.000000,0.000000,2.000000,2.000000,2.000000,1.000000,2.000000,4.000000,4.000000,4.000000,4.000000,2.000000,4.000000,25.000000,,,,,,,,,,,,,,,,,,,,,,,,,,,,
1732081946.678966,1732081946.679431,52.000000,0.000000,4317.563965,4286.794922,4326.282227,4312.179688,4248.974121,4280.384766,4330.256348,4310.512695,4291.794922,4265.641113,4393.333496,4440.000000,4309.102539,4378.461426,0.000000,0.000000,12.000000,,,,0.000000,2.000000,2.000000,0.000000,2.000000,2.000000,2.000000,1.000000,2.000000,4.000000,4.000000,4.000000,4.000000,2.000000,4.000000,25.000000,,,,,,,,,,,,,,,,,13.000000,0.000000,0.637795,0.402283,-0.592285,0.283875,0.950311,0.147967,0.011232,-74.352814,66.249725,29.427834
1732081946.686774,1732081946.687239,53.000000,0.000000,4327.179688,4287.692383,4327.179688,4311.922852,4246.282227,4280.641113,4328.589844,4311.538574,4287.179688,4265.128418,4401.794922,4443.717773,4313.333496,4388.589844,0.000000,0.000000,12.000000,,,,0.000000,2.000000,2.000000,0.000000,2.000000,2.000000,2.000000,1.000000,2.000000,4.000000,4.000000,4.000000,4.000000,2.000000,4.000000,25.000000,,,,,,,,,,,,,,,,,,,,,,,,,,,,
1732081946.694583,1732081946.694848,54.000000,0.000000,4333.077148,4290.256348,4322.692383,4314.102539,4247.307617,4281.282227,4324.743652,4307.436035,4282.563965,4261.282227,4406.538574,4447.948730,4316.922852,4395.256348,0.000000,0.000000,12.000000,,,,0.000000,2.000000,2.000000,0.000000,2.000000,2.000000,2.000000,1.000000,2.000000,4.000000,4.000000,4.000000,4.000000,2.000000,4.000000,25.000000,,,,,,,,,,,,,,,,,,,,,,,,,,,,
1732081946.702391,1732081946.702656,55.000000,0.000000,4333.333496,4290.256348,4320.384766,4311.410156,4250.256348,4280.641113,4326.538574,4302.820313,4285.128418,4263.333496,4405.128418,4450.000000,4319.230957,4399.743652,0.000000,0.000000,12.000000,,,,0.000000,2.000000,2.000000,0.000000,2.000000,2.000000,2.000000,1.000000,2.000000,4.000000,4.000000,4.000000,4.000000,2.000000,4.000000,25.000000,,,,,,,,,,,,,,,,,,,,,,,,,,,,
1732081946.710199,1732081946.710564,56.000000,0.000000,4341.666504,4290.128418,4313.589844,4305.000000,4250.128418,4271.153809,4322.948730,4300.256348,4287.436035,4272.948730,4408.589844,4443.333496,4323.974121,4401.922852,0.000000,0.000000,12.000000,,,,0.000000,2.000000,2.000000,0.000000,2.000000,2.000000,2.000000,1.000000,2.000000,4.000000,4.000000,4.000000,4.000000,2.000000,4.000000,25.000000,,,,,,,,,,,,,,,,,14.000000,0.000000,0.638456,0.399719,-0.592957,0.284607,0.950311,0.147967,0.011232,-74.412445,66.075615,29.314878
1732081946.718007,1732081946.718372,57.000000,0.000000,4347.820313,4286.538574,4312.563965,4303.974121,4248.205078,4269.615234,4318.589844,4298.846191,4283.461426,4271.666504,4412.563965,4440.128418,4329.615234,4404.102539,0.000000,0.000000,12.000000,,,,0.000000,2.000000,2.000000,0.000000,2.000000,2.000000,2.000000,1.000000,2.000000,4.000000,4.000000,4.000000,4.000000,2.000000,4.000000,25.000000,,,,,,,,,,,,,,,,,,,,,,,,,,,,
1732081946.725816,1732081946.726380,58.000000,0.000000,4348.333496,4282.051270,4310.512695,4305.641113,4251.153809,4275.897461,4319.743652,4303.077148,4282.051270,4261.922852,4410.641113,4440.256348,4330.769043,4408.205078,0.000000,0.000000,12.000000,,,,0.000000,2.000000,2.000000,0.000000,2.000000,2.000000,2.000000,1.000000,2.000000,4.000000,4.000000,4.000000,4.000000,2.000000,4.000000,25.000000,,,,,,,,,,,,,,,,,,,,,,,,,,,,
1732081946.733624,1732081946.734188,59.000000,0.000000,4354.230957,4282.436035,4308.589844,4302.692383,4251.025879,4272.307617,4319.358887,4305.256348,4285.000000,4262.820313,4413.205078,4441.025879,4332.436035,4412.948730,0.000000,0.000000,12.000000,,,,0.000000,2.000000,2.000000,0.000000,2.000000,2.000000,2.000000,1.000000,2.000000,4.000000,4.000000,4.000000,4.000000,2.000000,4.000000,25.000000,,,,,,,,,,,,,,,,,,,,,,,,,,,,
1732081946.741432,1732081946.742096,60.000000,0.000000,4360.512695,4281.666504,4304.358887,4301.666504,4247.436035,4268.077148,4314.487305,4310.128418,4290.384766,4271.794922,4426.794922,4448.461426,4340.384766,4422.307617,0.000000,0.000000,12.000000,,,,0.000000,2.000000,2.000000,0.000000,2.000000,2.000000,2.000000,1.000000,2.000000,4.000000,4.000000,4.000000,4.000000,2.000000,4.000000,25.000000,,,,,,,,,,,,,,,,,15.000000,0.000000,0.638894,0.397217,-0.593872,0.285217,1.006959,0.160664,-0.007325,-74.460747,65.969582,29.475052
1732081946.749241,1732081946.749905,61.000000,0.000000,4359.230957,4273.717773,4304.615234,4299.102539,4246.538574,4271.282227,4316.153809,4318.077148,4291.794922,4273.333496,4433.589844,4459.102539,4346.538574,4432.692383,0.000000,0.000000,12.000000,,,,0.000000,2.000000,2.000000,0.000000,2.000000,2.000000,2.000000,1.000000,2.000000,4.000000,4.000000,4.000000,4.000000,2.000000,4.000000,25.000000,,,,,,,,,,,,,,,,,,,,,,,,,,,,
1732081946.757049,1732081946.757913,62.000000,0.000000,4358.077148,4268.333496,4301.410156,4293.333496,4244.743652,4266.666504,4313.589844,4309.871582,4287.307617,4270.641113,4429.102539,4460.384766,4346.538574,4432.563965,0.000000,0.000000,12.000000,,,,0.000000,2.000000,2.000000,0.000000,2.000000,2.000000,2.000000,1.000000,2.000000,4.000000,4.000000,4.000000,4.000000,2.000000,4.000000,25.000000,,,,,,,,,,,,,,,,,,,,,,,,,,,,
1732081946.764857,1732081946.765721,63.000000,0.000000,4358.461426,4266.666504,4300.512695,4290.128418,4241.410156,4262.179688,4309.358887,4296.666504,4283.846191,4276.025879,4430.384766,4455.000000,4348.461426,4428.974121,0.000000,0.000000,12.000000,,,,0.000000,2.000000,2.000000,0.000000,2.000000,2.000000,2.000000,1.000000,2.000000,4.000000,4.000000,4.000000,4.000000,2.000000,4.000000,25.000000,,,,,,,,,,,,,,,,,,,,,,,,,,,,
1732081946.772665,1732081946.773629,64.000000,0.000000,4361.410156,4265.641113,4303.846191,4292.051270,4242.436035,4272.692383,4313.461426,4302.692383,4289.487305,4287.563965,4438.846191,4457.948730,4351.282227,4435.000000,0.000000,0.000000,12.000000,,,,0.000000,2.000000,2.000000,0.000000,2.000000,2.000000,2.000000,1.000000,2.000000,4.000000,4.000000,4.000000,4.000000,2.000000,4.000000,25.000000,,,,,,,,,,,,,,,,,16.000000,0.000000,0.637615,0.387878,-0.599121,0.289917,0.957148,0.112318,0.007325,-74.586540,65.782028,29.503126
1732081946.780474,1732081946.781437,65.000000,0.000000,4364.102539,4267.179688,4305.897461,4295.000000,4251.153809,4283.461426,4320.769043,4314.615234,4298.461426,4292.692383,4442.051270,4464.358887,4350.641113,4441.794922,1294.000000,0.000000,12.000000,,,,0.000000,2.000000,2.000000,0.000000,2.000000,2.000000,2.000000,1.000000,2.000000,4.000000,4.000000,4.000000,4.000000,2.000000,4.000000,25.000000,,,,,,,,,,,,,,,,,,,,,,,,,,,,
1732081946.788282,1732081946.789046,66.000000,0.000000,4360.256348,4268.461426,4306.282227,4290.769043,4255.384766,4281.410156,4320.512695,4313.846191,4295.769043,4287.820313,4439.615234,4463.846191,4349.615234,4441.025879,1215.000000,0.000000,12.000000,,,,0.000000,2.000000,2.000000,0.000000,2.000000,2.000000,2.000000,1.000000,2.000000,4.000000,4.000000,4.000000,4.000000,2.000000,4.000000,25.000000,,,,,,,,,,,,,,,,,,,,,,,,,,,,
1732081946.796090,1732081946.796854,67.000000,0.000000,4355.128418,4265.897461,4305.000000,4285.256348,4252.948730,4269.102539,4315.512695,4307.436035,4287.307617,4283.333496,4436.794922,4463.589844,4350.000000,4440.128418,1172.000000,0.000000,12.000000,,,,0.000000,2.000000,2.000000,0.000000,2.000000,2.000000,2.000000,1.000000,2.000000,4.000000,4.000000,4.000000,4.000000,2.000000,4.000000,25.000000,,,,,,,,,,,,,,,,,,,,,,,,,,,,
1732081946.803898,1732081946.804762,68.000000,0.000000,4357.179688,4266.794922,4308.461426,4284.615234,4251.410156,4262.563965,4314.487305,4307.179688,4287.948730,4281.666504,4439.871582,4469.358887,4349.358887,4443.077148,1184.000000,0.000000,12.000000,,,,0.000000,2.000000,2.000000,0.000000,2.000000,2.000000,2.000000,1.000000,2.000000,4.000000,4.000000,4.000000,4.000000,2.000000,4.000000,25.000000,,,,,,,,,,,,,,,,,17.000000,0.000000,0.636936,0.385681,-0.600342,0.291809,0.957148,0.112318,0.007325,-74.823433,65.570107,29.660866
1732081946.811707,1732081946.812570,69.000000,0.000000,4362.948730,4270.641113,4308.974121,4287.051270,4261.538574,4265.897461,4314.871582,4310.512695,4292.307617,4277.436035,4446.153809,4471.282227,4352.563965,4445.769043,1075.000000,0.000000,12.000000,,,,0.000000,2.000000,2.000000,0.000000,2.000000,2.000000,2.000000,1.000000,2.000000,4.000000,4.000000,4.000000,4.000000,2.000000,4.000000,25.000000,,,,,,,,,,,,,,,,,,,,,,,,,,,,
1732081946.819515,1732081946.820578,70.000000,0.000000,4365.256348,4267.436035,4308.205078,4287.563965,4275.769043,4263.974121,4315.897461,4311.025879,4292.179688,4276.410156,4446.025879,4469.743652,4359.871582,4444.487305,200.000000,0.000000,12.000000,,,,0.000000,2.000000,2.000000,0.000000,2.000000,2.000000,2.000000,1.000000,2.000000,4.000000,4.000000,4.000000,4.000000,2.000000,4.000000,25.000000,,,,,,,,,,,,,,,,,,,,,,,,,,,,
1732081946.827323,1732081946.828386,71.000000,0.000000,4363.846191,4263.717773,4307.820313,4286.538574,4269.487305,4264.102539,4320.512695,4311.922852,4297.692383,4284.102539,4443.974121,4478.205078,4362.563965,4445.256348,1194.000000,0.000000,12.000000,,,,0.000000,2.000000,2.000000,0.000000,2.000000,2.000000,2.000000,1.000000,2.000000,4.000000,4.000000,4.000000,4.000000,2.000000,4.000000,25.000000,,,,,,,,,,,,,,,,,,,,,,,,,,,,
1732081946.835131,1732081946.836294,72.000000,0.000000,4360.512695,4263.333496,4311.025879,4278.974121,4258.717773,4269.743652,4325.641113,4318.205078,4301.410156,4285.000000,4447.692383,4487.436035,4361.666504,4448.077148,1357.000000,0.000000,12.000000,,,,0.000000,2.000000,2.000000,0.000000,2.000000,2.000000,2.000000,1.000000,2.000000,4.000000,4.000000,4.000000,4.000000,2.000000,4.000000,25.000000,,,,,,,,,,,,,,,,,18.000000,0.000000,0.634496,0.380920,-0.602478,0.298889,0.959590,0.100598,-0.016115,-75.046974,65.271790,29.756968
1732081946.842940,1732081946.844103,73.000000,0.000000,4361.538574,4264.487305,4307.563965,4275.384766,4261.410156,4267.436035,4321.922852,4320.128418,4296.538574,4282.307617,4452.563965,4486.794922,4361.922852,4447.563965,1481.000000,0.000000,12.000000,,,,0.000000,2.000000,2.000000,0.000000,2.000000,2.000000,2.000000,1.000000,2.000000,4.000000,4.000000,4.000000,4.000000,2.000000,4.000000,25.000000,,,,,,,,,,,,,,,,,,,,,,,,,,,,
1732081946.850748,1732081946.852111,74.000000,0.000000,4364.743652,4264.487305,4311.025879,4287.948730,4261.794922,4260.769043,4320.512695,4314.871582,4294.743652,4284.358887,4450.256348,4486.025879,4361.025879,4445.641113,1352.000000,0.000000,12.000000,,,,0.000000,2.000000,2.000000,0.000000,2.000000,2.000000,2.000000,1.000000,2.000000,4.000000,4.000000,4.000000,4.000000,2.000000,4.000000,25.000000,,,,,,,,,,,,,,,,,,,,,,,,,,,,
1732081946.858556,1732081946.859919,75.000000,0.000000,4363.974121,4266.282227,4315.897461,4293.974121,4270.384766,4260.641113,4320.641113,4311.666504,4298.974121,4285.897461,4446.794922,4486.410156,4359.102539,4446.410156,1489.000000,0.000000,12.000000,,,,0.000000,2.000000,2.000000,0.000000,2.000000,2.000000,2.000000,1.000000,2.000000,4.000000,4.000000,4.000000,4.000000,2.000000,4.000000,25.000000,,,,,,,,,,,,,,,,,,,,,,,,,,,,
1732081946.866364,1732081946.867827,76.000000,0.000000,4361.922852,4266.410156,4316.153809,4282.948730,4282.692383,4260.769043,4317.179688,4311.025879,4297.051270,4280.897461,4447.179688,4483.461426,4360.769043,4447.563965,1715.000000,0.000000,12.000000,,,,0.000000,2.000000,2.000000,0.000000,2.000000,2.000000,2.000000,1.000000,2.000000,4.000000,4.000000,4.000000,4.000000,2.000000,4.000000,25.000000,,,,,,,,,,,,,,,,,19.000000,0.000000,0.631051,0.378784,-0.602112,0.309448,0.988402,0.068368,0.003907,-75.348053,64.516815,29.973143
1732081946.874173,1732081946.875635,77.000000,0.000000,4361.282227,4264.743652,4314.743652,4279.230957,4273.846191,4262.563965,4316.410156,4310.512695,4293.974121,4276.538574,4446.153809,4478.461426,4362.436035,4446.282227,1688.000000,0.000000,12.000000,,,,0.000000,2.000000,2.000000,0.000000,2.000000,2.000000,2.000000,1.000000,2.000000,4.000000,4.000000,4.000000,4.000000,2.000000,4.000000,25.000000,,,,,,,,,,,,,,,,,,,,,,,,,,,,
1732081946.881981,1732081946.883643,78.000000,0.000000,4359.102539,4266.666504,4317.051270,4287.051270,4263.589844,4268.974121,4320.256348,4309.230957,4296.025879,4277.692383,4441.282227,4473.589844,4363.717773,4443.846191,1352.000000,0.000000,12.000000,,,,0.000000,2.000000,2.000000,0.000000,2.000000,2.000000,2.000000,1.000000,2.000000,4.000000,4.000000,4.000000,4.000000,2.000000,4.000000,25.000000,1.000000,25.000000,2.000000,2.000000,0.000000,2.000000,2.000000,2.000000,1.000000,2.000000,3.000000,3.000000,4.000000,4.000000,2.000000,4.000000,,,,,,,,,,,,
1732081946.889789,1732081946.891451,79.000000,0.000000,4358.589844,4268.461426,4316.922852,4290.128418,4277.563965,4267.563965,4318.333496,4305.897461,4295.128418,4278.846191,4438.974121,4473.717773,4366.922852,4442.051270,1489.000000,0.000000,12.000000,,,,0.000000,2.000000,2.000000,0.000000,2.000000,2.000000,2.000000,1.000000,2.000000,4.000000,4.000000,4.000000,4.000000,2.000000,4.000000,25.000000,,,,,,,,,,,,,,,,,,,,,,,,,,,,
1732081946.897597,1732081946.899160,80.000000,0.000000,4356.153809,4267.692383,4315.256348,4284.743652,4285.512695,4262.692383,4314.358887,4304.487305,4293.077148,4280.256348,4440.769043,4477.179688,4366.794922,4442.436035,1715.000000,0.000000,12.000000,,,,0.000000,2.000000,2.000000,0.000000,2.000000,2.000000,2.000000,1.000000,2.000000,4.000000,4.000000,4.000000,4.000000,2.000000,4.000000,25.000000,,,,,,,,,,,,,,,,,20.000000,0.000000,0.629551,0.379700,-0.600830,0.313843,0.982053,0.075693,0.009767,-75.321922,63.718620,29.973246
1732081946.905406,1732081946.906968,81.000000,0.000000,4346.922852,4267.179688,4315.512695,4281.282227,4278.974121,4267.820313,4314.487305,4310.641113,4301.666504,4284.871582,4443.717773,4476.794922,4364.743652,4442.179688,1688.000000,0.000000,12.000000,,,,0.000000,2.000000,2.000000,0.000000,2.000000,2.000000,2.000000,1.000000,2.000000,4.000000,4.000000,4.000000,4.000000,2.000000,4.000000,25.000000,,,,,,,,,,,,,,,,,,,,,,,,,,,,
1732081946.913214,1732081946.914976,82.000000,0.000000,4346.922852,4273.333496,4314.230957,4287.051270,4279.871582,4271.922852,4318.461426,4314.743652,4309.230957,4291.025879,4446.922852,4477.692383,4365.384766,4442.563965,1352.000000,0.000000,12.000000,,,,0.000000,2.000000,2.000000,0.000000,2.000000,2.000000,2.000000,1.000000,2.000000,4.000000,4.000000,4.000000,4.000000,2.000000,4.000000,25.000000,,,,,,,,,,,,,,,,,,,,,,,,,,,,
1732081946.921022,1732081946.922784,83.000000,0.000000,4359.487305,4277.692383,4317.820313,4292.820313,4282.820313,4265.128418,4319.743652,4310.128418,4298.974121,4292.051270,4450.000000,4482.307617,4370.897461,4449.743652,1489.000000,0.000000,12.000000,,,,0.000000,2.000000,2.000000,0.000000,2.000000,2.000000,2.000000,1.000000,2.000000,4.000000,4.000000,4.000000,4.000000,2.000000,4.000000,25.000000,,,,,,,,,,,,,,,,,,,,,,,,,,,,
1732081946.928831,1732081946.930692,84.000000,0.000000,4362.563965,4272.051270,4320.641113,4287.692383,4282.692383,4259.487305,4316.922852,4308.974121,4291.922852,4288.974121,4455.897461,4486.153809,4373.205078,4452.307617,1715.000000,0.000000,12.000000,,,,0.000000,2.000000,2.000000,0.000000,2.000000,2.000000,2.000000,1.000000,2.000000,4.000000,4.000000,4.000000,4.000000,2.000000,4.000000,25.000000,,,,,,,,,,,,,,,,,21.000000,0.000000,0.628863,0.380676,-0.600037,0.315552,0.994750,0.090831,0.004395,-75.672424,63.423748,29.978329
1732081946.936639,1732081946.938500,85.000000,0.000000,4353.846191,4270.384766,4319.615234,4285.641113,4279.743652,4264.358887,4314.871582,4312.563965,4300.128418,4291.922852,4460.128418,4490.000000,4370.256348,4451.282227,1688.000000,0.000000,12.000000,,,,0.000000,2.000000,2.000000,0.000000,2.000000,2.000000,2.000000,1.000000,2.000000,4.000000,4.000000,4.000000,4.000000,2.000000,4.000000,25.000000,,,,,,,,,,,,,,,,,,,,,,,,,,,,
1732081946.944447,1732081946.946109,86.000000,0.000000,4352.820313,4280.641113,4318.974121,4295.897461,4277.820313,4268.205078,4318.333496,4311.794922,4301.025879,4290.384766,4454.871582,4491.538574,4377.051270,4456.922852,1352.000000,0.000000,12.000000,,,,0.000000,2.000000,2.000000,0.000000,2.000000,2.000000,2.000000,1.000000,2.000000,4.000000,4.000000,4.000000,4.000000,2.000000,4.000000,25.000000,,,,,,,,,,,,,,,,,,,,,,,,,,,,
1732081946.952255,1732081946.953917,87.000000,0.000000,4357.948730,4285.512695,4321.410156,4300.897461,4290.769043,4263.333496,4317.307617,4308.846191,4293.974121,4281.538574,4450.897461,4491.794922,4379.871582,4458.846191,1489.000000,0.000000,12.000000,,,,0.000000,2.000000,2.000000,0.000000,2.000000,2.000000,2.000000,1.000000,2.000000,4.000000,4.000000,4.000000,4.000000,2.000000,4.000000,25.000000,,,,,,,,,,,,,,,,,,,,,,,,,,,,
1732081946.960064,1732081946.961625,88.000000,0.000000,4351.282227,4278.717773,4320.256348,4292.948730,4297.436035,4261.410156,4312.179688,4309.871582,4294.102539,4280.769043,4453.077148,4490.641113,4367.820313,4446.794922,1715.000000,0.000000,12.000000,,,,0.000000,2.000000,2.000000,0.000000,2.000000,2.000000,2.000000,1.000000,2.000000,4.000000,4.000000,4.000000,4.000000,2.000000,4.000000,25.000000,,,,,,,,,,,,,,,,,22.000000,0.000000,0.627416,0.383362,-0.598389,0.318298,1.008912,0.093273,0.001465,-75.836327,63.089905,29.954113
1732081946.967872,1732081946.969434,89.000000,0.000000,4340.512695,4278.333496,4315.512695,4290.256348,4280.769043,4262.820313,4312.436035,4310.512695,4296.025879,4286.282227,4449.358887,4485.897461,4364.230957,4436.666504,1688.000000,0.000000,12.000000,,,,0.000000,2.000000,2.000000,0.000000,2.000000,2.000000,2.000000,1.000000,2.000000,4.000000,4.000000,4.000000,4.000000,2.000000,4.000000,25.000000,,,,,,,,,,,,,,,,,,,,,,,,,,,,
1732081946.975680,1732081946.977042,90.000000,0.000000,4340.128418,4279.871582,4316.538574,4295.128418,4268.333496,4264.871582,4315.000000,4309.615234,4295.897461,4289.358887,4446.025879,4484.358887,4372.436035,4440.384766,1352.000000,0.000000,12.000000,,,,0.000000,2.000000,2.000000,0.000000,2.000000,2.000000,2.000000,1.000000,2.000000,4.000000,4.000000,4.000000,4.000000,2.000000,4.000000,25.000000,,,,,,,,,,,,,,,,,,,,,,,,,,,,
1732081946.983488,1732081946.984850,91.000000,0.000000,4340.897461,4269.615234,4318.333496,4288.077148,4279.230957,4270.256348,4315.769043,4310.128418,4301.025879,4291.153809,4446.282227,4485.512695,4370.256348,4440.641113,1489.000000,0.000000,12.000000,,,,0.000000,2.000000,2.000000,0.000000,2.000000,2.000000,2.000000,1.000000,2.000000,4.000000,4.000000,4.000000,4.000000,2.000000,4.000000,25.000000,,,,,,,,,,,,,,,,,,,,,,,,,,,,
1732081946.991296,1732081946.992559,92.000000,0.000000,4335.128418,4261.922852,4315.769043,4276.538574,4287.307617,4276.025879,4314.743652,4312.307617,4307.051270,4297.307617,4442.948730,4479.358887,4362.948730,4435.641113,1715.000000,0.000000,12.000000,,,,0.000000,2.000000,2.000000,0.000000,2.000000,2.000000,2.000000,1.000000,2.000000,4.000000,4.000000,4.000000,4.000000,2.000000,4.000000,25.000000,,,,,,,,,,,,,,,,,23.000000,0.000000,0.624398,0.389404,-0.596008,0.321350,0.977170,0.085460,-0.013674,-75.819092,62.939487,29.701166
1732081946.999105,1732081947.000367,93.000000,0.000000,4332.436035,4264.230957,4315.384766,4280.769043,4277.179688,4278.589844,4317.051270,4313.717773,4304.871582,4299.871582,4444.615234,4475.769043,4368.205078,4439.487305,1688.000000,0.000000,12.000000,,,,0.000000,2.000000,2.000000,0.000000,2.000000,2.000000,2.000000,1.000000,2.000000,4.000000,4.000000,4.000000,4.000000,2.000000,4.000000,25.000000,,,,,,,,,,,,,,,,,,,,,,,,,,,,
1732081947.006913,1732081947.007975,94.000000,0.000000,4333.205078,4266.922852,4316.666504,4290.641113,4274.230957,4276.153809,4316.282227,4312.692383,4302.051270,4295.641113,4449.358887,4480.769043,4372.179688,4444.615234,1352.000000,0.000000,12.000000,,,,0.000000,2.000000,2.000000,0.000000,2.000000,2.000000,2.000000,1.000000,2.000000,4.000000,4.000000,4.000000,4.000000,2.000000,4.000000,25.000000,,,,,,,,,,,,,,,,,,,,,,,,,,,,
1732081947.014721,1732081947.015783,95.000000,0.000000,4330.641113,4263.846191,4312.820313,4287.436035,4285.256348,4275.256348,4318.077148,4312.563965,4303.205078,4296.025879,4447.820313,4479.871582,4369.615234,4438.846191,1489.000000,0.000000,12.000000,,,,0.000000,2.000000,2.000000,0.000000,2.000000,2.000000,2.000000,1.000000,2.000000,4.000000,4.000000,4.000000,4.000000,2.000000,4.000000,25.000000,,,,,,,,,,,,,,,,,,,,,,,,,,,,
1732081947.022529,1732081947.023492,96.000000,0.000000,4331.153809,4261.666504,4310.000000,4287.692383,4280.512695,4279.230957,4318.846191,4309.487305,4298.589844,4294.743652,4445.000000,4475.512695,4368.974121,4431.025879,1715.000000,0.000000,12.000000,,,,0.000000,2.000000,2.000000,0.000000,2.000000,2.000000,2.000000,1.000000,2.000000,4.000000,4.000000,4.000000,4.000000,2.000000,4.000000,25.000000,,,,,,,,,,,,,,,,,24.000000,0.000000,0.623820,0.390930,-0.595581,0.321411,0.985472,0.103528,-0.004883,-75.940132,62.915985,29.564611
1732081947.030338,1732081947.031300,97.000000,0.000000,4330.256348,4265.897461,4314.230957,4299.487305,4268.077148,4283.461426,4315.128418,4305.769043,4291.025879,4285.512695,4441.922852,4476.282227,4364.358887,4428.461426,1688.000000,0.000000,12.000000,,,,0.000000,2.000000,2.000000,0.000000,2.000000,2.000000,2.000000,1.000000,2.000000,4.000000,4.000000,4.000000,4.000000,2.000000,4.000000,25.000000,,,,,,,,,,,,,,,,,,,,,,,,,,,,
1732081947.038146,1732081947.038908,98.000000,0.000000,4323.974121,4265.256348,4313.461426,4298.589844,4270.641113,4282.307617,4311.153809,4310.000000,4296.538574,4284.871582,4439.230957,4476.538574,4360.897461,4423.589844,1352.000000,0.000000,12.000000,,,,0.000000,2.000000,2.000000,0.000000,2.000000,2.000000,2.000000,1.000000,2.000000,4.000000,4.000000,4.000000,4.000000,2.000000,4.000000,25.000000,,,,,,,,,,,,,,,,,,,,,,,,,,,,
1732081947.045954,1732081947.046717,99.000000,0.000000,4316.922852,4253.846191,4308.077148,4283.974121,4275.000000,4277.948730,4312.051270,4312.820313,4303.077148,4293.077148,4439.615234,4475.641113,4363.333496,4418.974121,1489.000000,0.000000,12.000000,,,,0.000000,2.000000,2.000000,0.000000,2.000000,2.000000,2.000000,1.000000,2.000000,4.000000,4.000000,4.000000,4.000000,2.000000,4.000000,25.000000,,,,,,,,,,,,,,,,,,,,,,,,,,,,
1732081947.053763,1732081947.054425,100.000000,0.000000,4314.487305,4249.871582,4306.794922,4285.384766,4273.333496,4280.384766,4314.615234,4311.025879,4299.871582,4290.769043,4437.948730,4476.282227,4363.077148,4415.641113,1715.000000,0.000000,12.000000,,,,0.000000,2.000000,2.000000,0.000000,2.000000,2.000000,2.000000,1.000000,2.000000,4.000000,4.000000,4.000000,4.000000,2.000000,4.000000,25.000000,,,,,,,,,,,,,,,,,25.000000,0.000000,0.623015,0.393494,-0.595032,0.320862,1.006471,0.112807,-0.007813,-76.046509,63.058617,29.362335
1732081947.061571,1732081947.062233,101.000000,0.000000,4314.230957,4253.077148,4312.692383,4298.333496,4276.922852,4282.563965,4314.743652,4311.410156,4300.256348,4288.589844,4434.102539,4474.871582,4360.384766,4412.563965,1688.000000,0.000000,12.000000,,,,0.000000,2.000000,2.000000,0.000000,2.000000,2.000000,2.000000,1.000000,2.000000,4.000000,4.000000,4.000000,4.000000,2.000000,4.000000,25.000000,,,,,,,,,,,,,,,,,,,,,,,,,,,,
1732081947.069379,1732081947.070241,102.000000,0.000000,4314.230957,4248.077148,4315.384766,4296.153809,4277.563965,4281.794922,4315.512695,4307.948730,4299.487305,4298.589844,4433.205078,4474.358887,4360.897461,4412.692383,1352.000000,0.000000,12.000000,,,,0.000000,2.000000,2.000000,0.000000,2.000000,2.000000,2.000000,1.000000,2.000000,4.000000,4.000000,4.000000,4.000000,2.000000,4.000000,25.000000,,,,,,,,,,,,,,,,,,,,,,,,,,,,
1732081947.077187,1732081947.078049,103.000000,0.000000,4312.051270,4245.128418,4315.512695,4289.358887,4276.025879,4287.051270,4316.794922,4307.051270,4294.487305,4293.846191,4431.538574,4476.922852,4353.461426,4411.282227,1489.000000,0.000000,12.000000,,,,0.000000,2.000000,2.000000,0.000000,2.000000,2.000000,2.000000,1.000000,2.000000,4.000000,4.000000,4.000000,4.000000,2.000000,4.000000,25.000000,,,,,,,,,,,,,,,,,,,,,,,,,,,,
1732081947.084996,1732081947.085758,104.000000,0.000000,4309.615234,4250.641113,4315.641113,4292.436035,4294.871582,4292.307617,4315.128418,4310.128418,4292.820313,4281.282227,4427.307617,4471.410156,4344.487305,4407.692383,1715.000000,0.000000,12.000000,,,,0.000000,2.000000,2.000000,0.000000,2.000000,2.000000,2.000000,1.000000,2.000000,4.000000,4.000000,4.000000,4.000000,2.000000,4.000000,25.000000,,,,,,,,,,,,,,,,,26.000000,0.000000,0.621062,0.395691,-0.596436,0.319336,0.968380,0.091320,-0.047369,-76.261002,62.824146,29.445158
1732081947.092804,1732081947.093566,105.000000,0.000000,4306.922852,4250.641113,4316.153809,4295.512695,4305.128418,4290.512695,4313.333496,4304.871582,4295.000000,4288.333496,4426.410156,4461.538574,4350.000000,4407.307617,1688.000000,0.000000,12.000000,,,,0.000000,2.000000,2.000000,0.000000,2.000000,2.000000,2.000000,1.000000,2.000000,4.000000,4.000000,4.000000,4.000000,2.000000,4.000000,25.000000,,,,,,,,,,,,,,,,,,,,,,,,,,,,
1732081947.100612,1732081947.101574,106.000000,0.000000,4302.820313,4246.153809,4314.743652,4295.000000,4284.871582,4291.025879,4316.794922,4304.871582,4303.717773,4300.512695,4435.512695,4464.743652,4354.358887,4406.666504,1352.000000,0.000000,12.000000,,,,0.000000,2.000000,2.000000,0.000000,2.000000,2.000000,2.000000,1.000000,2.000000,4.000000,4.000000,4.000000,4.000000,2.000000,4.000000,25.000000,,,,,,,,,,,,,,,,,,,,,,,,,,,,
1732081947.108420,1732081947.109382,107.000000,0.000000,4300.897461,4246.794922,4316.282227,4292.948730,4272.179688,4296.153809,4320.256348,4319.743652,4317.563965,4301.922852,4440.384766,4471.410156,4351.794922,4404.358887,1489.000000,0.000000,12.000000,,,,0.000000,2.000000,2.000000,0.000000,2.000000,2.000000,2.000000,1.000000,2.000000,4.000000,4.000000,4.000000,4.000000,2.000000,4.000000,25.000000,,,,,,,,,,,,,,,,,,,,,,,,,,,,
1732081947.116229,1732081947.117290,108.000000,0.000000,4298.333496,4248.077148,4315.512695,4288.589844,4282.051270,4297.820313,4317.436035,4326.025879,4322.436035,4299.743652,4424.871582,4465.256348,4348.461426,4398.846191,1715.000000,0.000000,12.000000,,,,0.000000,2.000000,2.000000,0.000000,2.000000,2.000000,2.000000,1.000000,2.000000,4.000000,4.000000,4.000000,4.000000,2.000000,4.000000,25.000000,,,,,,,,,,,,,,,,,27.000000,0.000000,0.619892,0.395142,-0.598145,0.319092,0.924429,0.081553,-0.061531,-76.229744,62.654224,29.258911
1732081947.124037,1732081947.125098,109.000000,0.000000,4297.563965,4248.846191,4313.205078,4289.487305,4288.846191,4294.743652,4312.563965,4314.615234,4311.794922,4296.794922,4417.820313,4456.794922,4347.307617,4395.256348,1688.000000,0.000000,12.000000,,,,0.000000,2.000000,2.000000,0.000000,2.000000,2.000000,2.000000,1.000000,2.000000,4.000000,4.000000,4.000000,4.000000,2.000000,4.000000,25.000000,,,,,,,,,,,,,,,,,,,,,,,,,,,,
1732081947.131845,1732081947.133106,110.000000,0.000000,4300.256348,4248.717773,4316.794922,4294.358887,4281.153809,4290.769043,4314.230957,4307.820313,4300.000000,4287.436035,4431.153809,4459.615234,4351.153809,4398.589844,1352.000000,0.000000,12.000000,,,,0.000000,2.000000,2.000000,0.000000,2.000000,2.000000,2.000000,1.000000,2.000000,4.000000,4.000000,4.000000,4.000000,2.000000,4.000000,25.000000,,,,,,,,,,,,,,,,,,,,,,,,,,,,
1732081947.139653,1732081947.140914,111.000000,0.000000,4300.897461,4248.461426,4319.487305,4293.974121,4276.538574,4294.487305,4318.333496,4312.563965,4297.307617,4281.666504,4432.436035,4462.948730,4348.589844,4399.487305,1489.000000,0.000000,12.000000,,,,0.000000,2.000000,2.000000,0.000000,2.000000,2.000000,2.000000,1.000000,2.000000,4.000000,4.000000,4.000000,4.000000,2.000000,4.000000,25.000000,,,,,,,,,,,,,,,,,,,,,,,,,,,,
1732081947.147462,1732081947.148823,112.000000,0.000000,4300.128418,4250.641113,4319.230957,4293.974121,4283.205078,4302.307617,4321.538574,4319.615234,4304.102539,4284.871582,4424.743652,4460.128418,4342.307617,4396.025879,1715.000000,0.000000,12.000000,,,,0.000000,2.000000,2.000000,0.000000,2.000000,2.000000,2.000000,1.000000,2.000000,4.000000,4.000000,4.000000,4.000000,2.000000,4.000000,25.000000,,,,,,,,,,,,,,,,,28.000000,0.000000,0.619802,0.394592,-0.598633,0.319031,0.919057,0.085948,-0.030765,-76.312759,62.624920,29.304718
1732081947.155270,1732081947.156631,113.000000,0.000000,4298.461426,4250.641113,4315.897461,4295.512695,4292.307617,4304.487305,4321.922852,4321.282227,4306.538574,4283.846191,4425.256348,4457.436035,4341.025879,4394.230957,1688.000000,0.000000,12.000000,,,,0.000000,2.000000,2.000000,0.000000,2.000000,2.000000,2.000000,1.000000,2.000000,4.000000,4.000000,4.000000,4.000000,2.000000,4.000000,25.000000,,,,,,,,,,,,,,,,,,,,,,,,,,,,
1732081947.163078,1732081947.164639,114.000000,0.000000,4298.717773,4248.846191,4315.000000,4293.205078,4288.077148,4303.333496,4319.871582,4315.641113,4300.897461,4278.333496,4423.205078,4457.692383,4335.641113,4390.512695,1352.000000,0.000000,12.000000,,,,0.000000,2.000000,2.000000,0.000000,2.000000,2.000000,2.000000,1.000000,2.000000,4.000000,4.000000,4.000000,4.000000,2.000000,4.000000,25.000000,,,,,,,,,,,,,,,,,,,,,,,,,,,,
1732081947.170886,1732081947.172447,115.000000,0.000000,4301.538574,4248.846191,4314.102539,4293.205078,4288.846191,4294.615234,4310.384766,4307.948730,4302.307617,4279.743652,4419.871582,4459.871582,4333.205078,4389.230957,1489.000000,0.000000,12.000000,,,,0.000000,2.000000,2.000000,0.000000,2.000000,2.000000,2.000000,1.000000,2.000000,4.000000,4.000000,4.000000,4.000000,2.000000,4.000000,25.000000,,,,,,,,,,,,,,,,,,,,,,,,,,,,
1732081947.178695,1732081947.180355,116.000000,0.000000,4301.922852,4249.615234,4312.307617,4295.256348,4302.436035,4282.179688,4304.743652,4308.846191,4307.051270,4285.384766,4425.384766,4466.025879,4343.205078,4394.615234,1715.000000,0.000000,12.000000,,,,0.000000,2.000000,2.000000,0.000000,2.000000,2.000000,2.000000,1.000000,2.000000,4.000000,4.000000,4.000000,4.000000,2.000000,4.000000,25.000000,,,,,,,,,,,,,,,,,29.000000,0.000000,0.620101,0.393311,-0.599426,0.318542,0.970822,0.094738,-0.032719,-76.341667,62.771187,29.108488
1732081947.186503,1732081947.188163,117.000000,0.000000,4302.179688,4255.256348,4311.153809,4296.538574,4298.077148,4287.563965,4310.000000,4316.794922,4306.282227,4286.410156,4430.384766,4470.000000,4347.436035,4397.820313,1688.000000,0.000000,12.000000,,,,0.000000,2.000000,2.000000,0.000000,2.000000,2.000000,2.000000,1.000000,2.000000,4.000000,4.000000,4.000000,4.000000,2.000000,4.000000,25.000000,,,,,,,,,,,,,,,,,,,,,,,,,,,,
1732081947.194311,1732081947.196171,118.000000,0.000000,4309.358887,4265.512695,4316.153809,4304.358887,4288.205078,4297.692383,4315.641113,4314.743652,4299.358887,4281.025879,4423.974121,4464.358887,4340.897461,4396.282227,1352.000000,0.000000,12.000000,,,,0.000000,2.000000,2.000000,0.000000,2.000000,2.000000,2.000000,1.000000,2.000000,4.000000,4.000000,4.000000,4.000000,2.000000,4.000000,25.000000,,,,,,,,,,,,,,,,,,,,,,,,,,,,
1732081947.202119,1732081947.203980,119.000000,0.000000,4308.846191,4267.563965,4317.563965,4309.230957,4299.230957,4295.641113,4314.230957,4312.692383,4296.153809,4279.230957,4416.025879,4458.333496,4340.897461,4392.820313,1489.000000,0.000000,12.000000,,,,0.000000,2.000000,2.000000,0.000000,2.000000,2.000000,2.000000,1.000000,2.000000,4.000000,4.000000,4.000000,4.000000,2.000000,4.000000,25.000000,,,,,,,,,,,,,,,,,,,,,,,,,,,,
1732081947.209928,1732081947.211888,120.000000,0.000000,4300.769043,4264.615234,4312.051270,4304.358887,4305.128418,4294.743652,4311.666504,4316.282227,4300.384766,4283.846191,4415.641113,4458.717773,4341.922852,4384.871582,1715.000000,0.000000,12.000000,,,,0.000000,2.000000,2.000000,0.000000,2.000000,2.000000,2.000000,1.000000,2.000000,4.000000,4.000000,4.000000,4.000000,2.000000,4.000000,25.000000,,,,,,,,,,,,,,,,,30.000000,0.000000,0.620953,0.391113,-0.600403,0.317749,1.003541,0.112318,-0.039067,-76.315086,62.922993,28.949543
1732081947.217736,1732081947.219696,121.000000,0.000000,4301.922852,4265.384766,4312.307617,4304.487305,4297.051270,4297.051270,4314.487305,4312.436035,4300.512695,4284.358887,4416.025879,4458.717773,4335.641113,4382.179688,1688.000000,0.000000,12.000000,,,,0.000000,2.000000,2.000000,0.000000,2.000000,2.000000,2.000000,1.000000,2.000000,4.000000,4.000000,4.000000,4.000000,2.000000,4.000000,25.000000,,,,,,,,,,,,,,,,,,,,,,,,,,,,
1732081947.225544,1732081947.227704,122.000000,0.000000,4302.179688,4264.615234,4316.922852,4305.000000,4301.794922,4295.512695,4316.282227,4310.897461,4300.769043,4286.410156,4412.692383,4456.538574,4333.077148,4387.820313,1352.000000,0.000000,12.000000,,,,0.000000,2.000000,2.000000,0.000000,2.000000,2.000000,2.000000,1.000000,2.000000,4.000000,4.000000,4.000000,4.000000,2.000000,4.000000,25.000000,,,,,,,,,,,,,,,,,,,,,,,,,,,,
1732081947.233353,1732081947.235512,123.000000,0.000000,4298.717773,4261.538574,4316.153809,4299.102539,4307.820313,4295.641113,4315.000000,4312.692383,4303.461426,4294.102539,4413.077148,4458.205078,4335.128418,4390.256348,1489.000000,0.000000,12.000000,,,,0.000000,2.000000,2.000000,0.000000,2.000000,2.000000,2.000000,1.000000,2.000000,4.000000,4.000000,4.000000,4.000000,2.000000,4.000000,25.000000,,,,,,,,,,,,,,,,,,,,,,,,,,,,
1732081947.241161,1732081947.243420,124.000000,0.000000,4298.717773,4262.051270,4314.358887,4295.641113,4310.256348,4301.538574,4314.102539,4313.333496,4306.538574,4296.538574,4418.077148,4459.871582,4334.102539,4388.461426,1715.000000,0.000000,12.000000,,,,0.000000,2.000000,2.000000,0.000000,2.000000,2.000000,2.000000,1.000000,2.000000,4.000000,4.000000,4.000000,4.000000,2.000000,4.000000,25.000000,,,,,,,,,,,,,,,,,31.000000,0.000000,0.621136,0.390442,-0.600586,0.317871,0.993774,0.107435,-0.033696,-76.558556,62.969292,29.010796
1732081947.248969,1732081947.251228,125.000000,0.000000,4292.692383,4262.051270,4312.563965,4297.563965,4325.128418,4307.692383,4318.846191,4320.512695,4313.077148,4294.871582,4413.717773,4452.948730,4327.692383,4383.717773,1688.000000,0.000000,12.000000,,,,0.000000,2.000000,2.000000,0.000000,2.000000,2.000000,2.000000,1.000000,2.000000,4.000000,4.000000,4.000000,4.000000,2.000000,4.000000,25.000000,,,,,,,,,,,,,,,,,,,,,,,,,,,,
1732081947.256777,1732081947.259236,126.000000,0.000000,4292.307617,4263.717773,4311.282227,4300.769043,4322.820313,4300.641113,4314.230957,4321.282227,4315.128418,4302.307617,4412.179688,4448.461426,4326.538574,4381.666504,1352.000000,0.000000,12.000000,,,,0.000000,2.000000,2.000000,0.000000,2.000000,2.000000,2.000000,1.000000,2.000000,4.000000,4.000000,4.000000,4.000000,2.000000,4.000000,25.000000,,,,,,,,,,,,,,,,,,,,,,,,,,,,
1732081947.264586,1732081947.267045,127.000000,0.000000,4303.589844,4273.077148,4311.410156,4304.615234,4303.333496,4288.205078,4305.512695,4307.948730,4302.692383,4303.717773,4416.410156,4454.871582,4328.717773,4384.230957,12.000000,0.000000,12.000000,,,,0.000000,2.000000,2.000000,0.000000,2.000000,2.000000,2.000000,1.000000,2.000000,4.000000,4.000000,4.000000,4.000000,2.000000,4.000000,25.000000,,,,,,,,,,,,,,,,,,,,,,,,,,,,
1732081947.272394,1732081947.274953,0.000000,0.000000,4305.512695,4279.871582,4312.051270,4306.666504,4307.692383,4289.615234,4307.820313,4304.487305,4293.589844,4292.563965,4411.922852,4460.641113,4325.897461,4384.102539,0.000000,0.000000,12.000000,,,,0.000000,2.000000,2.000000,0.000000,2.000000,2.000000,2.000000,1.000000,2.000000,4.000000,4.000000,4.000000,4.000000,2.000000,4.000000,25.000000,,,,,,,,,,,,,,,,,0.000000,0.000000,0.621065,0.389343,-0.600952,0.318665,1.002564,0.098157,-0.025882,-76.515762,62.730125,29.070412
1732081947.280202,1732081947.282761,1.000000,0.000000,4302.436035,4282.307617,4316.794922,4306.666504,4319.615234,4299.615234,4317.563965,4314.102539,4299.230957,4290.128418,4410.641113,4460.128418,4326.410156,4384.871582,1287.000000,0.000000,12.000000,,,,0.000000,2.000000,2.000000,0.000000,2.000000,2.000000,2.000000,1.000000,2.000000,4.000000,4.000000,4.000000,4.000000,2.000000,4.000000,25.000000,,,,,,,,,,,,,,,,,,,,,,,,,,,,
1732081947.288010,1732081947.290769,2.000000,0.000000,4305.897461,4282.820313,4318.589844,4308.333496,4315.769043,4303.205078,4318.846191,4316.922852,4304.230957,4298.205078,4416.922852,4459.743652,4327.820313,4387.563965,1215.000000,0.000000,12.000000,,,,0.000000,2.000000,2.000000,0.000000,2.000000,2.000000,2.000000,1.000000,2.000000,4.000000,4.000000,4.000000,4.000000,2.000000,4.000000,25.000000,,,,,,,,,,,,,,,,,,,,,,,,,,,,
1732081947.295819,1732081947.298577,3.000000,0.000000,4305.512695,4286.025879,4314.871582,4307.307617,4322.436035,4293.974121,4312.820313,4309.487305,4299.487305,4299.615234,4418.589844,4460.000000,4327.563965,4386.282227,1167.000000,0.000000,12.000000,,,,0.000000,2.000000,2.000000,0.000000,2.000000,2.000000,2.000000,1.000000,2.000000,4.000000,4.000000,4.000000,4.000000,2.000000,4.000000,25.000000,,,,,,,,,,,,,,,,,,,,,,,,,,,,
1732081947.303627,1732081947.306385,4.000000,0.000000,4301.282227,4290.641113,4313.205078,4305.641113,4330.256348,4290.769043,4308.333496,4308.589844,4302.307617,4295.128418,4415.128418,4458.846191,4328.077148,4382.307617,1157.000000,0.000000,12.000000,,,,0.000000,2.000000,2.000000,0.000000,2.000000,2.000000,2.000000,1.000000,2.000000,4.000000,4.000000,4.000000,4.000000,2.000000,4.000000,25.000000,,,,,,,,,,,,,,,,,1.000000,0.000000,0.620258,0.387329,-0.601624,0.321411,0.963985,0.069833,-0.013674,-76.391098,62.581402,29.068699
1732081947.311435,1732081947.314194,5.000000,0.000000,4301.538574,4288.077148,4315.641113,4305.000000,4312.692383,4304.615234,4309.871582,4316.153809,4315.769043,4300.128418,4413.974121,4458.461426,4324.615234,4377.563965,1075.000000,0.000000,12.000000,,,,0.000000,2.000000,2.000000,0.000000,2.000000,2.000000,2.000000,1.000000,2.000000,4.000000,4.000000,4.000000,4.000000,2.000000,4.000000,25.000000,,,,,,,,,,,,,,,,,,,,,,,,,,,,
1732081947.319243,1732081947.321802,6.000000,0.000000,4304.102539,4282.051270,4313.717773,4306.025879,4306.282227,4304.743652,4310.512695,4316.538574,4317.563965,4308.846191,4417.307617,4457.692383,4323.589844,4376.153809,202.000000,0.000000,12.000000,,,,0.000000,2.000000,2.000000,0.000000,2.000000,2.000000,2.000000,1.000000,2.000000,4.000000,4.000000,4.000000,4.000000,2.000000,4.000000,25.000000,,,,,,,,,,,,,,,,,,,,,,,,,,,,
1732081947.327052,1732081947.329610,7.000000,0.000000,4304.102539,4282.563965,4312.436035,4305.641113,4324.102539,4290.897461,4311.666504,4313.205078,4303.846191,4305.256348,4421.410156,4458.717773,4330.000000,4379.487305,1205.000000,0.000000,12.000000,,,,0.000000,2.000000,2.000000,0.000000,2.000000,2.000000,2.000000,1.000000,2.000000,4.000000,4.000000,4.000000,4.000000,2.000000,4.000000,25.000000,,,,,,,,,,,,,,,,,,,,,,,,,,,,
1732081947.334860,1732081947.337318,8.000000,0.000000,4305.000000,4289.487305,4315.769043,4306.666504,4323.333496,4297.948730,4318.846191,4319.743652,4303.717773,4297.436035,4425.000000,4463.589844,4333.205078,4383.077148,1346.000000,0.000000,12.000000,,,,0.000000,2.000000,2.000000,0.000000,2.000000,2.000000,2.000000,1.000000,2.000000,4.000000,4.000000,4.000000,4.000000,2.000000,4.000000,25.000000,,,,,,,,,,,,,,,,,2.000000,0.000000,0.619542,0.387024,-0.601807,0.322815,0.972287,0.063973,-0.026859,-76.373459,62.344269,29.067314
1732081947.342668,1732081947.345127,9.000000,0.000000,4311.538574,4291.410156,4319.230957,4314.230957,4308.974121,4308.077148,4321.025879,4321.410156,4312.179688,4299.102539,4424.743652,4462.179688,4328.846191,4385.000000,1461.000000,0.000000,12.000000,,,,0.000000,2.000000,2.000000,0.000000,2.000000,2.000000,2.000000,1.000000,2.000000,4.000000,4.000000,4.000000,4.000000,2.000000,4.000000,25.000000,,,,,,,,,,,,,,,,,,,,,,,,,,,,
1732081947.350476,1732081947.352735,10.000000,0.000000,4314.487305,4291.282227,4318.461426,4318.205078,4315.641113,4298.846191,4316.922852,4314.615234,4304.615234,4299.487305,4423.461426,4453.974121,4327.436035,4384.615234,1342.000000,0.000000,12.000000,,,,0.000000,2.000000,2.000000,0.000000,2.000000,2.000000,2.000000,1.000000,2.000000,4.000000,4.000000,4.000000,4.000000,2.000000,4.000000,25.000000,,,,,,,,,,,,,,,,,,,,,,,,,,,,
1732081947.358285,1732081947.360543,11.000000,0.000000,4308.846191,4292.436035,4317.820313,4316.538574,4328.205078,4294.102539,4314.615234,4309.230957,4294.743652,4288.717773,4418.846191,4451.922852,4324.871582,4382.436035,1487.000000,0.000000,12.000000,,,,0.000000,2.000000,2.000000,0.000000,2.000000,2.000000,2.000000,1.000000,2.000000,4.000000,4.000000,4.000000,4.000000,2.000000,4.000000,25.000000,,,,,,,,,,,,,,,,,,,,,,,,,,,,
1732081947.366093,1732081947.368252,12.000000,0.000000,4308.077148,4292.563965,4319.743652,4317.307617,4322.436035,4296.794922,4315.897461,4311.025879,4302.948730,4289.743652,4415.384766,4454.358887,4326.410156,4382.948730,1710.000000,0.000000,12.000000,,,,0.000000,2.000000,2.000000,0.000000,2.000000,2.000000,2.000000,1.000000,2.000000,4.000000,4.000000,4.000000,4.000000,2.000000,4.000000,25.000000,,,,,,,,,,,,,,,,,3.000000,0.000000,0.619255,0.387024,-0.601807,0.323364,0.972287,0.063973,-0.026859,-76.745834,62.437191,29.022858
1732081947.373901,1732081947.376060,13.000000,0.000000,4312.179688,4289.358887,4319.102539,4317.436035,4325.256348,4294.358887,4313.333496,4316.538574,4317.307617,4300.384766,4418.974121,4453.077148,4333.205078,4384.102539,1690.000000,0.000000,12.000000,,,,0.000000,2.000000,2.000000,0.000000,2.000000,2.000000,2.000000,1.000000,2.000000,4.000000,4.000000,4.000000,4.000000,2.000000,4.000000,25.000000,,,,,,,,,,,,,,,,,,,,,,,,,,,,
1732081947.381709,1732081947.383668,14.000000,0.000000,4305.000000,4283.333496,4315.512695,4312.051270,4334.615234,4294.230957,4311.282227,4310.384766,4311.282227,4292.692383,4414.871582,4444.871582,4328.461426,4378.974121,1342.000000,0.000000,12.000000,,,,0.000000,2.000000,2.000000,0.000000,2.000000,2.000000,2.000000,1.000000,2.000000,4.000000,4.000000,4.000000,4.000000,2.000000,4.000000,25.000000,1.000000,25.000000,2.000000,2.000000,0.000000,2.000000,2.000000,2.000000,1.000000,2.000000,3.000000,4.000000,4.000000,4.000000,2.000000,4.000000,,,,,,,,,,,,
1732081947.389518,1732081947.391476,15.000000,0.000000,4303.589844,4283.205078,4314.102539,4315.000000,4317.692383,4296.666504,4313.077148,4299.487305,4292.948730,4282.179688,4409.743652,4443.333496,4325.256348,4379.230957,1487.000000,0.000000,12.000000,,,,0.000000,2.000000,2.000000,0.000000,2.000000,2.000000,2.000000,1.000000,2.000000,4.000000,4.000000,4.000000,4.000000,2.000000,4.000000,25.000000,,,,,,,,,,,,,,,,,,,,,,,,,,,,
1732081947.397326,1732081947.399185,16.000000,0.000000,4313.077148,4285.641113,4316.794922,4322.436035,4309.743652,4294.358887,4316.538574,4307.563965,4292.563965,4286.025879,4415.128418,4451.666504,4333.333496,4383.974121,0.000000,0.000000,12.000000,,,,0.000000,2.000000,2.000000,0.000000,2.000000,2.000000,2.000000,1.000000,2.000000,4.000000,4.000000,4.000000,4.000000,2.000000,4.000000,25.000000,,,,,,,,,,,,,,,,,4.000000,0.000000,0.619020,0.388245,-0.600769,0.324280,0.972775,0.086925,-0.024905,-76.864128,62.544125,28.871847
1732081947.405134,1732081947.406993,17.000000,0.000000,4313.333496,4283.589844,4315.256348,4317.948730,4332.051270,4297.307617,4315.641113,4322.563965,4305.641113,4282.436035,4414.102539,4454.743652,4332.692383,4376.922852,0.000000,0.000000,12.000000,,,,0.000000,2.000000,2.000000,0.000000,2.000000,2.000000,2.000000,1.000000,2.000000,4.000000,4.000000,4.000000,4.000000,2.000000,4.000000,25.000000,,,,,,,,,,,,,,,,,,,,,,,,,,,,
1732081947.412943,1732081947.414601,18.000000,0.000000,4308.205078,4282.179688,4311.282227,4314.743652,4334.102539,4303.333496,4316.410156,4321.538574,4306.153809,4277.051270,4410.384766,4450.897461,4323.461426,4370.512695,0.000000,0.000000,12.000000,,,,0.000000,2.000000,2.000000,0.000000,2.000000,2.000000,2.000000,1.000000,2.000000,4.000000,4.000000,4.000000,4.000000,2.000000,4.000000,25.000000,,,,,,,,,,,,,,,,,,,,,,,,,,,,
1732081947.420751,1732081947.422410,19.000000,0.000000,4309.230957,4286.922852,4312.307617,4320.897461,4321.538574,4300.641113,4316.794922,4314.358887,4298.333496,4286.025879,4419.102539,4453.589844,4327.563965,4379.102539,0.000000,0.000000,12.000000,,,,0.000000,2.000000,2.000000,0.000000,2.000000,2.000000,2.000000,1.000000,2.000000,4.000000,4.000000,4.000000,4.000000,2.000000,4.000000,25.000000,,,,,,,,,,,,,,,,,,,,,,,,,,,,
1732081947.428559,1732081947.430318,20.000000,0.000000,4311.025879,4288.077148,4318.333496,4323.717773,4330.512695,4300.000000,4313.077148,4316.282227,4299.743652,4286.922852,4424.102539,4460.897461,4339.102539,4385.897461,0.000000,0.000000,12.000000,,,,0.000000,2.000000,2.000000,0.000000,2.000000,2.000000,2.000000,1.000000,2.000000,4.000000,4.000000,4.000000,4.000000,2.000000,4.000000,25.000000,,,,,,,,,,,,,,,,,5.000000,0.000000,0.619134,0.389771,-0.599365,0.324829,0.995239,0.079111,-0.018557,-76.979942,62.530743,28.691196
1732081947.436367,1732081947.438126,21.000000,0.000000,4307.179688,4283.205078,4316.666504,4320.897461,4334.358887,4302.563965,4310.000000,4317.051270,4307.948730,4285.641113,4418.846191,4455.384766,4336.666504,4380.128418,0.000000,0.000000,12.000000,,,,0.000000,2.000000,2.000000,0.000000,2.000000,2.000000,2.000000,1.000000,2.000000,4.000000,4.000000,4.000000,4.000000,2.000000,4.000000,25.000000,,,,,,,,,,,,,,,,,,,,,,,,,,,,
1732081947.444176,1732081947.446134,22.000000,0.000000,4300.000000,4278.846191,4311.538574,4316.538574,4322.179688,4297.436035,4312.820313,4308.846191,4311.025879,4299.615234,4419.487305,4447.820313,4332.179688,4377.436035,0.000000,0.000000,12.000000,,,,0.000000,2.000000,2.000000,0.000000,2.000000,2.000000,2.000000,1.000000,2.000000,4.000000,4.000000,4.000000,4.000000,2.000000,4.000000,25.000000,,,,,,,,,,,,,,,,,,,,,,,,,,,,
1732081947.451984,1732081947.453942,23.000000,0.000000,4296.410156,4279.487305,4310.769043,4314.102539,4321.538574,4293.717773,4313.717773,4302.820313,4304.743652,4302.436035,4423.077148,4448.077148,4340.256348,4385.384766,0.000000,0.000000,12.000000,,,,0.000000,2.000000,2.000000,0.000000,2.000000,2.000000,2.000000,1.000000,2.000000,4.000000,4.000000,4.000000,4.000000,2.000000,4.000000,25.000000,,,,,,,,,,,,,,,,,,,,,,,,,,,,
1732081947.459792,1732081947.461650,24.000000,0.000000,4297.948730,4282.436035,4313.333496,4314.615234,4333.205078,4301.025879,4311.410156,4312.948730,4306.410156,4291.410156,4414.871582,4442.820313,4340.641113,4382.563965,0.000000,0.000000,12.000000,,,,0.000000,2.000000,2.000000,0.000000,2.000000,2.000000,2.000000,1.000000,2.000000,4.000000,4.000000,4.000000,4.000000,2.000000,4.000000,25.000000,,,,,,,,,,,,,,,,,6.000000,0.000000,0.619264,0.390442,-0.598694,0.325012,0.985472,0.070321,-0.012697,-76.838753,62.346569,28.718203
1732081947.467600,1732081947.469459,25.000000,0.000000,4296.282227,4279.743652,4312.051270,4313.974121,4342.307617,4304.230957,4311.794922,4320.000000,4313.846191,4293.846191,4411.410156,4439.230957,4330.641113,4371.410156,0.000000,0.000000,12.000000,,,,0.000000,2.000000,2.000000,0.000000,2.000000,2.000000,2.000000,1.000000,2.000000,4.000000,4.000000,4.000000,4.000000,2.000000,4.000000,25.000000,,,,,,,,,,,,,,,,,,,,,,,,,,,,
1732081947.475408,1732081947.477467,26.000000,0.000000,4292.307617,4277.563965,4310.769043,4307.948730,4334.743652,4301.282227,4314.230957,4318.205078,4312.820313,4301.666504,4421.538574,4448.846191,4332.692383,4372.948730,0.000000,0.000000,12.000000,,,,0.000000,2.000000,2.000000,0.000000,2.000000,2.000000,2.000000,1.000000,2.000000,4.000000,4.000000,4.000000,4.000000,2.000000,4.000000,25.000000,,,,,,,,,,,,,,,,,,,,,,,,,,,,
1732081947.483217,1732081947.485275,27.000000,0.000000,4294.487305,4280.000000,4312.692383,4306.538574,4320.000000,4304.358887,4318.077148,4323.077148,4310.512695,4303.333496,4427.307617,4457.179688,4341.153809,4380.384766,0.000000,0.000000,12.000000,,,,0.000000,2.000000,2.000000,0.000000,2.000000,2.000000,2.000000,1.000000,2.000000,4.000000,4.000000,4.000000,4.000000,2.000000,4.000000,25.000000,,,,,,,,,,,,,,,,,,,,,,,,,,,,
1732081947.491025,1732081947.492983,28.000000,0.000000,4294.871582,4280.000000,4315.641113,4311.153809,4320.384766,4303.077148,4317.436035,4325.512695,4313.589844,4305.384766,4423.205078,4455.000000,4336.922852,4376.794922,0.000000,0.000000,12.000000,,,,0.000000,2.000000,2.000000,0.000000,2.000000,2.000000,2.000000,1.000000,2.000000,4.000000,4.000000,4.000000,4.000000,2.000000,4.000000,25.000000,,,,,,,,,,,,,,,,,7.000000,0.000000,0.619191,0.390686,-0.598511,0.325195,0.988402,0.077646,-0.020999,-76.774391,62.280720,28.581743
1732081947.498833,1732081947.500791,29.000000,0.000000,4289.230957,4277.179688,4314.230957,4309.358887,4327.820313,4300.897461,4314.871582,4320.384766,4312.563965,4301.282227,4418.717773,4450.384766,4331.153809,4369.871582,0.000000,0.000000,12.000000,,,,0.000000,2.000000,2.000000,0.000000,2.000000,2.000000,2.000000,1.000000,2.000000,4.000000,4.000000,4.000000,4.000000,2.000000,4.000000,25.000000,,,,,,,,,,,,,,,,,,,,,,,,,,,,
1732081947.506642,1732081947.508799,30.000000,0.000000,4289.102539,4278.974121,4310.512695,4308.077148,4325.000000,4301.025879,4312.948730,4316.282227,4310.384766,4298.974121,4425.641113,4450.897461,4334.102539,4374.487305,0.000000,0.000000,12.000000,,,,0.000000,2.000000,2.000000,0.000000,2.000000,2.000000,2.000000,1.000000,2.000000,4.000000,4.000000,4.000000,4.000000,2.000000,4.000000,25.000000,,,,,,,,,,,,,,,,,,,,,,,,,,,,
1732081947.514450,1732081947.516608,31.000000,0.000000,4291.282227,4281.666504,4313.461426,4314.743652,4320.512695,4300.000000,4315.769043,4314.871582,4310.897461,4302.563965,4428.974121,4452.307617,4335.897461,4379.615234,0.000000,0.000000,12.000000,,,,0.000000,2.000000,2.000000,0.000000,2.000000,2.000000,2.000000,1.000000,2.000000,4.000000,4.000000,4.000000,4.000000,2.000000,4.000000,25.000000,,,,,,,,,,,,,,,,,,,,,,,,,,,,
1732081947.522258,1732081947.524516,32.000000,0.000000,4289.743652,4280.384766,4314.743652,4315.256348,4329.102539,4302.051270,4316.282227,4312.051270,4307.436035,4296.153809,4415.769043,4449.102539,4328.461426,4373.077148,0.000000,0.000000,12.000000,,,,0.000000,2.000000,2.000000,0.000000,2.000000,2.000000,2.000000,1.000000,2.000000,4.000000,4.000000,4.000000,4.000000,2.000000,4.000000,25.000000,,,,,,,,,,,,,,,,,8.000000,0.000000,0.618586,0.391296,-0.598572,0.325500,0.964473,0.095715,-0.025394,-76.707253,62.234051,28.434546
1732081947.530066,1732081947.532324,33.000000,0.000000,4288.589844,4277.563965,4311.282227,4305.512695,4336.794922,4304.615234,4314.743652,4311.282227,4308.846191,4293.077148,4411.025879,4445.000000,4326.922852,4367.820313,0.000000,0.000000,12.000000,,,,0.000000,2.000000,2.000000,0.000000,2.000000,2.000000,2.000000,1.000000,2.000000,4.000000,4.000000,4.000000,4.000000,2.000000,4.000000,25.000000,,,,,,,,,,,,,,,,,,,,,,,,,,,,
1732081947.537875,1732081947.540332,34.000000,0.000000,4291.922852,4278.333496,4310.769043,4307.563965,4323.077148,4302.179688,4317.051270,4315.256348,4316.153809,4305.128418,4424.230957,4448.077148,4339.102539,4373.589844,0.000000,0.000000,12.000000,,,,0.000000,2.000000,2.000000,0.000000,2.000000,2.000000,2.000000,1.000000,2.000000,4.000000,4.000000,4.000000,4.000000,2.000000,4.000000,25.000000,,,,,,,,,,,,,,,,,,,,,,,,,,,,
1732081947.545683,1732081947.548140,35.000000,0.000000,4292.820313,4281.025879,4314.102539,4316.922852,4310.512695,4302.692383,4320.769043,4321.794922,4314.358887,4304.487305,4424.487305,4451.794922,4338.077148,4373.333496,0.000000,0.000000,12.000000,,,,0.000000,2.000000,2.000000,0.000000,2.000000,2.000000,2.000000,1.000000,2.000000,4.000000,4.000000,4.000000,4.000000,2.000000,4.000000,25.000000,,,,,,,,,,,,,,,,,,,,,,,,,,,,
1732081947.553491,1732081947.556048,36.000000,0.000000,4293.589844,4280.641113,4312.436035,4315.256348,4321.282227,4305.641113,4317.820313,4325.897461,4309.102539,4293.077148,4413.717773,4445.769043,4326.153809,4363.205078,0.000000,0.000000,12.000000,,,,0.000000,2.000000,2.000000,0.000000,2.000000,2.000000,2.000000,1.000000,2.000000,4.000000,4.000000,4.000000,4.000000,2.000000,4.000000,25.000000,,,,,,,,,,,,,,,,,9.000000,0.000000,0.618345,0.391541,-0.598694,0.325439,0.963985,0.074228,-0.019045,-77.067879,62.064579,28.485315
1732081947.561299,1732081947.563856,37.000000,0.000000,4296.666504,4278.461426,4313.461426,4308.974121,4328.205078,4301.922852,4314.871582,4322.436035,4313.333496,4300.384766,4421.538574,4446.794922,4332.179688,4366.410156,0.000000,0.000000,12.000000,,,,0.000000,2.000000,2.000000,0.000000,2.000000,2.000000,2.000000,1.000000,2.000000,4.000000,4.000000,4.000000,4.000000,2.000000,4.000000,25.000000,,,,,,,,,,,,,,,,,,,,,,,,,,,,
1732081947.569108,1732081947.571864,38.000000,0.000000,4296.666504,4280.000000,4316.153809,4311.794922,4318.077148,4300.128418,4316.666504,4316.538574,4316.922852,4313.077148,4431.666504,4456.922852,4340.641113,4380.128418,0.000000,0.000000,12.000000,,,,0.000000,2.000000,2.000000,0.000000,2.000000,2.000000,2.000000,1.000000,2.000000,4.000000,4.000000,4.000000,4.000000,2.000000,4.000000,25.000000,,,,,,,,,,,,,,,,,,,,,,,,,,,,
1732081947.576916,1732081947.579673,39.000000,0.000000,4295.128418,4283.205078,4313.974121,4315.897461,4321.538574,4300.512695,4316.538574,4313.333496,4310.641113,4307.948730,4427.307617,4458.846191,4334.871582,4380.000000,0.000000,0.000000,12.000000,,,,0.000000,2.000000,2.000000,0.000000,2.000000,2.000000,2.000000,1.000000,2.000000,4.000000,4.000000,4.000000,4.000000,2.000000,4.000000,25.000000,,,,,,,,,,,,,,,,,,,,,,,,,,,,
1732081947.584724,1732081947.587581,40.000000,0.000000,4293.077148,4280.897461,4310.384766,4312.563965,4333.846191,4296.794922,4315.641113,4313.333496,4307.179688,4295.128418,4422.563965,4451.025879,4328.077148,4368.077148,0.000000,0.000000,12.000000,,,,0.000000,2.000000,2.000000,0.000000,2.000000,2.000000,2.000000,1.000000,2.000000,4.000000,4.000000,4.000000,4.000000,2.000000,4.000000,25.000000,,,,,,,,,,,,,,,,,10.000000,0.000000,0.618345,0.391541,-0.598694,0.325439,0.985960,0.083995,-0.032719,-77.359978,62.002308,28.601439
1732081947.592533,1732081947.595389,41.000000,0.000000,4290.000000,4280.128418,4313.205078,4308.077148,4324.487305,4299.358887,4316.794922,4317.436035,4309.615234,4291.666504,4417.563965,4443.846191,4328.589844,4362.307617,0.000000,0.000000,12.000000,,,,0.000000,2.000000,2.000000,0.000000,2.000000,2.000000,2.000000,1.000000,2.000000,4.000000,4.000000,4.000000,4.000000,2.000000,4.000000,25.000000,,,,,,,,,,,,,,,,,,,,,,,,,,,,
1732081947.600341,1732081947.603397,42.000000,0.000000,4288.589844,4281.538574,4314.743652,4308.077148,4309.358887,4306.410156,4317.563965,4319.871582,4310.897461,4298.077148,4415.256348,4445.384766,4330.000000,4367.051270,0.000000,0.000000,12.000000,,,,0.000000,2.000000,2.000000,0.000000,2.000000,2.000000,2.000000,1.000000,2.000000,4.000000,4.000000,4.000000,4.000000,2.000000,4.000000,25.000000,,,,,,,,,,,,,,,,,,,,,,,,,,,,
1732081947.608149,1732081947.611205,43.000000,0.000000,4293.717773,4281.538574,4315.000000,4312.051270,4314.487305,4302.820313,4316.794922,4316.538574,4308.205078,4299.230957,4423.461426,4447.820313,4334.487305,4372.051270,0.000000,0.000000,12.000000,,,,0.000000,2.000000,2.000000,0.000000,2.000000,2.000000,2.000000,1.000000,2.000000,4.000000,4.000000,4.000000,4.000000,2.000000,4.000000,25.000000,,,,,,,,,,,,,,,,,,,,,,,,,,,,
1732081947.615957,1732081947.619113,44.000000,0.000000,4294.871582,4284.230957,4315.641113,4314.230957,4325.641113,4299.615234,4317.436035,4318.974121,4306.282227,4294.871582,4423.846191,4446.025879,4335.641113,4368.974121,0.000000,0.000000,12.000000,,,,0.000000,2.000000,2.000000,0.000000,2.000000,2.000000,2.000000,1.000000,2.000000,4.000000,4.000000,4.000000,4.000000,2.000000,4.000000,25.000000,,,,,,,,,,,,,,,,,11.000000,0.000000,0.618345,0.391479,-0.598999,0.324951,0.986937,0.076670,-0.031254,-77.196587,61.981873,28.612165
1732081947.623765,1732081947.626921,45.000000,0.000000,4293.077148,4286.282227,4313.846191,4315.512695,4323.846191,4303.205078,4318.461426,4325.897461,4309.743652,4299.615234,4421.922852,4448.846191,4335.000000,4371.025879,0.000000,0.000000,12.000000,,,,0.000000,2.000000,2.000000,0.000000,2.000000,2.000000,2.000000,1.000000,2.000000,4.000000,4.000000,4.000000,4.000000,2.000000,4.000000,25.000000,,,,,,,,,,,,,,,,,,,,,,,,,,,,
1732081947.631574,1732081947.634929,46.000000,0.000000,4295.256348,4285.256348,4312.307617,4315.256348,4325.256348,4301.410156,4318.333496,4322.948730,4312.692383,4305.256348,4429.615234,4458.205078,4336.538574,4378.077148,0.000000,0.000000,12.000000,,,,0.000000,2.000000,2.000000,0.000000,2.000000,2.000000,2.000000,1.000000,2.000000,4.000000,4.000000,4.000000,4.000000,2.000000,4.000000,25.000000,,,,,,,,,,,,,,,,,,,,,,,,,,,,
1732081947.639382,1732081947.642738,47.000000,0.000000,4295.000000,4282.179688,4311.410156,4313.205078,4323.461426,4295.897461,4315.384766,4317.179688,4310.512695,4302.179688,4432.307617,4460.897461,4336.666504,4378.589844,0.000000,0.000000,12.000000,,,,0.000000,2.000000,2.000000,0.000000,2.000000,2.000000,2.000000,1.000000,2.000000,4.000000,4.000000,4.000000,4.000000,2.000000,4.000000,25.000000,,,,,,,,,,,,,,,,,,,,,,,,,,,,
1732081947.647190,1732081947.650446,48.000000,0.000000,4295.000000,4286.538574,4310.769043,4318.077148,4313.461426,4297.307617,4316.922852,4317.307617,4306.410156,4301.410156,4429.871582,4456.538574,4336.282227,4379.871582,0.000000,0.000000,12.000000,,,,0.000000,2.000000,2.000000,0.000000,2.000000,2.000000,2.000000,1.000000,2.000000,4.000000,4.000000,4.000000,4.000000,2.000000,4.000000,25.000000,,,,,,,,,,,,,,,,,12.000000,0.000000,0.618354,0.391235,-0.599182,0.324890,0.982053,0.075693,-0.023440,-76.997566,61.956982,28.690855
1732081947.654998,1732081947.658254,49.000000,0.000000,4296.538574,4290.256348,4310.512695,4323.333496,4313.846191,4301.153809,4318.333496,4319.102539,4307.179688,4306.153809,4431.153809,4458.461426,4335.000000,4383.589844,0.000000,0.000000,12.000000,,,,0.000000,2.000000,2.000000,0.000000,2.000000,2.000000,2.000000,1.000000,2.000000,4.000000,4.000000,4.000000,4.000000,2.000000,4.000000,25.000000,,,,,,,,,,,,,,,,,,,,,,,,,,,,
1732081947.662807,1732081947.665863,50.000000,0.000000,4291.282227,4287.307617,4312.948730,4319.743652,4325.128418,4300.256348,4317.436035,4318.974121,4310.128418,4309.102539,4431.025879,4461.666504,4333.077148,4377.692383,0.000000,0.000000,12.000000,,,,0.000000,2.000000,2.000000,0.000000,2.000000,2.000000,2.000000,1.000000,2.000000,4.000000,4.000000,4.000000,4.000000,2.000000,4.000000,25.000000,,,,,,,,,,,,,,,,,,,,,,,,,,,,
1732081947.670615,1732081947.673671,51.000000,0.000000,4286.666504,4285.769043,4312.563965,4313.461426,4333.846191,4300.000000,4316.794922,4316.922852,4310.641113,4307.948730,4426.794922,4450.641113,4332.307617,4368.846191,0.000000,0.000000,12.000000,,,,0.000000,2.000000,2.000000,0.000000,2.000000,2.000000,2.000000,1.000000,2.000000,4.000000,4.000000,4.000000,4.000000,2.000000,4.000000,25.000000,,,,,,,,,,,,,,,,,,,,,,,,,,,,
1732081947.678423,1732081947.681579,52.000000,0.000000,4287.692383,4287.948730,4313.974121,4316.025879,4331.538574,4304.487305,4318.717773,4317.179688,4309.102539,4304.230957,4426.666504,4443.461426,4332.563965,4367.948730,0.000000,0.000000,12.000000,,,,0.000000,2.000000,2.000000,0.000000,2.000000,2.000000,2.000000,1.000000,2.000000,4.000000,4.000000,4.000000,4.000000,2.000000,4.000000,25.000000,,,,,,,,,,,,,,,,,13.000000,0.000000,0.617909,0.390503,-0.599854,0.325378,0.971798,0.083995,-0.019045,-76.726364,61.996822,28.644592
1732081947.686231,1732081947.689387,53.000000,0.000000,4287.436035,4289.358887,4316.025879,4319.615234,4321.922852,4308.846191,4318.589844,4323.077148,4310.000000,4303.461426,4427.307617,4453.974121,4335.641113,4368.333496,0.000000,0.000000,12.000000,,,,0.000000,2.000000,2.000000,0.000000,2.000000,2.000000,2.000000,1.000000,2.000000,4.000000,4.000000,4.000000,4.000000,2.000000,4.000000,25.000000,,,,,,,,,,,,,,,,,,,,,,,,,,,,
1732081947.694040,1732081947.696996,54.000000,0.000000,4283.077148,4285.641113,4313.589844,4317.563965,4318.333496,4311.666504,4317.820313,4323.846191,4310.897461,4302.948730,4424.615234,4461.538574,4332.051270,4367.436035,0.000000,0.000000,12.000000,,,,0.000000,2.000000,2.000000,0.000000,2.000000,2.000000,2.000000,1.000000,2.000000,4.000000,4.000000,4.000000,4.000000,2.000000,4.000000,25.000000,,,,,,,,,,,,,,,,,,,,,,,,,,,,
1732081947.701848,1732081947.704804,55.000000,0.000000,4282.307617,4286.410156,4310.128418,4318.333496,4323.974121,4310.384766,4317.307617,4317.307617,4306.666504,4299.487305,4423.717773,4458.717773,4327.820313,4368.333496,0.000000,0.000000,12.000000,,,,0.000000,2.000000,2.000000,0.000000,2.000000,2.000000,2.000000,1.000000,2.000000,4.000000,4.000000,4.000000,4.000000,2.000000,4.000000,25.000000,,,,,,,,,,,,,,,,,,,,,,,,,,,,
1732081947.709656,1732081947.712512,56.000000,0.000000,4283.974121,4292.692383,4314.871582,4321.794922,4323.333496,4303.846191,4315.384766,4314.615234,4301.666504,4298.077148,4426.538574,4459.615234,4333.461426,4370.512695,0.000000,0.000000,12.000000,,,,0.000000,2.000000,2.000000,0.000000,2.000000,2.000000,2.000000,1.000000,2.000000,4.000000,4.000000,4.000000,4.000000,2.000000,4.000000,25.000000,,,,,,,,,,,,,,,,,14.000000,0.000000,0.617909,0.390503,-0.599854,0.325378,0.971798,0.083995,-0.019045,-76.521690,61.969093,28.472120
1732081947.717465,1732081947.720320,57.000000,0.000000,4286.794922,4296.794922,4317.948730,4323.846191,4317.436035,4302.051270,4317.307617,4312.948730,4302.563965,4300.384766,4428.974121,4462.692383,4335.512695,4371.025879,0.000000,0.000000,12.000000,,,,0.000000,2.000000,2.000000,0.000000,2.000000,2.000000,2.000000,1.000000,2.000000,4.000000,4.000000,4.000000,4.000000,2.000000,4.000000,25.000000,,,,,,,,,,,,,,,,,,,,,,,,,,,,
1732081947.725273,1732081947.727929,58.000000,0.000000,4290.128418,4297.563965,4314.230957,4319.358887,4320.128418,4303.205078,4315.897461,4309.358887,4305.641113,4303.589844,4424.871582,4461.025879,4328.846191,4366.538574,0.000000,0.000000,12.000000,,,,0.000000,2.000000,2.000000,0.000000,2.000000,2.000000,2.000000,1.000000,2.000000,4.000000,4.000000,4.000000,4.000000,2.000000,4.000000,25.000000,,,,,,,,,,,,,,,,,,,,,,,,,,,,
1732081947.733081,1732081947.735737,59.000000,0.000000,4285.897461,4295.512695,4310.128418,4310.384766,4327.179688,4299.102539,4310.512695,4312.563965,4307.563965,4303.333496,4421.282227,4455.641113,4326.794922,4363.077148,0.000000,0.000000,12.000000,,,,0.000000,2.000000,2.000000,0.000000,2.000000,2.000000,2.000000,1.000000,2.000000,4.000000,4.000000,4.000000,4.000000,2.000000,4.000000,25.000000,,,,,,,,,,,,,,,,,,,,,,,,,,,,
1732081947.740889,1732081947.743445,60.000000,0.000000,4280.000000,4295.769043,4309.358887,4310.512695,4323.974121,4300.769043,4312.692383,4318.846191,4308.461426,4300.256348,4417.820313,4448.846191,4328.846191,4363.205078,0.000000,0.000000,12.000000,,,,0.000000,2.000000,2.000000,0.000000,2.000000,2.000000,2.000000,1.000000,2.000000,4.000000,4.000000,4.000000,4.000000,2.000000,4.000000,25.000000,,,,,,,,,,,,,,,,,15.000000,0.000000,0.617570,0.389709,-0.600586,0.325623,0.931266,0.086436,-0.021487,-76.459236,61.796631,28.402416
1732081947.748698,1732081947.751253,61.000000,0.000000,4280.000000,4299.487305,4310.128418,4320.384766,4315.256348,4311.922852,4319.615234,4320.256348,4306.282227,4295.384766,4415.384766,4448.205078,4328.974121,4362.563965,0.000000,0.000000,12.000000,,,,0.000000,2.000000,2.000000,0.000000,2.000000,2.000000,2.000000,1.000000,2.000000,4.000000,4.000000,4.000000,4.000000,2.000000,4.000000,25.000000,,,,,,,,,,,,,,,,,,,,,,,,,,,,
1732081947.756506,1732081947.759261,62.000000,0.000000,4282.051270,4301.538574,4310.769043,4324.743652,4320.128418,4314.615234,4316.025879,4317.692383,4306.025879,4295.769043,4420.897461,4455.512695,4329.487305,4362.948730,0.000000,0.000000,12.000000,,,,0.000000,2.000000,2.000000,0.000000,2.000000,2.000000,2.000000,1.000000,2.000000,4.000000,4.000000,4.000000,4.000000,2.000000,4.000000,25.000000,,,,,,,,,,,,,,,,,,,,,,,,,,,,
1732081947.764314,1732081947.767070,63.000000,0.000000,4280.128418,4300.897461,4311.410156,4318.717773,4322.692383,4302.307617,4312.051270,4313.717773,4308.077148,4297.436035,4423.077148,4459.743652,4329.358887,4366.410156,0.000000,0.000000,12.000000,,,,0.000000,2.000000,2.000000,0.000000,2.000000,2.000000,2.000000,1.000000,2.000000,4.000000,4.000000,4.000000,4.000000,2.000000,4.000000,25.000000,,,,,,,,,,,,,,,,,,,,,,,,,,,,
1732081947.772122,1732081947.774978,64.000000,0.000000,4276.794922,4303.589844,4312.563965,4316.282227,4323.205078,4295.384766,4314.487305,4311.282227,4303.717773,4295.256348,4421.666504,4458.717773,4327.948730,4367.948730,0.000000,0.000000,12.000000,,,,0.000000,2.000000,2.000000,0.000000,2.000000,2.000000,2.000000,1.000000,2.000000,4.000000,4.000000,4.000000,4.000000,2.000000,4.000000,25.000000,,,,,,,,,,,,,,,,,16.000000,0.000000,0.617566,0.389587,-0.600769,0.325439,0.981077,0.068368,-0.028324,-76.775314,61.640270,28.354290
1732081947.779931,1732081947.782786,65.000000,0.000000,4280.769043,4306.538574,4316.410156,4316.025879,4330.128418,4297.307617,4313.974121,4309.358887,4298.717773,4295.000000,4426.282227,4462.948730,4331.410156,4371.922852,1297.000000,0.000000,12.000000,,,,0.000000,2.000000,2.000000,0.000000,2.000000,2.000000,2.000000,1.000000,2.000000,4.000000,4.000000,4.000000,4.000000,2.000000,4.000000,25.000000,,,,,,,,,,,,,,,,,,,,,,,,,,,,
1732081947.787739,1732081947.790794,66.000000,0.000000,4287.948730,4304.743652,4314.615234,4314.615234,4321.538574,4295.641113,4309.743652,4310.384766,4303.461426,4298.717773,4429.102539,4472.307617,4333.846191,4377.051270,1220.000000,0.000000,12.000000,,,,0.000000,2.000000,2.000000,0.000000,2.000000,2.000000,2.000000,1.000000,2.000000,4.000000,4.000000,4.000000,4.000000,2.000000,4.000000,25.000000,,,,,,,,,,,,,,,,,,,,,,,,,,,,
1732081947.795547,1732081947.798602,67.000000,0.000000,4288.589844,4305.000000,4312.307617,4314.487305,4305.641113,4295.897461,4314.871582,4317.563965,4311.025879,4303.589844,4429.230957,4478.333496,4334.743652,4377.563965,1175.000000,0.000000,12.000000,,,,0.000000,2.000000,2.000000,0.000000,2.000000,2.000000,2.000000,1.000000,2.000000,4.000000,4.000000,4.000000,4.000000,2.000000,4.000000,25.000000,,,,,,,,,,,,,,,,,,,,,,,,,,,,
1732081947.803355,1732081947.806310,68.000000,0.000000,4284.102539,4308.333496,4313.461426,4317.051270,4316.794922,4301.794922,4319.102539,4320.769043,4315.256348,4308.974121,4432.179688,4473.846191,4337.436035,4375.128418,1162.000000,0.000000,12.000000,,,,0.000000,2.000000,2.000000,0.000000,2.000000,2.000000,2.000000,1.000000,2.000000,4.000000,4.000000,4.000000,4.000000,2.000000,4.000000,25.000000,,,,,,,,,,,,,,,,,17.000000,0.000000,0.617529,0.389465,-0.600952,0.325317,0.981077,0.068368,-0.028324,-76.641335,61.573620,28.450310
1732081947.811164,1732081947.814119,69.000000,0.000000,4282.948730,4307.179688,4312.307617,4317.179688,4330.769043,4303.846191,4316.153809,4317.051270,4316.282227,4312.692383,4425.512695,4464.743652,4332.948730,4368.333496,1063.000000,0.000000,12.000000,,,,0.000000,2.000000,2.000000,0.000000,2.000000,2.000000,2.000000,1.000000,2.000000,4.000000,4.000000,4.000000,4.000000,2.000000,4.000000,25.000000,,,,,,,,,,,,,,,,,,,,,,,,,,,,
1732081947.818972,1732081947.821727,70.000000,0.000000,4282.051270,4306.282227,4307.436035,4312.692383,4321.282227,4302.948730,4315.384766,4315.000000,4311.794922,4310.128418,4414.358887,4461.025879,4328.205078,4363.333496,208.000000,0.000000,12.000000,,,,0.000000,2.000000,2.000000,0.000000,2.000000,2.000000,2.000000,1.000000,2.000000,4.000000,4.000000,4.000000,4.000000,2.000000,4.000000,25.000000,,,,,,,,,,,,,,,,,,,,,,,,,,,,
1732081947.826780,1732081947.829535,71.000000,0.000000,4278.077148,4307.948730,4309.871582,4314.358887,4322.051270,4310.384766,4318.333496,4316.794922,4310.000000,4303.846191,4415.641113,4460.256348,4329.743652,4362.820313,1199.000000,0.000000,12.000000,,,,0.000000,2.000000,2.000000,0.000000,2.000000,2.000000,2.000000,1.000000,2.000000,4.000000,4.000000,4.000000,4.000000,2.000000,4.000000,25.000000,,,,,,,,,,,,,,,,,,,,,,,,,,,,
1732081947.834588,1732081947.837244,72.000000,0.000000,4282.307617,4311.410156,4313.333496,4319.487305,4343.077148,4312.436035,4318.077148,4317.051270,4310.641113,4298.589844,4417.307617,4456.410156,4331.794922,4364.487305,1352.000000,0.000000,12.000000,,,,0.000000,2.000000,2.000000,0.000000,2.000000,2.000000,2.000000,1.000000,2.000000,4.000000,4.000000,4.000000,4.000000,2.000000,4.000000,25.000000,,,,,,,,,,,,,,,,,18.000000,0.000000,0.617543,0.389221,-0.601624,0.324341,0.985472,0.079111,-0.031742,-76.772812,61.496300,28.618084
1732081947.842397,1732081947.845052,73.000000,0.000000,4293.333496,4316.410156,4311.410156,4322.051270,4341.538574,4302.820313,4314.230957,4316.025879,4305.897461,4296.282227,4414.487305,4455.384766,4333.333496,4367.436035,1471.000000,0.000000,12.000000,,,,0.000000,2.000000,2.000000,0.000000,2.000000,2.000000,2.000000,1.000000,2.000000,4.000000,4.000000,4.000000,4.000000,2.000000,4.000000,25.000000,,,,,,,,,,,,,,,,,,,,,,,,,,,,
1732081947.850205,1732081947.853060,74.000000,0.000000,4297.179688,4316.922852,4313.077148,4325.641113,4317.307617,4299.615234,4315.000000,4313.333496,4303.974121,4300.000000,4418.846191,4460.641113,4336.922852,4371.538574,1352.000000,0.000000,12.000000,,,,0.000000,2.000000,2.000000,0.000000,2.000000,2.000000,2.000000,1.000000,2.000000,4.000000,4.000000,4.000000,4.000000,2.000000,4.000000,25.000000,,,,,,,,,,,,,,,,,,,,,,,,,,,,
1732081947.858013,1732081947.860868,75.000000,0.000000,4294.743652,4314.230957,4316.153809,4323.589844,4310.256348,4302.692383,4316.410156,4312.051270,4311.025879,4306.538574,4424.102539,4463.461426,4341.025879,4373.333496,1487.000000,0.000000,12.000000,,,,0.000000,2.000000,2.000000,0.000000,2.000000,2.000000,2.000000,1.000000,2.000000,4.000000,4.000000,4.000000,4.000000,2.000000,4.000000,25.000000,,,,,,,,,,,,,,,,,,,,,,,,,,,,
1732081947.865821,1732081947.868776,76.000000,0.000000,4292.179688,4311.666504,4313.333496,4315.897461,4324.743652,4302.692383,4314.871582,4316.025879,4315.256348,4311.538574,4426.922852,4459.743652,4342.436035,4369.487305,1713.000000,0.000000,12.000000,,,,0.000000,2.000000,2.000000,0.000000,2.000000,2.000000,2.000000,1.000000,2.000000,4.000000,4.000000,4.000000,4.000000,2.000000,4.000000,25.000000,,,,,,,,,,,,,,,,,19.000000,0.000000,0.617477,0.389587,-0.601685,0.323914,0.977170,0.104017,-0.021487,-76.929314,61.467003,28.587315
1732081947.873630,1732081947.876584,77.000000,0.000000,4292.948730,4310.512695,4311.666504,4315.641113,4327.179688,4300.000000,4311.538574,4318.077148,4311.153809,4310.897461,4427.051270,4454.615234,4342.692383,4368.717773,1693.000000,0.000000,12.000000,,,,0.000000,2.000000,2.000000,0.000000,2.000000,2.000000,2.000000,1.000000,2.000000,4.000000,4.000000,4.000000,4.000000,2.000000,4.000000,25.000000,,,,,,,,,,,,,,,,,,,,,,,,,,,,
1732081947.881438,1732081947.884592,78.000000,0.000000,4296.410156,4312.563965,4313.461426,4317.307617,4316.922852,4301.538574,4312.692383,4317.563965,4310.512695,4304.615234,4423.589844,4452.436035,4339.487305,4369.615234,1352.000000,0.000000,12.000000,,,,0.000000,2.000000,2.000000,0.000000,2.000000,2.000000,2.000000,1.000000,2.000000,4.000000,4.000000,4.000000,4.000000,2.000000,4.000000,25.000000,1.000000,25.000000,2.000000,2.000000,0.000000,2.000000,2.000000,2.000000,1.000000,2.000000,4.000000,4.000000,4.000000,4.000000,2.000000,3.000000,,,,,,,,,,,,
1732081947.889246,1732081947.892401,79.000000,0.000000,4294.743652,4312.563965,4311.282227,4310.897461,4316.025879,4308.077148,4315.897461,4319.743652,4314.230957,4305.000000,4423.077148,4452.179688,4335.000000,4367.179688,1487.000000,0.000000,12.000000,,,,0.000000,2.000000,2.000000,0.000000,2.000000,2.000000,2.000000,1.000000,2.000000,4.000000,4.000000,4.000000,4.000000,2.000000,4.000000,25.000000,,,,,,,,,,,,,,,,,,,,,,,,,,,,
1732081947.897055,1732081947.900109,80.000000,0.000000,4284.871582,4307.436035,4310.256348,4307.307617,4327.820313,4310.769043,4317.179688,4317.307617,4310.000000,4305.769043,4421.025879,4447.563965,4332.563965,4360.897461,1713.000000,0.000000,12.000000,,,,0.000000,2.000000,2.000000,0.000000,2.000000,2.000000,2.000000,1.000000,2.000000,4.000000,4.000000,4.000000,4.000000,2.000000,4.000000,25.000000,,,,,,,,,,,,,,,,,20.000000,0.000000,0.617542,0.389832,-0.601624,0.323608,0.971798,0.090831,-0.035649,-77.132744,61.504940,28.602392
1732081947.904863,1732081947.907917,81.000000,0.000000,4280.641113,4307.436035,4313.717773,4312.820313,4336.410156,4307.948730,4315.897461,4311.153809,4303.717773,4296.666504,4412.692383,4442.436035,4329.230957,4356.666504,1693.000000,0.000000,12.000000,,,,0.000000,2.000000,2.000000,0.000000,2.000000,2.000000,2.000000,1.000000,2.000000,4.000000,4.000000,4.000000,4.000000,2.000000,4.000000,25.000000,,,,,,,,,,,,,,,,,,,,,,,,,,,,
1732081947.912671,1732081947.915525,82.000000,0.000000,4282.820313,4308.461426,4313.333496,4312.307617,4325.641113,4309.615234,4316.538574,4313.717773,4305.000000,4289.743652,4407.563965,4441.153809,4322.307617,4352.436035,1352.000000,0.000000,12.000000,,,,0.000000,2.000000,2.000000,0.000000,2.000000,2.000000,2.000000,1.000000,2.000000,4.000000,4.000000,4.000000,4.000000,2.000000,4.000000,25.000000,,,,,,,,,,,,,,,,,,,,,,,,,,,,
1732081947.920479,1732081947.923334,83.000000,0.000000,4278.717773,4304.102539,4306.538574,4308.717773,4310.897461,4317.820313,4319.615234,4322.948730,4310.897461,4295.384766,4408.077148,4437.692383,4318.589844,4347.820313,1487.000000,0.000000,12.000000,,,,0.000000,2.000000,2.000000,0.000000,2.000000,2.000000,2.000000,1.000000,2.000000,4.000000,4.000000,4.000000,4.000000,2.000000,4.000000,25.000000,,,,,,,,,,,,,,,,,,,,,,,,,,,,
1732081947.928288,1732081947.931242,84.000000,0.000000,4279.358887,4306.410156,4307.692383,4316.410156,4314.743652,4319.230957,4320.897461,4322.436035,4313.077148,4299.743652,4412.436035,4437.307617,4326.410156,4356.153809,1713.000000,0.000000,12.000000,,,,0.000000,2.000000,2.000000,0.000000,2.000000,2.000000,2.000000,1.000000,2.000000,4.000000,4.000000,4.000000,4.000000,2.000000,4.000000,25.000000,,,,,,,,,,,,,,,,,21.000000,0.000000,0.617386,0.390808,-0.601379,0.323181,0.977170,0.081065,-0.038579,-77.139191,61.472332,28.614603
1732081947.936096,1732081947.939050,85.000000,0.000000,4292.436035,4315.897461,4313.461426,4324.487305,4331.153809,4310.769043,4315.897461,4316.794922,4309.871582,4298.205078,4421.538574,4444.743652,4334.871582,4368.717773,1693.000000,0.000000,12.000000,,,,0.000000,2.000000,2.000000,0.000000,2.000000,2.000000,2.000000,1.000000,2.000000,4.000000,4.000000,4.000000,4.000000,2.000000,4.000000,25.000000,,,,,,,,,,,,,,,,,,,,,,,,,,,,
1732081947.943904,1732081947.947058,86.000000,0.000000,4296.153809,4317.563965,4315.512695,4322.051270,4328.461426,4304.487305,4313.717773,4318.205078,4305.256348,4297.692383,4426.153809,4452.692383,4335.512695,4372.051270,1352.000000,0.000000,12.000000,,,,0.000000,2.000000,2.000000,0.000000,2.000000,2.000000,2.000000,1.000000,2.000000,4.000000,4.000000,4.000000,4.000000,2.000000,4.000000,25.000000,,,,,,,,,,,,,,,,,,,,,,,,,,,,
1732081947.951712,1732081947.954866,87.000000,0.000000,4290.000000,4315.000000,4312.692383,4320.000000,4309.871582,4306.922852,4316.794922,4320.384766,4305.000000,4298.205078,4423.974121,4455.384766,4334.871582,4374.102539,1487.000000,0.000000,12.000000,,,,0.000000,2.000000,2.000000,0.000000,2.000000,2.000000,2.000000,1.000000,2.000000,4.000000,4.000000,4.000000,4.000000,2.000000,4.000000,25.000000,,,,,,,,,,,,,,,,,,,,,,,,,,,,
1732081947.959520,1732081947.962774,88.000000,0.000000,4293.077148,4317.436035,4312.179688,4323.077148,4312.436035,4307.948730,4316.282227,4316.025879,4306.025879,4298.974121,4422.820313,4459.615234,4335.000000,4379.358887,1713.000000,0.000000,12.000000,,,,0.000000,2.000000,2.000000,0.000000,2.000000,2.000000,2.000000,1.000000,2.000000,4.000000,4.000000,4.000000,4.000000,2.000000,4.000000,25.000000,,,,,,,,,,,,,,,,,22.000000,0.000000,0.617153,0.391846,-0.601074,0.322937,0.979123,0.093761,-0.027835,-77.032745,61.500923,28.611162
1732081947.967329,1732081947.970583,89.000000,0.000000,4298.077148,4318.974121,4311.410156,4324.102539,4322.179688,4306.282227,4314.358887,4314.358887,4305.256348,4301.282227,4424.487305,4469.102539,4334.358887,4379.871582,1693.000000,0.000000,12.000000,,,,0.000000,2.000000,2.000000,0.000000,2.000000,2.000000,2.000000,1.000000,2.000000,4.000000,4.000000,4.000000,4.000000,2.000000,4.000000,25.000000,,,,,,,,,,,,,,,,,,,,,,,,,,,,
1732081947.975137,1732081947.978591,90.000000,0.000000,4294.487305,4316.922852,4312.436035,4324.615234,4318.077148,4309.487305,4315.897461,4318.333496,4306.794922,4302.948730,4423.461426,4471.153809,4334.102539,4374.871582,1352.000000,0.000000,12.000000,,,,0.000000,2.000000,2.000000,0.000000,2.000000,2.000000,2.000000,1.000000,2.000000,4.000000,4.000000,4.000000,4.000000,2.000000,4.000000,25.000000,,,,,,,,,,,,,,,,,,,,,,,,,,,,
1732081947.982945,1732081947.986399,91.000000,0.000000,4292.436035,4315.512695,4313.717773,4325.256348,4322.307617,4311.794922,4317.179688,4318.589844,4309.487305,4301.153809,4417.307617,4462.820313,4332.307617,4369.615234,1487.000000,0.000000,12.000000,,,,0.000000,2.000000,2.000000,0.000000,2.000000,2.000000,2.000000,1.000000,2.000000,4.000000,4.000000,4.000000,4.000000,2.000000,4.000000,25.000000,,,,,,,,,,,,,,,,,,,,,,,,,,,,
1732081947.990754,1732081947.994307,92.000000,0.000000,4293.717773,4316.794922,4311.666504,4321.666504,4326.282227,4308.589844,4314.871582,4317.436035,4311.153809,4299.871582,4416.794922,4456.922852,4331.666504,4369.102539,1713.000000,0.000000,12.000000,,,,0.000000,2.000000,2.000000,0.000000,2.000000,2.000000,2.000000,1.000000,2.000000,4.000000,4.000000,4.000000,4.000000,2.000000,4.000000,25.000000,,,,,,,,,,,,,,,,,23.000000,0.000000,0.617072,0.392212,-0.600952,0.322876,0.967892,0.099622,-0.032719,-76.931519,61.575748,28.570042
1732081947.998562,1732081948.002115,93.000000,0.000000,4291.538574,4318.846191,4312.051270,4323.717773,4310.897461,4309.487305,4318.077148,4325.256348,4312.436035,4305.769043,4421.153809,4459.230957,4336.794922,4372.820313,1693.000000,0.000000,12.000000,,,,0.000000,2.000000,2.000000,0.000000,2.000000,2.000000,2.000000,1.000000,2.000000,4.000000,4.000000,4.000000,4.000000,2.000000,4.000000,25.000000,,,,,,,,,,,,,,,,,,,,,,,,,,,,
1732081948.006370,1732081948.009723,94.000000,0.000000,4292.692383,4320.641113,4313.333496,4329.358887,4309.871582,4314.871582,4321.153809,4331.794922,4314.487305,4310.128418,4420.000000,4459.487305,4336.794922,4371.922852,1352.000000,0.000000,12.000000,,,,0.000000,2.000000,2.000000,0.000000,2.000000,2.000000,2.000000,1.000000,2.000000,4.000000,4.000000,4.000000,4.000000,2.000000,4.000000,25.000000,,,,,,,,,,,,,,,,,,,,,,,,,,,,
1732081948.014178,1732081948.017532,95.000000,0.000000,4296.794922,4321.922852,4313.205078,4326.410156,4318.077148,4314.102539,4320.769043,4328.205078,4315.256348,4307.948730,4416.025879,4457.948730,4331.538574,4370.128418,1487.000000,0.000000,12.000000,,,,0.000000,2.000000,2.000000,0.000000,2.000000,2.000000,2.000000,1.000000,2.000000,4.000000,4.000000,4.000000,4.000000,2.000000,4.000000,25.000000,,,,,,,,,,,,,,,,,,,,,,,,,,,,
1732081948.021987,1732081948.025240,96.000000,0.000000,4295.897461,4321.922852,4311.666504,4322.948730,4318.205078,4310.384766,4319.358887,4325.641113,4313.205078,4304.743652,4417.051270,4459.615234,4331.025879,4370.641113,1713.000000,0.000000,12.000000,,,,0.000000,2.000000,2.000000,0.000000,2.000000,2.000000,2.000000,1.000000,2.000000,4.000000,4.000000,4.000000,4.000000,2.000000,4.000000,25.000000,,,,,,,,,,,,,,,,,24.000000,0.000000,0.617097,0.392273,-0.600952,0.322754,0.978635,0.084483,-0.034184,-76.971199,61.709690,28.766733
1732081948.029795,1732081948.033048,97.000000,0.000000,4296.410156,4323.717773,4312.307617,4326.666504,4322.820313,4309.871582,4321.538574,4328.205078,4310.000000,4303.717773,4416.922852,4461.025879,4330.000000,4370.000000,1693.000000,0.000000,12.000000,,,,0.000000,2.000000,2.000000,0.000000,2.000000,2.000000,2.000000,1.000000,2.000000,4.000000,4.000000,4.000000,4.000000,2.000000,4.000000,25.000000,,,,,,,,,,,,,,,,,,,,,,,,,,,,
1732081948.037603,1732081948.040657,98.000000,0.000000,4299.230957,4325.128418,4314.102539,4327.179688,4316.794922,4314.487305,4321.153809,4324.230957,4311.153809,4303.077148,4416.538574,4461.282227,4329.871582,4372.051270,1352.000000,0.000000,12.000000,,,,0.000000,2.000000,2.000000,0.000000,2.000000,2.000000,2.000000,1.000000,2.000000,4.000000,4.000000,4.000000,4.000000,2.000000,4.000000,25.000000,,,,,,,,,,,,,,,,,,,,,,,,,,,,
1732081948.045411,1732081948.048465,99.000000,0.000000,4293.205078,4323.077148,4313.846191,4319.487305,4307.692383,4315.256348,4321.410156,4317.820313,4313.461426,4302.948730,4419.743652,4460.000000,4332.051270,4375.384766,1487.000000,0.000000,12.000000,,,,0.000000,2.000000,2.000000,0.000000,2.000000,2.000000,2.000000,1.000000,2.000000,4.000000,4.000000,4.000000,4.000000,2.000000,4.000000,25.000000,,,,,,,,,,,,,,,,,,,,,,,,,,,,
1732081948.053220,1732081948.056173,100.000000,0.000000,4288.461426,4320.512695,4307.820313,4317.563965,4314.743652,4310.769043,4321.794922,4321.538574,4315.000000,4304.358887,4420.897461,4464.230957,4329.743652,4372.307617,1713.000000,0.000000,12.000000,,,,0.000000,2.000000,2.000000,0.000000,2.000000,2.000000,2.000000,1.000000,2.000000,4.000000,4.000000,4.000000,4.000000,2.000000,4.000000,25.000000,,,,,,,,,,,,,,,,,25.000000,0.000000,0.617155,0.392151,-0.601135,0.322449,0.982053,0.089366,-0.035649,-76.853340,61.733181,28.624388
1732081948.061028,1732081948.063981,101.000000,0.000000,4292.692383,4320.256348,4306.153809,4323.717773,4312.051270,4310.512695,4320.641113,4327.436035,4313.974121,4305.128418,4419.615234,4471.666504,4325.512695,4368.589844,1693.000000,0.000000,12.000000,,,,0.000000,2.000000,2.000000,0.000000,2.000000,2.000000,2.000000,1.000000,2.000000,4.000000,4.000000,4.000000,4.000000,2.000000,4.000000,25.000000,,,,,,,,,,,,,,,,,,,,,,,,,,,,
1732081948.068836,1732081948.071590,102.000000,0.000000,4294.487305,4321.025879,4308.974121,4325.897461,4299.615234,4312.307617,4320.641113,4327.948730,4311.922852,4304.871582,4418.589844,4471.666504,4327.051270,4372.820313,1352.000000,0.000000,12.000000,,,,0.000000,2.000000,2.000000,0.000000,2.000000,2.000000,2.000000,1.000000,2.000000,4.000000,4.000000,4.000000,4.000000,2.000000,4.000000,25.000000,,,,,,,,,,,,,,,,,,,,,,,,,,,,
1732081948.076645,1732081948.079398,103.000000,0.000000,4292.179688,4319.871582,4310.641113,4321.282227,4306.666504,4309.358887,4321.666504,4326.922852,4314.358887,4305.512695,4420.384766,4470.384766,4332.692383,4376.025879,1487.000000,0.000000,12.000000,,,,0.000000,2.000000,2.000000,0.000000,2.000000,2.000000,2.000000,1.000000,2.000000,4.000000,4.000000,4.000000,4.000000,2.000000,4.000000,25.000000,,,,,,,,,,,,,,,,,,,,,,,,,,,,
1732081948.084453,1732081948.087106,104.000000,0.000000,4295.256348,4321.794922,4308.333496,4321.025879,4319.615234,4307.820313,4320.769043,4326.282227,4315.897461,4308.717773,4425.512695,4469.102539,4335.512695,4375.641113,1713.000000,0.000000,12.000000,,,,0.000000,2.000000,2.000000,0.000000,2.000000,2.000000,2.000000,1.000000,2.000000,4.000000,4.000000,4.000000,4.000000,2.000000,4.000000,25.000000,,,,,,,,,,,,,,,,,26.000000,0.000000,0.617237,0.392029,-0.601196,0.322327,0.981077,0.090343,-0.028324,-76.891205,61.635544,28.425755
1732081948.092261,1732081948.094914,105.000000,0.000000,4299.743652,4324.615234,4308.974121,4324.102539,4312.563965,4309.871582,4317.563965,4326.538574,4312.307617,4307.179688,4424.487305,4467.307617,4333.205078,4377.820313,1693.000000,0.000000,12.000000,,,,0.000000,2.000000,2.000000,0.000000,2.000000,2.000000,2.000000,1.000000,2.000000,4.000000,4.000000,4.000000,4.000000,2.000000,4.000000,25.000000,,,,,,,,,,,,,,,,,,,,,,,,,,,,
1732081948.100069,1732081948.102523,106.000000,0.000000,4298.589844,4320.769043,4310.384766,4322.820313,4298.077148,4310.000000,4317.051270,4325.897461,4313.589844,4301.410156,4419.358887,4466.025879,4328.461426,4377.563965,1352.000000,0.000000,12.000000,,,,0.000000,2.000000,2.000000,0.000000,2.000000,2.000000,2.000000,1.000000,2.000000,4.000000,4.000000,4.000000,4.000000,2.000000,4.000000,25.000000,,,,,,,,,,,,,,,,,,,,,,,,,,,,
1732081948.107877,1732081948.110331,107.000000,0.000000,4297.051270,4316.666504,4311.282227,4322.179688,4293.846191,4310.897461,4316.922852,4322.179688,4316.794922,4302.820313,4419.743652,4462.820313,4328.077148,4371.282227,1487.000000,0.000000,12.000000,,,,0.000000,2.000000,2.000000,0.000000,2.000000,2.000000,2.000000,1.000000,2.000000,4.000000,4.000000,4.000000,4.000000,2.000000,4.000000,25.000000,,,,,,,,,,,,,,,,,,,,,,,,,,,,
1732081948.115686,1732081948.118039,108.000000,0.000000,4298.974121,4318.717773,4311.282227,4324.743652,4308.974121,4311.922852,4316.666504,4320.769043,4315.128418,4306.922852,4423.461426,4457.307617,4330.128418,4366.410156,1713.000000,0.000000,12.000000,,,,0.000000,2.000000,2.000000,0.000000,2.000000,2.000000,2.000000,1.000000,2.000000,4.000000,4.000000,4.000000,4.000000,2.000000,4.000000,25.000000,,,,,,,,,,,,,,,,,27.000000,0.000000,0.617298,0.391846,-0.601318,0.322205,0.975705,0.092785,-0.019534,-76.690208,61.483124,28.566526
1732081948.123494,1732081948.125848,109.000000,0.000000,4299.230957,4321.538574,4309.871582,4325.128418,4319.615234,4309.487305,4316.922852,4326.153809,4317.436035,4306.153809,4424.487305,4459.102539,4332.307617,4370.384766,1693.000000,0.000000,12.000000,,,,0.000000,2.000000,2.000000,0.000000,2.000000,2.000000,2.000000,1.000000,2.000000,4.000000,4.000000,4.000000,4.000000,2.000000,4.000000,25.000000,,,,,,,,,,,,,,,,,,,,,,,,,,,,
1732081948.131302,1732081948.133456,110.000000,0.000000,4298.974121,4319.743652,4312.563965,4321.153809,4308.205078,4311.410156,4321.410156,4332.307617,4320.769043,4303.589844,4420.384766,4464.743652,4335.000000,4371.922852,1352.000000,0.000000,12.000000,,,,0.000000,2.000000,2.000000,0.000000,2.000000,2.000000,2.000000,1.000000,2.000000,4.000000,4.000000,4.000000,4.000000,2.000000,4.000000,25.000000,,,,,,,,,,,,,,,,,,,,,,,,,,,,
1732081948.139110,1732081948.141264,111.000000,0.000000,4302.051270,4320.128418,4315.897461,4322.692383,4304.358887,4318.461426,4322.948730,4332.563965,4318.333496,4304.102539,4415.641113,4466.282227,4332.307617,4368.205078,1487.000000,0.000000,12.000000,,,,0.000000,2.000000,2.000000,0.000000,2.000000,2.000000,2.000000,1.000000,2.000000,4.000000,4.000000,4.000000,4.000000,2.000000,4.000000,25.000000,,,,,,,,,,,,,,,,,,,,,,,,,,,,
1732081948.146919,1732081948.148973,112.000000,0.000000,4303.077148,4323.333496,4314.743652,4327.051270,4311.922852,4315.512695,4320.897461,4328.461426,4317.820313,4303.846191,4416.153809,4470.256348,4331.282227,4371.538574,1713.000000,0.000000,12.000000,,,,0.000000,2.000000,2.000000,0.000000,2.000000,2.000000,2.000000,1.000000,2.000000,4.000000,4.000000,4.000000,4.000000,2.000000,4.000000,25.000000,,,,,,,,,,,,,,,,,28.000000,0.000000,0.617282,0.391541,-0.601501,0.322266,0.993285,0.085948,-0.024417,-76.795738,61.711330,28.528887
1732081948.154727,1732081948.156781,113.000000,0.000000,4299.615234,4323.461426,4310.512695,4326.794922,4311.282227,4308.077148,4317.820313,4325.897461,4318.717773,4305.128418,4423.846191,4475.512695,4337.563965,4378.846191,1693.000000,0.000000,12.000000,,,,0.000000,2.000000,2.000000,0.000000,2.000000,2.000000,2.000000,1.000000,2.000000,4.000000,4.000000,4.000000,4.000000,2.000000,4.000000,25.000000,,,,,,,,,,,,,,,,,,,,,,,,,,,,
1732081948.162535,1732081948.164389,114.000000,0.000000,4298.717773,4320.769043,4313.846191,4322.820313,4311.666504,4310.897461,4318.589844,4326.282227,4315.897461,4304.743652,4427.179688,4473.974121,4339.743652,4376.922852,1352.000000,0.000000,12.000000,,,,0.000000,2.000000,2.000000,0.000000,2.000000,2.000000,2.000000,1.000000,2.000000,4.000000,4.000000,4.000000,4.000000,2.000000,4.000000,25.000000,,,,,,,,,,,,,,,,,,,,,,,,,,,,
1732081948.170344,1732081948.172197,115.000000,0.000000,4301.794922,4321.282227,4315.641113,4321.153809,4318.077148,4314.487305,4319.871582,4330.512695,4318.205078,4306.025879,4423.589844,4467.179688,4337.563965,4371.025879,1487.000000,0.000000,12.000000,,,,0.000000,2.000000,2.000000,0.000000,2.000000,2.000000,2.000000,1.000000,2.000000,4.000000,4.000000,4.000000,4.000000,2.000000,4.000000,25.000000,,,,,,,,,,,,,,,,,,,,,,,,,,,,
1732081948.178152,1732081948.180105,116.000000,0.000000,4300.384766,4325.000000,4311.922852,4323.077148,4311.410156,4313.589844,4320.897461,4334.487305,4324.102539,4311.666504,4426.025879,4464.743652,4340.000000,4374.230957,1713.000000,0.000000,12.000000,,,,0.000000,2.000000,2.000000,0.000000,2.000000,2.000000,2.000000,1.000000,2.000000,4.000000,4.000000,4.000000,4.000000,2.000000,4.000000,25.000000,,,,,,,,,,,,,,,,,29.000000,0.000000,0.617344,0.390930,-0.601868,0.322205,0.979612,0.103528,-0.026370,-76.697876,61.729511,28.615065
1732081948.185960,1732081948.187914,117.000000,0.000000,4297.820313,4324.102539,4308.333496,4324.230957,4303.974121,4319.102539,4320.512695,4335.384766,4324.487305,4315.000000,4429.615234,4465.641113,4341.794922,4374.743652,1693.000000,0.000000,12.000000,,,,0.000000,2.000000,2.000000,0.000000,2.000000,2.000000,2.000000,1.000000,2.000000,4.000000,4.000000,4.000000,4.000000,2.000000,4.000000,25.000000,,,,,,,,,,,,,,,,,,,,,,,,,,,,
1732081948.193768,1732081948.195922,118.000000,0.000000,4298.589844,4322.563965,4309.871582,4323.077148,4318.717773,4319.743652,4318.717773,4334.743652,4323.589844,4312.307617,4427.820313,4465.384766,4340.256348,4369.230957,1352.000000,0.000000,12.000000,,,,0.000000,2.000000,2.000000,0.000000,2.000000,2.000000,2.000000,1.000000,2.000000,4.000000,4.000000,4.000000,4.000000,2.000000,4.000000,25.000000,,,,,,,,,,,,,,,,,,,,,,,,,,,,
1732081948.201577,1732081948.203730,119.000000,0.000000,4298.077148,4322.948730,4311.282227,4321.410156,4322.307617,4312.563965,4319.230957,4333.205078,4323.974121,4308.974121,4426.538574,4467.563965,4343.974121,4372.692383,1487.000000,0.000000,12.000000,,,,0.000000,2.000000,2.000000,0.000000,2.000000,2.000000,2.000000,1.000000,2.000000,4.000000,4.000000,4.000000,4.000000,2.000000,4.000000,25.000000,,,,,,,,,,,,,,,,,,,,,,,,,,,,
1732081948.209385,1732081948.211438,120.000000,0.000000,4298.974121,4323.589844,4311.922852,4323.205078,4306.410156,4315.128418,4320.512695,4329.615234,4323.461426,4312.051270,4428.077148,4471.282227,4350.128418,4382.563965,1713.000000,0.000000,12.000000,,,,0.000000,2.000000,2.000000,0.000000,2.000000,2.000000,2.000000,1.000000,2.000000,4.000000,4.000000,4.000000,4.000000,2.000000,4.000000,25.000000,,,,,,,,,,,,,,,,,30.000000,0.000000,0.617563,0.390747,-0.601990,0.321777,0.972775,0.083018,-0.027347,-76.621948,61.737572,28.541536
1732081948.217193,1732081948.219246,121.000000,0.000000,4307.820313,4328.717773,4311.282227,4328.333496,4303.205078,4318.077148,4322.563965,4327.436035,4322.436035,4313.333496,4430.000000,4472.179688,4350.384766,4384.358887,1693.000000,0.000000,12.000000,,,,0.000000,2.000000,2.000000,0.000000,2.000000,2.000000,2.000000,1.000000,2.000000,4.000000,4.000000,4.000000,4.000000,2.000000,4.000000,25.000000,,,,,,,,,,,,,,,,,,,,,,,,,,,,
1732081948.225001,1732081948.226855,122.000000,0.000000,4309.871582,4329.487305,4311.666504,4324.743652,4311.282227,4311.410156,4321.666504,4328.974121,4323.846191,4312.948730,4434.487305,4473.461426,4350.256348,4378.974121,1352.000000,0.000000,12.000000,,,,0.000000,2.000000,2.000000,0.000000,2.000000,2.000000,2.000000,1.000000,2.000000,4.000000,4.000000,4.000000,4.000000,2.000000,4.000000,25.000000,,,,,,,,,,,,,,,,,,,,,,,,,,,,
1732081948.232810,1732081948.234663,123.000000,0.000000,4301.153809,4323.205078,4313.333496,4316.025879,4313.333496,4310.000000,4319.358887,4328.589844,4326.794922,4315.256348,4433.333496,4476.922852,4351.666504,4378.461426,1487.000000,0.000000,12.000000,,,,0.000000,2.000000,2.000000,0.000000,2.000000,2.000000,2.000000,1.000000,2.000000,4.000000,4.000000,4.000000,4.000000,2.000000,4.000000,25.000000,,,,,,,,,,,,,,,,,,,,,,,,,,,,
1732081948.240618,1732081948.242371,124.000000,0.000000,4301.410156,4323.333496,4311.922852,4318.333496,4306.922852,4312.820313,4319.358887,4326.538574,4326.282227,4315.641113,4426.922852,4475.512695,4351.538574,4380.128418,1713.000000,0.000000,12.000000,,,,0.000000,2.000000,2.000000,0.000000,2.000000,2.000000,2.000000,1.000000,2.000000,4.000000,4.000000,4.000000,4.000000,2.000000,4.000000,25.000000,,,,,,,,,,,,,,,,,31.000000,0.000000,0.617627,0.390747,-0.601990,0.321655,0.968380,0.090343,-0.042486,-76.693779,61.787434,28.533644
1732081948.248426,1732081948.250180,125.000000,0.000000,4306.538574,4325.000000,4311.666504,4323.717773,4309.230957,4312.307617,4322.692383,4327.948730,4322.051270,4312.179688,4426.922852,4472.692383,4348.717773,4376.922852,1693.000000,0.000000,12.000000,,,,0.000000,2.000000,2.000000,0.000000,2.000000,2.000000,2.000000,1.000000,2.000000,4.000000,4.000000,4.000000,4.000000,2.000000,4.000000,25.000000,,,,,,,,,,,,,,,,,,,,,,,,,,,,
1732081948.256234,1732081948.258188,126.000000,0.000000,4301.153809,4321.153809,4313.333496,4320.512695,4322.436035,4313.077148,4321.794922,4332.051270,4322.307617,4314.102539,4428.717773,4472.692383,4347.820313,4373.846191,1352.000000,0.000000,12.000000,,,,0.000000,2.000000,2.000000,0.000000,2.000000,2.000000,2.000000,1.000000,2.000000,4.000000,4.000000,4.000000,4.000000,2.000000,4.000000,25.000000,,,,,,,,,,,,,,,,,,,,,,,,,,,,
1732081948.264043,1732081948.265996,127.000000,0.000000,4298.589844,4324.102539,4314.358887,4321.538574,4318.461426,4316.153809,4320.256348,4335.769043,4325.897461,4318.461426,4427.692383,4474.358887,4353.205078,4374.102539,12.000000,0.000000,12.000000,,,,0.000000,2.000000,2.000000,0.000000,2.000000,2.000000,2.000000,1.000000,2.000000,4.000000,4.000000,4.000000,4.000000,2.000000,4.000000,25.000000,,,,,,,,,,,,,,,,,,,,,,,,,,,,
1732081948.271851,1732081948.273904,0.000000,0.000000,4306.282227,4330.897461,4312.692383,4331.794922,4299.871582,4317.563965,4321.922852,4335.000000,4325.897461,4316.410156,4428.077148,4473.974121,4356.153809,4376.282227,0.000000,0.000000,12.000000,,,,0.000000,2.000000,2.000000,0.000000,2.000000,2.000000,2.000000,1.000000,2.000000,4.000000,4.000000,4.000000,4.000000,2.000000,4.000000,25.000000,,,,,,,,,,,,,,,,,0.000000,0.000000,0.617994,0.390869,-0.601990,0.320801,0.969357,0.104505,-0.029300,-76.741959,61.897820,28.542252
1732081948.279659,1732081948.281712,1.000000,0.000000,4310.769043,4327.179688,4312.436035,4334.487305,4310.256348,4316.538574,4322.051270,4330.384766,4322.436035,4314.102539,4426.922852,4474.615234,4352.307617,4379.487305,1290.000000,0.000000,12.000000,,,,0.000000,2.000000,2.000000,0.000000,2.000000,2.000000,2.000000,1.000000,2.000000,4.000000,4.000000,4.000000,4.000000,2.000000,4.000000,25.000000,,,,,,,,,,,,,,,,,,,,,,,,,,,,
1732081948.287467,1732081948.289720,2.000000,0.000000,4309.871582,4327.563965,4313.717773,4332.563965,4330.000000,4311.410156,4316.794922,4327.820313,4320.128418,4312.051270,4429.358887,4477.179688,4351.922852,4383.205078,1219.000000,0.000000,12.000000,,,,0.000000,2.000000,2.000000,0.000000,2.000000,2.000000,2.000000,1.000000,2.000000,4.000000,4.000000,4.000000,4.000000,2.000000,4.000000,25.000000,,,,,,,,,,,,,,,,,,,,,,,,,,,,
1732081948.295276,1732081948.297528,3.000000,0.000000,4307.820313,4331.922852,4313.589844,4332.820313,4313.589844,4308.974121,4318.461426,4329.871582,4320.384766,4313.205078,4440.000000,4476.025879,4354.743652,4382.051270,1172.000000,0.000000,12.000000,,,,0.000000,2.000000,2.000000,0.000000,2.000000,2.000000,2.000000,1.000000,2.000000,4.000000,4.000000,4.000000,4.000000,2.000000,4.000000,25.000000,,,,,,,,,,,,,,,,,,,,,,,,,,,,
1732081948.303084,1732081948.305436,4.000000,0.000000,4307.692383,4327.820313,4310.897461,4329.102539,4297.436035,4311.666504,4323.589844,4333.205078,4324.871582,4322.051270,4443.589844,4473.461426,4356.538574,4380.641113,1194.000000,0.000000,12.000000,,,,0.000000,2.000000,2.000000,0.000000,2.000000,2.000000,2.000000,1.000000,2.000000,4.000000,4.000000,4.000000,4.000000,2.000000,4.000000,25.000000,,,,,,,,,,,,,,,,,1.000000,0.000000,0.618486,0.390686,-0.601929,0.320190,0.959590,0.091808,-0.030277,-77.047653,61.987236,28.465891
1732081948.310892,1732081948.313245,5.000000,0.000000,4308.461426,4324.358887,4313.333496,4325.384766,4307.436035,4312.051270,4320.769043,4332.563965,4327.692383,4322.436035,4440.256348,4474.871582,4355.769043,4384.743652,1063.000000,0.000000,12.000000,,,,0.000000,2.000000,2.000000,0.000000,2.000000,2.000000,2.000000,1.000000,2.000000,4.000000,4.000000,4.000000,4.000000,2.000000,4.000000,25.000000,,,,,,,,,,,,,,,,,,,,,,,,,,,,
1732081948.318700,1732081948.320853,6.000000,0.000000,4309.743652,4326.538574,4315.769043,4327.436035,4318.717773,4309.102539,4315.512695,4325.769043,4323.717773,4313.333496,4440.000000,4473.717773,4351.282227,4384.230957,202.000000,0.000000,12.000000,,,,0.000000,2.000000,2.000000,0.000000,2.000000,2.000000,2.000000,1.000000,2.000000,4.000000,4.000000,4.000000,4.000000,2.000000,4.000000,25.000000,,,,,,,,,,,,,,,,,,,,,,,,,,,,
1732081948.326509,1732081948.328661,7.000000,0.000000,4308.461426,4328.589844,4315.769043,4327.563965,4317.820313,4309.358887,4320.000000,4326.025879,4322.436035,4312.820313,4435.641113,4470.769043,4343.974121,4376.410156,1199.000000,0.000000,12.000000,,,,0.000000,2.000000,2.000000,0.000000,2.000000,2.000000,2.000000,1.000000,2.000000,4.000000,4.000000,4.000000,4.000000,2.000000,4.000000,25.000000,,,,,,,,,,,,,,,,,,,,,,,,,,,,
1732081948.334317,1732081948.336569,8.000000,0.000000,4302.692383,4326.538574,4313.205078,4324.871582,4307.563965,4316.153809,4324.487305,4334.230957,4325.128418,4315.769043,4429.487305,4475.384766,4343.846191,4374.230957,1347.000000,0.000000,12.000000,,,,0.000000,2.000000,2.000000,0.000000,2.000000,2.000000,2.000000,1.000000,2.000000,4.000000,4.000000,4.000000,4.000000,2.000000,4.000000,25.000000,,,,,,,,,,,,,,,,,2.000000,0.000000,0.618629,0.390747,-0.601807,0.320068,0.984007,0.088390,-0.020510,-76.930267,61.947994,28.622372
1732081948.342125,1732081948.344378,9.000000,0.000000,4300.769043,4323.077148,4313.077148,4325.000000,4303.974121,4319.871582,4322.179688,4334.358887,4324.615234,4312.692383,4430.384766,4477.948730,4345.641113,4377.948730,1471.000000,0.000000,12.000000,,,,0.000000,2.000000,2.000000,0.000000,2.000000,2.000000,2.000000,1.000000,2.000000,4.000000,4.000000,4.000000,4.000000,2.000000,4.000000,25.000000,,,,,,,,,,,,,,,,,,,,,,,,,,,,
1732081948.349934,1732081948.352386,10.000000,0.000000,4305.384766,4325.512695,4314.871582,4329.230957,4319.358887,4314.871582,4322.692383,4329.615234,4322.820313,4312.563965,4432.820313,4475.384766,4343.205078,4377.307617,1352.000000,0.000000,12.000000,,,,0.000000,2.000000,2.000000,0.000000,2.000000,2.000000,2.000000,1.000000,2.000000,4.000000,4.000000,4.000000,4.000000,2.000000,4.000000,25.000000,,,,,,,,,,,,,,,,,,,,,,,,,,,,
1732081948.357742,1732081948.360194,11.000000,0.000000,4312.051270,4332.563965,4317.051270,4332.307617,4329.102539,4310.641113,4323.589844,4332.948730,4325.384766,4314.358887,4434.743652,4481.922852,4346.794922,4380.128418,1497.000000,0.000000,12.000000,,,,0.000000,2.000000,2.000000,0.000000,2.000000,2.000000,2.000000,1.000000,2.000000,4.000000,4.000000,4.000000,4.000000,2.000000,4.000000,25.000000,,,,,,,,,,,,,,,,,,,,,,,,,,,,
1732081948.365550,1732081948.368102,12.000000,0.000000,4315.641113,4332.948730,4317.051270,4333.461426,4310.384766,4311.153809,4323.589844,4336.538574,4326.282227,4315.769043,4439.743652,4489.358887,4352.948730,4387.948730,1718.000000,0.000000,12.000000,,,,0.000000,2.000000,2.000000,0.000000,2.000000,2.000000,2.000000,1.000000,2.000000,4.000000,4.000000,4.000000,4.000000,2.000000,4.000000,25.000000,,,,,,,,,,,,,,,,,3.000000,0.000000,0.618878,0.390747,-0.601746,0.319702,0.977170,0.111830,-0.036626,-76.816849,62.147873,28.725788
1732081948.373358,1732081948.375910,13.000000,0.000000,4312.436035,4329.230957,4314.487305,4334.615234,4298.333496,4313.205078,4320.897461,4331.153809,4325.769043,4318.846191,4440.641113,4485.128418,4351.538574,4384.743652,1698.000000,0.000000,12.000000,,,,0.000000,2.000000,2.000000,0.000000,2.000000,2.000000,2.000000,1.000000,2.000000,4.000000,4.000000,4.000000,4.000000,2.000000,4.000000,25.000000,,,,,,,,,,,,,,,,,,,,,,,,,,,,
1732081948.381167,1732081948.383918,14.000000,0.000000,4303.974121,4329.102539,4313.333496,4333.205078,4319.230957,4315.128418,4319.615234,4329.102539,4326.794922,4320.000000,4438.333496,4471.666504,4348.589844,4372.436035,1352.000000,0.000000,12.000000,,,,0.000000,2.000000,2.000000,0.000000,2.000000,2.000000,2.000000,1.000000,2.000000,4.000000,4.000000,4.000000,4.000000,2.000000,4.000000,25.000000,1.000000,25.000000,2.000000,2.000000,0.000000,2.000000,2.000000,2.000000,1.000000,2.000000,4.000000,4.000000,4.000000,4.000000,2.000000,4.000000,,,,,,,,,,,,
1732081948.388975,1732081948.391726,15.000000,0.000000,4303.205078,4328.333496,4311.282227,4330.512695,4331.410156,4312.820313,4319.487305,4329.102539,4326.538574,4318.974121,4437.563965,4462.692383,4350.384766,4370.128418,1497.000000,0.000000,12.000000,,,,0.000000,2.000000,2.000000,0.000000,2.000000,2.000000,2.000000,1.000000,2.000000,4.000000,4.000000,4.000000,4.000000,2.000000,4.000000,25.000000,,,,,,,,,,,,,,,,,,,,,,,,,,,,
1732081948.396783,1732081948.399435,16.000000,0.000000,4310.384766,4325.128418,4312.307617,4328.077148,4308.205078,4312.820313,4321.410156,4328.077148,4326.410156,4320.128418,4437.563965,4466.282227,4349.230957,4377.436035,0.000000,0.000000,12.000000,,,,0.000000,2.000000,2.000000,0.000000,2.000000,2.000000,2.000000,1.000000,2.000000,4.000000,4.000000,4.000000,4.000000,2.000000,4.000000,25.000000,,,,,,,,,,,,,,,,,4.000000,0.000000,0.619098,0.390686,-0.601624,0.319580,0.974728,0.092785,-0.033696,-76.958313,62.143112,28.714554
1732081948.404591,1732081948.407243,17.000000,0.000000,4307.948730,4322.692383,4313.717773,4325.769043,4301.666504,4316.794922,4318.205078,4331.666504,4328.846191,4319.487305,4438.717773,4474.102539,4342.436035,4378.589844,0.000000,0.000000,12.000000,,,,0.000000,2.000000,2.000000,0.000000,2.000000,2.000000,2.000000,1.000000,2.000000,4.000000,4.000000,4.000000,4.000000,2.000000,4.000000,25.000000,,,,,,,,,,,,,,,,,,,,,,,,,,,,
1732081948.412400,1732081948.414851,18.000000,0.000000,4304.102539,4323.589844,4314.871582,4324.230957,4321.538574,4317.307617,4317.820313,4335.769043,4328.717773,4320.000000,4438.589844,4473.846191,4340.128418,4372.179688,0.000000,0.000000,12.000000,,,,0.000000,2.000000,2.000000,0.000000,2.000000,2.000000,2.000000,1.000000,2.000000,4.000000,4.000000,4.000000,4.000000,2.000000,4.000000,25.000000,,,,,,,,,,,,,,,,,,,,,,,,,,,,
1732081948.420208,1732081948.422659,19.000000,0.000000,4308.333496,4327.820313,4314.102539,4328.717773,4318.077148,4318.205078,4321.922852,4335.128418,4327.436035,4324.871582,4439.230957,4468.717773,4343.846191,4371.282227,0.000000,0.000000,12.000000,,,,0.000000,2.000000,2.000000,0.000000,2.000000,2.000000,2.000000,1.000000,2.000000,4.000000,4.000000,4.000000,4.000000,2.000000,4.000000,25.000000,,,,,,,,,,,,,,,,,,,,,,,,,,,,
1732081948.428016,1732081948.430368,20.000000,0.000000,4308.717773,4328.717773,4312.692383,4332.307617,4306.410156,4318.717773,4321.282227,4331.794922,4327.307617,4320.897461,4439.230957,4470.000000,4344.615234,4373.589844,0.000000,0.000000,12.000000,,,,0.000000,2.000000,2.000000,0.000000,2.000000,2.000000,2.000000,1.000000,2.000000,4.000000,4.000000,4.000000,4.000000,2.000000,4.000000,25.000000,,,,,,,,,,,,,,,,,5.000000,0.000000,0.619249,0.390503,-0.601685,0.319397,0.981565,0.094250,-0.025882,-76.997902,62.022587,28.588789
1732081948.435824,1732081948.438176,21.000000,0.000000,4305.000000,4325.000000,4309.615234,4328.333496,4314.102539,4313.974121,4319.743652,4333.974121,4326.666504,4312.948730,4435.384766,4467.820313,4341.153809,4373.589844,0.000000,0.000000,12.000000,,,,0.000000,2.000000,2.000000,0.000000,2.000000,2.000000,2.000000,1.000000,2.000000,4.000000,4.000000,4.000000,4.000000,2.000000,4.000000,25.000000,,,,,,,,,,,,,,,,,,,,,,,,,,,,
