title:eight, start timestamp:1732081905.115492, stop timestamp:1732081937.191811, headset type:EPOCX, headset serial:E5020C3A, headset firmware:730, channels:67, sampling rate:eeg_128;mot_32, samples:4109      , version:2.2, 
Timestamp,OriginalTimestamp,EEG.Counter,EEG.Interpolated,EEG.AF3,EEG.F7,EEG.F3,EEG.FC5,EEG.T7,EEG.P7,EEG.O1,EEG.O2,EEG.P8,EEG.T8,EEG.FC6,EEG.F4,EEG.F8,EEG.AF4,EEG.RawCq,EEG.Battery,EEG.BatteryPercent,MarkerIndex,MarkerType,MarkerValueInt,EEG.MarkerHardware,CQ.AF3,CQ.F7,CQ.F3,CQ.FC5,CQ.T7,CQ.P7,CQ.O1,CQ.O2,CQ.P8,CQ.T8,CQ.FC6,CQ.F4,CQ.F8,CQ.AF4,CQ.Overall,EQ.SampleRateQuality,EQ.OVERALL,EQ.AF3,EQ.F7,EQ.F3,EQ.FC5,EQ.T7,EQ.P7,EQ.O1,EQ.O2,EQ.P8,EQ.T8,EQ.FC6,EQ.F4,EQ.F8,EQ.AF4,MOT.CounterMems,MOT.InterpolatedMems,MOT.Q0,MOT.Q1,MOT.Q2,MOT.Q3,MOT.AccX,MOT.AccY,MOT.AccZ,MOT.MagX,MOT.MagY,MOT.MagZ
1732081905.115492,1732081905.117334,105.000000,0.000000,4308.717773,4308.077148,4321.538574,4318.333496,4305.256348,4315.769043,4324.871582,4341.282227,4329.487305,4309.743652,4413.974121,4452.563965,4335.512695,4384.487305,1685.000000,0.000000,12.000000,,,,0.000000,2.000000,2.000000,0.000000,2.000000,2.000000,2.000000,1.000000,2.000000,4.000000,4.000000,4.000000,4.000000,2.000000,4.000000,25.000000,,,,,,,,,,,,,,,,,,,,,,,,,,,,
1732081905.123300,1732081905.125143,106.000000,0.000000,4307.948730,4309.230957,4320.897461,4315.128418,4299.743652,4315.000000,4324.230957,4342.051270,4329.487305,4312.820313,4417.436035,4451.025879,4335.512695,4386.666504,1346.000000,0.000000,12.000000,,,,0.000000,2.000000,2.000000,0.000000,2.000000,2.000000,2.000000,1.000000,2.000000,4.000000,4.000000,4.000000,4.000000,2.000000,4.000000,25.000000,,,,,,,,,,,,,,,,,,,,,,,,,,,,
1732081905.131108,1732081905.132951,107.000000,0.000000,4301.666504,4305.512695,4323.333496,4308.205078,4308.333496,4311.666504,4320.769043,4341.794922,4327.948730,4309.102539,4420.256348,4449.487305,4333.717773,4382.692383,1484.000000,0.000000,12.000000,,,,0.000000,2.000000,2.000000,0.000000,2.000000,2.000000,2.000000,1.000000,2.000000,4.000000,4.000000,4.000000,4.000000,2.000000,4.000000,25.000000,,,,,,,,,,,,,,,,,,,,,,,,,,,,
1732081905.138917,1732081905.140659,108.000000,0.000000,4296.666504,4301.538574,4321.922852,4308.589844,4307.307617,4314.487305,4320.512695,4342.436035,4326.922852,4306.538574,4414.743652,4453.205078,4331.666504,4379.230957,1713.000000,0.000000,12.000000,,,,0.000000,2.000000,2.000000,0.000000,2.000000,2.000000,2.000000,1.000000,2.000000,4.000000,4.000000,4.000000,4.000000,2.000000,4.000000,25.000000,,,,,,,,,,,,,,,,,27.000000,0.000000,0.637043,0.403198,-0.598389,0.271179,0.963008,0.186058,-0.040044,-73.783142,67.636337,29.729145
1732081905.146725,1732081905.148467,109.000000,0.000000,4295.641113,4301.282227,4317.051270,4308.717773,4305.256348,4317.307617,4320.897461,4343.205078,4328.333496,4307.307617,4410.897461,4453.974121,4330.512695,4378.461426,1685.000000,0.000000,12.000000,,,,0.000000,2.000000,2.000000,0.000000,2.000000,2.000000,2.000000,1.000000,2.000000,4.000000,4.000000,4.000000,4.000000,2.000000,4.000000,25.000000,,,,,,,,,,,,,,,,,,,,,,,,,,,,
1732081905.154533,1732081905.156076,110.000000,0.000000,4294.230957,4299.743652,4314.102539,4307.179688,4310.897461,4313.846191,4321.794922,4342.820313,4328.205078,4306.922852,4410.769043,4447.692383,4326.922852,4376.666504,1346.000000,0.000000,12.000000,,,,0.000000,2.000000,2.000000,0.000000,2.000000,2.000000,2.000000,1.000000,2.000000,4.000000,4.000000,4.000000,4.000000,2.000000,4.000000,25.000000,,,,,,,,,,,,,,,,,,,,,,,,,,,,
1732081905.162341,1732081905.163884,111.000000,0.000000,4294.743652,4296.153809,4316.282227,4306.794922,4303.846191,4312.563965,4322.179688,4344.358887,4326.538574,4304.615234,4409.743652,4448.077148,4324.743652,4376.153809,1484.000000,0.000000,12.000000,,,,0.000000,2.000000,2.000000,0.000000,2.000000,2.000000,2.000000,1.000000,2.000000,4.000000,4.000000,4.000000,4.000000,2.000000,4.000000,25.000000,,,,,,,,,,,,,,,,,,,,,,,,,,,,
1732081905.170149,1732081905.171592,112.000000,0.000000,4297.948730,4297.820313,4318.846191,4305.769043,4296.794922,4312.307617,4320.256348,4343.077148,4327.436035,4302.692383,4411.410156,4453.589844,4325.641113,4377.051270,1713.000000,0.000000,12.000000,,,,0.000000,2.000000,2.000000,0.000000,2.000000,2.000000,2.000000,1.000000,2.000000,4.000000,4.000000,4.000000,4.000000,2.000000,4.000000,25.000000,,,,,,,,,,,,,,,,,28.000000,0.000000,0.637075,0.403198,-0.598328,0.271240,0.963008,0.186058,-0.040044,-73.622673,67.565437,29.587275
1732081905.177958,1732081905.179400,113.000000,0.000000,4301.282227,4303.589844,4317.563965,4307.436035,4310.128418,4310.000000,4317.179688,4339.358887,4325.641113,4303.077148,4411.025879,4451.794922,4327.051270,4378.077148,1685.000000,0.000000,12.000000,,,,0.000000,2.000000,2.000000,0.000000,2.000000,2.000000,2.000000,1.000000,2.000000,4.000000,4.000000,4.000000,4.000000,2.000000,4.000000,25.000000,,,,,,,,,,,,,,,,,,,,,,,,,,,,
1732081905.185766,1732081905.187009,114.000000,0.000000,4304.230957,4304.358887,4320.256348,4308.461426,4313.589844,4308.205078,4321.153809,4340.256348,4320.897461,4304.102539,4409.102539,4453.846191,4327.307617,4382.820313,1346.000000,0.000000,12.000000,,,,0.000000,2.000000,2.000000,0.000000,2.000000,2.000000,2.000000,1.000000,2.000000,4.000000,4.000000,4.000000,4.000000,2.000000,4.000000,25.000000,,,,,,,,,,,,,,,,,,,,,,,,,,,,
1732081905.193574,1732081905.194817,115.000000,0.000000,4310.128418,4304.102539,4323.205078,4312.692383,4295.512695,4309.230957,4321.922852,4341.666504,4319.871582,4303.461426,4413.205078,4458.589844,4328.974121,4387.436035,1484.000000,0.000000,12.000000,,,,0.000000,2.000000,2.000000,0.000000,2.000000,2.000000,2.000000,1.000000,2.000000,4.000000,4.000000,4.000000,4.000000,2.000000,4.000000,25.000000,,,,,,,,,,,,,,,,,,,,,,,,,,,,
1732081905.201383,1732081905.202525,116.000000,0.000000,4311.794922,4306.666504,4326.153809,4319.102539,4292.436035,4309.358887,4320.000000,4334.743652,4319.871582,4301.410156,4411.794922,4454.230957,4328.589844,4383.846191,1713.000000,0.000000,12.000000,,,,0.000000,2.000000,2.000000,0.000000,2.000000,2.000000,2.000000,1.000000,2.000000,4.000000,4.000000,4.000000,4.000000,2.000000,4.000000,25.000000,,,,,,,,,,,,,,,,,29.000000,0.000000,0.636705,0.403198,-0.598389,0.271973,0.971798,0.165059,-0.045904,-73.641037,67.549667,29.789026
1732081905.209191,1732081905.210334,117.000000,0.000000,4301.666504,4304.230957,4322.692383,4315.512695,4305.000000,4307.051270,4320.769043,4332.436035,4318.974121,4300.000000,4401.410156,4447.563965,4323.333496,4375.512695,1685.000000,0.000000,12.000000,,,,0.000000,2.000000,2.000000,0.000000,2.000000,2.000000,2.000000,1.000000,2.000000,4.000000,4.000000,4.000000,4.000000,2.000000,4.000000,25.000000,,,,,,,,,,,,,,,,,,,,,,,,,,,,
1732081905.216999,1732081905.218342,118.000000,0.000000,4296.410156,4299.102539,4321.025879,4305.769043,4303.077148,4303.717773,4321.538574,4336.794922,4317.820313,4299.102539,4400.641113,4447.692383,4323.333496,4373.974121,1346.000000,0.000000,12.000000,,,,0.000000,2.000000,2.000000,0.000000,2.000000,2.000000,2.000000,1.000000,2.000000,4.000000,4.000000,4.000000,4.000000,2.000000,4.000000,25.000000,,,,,,,,,,,,,,,,,,,,,,,,,,,,
1732081905.224807,1732081905.226150,119.000000,0.000000,4302.179688,4300.000000,4321.538574,4307.692383,4298.205078,4302.948730,4316.538574,4330.897461,4313.846191,4298.461426,4407.179688,4447.563965,4325.769043,4377.948730,1484.000000,0.000000,12.000000,,,,0.000000,2.000000,2.000000,0.000000,2.000000,2.000000,2.000000,1.000000,2.000000,4.000000,4.000000,4.000000,4.000000,2.000000,4.000000,25.000000,,,,,,,,,,,,,,,,,,,,,,,,,,,,
1732081905.232616,1732081905.233858,120.000000,0.000000,4301.794922,4300.641113,4322.692383,4311.666504,4302.307617,4304.230957,4315.256348,4325.641113,4312.307617,4298.717773,4405.769043,4445.000000,4322.436035,4375.000000,1713.000000,0.000000,12.000000,,,,0.000000,2.000000,2.000000,0.000000,2.000000,2.000000,2.000000,1.000000,2.000000,4.000000,4.000000,4.000000,4.000000,2.000000,4.000000,25.000000,,,,,,,,,,,,,,,,,30.000000,0.000000,0.636390,0.402954,-0.598694,0.272400,0.970822,0.179221,-0.055671,-73.722572,67.686897,29.852444
1732081905.240424,1732081905.241666,121.000000,0.000000,4296.666504,4302.051270,4318.846191,4307.307617,4302.563965,4303.461426,4315.897461,4331.794922,4318.077148,4299.102539,4405.641113,4446.538574,4322.307617,4371.282227,1685.000000,0.000000,12.000000,,,,0.000000,2.000000,2.000000,0.000000,2.000000,2.000000,2.000000,1.000000,2.000000,4.000000,4.000000,4.000000,4.000000,2.000000,4.000000,25.000000,,,,,,,,,,,,,,,,,,,,,,,,,,,,
1732081905.248232,1732081905.249275,122.000000,0.000000,4297.563965,4302.563965,4319.358887,4306.410156,4300.769043,4300.897461,4316.410156,4332.692383,4320.512695,4298.717773,4407.179688,4447.436035,4324.487305,4372.948730,1346.000000,0.000000,12.000000,,,,0.000000,2.000000,2.000000,0.000000,2.000000,2.000000,2.000000,1.000000,2.000000,4.000000,4.000000,4.000000,4.000000,2.000000,4.000000,25.000000,,,,,,,,,,,,,,,,,,,,,,,,,,,,
1732081905.256040,1732081905.257083,123.000000,0.000000,4298.589844,4298.846191,4319.487305,4308.846191,4299.358887,4299.871582,4316.153809,4325.256348,4314.102539,4295.128418,4404.102539,4441.025879,4319.102539,4374.871582,1484.000000,0.000000,12.000000,,,,0.000000,2.000000,2.000000,0.000000,2.000000,2.000000,2.000000,1.000000,2.000000,4.000000,4.000000,4.000000,4.000000,2.000000,4.000000,25.000000,,,,,,,,,,,,,,,,,,,,,,,,,,,,
1732081905.263849,1732081905.264991,124.000000,0.000000,4296.794922,4298.717773,4317.820313,4310.897461,4294.615234,4299.102539,4316.538574,4323.846191,4311.922852,4292.820313,4402.179688,4434.358887,4315.641113,4376.538574,1713.000000,0.000000,12.000000,,,,0.000000,2.000000,2.000000,0.000000,2.000000,2.000000,2.000000,1.000000,2.000000,4.000000,4.000000,4.000000,4.000000,2.000000,4.000000,25.000000,,,,,,,,,,,,,,,,,31.000000,0.000000,0.636111,0.403015,-0.598755,0.272827,0.962520,0.183616,-0.047857,-73.870285,67.271385,29.722147
1732081905.271657,1732081905.272799,125.000000,0.000000,4295.897461,4300.256348,4315.769043,4310.384766,4300.641113,4299.102539,4317.179688,4329.230957,4314.743652,4295.256348,4403.589844,4433.077148,4318.333496,4375.641113,1685.000000,0.000000,12.000000,,,,0.000000,2.000000,2.000000,0.000000,2.000000,2.000000,2.000000,1.000000,2.000000,4.000000,4.000000,4.000000,4.000000,2.000000,4.000000,25.000000,,,,,,,,,,,,,,,,,,,,,,,,,,,,
1732081905.279465,1732081905.280408,126.000000,0.000000,4293.333496,4298.589844,4315.384766,4306.666504,4311.025879,4297.307617,4317.563965,4330.000000,4314.487305,4297.820313,4404.230957,4432.948730,4317.436035,4369.358887,1346.000000,0.000000,12.000000,,,,0.000000,2.000000,2.000000,0.000000,2.000000,2.000000,2.000000,1.000000,2.000000,4.000000,4.000000,4.000000,4.000000,2.000000,4.000000,25.000000,,,,,,,,,,,,,,,,,,,,,,,,,,,,
1732081905.287273,1732081905.288216,127.000000,0.000000,4290.897461,4295.000000,4315.256348,4303.974121,4302.051270,4299.615234,4319.871582,4329.230957,4312.563965,4297.820313,4405.769043,4433.846191,4320.641113,4367.179688,12.000000,0.000000,12.000000,,,,0.000000,2.000000,2.000000,0.000000,2.000000,2.000000,2.000000,1.000000,2.000000,4.000000,4.000000,4.000000,4.000000,2.000000,4.000000,25.000000,,,,,,,,,,,,,,,,,,,,,,,,,,,,
1732081905.295082,1732081905.296124,0.000000,0.000000,4291.666504,4293.589844,4314.487305,4302.820313,4288.589844,4308.589844,4321.153809,4330.897461,4316.666504,4301.666504,4407.820313,4433.974121,4327.307617,4370.641113,0.000000,0.000000,12.000000,,,,0.000000,2.000000,2.000000,0.000000,2.000000,2.000000,2.000000,1.000000,2.000000,4.000000,4.000000,4.000000,4.000000,2.000000,4.000000,25.000000,,,,,,,,,,,,,,,,,0.000000,0.000000,0.635573,0.403076,-0.598755,0.273987,0.945428,0.204615,-0.054694,-73.958260,67.124825,30.186605
1732081905.302890,1732081905.303932,1.000000,0.000000,4291.282227,4296.153809,4315.512695,4304.102539,4293.205078,4305.512695,4319.743652,4330.641113,4318.077148,4301.410156,4400.897461,4424.871582,4323.205078,4365.128418,1295.000000,0.000000,12.000000,,,,0.000000,2.000000,2.000000,0.000000,2.000000,2.000000,2.000000,1.000000,2.000000,4.000000,4.000000,4.000000,4.000000,2.000000,4.000000,25.000000,,,,,,,,,,,,,,,,,,,,,,,,,,,,
1732081905.310698,1732081905.311940,2.000000,0.000000,4290.384766,4300.128418,4314.487305,4304.743652,4297.436035,4296.794922,4316.282227,4326.282227,4312.051270,4294.487305,4395.897461,4415.897461,4319.230957,4359.743652,1215.000000,0.000000,12.000000,,,,0.000000,2.000000,2.000000,0.000000,2.000000,2.000000,2.000000,1.000000,2.000000,4.000000,4.000000,4.000000,4.000000,2.000000,4.000000,25.000000,,,,,,,,,,,,,,,,,,,,,,,,,,,,
1732081905.318506,1732081905.319748,3.000000,0.000000,4289.487305,4301.538574,4317.307617,4304.487305,4289.871582,4299.743652,4318.077148,4325.512695,4309.358887,4291.025879,4398.077148,4423.077148,4320.384766,4364.358887,1172.000000,0.000000,12.000000,,,,0.000000,2.000000,2.000000,0.000000,2.000000,2.000000,2.000000,1.000000,2.000000,4.000000,4.000000,4.000000,4.000000,2.000000,4.000000,25.000000,,,,,,,,,,,,,,,,,,,,,,,,,,,,
1732081905.326315,1732081905.327657,4.000000,0.000000,4287.307617,4300.769043,4315.769043,4306.025879,4290.512695,4302.307617,4316.922852,4325.897461,4309.102539,4289.871582,4395.641113,4432.307617,4313.205078,4363.846191,1187.000000,0.000000,12.000000,,,,0.000000,2.000000,2.000000,0.000000,2.000000,2.000000,2.000000,1.000000,2.000000,4.000000,4.000000,4.000000,4.000000,2.000000,4.000000,25.000000,,,,,,,,,,,,,,,,,1.000000,0.000000,0.635786,0.406250,-0.596436,0.273865,0.935173,0.257356,-0.066414,-74.016190,67.024437,30.047817
1732081905.334123,1732081905.335465,5.000000,0.000000,4286.538574,4298.333496,4313.077148,4308.077148,4288.589844,4297.436035,4316.025879,4322.948730,4308.333496,4290.128418,4393.717773,4434.230957,4309.102539,4360.641113,1067.000000,0.000000,12.000000,,,,0.000000,2.000000,2.000000,0.000000,2.000000,2.000000,2.000000,1.000000,2.000000,4.000000,4.000000,4.000000,4.000000,2.000000,4.000000,25.000000,,,,,,,,,,,,,,,,,,,,,,,,,,,,
1732081905.341931,1732081905.343473,6.000000,0.000000,4291.282227,4295.512695,4313.205078,4308.077148,4280.256348,4295.641113,4316.025879,4324.102539,4309.743652,4295.000000,4402.307617,4436.153809,4317.948730,4367.307617,202.000000,0.000000,12.000000,,,,0.000000,2.000000,2.000000,0.000000,2.000000,2.000000,2.000000,1.000000,2.000000,4.000000,4.000000,4.000000,4.000000,2.000000,4.000000,25.000000,,,,,,,,,,,,,,,,,,,,,,,,,,,,
1732081905.349739,1732081905.351281,7.000000,0.000000,4295.897461,4295.769043,4318.717773,4305.769043,4285.384766,4291.794922,4316.538574,4323.589844,4306.922852,4295.128418,4402.948730,4438.461426,4319.743652,4372.820313,1194.000000,0.000000,12.000000,,,,0.000000,2.000000,2.000000,0.000000,2.000000,2.000000,2.000000,1.000000,2.000000,4.000000,4.000000,4.000000,4.000000,2.000000,4.000000,25.000000,,,,,,,,,,,,,,,,,,,,,,,,,,,,
1732081905.357548,1732081905.359189,8.000000,0.000000,4295.512695,4295.000000,4318.461426,4303.717773,4283.717773,4287.436035,4315.897461,4319.871582,4302.563965,4290.128418,4396.922852,4441.153809,4313.974121,4371.794922,1337.000000,0.000000,12.000000,,,,0.000000,2.000000,2.000000,0.000000,2.000000,2.000000,2.000000,1.000000,2.000000,4.000000,4.000000,4.000000,4.000000,2.000000,4.000000,25.000000,,,,,,,,,,,,,,,,,2.000000,0.000000,0.636270,0.409424,-0.594360,0.272522,0.923941,0.241729,-0.061043,-74.041451,67.138130,29.885399
1732081905.365356,1732081905.366997,9.000000,0.000000,4295.512695,4292.179688,4318.077148,4300.641113,4266.153809,4293.077148,4317.307617,4322.692383,4305.128418,4289.871582,4399.743652,4443.077148,4313.717773,4372.436035,1472.000000,0.000000,12.000000,,,,0.000000,2.000000,2.000000,0.000000,2.000000,2.000000,2.000000,1.000000,2.000000,4.000000,4.000000,4.000000,4.000000,2.000000,4.000000,25.000000,,,,,,,,,,,,,,,,,,,,,,,,,,,,
1732081905.373164,1732081905.375005,10.000000,0.000000,4299.230957,4293.461426,4319.615234,4301.794922,4262.307617,4296.538574,4319.487305,4327.563965,4309.743652,4294.102539,4401.410156,4440.000000,4315.256348,4372.436035,1361.000000,0.000000,12.000000,,,,0.000000,2.000000,2.000000,0.000000,2.000000,2.000000,2.000000,1.000000,2.000000,4.000000,4.000000,4.000000,4.000000,2.000000,4.000000,25.000000,,,,,,,,,,,,,,,,,,,,,,,,,,,,
1732081905.380973,1732081905.382814,11.000000,0.000000,4301.153809,4292.948730,4321.410156,4302.563965,4270.641113,4290.256348,4321.153809,4324.743652,4305.641113,4290.897461,4394.743652,4434.615234,4314.743652,4367.563965,1486.000000,0.000000,12.000000,,,,0.000000,2.000000,2.000000,0.000000,2.000000,2.000000,2.000000,1.000000,2.000000,4.000000,4.000000,4.000000,4.000000,2.000000,4.000000,25.000000,,,,,,,,,,,,,,,,,,,,,,,,,,,,
1732081905.388781,1732081905.390722,12.000000,0.000000,4302.307617,4291.666504,4325.000000,4303.333496,4265.769043,4287.692383,4322.307617,4320.384766,4301.666504,4284.615234,4390.128418,4432.307617,4311.153809,4363.717773,1720.000000,0.000000,12.000000,,,,0.000000,2.000000,2.000000,0.000000,2.000000,2.000000,2.000000,1.000000,2.000000,4.000000,4.000000,4.000000,4.000000,2.000000,4.000000,25.000000,,,,,,,,,,,,,,,,,3.000000,0.000000,0.636873,0.410767,-0.593262,0.271484,0.915151,0.237822,-0.036626,-73.946907,67.090218,30.118839
1732081905.396589,1732081905.398530,13.000000,0.000000,4302.307617,4289.102539,4324.743652,4305.641113,4260.897461,4290.384766,4322.179688,4324.358887,4304.230957,4286.666504,4393.717773,4436.666504,4308.846191,4366.538574,1690.000000,0.000000,12.000000,,,,0.000000,2.000000,2.000000,0.000000,2.000000,2.000000,2.000000,1.000000,2.000000,4.000000,4.000000,4.000000,4.000000,2.000000,4.000000,25.000000,,,,,,,,,,,,,,,,,,,,,,,,,,,,
1732081905.404397,1732081905.406538,14.000000,0.000000,4301.282227,4284.743652,4323.205078,4301.282227,4265.000000,4291.922852,4325.641113,4327.436035,4306.666504,4286.538574,4397.820313,4442.563965,4311.922852,4372.948730,1361.000000,0.000000,12.000000,,,,0.000000,2.000000,2.000000,0.000000,2.000000,2.000000,2.000000,1.000000,2.000000,4.000000,4.000000,4.000000,4.000000,2.000000,4.000000,25.000000,1.000000,16.666666,2.000000,2.000000,0.000000,2.000000,2.000000,2.000000,0.000000,2.000000,3.000000,3.000000,4.000000,4.000000,2.000000,4.000000,,,,,,,,,,,,
1732081905.412206,1732081905.414346,15.000000,0.000000,4306.153809,4285.897461,4322.820313,4297.179688,4262.820313,4291.538574,4325.256348,4324.871582,4304.102539,4281.153809,4395.000000,4438.589844,4314.230957,4377.051270,1486.000000,0.000000,12.000000,,,,0.000000,2.000000,2.000000,0.000000,2.000000,2.000000,2.000000,1.000000,2.000000,4.000000,4.000000,4.000000,4.000000,2.000000,4.000000,25.000000,,,,,,,,,,,,,,,,,,,,,,,,,,,,
1732081905.420014,1732081905.422254,16.000000,0.000000,4313.077148,4289.615234,4324.743652,4298.461426,4258.717773,4287.692383,4321.666504,4321.153809,4299.615234,4277.307617,4393.333496,4436.282227,4316.666504,4380.512695,0.000000,0.000000,12.000000,,,,0.000000,2.000000,2.000000,0.000000,2.000000,2.000000,2.000000,1.000000,2.000000,4.000000,4.000000,4.000000,4.000000,2.000000,4.000000,25.000000,,,,,,,,,,,,,,,,,4.000000,0.000000,0.639676,0.414185,-0.589050,0.268860,1.002075,0.204126,-0.035161,-73.966995,67.248077,30.016260
1732081905.427822,1732081905.430062,17.000000,0.000000,4318.974121,4289.230957,4321.282227,4300.769043,4259.871582,4283.717773,4321.153809,4319.615234,4300.641113,4278.974121,4400.000000,4443.717773,4322.692383,4388.974121,0.000000,0.000000,12.000000,,,,0.000000,2.000000,2.000000,0.000000,2.000000,2.000000,2.000000,1.000000,2.000000,4.000000,4.000000,4.000000,4.000000,2.000000,4.000000,25.000000,,,,,,,,,,,,,,,,,,,,,,,,,,,,
1732081905.435630,1732081905.438070,18.000000,0.000000,4326.666504,4287.948730,4322.179688,4300.256348,4259.871582,4284.102539,4323.589844,4319.230957,4301.794922,4278.205078,4403.589844,4445.384766,4324.615234,4393.846191,0.000000,0.000000,12.000000,,,,0.000000,2.000000,2.000000,0.000000,2.000000,2.000000,2.000000,1.000000,2.000000,4.000000,4.000000,4.000000,4.000000,2.000000,4.000000,25.000000,,,,,,,,,,,,,,,,,,,,,,,,,,,,
1732081905.443438,1732081905.445879,19.000000,0.000000,4335.000000,4289.102539,4325.256348,4297.563965,4259.487305,4282.948730,4319.358887,4316.666504,4298.717773,4275.897461,4399.487305,4437.563965,4323.205078,4393.589844,0.000000,0.000000,12.000000,,,,0.000000,2.000000,2.000000,0.000000,2.000000,2.000000,2.000000,1.000000,2.000000,4.000000,4.000000,4.000000,4.000000,2.000000,4.000000,25.000000,,,,,,,,,,,,,,,,,,,,,,,,,,,,
1732081905.451247,1732081905.453787,20.000000,0.000000,4337.307617,4289.358887,4330.897461,4291.666504,4262.436035,4280.384766,4321.025879,4315.641113,4299.743652,4277.692383,4400.000000,4438.974121,4325.769043,4397.692383,0.000000,0.000000,12.000000,,,,0.000000,2.000000,2.000000,0.000000,2.000000,2.000000,2.000000,1.000000,2.000000,4.000000,4.000000,4.000000,4.000000,2.000000,4.000000,25.000000,,,,,,,,,,,,,,,,,5.000000,0.000000,0.640521,0.412842,-0.588684,0.269714,0.982053,0.186546,-0.029300,-73.574936,67.412613,29.924837
1732081905.459055,1732081905.461595,21.000000,0.000000,4338.846191,4288.077148,4331.410156,4292.179688,4263.717773,4286.538574,4327.820313,4318.461426,4305.256348,4283.717773,4405.769043,4445.897461,4330.641113,4406.666504,0.000000,0.000000,12.000000,,,,0.000000,2.000000,2.000000,0.000000,2.000000,2.000000,2.000000,1.000000,2.000000,4.000000,4.000000,4.000000,4.000000,2.000000,4.000000,25.000000,,,,,,,,,,,,,,,,,,,,,,,,,,,,
1732081905.466863,1732081905.469603,22.000000,0.000000,4346.666504,4285.897461,4328.333496,4299.871582,4260.897461,4287.179688,4325.769043,4322.051270,4305.256348,4287.563965,4408.077148,4449.743652,4332.179688,4410.512695,0.000000,0.000000,12.000000,,,,0.000000,2.000000,2.000000,0.000000,2.000000,2.000000,2.000000,1.000000,2.000000,4.000000,4.000000,4.000000,4.000000,2.000000,4.000000,25.000000,,,,,,,,,,,,,,,,,,,,,,,,,,,,
1732081905.474671,1732081905.477411,23.000000,0.000000,4352.307617,4284.743652,4322.820313,4298.589844,4261.025879,4280.384766,4318.333496,4320.641113,4300.384766,4281.025879,4404.358887,4452.948730,4328.205078,4408.717773,0.000000,0.000000,12.000000,,,,0.000000,2.000000,2.000000,0.000000,2.000000,2.000000,2.000000,1.000000,2.000000,4.000000,4.000000,4.000000,4.000000,2.000000,4.000000,25.000000,,,,,,,,,,,,,,,,,,,,,,,,,,,,
1732081905.482480,1732081905.485319,24.000000,0.000000,4351.794922,4286.410156,4319.743652,4293.205078,4262.692383,4281.922852,4317.051270,4314.615234,4298.077148,4276.282227,4403.461426,4453.589844,4323.974121,4409.871582,0.000000,0.000000,12.000000,,,,0.000000,2.000000,2.000000,0.000000,2.000000,2.000000,2.000000,1.000000,2.000000,4.000000,4.000000,4.000000,4.000000,2.000000,4.000000,25.000000,,,,,,,,,,,,,,,,,6.000000,0.000000,0.640585,0.411499,-0.589050,0.270813,1.001099,0.162129,-0.034184,-73.624031,67.650879,29.717451
1732081905.490288,1732081905.493127,25.000000,0.000000,4356.410156,4288.589844,4319.230957,4298.333496,4262.820313,4280.128418,4315.641113,4314.615234,4300.000000,4282.692383,4410.512695,4452.179688,4329.102539,4419.487305,0.000000,0.000000,12.000000,,,,0.000000,2.000000,2.000000,0.000000,2.000000,2.000000,2.000000,1.000000,2.000000,4.000000,4.000000,4.000000,4.000000,2.000000,4.000000,25.000000,,,,,,,,,,,,,,,,,,,,,,,,,,,,
1732081905.498096,1732081905.500736,26.000000,0.000000,4367.692383,4285.641113,4320.128418,4303.717773,4261.410156,4268.461426,4312.948730,4321.794922,4305.769043,4287.820313,4416.794922,4455.128418,4334.871582,4428.589844,0.000000,0.000000,12.000000,,,,0.000000,2.000000,2.000000,0.000000,2.000000,2.000000,2.000000,1.000000,2.000000,4.000000,4.000000,4.000000,4.000000,2.000000,4.000000,25.000000,,,,,,,,,,,,,,,,,,,,,,,,,,,,
1732081905.505905,1732081905.508544,27.000000,0.000000,4371.794922,4282.436035,4320.384766,4299.358887,4259.743652,4263.717773,4312.436035,4319.358887,4308.974121,4287.948730,4418.589844,4462.563965,4334.230957,4431.153809,0.000000,0.000000,12.000000,,,,0.000000,2.000000,2.000000,0.000000,2.000000,2.000000,2.000000,1.000000,2.000000,4.000000,4.000000,4.000000,4.000000,2.000000,4.000000,25.000000,,,,,,,,,,,,,,,,,,,,,,,,,,,,
1732081905.513713,1732081905.516252,28.000000,0.000000,4372.820313,4287.051270,4316.794922,4300.384766,4261.282227,4266.282227,4307.692383,4306.410156,4302.948730,4285.641113,4417.948730,4462.051270,4332.692383,4433.717773,0.000000,0.000000,12.000000,,,,0.000000,2.000000,2.000000,0.000000,2.000000,2.000000,2.000000,1.000000,2.000000,4.000000,4.000000,4.000000,4.000000,2.000000,4.000000,25.000000,,,,,,,,,,,,,,,,,7.000000,0.000000,0.640272,0.408081,-0.590271,0.274048,0.972775,0.188011,-0.012697,-73.692131,67.835548,29.694469
1732081905.521521,1732081905.524061,29.000000,0.000000,4377.563965,4286.282227,4317.179688,4306.025879,4264.743652,4263.333496,4304.358887,4303.974121,4296.153809,4281.282227,4416.794922,4457.820313,4332.179688,4438.461426,0.000000,0.000000,12.000000,,,,0.000000,2.000000,2.000000,0.000000,2.000000,2.000000,2.000000,1.000000,2.000000,4.000000,4.000000,4.000000,4.000000,2.000000,4.000000,25.000000,,,,,,,,,,,,,,,,,,,,,,,,,,,,
1732081905.529329,1732081905.531669,30.000000,0.000000,4379.358887,4279.102539,4313.717773,4302.948730,4262.563965,4262.436035,4306.538574,4308.205078,4297.051270,4279.358887,4423.846191,4463.589844,4339.102539,4445.000000,0.000000,0.000000,12.000000,,,,0.000000,2.000000,2.000000,0.000000,2.000000,2.000000,2.000000,1.000000,2.000000,4.000000,4.000000,4.000000,4.000000,2.000000,4.000000,25.000000,,,,,,,,,,,,,,,,,,,,,,,,,,,,
1732081905.537138,1732081905.539477,31.000000,0.000000,4378.077148,4277.563965,4313.717773,4295.897461,4257.051270,4264.615234,4309.102539,4308.717773,4298.974121,4279.487305,4430.641113,4469.871582,4346.922852,4447.563965,0.000000,0.000000,12.000000,,,,0.000000,2.000000,2.000000,0.000000,2.000000,2.000000,2.000000,1.000000,2.000000,4.000000,4.000000,4.000000,4.000000,2.000000,4.000000,25.000000,,,,,,,,,,,,,,,,,,,,,,,,,,,,
1732081905.544946,1732081905.547385,32.000000,0.000000,4378.717773,4280.256348,4313.589844,4296.794922,4261.025879,4265.512695,4304.871582,4311.666504,4297.692383,4277.051270,4426.282227,4467.948730,4342.563965,4444.871582,0.000000,0.000000,12.000000,,,,0.000000,2.000000,2.000000,0.000000,2.000000,2.000000,2.000000,1.000000,2.000000,4.000000,4.000000,4.000000,4.000000,2.000000,4.000000,25.000000,,,,,,,,,,,,,,,,,8.000000,0.000000,0.638988,0.400757,-0.593689,0.280396,0.966427,0.139177,-0.014650,-73.747292,67.735123,29.875853
1732081905.552754,1732081905.555193,33.000000,0.000000,4377.436035,4280.897461,4315.512695,4301.666504,4266.794922,4264.743652,4302.692383,4312.307617,4295.897461,4275.384766,4422.820313,4467.563965,4339.358887,4444.487305,0.000000,0.000000,12.000000,,,,0.000000,2.000000,2.000000,0.000000,2.000000,2.000000,2.000000,1.000000,2.000000,4.000000,4.000000,4.000000,4.000000,2.000000,4.000000,25.000000,,,,,,,,,,,,,,,,,,,,,,,,,,,,
1732081905.560562,1732081905.562802,34.000000,0.000000,4379.102539,4285.384766,4313.589844,4303.846191,4265.384766,4263.717773,4303.589844,4308.205078,4295.512695,4277.307617,4427.436035,4470.256348,4348.846191,4448.333496,0.000000,0.000000,12.000000,,,,0.000000,2.000000,2.000000,0.000000,2.000000,2.000000,2.000000,1.000000,2.000000,4.000000,4.000000,4.000000,4.000000,2.000000,4.000000,25.000000,,,,,,,,,,,,,,,,,,,,,,,,,,,,
1732081905.568371,1732081905.570610,35.000000,0.000000,4383.461426,4288.974121,4314.102539,4303.717773,4265.641113,4267.563965,4306.666504,4311.153809,4294.487305,4273.589844,4427.051270,4472.307617,4348.974121,4446.538574,0.000000,0.000000,12.000000,,,,0.000000,2.000000,2.000000,0.000000,2.000000,2.000000,2.000000,1.000000,2.000000,4.000000,4.000000,4.000000,4.000000,2.000000,4.000000,25.000000,,,,,,,,,,,,,,,,,,,,,,,,,,,,
1732081905.576179,1732081905.578318,36.000000,0.000000,4382.436035,4287.051270,4313.077148,4301.922852,4269.230957,4267.692383,4301.666504,4309.358887,4291.538574,4267.051270,4423.205078,4469.871582,4341.538574,4443.333496,0.000000,0.000000,12.000000,,,,0.000000,2.000000,2.000000,0.000000,2.000000,2.000000,2.000000,1.000000,2.000000,4.000000,4.000000,4.000000,4.000000,2.000000,4.000000,25.000000,,,,,,,,,,,,,,,,,9.000000,0.000000,0.636959,0.396973,-0.595642,0.286194,0.983030,0.127945,-0.045416,-73.831970,67.497116,29.729441
1732081905.583987,1732081905.586127,37.000000,0.000000,4377.563965,4285.769043,4313.461426,4300.512695,4268.846191,4257.563965,4297.307617,4299.230957,4288.589844,4267.692383,4422.436035,4467.692383,4347.563965,4446.538574,0.000000,0.000000,12.000000,,,,0.000000,2.000000,2.000000,0.000000,2.000000,2.000000,2.000000,1.000000,2.000000,4.000000,4.000000,4.000000,4.000000,2.000000,4.000000,25.000000,,,,,,,,,,,,,,,,,,,,,,,,,,,,
1732081905.591795,1732081905.593735,38.000000,0.000000,4376.922852,4285.769043,4316.538574,4301.282227,4266.410156,4254.230957,4300.641113,4301.282227,4290.000000,4271.153809,4425.769043,4473.717773,4355.256348,4447.563965,0.000000,0.000000,12.000000,,,,0.000000,2.000000,2.000000,0.000000,2.000000,2.000000,2.000000,1.000000,2.000000,4.000000,4.000000,4.000000,4.000000,2.000000,4.000000,25.000000,,,,,,,,,,,,,,,,,,,,,,,,,,,,
1732081905.599604,1732081905.601543,39.000000,0.000000,4377.436035,4288.077148,4316.922852,4301.922852,4265.384766,4264.230957,4303.717773,4309.871582,4290.512695,4271.282227,4429.615234,4478.333496,4348.846191,4444.358887,0.000000,0.000000,12.000000,,,,0.000000,2.000000,2.000000,0.000000,2.000000,2.000000,2.000000,1.000000,2.000000,4.000000,4.000000,4.000000,4.000000,2.000000,4.000000,25.000000,,,,,,,,,,,,,,,,,,,,,,,,,,,,
1732081905.607412,1732081905.609252,40.000000,0.000000,4376.282227,4290.512695,4317.948730,4303.589844,4266.794922,4263.717773,4303.333496,4311.922852,4292.563965,4274.230957,4427.179688,4474.871582,4341.153809,4443.717773,0.000000,0.000000,12.000000,,,,0.000000,2.000000,2.000000,0.000000,2.000000,2.000000,2.000000,1.000000,2.000000,4.000000,4.000000,4.000000,4.000000,2.000000,4.000000,25.000000,,,,,,,,,,,,,,,,,10.000000,0.000000,0.636038,0.396118,-0.596252,0.288147,0.983030,0.127945,-0.045416,-74.085564,67.085999,29.717514
1732081905.615220,1732081905.617060,41.000000,0.000000,4377.692383,4293.333496,4319.102539,4305.000000,4270.641113,4251.794922,4302.307617,4308.846191,4298.205078,4280.769043,4425.641113,4474.358887,4349.615234,4447.307617,0.000000,0.000000,12.000000,,,,0.000000,2.000000,2.000000,0.000000,2.000000,2.000000,2.000000,1.000000,2.000000,4.000000,4.000000,4.000000,4.000000,2.000000,4.000000,25.000000,,,,,,,,,,,,,,,,,,,,,,,,,,,,
1732081905.623028,1732081905.624668,42.000000,0.000000,4381.025879,4293.846191,4318.589844,4302.563965,4263.846191,4252.307617,4302.179688,4305.641113,4297.563965,4281.794922,4429.230957,4473.717773,4358.461426,4450.384766,0.000000,0.000000,12.000000,,,,0.000000,2.000000,2.000000,0.000000,2.000000,2.000000,2.000000,1.000000,2.000000,4.000000,4.000000,4.000000,4.000000,2.000000,4.000000,25.000000,,,,,,,,,,,,,,,,,,,,,,,,,,,,
1732081905.630837,1732081905.632476,43.000000,0.000000,4375.512695,4291.538574,4313.205078,4298.974121,4261.538574,4263.461426,4303.333496,4305.769043,4295.641113,4276.922852,4428.077148,4462.563965,4351.025879,4443.846191,0.000000,0.000000,12.000000,,,,0.000000,2.000000,2.000000,0.000000,2.000000,2.000000,2.000000,1.000000,2.000000,4.000000,4.000000,4.000000,4.000000,2.000000,4.000000,25.000000,,,,,,,,,,,,,,,,,,,,,,,,,,,,
1732081905.638645,1732081905.640384,44.000000,0.000000,4364.102539,4287.307617,4313.333496,4297.436035,4281.794922,4261.282227,4303.077148,4306.025879,4295.769043,4275.000000,4422.051270,4458.461426,4342.563965,4433.717773,0.000000,0.000000,12.000000,,,,0.000000,2.000000,2.000000,0.000000,2.000000,2.000000,2.000000,1.000000,2.000000,4.000000,4.000000,4.000000,4.000000,2.000000,4.000000,25.000000,,,,,,,,,,,,,,,,,11.000000,0.000000,0.633489,0.392578,-0.598022,0.294861,0.989867,0.075204,-0.016115,-74.395973,66.526329,29.862852
1732081905.646453,1732081905.648193,45.000000,0.000000,4361.025879,4285.897461,4312.692383,4296.410156,4284.230957,4252.563965,4299.102539,4301.025879,4290.512695,4273.717773,4419.358887,4459.871582,4340.897461,4430.512695,0.000000,0.000000,12.000000,,,,0.000000,2.000000,2.000000,0.000000,2.000000,2.000000,2.000000,1.000000,2.000000,4.000000,4.000000,4.000000,4.000000,2.000000,4.000000,25.000000,,,,,,,,,,,,,,,,,,,,,,,,,,,,
1732081905.654261,1732081905.656201,46.000000,0.000000,4365.769043,4289.230957,4313.205078,4295.256348,4263.077148,4256.025879,4298.461426,4295.512695,4287.692383,4271.025879,4417.692383,4457.179688,4338.333496,4429.358887,0.000000,0.000000,12.000000,,,,0.000000,2.000000,2.000000,0.000000,2.000000,2.000000,2.000000,1.000000,2.000000,4.000000,4.000000,4.000000,4.000000,2.000000,4.000000,25.000000,,,,,,,,,,,,,,,,,,,,,,,,,,,,
1732081905.662070,1732081905.664009,47.000000,0.000000,4364.615234,4289.358887,4314.102539,4296.538574,4267.820313,4260.256348,4299.102539,4300.384766,4296.153809,4275.769043,4416.922852,4456.922852,4339.743652,4428.077148,0.000000,0.000000,12.000000,,,,0.000000,2.000000,2.000000,0.000000,2.000000,2.000000,2.000000,1.000000,2.000000,4.000000,4.000000,4.000000,4.000000,2.000000,4.000000,25.000000,,,,,,,,,,,,,,,,,,,,,,,,,,,,
1732081905.669878,1732081905.671917,48.000000,0.000000,4360.000000,4288.205078,4318.589844,4293.589844,4285.512695,4258.461426,4299.615234,4308.846191,4299.358887,4278.974121,4419.615234,4460.512695,4344.358887,4431.025879,0.000000,0.000000,12.000000,,,,0.000000,2.000000,2.000000,0.000000,2.000000,2.000000,2.000000,1.000000,2.000000,4.000000,4.000000,4.000000,4.000000,2.000000,4.000000,25.000000,,,,,,,,,,,,,,,,,12.000000,0.000000,0.632655,0.390869,-0.598755,0.297424,0.981565,0.086436,-0.016604,-74.640739,66.156326,29.860577
1732081905.677686,1732081905.679725,49.000000,0.000000,4360.256348,4290.769043,4316.282227,4293.077148,4280.384766,4264.487305,4301.153809,4310.256348,4298.205078,4278.077148,4420.769043,4461.153809,4341.538574,4428.205078,0.000000,0.000000,12.000000,,,,0.000000,2.000000,2.000000,0.000000,2.000000,2.000000,2.000000,1.000000,2.000000,4.000000,4.000000,4.000000,4.000000,2.000000,4.000000,25.000000,,,,,,,,,,,,,,,,,,,,,,,,,,,,
1732081905.685495,1732081905.687334,50.000000,0.000000,4362.820313,4290.256348,4313.589844,4298.717773,4276.282227,4267.563965,4302.820313,4305.128418,4298.589844,4279.487305,4425.384766,4462.948730,4342.051270,4428.077148,0.000000,0.000000,12.000000,,,,0.000000,2.000000,2.000000,0.000000,2.000000,2.000000,2.000000,1.000000,2.000000,4.000000,4.000000,4.000000,4.000000,2.000000,4.000000,25.000000,,,,,,,,,,,,,,,,,,,,,,,,,,,,
1732081905.693303,1732081905.695142,51.000000,0.000000,4366.282227,4287.948730,4315.641113,4298.846191,4282.948730,4259.487305,4301.538574,4305.512695,4295.641113,4279.871582,4437.436035,4470.256348,4351.282227,4438.333496,0.000000,0.000000,12.000000,,,,0.000000,2.000000,2.000000,0.000000,2.000000,2.000000,2.000000,1.000000,2.000000,4.000000,4.000000,4.000000,4.000000,2.000000,4.000000,25.000000,,,,,,,,,,,,,,,,,,,,,,,,,,,,
1732081905.701111,1732081905.702850,52.000000,0.000000,4366.538574,4287.692383,4314.358887,4295.256348,4275.256348,4260.128418,4301.666504,4314.487305,4299.358887,4280.384766,4437.179688,4474.743652,4350.256348,4438.974121,0.000000,0.000000,12.000000,,,,0.000000,2.000000,2.000000,0.000000,2.000000,2.000000,2.000000,1.000000,2.000000,4.000000,4.000000,4.000000,4.000000,2.000000,4.000000,25.000000,,,,,,,,,,,,,,,,,13.000000,0.000000,0.632277,0.390503,-0.598938,0.298340,0.995239,0.102063,-0.022464,-74.688995,65.834953,29.858734
1732081905.708919,1732081905.710658,53.000000,0.000000,4368.333496,4293.205078,4312.563965,4303.461426,4267.692383,4265.512695,4298.077148,4309.487305,4300.256348,4281.794922,4426.922852,4475.512695,4346.538574,4436.282227,0.000000,0.000000,12.000000,,,,0.000000,2.000000,2.000000,0.000000,2.000000,2.000000,2.000000,1.000000,2.000000,4.000000,4.000000,4.000000,4.000000,2.000000,4.000000,25.000000,,,,,,,,,,,,,,,,,,,,,,,,,,,,
1732081905.716728,1732081905.718666,54.000000,0.000000,4371.538574,4298.077148,4317.307617,4310.128418,4279.358887,4254.615234,4294.102539,4295.128418,4286.922852,4276.153809,4428.333496,4478.205078,4353.974121,4442.948730,0.000000,0.000000,12.000000,,,,0.000000,2.000000,2.000000,0.000000,2.000000,2.000000,2.000000,1.000000,2.000000,4.000000,4.000000,4.000000,4.000000,2.000000,4.000000,25.000000,,,,,,,,,,,,,,,,,,,,,,,,,,,,
1732081905.724536,1732081905.726475,55.000000,0.000000,4363.717773,4295.000000,4318.589844,4298.589844,4282.563965,4251.922852,4296.666504,4298.461426,4284.871582,4269.487305,4430.769043,4472.948730,4350.512695,4437.051270,0.000000,0.000000,12.000000,,,,0.000000,2.000000,2.000000,0.000000,2.000000,2.000000,2.000000,1.000000,2.000000,4.000000,4.000000,4.000000,4.000000,2.000000,4.000000,25.000000,,,,,,,,,,,,,,,,,,,,,,,,,,,,
1732081905.732344,1732081905.734383,56.000000,0.000000,4352.436035,4286.025879,4312.307617,4289.102539,4267.307617,4264.743652,4301.922852,4312.436035,4300.641113,4279.871582,4424.743652,4459.358887,4336.025879,4422.948730,0.000000,0.000000,12.000000,,,,0.000000,2.000000,2.000000,0.000000,2.000000,2.000000,2.000000,1.000000,2.000000,4.000000,4.000000,4.000000,4.000000,2.000000,4.000000,25.000000,,,,,,,,,,,,,,,,,14.000000,0.000000,0.631517,0.390564,-0.598999,0.299744,0.990844,0.115737,-0.025394,-74.748093,65.707977,29.410576
1732081905.740152,1732081905.742191,57.000000,0.000000,4350.641113,4281.922852,4309.102539,4292.563965,4257.563965,4267.820313,4299.102539,4311.538574,4305.512695,4290.384766,4423.974121,4455.897461,4339.102539,4425.512695,0.000000,0.000000,12.000000,,,,0.000000,2.000000,2.000000,0.000000,2.000000,2.000000,2.000000,1.000000,2.000000,4.000000,4.000000,4.000000,4.000000,2.000000,4.000000,25.000000,,,,,,,,,,,,,,,,,,,,,,,,,,,,
1732081905.747960,1732081905.750199,58.000000,0.000000,4345.128418,4277.692383,4308.717773,4290.641113,4264.615234,4263.077148,4296.666504,4301.410156,4299.743652,4286.153809,4420.769043,4459.230957,4346.922852,4424.615234,0.000000,0.000000,12.000000,,,,0.000000,2.000000,2.000000,0.000000,2.000000,2.000000,2.000000,1.000000,2.000000,4.000000,4.000000,4.000000,4.000000,2.000000,4.000000,25.000000,,,,,,,,,,,,,,,,,,,,,,,,,,,,
1732081905.755769,1732081905.758007,59.000000,0.000000,4337.692383,4272.307617,4308.461426,4284.487305,4274.358887,4266.666504,4302.563965,4300.000000,4303.717773,4286.922852,4413.974121,4459.871582,4341.282227,4412.563965,0.000000,0.000000,12.000000,,,,0.000000,2.000000,2.000000,0.000000,2.000000,2.000000,2.000000,1.000000,2.000000,4.000000,4.000000,4.000000,4.000000,2.000000,4.000000,25.000000,,,,,,,,,,,,,,,,,,,,,,,,,,,,
1732081905.763577,1732081905.765915,60.000000,0.000000,4343.461426,4280.769043,4311.282227,4290.256348,4272.948730,4268.717773,4303.974121,4303.077148,4303.717773,4292.692383,4422.820313,4460.128418,4344.871582,4413.205078,0.000000,0.000000,12.000000,,,,0.000000,2.000000,2.000000,0.000000,2.000000,2.000000,2.000000,1.000000,2.000000,4.000000,4.000000,4.000000,4.000000,2.000000,4.000000,25.000000,,,,,,,,,,,,,,,,,15.000000,0.000000,0.629932,0.393250,-0.598145,0.301270,0.961543,0.125992,-0.041997,-74.829285,65.471794,29.297565
1732081905.771385,1732081905.773723,61.000000,0.000000,4345.256348,4283.333496,4313.974121,4294.871582,4262.692383,4264.102539,4299.743652,4307.307617,4298.974121,4287.179688,4430.128418,4456.538574,4353.589844,4418.333496,0.000000,0.000000,12.000000,,,,0.000000,2.000000,2.000000,0.000000,2.000000,2.000000,2.000000,1.000000,2.000000,4.000000,4.000000,4.000000,4.000000,2.000000,4.000000,25.000000,,,,,,,,,,,,,,,,,,,,,,,,,,,,
1732081905.779194,1732081905.781731,62.000000,0.000000,4333.333496,4268.461426,4315.000000,4287.820313,4259.358887,4270.000000,4301.922852,4310.897461,4300.641113,4277.563965,4417.179688,4450.769043,4343.461426,4409.487305,0.000000,0.000000,12.000000,,,,0.000000,2.000000,2.000000,0.000000,2.000000,2.000000,2.000000,1.000000,2.000000,4.000000,4.000000,4.000000,4.000000,2.000000,4.000000,25.000000,,,,,,,,,,,,,,,,,,,,,,,,,,,,
1732081905.787002,1732081905.789540,63.000000,0.000000,4328.205078,4267.948730,4314.871582,4286.153809,4264.743652,4278.205078,4306.153809,4311.025879,4300.641113,4278.974121,4408.461426,4448.717773,4337.051270,4401.666504,0.000000,0.000000,12.000000,,,,0.000000,2.000000,2.000000,0.000000,2.000000,2.000000,2.000000,1.000000,2.000000,4.000000,4.000000,4.000000,4.000000,2.000000,4.000000,25.000000,,,,,,,,,,,,,,,,,,,,,,,,,,,,
1732081905.794810,1732081905.797448,64.000000,0.000000,4331.538574,4279.615234,4313.589844,4293.461426,4265.512695,4274.615234,4302.307617,4310.256348,4298.333496,4284.615234,4417.436035,4450.769043,4349.358887,4406.538574,0.000000,0.000000,12.000000,,,,0.000000,2.000000,2.000000,0.000000,2.000000,2.000000,2.000000,1.000000,2.000000,4.000000,4.000000,4.000000,4.000000,2.000000,4.000000,25.000000,,,,,,,,,,,,,,,,,16.000000,0.000000,0.629576,0.396362,-0.596863,0.300476,0.972287,0.146014,-0.047857,-74.925056,65.160492,29.464361
1732081905.802618,1732081905.805256,65.000000,0.000000,4331.794922,4273.717773,4313.077148,4296.794922,4261.282227,4271.282227,4301.410156,4307.307617,4299.487305,4282.436035,4420.769043,4449.743652,4354.487305,4406.922852,1292.000000,0.000000,12.000000,,,,0.000000,2.000000,2.000000,0.000000,2.000000,2.000000,2.000000,1.000000,2.000000,4.000000,4.000000,4.000000,4.000000,2.000000,4.000000,25.000000,,,,,,,,,,,,,,,,,,,,,,,,,,,,
1732081905.810427,1732081905.813264,66.000000,0.000000,4329.743652,4261.794922,4313.205078,4290.384766,4260.128418,4271.025879,4303.461426,4304.487305,4301.410156,4278.974121,4413.077148,4450.384766,4346.025879,4401.282227,1214.000000,0.000000,12.000000,,,,0.000000,2.000000,2.000000,0.000000,2.000000,2.000000,2.000000,1.000000,2.000000,4.000000,4.000000,4.000000,4.000000,2.000000,4.000000,25.000000,,,,,,,,,,,,,,,,,,,,,,,,,,,,
1732081905.818235,1732081905.821072,67.000000,0.000000,4326.922852,4264.743652,4311.538574,4286.666504,4260.128418,4268.077148,4299.102539,4302.563965,4298.717773,4279.230957,4410.769043,4452.436035,4342.692383,4399.871582,1170.000000,0.000000,12.000000,,,,0.000000,2.000000,2.000000,0.000000,2.000000,2.000000,2.000000,1.000000,2.000000,4.000000,4.000000,4.000000,4.000000,2.000000,4.000000,25.000000,,,,,,,,,,,,,,,,,,,,,,,,,,,,
1732081905.826043,1732081905.828780,68.000000,0.000000,4325.769043,4270.000000,4310.512695,4291.794922,4261.922852,4268.846191,4291.282227,4301.794922,4297.436035,4278.589844,4414.487305,4450.641113,4346.538574,4402.307617,1215.000000,0.000000,12.000000,,,,0.000000,2.000000,2.000000,0.000000,2.000000,2.000000,2.000000,1.000000,2.000000,4.000000,4.000000,4.000000,4.000000,2.000000,4.000000,25.000000,,,,,,,,,,,,,,,,,17.000000,0.000000,0.629492,0.397461,-0.596436,0.300049,1.016237,0.152362,-0.050299,-74.844292,64.654999,29.154467
1732081905.833851,1732081905.836589,69.000000,0.000000,4319.487305,4263.589844,4310.256348,4291.410156,4262.179688,4280.769043,4293.717773,4303.333496,4299.102539,4274.102539,4412.820313,4446.666504,4344.871582,4401.666504,1068.000000,0.000000,12.000000,,,,0.000000,2.000000,2.000000,0.000000,2.000000,2.000000,2.000000,1.000000,2.000000,4.000000,4.000000,4.000000,4.000000,2.000000,4.000000,25.000000,,,,,,,,,,,,,,,,,,,,,,,,,,,,
1732081905.841660,1732081905.844197,70.000000,0.000000,4309.871582,4259.358887,4308.333496,4282.948730,4263.205078,4288.333496,4300.512695,4306.922852,4299.615234,4275.384766,4407.948730,4444.102539,4338.846191,4396.410156,207.000000,0.000000,12.000000,,,,0.000000,2.000000,2.000000,0.000000,2.000000,2.000000,2.000000,1.000000,2.000000,4.000000,4.000000,4.000000,4.000000,2.000000,4.000000,25.000000,,,,,,,,,,,,,,,,,,,,,,,,,,,,
1732081905.849468,1732081905.852005,71.000000,0.000000,4308.461426,4266.025879,4310.000000,4280.256348,4265.641113,4285.769043,4304.102539,4311.666504,4305.256348,4283.333496,4409.102539,4443.717773,4338.333496,4392.307617,1194.000000,0.000000,12.000000,,,,0.000000,2.000000,2.000000,0.000000,2.000000,2.000000,2.000000,1.000000,2.000000,4.000000,4.000000,4.000000,4.000000,2.000000,4.000000,25.000000,,,,,,,,,,,,,,,,,,,,,,,,,,,,
1732081905.857276,1732081905.859714,72.000000,0.000000,4310.897461,4267.436035,4312.563965,4290.384766,4264.487305,4287.948730,4303.589844,4313.846191,4308.974121,4286.922852,4409.358887,4440.000000,4340.641113,4392.179688,1327.000000,0.000000,12.000000,,,,0.000000,2.000000,2.000000,0.000000,2.000000,2.000000,2.000000,1.000000,2.000000,4.000000,4.000000,4.000000,4.000000,2.000000,4.000000,25.000000,,,,,,,,,,,,,,,,,18.000000,0.000000,0.628902,0.399719,-0.596130,0.298889,0.949335,0.130875,-0.053717,-75.287209,64.617210,29.235117
1732081905.865084,1732081905.867522,73.000000,0.000000,4309.230957,4257.179688,4314.230957,4290.641113,4263.333496,4295.641113,4307.436035,4314.102539,4305.384766,4283.589844,4402.436035,4437.051270,4335.512695,4389.102539,1464.000000,0.000000,12.000000,,,,0.000000,2.000000,2.000000,0.000000,2.000000,2.000000,2.000000,1.000000,2.000000,4.000000,4.000000,4.000000,4.000000,2.000000,4.000000,25.000000,,,,,,,,,,,,,,,,,,,,,,,,,,,,
1732081905.872893,1732081905.875130,74.000000,0.000000,4307.051270,4252.436035,4311.153809,4276.282227,4266.025879,4297.051270,4309.358887,4313.461426,4302.692383,4282.563965,4396.794922,4437.948730,4328.717773,4381.153809,1351.000000,0.000000,12.000000,,,,0.000000,2.000000,2.000000,0.000000,2.000000,2.000000,2.000000,1.000000,2.000000,4.000000,4.000000,4.000000,4.000000,2.000000,4.000000,25.000000,,,,,,,,,,,,,,,,,,,,,,,,,,,,
1732081905.880701,1732081905.882938,75.000000,0.000000,4304.615234,4254.615234,4311.666504,4275.641113,4264.487305,4291.794922,4304.102539,4313.589844,4302.436035,4282.820313,4394.102539,4440.641113,4327.436035,4378.205078,1487.000000,0.000000,12.000000,,,,0.000000,2.000000,2.000000,0.000000,2.000000,2.000000,2.000000,1.000000,2.000000,4.000000,4.000000,4.000000,4.000000,2.000000,4.000000,25.000000,,,,,,,,,,,,,,,,,,,,,,,,,,,,
1732081905.888509,1732081905.890647,76.000000,0.000000,4303.461426,4256.410156,4310.897461,4290.641113,4259.615234,4289.871582,4296.153809,4310.512695,4301.153809,4281.666504,4392.436035,4441.538574,4323.717773,4377.820313,1713.000000,0.000000,12.000000,,,,0.000000,2.000000,2.000000,0.000000,2.000000,2.000000,2.000000,1.000000,2.000000,4.000000,4.000000,4.000000,4.000000,2.000000,4.000000,25.000000,,,,,,,,,,,,,,,,,19.000000,0.000000,0.628166,0.400513,-0.596619,0.298401,0.921499,0.124527,-0.036137,-75.407639,64.738274,29.185446
1732081905.896317,1732081905.898455,77.000000,0.000000,4308.461426,4261.666504,4310.000000,4295.897461,4269.230957,4284.743652,4293.461426,4303.717773,4298.846191,4278.333496,4394.615234,4439.871582,4318.846191,4378.974121,1685.000000,0.000000,12.000000,,,,0.000000,2.000000,2.000000,0.000000,2.000000,2.000000,2.000000,1.000000,2.000000,4.000000,4.000000,4.000000,4.000000,2.000000,4.000000,25.000000,,,,,,,,,,,,,,,,,,,,,,,,,,,,
1732081905.904126,1732081905.906063,78.000000,0.000000,4312.436035,4266.153809,4310.641113,4295.000000,4282.948730,4278.333496,4297.307617,4304.230957,4297.436035,4273.717773,4394.743652,4442.179688,4318.974121,4382.436035,1351.000000,0.000000,12.000000,,,,0.000000,2.000000,2.000000,0.000000,2.000000,2.000000,2.000000,1.000000,2.000000,4.000000,4.000000,4.000000,4.000000,2.000000,4.000000,25.000000,1.000000,25.000000,2.000000,2.000000,0.000000,2.000000,2.000000,2.000000,1.000000,2.000000,3.000000,3.000000,4.000000,4.000000,2.000000,4.000000,,,,,,,,,,,,
1732081905.911934,1732081905.913872,79.000000,0.000000,4310.128418,4262.692383,4311.794922,4295.256348,4279.102539,4288.077148,4301.794922,4310.000000,4296.410156,4271.025879,4384.230957,4443.589844,4317.820313,4380.897461,1487.000000,0.000000,12.000000,,,,0.000000,2.000000,2.000000,0.000000,2.000000,2.000000,2.000000,1.000000,2.000000,4.000000,4.000000,4.000000,4.000000,2.000000,4.000000,25.000000,,,,,,,,,,,,,,,,,,,,,,,,,,,,
1732081905.919742,1732081905.921580,80.000000,0.000000,4306.666504,4263.205078,4312.179688,4284.871582,4274.743652,4300.641113,4305.641113,4311.794922,4295.897461,4268.333496,4381.922852,4443.846191,4315.128418,4381.025879,1713.000000,0.000000,12.000000,,,,0.000000,2.000000,2.000000,0.000000,2.000000,2.000000,2.000000,1.000000,2.000000,4.000000,4.000000,4.000000,4.000000,2.000000,4.000000,25.000000,,,,,,,,,,,,,,,,,20.000000,0.000000,0.628253,0.400513,-0.596619,0.298218,0.921499,0.124527,-0.036137,-75.488525,64.883003,29.245211
1732081905.927550,1732081905.929388,81.000000,0.000000,4301.282227,4262.179688,4314.615234,4280.512695,4280.769043,4297.820313,4304.615234,4308.717773,4293.974121,4261.538574,4393.461426,4443.846191,4316.538574,4384.615234,1685.000000,0.000000,12.000000,,,,0.000000,2.000000,2.000000,0.000000,2.000000,2.000000,2.000000,1.000000,2.000000,4.000000,4.000000,4.000000,4.000000,2.000000,4.000000,25.000000,,,,,,,,,,,,,,,,,,,,,,,,,,,,
1732081905.935359,1732081905.936997,82.000000,0.000000,4297.051270,4255.769043,4315.128418,4293.461426,4280.512695,4289.358887,4302.307617,4307.692383,4289.487305,4255.384766,4391.025879,4441.538574,4316.794922,4377.948730,1351.000000,0.000000,12.000000,,,,0.000000,2.000000,2.000000,0.000000,2.000000,2.000000,2.000000,1.000000,2.000000,4.000000,4.000000,4.000000,4.000000,2.000000,4.000000,25.000000,,,,,,,,,,,,,,,,,,,,,,,,,,,,
1732081905.943167,1732081905.944805,83.000000,0.000000,4293.846191,4253.846191,4308.205078,4293.846191,4276.538574,4290.769043,4301.153809,4310.769043,4292.563965,4254.871582,4377.820313,4441.282227,4307.563965,4366.922852,1487.000000,0.000000,12.000000,,,,0.000000,2.000000,2.000000,0.000000,2.000000,2.000000,2.000000,1.000000,2.000000,4.000000,4.000000,4.000000,4.000000,2.000000,4.000000,25.000000,,,,,,,,,,,,,,,,,,,,,,,,,,,,
1732081905.950975,1732081905.952513,84.000000,0.000000,4289.487305,4254.230957,4305.512695,4283.333496,4282.563965,4294.871582,4303.589844,4311.282227,4296.025879,4252.948730,4377.948730,4445.769043,4299.615234,4364.871582,1713.000000,0.000000,12.000000,,,,0.000000,2.000000,2.000000,0.000000,2.000000,2.000000,2.000000,1.000000,2.000000,4.000000,4.000000,4.000000,4.000000,2.000000,4.000000,25.000000,,,,,,,,,,,,,,,,,21.000000,0.000000,0.628515,0.400330,-0.596619,0.297913,0.921499,0.146991,-0.033207,-75.269035,64.810234,29.008621
1732081905.958784,1732081905.960321,85.000000,0.000000,4293.846191,4257.820313,4309.615234,4287.563965,4281.538574,4288.461426,4302.051270,4309.871582,4295.000000,4257.179688,4389.615234,4447.051270,4308.717773,4371.410156,1685.000000,0.000000,12.000000,,,,0.000000,2.000000,2.000000,0.000000,2.000000,2.000000,2.000000,1.000000,2.000000,4.000000,4.000000,4.000000,4.000000,2.000000,4.000000,25.000000,,,,,,,,,,,,,,,,,,,,,,,,,,,,
1732081905.966592,1732081905.968329,86.000000,0.000000,4299.230957,4261.794922,4311.153809,4294.743652,4275.897461,4279.487305,4297.179688,4308.717773,4296.410156,4265.769043,4395.256348,4444.102539,4319.871582,4376.282227,1351.000000,0.000000,12.000000,,,,0.000000,2.000000,2.000000,0.000000,2.000000,2.000000,2.000000,1.000000,2.000000,4.000000,4.000000,4.000000,4.000000,2.000000,4.000000,25.000000,,,,,,,,,,,,,,,,,,,,,,,,,,,,
1732081905.974400,1732081905.976137,87.000000,0.000000,4297.692383,4261.922852,4309.743652,4290.769043,4291.538574,4277.436035,4293.461426,4309.230957,4298.205078,4262.307617,4391.410156,4442.820313,4314.871582,4376.666504,1487.000000,0.000000,12.000000,,,,0.000000,2.000000,2.000000,0.000000,2.000000,2.000000,2.000000,1.000000,2.000000,4.000000,4.000000,4.000000,4.000000,2.000000,4.000000,25.000000,,,,,,,,,,,,,,,,,,,,,,,,,,,,
1732081905.982208,1732081905.984046,88.000000,0.000000,4297.051270,4260.256348,4312.948730,4288.205078,4301.538574,4279.871582,4295.384766,4301.922852,4292.051270,4257.179688,4385.769043,4441.410156,4307.563965,4375.384766,1713.000000,0.000000,12.000000,,,,0.000000,2.000000,2.000000,0.000000,2.000000,2.000000,2.000000,1.000000,2.000000,4.000000,4.000000,4.000000,4.000000,2.000000,4.000000,25.000000,,,,,,,,,,,,,,,,,22.000000,0.000000,0.630671,0.399292,-0.596191,0.295593,0.984984,0.168966,-0.039556,-75.377922,64.692955,29.050316
1732081905.990017,1732081905.991854,89.000000,0.000000,4299.230957,4263.205078,4311.410156,4294.487305,4283.205078,4283.077148,4299.230957,4295.000000,4287.179688,4261.922852,4387.179688,4440.769043,4315.641113,4378.974121,1685.000000,0.000000,12.000000,,,,0.000000,2.000000,2.000000,0.000000,2.000000,2.000000,2.000000,1.000000,2.000000,4.000000,4.000000,4.000000,4.000000,2.000000,4.000000,25.000000,,,,,,,,,,,,,,,,,,,,,,,,,,,,
1732081905.997825,1732081905.999462,90.000000,0.000000,4298.717773,4265.512695,4309.871582,4298.333496,4276.153809,4287.051270,4304.487305,4303.589844,4296.922852,4268.461426,4392.563965,4445.384766,4320.641113,4382.307617,1351.000000,0.000000,12.000000,,,,0.000000,2.000000,2.000000,0.000000,2.000000,2.000000,2.000000,1.000000,2.000000,4.000000,4.000000,4.000000,4.000000,2.000000,4.000000,25.000000,,,,,,,,,,,,,,,,,,,,,,,,,,,,
1732081906.005633,1732081906.007270,91.000000,0.000000,4296.410156,4263.846191,4311.410156,4294.358887,4291.282227,4291.025879,4305.897461,4309.358887,4296.025879,4263.846191,4386.282227,4446.794922,4310.641113,4375.512695,1487.000000,0.000000,12.000000,,,,0.000000,2.000000,2.000000,0.000000,2.000000,2.000000,2.000000,1.000000,2.000000,4.000000,4.000000,4.000000,4.000000,2.000000,4.000000,25.000000,,,,,,,,,,,,,,,,,,,,,,,,,,,,
1732081906.013441,1732081906.014979,92.000000,0.000000,4294.615234,4264.102539,4312.307617,4292.436035,4293.333496,4290.641113,4302.563965,4305.512695,4282.948730,4260.000000,4378.205078,4445.769043,4305.897461,4370.897461,1713.000000,0.000000,12.000000,,,,0.000000,2.000000,2.000000,0.000000,2.000000,2.000000,2.000000,1.000000,2.000000,4.000000,4.000000,4.000000,4.000000,2.000000,4.000000,25.000000,,,,,,,,,,,,,,,,,23.000000,0.000000,0.631036,0.399170,-0.596008,0.295349,0.984984,0.168966,-0.039556,-75.562782,64.719627,28.992422
1732081906.021250,1732081906.022787,93.000000,0.000000,4293.461426,4262.563965,4309.358887,4293.333496,4287.692383,4282.051270,4302.179688,4308.974121,4289.487305,4272.051270,4388.205078,4447.692383,4311.666504,4373.461426,1685.000000,0.000000,12.000000,,,,0.000000,2.000000,2.000000,0.000000,2.000000,2.000000,2.000000,1.000000,2.000000,4.000000,4.000000,4.000000,4.000000,2.000000,4.000000,25.000000,,,,,,,,,,,,,,,,,,,,,,,,,,,,
1732081906.029058,1732081906.030395,94.000000,0.000000,4292.436035,4260.512695,4309.358887,4289.615234,4287.436035,4278.717773,4302.179688,4314.230957,4301.282227,4284.871582,4396.153809,4448.205078,4310.128418,4373.717773,1351.000000,0.000000,12.000000,,,,0.000000,2.000000,2.000000,0.000000,2.000000,2.000000,2.000000,1.000000,2.000000,4.000000,4.000000,4.000000,4.000000,2.000000,4.000000,25.000000,,,,,,,,,,,,,,,,,,,,,,,,,,,,
1732081906.036866,1732081906.038204,95.000000,0.000000,4292.436035,4261.538574,4308.717773,4286.922852,4284.358887,4291.282227,4302.179688,4311.025879,4298.077148,4282.436035,4386.538574,4442.692383,4302.948730,4367.307617,1487.000000,0.000000,12.000000,,,,0.000000,2.000000,2.000000,0.000000,2.000000,2.000000,2.000000,1.000000,2.000000,4.000000,4.000000,4.000000,4.000000,2.000000,4.000000,25.000000,,,,,,,,,,,,,,,,,,,,,,,,,,,,
1732081906.044674,1732081906.046112,96.000000,0.000000,4292.563965,4263.974121,4306.794922,4292.307617,4292.179688,4295.000000,4301.666504,4311.922852,4297.948730,4280.769043,4384.615234,4438.077148,4303.205078,4365.128418,1713.000000,0.000000,12.000000,,,,0.000000,2.000000,2.000000,0.000000,2.000000,2.000000,2.000000,1.000000,2.000000,4.000000,4.000000,4.000000,4.000000,2.000000,4.000000,25.000000,,,,,,,,,,,,,,,,,24.000000,0.000000,0.631089,0.398499,-0.595825,0.296509,1.000122,0.174826,-0.036626,-75.772522,64.709564,29.088861
1732081906.052482,1732081906.053920,97.000000,0.000000,4290.897461,4266.922852,4308.589844,4293.846191,4299.102539,4279.358887,4300.256348,4311.282227,4301.025879,4284.615234,4391.410156,4441.410156,4306.538574,4367.307617,1685.000000,0.000000,12.000000,,,,0.000000,2.000000,2.000000,0.000000,2.000000,2.000000,2.000000,1.000000,2.000000,4.000000,4.000000,4.000000,4.000000,2.000000,4.000000,25.000000,,,,,,,,,,,,,,,,,,,,,,,,,,,,
1732081906.060291,1732081906.061928,98.000000,0.000000,4286.922852,4266.025879,4310.769043,4291.666504,4282.692383,4273.461426,4297.948730,4307.436035,4295.256348,4281.153809,4386.410156,4444.615234,4303.077148,4365.000000,1351.000000,0.000000,12.000000,,,,0.000000,2.000000,2.000000,0.000000,2.000000,2.000000,2.000000,1.000000,2.000000,4.000000,4.000000,4.000000,4.000000,2.000000,4.000000,25.000000,,,,,,,,,,,,,,,,,,,,,,,,,,,,
1732081906.068099,1732081906.069736,99.000000,0.000000,4288.205078,4267.692383,4311.282227,4293.974121,4276.410156,4290.000000,4302.179688,4316.410156,4293.717773,4278.461426,4383.717773,4444.743652,4303.205078,4365.769043,1487.000000,0.000000,12.000000,,,,0.000000,2.000000,2.000000,0.000000,2.000000,2.000000,2.000000,1.000000,2.000000,4.000000,4.000000,4.000000,4.000000,2.000000,4.000000,25.000000,,,,,,,,,,,,,,,,,,,,,,,,,,,,
1732081906.075907,1732081906.077644,100.000000,0.000000,4292.307617,4272.948730,4308.589844,4297.948730,4288.077148,4301.538574,4305.641113,4315.128418,4296.922852,4280.384766,4388.077148,4445.897461,4307.436035,4368.077148,1713.000000,0.000000,12.000000,,,,0.000000,2.000000,2.000000,0.000000,2.000000,2.000000,2.000000,1.000000,2.000000,4.000000,4.000000,4.000000,4.000000,2.000000,4.000000,25.000000,,,,,,,,,,,,,,,,,25.000000,0.000000,0.630137,0.396667,-0.596313,0.299988,0.971310,0.130875,-0.017092,-75.769073,64.833084,29.231979
1732081906.083716,1732081906.085452,101.000000,0.000000,4288.974121,4272.179688,4308.077148,4294.871582,4290.769043,4288.974121,4301.794922,4299.615234,4291.922852,4278.589844,4381.794922,4444.487305,4304.358887,4361.922852,1685.000000,0.000000,12.000000,,,,0.000000,2.000000,2.000000,0.000000,2.000000,2.000000,2.000000,1.000000,2.000000,4.000000,4.000000,4.000000,4.000000,2.000000,4.000000,25.000000,,,,,,,,,,,,,,,,,,,,,,,,,,,,
1732081906.091524,1732081906.093460,102.000000,0.000000,4285.641113,4269.743652,4310.000000,4292.179688,4292.563965,4276.538574,4298.333496,4303.077148,4292.051270,4280.128418,4377.051270,4442.307617,4301.922852,4358.205078,1351.000000,0.000000,12.000000,,,,0.000000,2.000000,2.000000,0.000000,2.000000,2.000000,2.000000,1.000000,2.000000,4.000000,4.000000,4.000000,4.000000,2.000000,4.000000,25.000000,,,,,,,,,,,,,,,,,,,,,,,,,,,,
1732081906.099332,1732081906.101269,103.000000,0.000000,4291.794922,4276.794922,4312.692383,4296.025879,4290.897461,4280.897461,4300.769043,4311.794922,4295.769043,4277.948730,4382.563965,4446.666504,4305.256348,4363.846191,1487.000000,0.000000,12.000000,,,,0.000000,2.000000,2.000000,0.000000,2.000000,2.000000,2.000000,1.000000,2.000000,4.000000,4.000000,4.000000,4.000000,2.000000,4.000000,25.000000,,,,,,,,,,,,,,,,,,,,,,,,,,,,
1732081906.107140,1732081906.108977,104.000000,0.000000,4295.512695,4278.461426,4311.538574,4298.077148,4276.794922,4287.179688,4301.282227,4303.846191,4290.897461,4272.820313,4385.000000,4450.256348,4306.666504,4366.410156,1713.000000,0.000000,12.000000,,,,0.000000,2.000000,2.000000,0.000000,2.000000,2.000000,2.000000,1.000000,2.000000,4.000000,4.000000,4.000000,4.000000,2.000000,4.000000,25.000000,,,,,,,,,,,,,,,,,26.000000,0.000000,0.629513,0.395813,-0.596863,0.301331,0.966915,0.116713,-0.032719,-75.831284,64.938126,29.544569
1732081906.114949,1732081906.116785,105.000000,0.000000,4288.974121,4269.358887,4311.025879,4292.820313,4280.384766,4283.333496,4300.000000,4303.077148,4289.102539,4276.922852,4386.410156,4448.205078,4305.641113,4361.666504,1685.000000,0.000000,12.000000,,,,0.000000,2.000000,2.000000,0.000000,2.000000,2.000000,2.000000,1.000000,2.000000,4.000000,4.000000,4.000000,4.000000,2.000000,4.000000,25.000000,,,,,,,,,,,,,,,,,,,,,,,,,,,,
1732081906.122757,1732081906.124394,106.000000,0.000000,4284.743652,4267.820313,4309.230957,4291.025879,4299.230957,4279.358887,4298.974121,4313.333496,4297.948730,4281.282227,4386.794922,4445.384766,4300.384766,4356.282227,1351.000000,0.000000,12.000000,,,,0.000000,2.000000,2.000000,0.000000,2.000000,2.000000,2.000000,1.000000,2.000000,4.000000,4.000000,4.000000,4.000000,2.000000,4.000000,25.000000,,,,,,,,,,,,,,,,,,,,,,,,,,,,
1732081906.130565,1732081906.132202,107.000000,0.000000,4288.077148,4270.384766,4308.077148,4296.794922,4289.615234,4281.410156,4299.102539,4312.820313,4300.256348,4277.692383,4384.102539,4443.717773,4296.922852,4351.666504,1487.000000,0.000000,12.000000,,,,0.000000,2.000000,2.000000,0.000000,2.000000,2.000000,2.000000,1.000000,2.000000,4.000000,4.000000,4.000000,4.000000,2.000000,4.000000,25.000000,,,,,,,,,,,,,,,,,,,,,,,,,,,,
1732081906.138373,1732081906.140110,108.000000,0.000000,4293.077148,4272.307617,4309.230957,4300.641113,4274.743652,4288.717773,4300.256348,4309.871582,4293.974121,4279.358887,4387.820313,4446.153809,4304.743652,4356.410156,1713.000000,0.000000,12.000000,,,,0.000000,2.000000,2.000000,0.000000,2.000000,2.000000,2.000000,1.000000,2.000000,4.000000,4.000000,4.000000,4.000000,2.000000,4.000000,25.000000,,,,,,,,,,,,,,,,,27.000000,0.000000,0.629297,0.395508,-0.597046,0.301819,0.954706,0.127457,-0.020999,-75.958344,65.013214,29.504435
1732081906.146182,1732081906.147918,109.000000,0.000000,4294.230957,4274.102539,4311.410156,4300.000000,4287.948730,4295.769043,4302.436035,4313.461426,4293.333496,4279.230957,4389.358887,4449.871582,4307.692383,4360.769043,1685.000000,0.000000,12.000000,,,,0.000000,2.000000,2.000000,0.000000,2.000000,2.000000,2.000000,1.000000,2.000000,4.000000,4.000000,4.000000,4.000000,2.000000,4.000000,25.000000,,,,,,,,,,,,,,,,,,,,,,,,,,,,
1732081906.153990,1732081906.155926,110.000000,0.000000,4289.615234,4266.666504,4308.974121,4299.487305,4300.512695,4296.410156,4301.538574,4313.846191,4298.717773,4273.461426,4378.846191,4437.820313,4295.641113,4352.820313,1351.000000,0.000000,12.000000,,,,0.000000,2.000000,2.000000,0.000000,2.000000,2.000000,2.000000,1.000000,2.000000,4.000000,4.000000,4.000000,4.000000,2.000000,4.000000,25.000000,,,,,,,,,,,,,,,,,,,,,,,,,,,,
1732081906.161798,1732081906.163734,111.000000,0.000000,4290.897461,4264.871582,4307.051270,4297.436035,4295.128418,4291.282227,4300.128418,4311.153809,4296.153809,4272.179688,4375.384766,4427.436035,4295.128418,4349.358887,1487.000000,0.000000,12.000000,,,,0.000000,2.000000,2.000000,0.000000,2.000000,2.000000,2.000000,1.000000,2.000000,4.000000,4.000000,4.000000,4.000000,2.000000,4.000000,25.000000,,,,,,,,,,,,,,,,,,,,,,,,,,,,
1732081906.169606,1732081906.171642,112.000000,0.000000,4297.307617,4273.077148,4309.615234,4296.666504,4287.820313,4284.743652,4301.538574,4308.589844,4286.666504,4269.615234,4385.128418,4434.102539,4304.871582,4355.000000,1713.000000,0.000000,12.000000,,,,0.000000,2.000000,2.000000,0.000000,2.000000,2.000000,2.000000,1.000000,2.000000,4.000000,4.000000,4.000000,4.000000,2.000000,4.000000,25.000000,,,,,,,,,,,,,,,,,28.000000,0.000000,0.629149,0.395508,-0.596924,0.302368,0.959101,0.132340,-0.013674,-76.044586,65.082375,29.726925
1732081906.177415,1732081906.179451,113.000000,0.000000,4295.769043,4271.922852,4310.769043,4298.205078,4296.282227,4279.615234,4295.641113,4305.769043,4282.563965,4260.384766,4385.256348,4438.589844,4300.769043,4351.410156,1685.000000,0.000000,12.000000,,,,0.000000,2.000000,2.000000,0.000000,2.000000,2.000000,2.000000,1.000000,2.000000,4.000000,4.000000,4.000000,4.000000,2.000000,4.000000,25.000000,,,,,,,,,,,,,,,,,,,,,,,,,,,,
1732081906.185223,1732081906.187459,114.000000,0.000000,4291.282227,4263.333496,4310.000000,4298.589844,4301.666504,4279.871582,4291.922852,4307.179688,4289.615234,4262.436035,4381.666504,4437.820313,4298.205078,4343.589844,1351.000000,0.000000,12.000000,,,,0.000000,2.000000,2.000000,0.000000,2.000000,2.000000,2.000000,1.000000,2.000000,4.000000,4.000000,4.000000,4.000000,2.000000,4.000000,25.000000,,,,,,,,,,,,,,,,,,,,,,,,,,,,
1732081906.193031,1732081906.195267,115.000000,0.000000,4291.922852,4263.974121,4309.230957,4296.153809,4285.512695,4285.256348,4297.307617,4311.922852,4299.487305,4272.692383,4386.153809,4439.358887,4305.384766,4346.666504,1487.000000,0.000000,12.000000,,,,0.000000,2.000000,2.000000,0.000000,2.000000,2.000000,2.000000,1.000000,2.000000,4.000000,4.000000,4.000000,4.000000,2.000000,4.000000,25.000000,,,,,,,,,,,,,,,,,,,,,,,,,,,,
1732081906.200839,1732081906.203175,116.000000,0.000000,4293.205078,4267.051270,4309.615234,4296.794922,4275.897461,4287.563965,4299.615234,4313.461426,4301.410156,4274.615234,4388.589844,4439.230957,4304.358887,4352.948730,1713.000000,0.000000,12.000000,,,,0.000000,2.000000,2.000000,0.000000,2.000000,2.000000,2.000000,1.000000,2.000000,4.000000,4.000000,4.000000,4.000000,2.000000,4.000000,25.000000,,,,,,,,,,,,,,,,,29.000000,0.000000,0.629680,0.397461,-0.594971,0.302551,0.978635,0.139177,-0.015627,-75.952782,65.085052,29.707142
1732081906.208648,1732081906.210983,117.000000,0.000000,4292.563965,4269.358887,4307.820313,4299.743652,4290.897461,4283.717773,4293.333496,4311.410156,4296.538574,4269.871582,4387.692383,4439.358887,4300.769043,4351.282227,1685.000000,0.000000,12.000000,,,,0.000000,2.000000,2.000000,0.000000,2.000000,2.000000,2.000000,1.000000,2.000000,4.000000,4.000000,4.000000,4.000000,2.000000,4.000000,25.000000,,,,,,,,,,,,,,,,,,,,,,,,,,,,
1732081906.216456,1732081906.218592,118.000000,0.000000,4291.282227,4269.358887,4306.922852,4299.230957,4294.230957,4279.615234,4295.897461,4310.769043,4296.025879,4271.538574,4386.410156,4441.922852,4303.333496,4346.794922,1351.000000,0.000000,12.000000,,,,0.000000,2.000000,2.000000,0.000000,2.000000,2.000000,2.000000,1.000000,2.000000,4.000000,4.000000,4.000000,4.000000,2.000000,4.000000,25.000000,,,,,,,,,,,,,,,,,,,,,,,,,,,,
1732081906.224264,1732081906.226400,119.000000,0.000000,4286.410156,4264.487305,4306.922852,4296.794922,4282.948730,4283.333496,4300.769043,4312.179688,4300.384766,4276.025879,4385.769043,4434.102539,4301.025879,4345.000000,1487.000000,0.000000,12.000000,,,,0.000000,2.000000,2.000000,0.000000,2.000000,2.000000,2.000000,1.000000,2.000000,4.000000,4.000000,4.000000,4.000000,2.000000,4.000000,25.000000,,,,,,,,,,,,,,,,,,,,,,,,,,,,
1732081906.232072,1732081906.234108,120.000000,0.000000,4282.692383,4262.179688,4309.487305,4293.846191,4296.025879,4290.384766,4296.922852,4311.153809,4295.256348,4269.102539,4382.948730,4422.820313,4294.615234,4341.282227,1713.000000,0.000000,12.000000,,,,0.000000,2.000000,2.000000,0.000000,2.000000,2.000000,2.000000,1.000000,2.000000,4.000000,4.000000,4.000000,4.000000,2.000000,4.000000,25.000000,,,,,,,,,,,,,,,,,30.000000,0.000000,0.629901,0.398071,-0.594360,0.302490,0.987425,0.146014,-0.022464,-75.855087,64.772232,29.492786
1732081906.239881,1732081906.241916,121.000000,0.000000,4287.051270,4264.102539,4308.461426,4292.307617,4302.948730,4287.436035,4292.563965,4310.384766,4291.153809,4266.282227,4381.922852,4425.897461,4299.230957,4343.333496,1685.000000,0.000000,12.000000,,,,0.000000,2.000000,2.000000,0.000000,2.000000,2.000000,2.000000,1.000000,2.000000,4.000000,4.000000,4.000000,4.000000,2.000000,4.000000,25.000000,,,,,,,,,,,,,,,,,,,,,,,,,,,,
1732081906.247689,1732081906.249525,122.000000,0.000000,4290.769043,4264.358887,4306.282227,4292.436035,4280.641113,4282.436035,4297.307617,4312.563965,4299.743652,4276.794922,4385.897461,4434.102539,4306.025879,4350.384766,1351.000000,0.000000,12.000000,,,,0.000000,2.000000,2.000000,0.000000,2.000000,2.000000,2.000000,1.000000,2.000000,4.000000,4.000000,4.000000,4.000000,2.000000,4.000000,25.000000,,,,,,,,,,,,,,,,,,,,,,,,,,,,
1732081906.255497,1732081906.257333,123.000000,0.000000,4289.102539,4264.358887,4305.000000,4293.077148,4276.025879,4289.487305,4300.384766,4313.846191,4300.384766,4279.743652,4387.563965,4432.563965,4306.282227,4347.307617,1487.000000,0.000000,12.000000,,,,0.000000,2.000000,2.000000,0.000000,2.000000,2.000000,2.000000,1.000000,2.000000,4.000000,4.000000,4.000000,4.000000,2.000000,4.000000,25.000000,,,,,,,,,,,,,,,,,,,,,,,,,,,,
1732081906.263306,1732081906.265041,124.000000,0.000000,4286.153809,4265.128418,4305.897461,4294.358887,4289.743652,4293.333496,4298.461426,4311.153809,4294.230957,4275.512695,4387.820313,4427.436035,4307.436035,4342.948730,1713.000000,0.000000,12.000000,,,,0.000000,2.000000,2.000000,0.000000,2.000000,2.000000,2.000000,1.000000,2.000000,4.000000,4.000000,4.000000,4.000000,2.000000,4.000000,25.000000,,,,,,,,,,,,,,,,,31.000000,0.000000,0.630219,0.399475,-0.593018,0.302612,0.961055,0.143572,-0.014162,-75.755951,65.005508,29.272490
1732081906.271114,1732081906.272849,125.000000,0.000000,4286.922852,4264.230957,4306.153809,4294.358887,4285.769043,4283.589844,4294.871582,4308.333496,4295.897461,4278.205078,4385.384766,4429.102539,4304.743652,4345.000000,1685.000000,0.000000,12.000000,,,,0.000000,2.000000,2.000000,0.000000,2.000000,2.000000,2.000000,1.000000,2.000000,4.000000,4.000000,4.000000,4.000000,2.000000,4.000000,25.000000,,,,,,,,,,,,,,,,,,,,,,,,,,,,
1732081906.278922,1732081906.280458,126.000000,0.000000,4286.410156,4262.948730,4309.230957,4293.974121,4276.538574,4283.205078,4292.179688,4309.871582,4297.051270,4278.846191,4380.512695,4430.641113,4299.102539,4341.410156,1351.000000,0.000000,12.000000,,,,0.000000,2.000000,2.000000,0.000000,2.000000,2.000000,2.000000,1.000000,2.000000,4.000000,4.000000,4.000000,4.000000,2.000000,4.000000,25.000000,,,,,,,,,,,,,,,,,,,,,,,,,,,,
1732081906.286730,1732081906.288266,127.000000,0.000000,4287.692383,4263.717773,4310.128418,4296.025879,4282.563965,4292.179688,4294.743652,4312.307617,4295.384766,4275.384766,4384.743652,4431.153809,4307.436035,4341.538574,12.000000,0.000000,12.000000,,,,0.000000,2.000000,2.000000,0.000000,2.000000,2.000000,2.000000,1.000000,2.000000,4.000000,4.000000,4.000000,4.000000,2.000000,4.000000,25.000000,,,,,,,,,,,,,,,,,,,,,,,,,,,,
1732081906.294539,1732081906.295974,0.000000,0.000000,4290.641113,4265.256348,4308.717773,4297.051270,4283.077148,4292.307617,4298.974121,4313.461426,4301.282227,4278.974121,4392.051270,4430.769043,4315.897461,4347.179688,0.000000,0.000000,12.000000,,,,0.000000,2.000000,2.000000,0.000000,2.000000,2.000000,2.000000,1.000000,2.000000,4.000000,4.000000,4.000000,4.000000,2.000000,4.000000,25.000000,,,,,,,,,,,,,,,,,0.000000,0.000000,0.630946,0.401489,-0.590942,0.302490,0.959101,0.137712,-0.007813,-75.633987,65.161125,29.269051
1732081906.302347,1732081906.303783,1.000000,0.000000,4287.179688,4264.487305,4309.230957,4296.153809,4281.410156,4290.769043,4299.743652,4313.461426,4301.538574,4276.666504,4384.871582,4428.846191,4302.051270,4340.384766,1304.000000,0.000000,12.000000,,,,0.000000,2.000000,2.000000,0.000000,2.000000,2.000000,2.000000,1.000000,2.000000,4.000000,4.000000,4.000000,4.000000,2.000000,4.000000,25.000000,,,,,,,,,,,,,,,,,,,,,,,,,,,,
1732081906.310155,1732081906.311391,2.000000,0.000000,4286.410156,4263.461426,4308.333496,4299.743652,4292.307617,4290.256348,4295.512695,4311.025879,4294.487305,4269.743652,4379.230957,4429.230957,4294.230957,4335.384766,1227.000000,0.000000,12.000000,,,,0.000000,2.000000,2.000000,0.000000,2.000000,2.000000,2.000000,1.000000,2.000000,4.000000,4.000000,4.000000,4.000000,2.000000,4.000000,25.000000,,,,,,,,,,,,,,,,,,,,,,,,,,,,
1732081906.317963,1732081906.319199,3.000000,0.000000,4284.358887,4264.743652,4307.436035,4301.666504,4289.102539,4292.307617,4297.436035,4308.974121,4294.615234,4271.282227,4385.897461,4428.589844,4303.717773,4339.743652,1172.000000,0.000000,12.000000,,,,0.000000,2.000000,2.000000,0.000000,2.000000,2.000000,2.000000,1.000000,2.000000,4.000000,4.000000,4.000000,4.000000,2.000000,4.000000,25.000000,,,,,,,,,,,,,,,,,,,,,,,,,,,,
1732081906.325771,1732081906.326907,4.000000,0.000000,4282.820313,4262.692383,4307.692383,4294.743652,4276.794922,4294.102539,4300.769043,4309.358887,4296.794922,4275.384766,4383.974121,4426.794922,4306.666504,4339.615234,1199.000000,0.000000,12.000000,,,,0.000000,2.000000,2.000000,0.000000,2.000000,2.000000,2.000000,1.000000,2.000000,4.000000,4.000000,4.000000,4.000000,2.000000,4.000000,25.000000,,,,,,,,,,,,,,,,,1.000000,0.000000,0.631530,0.402100,-0.589966,0.302368,0.962031,0.133805,-0.018557,-75.673531,65.340515,29.231264
1732081906.333580,1732081906.334716,5.000000,0.000000,4282.692383,4260.000000,4308.077148,4290.897461,4289.743652,4285.897461,4299.615234,4309.487305,4296.538574,4277.179688,4381.538574,4428.461426,4304.230957,4338.717773,1068.000000,0.000000,12.000000,,,,0.000000,2.000000,2.000000,0.000000,2.000000,2.000000,2.000000,1.000000,2.000000,4.000000,4.000000,4.000000,4.000000,2.000000,4.000000,25.000000,,,,,,,,,,,,,,,,,,,,,,,,,,,,
1732081906.341388,1732081906.342324,6.000000,0.000000,4282.307617,4258.077148,4305.769043,4291.538574,4300.128418,4279.102539,4294.102539,4309.487305,4297.179688,4277.436035,4389.615234,4431.666504,4304.102539,4341.025879,207.000000,0.000000,12.000000,,,,0.000000,2.000000,2.000000,0.000000,2.000000,2.000000,2.000000,1.000000,2.000000,4.000000,4.000000,4.000000,4.000000,2.000000,4.000000,25.000000,,,,,,,,,,,,,,,,,,,,,,,,,,,,
1732081906.349196,1732081906.350132,7.000000,0.000000,4279.871582,4256.153809,4307.179688,4289.871582,4282.436035,4287.563965,4294.358887,4311.538574,4298.589844,4274.871582,4391.025879,4435.512695,4302.179688,4339.615234,1187.000000,0.000000,12.000000,,,,0.000000,2.000000,2.000000,0.000000,2.000000,2.000000,2.000000,1.000000,2.000000,4.000000,4.000000,4.000000,4.000000,2.000000,4.000000,25.000000,,,,,,,,,,,,,,,,,,,,,,,,,,,,
1732081906.357005,1732081906.357841,8.000000,0.000000,4279.230957,4256.666504,4308.333496,4288.974121,4273.589844,4297.179688,4298.333496,4313.461426,4300.897461,4275.256348,4387.948730,4436.922852,4305.128418,4342.948730,1327.000000,0.000000,12.000000,,,,0.000000,2.000000,2.000000,0.000000,2.000000,2.000000,2.000000,1.000000,2.000000,4.000000,4.000000,4.000000,4.000000,2.000000,4.000000,25.000000,,,,,,,,,,,,,,,,,2.000000,0.000000,0.631614,0.402100,-0.589844,0.302429,0.988402,0.135759,-0.007813,-75.292229,65.529144,29.377323
1732081906.364813,1732081906.365649,9.000000,0.000000,4281.410156,4257.563965,4310.000000,4289.230957,4284.358887,4295.128418,4300.128418,4312.948730,4300.384766,4278.846191,4390.000000,4432.307617,4308.461426,4350.256348,1464.000000,0.000000,12.000000,,,,0.000000,2.000000,2.000000,0.000000,2.000000,2.000000,2.000000,1.000000,2.000000,4.000000,4.000000,4.000000,4.000000,2.000000,4.000000,25.000000,,,,,,,,,,,,,,,,,,,,,,,,,,,,
1732081906.372621,1732081906.373257,10.000000,0.000000,4277.948730,4255.897461,4308.589844,4287.307617,4288.974121,4293.333496,4301.153809,4311.410156,4296.922852,4278.461426,4388.589844,4427.307617,4299.487305,4343.333496,1364.000000,0.000000,12.000000,,,,0.000000,2.000000,2.000000,0.000000,2.000000,2.000000,2.000000,1.000000,2.000000,4.000000,4.000000,4.000000,4.000000,2.000000,4.000000,25.000000,,,,,,,,,,,,,,,,,,,,,,,,,,,,
1732081906.380429,1732081906.381065,11.000000,0.000000,4275.512695,4252.436035,4306.282227,4285.384766,4283.717773,4294.615234,4301.666504,4313.333496,4298.077148,4278.205078,4385.256348,4428.205078,4295.384766,4335.384766,1503.000000,0.000000,12.000000,,,,0.000000,2.000000,2.000000,0.000000,2.000000,2.000000,2.000000,1.000000,2.000000,4.000000,4.000000,4.000000,4.000000,2.000000,4.000000,25.000000,,,,,,,,,,,,,,,,,,,,,,,,,,,,
1732081906.388238,1732081906.388974,12.000000,0.000000,4275.384766,4255.384766,4305.000000,4288.717773,4280.128418,4296.794922,4300.128418,4314.615234,4300.128418,4282.563965,4388.461426,4429.871582,4305.384766,4338.846191,1728.000000,0.000000,12.000000,,,,0.000000,2.000000,2.000000,0.000000,2.000000,2.000000,2.000000,1.000000,2.000000,4.000000,4.000000,4.000000,4.000000,2.000000,4.000000,25.000000,,,,,,,,,,,,,,,,,3.000000,0.000000,0.631753,0.401794,-0.589966,0.302307,0.980100,0.167501,-0.009767,-75.260040,65.366943,29.557299
1732081906.396046,1732081906.396782,13.000000,0.000000,4276.282227,4258.717773,4305.256348,4288.974121,4290.769043,4291.538574,4296.025879,4305.897461,4294.615234,4282.436035,4387.051270,4428.333496,4307.563965,4341.282227,1693.000000,0.000000,12.000000,,,,0.000000,2.000000,2.000000,0.000000,2.000000,2.000000,2.000000,1.000000,2.000000,4.000000,4.000000,4.000000,4.000000,2.000000,4.000000,25.000000,,,,,,,,,,,,,,,,,,,,,,,,,,,,
1732081906.403854,1732081906.404390,14.000000,0.000000,4276.538574,4259.358887,4304.487305,4288.846191,4302.436035,4281.153809,4293.205078,4300.641113,4292.692383,4276.025879,4380.128418,4428.461426,4300.384766,4339.102539,1364.000000,0.000000,12.000000,,,,0.000000,2.000000,2.000000,0.000000,2.000000,2.000000,2.000000,1.000000,2.000000,4.000000,4.000000,4.000000,4.000000,2.000000,4.000000,25.000000,1.000000,25.000000,2.000000,2.000000,0.000000,2.000000,2.000000,2.000000,1.000000,2.000000,4.000000,4.000000,4.000000,4.000000,2.000000,3.000000,,,,,,,,,,,,
1732081906.411662,1732081906.412198,15.000000,0.000000,4277.436035,4257.692383,4305.000000,4289.743652,4289.615234,4285.897461,4294.102539,4307.563965,4297.820313,4277.436035,4381.282227,4428.333496,4299.358887,4340.128418,1503.000000,0.000000,12.000000,,,,0.000000,2.000000,2.000000,0.000000,2.000000,2.000000,2.000000,1.000000,2.000000,4.000000,4.000000,4.000000,4.000000,2.000000,4.000000,25.000000,,,,,,,,,,,,,,,,,,,,,,,,,,,,
1732081906.419471,1732081906.419907,16.000000,0.000000,4279.871582,4257.692383,4305.128418,4287.436035,4273.974121,4294.230957,4298.717773,4311.666504,4296.922852,4280.769043,4387.307617,4427.307617,4302.820313,4340.384766,0.000000,0.000000,12.000000,,,,0.000000,2.000000,2.000000,0.000000,2.000000,2.000000,2.000000,1.000000,2.000000,4.000000,4.000000,4.000000,4.000000,2.000000,4.000000,25.000000,,,,,,,,,,,,,,,,,4.000000,0.000000,0.631701,0.400024,-0.590942,0.302856,0.979612,0.155292,-0.009278,-75.317299,65.202225,29.619745
1732081906.427279,1732081906.427715,17.000000,0.000000,4276.794922,4258.205078,4303.717773,4285.512695,4284.743652,4287.563965,4297.563965,4308.846191,4294.743652,4280.000000,4390.256348,4427.179688,4301.538574,4336.282227,0.000000,0.000000,12.000000,,,,0.000000,2.000000,2.000000,0.000000,2.000000,2.000000,2.000000,1.000000,2.000000,4.000000,4.000000,4.000000,4.000000,2.000000,4.000000,25.000000,,,,,,,,,,,,,,,,,,,,,,,,,,,,
1732081906.435087,1732081906.435323,18.000000,0.000000,4276.025879,4259.743652,4304.871582,4286.538574,4296.922852,4286.410156,4295.769043,4308.589844,4295.641113,4279.102539,4386.794922,4428.077148,4298.333496,4333.974121,0.000000,0.000000,12.000000,,,,0.000000,2.000000,2.000000,0.000000,2.000000,2.000000,2.000000,1.000000,2.000000,4.000000,4.000000,4.000000,4.000000,2.000000,4.000000,25.000000,,,,,,,,,,,,,,,,,,,,,,,,,,,,
1732081906.442896,1732081906.443131,19.000000,0.000000,4278.333496,4260.769043,4304.615234,4287.692383,4292.948730,4295.384766,4298.461426,4309.230957,4295.769043,4281.025879,4383.205078,4430.512695,4300.769043,4334.615234,0.000000,0.000000,12.000000,,,,0.000000,2.000000,2.000000,0.000000,2.000000,2.000000,2.000000,1.000000,2.000000,4.000000,4.000000,4.000000,4.000000,2.000000,4.000000,25.000000,,,,,,,,,,,,,,,,,,,,,,,,,,,,
1732081906.450704,1732081906.450840,20.000000,0.000000,4275.000000,4254.871582,4304.230957,4283.205078,4295.641113,4291.666504,4300.641113,4309.230957,4295.897461,4279.358887,4382.051270,4430.000000,4304.358887,4335.897461,0.000000,0.000000,12.000000,,,,0.000000,2.000000,2.000000,0.000000,2.000000,2.000000,2.000000,1.000000,2.000000,4.000000,4.000000,4.000000,4.000000,2.000000,4.000000,25.000000,,,,,,,,,,,,,,,,,5.000000,0.000000,0.631429,0.399719,-0.591125,0.303467,0.972775,0.144549,-0.015139,-75.257011,65.542137,29.516994
1732081906.458512,1732081906.458648,21.000000,0.000000,4272.563965,4254.358887,4302.820313,4279.615234,4302.179688,4283.846191,4296.410156,4310.769043,4296.666504,4277.179688,4383.077148,4426.666504,4301.922852,4335.769043,0.000000,0.000000,12.000000,,,,0.000000,2.000000,2.000000,0.000000,2.000000,2.000000,2.000000,1.000000,2.000000,4.000000,4.000000,4.000000,4.000000,2.000000,4.000000,25.000000,,,,,,,,,,,,,,,,,,,,,,,,,,,,
1732081906.466320,1732081906.466656,22.000000,0.000000,4273.077148,4257.563965,4304.230957,4281.025879,4290.897461,4290.897461,4295.256348,4311.025879,4296.282227,4277.179688,4384.230957,4424.102539,4301.282227,4333.461426,0.000000,0.000000,12.000000,,,,0.000000,2.000000,2.000000,0.000000,2.000000,2.000000,2.000000,1.000000,2.000000,4.000000,4.000000,4.000000,4.000000,2.000000,4.000000,25.000000,,,,,,,,,,,,,,,,,,,,,,,,,,,,
1732081906.474128,1732081906.474464,23.000000,0.000000,4271.538574,4258.205078,4304.487305,4285.256348,4282.692383,4294.615234,4295.512695,4311.025879,4296.666504,4277.820313,4386.025879,4425.000000,4307.179688,4332.948730,0.000000,0.000000,12.000000,,,,0.000000,2.000000,2.000000,0.000000,2.000000,2.000000,2.000000,1.000000,2.000000,4.000000,4.000000,4.000000,4.000000,2.000000,4.000000,25.000000,,,,,,,,,,,,,,,,,,,,,,,,,,,,
1732081906.481937,1732081906.482372,24.000000,0.000000,4268.846191,4260.384766,4303.205078,4287.051270,4291.410156,4290.769043,4297.179688,4310.769043,4298.205078,4280.641113,4386.282227,4431.922852,4307.563965,4332.051270,0.000000,0.000000,12.000000,,,,0.000000,2.000000,2.000000,0.000000,2.000000,2.000000,2.000000,1.000000,2.000000,4.000000,4.000000,4.000000,4.000000,2.000000,4.000000,25.000000,,,,,,,,,,,,,,,,,6.000000,0.000000,0.630983,0.398865,-0.591614,0.304565,0.967892,0.131852,-0.017092,-75.056511,65.282463,29.565432
1732081906.489745,1732081906.490181,25.000000,0.000000,4267.051270,4264.230957,4300.512695,4286.666504,4297.692383,4293.333496,4299.102539,4311.666504,4296.282227,4280.897461,4383.846191,4438.333496,4302.436035,4331.153809,0.000000,0.000000,12.000000,,,,0.000000,2.000000,2.000000,0.000000,2.000000,2.000000,2.000000,1.000000,2.000000,4.000000,4.000000,4.000000,4.000000,2.000000,4.000000,25.000000,,,,,,,,,,,,,,,,,,,,,,,,,,,,
1732081906.497553,1732081906.498189,26.000000,0.000000,4265.641113,4265.256348,4302.820313,4288.846191,4295.000000,4291.538574,4296.794922,4310.769043,4293.717773,4277.051270,4381.922852,4434.230957,4302.948730,4331.282227,0.000000,0.000000,12.000000,,,,0.000000,2.000000,2.000000,0.000000,2.000000,2.000000,2.000000,1.000000,2.000000,4.000000,4.000000,4.000000,4.000000,2.000000,4.000000,25.000000,,,,,,,,,,,,,,,,,,,,,,,,,,,,
1732081906.505361,1732081906.505997,27.000000,0.000000,4272.692383,4266.282227,4304.743652,4292.307617,4294.487305,4285.128418,4295.000000,4303.717773,4293.589844,4276.282227,4382.051270,4424.615234,4308.461426,4331.410156,0.000000,0.000000,12.000000,,,,0.000000,2.000000,2.000000,0.000000,2.000000,2.000000,2.000000,1.000000,2.000000,4.000000,4.000000,4.000000,4.000000,2.000000,4.000000,25.000000,,,,,,,,,,,,,,,,,,,,,,,,,,,,
1732081906.513170,1732081906.513705,28.000000,0.000000,4278.077148,4271.025879,4303.333496,4295.256348,4296.410156,4284.871582,4297.436035,4303.333496,4290.000000,4276.282227,4382.436035,4425.512695,4307.692383,4329.615234,0.000000,0.000000,12.000000,,,,0.000000,2.000000,2.000000,0.000000,2.000000,2.000000,2.000000,1.000000,2.000000,4.000000,4.000000,4.000000,4.000000,2.000000,4.000000,25.000000,,,,,,,,,,,,,,,,,7.000000,0.000000,0.630374,0.396790,-0.592712,0.306396,0.974728,0.121597,-0.010743,-74.987442,65.315460,29.552999
1732081906.520978,1732081906.521513,29.000000,0.000000,4270.128418,4268.589844,4303.205078,4293.589844,4294.230957,4288.461426,4295.384766,4306.794922,4288.589844,4268.974121,4377.051270,4428.077148,4298.205078,4327.179688,0.000000,0.000000,12.000000,,,,0.000000,2.000000,2.000000,0.000000,2.000000,2.000000,2.000000,1.000000,2.000000,4.000000,4.000000,4.000000,4.000000,2.000000,4.000000,25.000000,,,,,,,,,,,,,,,,,,,,,,,,,,,,
1732081906.528786,1732081906.529521,30.000000,0.000000,4269.358887,4266.922852,4303.846191,4294.615234,4291.538574,4287.307617,4291.153809,4303.589844,4288.205078,4261.922852,4374.230957,4428.205078,4296.794922,4327.820313,0.000000,0.000000,12.000000,,,,0.000000,2.000000,2.000000,0.000000,2.000000,2.000000,2.000000,1.000000,2.000000,4.000000,4.000000,4.000000,4.000000,2.000000,4.000000,25.000000,,,,,,,,,,,,,,,,,,,,,,,,,,,,
1732081906.536595,1732081906.537329,31.000000,0.000000,4279.615234,4273.333496,4303.717773,4297.436035,4301.025879,4280.512695,4292.051270,4302.820313,4288.717773,4271.025879,4380.897461,4433.077148,4306.153809,4332.692383,0.000000,0.000000,12.000000,,,,0.000000,2.000000,2.000000,0.000000,2.000000,2.000000,2.000000,1.000000,2.000000,4.000000,4.000000,4.000000,4.000000,2.000000,4.000000,25.000000,,,,,,,,,,,,,,,,,,,,,,,,,,,,
1732081906.544403,1732081906.545238,32.000000,0.000000,4280.769043,4280.769043,4302.692383,4294.102539,4310.256348,4276.410156,4291.538574,4303.717773,4289.230957,4279.743652,4386.538574,4433.589844,4312.563965,4338.077148,0.000000,0.000000,12.000000,,,,0.000000,2.000000,2.000000,0.000000,2.000000,2.000000,2.000000,1.000000,2.000000,4.000000,4.000000,4.000000,4.000000,2.000000,4.000000,25.000000,,,,,,,,,,,,,,,,,8.000000,0.000000,0.629998,0.395813,-0.593323,0.307251,0.970333,0.117690,-0.016115,-75.064827,65.475525,29.542931
1732081906.552211,1732081906.553046,33.000000,0.000000,4277.307617,4283.461426,4302.820313,4292.179688,4298.717773,4279.102539,4291.025879,4297.948730,4288.846191,4272.948730,4384.743652,4427.820313,4312.692383,4338.333496,0.000000,0.000000,12.000000,,,,0.000000,2.000000,2.000000,0.000000,2.000000,2.000000,2.000000,1.000000,2.000000,4.000000,4.000000,4.000000,4.000000,2.000000,4.000000,25.000000,,,,,,,,,,,,,,,,,,,,,,,,,,,,
1732081906.560019,1732081906.561054,34.000000,0.000000,4276.922852,4276.666504,4301.794922,4292.307617,4288.461426,4284.487305,4293.461426,4296.922852,4286.538574,4266.922852,4379.615234,4425.384766,4309.487305,4332.692383,0.000000,0.000000,12.000000,,,,0.000000,2.000000,2.000000,0.000000,2.000000,2.000000,2.000000,1.000000,2.000000,4.000000,4.000000,4.000000,4.000000,2.000000,4.000000,25.000000,,,,,,,,,,,,,,,,,,,,,,,,,,,,
1732081906.567828,1732081906.568862,35.000000,0.000000,4274.230957,4271.282227,4301.025879,4287.948730,4294.358887,4281.282227,4296.153809,4304.358887,4287.692383,4272.179688,4376.666504,4424.230957,4304.743652,4327.692383,0.000000,0.000000,12.000000,,,,0.000000,2.000000,2.000000,0.000000,2.000000,2.000000,2.000000,1.000000,2.000000,4.000000,4.000000,4.000000,4.000000,2.000000,4.000000,25.000000,,,,,,,,,,,,,,,,,,,,,,,,,,,,
1732081906.575636,1732081906.576770,36.000000,0.000000,4272.307617,4272.948730,4300.641113,4286.153809,4297.436035,4277.948730,4293.205078,4303.333496,4291.282227,4274.743652,4376.666504,4420.769043,4304.487305,4327.307617,0.000000,0.000000,12.000000,,,,0.000000,2.000000,2.000000,0.000000,2.000000,2.000000,2.000000,1.000000,2.000000,4.000000,4.000000,4.000000,4.000000,2.000000,4.000000,25.000000,,,,,,,,,,,,,,,,,9.000000,0.000000,0.629827,0.395386,-0.593567,0.307678,0.970333,0.117690,-0.016115,-75.084175,65.290176,29.408106
1732081906.583444,1732081906.584578,37.000000,0.000000,4271.794922,4274.871582,4301.794922,4289.743652,4295.000000,4281.153809,4292.179688,4299.487305,4287.051270,4270.512695,4378.589844,4419.743652,4307.436035,4331.410156,0.000000,0.000000,12.000000,,,,0.000000,2.000000,2.000000,0.000000,2.000000,2.000000,2.000000,1.000000,2.000000,4.000000,4.000000,4.000000,4.000000,2.000000,4.000000,25.000000,,,,,,,,,,,,,,,,,,,,,,,,,,,,
1732081906.591252,1732081906.592586,38.000000,0.000000,4272.051270,4273.461426,4301.153809,4289.615234,4291.794922,4281.794922,4292.820313,4300.128418,4280.897461,4269.358887,4380.000000,4416.282227,4308.333496,4334.615234,0.000000,0.000000,12.000000,,,,0.000000,2.000000,2.000000,0.000000,2.000000,2.000000,2.000000,1.000000,2.000000,4.000000,4.000000,4.000000,4.000000,2.000000,4.000000,25.000000,,,,,,,,,,,,,,,,,,,,,,,,,,,,
1732081906.599061,1732081906.600395,39.000000,0.000000,4275.256348,4270.897461,4300.384766,4287.436035,4296.666504,4278.717773,4295.128418,4297.820313,4281.666504,4270.000000,4377.948730,4410.897461,4306.282227,4332.563965,0.000000,0.000000,12.000000,,,,0.000000,2.000000,2.000000,0.000000,2.000000,2.000000,2.000000,1.000000,2.000000,4.000000,4.000000,4.000000,4.000000,2.000000,4.000000,25.000000,,,,,,,,,,,,,,,,,,,,,,,,,,,,
1732081906.606869,1732081906.608303,40.000000,0.000000,4277.692383,4273.974121,4302.436035,4288.717773,4307.051270,4277.563965,4293.461426,4297.179688,4289.358887,4273.205078,4375.128418,4413.205078,4305.384766,4329.615234,0.000000,0.000000,12.000000,,,,0.000000,2.000000,2.000000,0.000000,2.000000,2.000000,2.000000,1.000000,2.000000,4.000000,4.000000,4.000000,4.000000,2.000000,4.000000,25.000000,,,,,,,,,,,,,,,,,10.000000,0.000000,0.629153,0.394226,-0.594482,0.308777,0.968380,0.131364,-0.018069,-75.244850,65.253372,29.552233
1732081906.614677,1732081906.616111,41.000000,0.000000,4275.769043,4277.948730,4303.846191,4291.025879,4299.487305,4279.743652,4292.692383,4297.436035,4290.512695,4275.000000,4375.512695,4417.307617,4308.974121,4333.589844,0.000000,0.000000,12.000000,,,,0.000000,2.000000,2.000000,0.000000,2.000000,2.000000,2.000000,1.000000,2.000000,4.000000,4.000000,4.000000,4.000000,2.000000,4.000000,25.000000,,,,,,,,,,,,,,,,,,,,,,,,,,,,
1732081906.622485,1732081906.623919,42.000000,0.000000,4274.871582,4277.051270,4301.282227,4292.307617,4289.615234,4281.282227,4295.128418,4296.410156,4283.333496,4270.897461,4378.205078,4416.153809,4312.179688,4337.692383,0.000000,0.000000,12.000000,,,,0.000000,2.000000,2.000000,0.000000,2.000000,2.000000,2.000000,1.000000,2.000000,4.000000,4.000000,4.000000,4.000000,2.000000,4.000000,25.000000,,,,,,,,,,,,,,,,,,,,,,,,,,,,
1732081906.630293,1732081906.631727,43.000000,0.000000,4274.358887,4273.589844,4301.282227,4288.717773,4292.948730,4280.384766,4293.846191,4295.512695,4282.563965,4272.436035,4377.820313,4410.897461,4309.615234,4333.846191,0.000000,0.000000,12.000000,,,,0.000000,2.000000,2.000000,0.000000,2.000000,2.000000,2.000000,1.000000,2.000000,4.000000,4.000000,4.000000,4.000000,2.000000,4.000000,25.000000,,,,,,,,,,,,,,,,,,,,,,,,,,,,
1732081906.638102,1732081906.639436,44.000000,0.000000,4273.846191,4271.922852,4301.794922,4285.128418,4295.512695,4280.512695,4290.897461,4296.282227,4285.897461,4279.102539,4377.820313,4410.256348,4307.179688,4328.461426,0.000000,0.000000,12.000000,,,,0.000000,2.000000,2.000000,0.000000,2.000000,2.000000,2.000000,1.000000,2.000000,4.000000,4.000000,4.000000,4.000000,2.000000,4.000000,25.000000,,,,,,,,,,,,,,,,,11.000000,0.000000,0.628230,0.394287,-0.594910,0.309753,0.969845,0.129410,-0.014650,-75.251663,65.068565,29.402309
1732081906.645910,1732081906.647244,45.000000,0.000000,4272.820313,4271.538574,4300.897461,4285.256348,4302.948730,4280.256348,4291.666504,4297.179688,4285.256348,4277.820313,4379.230957,4413.333496,4308.333496,4326.153809,0.000000,0.000000,12.000000,,,,0.000000,2.000000,2.000000,0.000000,2.000000,2.000000,2.000000,1.000000,2.000000,4.000000,4.000000,4.000000,4.000000,2.000000,4.000000,25.000000,,,,,,,,,,,,,,,,,,,,,,,,,,,,
1732081906.653718,1732081906.654852,46.000000,0.000000,4270.128418,4268.461426,4300.000000,4281.410156,4306.025879,4279.615234,4293.974121,4298.589844,4285.256348,4273.846191,4375.641113,4412.948730,4305.384766,4326.538574,0.000000,0.000000,12.000000,,,,0.000000,2.000000,2.000000,0.000000,2.000000,2.000000,2.000000,1.000000,2.000000,4.000000,4.000000,4.000000,4.000000,2.000000,4.000000,25.000000,,,,,,,,,,,,,,,,,,,,,,,,,,,,
1732081906.661527,1732081906.662660,47.000000,0.000000,4268.846191,4267.692383,4300.769043,4277.307617,4292.820313,4282.563965,4293.205078,4300.000000,4287.563965,4275.897461,4371.410156,4411.282227,4301.153809,4327.563965,0.000000,0.000000,12.000000,,,,0.000000,2.000000,2.000000,0.000000,2.000000,2.000000,2.000000,1.000000,2.000000,4.000000,4.000000,4.000000,4.000000,2.000000,4.000000,25.000000,,,,,,,,,,,,,,,,,,,,,,,,,,,,
1732081906.669335,1732081906.670369,48.000000,0.000000,4269.743652,4269.871582,4300.384766,4281.538574,4289.230957,4287.307617,4292.179688,4298.974121,4287.692383,4272.948730,4367.307617,4407.436035,4298.974121,4322.820313,0.000000,0.000000,12.000000,,,,0.000000,2.000000,2.000000,0.000000,2.000000,2.000000,2.000000,1.000000,2.000000,4.000000,4.000000,4.000000,4.000000,2.000000,4.000000,25.000000,,,,,,,,,,,,,,,,,12.000000,0.000000,0.627563,0.394592,-0.595093,0.310364,0.972287,0.109388,-0.027347,-75.207176,65.007202,29.322536
1732081906.677143,1732081906.678177,49.000000,0.000000,4272.307617,4277.307617,4298.974121,4289.487305,4295.512695,4284.743652,4292.820313,4297.051270,4287.692383,4268.205078,4364.743652,4404.487305,4299.102539,4321.282227,0.000000,0.000000,12.000000,,,,0.000000,2.000000,2.000000,0.000000,2.000000,2.000000,2.000000,1.000000,2.000000,4.000000,4.000000,4.000000,4.000000,2.000000,4.000000,25.000000,,,,,,,,,,,,,,,,,,,,,,,,,,,,
1732081906.684951,1732081906.685785,50.000000,0.000000,4274.487305,4282.436035,4301.282227,4288.205078,4299.102539,4281.153809,4295.128418,4294.871582,4286.922852,4267.051270,4366.153809,4405.512695,4298.846191,4327.436035,0.000000,0.000000,12.000000,,,,0.000000,2.000000,2.000000,0.000000,2.000000,2.000000,2.000000,1.000000,2.000000,4.000000,4.000000,4.000000,4.000000,2.000000,4.000000,25.000000,,,,,,,,,,,,,,,,,,,,,,,,,,,,
1732081906.692760,1732081906.693594,51.000000,0.000000,4275.000000,4278.846191,4302.179688,4282.051270,4307.948730,4283.333496,4292.692383,4294.230957,4285.128418,4263.717773,4365.384766,4404.230957,4296.025879,4326.025879,0.000000,0.000000,12.000000,,,,0.000000,2.000000,2.000000,0.000000,2.000000,2.000000,2.000000,1.000000,2.000000,4.000000,4.000000,4.000000,4.000000,2.000000,4.000000,25.000000,,,,,,,,,,,,,,,,,,,,,,,,,,,,
1732081906.700568,1732081906.701302,52.000000,0.000000,4271.922852,4274.230957,4300.384766,4283.077148,4301.153809,4284.102539,4293.077148,4299.615234,4287.563965,4265.256348,4360.512695,4403.205078,4293.333496,4318.846191,0.000000,0.000000,12.000000,,,,0.000000,2.000000,2.000000,0.000000,2.000000,2.000000,2.000000,1.000000,2.000000,4.000000,4.000000,4.000000,4.000000,2.000000,4.000000,25.000000,,,,,,,,,,,,,,,,,13.000000,0.000000,0.627143,0.394836,-0.595215,0.310669,0.967892,0.107435,-0.031742,-75.547813,64.910835,29.166254
1732081906.708376,1732081906.709110,53.000000,0.000000,4273.205078,4277.820313,4299.230957,4288.333496,4284.358887,4281.153809,4296.538574,4303.589844,4290.128418,4271.538574,4359.871582,4411.410156,4293.717773,4320.769043,0.000000,0.000000,12.000000,,,,0.000000,2.000000,2.000000,0.000000,2.000000,2.000000,2.000000,1.000000,2.000000,4.000000,4.000000,4.000000,4.000000,2.000000,4.000000,25.000000,,,,,,,,,,,,,,,,,,,,,,,,,,,,
1732081906.716185,1732081906.716718,54.000000,0.000000,4278.717773,4281.025879,4302.436035,4288.077148,4287.436035,4280.000000,4296.025879,4298.974121,4286.794922,4269.487305,4366.922852,4418.077148,4297.307617,4326.666504,0.000000,0.000000,12.000000,,,,0.000000,2.000000,2.000000,0.000000,2.000000,2.000000,2.000000,1.000000,2.000000,4.000000,4.000000,4.000000,4.000000,2.000000,4.000000,25.000000,,,,,,,,,,,,,,,,,,,,,,,,,,,,
1732081906.723993,1732081906.724527,55.000000,0.000000,4281.410156,4279.743652,4301.666504,4286.410156,4291.922852,4281.410156,4292.436035,4295.256348,4285.897461,4269.230957,4373.589844,4417.051270,4297.692383,4331.794922,0.000000,0.000000,12.000000,,,,0.000000,2.000000,2.000000,0.000000,2.000000,2.000000,2.000000,1.000000,2.000000,4.000000,4.000000,4.000000,4.000000,2.000000,4.000000,25.000000,,,,,,,,,,,,,,,,,,,,,,,,,,,,
1732081906.731801,1732081906.732235,56.000000,0.000000,4280.000000,4277.436035,4300.128418,4287.692383,4294.358887,4280.512695,4292.820313,4298.205078,4283.717773,4272.179688,4373.333496,4423.205078,4294.743652,4333.846191,0.000000,0.000000,12.000000,,,,0.000000,2.000000,2.000000,0.000000,2.000000,2.000000,2.000000,1.000000,2.000000,4.000000,4.000000,4.000000,4.000000,2.000000,4.000000,25.000000,,,,,,,,,,,,,,,,,14.000000,0.000000,0.626076,0.395081,-0.595825,0.311340,0.977658,0.111342,-0.025394,-75.633728,64.646111,29.147999
1732081906.739609,1732081906.740043,57.000000,0.000000,4277.179688,4278.717773,4299.743652,4286.538574,4299.487305,4275.769043,4290.128418,4296.666504,4278.717773,4265.641113,4369.487305,4427.692383,4293.333496,4328.077148,0.000000,0.000000,12.000000,,,,0.000000,2.000000,2.000000,0.000000,2.000000,2.000000,2.000000,1.000000,2.000000,4.000000,4.000000,4.000000,4.000000,2.000000,4.000000,25.000000,,,,,,,,,,,,,,,,,,,,,,,,,,,,
1732081906.747417,1732081906.747652,58.000000,0.000000,4276.666504,4281.794922,4300.384766,4287.051270,4287.307617,4280.128418,4288.589844,4295.512695,4283.077148,4262.179688,4364.102539,4422.051270,4294.102539,4323.461426,0.000000,0.000000,12.000000,,,,0.000000,2.000000,2.000000,0.000000,2.000000,2.000000,2.000000,1.000000,2.000000,4.000000,4.000000,4.000000,4.000000,2.000000,4.000000,25.000000,,,,,,,,,,,,,,,,,,,,,,,,,,,,
1732081906.755226,1732081906.755460,59.000000,0.000000,4269.743652,4281.282227,4300.000000,4291.666504,4277.051270,4291.538574,4295.256348,4300.641113,4285.769043,4265.256348,4361.666504,4414.743652,4292.948730,4318.717773,0.000000,0.000000,12.000000,,,,0.000000,2.000000,2.000000,0.000000,2.000000,2.000000,2.000000,1.000000,2.000000,4.000000,4.000000,4.000000,4.000000,2.000000,4.000000,25.000000,,,,,,,,,,,,,,,,,,,,,,,,,,,,
1732081906.763034,1732081906.763168,60.000000,0.000000,4263.461426,4278.077148,4300.128418,4289.487305,4296.922852,4290.000000,4299.102539,4298.717773,4280.128418,4263.846191,4362.051270,4404.102539,4290.384766,4310.512695,0.000000,0.000000,12.000000,,,,0.000000,2.000000,2.000000,0.000000,2.000000,2.000000,2.000000,1.000000,2.000000,4.000000,4.000000,4.000000,4.000000,2.000000,4.000000,25.000000,,,,,,,,,,,,,,,,,15.000000,0.000000,0.625556,0.395203,-0.596130,0.311646,0.969357,0.103528,-0.023440,-75.723320,64.301682,29.213213
1732081906.770842,1732081906.770976,61.000000,0.000000,4271.538574,4279.358887,4301.410156,4287.692383,4303.205078,4279.871582,4295.769043,4293.333496,4279.615234,4262.563965,4363.974121,4397.179688,4291.794922,4315.512695,0.000000,0.000000,12.000000,,,,0.000000,2.000000,2.000000,0.000000,2.000000,2.000000,2.000000,1.000000,2.000000,4.000000,4.000000,4.000000,4.000000,2.000000,4.000000,25.000000,,,,,,,,,,,,,,,,,,,,,,,,,,,,
1732081906.778650,1732081906.778984,62.000000,0.000000,4280.769043,4283.846191,4303.205078,4293.974121,4282.051270,4284.487305,4293.717773,4297.692383,4284.615234,4266.794922,4363.077148,4404.615234,4295.000000,4327.179688,0.000000,0.000000,12.000000,,,,0.000000,2.000000,2.000000,0.000000,2.000000,2.000000,2.000000,1.000000,2.000000,4.000000,4.000000,4.000000,4.000000,2.000000,4.000000,25.000000,,,,,,,,,,,,,,,,,,,,,,,,,,,,
1732081906.786459,1732081906.786793,63.000000,0.000000,4272.051270,4282.948730,4302.179688,4295.769043,4279.230957,4291.794922,4297.948730,4298.974121,4283.205078,4266.666504,4359.615234,4411.794922,4294.487305,4324.871582,0.000000,0.000000,12.000000,,,,0.000000,2.000000,2.000000,0.000000,2.000000,2.000000,2.000000,1.000000,2.000000,4.000000,4.000000,4.000000,4.000000,2.000000,4.000000,25.000000,,,,,,,,,,,,,,,,,,,,,,,,,,,,
1732081906.794267,1732081906.794701,64.000000,0.000000,4263.717773,4280.128418,4300.512695,4290.897461,4295.128418,4287.307617,4299.487305,4295.256348,4281.153809,4263.461426,4360.769043,4408.461426,4292.051270,4320.128418,0.000000,0.000000,12.000000,,,,0.000000,2.000000,2.000000,0.000000,2.000000,2.000000,2.000000,1.000000,2.000000,4.000000,4.000000,4.000000,4.000000,2.000000,4.000000,25.000000,,,,,,,,,,,,,,,,,16.000000,0.000000,0.625556,0.395203,-0.596130,0.311646,0.967403,0.103528,-0.029300,-75.870888,64.022697,29.236036
1732081906.802075,1732081906.802509,65.000000,0.000000,4267.436035,4281.666504,4299.230957,4291.153809,4293.974121,4288.333496,4296.410156,4300.512695,4284.102539,4265.384766,4364.743652,4411.153809,4295.256348,4318.846191,1292.000000,0.000000,12.000000,,,,0.000000,2.000000,2.000000,0.000000,2.000000,2.000000,2.000000,1.000000,2.000000,4.000000,4.000000,4.000000,4.000000,2.000000,4.000000,25.000000,,,,,,,,,,,,,,,,,,,,,,,,,,,,
1732081906.809883,1732081906.810117,66.000000,0.000000,4267.820313,4282.307617,4297.563965,4291.538574,4290.000000,4290.000000,4293.077148,4304.358887,4286.153809,4269.358887,4365.512695,4415.256348,4295.641113,4314.487305,1224.000000,0.000000,12.000000,,,,0.000000,2.000000,2.000000,0.000000,2.000000,2.000000,2.000000,1.000000,2.000000,4.000000,4.000000,4.000000,4.000000,2.000000,4.000000,25.000000,,,,,,,,,,,,,,,,,,,,,,,,,,,,
1732081906.817692,1732081906.817926,67.000000,0.000000,4262.948730,4278.846191,4295.384766,4282.692383,4298.846191,4282.820313,4296.153809,4298.077148,4287.051270,4269.743652,4365.384766,4411.922852,4290.256348,4316.794922,1169.000000,0.000000,12.000000,,,,0.000000,2.000000,2.000000,0.000000,2.000000,2.000000,2.000000,1.000000,2.000000,4.000000,4.000000,4.000000,4.000000,2.000000,4.000000,25.000000,,,,,,,,,,,,,,,,,,,,,,,,,,,,
1732081906.825500,1732081906.825634,68.000000,0.000000,4263.205078,4277.563965,4295.384766,4278.846191,4292.179688,4280.769043,4298.205078,4295.512695,4286.666504,4269.871582,4365.769043,4415.897461,4289.743652,4322.948730,1200.000000,0.000000,12.000000,,,,0.000000,2.000000,2.000000,0.000000,2.000000,2.000000,2.000000,1.000000,2.000000,4.000000,4.000000,4.000000,4.000000,2.000000,4.000000,25.000000,,,,,,,,,,,,,,,,,17.000000,0.000000,0.624948,0.395508,-0.596375,0.312012,0.974240,0.112318,-0.029300,-75.933754,63.816719,29.177856
1732081906.833308,1732081906.833442,69.000000,0.000000,4265.256348,4279.615234,4300.512695,4286.666504,4274.615234,4289.230957,4300.000000,4299.230957,4284.615234,4270.512695,4363.589844,4424.871582,4292.692383,4322.692383,1068.000000,0.000000,12.000000,,,,0.000000,2.000000,2.000000,0.000000,2.000000,2.000000,2.000000,1.000000,2.000000,4.000000,4.000000,4.000000,4.000000,2.000000,4.000000,25.000000,,,,,,,,,,,,,,,,,,,,,,,,,,,,
1732081906.841117,1732081906.841050,70.000000,0.000000,4265.512695,4280.641113,4304.358887,4291.922852,4278.974121,4294.487305,4300.897461,4298.205078,4283.077148,4265.769043,4362.820313,4421.538574,4292.692383,4324.102539,202.000000,0.000000,12.000000,,,,0.000000,2.000000,2.000000,0.000000,2.000000,2.000000,2.000000,1.000000,2.000000,4.000000,4.000000,4.000000,4.000000,2.000000,4.000000,25.000000,,,,,,,,,,,,,,,,,,,,,,,,,,,,
1732081906.848925,1732081906.848859,71.000000,0.000000,4262.051270,4281.410156,4302.948730,4289.102539,4299.230957,4293.589844,4300.641113,4296.025879,4284.358887,4262.436035,4359.102539,4408.461426,4290.384766,4322.436035,1187.000000,0.000000,12.000000,,,,0.000000,2.000000,2.000000,0.000000,2.000000,2.000000,2.000000,1.000000,2.000000,4.000000,4.000000,4.000000,4.000000,2.000000,4.000000,25.000000,,,,,,,,,,,,,,,,,,,,,,,,,,,,
1732081906.856733,1732081906.856767,72.000000,0.000000,4259.102539,4281.538574,4296.538574,4289.102539,4303.974121,4293.717773,4301.410156,4300.128418,4289.102539,4269.871582,4355.641113,4404.871582,4292.051270,4313.717773,1334.000000,0.000000,12.000000,,,,0.000000,2.000000,2.000000,0.000000,2.000000,2.000000,2.000000,1.000000,2.000000,4.000000,4.000000,4.000000,4.000000,2.000000,4.000000,25.000000,,,,,,,,,,,,,,,,,18.000000,0.000000,0.624439,0.395325,-0.596741,0.312561,0.982542,0.100110,-0.026370,-76.003006,63.824875,29.209063
1732081906.864541,1732081906.864575,73.000000,0.000000,4262.051270,4281.410156,4295.256348,4291.410156,4287.563965,4289.358887,4301.025879,4304.102539,4291.666504,4273.846191,4361.794922,4410.000000,4297.179688,4315.512695,1464.000000,0.000000,12.000000,,,,0.000000,2.000000,2.000000,0.000000,2.000000,2.000000,2.000000,1.000000,2.000000,4.000000,4.000000,4.000000,4.000000,2.000000,4.000000,25.000000,,,,,,,,,,,,,,,,,,,,,,,,,,,,
1732081906.872350,1732081906.872583,74.000000,0.000000,4264.743652,4282.307617,4296.922852,4290.256348,4278.974121,4284.487305,4297.436035,4301.538574,4291.025879,4273.461426,4367.820313,4410.128418,4296.922852,4323.077148,1364.000000,0.000000,12.000000,,,,0.000000,2.000000,2.000000,0.000000,2.000000,2.000000,2.000000,1.000000,2.000000,4.000000,4.000000,4.000000,4.000000,2.000000,4.000000,25.000000,,,,,,,,,,,,,,,,,,,,,,,,,,,,
1732081906.880158,1732081906.880391,75.000000,0.000000,4263.974121,4282.307617,4299.871582,4291.025879,4284.743652,4283.717773,4297.692383,4298.846191,4288.717773,4274.358887,4366.153809,4409.487305,4292.692383,4322.692383,1499.000000,0.000000,12.000000,,,,0.000000,2.000000,2.000000,0.000000,2.000000,2.000000,2.000000,1.000000,2.000000,4.000000,4.000000,4.000000,4.000000,2.000000,4.000000,25.000000,,,,,,,,,,,,,,,,,,,,,,,,,,,,
1732081906.887966,1732081906.888299,76.000000,0.000000,4263.589844,4279.871582,4300.512695,4289.487305,4285.128418,4283.461426,4298.333496,4297.820313,4281.922852,4268.461426,4364.102539,4409.615234,4292.179688,4318.461426,1728.000000,0.000000,12.000000,,,,0.000000,2.000000,2.000000,0.000000,2.000000,2.000000,2.000000,1.000000,2.000000,4.000000,4.000000,4.000000,4.000000,2.000000,4.000000,25.000000,,,,,,,,,,,,,,,,,19.000000,0.000000,0.623851,0.394897,-0.597351,0.313110,0.970822,0.108900,-0.030765,-76.207436,63.971481,29.081007
1732081906.895774,1732081906.896107,77.000000,0.000000,4263.589844,4277.948730,4298.717773,4282.948730,4277.692383,4280.641113,4296.282227,4292.820313,4278.974121,4262.692383,4359.743652,4405.000000,4290.000000,4315.769043,1690.000000,0.000000,12.000000,,,,0.000000,2.000000,2.000000,0.000000,2.000000,2.000000,2.000000,1.000000,2.000000,4.000000,4.000000,4.000000,4.000000,2.000000,4.000000,25.000000,,,,,,,,,,,,,,,,,,,,,,,,,,,,
1732081906.903583,1732081906.904115,78.000000,0.000000,4263.205078,4278.461426,4298.077148,4286.025879,4280.641113,4280.384766,4298.077148,4289.743652,4279.743652,4262.948730,4350.897461,4397.948730,4282.179688,4312.692383,1364.000000,0.000000,12.000000,,,,0.000000,2.000000,2.000000,0.000000,2.000000,2.000000,2.000000,1.000000,2.000000,4.000000,4.000000,4.000000,4.000000,2.000000,4.000000,25.000000,1.000000,25.000000,2.000000,2.000000,0.000000,2.000000,2.000000,2.000000,1.000000,2.000000,4.000000,4.000000,4.000000,4.000000,2.000000,4.000000,,,,,,,,,,,,
1732081906.911391,1732081906.911924,79.000000,0.000000,4262.051270,4280.641113,4300.128418,4292.436035,4284.743652,4284.487305,4300.128418,4294.102539,4280.384766,4264.615234,4351.922852,4396.282227,4278.461426,4305.256348,1499.000000,0.000000,12.000000,,,,0.000000,2.000000,2.000000,0.000000,2.000000,2.000000,2.000000,1.000000,2.000000,4.000000,4.000000,4.000000,4.000000,2.000000,4.000000,25.000000,,,,,,,,,,,,,,,,,,,,,,,,,,,,
1732081906.919199,1732081906.919832,80.000000,0.000000,4262.436035,4281.922852,4298.846191,4290.128418,4279.230957,4285.641113,4299.743652,4297.692383,4281.666504,4265.256348,4359.871582,4397.307617,4282.307617,4300.000000,1728.000000,0.000000,12.000000,,,,0.000000,2.000000,2.000000,0.000000,2.000000,2.000000,2.000000,1.000000,2.000000,4.000000,4.000000,4.000000,4.000000,2.000000,4.000000,25.000000,,,,,,,,,,,,,,,,,20.000000,0.000000,0.623561,0.394836,-0.597534,0.313416,0.970822,0.108900,-0.030765,-76.136360,63.945232,29.002283
1732081906.927007,1732081906.927640,81.000000,0.000000,4266.025879,4281.794922,4296.538574,4286.410156,4284.615234,4282.051270,4298.717773,4293.717773,4283.205078,4264.487305,4361.410156,4396.153809,4285.000000,4306.922852,1690.000000,0.000000,12.000000,,,,0.000000,2.000000,2.000000,0.000000,2.000000,2.000000,2.000000,1.000000,2.000000,4.000000,4.000000,4.000000,4.000000,2.000000,4.000000,25.000000,,,,,,,,,,,,,,,,,,,,,,,,,,,,
1732081906.934816,1732081906.935648,82.000000,0.000000,4266.794922,4280.897461,4298.717773,4286.794922,4293.589844,4279.487305,4301.025879,4290.384766,4281.922852,4264.102539,4360.512695,4396.025879,4286.282227,4315.897461,1364.000000,0.000000,12.000000,,,,0.000000,2.000000,2.000000,0.000000,2.000000,2.000000,2.000000,1.000000,2.000000,4.000000,4.000000,4.000000,4.000000,2.000000,4.000000,25.000000,,,,,,,,,,,,,,,,,,,,,,,,,,,,
1732081906.942624,1732081906.943456,83.000000,0.000000,4262.436035,4279.230957,4299.230957,4289.871582,4285.897461,4283.461426,4301.282227,4293.333496,4281.410156,4265.641113,4362.436035,4396.922852,4288.589844,4313.077148,1499.000000,0.000000,12.000000,,,,0.000000,2.000000,2.000000,0.000000,2.000000,2.000000,2.000000,1.000000,2.000000,4.000000,4.000000,4.000000,4.000000,2.000000,4.000000,25.000000,,,,,,,,,,,,,,,,,,,,,,,,,,,,
1732081906.950432,1732081906.951364,84.000000,0.000000,4262.436035,4280.512695,4295.897461,4288.077148,4274.615234,4285.128418,4300.128418,4295.256348,4285.000000,4270.512695,4365.641113,4404.871582,4287.692383,4307.436035,1728.000000,0.000000,12.000000,,,,0.000000,2.000000,2.000000,0.000000,2.000000,2.000000,2.000000,1.000000,2.000000,4.000000,4.000000,4.000000,4.000000,2.000000,4.000000,25.000000,,,,,,,,,,,,,,,,,21.000000,0.000000,0.622750,0.394653,-0.598083,0.314209,0.977170,0.104505,-0.024417,-76.188782,63.692307,29.165182
1732081906.958240,1732081906.959173,85.000000,0.000000,4262.051270,4280.256348,4293.589844,4278.974121,4278.205078,4281.153809,4297.436035,4295.384766,4286.410156,4272.179688,4367.948730,4415.000000,4287.563965,4309.230957,1690.000000,0.000000,12.000000,,,,0.000000,2.000000,2.000000,0.000000,2.000000,2.000000,2.000000,1.000000,2.000000,4.000000,4.000000,4.000000,4.000000,2.000000,4.000000,25.000000,,,,,,,,,,,,,,,,,,,,,,,,,,,,
1732081906.966049,1732081906.967181,86.000000,0.000000,4256.025879,4274.615234,4294.487305,4272.436035,4280.256348,4279.358887,4299.358887,4297.820313,4287.051270,4272.692383,4370.641113,4417.179688,4290.897461,4309.102539,1364.000000,0.000000,12.000000,,,,0.000000,2.000000,2.000000,0.000000,2.000000,2.000000,2.000000,1.000000,2.000000,4.000000,4.000000,4.000000,4.000000,2.000000,4.000000,25.000000,,,,,,,,,,,,,,,,,,,,,,,,,,,,
1732081906.973857,1732081906.974989,87.000000,0.000000,4256.025879,4273.205078,4293.077148,4280.128418,4278.846191,4280.897461,4301.153809,4299.102539,4291.282227,4273.717773,4370.384766,4413.333496,4293.333496,4310.769043,1499.000000,0.000000,12.000000,,,,0.000000,2.000000,2.000000,0.000000,2.000000,2.000000,2.000000,1.000000,2.000000,4.000000,4.000000,4.000000,4.000000,2.000000,4.000000,25.000000,,,,,,,,,,,,,,,,,,,,,,,,,,,,
1732081906.981665,1732081906.982897,88.000000,0.000000,4264.358887,4280.256348,4294.871582,4286.025879,4289.102539,4280.641113,4298.974121,4296.410156,4290.000000,4273.589844,4368.205078,4411.025879,4294.615234,4317.307617,1728.000000,0.000000,12.000000,,,,0.000000,2.000000,2.000000,0.000000,2.000000,2.000000,2.000000,1.000000,2.000000,4.000000,4.000000,4.000000,4.000000,2.000000,4.000000,25.000000,,,,,,,,,,,,,,,,,22.000000,0.000000,0.622693,0.394470,-0.598328,0.314087,0.978147,0.112318,-0.032230,-76.077911,63.709103,29.235464
1732081906.989473,1732081906.990705,89.000000,0.000000,4267.179688,4281.025879,4298.205078,4283.205078,4288.589844,4280.641113,4300.128418,4296.922852,4283.461426,4272.692383,4366.025879,4414.871582,4295.641113,4316.666504,1690.000000,0.000000,12.000000,,,,0.000000,2.000000,2.000000,0.000000,2.000000,2.000000,2.000000,1.000000,2.000000,4.000000,4.000000,4.000000,4.000000,2.000000,4.000000,25.000000,,,,,,,,,,,,,,,,,,,,,,,,,,,,
1732081906.997282,1732081906.998713,90.000000,0.000000,4260.000000,4274.358887,4298.333496,4281.282227,4272.179688,4281.794922,4304.102539,4298.846191,4284.358887,4269.102539,4365.384766,4417.436035,4293.205078,4310.769043,1364.000000,0.000000,12.000000,,,,0.000000,2.000000,2.000000,0.000000,2.000000,2.000000,2.000000,1.000000,2.000000,4.000000,4.000000,4.000000,4.000000,2.000000,4.000000,25.000000,,,,,,,,,,,,,,,,,,,,,,,,,,,,
1732081907.005090,1732081907.006521,91.000000,0.000000,4257.436035,4275.256348,4294.487305,4279.871582,4270.641113,4280.641113,4302.307617,4298.077148,4291.410156,4271.153809,4370.000000,4415.641113,4295.128418,4313.077148,1499.000000,0.000000,12.000000,,,,0.000000,2.000000,2.000000,0.000000,2.000000,2.000000,2.000000,1.000000,2.000000,4.000000,4.000000,4.000000,4.000000,2.000000,4.000000,25.000000,,,,,,,,,,,,,,,,,,,,,,,,,,,,
1732081907.012898,1732081907.014230,92.000000,0.000000,4257.307617,4276.025879,4293.205078,4278.974121,4279.615234,4280.128418,4299.743652,4298.333496,4292.051270,4273.974121,4372.307617,4413.717773,4302.307617,4316.153809,1728.000000,0.000000,12.000000,,,,0.000000,2.000000,2.000000,0.000000,2.000000,2.000000,2.000000,1.000000,2.000000,4.000000,4.000000,4.000000,4.000000,2.000000,4.000000,25.000000,,,,,,,,,,,,,,,,,23.000000,0.000000,0.622648,0.394409,-0.598511,0.313904,0.978147,0.112318,-0.032230,-76.153107,63.692707,29.187393
1732081907.020707,1732081907.022038,93.000000,0.000000,4257.820313,4275.512695,4294.871582,4279.102539,4281.922852,4281.153809,4302.692383,4298.589844,4290.512695,4272.307617,4371.025879,4409.358887,4298.461426,4313.077148,1690.000000,0.000000,12.000000,,,,0.000000,2.000000,2.000000,0.000000,2.000000,2.000000,2.000000,1.000000,2.000000,4.000000,4.000000,4.000000,4.000000,2.000000,4.000000,25.000000,,,,,,,,,,,,,,,,,,,,,,,,,,,,
1732081907.028515,1732081907.029646,94.000000,0.000000,4257.307617,4275.128418,4296.282227,4280.256348,4277.563965,4281.922852,4303.589844,4297.436035,4292.948730,4271.410156,4375.128418,4407.436035,4293.333496,4314.615234,1364.000000,0.000000,12.000000,,,,0.000000,2.000000,2.000000,0.000000,2.000000,2.000000,2.000000,1.000000,2.000000,4.000000,4.000000,4.000000,4.000000,2.000000,4.000000,25.000000,,,,,,,,,,,,,,,,,,,,,,,,,,,,
1732081907.036323,1732081907.037454,95.000000,0.000000,4255.128418,4269.743652,4294.615234,4279.615234,4278.205078,4281.922852,4301.922852,4297.563965,4288.461426,4269.358887,4378.846191,4410.512695,4299.615234,4318.333496,1499.000000,0.000000,12.000000,,,,0.000000,2.000000,2.000000,0.000000,2.000000,2.000000,2.000000,1.000000,2.000000,4.000000,4.000000,4.000000,4.000000,2.000000,4.000000,25.000000,,,,,,,,,,,,,,,,,,,,,,,,,,,,
1732081907.044131,1732081907.045163,96.000000,0.000000,4253.846191,4265.000000,4292.436035,4280.384766,4286.153809,4280.769043,4303.077148,4297.307617,4279.358887,4267.948730,4373.205078,4409.102539,4297.051270,4314.358887,1728.000000,0.000000,12.000000,,,,0.000000,2.000000,2.000000,0.000000,2.000000,2.000000,2.000000,1.000000,2.000000,4.000000,4.000000,4.000000,4.000000,2.000000,4.000000,25.000000,,,,,,,,,,,,,,,,,24.000000,0.000000,0.622125,0.394714,-0.598694,0.314209,0.984007,0.096203,-0.034184,-76.167351,63.607758,29.021788
1732081907.051939,1732081907.052971,97.000000,0.000000,4254.871582,4267.563965,4293.205078,4280.641113,4286.922852,4282.179688,4305.897461,4295.641113,4280.000000,4265.512695,4367.307617,4404.871582,4284.615234,4310.641113,1690.000000,0.000000,12.000000,,,,0.000000,2.000000,2.000000,0.000000,2.000000,2.000000,2.000000,1.000000,2.000000,4.000000,4.000000,4.000000,4.000000,2.000000,4.000000,25.000000,,,,,,,,,,,,,,,,,,,,,,,,,,,,
1732081907.059748,1732081907.060579,98.000000,0.000000,4253.461426,4267.692383,4295.000000,4278.846191,4274.615234,4286.025879,4304.487305,4295.897461,4288.205078,4264.358887,4368.974121,4408.974121,4282.307617,4310.897461,1364.000000,0.000000,12.000000,,,,0.000000,2.000000,2.000000,0.000000,2.000000,2.000000,2.000000,1.000000,2.000000,4.000000,4.000000,4.000000,4.000000,2.000000,4.000000,25.000000,,,,,,,,,,,,,,,,,,,,,,,,,,,,
1732081907.067556,1732081907.068388,99.000000,0.000000,4252.436035,4265.769043,4294.487305,4281.153809,4267.820313,4286.153809,4306.410156,4297.948730,4287.948730,4263.589844,4368.333496,4411.410156,4287.948730,4309.230957,1499.000000,0.000000,12.000000,,,,0.000000,2.000000,2.000000,0.000000,2.000000,2.000000,2.000000,1.000000,2.000000,4.000000,4.000000,4.000000,4.000000,2.000000,4.000000,25.000000,,,,,,,,,,,,,,,,,,,,,,,,,,,,
1732081907.075364,1732081907.076096,100.000000,0.000000,4257.051270,4272.563965,4291.794922,4280.384766,4274.615234,4280.897461,4306.922852,4295.256348,4279.743652,4262.436035,4362.948730,4404.615234,4288.333496,4308.461426,1728.000000,0.000000,12.000000,,,,0.000000,2.000000,2.000000,0.000000,2.000000,2.000000,2.000000,1.000000,2.000000,4.000000,4.000000,4.000000,4.000000,2.000000,4.000000,25.000000,,,,,,,,,,,,,,,,,25.000000,0.000000,0.621968,0.394775,-0.598816,0.314209,0.959101,0.094738,-0.040044,-76.162224,63.438950,29.004314
1732081907.083172,1732081907.083904,101.000000,0.000000,4256.666504,4273.077148,4292.307617,4273.974121,4276.922852,4281.025879,4305.256348,4292.820313,4278.974121,4262.179688,4363.717773,4405.641113,4282.948730,4309.230957,1690.000000,0.000000,12.000000,,,,0.000000,2.000000,2.000000,0.000000,2.000000,2.000000,2.000000,1.000000,2.000000,4.000000,4.000000,4.000000,4.000000,2.000000,4.000000,25.000000,,,,,,,,,,,,,,,,,,,,,,,,,,,,
1732081907.090981,1732081907.091512,102.000000,0.000000,4252.820313,4263.077148,4293.717773,4271.025879,4275.000000,4287.307617,4303.333496,4296.025879,4287.436035,4266.538574,4371.025879,4408.461426,4283.846191,4311.025879,1364.000000,0.000000,12.000000,,,,0.000000,2.000000,2.000000,0.000000,2.000000,2.000000,2.000000,1.000000,2.000000,4.000000,4.000000,4.000000,4.000000,2.000000,4.000000,25.000000,,,,,,,,,,,,,,,,,,,,,,,,,,,,
1732081907.098789,1732081907.099321,103.000000,0.000000,4252.179688,4263.461426,4293.974121,4271.410156,4283.333496,4285.256348,4303.589844,4296.666504,4288.846191,4269.102539,4370.512695,4406.666504,4290.256348,4316.282227,1499.000000,0.000000,12.000000,,,,0.000000,2.000000,2.000000,0.000000,2.000000,2.000000,2.000000,1.000000,2.000000,4.000000,4.000000,4.000000,4.000000,2.000000,4.000000,25.000000,,,,,,,,,,,,,,,,,,,,,,,,,,,,
1732081907.106597,1732081907.107029,104.000000,0.000000,4254.487305,4271.025879,4291.410156,4270.000000,4280.384766,4279.358887,4302.436035,4294.102539,4281.282227,4264.102539,4367.820313,4410.641113,4291.794922,4319.871582,1728.000000,0.000000,12.000000,,,,0.000000,2.000000,2.000000,0.000000,2.000000,2.000000,2.000000,1.000000,2.000000,4.000000,4.000000,4.000000,4.000000,2.000000,4.000000,25.000000,,,,,,,,,,,,,,,,,26.000000,0.000000,0.621882,0.394775,-0.598938,0.314148,0.970822,0.093273,-0.038579,-76.226402,63.323883,28.908495
1732081907.114406,1732081907.114837,105.000000,0.000000,4261.538574,4271.153809,4292.692383,4272.307617,4266.025879,4280.128418,4301.282227,4292.820313,4279.102539,4263.205078,4375.000000,4413.589844,4291.282227,4323.205078,1690.000000,0.000000,12.000000,,,,0.000000,2.000000,2.000000,0.000000,2.000000,2.000000,2.000000,1.000000,2.000000,4.000000,4.000000,4.000000,4.000000,2.000000,4.000000,25.000000,,,,,,,,,,,,,,,,,,,,,,,,,,,,
1732081907.122214,1732081907.122446,106.000000,0.000000,4266.666504,4270.769043,4295.512695,4280.641113,4264.871582,4283.333496,4302.307617,4292.307617,4285.000000,4266.282227,4380.769043,4407.692383,4294.871582,4325.897461,1364.000000,0.000000,12.000000,,,,0.000000,2.000000,2.000000,0.000000,2.000000,2.000000,2.000000,1.000000,2.000000,4.000000,4.000000,4.000000,4.000000,2.000000,4.000000,25.000000,,,,,,,,,,,,,,,,,,,,,,,,,,,,
1732081907.130022,1732081907.130254,107.000000,0.000000,4261.794922,4273.205078,4297.692383,4282.692383,4272.692383,4283.589844,4304.487305,4292.820313,4287.692383,4266.025879,4377.820313,4406.538574,4296.922852,4321.538574,1499.000000,0.000000,12.000000,,,,0.000000,2.000000,2.000000,0.000000,2.000000,2.000000,2.000000,1.000000,2.000000,4.000000,4.000000,4.000000,4.000000,2.000000,4.000000,25.000000,,,,,,,,,,,,,,,,,,,,,,,,,,,,
1732081907.137830,1732081907.137962,108.000000,0.000000,4255.641113,4269.615234,4295.000000,4279.871582,4275.641113,4282.692383,4305.384766,4295.769043,4285.128418,4265.000000,4376.153809,4407.436035,4294.102539,4314.615234,1728.000000,0.000000,12.000000,,,,0.000000,2.000000,2.000000,0.000000,2.000000,2.000000,2.000000,1.000000,2.000000,4.000000,4.000000,4.000000,4.000000,2.000000,4.000000,25.000000,,,,,,,,,,,,,,,,,27.000000,0.000000,0.621493,0.395325,-0.598755,0.314575,0.974240,0.106947,-0.039067,-76.246719,63.325680,28.387548
1732081907.145639,1732081907.145770,109.000000,0.000000,4259.615234,4265.769043,4292.179688,4280.384766,4271.410156,4281.538574,4302.563965,4296.025879,4281.282227,4264.743652,4380.897461,4402.692383,4297.179688,4317.436035,1690.000000,0.000000,12.000000,,,,0.000000,2.000000,2.000000,0.000000,2.000000,2.000000,2.000000,1.000000,2.000000,4.000000,4.000000,4.000000,4.000000,2.000000,4.000000,25.000000,,,,,,,,,,,,,,,,,,,,,,,,,,,,
